06/03/2022	18:48:20	Ver.	4.1	UNKNOWN
Optical Delay	475.008614	Delta X		0.078125	Sweeps	1	Scan Rate	0/0
Coordinates	Axis 1	NaN	Axis 2	NaN	Axis 3	NaN	Axis 4	NaN	Axis 5	NaN	Axis 6	0.000000
TX Power	0.000000	RX Power	0.000000

475.009	0.0184970
475.087	0.0186106
475.165	0.0187963
475.243	0.0187158
475.321	0.0188246
475.399	0.0187892
475.477	0.0188657
475.555	0.0187469
475.634	0.0189003
475.712	0.0186430
475.790	0.0187397
475.868	0.0188623
475.946	0.0188528
476.024	0.0187187
476.102	0.0187525
476.180	0.0188904
476.259	0.0188960
476.337	0.0188078
476.415	0.0187978
476.493	0.0187258
476.571	0.0186439
476.649	0.0188344
476.727	0.0188056
476.805	0.0188659
476.884	0.0187736
476.962	0.0187724
477.040	0.0187611
477.118	0.0186829
477.196	0.0187663
477.274	0.0187054
477.352	0.0188445
477.430	0.0187041
477.509	0.0187102
477.587	0.0188704
477.665	0.0188149
477.743	0.0187188
477.821	0.0187215
477.899	0.0187234
477.977	0.0187901
478.055	0.0187759
478.134	0.0188866
478.212	0.0187277
478.290	0.0187906
478.368	0.0187067
478.446	0.0187666
478.524	0.0187103
478.602	0.0187324
478.680	0.0186287
478.759	0.0187431
478.837	0.0187262
478.915	0.0186263
478.993	0.0186546
479.071	0.0186672
479.149	0.0186150
479.227	0.0185061
479.305	0.0185561
479.384	0.0186745
479.462	0.0186416
479.540	0.0187245
479.618	0.0185448
479.696	0.0185336
479.774	0.0185019
479.852	0.0185487
479.930	0.0185023
480.009	0.0184287
480.087	0.0184443
480.165	0.0184543
480.243	0.0183633
480.321	0.0186205
480.399	0.0186098
480.477	0.0184222
480.555	0.0184277
480.634	0.0183749
480.712	0.0183341
480.790	0.0182898
480.868	0.0184260
480.946	0.0183662
481.024	0.0183508
481.102	0.0184273
481.180	0.0183209
481.259	0.0183363
481.337	0.0184761
481.415	0.0184862
481.493	0.0183443
481.571	0.0183768
481.649	0.0184111
481.727	0.0183361
481.805	0.0183484
481.884	0.0183556
481.962	0.0183297
482.040	0.0181618
482.118	0.0182470
482.196	0.0182386
482.274	0.0183038
482.352	0.0183054
482.430	0.0182494
482.509	0.0184824
482.587	0.0182545
482.665	0.0181591
482.743	0.0183957
482.821	0.0181990
482.899	0.0183335
482.977	0.0184440
483.055	0.0184002
483.134	0.0183468
483.212	0.0183274
483.290	0.0183570
483.368	0.0183344
483.446	0.0184619
483.524	0.0183699
483.602	0.0183611
483.680	0.0184785
483.759	0.0184566
483.837	0.0184268
483.915	0.0184654
483.993	0.0185207
484.071	0.0184303
484.149	0.0183913
484.227	0.0184284
484.305	0.0183915
484.384	0.0184988
484.462	0.0185197
484.540	0.0186008
484.618	0.0185217
484.696	0.0183713
484.774	0.0186269
484.852	0.0184318
484.930	0.0183588
485.009	0.0184294
485.087	0.0184749
485.165	0.0185271
485.243	0.0185033
485.321	0.0184663
485.399	0.0186431
485.477	0.0185802
485.555	0.0186965
485.634	0.0185894
485.712	0.0186185
485.790	0.0186622
485.868	0.0186723
485.946	0.0186148
486.024	0.0187004
486.102	0.0187109
486.180	0.0187378
486.259	0.0186610
486.337	0.0187148
486.415	0.0188895
486.493	0.0188275
486.571	0.0189301
486.649	0.0187197
486.727	0.0187505
486.805	0.0188213
486.884	0.0189332
486.962	0.0189843
487.040	0.0189294
487.118	0.0189920
487.196	0.0189040
487.274	0.0189205
487.352	0.0189826
487.430	0.0189641
487.509	0.0190112
487.587	0.0189956
487.665	0.0188060
487.743	0.0188770
487.821	0.0189928
487.899	0.0188892
487.977	0.0188509
488.055	0.0188757
488.134	0.0187361
488.212	0.0188811
488.290	0.0188300
488.368	0.0187804
488.446	0.0187405
488.524	0.0187849
488.602	0.0186132
488.680	0.0187053
488.759	0.0186735
488.837	0.0187236
488.915	0.0186636
488.993	0.0185404
489.071	0.0185574
489.149	0.0184869
489.227	0.0184158
489.305	0.0184621
489.384	0.0183971
489.462	0.0184402
489.540	0.0183849
489.618	0.0182516
489.696	0.0185085
489.774	0.0184169
489.852	0.0183396
489.930	0.0183917
490.009	0.0183338
490.087	0.0183390
490.165	0.0183467
490.243	0.0184015
490.321	0.0184971
490.399	0.0183977
490.477	0.0183321
490.555	0.0183510
490.634	0.0183941
490.712	0.0183198
490.790	0.0183904
490.868	0.0184138
490.946	0.0183264
491.024	0.0183828
491.102	0.0183358
491.180	0.0183458
491.259	0.0183508
491.337	0.0182767
491.415	0.0182915
491.493	0.0184150
491.571	0.0183047
491.649	0.0181660
491.727	0.0182867
491.805	0.0183180
491.884	0.0182847
491.962	0.0181544
492.040	0.0182652
492.118	0.0183102
492.196	0.0182633
492.274	0.0182788
492.352	0.0182673
492.430	0.0181393
492.509	0.0182169
492.587	0.0183356
492.665	0.0183736
492.743	0.0182697
492.821	0.0181898
492.899	0.0181385
492.977	0.0182687
493.055	0.0183392
493.134	0.0182561
493.212	0.0183198
493.290	0.0182835
493.368	0.0181676
493.446	0.0183140
493.524	0.0181746
493.602	0.0183407
493.680	0.0181897
493.759	0.0183495
493.837	0.0182639
493.915	0.0181947
493.993	0.0183149
494.071	0.0181987
494.149	0.0183820
494.227	0.0184078
494.305	0.0183770
494.384	0.0183757
494.462	0.0184148
494.540	0.0182217
494.618	0.0183126
494.696	0.0183418
494.774	0.0184863
494.852	0.0184184
494.930	0.0183737
495.009	0.0184678
495.087	0.0184960
495.165	0.0183197
495.243	0.0184701
495.321	0.0185202
495.399	0.0185383
495.477	0.0184591
495.555	0.0185361
495.634	0.0185377
495.712	0.0185788
495.790	0.0185209
495.868	0.0185065
495.946	0.0186269
496.024	0.0186686
496.102	0.0185362
496.180	0.0187358
496.259	0.0186053
496.337	0.0185907
496.415	0.0185685
496.493	0.0187083
496.571	0.0185964
496.649	0.0186220
496.727	0.0187077
496.805	0.0186295
496.884	0.0186013
496.962	0.0187615
497.040	0.0187550
497.118	0.0186539
497.196	0.0186613
497.274	0.0187366
497.352	0.0187400
497.430	0.0187589
497.509	0.0188124
497.587	0.0186907
497.665	0.0187234
497.743	0.0186586
497.821	0.0187254
497.899	0.0187763
497.977	0.0187144
498.055	0.0187956
498.134	0.0188519
498.212	0.0187269
498.290	0.0187125
498.368	0.0188123
498.446	0.0187399
498.524	0.0186711
498.602	0.0187036
498.680	0.0188452
498.759	0.0187038
498.837	0.0186900
498.915	0.0186703
498.993	0.0186553
499.071	0.0185697
499.149	0.0187589
499.227	0.0186506
499.305	0.0187530
499.384	0.0186056
499.462	0.0186076
499.540	0.0186691
499.618	0.0186702
499.696	0.0187514
499.774	0.0186876
499.852	0.0185155
499.930	0.0186279
500.009	0.0188647
500.087	0.0186935
500.165	0.0185417
500.243	0.0185858
500.321	0.0185034
500.399	0.0186421
500.477	0.0186340
500.555	0.0186977
500.634	0.0185487
500.712	0.0186635
500.790	0.0186147
500.868	0.0184355
500.946	0.0185043
501.024	0.0185972
501.102	0.0185123
501.180	0.0185756
501.259	0.0184068
501.337	0.0184945
501.415	0.0185538
501.493	0.0184884
501.571	0.0185119
501.649	0.0186142
501.727	0.0183981
501.805	0.0183450
501.884	0.0184898
501.962	0.0184534
502.040	0.0185566
502.118	0.0183603
502.196	0.0184731
502.274	0.0185052
502.352	0.0184010
502.430	0.0183588
502.509	0.0183145
502.587	0.0185116
502.665	0.0183482
502.743	0.0183737
502.821	0.0184413
502.899	0.0183883
502.977	0.0182855
503.055	0.0184093
503.134	0.0183676
503.212	0.0184028
503.290	0.0183841
503.368	0.0184843
503.446	0.0183881
503.524	0.0182415
503.602	0.0183352
503.680	0.0183852
503.759	0.0182833
503.837	0.0183647
503.915	0.0183849
503.993	0.0182844
504.071	0.0183539
504.149	0.0183417
504.227	0.0183279
504.305	0.0183322
504.384	0.0183383
504.462	0.0181757
504.540	0.0183755
504.618	0.0182762
504.696	0.0183101
504.774	0.0183366
504.852	0.0182712
504.930	0.0183737
505.009	0.0183185
505.087	0.0182821
505.165	0.0181271
505.243	0.0181913
505.321	0.0183102
505.399	0.0183416
505.477	0.0182668
505.555	0.0183388
505.634	0.0183820
505.712	0.0182716
505.790	0.0184369
505.868	0.0183488
505.946	0.0183466
506.024	0.0182641
506.102	0.0183469
506.180	0.0183103
506.259	0.0183524
506.337	0.0183345
506.415	0.0183830
506.493	0.0183669
506.571	0.0184282
506.649	0.0183458
506.727	0.0183809
506.805	0.0182968
506.884	0.0181702
506.962	0.0184608
507.040	0.0184398
507.118	0.0183749
507.196	0.0184071
507.274	0.0183252
507.352	0.0185124
507.430	0.0183073
507.509	0.0183985
507.587	0.0183865
507.665	0.0184532
507.743	0.0183894
507.821	0.0183172
507.899	0.0183910
507.977	0.0183624
508.055	0.0184856
508.134	0.0184498
508.212	0.0185249
508.290	0.0184167
508.368	0.0183155
508.446	0.0184660
508.524	0.0185027
508.602	0.0185277
508.680	0.0182732
508.759	0.0184378
508.837	0.0184803
508.915	0.0184333
508.993	0.0184972
509.071	0.0183487
509.149	0.0183652
509.227	0.0184646
509.305	0.0183976
509.384	0.0184303
509.462	0.0183533
509.540	0.0183439
509.618	0.0185078
509.696	0.0183869
509.774	0.0184390
509.852	0.0183522
509.930	0.0184148
510.009	0.0184017
510.087	0.0184154
510.165	0.0184573
510.243	0.0184698
510.321	0.0184858
510.399	0.0183902
510.477	0.0185764
510.555	0.0185642
510.634	0.0186050
510.712	0.0186080
510.790	0.0185139
510.868	0.0185434
510.946	0.0186361
511.024	0.0187982
511.102	0.0185233
511.180	0.0185883
511.259	0.0185468
511.337	0.0186897
511.415	0.0187491
511.493	0.0186181
511.571	0.0186878
511.649	0.0187790
511.727	0.0187096
511.805	0.0187283
511.884	0.0189725
511.962	0.0187945
512.040	0.0187444
512.118	0.0188676
512.196	0.0188581
512.274	0.0188290
512.352	0.0188474
512.430	0.0189300
512.509	0.0188308
512.587	0.0189334
512.665	0.0187699
512.743	0.0187331
512.821	0.0189071
512.899	0.0188791
512.977	0.0189761
513.055	0.0189685
513.134	0.0188187
513.212	0.0189257
513.290	0.0188161
513.368	0.0187914
513.446	0.0189459
513.524	0.0189861
513.602	0.0190026
513.680	0.0190285
513.759	0.0190159
513.837	0.0190392
513.915	0.0188490
513.993	0.0190855
514.071	0.0190263
514.149	0.0189375
514.227	0.0190164
514.305	0.0189462
514.384	0.0188703
514.462	0.0191367
514.540	0.0190548
514.618	0.0188969
514.696	0.0190244
514.774	0.0191702
514.852	0.0191393
514.930	0.0191629
515.009	0.0190960
515.087	0.0191884
515.165	0.0191061
515.243	0.0191801
515.321	0.0191193
515.399	0.0192175
515.477	0.0191822
515.555	0.0190908
515.634	0.0192019
515.712	0.0192072
515.790	0.0189442
515.868	0.0190970
515.946	0.0189381
516.024	0.0190311
516.102	0.0188881
516.180	0.0189288
516.259	0.0189722
516.337	0.0188902
516.415	0.0189435
516.493	0.0187652
516.571	0.0186700
516.649	0.0186491
516.727	0.0187300
516.805	0.0187420
516.884	0.0186853
516.962	0.0185618
517.040	0.0185787
517.118	0.0184129
517.196	0.0183654
517.274	0.0184630
517.352	0.0184356
517.430	0.0184036
517.509	0.0183896
517.587	0.0183911
517.665	0.0182331
517.743	0.0181194
517.821	0.0182545
517.899	0.0182237
517.977	0.0181705
518.055	0.0180978
518.134	0.0181811
518.212	0.0180963
518.290	0.0181007
518.368	0.0180113
518.446	0.0180818
518.524	0.0179745
518.602	0.0181051
518.680	0.0180910
518.759	0.0180620
518.837	0.0181071
518.915	0.0181100
518.993	0.0180659
519.071	0.0180663
519.149	0.0179966
519.227	0.0179639
519.305	0.0181124
519.384	0.0180488
519.462	0.0179652
519.540	0.0178639
519.618	0.0180178
519.696	0.0179905
519.774	0.0179141
519.852	0.0180441
519.930	0.0179329
520.009	0.0178918
520.087	0.0177771
520.165	0.0178924
520.243	0.0180989
520.321	0.0180030
520.399	0.0178590
520.477	0.0179285
520.555	0.0179321
520.634	0.0180383
520.712	0.0180079
520.790	0.0180163
520.868	0.0179527
520.946	0.0179605
521.024	0.0180260
521.102	0.0180876
521.180	0.0180878
521.259	0.0181329
521.337	0.0181871
521.415	0.0183106
521.493	0.0183324
521.571	0.0183750
521.649	0.0183183
521.727	0.0183286
521.805	0.0183495
521.884	0.0184699
521.962	0.0185011
522.040	0.0184734
522.118	0.0185582
522.196	0.0186478
522.274	0.0186533
522.352	0.0185741
522.430	0.0186446
522.509	0.0186010
522.587	0.0186613
522.665	0.0187103
522.743	0.0187376
522.821	0.0187949
522.899	0.0188699
522.977	0.0189935
523.055	0.0187821
523.134	0.0187951
523.212	0.0188665
523.290	0.0188291
523.368	0.0187978
523.446	0.0189466
523.524	0.0188960
523.602	0.0188102
523.680	0.0188447
523.759	0.0188399
523.837	0.0190208
523.915	0.0188486
523.993	0.0189932
524.071	0.0190154
524.149	0.0189467
524.227	0.0189536
524.305	0.0189301
524.384	0.0188781
524.462	0.0189259
524.540	0.0188064
524.618	0.0188719
524.696	0.0186274
524.774	0.0187815
524.852	0.0186633
524.930	0.0187321
525.009	0.0187299
525.087	0.0186514
525.165	0.0184496
525.243	0.0185908
525.321	0.0185152
525.399	0.0185544
525.477	0.0185305
525.555	0.0186632
525.634	0.0184433
525.712	0.0184393
525.790	0.0186140
525.868	0.0185030
525.946	0.0185153
526.024	0.0184481
526.102	0.0185173
526.180	0.0183465
526.259	0.0183493
526.337	0.0183978
526.415	0.0183247
526.493	0.0184840
526.571	0.0184565
526.649	0.0184338
526.727	0.0184245
526.805	0.0184319
526.884	0.0183001
526.962	0.0183724
527.040	0.0182645
527.118	0.0182202
527.196	0.0183585
527.274	0.0182923
527.352	0.0182118
527.430	0.0182664
527.509	0.0181624
527.587	0.0182298
527.665	0.0180490
527.743	0.0181562
527.821	0.0181874
527.899	0.0180846
527.977	0.0180338
528.055	0.0179862
528.134	0.0180936
528.212	0.0181942
528.290	0.0180341
528.368	0.0179783
528.446	0.0179478
528.524	0.0180771
528.602	0.0180479
528.680	0.0179140
528.759	0.0180351
528.837	0.0179738
528.915	0.0180840
528.993	0.0180733
529.071	0.0179566
529.149	0.0179950
529.227	0.0179989
529.305	0.0180729
529.384	0.0179934
529.462	0.0180587
529.540	0.0180680
529.618	0.0180505
529.696	0.0180207
529.774	0.0180349
529.852	0.0181565
529.930	0.0180721
530.009	0.0181034
530.087	0.0181512
530.165	0.0179827
530.243	0.0182005
530.321	0.0182246
530.399	0.0183186
530.477	0.0182068
530.555	0.0181934
530.634	0.0181775
530.712	0.0182176
530.790	0.0182135
530.868	0.0182864
530.946	0.0182267
531.024	0.0182101
531.102	0.0185146
531.180	0.0183540
531.259	0.0182609
531.337	0.0185278
531.415	0.0183841
531.493	0.0183997
531.571	0.0184354
531.649	0.0185011
531.727	0.0184023
531.805	0.0183887
531.884	0.0183953
531.962	0.0184714
532.040	0.0185033
532.118	0.0184913
532.196	0.0185335
532.274	0.0184295
532.352	0.0185326
532.430	0.0186339
532.509	0.0186540
532.587	0.0185413
532.665	0.0186589
532.743	0.0187422
532.821	0.0186030
532.899	0.0187994
532.977	0.0186459
533.055	0.0186604
533.134	0.0187460
533.212	0.0187844
533.290	0.0188556
533.368	0.0186899
533.446	0.0188248
533.524	0.0190757
533.602	0.0188982
533.680	0.0189498
533.759	0.0189167
533.837	0.0190932
533.915	0.0190306
533.993	0.0190772
534.071	0.0191602
534.149	0.0189993
534.227	0.0192328
534.305	0.0191251
534.384	0.0191583
534.462	0.0192755
534.540	0.0192293
534.618	0.0192619
534.696	0.0191885
534.774	0.0192588
534.852	0.0193198
534.930	0.0192841
535.009	0.0192327
535.087	0.0194087
535.165	0.0192731
535.243	0.0193154
535.321	0.0193077
535.399	0.0194021
535.477	0.0193456
535.555	0.0193180
535.634	0.0191583
535.712	0.0193297
535.790	0.0193294
535.868	0.0193260
535.946	0.0193076
536.024	0.0193927
536.102	0.0193134
536.180	0.0192593
536.259	0.0192635
536.337	0.0192763
536.415	0.0193003
536.493	0.0192474
536.571	0.0192162
536.649	0.0193031
536.727	0.0193684
536.805	0.0193374
536.884	0.0193222
536.962	0.0195347
537.040	0.0194981
537.118	0.0194386
537.196	0.0194039
537.274	0.0193050
537.352	0.0193172
537.430	0.0191528
537.509	0.0192664
537.587	0.0189464
537.665	0.0189070
537.743	0.0190502
537.821	0.0188988
537.899	0.0187567
537.977	0.0185876
538.055	0.0186153
538.134	0.0184353
538.212	0.0183843
538.290	0.0184126
538.368	0.0183405
538.446	0.0181532
538.524	0.0182220
538.602	0.0182813
538.680	0.0183189
538.759	0.0179887
538.837	0.0179845
538.915	0.0178997
538.993	0.0180020
539.071	0.0178971
539.149	0.0178285
539.227	0.0177656
539.305	0.0177255
539.384	0.0173550
539.462	0.0172807
539.540	0.0171735
539.618	0.0171801
539.696	0.0171803
539.774	0.0169050
539.852	0.0168283
539.930	0.0167577
540.009	0.0166807
540.087	0.0169891
540.165	0.0169029
540.243	0.0166189
540.321	0.0167726
540.399	0.0169702
540.477	0.0168992
540.555	0.0168559
540.634	0.0169959
540.712	0.0171531
540.790	0.0172835
540.868	0.0173325
540.946	0.0174113
541.024	0.0176231
541.102	0.0176044
541.180	0.0176376
541.259	0.0177032
541.337	0.0178442
541.415	0.0179470
541.493	0.0179723
541.571	0.0178533
541.649	0.0180027
541.727	0.0179855
541.805	0.0178889
541.884	0.0180025
541.962	0.0181348
542.040	0.0179848
542.118	0.0180361
542.196	0.0179845
542.274	0.0176870
542.352	0.0178155
542.430	0.0177026
542.509	0.0178065
542.587	0.0177115
542.665	0.0176620
542.743	0.0176781
542.821	0.0175268
542.899	0.0176045
542.977	0.0176509
543.055	0.0177540
543.134	0.0177361
543.212	0.0177552
543.290	0.0180276
543.368	0.0180951
543.446	0.0182084
543.524	0.0184681
543.602	0.0185345
543.680	0.0186653
543.759	0.0188258
543.837	0.0189387
543.915	0.0190846
543.993	0.0192900
544.071	0.0194418
544.149	0.0195961
544.227	0.0197442
544.305	0.0198456
544.384	0.0199475
544.462	0.0199850
544.540	0.0199770
544.618	0.0201401
544.696	0.0203269
544.774	0.0201430
544.852	0.0201324
544.930	0.0200951
545.009	0.0201514
545.087	0.0202531
545.165	0.0203386
545.243	0.0203587
545.321	0.0203131
545.399	0.0204481
545.477	0.0203255
545.555	0.0201491
545.634	0.0202847
545.712	0.0202475
545.790	0.0201504
545.868	0.0201077
545.946	0.0200912
546.024	0.0197532
546.102	0.0198558
546.180	0.0197672
546.259	0.0197313
546.337	0.0196315
546.415	0.0196117
546.493	0.0193893
546.571	0.0192500
546.649	0.0192230
546.727	0.0190900
546.805	0.0189648
546.884	0.0188799
546.962	0.0186709
547.040	0.0185811
547.118	0.0186044
547.196	0.0184434
547.274	0.0182666
547.352	0.0183689
547.430	0.0183664
547.509	0.0182755
547.587	0.0182818
547.665	0.0182072
547.743	0.0181211
547.821	0.0181243
547.899	0.0181046
547.977	0.0181892
548.055	0.0180984
548.134	0.0182780
548.212	0.0181911
548.290	0.0181082
548.368	0.0180954
548.446	0.0182176
548.524	0.0182207
548.602	0.0181608
548.680	0.0182319
548.759	0.0182693
548.837	0.0182060
548.915	0.0180736
548.993	0.0182059
549.071	0.0181938
549.149	0.0181676
549.227	0.0181194
549.305	0.0180827
549.384	0.0181930
549.462	0.0179680
549.540	0.0180310
549.618	0.0180798
549.696	0.0179707
549.774	0.0179591
549.852	0.0180772
549.930	0.0181274
550.009	0.0180484
550.087	0.0180443
550.165	0.0180181
550.243	0.0180326
550.321	0.0179591
550.399	0.0180632
550.477	0.0180222
550.555	0.0178757
550.634	0.0177937
550.712	0.0178374
550.790	0.0178659
550.868	0.0177789
550.946	0.0176544
551.024	0.0176978
551.102	0.0177106
551.180	0.0176425
551.259	0.0177944
551.337	0.0177621
551.415	0.0179008
551.493	0.0177719
551.571	0.0179970
551.649	0.0179493
551.727	0.0180227
551.805	0.0180283
551.884	0.0180452
551.962	0.0182055
552.040	0.0180673
552.118	0.0180106
552.196	0.0180408
552.274	0.0182605
552.352	0.0183163
552.430	0.0180404
552.509	0.0182071
552.587	0.0181052
552.665	0.0181158
552.743	0.0182726
552.821	0.0182183
552.899	0.0180956
552.977	0.0182191
553.055	0.0183167
553.134	0.0183202
553.212	0.0183974
553.290	0.0182973
553.368	0.0183082
553.446	0.0183830
553.524	0.0184489
553.602	0.0185786
553.680	0.0185823
553.759	0.0185349
553.837	0.0187165
553.915	0.0186813
553.993	0.0186809
554.071	0.0187257
554.149	0.0188371
554.227	0.0188260
554.305	0.0188587
554.384	0.0188515
554.462	0.0188299
554.540	0.0188631
554.618	0.0188833
554.696	0.0188519
554.774	0.0187085
554.852	0.0189917
554.930	0.0187355
555.009	0.0188135
555.087	0.0189140
555.165	0.0188194
555.243	0.0187971
555.321	0.0188516
555.399	0.0187414
555.477	0.0187513
555.555	0.0187948
555.634	0.0188591
555.712	0.0187980
555.790	0.0187454
555.868	0.0188409
555.946	0.0187527
556.024	0.0187787
556.102	0.0187577
556.180	0.0188750
556.259	0.0188247
556.337	0.0190038
556.415	0.0189983
556.493	0.0188828
556.571	0.0189642
556.649	0.0189623
556.727	0.0190649
556.805	0.0189390
556.884	0.0189143
556.962	0.0190192
557.040	0.0189392
557.118	0.0190093
557.196	0.0189726
557.274	0.0190306
557.352	0.0188505
557.430	0.0189129
557.509	0.0188444
557.587	0.0187741
557.665	0.0188278
557.743	0.0189157
557.821	0.0187827
557.899	0.0188433
557.977	0.0187841
558.055	0.0187659
558.134	0.0187894
558.212	0.0187436
558.290	0.0188094
558.368	0.0187933
558.446	0.0188081
558.524	0.0188879
558.602	0.0186262
558.680	0.0187225
558.759	0.0186290
558.837	0.0185391
558.915	0.0185430
558.993	0.0185868
559.071	0.0183942
559.149	0.0184264
559.227	0.0184264
559.305	0.0183553
559.384	0.0183037
559.462	0.0184685
559.540	0.0182993
559.618	0.0182613
559.696	0.0182055
559.774	0.0182353
559.852	0.0180759
559.930	0.0181685
560.009	0.0181382
560.087	0.0180623
560.165	0.0180233
560.243	0.0179893
560.321	0.0179975
560.399	0.0179389
560.477	0.0180261
560.555	0.0181308
560.634	0.0180925
560.712	0.0179671
560.790	0.0180308
560.868	0.0180892
560.946	0.0180720
561.024	0.0181645
561.102	0.0180782
561.180	0.0181129
561.259	0.0181747
561.337	0.0181351
561.415	0.0182088
561.493	0.0180678
561.571	0.0183272
561.649	0.0181389
561.727	0.0180994
561.805	0.0182145
561.884	0.0182237
561.962	0.0182765
562.040	0.0181348
562.118	0.0181959
562.196	0.0182577
562.274	0.0182861
562.352	0.0182529
562.430	0.0183318
562.509	0.0182777
562.587	0.0184105
562.665	0.0184156
562.743	0.0184612
562.821	0.0185277
562.899	0.0184883
562.977	0.0187014
563.055	0.0187839
563.134	0.0187373
563.212	0.0186559
563.290	0.0187184
563.368	0.0185197
563.446	0.0185764
563.524	0.0186587
563.602	0.0185088
563.680	0.0184779
563.759	0.0184208
563.837	0.0183876
563.915	0.0185054
563.993	0.0183672
564.071	0.0184126
564.149	0.0185272
564.227	0.0185176
564.305	0.0186388
564.384	0.0185846
564.462	0.0185634
564.540	0.0186367
564.618	0.0185710
564.696	0.0185808
564.774	0.0184798
564.852	0.0187197
564.930	0.0187811
565.009	0.0186617
565.087	0.0187232
565.165	0.0188166
565.243	0.0186502
565.321	0.0186741
565.399	0.0186389
565.477	0.0186806
565.555	0.0187326
565.634	0.0188029
565.712	0.0187423
565.790	0.0185891
565.868	0.0187692
565.946	0.0186359
566.024	0.0186236
566.102	0.0186087
566.180	0.0185461
566.259	0.0186652
566.337	0.0186422
566.415	0.0186546
566.493	0.0186593
566.571	0.0186620
566.649	0.0185588
566.727	0.0184823
566.805	0.0185657
566.884	0.0185514
566.962	0.0186817
567.040	0.0186375
567.118	0.0187537
567.196	0.0185580
567.274	0.0185167
567.352	0.0185198
567.430	0.0185374
567.509	0.0184605
567.587	0.0185379
567.665	0.0185768
567.743	0.0185111
567.821	0.0184595
567.899	0.0185301
567.977	0.0186400
568.055	0.0185468
568.134	0.0184660
568.212	0.0185647
568.290	0.0185345
568.368	0.0185206
568.446	0.0185580
568.524	0.0185842
568.602	0.0187163
568.680	0.0186064
568.759	0.0184463
568.837	0.0185763
568.915	0.0187459
568.993	0.0186335
569.071	0.0184632
569.149	0.0186310
569.227	0.0186496
569.305	0.0187497
569.384	0.0186391
569.462	0.0187350
569.540	0.0186584
569.618	0.0186668
569.696	0.0187362
569.774	0.0186462
569.852	0.0186977
569.930	0.0186633
570.009	0.0187049
570.087	0.0187809
570.165	0.0184879
570.243	0.0186014
570.321	0.0185468
570.399	0.0184966
570.477	0.0184826
570.555	0.0186284
570.634	0.0185024
570.712	0.0185498
570.790	0.0185911
570.868	0.0184855
570.946	0.0185184
571.024	0.0184277
571.102	0.0184814
571.180	0.0183682
571.259	0.0185043
571.337	0.0185144
571.415	0.0184977
571.493	0.0183710
571.571	0.0183431
571.649	0.0182726
571.727	0.0183480
571.805	0.0184666
571.884	0.0183511
571.962	0.0182657
572.040	0.0183231
572.118	0.0185047
572.196	0.0182821
572.274	0.0184724
572.352	0.0184500
572.430	0.0183405
572.509	0.0184671
572.587	0.0183466
572.665	0.0184142
572.743	0.0185085
572.821	0.0185236
572.899	0.0185521
572.977	0.0184975
573.055	0.0186546
573.134	0.0186150
573.212	0.0185745
573.290	0.0186092
573.368	0.0187397
573.446	0.0186569
573.524	0.0187545
573.602	0.0187329
573.680	0.0186627
573.759	0.0185773
573.837	0.0186572
573.915	0.0187340
573.993	0.0186662
574.071	0.0187444
574.149	0.0186751
574.227	0.0186910
574.305	0.0185607
574.384	0.0185293
574.462	0.0185775
574.540	0.0186472
574.618	0.0187773
574.696	0.0186589
574.774	0.0187373
574.852	0.0187428
574.930	0.0187822
575.009	0.0187218
575.087	0.0185616
575.165	0.0186477
575.243	0.0187136
575.321	0.0187631
575.399	0.0187837
575.477	0.0187716
575.555	0.0188364
575.634	0.0187796
575.712	0.0186184
575.790	0.0185969
575.868	0.0186221
575.946	0.0186856
576.024	0.0187036
576.102	0.0187344
576.180	0.0185423
576.259	0.0186187
576.337	0.0186320
576.415	0.0184858
576.493	0.0185321
576.571	0.0185374
576.649	0.0184904
576.727	0.0184837
576.805	0.0183570
576.884	0.0183411
576.962	0.0183787
577.040	0.0182981
577.118	0.0183630
577.196	0.0184512
577.274	0.0183167
577.352	0.0182996
577.430	0.0184390
577.509	0.0183157
577.587	0.0183473
577.665	0.0183775
577.743	0.0183786
577.821	0.0183705
577.899	0.0183197
577.977	0.0183850
578.055	0.0183099
578.134	0.0182473
578.212	0.0184264
578.290	0.0184357
578.368	0.0180444
578.446	0.0181780
578.524	0.0183244
578.602	0.0182374
578.680	0.0182221
578.759	0.0182311
578.837	0.0182790
578.915	0.0181881
578.993	0.0183358
579.071	0.0183046
579.149	0.0182849
579.227	0.0182523
579.305	0.0182264
579.384	0.0183044
579.462	0.0184345
579.540	0.0184041
579.618	0.0184642
579.696	0.0183539
579.774	0.0183411
579.852	0.0183987
579.930	0.0184023
580.009	0.0184397
580.087	0.0184923
580.165	0.0184012
580.243	0.0185326
580.321	0.0184712
580.399	0.0186220
580.477	0.0185223
580.555	0.0187210
580.634	0.0185825
580.712	0.0185397
580.790	0.0185905
580.868	0.0184557
580.946	0.0186665
581.024	0.0185873
581.102	0.0185049
581.180	0.0183421
581.259	0.0183727
581.337	0.0184010
581.415	0.0183796
581.493	0.0185191
581.571	0.0184010
581.649	0.0182478
581.727	0.0183149
581.805	0.0183082
581.884	0.0184164
581.962	0.0183015
582.040	0.0183711
582.118	0.0183263
582.196	0.0183860
582.274	0.0183600
582.352	0.0183454
582.430	0.0184199
582.509	0.0184946
582.587	0.0182441
582.665	0.0183715
582.743	0.0185274
582.821	0.0184410
582.899	0.0183308
582.977	0.0183402
583.055	0.0184351
583.134	0.0185065
583.212	0.0185418
583.290	0.0185836
583.368	0.0184682
583.446	0.0185091
583.524	0.0185684
583.602	0.0184924
583.680	0.0185830
583.759	0.0185696
583.837	0.0186623
583.915	0.0187312
583.993	0.0186639
584.071	0.0186626
584.149	0.0187918
584.227	0.0187730
584.305	0.0189177
584.384	0.0188042
584.462	0.0188725
584.540	0.0190147
584.618	0.0189022
584.696	0.0190275
584.774	0.0189486
584.852	0.0190080
584.930	0.0187714
585.009	0.0187990
585.087	0.0189230
585.165	0.0188383
585.243	0.0188338
585.321	0.0188370
585.399	0.0189352
585.477	0.0189366
585.555	0.0188249
585.634	0.0186126
585.712	0.0186340
585.790	0.0187863
585.868	0.0187511
585.946	0.0187971
586.024	0.0187155
586.102	0.0186346
586.180	0.0186265
586.259	0.0186798
586.337	0.0187628
586.415	0.0186357
586.493	0.0185446
586.571	0.0186446
586.649	0.0186838
586.727	0.0184927
586.805	0.0185441
586.884	0.0186413
586.962	0.0186076
587.040	0.0185708
587.118	0.0186771
587.196	0.0187044
587.274	0.0187430
587.352	0.0186584
587.430	0.0187559
587.509	0.0186488
587.587	0.0188237
587.665	0.0187839
587.743	0.0186951
587.821	0.0187805
587.899	0.0188505
587.977	0.0186852
588.055	0.0187318
588.134	0.0188203
588.212	0.0187610
588.290	0.0186484
588.368	0.0188448
588.446	0.0190238
588.524	0.0188568
588.602	0.0189023
588.680	0.0189108
588.759	0.0189233
588.837	0.0189297
588.915	0.0189101
588.993	0.0190083
589.071	0.0189925
589.149	0.0188447
589.227	0.0188968
589.305	0.0188695
589.384	0.0188411
589.462	0.0186713
589.540	0.0187062
589.618	0.0185870
589.696	0.0186208
589.774	0.0184171
589.852	0.0184420
589.930	0.0185691
590.009	0.0184706
590.087	0.0183099
590.165	0.0183980
590.243	0.0184433
590.321	0.0183469
590.399	0.0183060
590.477	0.0182935
590.555	0.0182111
590.634	0.0182041
590.712	0.0182913
590.790	0.0183015
590.868	0.0182960
590.946	0.0182882
591.024	0.0182572
591.102	0.0183773
591.180	0.0182535
591.259	0.0182975
591.337	0.0184166
591.415	0.0183794
591.493	0.0183889
591.571	0.0183528
591.649	0.0183529
591.727	0.0183672
591.805	0.0184821
591.884	0.0184538
591.962	0.0183732
592.040	0.0185775
592.118	0.0184663
592.196	0.0182854
592.274	0.0184695
592.352	0.0185287
592.430	0.0185802
592.509	0.0184640
592.587	0.0184721
592.665	0.0184763
592.743	0.0185072
592.821	0.0183978
592.899	0.0185333
592.977	0.0186230
593.055	0.0184487
593.134	0.0184538
593.212	0.0185458
593.290	0.0185422
593.368	0.0185129
593.446	0.0184174
593.524	0.0185094
593.602	0.0183736
593.680	0.0184865
593.759	0.0184539
593.837	0.0184398
593.915	0.0185047
593.993	0.0184525
594.071	0.0185432
594.149	0.0185072
594.227	0.0185224
594.305	0.0186126
594.384	0.0185491
594.462	0.0184502
594.540	0.0185904
594.618	0.0184982
594.696	0.0184961
594.774	0.0184651
594.852	0.0185320
594.930	0.0186279
595.009	0.0185690
595.087	0.0187362
595.165	0.0186012
595.243	0.0185307
595.321	0.0186983
595.399	0.0186598
595.477	0.0186914
595.555	0.0185900
595.634	0.0187782
595.712	0.0188313
595.790	0.0188220
595.868	0.0186987
595.946	0.0188129
596.024	0.0189088
596.102	0.0187502
596.180	0.0187344
596.259	0.0187234
596.337	0.0187392
596.415	0.0188238
596.493	0.0187246
596.571	0.0187397
596.649	0.0187370
596.727	0.0187228
596.805	0.0186948
596.884	0.0186183
596.962	0.0187703
597.040	0.0186315
597.118	0.0186138
597.196	0.0188407
597.274	0.0187695
597.352	0.0186258
597.430	0.0185594
597.509	0.0185910
597.587	0.0185921
597.665	0.0187144
597.743	0.0186689
597.821	0.0186082
597.899	0.0186353
597.977	0.0186283
598.055	0.0188958
598.134	0.0185558
598.212	0.0185565
598.290	0.0185966
598.368	0.0185979
598.446	0.0186159
598.524	0.0185764
598.602	0.0185580
598.680	0.0186180
598.759	0.0186355
598.837	0.0184927
598.915	0.0184992
598.993	0.0185313
599.071	0.0185123
599.149	0.0185793
599.227	0.0185630
599.305	0.0184087
599.384	0.0184682
599.462	0.0184866
599.540	0.0184687
599.618	0.0184174
599.696	0.0184715
599.774	0.0183208
599.852	0.0184535
599.930	0.0183125
600.009	0.0184019
600.087	0.0184980
600.165	0.0182604
600.243	0.0182404
600.321	0.0182613
600.399	0.0183478
600.477	0.0183822
600.555	0.0184712
600.634	0.0182191
600.712	0.0181193
600.790	0.0182462
600.868	0.0182265
600.946	0.0182322
601.024	0.0183180
601.102	0.0181703
601.180	0.0181677
601.259	0.0182501
601.337	0.0180009
601.415	0.0181187
601.493	0.0180834
601.571	0.0180202
601.649	0.0179266
601.727	0.0179934
601.805	0.0179704
601.884	0.0179298
601.962	0.0180001
602.040	0.0180683
602.118	0.0179104
602.196	0.0177958
602.274	0.0178683
602.352	0.0179247
602.430	0.0178132
602.509	0.0178616
602.587	0.0179273
602.665	0.0180749
602.743	0.0179425
602.821	0.0178026
602.899	0.0180399
602.977	0.0179517
603.055	0.0179620
603.134	0.0181156
603.212	0.0179943
603.290	0.0180173
603.368	0.0180137
603.446	0.0181442
603.524	0.0181193
603.602	0.0181378
603.680	0.0181013
603.759	0.0180733
603.837	0.0181720
603.915	0.0181313
603.993	0.0180848
604.071	0.0181940
604.149	0.0181975
604.227	0.0181164
604.305	0.0182931
604.384	0.0183665
604.462	0.0183423
604.540	0.0182217
604.618	0.0183017
604.696	0.0182549
604.774	0.0182575
604.852	0.0183753
604.930	0.0184740
605.009	0.0184601
605.087	0.0184634
605.165	0.0183421
605.243	0.0184633
605.321	0.0185061
605.399	0.0185049
605.477	0.0185762
605.555	0.0185214
605.634	0.0184775
605.712	0.0187041
605.790	0.0184991
605.868	0.0185631
605.946	0.0186017
606.024	0.0185645
606.102	0.0185332
606.180	0.0186395
606.259	0.0185402
606.337	0.0185020
606.415	0.0185916
606.493	0.0187231
606.571	0.0186032
606.649	0.0185637
606.727	0.0185950
606.805	0.0186169
606.884	0.0186340
606.962	0.0186938
607.040	0.0186463
607.118	0.0186607
607.196	0.0186505
607.274	0.0185975
607.352	0.0187306
607.430	0.0186024
607.509	0.0186952
607.587	0.0184749
607.665	0.0185973
607.743	0.0185576
607.821	0.0186333
607.899	0.0185828
607.977	0.0186250
608.055	0.0185471
608.134	0.0185466
608.212	0.0185238
608.290	0.0184657
608.368	0.0185175
608.446	0.0184172
608.524	0.0185964
608.602	0.0184190
608.680	0.0185046
608.759	0.0184997
608.837	0.0183412
608.915	0.0184472
608.993	0.0186407
609.071	0.0185930
609.149	0.0184575
609.227	0.0184741
609.305	0.0185298
609.384	0.0185260
609.462	0.0185556
609.540	0.0185777
609.618	0.0186769
609.696	0.0186722
609.774	0.0184081
609.852	0.0185653
609.930	0.0185606
610.009	0.0186360
610.087	0.0184578
610.165	0.0187675
610.243	0.0186300
610.321	0.0187200
610.399	0.0185654
610.477	0.0186492
610.555	0.0186179
610.634	0.0188344
610.712	0.0187804
610.790	0.0186263
610.868	0.0185825
610.946	0.0187033
611.024	0.0186521
611.102	0.0186552
611.180	0.0186530
611.259	0.0187616
611.337	0.0186691
611.415	0.0186784
611.493	0.0185094
611.571	0.0186999
611.649	0.0187587
611.727	0.0187431
611.805	0.0187980
611.884	0.0187428
611.962	0.0186739
612.040	0.0186754
612.118	0.0187339
612.196	0.0186876
612.274	0.0187204
612.352	0.0186430
612.430	0.0186283
612.509	0.0187751
612.587	0.0185468
612.665	0.0185747
612.743	0.0186420
612.821	0.0186352
612.899	0.0186665
612.977	0.0186261
613.055	0.0186489
613.134	0.0186963
613.212	0.0188028
613.290	0.0185969
613.368	0.0185189
613.446	0.0187801
613.524	0.0187514
613.602	0.0186266
613.680	0.0184982
613.759	0.0186623
613.837	0.0186750
613.915	0.0186268
613.993	0.0186835
614.071	0.0184988
614.149	0.0186642
614.227	0.0186283
614.305	0.0187297
614.384	0.0186897
614.462	0.0186194
614.540	0.0187124
614.618	0.0186716
614.696	0.0187415
614.774	0.0185878
614.852	0.0185909
614.930	0.0185956
615.009	0.0187593
615.087	0.0187233
615.165	0.0185156
615.243	0.0187852
615.321	0.0188092
615.399	0.0185620
615.477	0.0186358
615.555	0.0187186
615.634	0.0185814
615.712	0.0185739
615.790	0.0186359
615.868	0.0186979
615.946	0.0186909
616.024	0.0186618
616.102	0.0185436
616.180	0.0185851
616.259	0.0186797
616.337	0.0185506
616.415	0.0186201
616.493	0.0186276
616.571	0.0185919
616.649	0.0186423
616.727	0.0185867
616.805	0.0185363
616.884	0.0185231
616.962	0.0184679
617.040	0.0184657
617.118	0.0184460
617.196	0.0184908
617.274	0.0185100
617.352	0.0184504
617.430	0.0184000
617.509	0.0183084
617.587	0.0183826
617.665	0.0183578
617.743	0.0184969
617.821	0.0182964
617.899	0.0182589
617.977	0.0184901
618.055	0.0184002
618.134	0.0183748
618.212	0.0185308
618.290	0.0183448
618.368	0.0182733
618.446	0.0183569
618.524	0.0183910
618.602	0.0183199
618.680	0.0183317
618.759	0.0183621
618.837	0.0181972
618.915	0.0183617
618.993	0.0184078
619.071	0.0181281
619.149	0.0182523
619.227	0.0183145
619.305	0.0181572
619.384	0.0181077
619.462	0.0183027
619.540	0.0182842
619.618	0.0183251
619.696	0.0181933
619.774	0.0183640
619.852	0.0184164
619.930	0.0183102
620.009	0.0183414
620.087	0.0182914
620.165	0.0183009
620.243	0.0183596
620.321	0.0183345
620.399	0.0183743
620.477	0.0183798
620.555	0.0184136
620.634	0.0183305
620.712	0.0184850
620.790	0.0183846
620.868	0.0183906
620.946	0.0182935
621.024	0.0184947
621.102	0.0183441
621.180	0.0183832
621.259	0.0184848
621.337	0.0185558
621.415	0.0184139
621.493	0.0182811
621.571	0.0184406
621.649	0.0183422
621.727	0.0183823
621.805	0.0184707
621.884	0.0182948
621.962	0.0183258
622.040	0.0183689
622.118	0.0182728
622.196	0.0183367
622.274	0.0182890
622.352	0.0184840
622.430	0.0183927
622.509	0.0184039
622.587	0.0183329
622.665	0.0183157
622.743	0.0184972
622.821	0.0184193
622.899	0.0184086
622.977	0.0183350
623.055	0.0184133
623.134	0.0184297
623.212	0.0183495
623.290	0.0185990
623.368	0.0185031
623.446	0.0185778
623.524	0.0184319
623.602	0.0185204
623.680	0.0184923
623.759	0.0185578
623.837	0.0185484
623.915	0.0185927
623.993	0.0185664
624.071	0.0186648
624.149	0.0184664
624.227	0.0184071
624.305	0.0186819
624.384	0.0186317
624.462	0.0187027
624.540	0.0184720
624.618	0.0184048
624.696	0.0184921
624.774	0.0185690
624.852	0.0185155
624.930	0.0185839
625.009	0.0184879
625.087	0.0186446
625.165	0.0184573
625.243	0.0186278
625.321	0.0185439
625.399	0.0184811
625.477	0.0185399
625.555	0.0185930
625.634	0.0186169
625.712	0.0185269
625.790	0.0185396
625.868	0.0184998
625.946	0.0183622
626.024	0.0185747
626.102	0.0184029
626.180	0.0184327
626.259	0.0184837
626.337	0.0184383
626.415	0.0184333
626.493	0.0183760
626.571	0.0183775
626.649	0.0183806
626.727	0.0183145
626.805	0.0183708
626.884	0.0183364
626.962	0.0184520
627.040	0.0184013
627.118	0.0185312
627.196	0.0182183
627.274	0.0183131
627.352	0.0183234
627.430	0.0183788
627.509	0.0182553
627.587	0.0183389
627.665	0.0183577
627.743	0.0182619
627.821	0.0183756
627.899	0.0183461
627.977	0.0183395
628.055	0.0184047
628.134	0.0184004
628.212	0.0182988
628.290	0.0182397
628.368	0.0182570
628.446	0.0183466
628.524	0.0182766
628.602	0.0182484
628.680	0.0184605
628.759	0.0182622
628.837	0.0182439
628.915	0.0183051
628.993	0.0182785
629.071	0.0184337
629.149	0.0184313
629.227	0.0184013
629.305	0.0184739
629.384	0.0184499
629.462	0.0184862
629.540	0.0183272
629.618	0.0183601
629.696	0.0184743
629.774	0.0183257
629.852	0.0183639
629.930	0.0183219
630.009	0.0185012
630.087	0.0184288
630.165	0.0185065
630.243	0.0183829
630.321	0.0185542
630.399	0.0184283
630.477	0.0185727
630.555	0.0186823
630.634	0.0183897
630.712	0.0184097
630.790	0.0186102
630.868	0.0184737
630.946	0.0184767
631.024	0.0184802
631.102	0.0186500
631.180	0.0185334
631.259	0.0185352
631.337	0.0186531
631.415	0.0186613
631.493	0.0186906
631.571	0.0184746
631.649	0.0187099
631.727	0.0186999
631.805	0.0186983
631.884	0.0187702
631.962	0.0187077
632.040	0.0186127
632.118	0.0186914
632.196	0.0185723
632.274	0.0185831
632.352	0.0186056
632.430	0.0186560
632.509	0.0186964
632.587	0.0188073
632.665	0.0187225
632.743	0.0187036
632.821	0.0187037
632.899	0.0186806
632.977	0.0186546
633.055	0.0187449
633.134	0.0186958
633.212	0.0187933
633.290	0.0188492
633.368	0.0186730
633.446	0.0186628
633.524	0.0185149
633.602	0.0185062
633.680	0.0186539
633.759	0.0186832
633.837	0.0186617
633.915	0.0184334
633.993	0.0186560
634.071	0.0187031
634.149	0.0185648
634.227	0.0186846
634.305	0.0185785
634.384	0.0186672
634.462	0.0185737
634.540	0.0186172
634.618	0.0185857
634.696	0.0185562
634.774	0.0186263
634.852	0.0186295
634.930	0.0186314
635.009	0.0185348
635.087	0.0186703
635.165	0.0185577
635.243	0.0187041
635.321	0.0187029
635.399	0.0187433
635.477	0.0186444
635.555	0.0186729
635.634	0.0186832
635.712	0.0186808
635.790	0.0186689
635.868	0.0186146
635.946	0.0185703
636.024	0.0186568
636.102	0.0187225
636.180	0.0187882
636.259	0.0186157
636.337	0.0186363
636.415	0.0188458
636.493	0.0185200
636.571	0.0186450
636.649	0.0186952
636.727	0.0187084
636.805	0.0187325
636.884	0.0186034
636.962	0.0185932
637.040	0.0187399
637.118	0.0186520
637.196	0.0186986
637.274	0.0185554
637.352	0.0186148
637.430	0.0185380
637.509	0.0186144
637.587	0.0186750
637.665	0.0186825
637.743	0.0186453
637.821	0.0186684
637.899	0.0185863
637.977	0.0186468
638.055	0.0185944
638.134	0.0185409
638.212	0.0186755
638.290	0.0187189
638.368	0.0186676
638.446	0.0186333
638.524	0.0185589
638.602	0.0184564
638.680	0.0185650
638.759	0.0184775
638.837	0.0185217
638.915	0.0184425
638.993	0.0184542
639.071	0.0183906
639.149	0.0184070
639.227	0.0183005
639.305	0.0185027
639.384	0.0184888
639.462	0.0183060
639.540	0.0184679
639.618	0.0183401
639.696	0.0183263
639.774	0.0182325
639.852	0.0183496
639.930	0.0182852
640.009	0.0182903
640.087	0.0181630
640.165	0.0183655
640.243	0.0182890
640.321	0.0183318
640.399	0.0182938
640.477	0.0183434
640.555	0.0183289
640.634	0.0182505
640.712	0.0182465
640.790	0.0183167
640.868	0.0182545
640.946	0.0182597
641.024	0.0181796
641.102	0.0182359
641.180	0.0183826
641.259	0.0182410
641.337	0.0182684
641.415	0.0183577
641.493	0.0182633
641.571	0.0183848
641.649	0.0183929
641.727	0.0183998
641.805	0.0185114
641.884	0.0186107
641.962	0.0184916
642.040	0.0184872
642.118	0.0184377
642.196	0.0186272
642.274	0.0185428
642.352	0.0185231
642.430	0.0185206
642.509	0.0184143
642.587	0.0185176
642.665	0.0186556
642.743	0.0185934
642.821	0.0187742
642.899	0.0186087
642.977	0.0185242
643.055	0.0185745
643.134	0.0186339
643.212	0.0185197
643.290	0.0186742
643.368	0.0185693
643.446	0.0185139
643.524	0.0184972
643.602	0.0185177
643.680	0.0186150
643.759	0.0186530
643.837	0.0185380
643.915	0.0185139
643.993	0.0185035
644.071	0.0185851
644.149	0.0186782
644.227	0.0187257
644.305	0.0185925
644.384	0.0185992
644.462	0.0185305
644.540	0.0185255
644.618	0.0185991
644.696	0.0185769
644.774	0.0186936
644.852	0.0187032
644.930	0.0186385
645.009	0.0186635
645.087	0.0187694
645.165	0.0186606
645.243	0.0188322
645.321	0.0188148
645.399	0.0185319
645.477	0.0187109
645.555	0.0187006
645.634	0.0187332
645.712	0.0188034
645.790	0.0187064
645.868	0.0187028
645.946	0.0188254
646.024	0.0186742
646.102	0.0188649
646.180	0.0187550
646.259	0.0187093
646.337	0.0186768
646.415	0.0188359
646.493	0.0187524
646.571	0.0189478
646.649	0.0188414
646.727	0.0188219
646.805	0.0186904
646.884	0.0189226
646.962	0.0188967
647.040	0.0188732
647.118	0.0188277
647.196	0.0186880
647.274	0.0187982
647.352	0.0188245
647.430	0.0188298
647.509	0.0188254
647.587	0.0187588
647.665	0.0186567
647.743	0.0186946
647.821	0.0187327
647.899	0.0186899
647.977	0.0188300
648.055	0.0188520
648.134	0.0186614
648.212	0.0186637
648.290	0.0186614
648.368	0.0187745
648.446	0.0187570
648.524	0.0187618
648.602	0.0186951
648.680	0.0185577
648.759	0.0186060
648.837	0.0186588
648.915	0.0186143
648.993	0.0185854
649.071	0.0186519
649.149	0.0185501
649.227	0.0185521
649.305	0.0186093
649.384	0.0185285
649.462	0.0185400
649.540	0.0185616
649.618	0.0185447
649.696	0.0184808
649.774	0.0185043
649.852	0.0185555
649.930	0.0185382
650.009	0.0185136
650.087	0.0184931
650.165	0.0185356
650.243	0.0184280
650.321	0.0184256
650.399	0.0185651
650.477	0.0184046
650.555	0.0182467
650.634	0.0184895
650.712	0.0183576
650.790	0.0183226
650.868	0.0183695
650.946	0.0183386
651.024	0.0183752
651.102	0.0183871
651.180	0.0183080
651.259	0.0184298
651.337	0.0185406
651.415	0.0183659
651.493	0.0183426
651.571	0.0183736
651.649	0.0185662
651.727	0.0184999
651.805	0.0184005
651.884	0.0183868
651.962	0.0184870
652.040	0.0184531
652.118	0.0183276
652.196	0.0184946
652.274	0.0185643
652.352	0.0184169
652.430	0.0183686
652.509	0.0185343
652.587	0.0184942
652.665	0.0183774
652.743	0.0184360
652.821	0.0184878
652.899	0.0185104
652.977	0.0185346
653.055	0.0184955
653.134	0.0183939
653.212	0.0184458
653.290	0.0184776
653.368	0.0183730
653.446	0.0183983
653.524	0.0185225
653.602	0.0184332
653.680	0.0184326
653.759	0.0186009
653.837	0.0185666
653.915	0.0183386
653.993	0.0184669
654.071	0.0186330
654.149	0.0186826
654.227	0.0186329
654.305	0.0184206
654.384	0.0185445
654.462	0.0185293
654.540	0.0185905
654.618	0.0184666
654.696	0.0185252
654.774	0.0185901
654.852	0.0184807
654.930	0.0185887
655.009	0.0185489
655.087	0.0185696
655.165	0.0185960
655.243	0.0185133
655.321	0.0186213
655.399	0.0185210
655.477	0.0185452
655.555	0.0185345
655.634	0.0185555
655.712	0.0185745
655.790	0.0184811
655.868	0.0186305
655.946	0.0185937
656.024	0.0186910
656.102	0.0186398
656.180	0.0185894
656.259	0.0185750
656.337	0.0185293
656.415	0.0186066
656.493	0.0185440
656.571	0.0185458
656.649	0.0184821
656.727	0.0186808
656.805	0.0184200
656.884	0.0186478
656.962	0.0186205
657.040	0.0185098
657.118	0.0185896
657.196	0.0185561
657.274	0.0185991
657.352	0.0184486
657.430	0.0184927
657.509	0.0185220
657.587	0.0184788
657.665	0.0185133
657.743	0.0186485
657.821	0.0185516
657.899	0.0185325
657.977	0.0185651
658.055	0.0186874
658.134	0.0185301
658.212	0.0184660
658.290	0.0186410
658.368	0.0189289
658.446	0.0187702
658.524	0.0186993
658.602	0.0187431
658.680	0.0186806
658.759	0.0187159
658.837	0.0186852
658.915	0.0187213
658.993	0.0185943
659.071	0.0186854
659.149	0.0186716
659.227	0.0187276
659.305	0.0187361
659.384	0.0185958
659.462	0.0185897
659.540	0.0184985
659.618	0.0185137
659.696	0.0185287
659.774	0.0185445
659.852	0.0185349
659.930	0.0184094
660.009	0.0185448
660.087	0.0185372
660.165	0.0187255
660.243	0.0188074
660.321	0.0186497
660.399	0.0186684
660.477	0.0186572
660.555	0.0188419
660.634	0.0186661
660.712	0.0187366
660.790	0.0187202
660.868	0.0185796
660.946	0.0187319
661.024	0.0185806
661.102	0.0186594
661.180	0.0187740
661.259	0.0186174
661.337	0.0186356
661.415	0.0186288
661.493	0.0185858
661.571	0.0184859
661.649	0.0184923
661.727	0.0185476
661.805	0.0182312
661.884	0.0183801
661.962	0.0184039
662.040	0.0183543
662.118	0.0183457
662.196	0.0182780
662.274	0.0183001
662.352	0.0182523
662.430	0.0182266
662.509	0.0181934
662.587	0.0182983
662.665	0.0182442
662.743	0.0182339
662.821	0.0182783
662.899	0.0182086
662.977	0.0182499
663.055	0.0184293
663.134	0.0182748
663.212	0.0182762
663.290	0.0183772
663.368	0.0184335
663.446	0.0182350
663.524	0.0182771
663.602	0.0183289
663.680	0.0182671
663.759	0.0182119
663.837	0.0183167
663.915	0.0183631
663.993	0.0182436
664.071	0.0183401
664.149	0.0183083
664.227	0.0182570
664.305	0.0181097
664.384	0.0183089
664.462	0.0184832
664.540	0.0183840
664.618	0.0183525
664.696	0.0183302
664.774	0.0184557
664.852	0.0184606
664.930	0.0184622
665.009	0.0184767
665.087	0.0186699
665.165	0.0184959
665.243	0.0185598
665.321	0.0186619
665.399	0.0186539
665.477	0.0186852
665.555	0.0186202
665.634	0.0187746
665.712	0.0186570
665.790	0.0186035
665.868	0.0186616
665.946	0.0187360
666.024	0.0186390
666.102	0.0186412
666.180	0.0187675
666.259	0.0186310
666.337	0.0186501
666.415	0.0187358
666.493	0.0187804
666.571	0.0186654
666.649	0.0186287
666.727	0.0186176
666.805	0.0186096
666.884	0.0185288
666.962	0.0187048
667.040	0.0185603
667.118	0.0186483
667.196	0.0187563
667.274	0.0187557
667.352	0.0187309
667.430	0.0187447
667.509	0.0185456
667.587	0.0187553
667.665	0.0188176
667.743	0.0187405
667.821	0.0187571
667.899	0.0188038
667.977	0.0187801
668.055	0.0189191
668.134	0.0186978
668.212	0.0188438
668.290	0.0187801
668.368	0.0189211
668.446	0.0188779
668.524	0.0189317
668.602	0.0187574
668.680	0.0187119
668.759	0.0189307
668.837	0.0188065
668.915	0.0187849
668.993	0.0188083
669.071	0.0187714
669.149	0.0187219
669.227	0.0186879
669.305	0.0187798
669.384	0.0188136
669.462	0.0188051
669.540	0.0187775
669.618	0.0187994
669.696	0.0186761
669.774	0.0188784
669.852	0.0188452
669.930	0.0187244
670.009	0.0186728
670.087	0.0187588
670.165	0.0185764
670.243	0.0186307
670.321	0.0186285
670.399	0.0187856
670.477	0.0186156
670.555	0.0186141
670.634	0.0186459
670.712	0.0185731
670.790	0.0186666
670.868	0.0185760
670.946	0.0183840
671.024	0.0183514
671.102	0.0183881
671.180	0.0184465
671.259	0.0185758
671.337	0.0183298
671.415	0.0184574
671.493	0.0185047
671.571	0.0185449
671.649	0.0183968
671.727	0.0183038
671.805	0.0184669
671.884	0.0185450
671.962	0.0184689
672.040	0.0185144
672.118	0.0185349
672.196	0.0185190
672.274	0.0183517
672.352	0.0182512
672.430	0.0184644
672.509	0.0184301
672.587	0.0184189
672.665	0.0183822
672.743	0.0183653
672.821	0.0182113
672.899	0.0183172
672.977	0.0183067
673.055	0.0182631
673.134	0.0182490
673.212	0.0183006
673.290	0.0182261
673.368	0.0181931
673.446	0.0181290
673.524	0.0181622
673.602	0.0183241
673.680	0.0183902
673.759	0.0184261
673.837	0.0182708
673.915	0.0182200
673.993	0.0184204
674.071	0.0183167
674.149	0.0182827
674.227	0.0183469
674.305	0.0184080
674.384	0.0184875
674.462	0.0183469
674.540	0.0184128
674.618	0.0183759
674.696	0.0183777
674.774	0.0184059
674.852	0.0184536
674.930	0.0183088
675.009	0.0184314
675.087	0.0182368
675.165	0.0182668
675.243	0.0185197
675.321	0.0184083
675.399	0.0184893
675.477	0.0183179
675.555	0.0183131
675.634	0.0182220
675.712	0.0184985
675.790	0.0184547
675.868	0.0184406
675.946	0.0185164
676.024	0.0184907
676.102	0.0184705
676.180	0.0184783
676.259	0.0185983
676.337	0.0185450
676.415	0.0185008
676.493	0.0185049
676.571	0.0184522
676.649	0.0186967
676.727	0.0186224
676.805	0.0184326
676.884	0.0185881
676.962	0.0187398
677.040	0.0185667
677.118	0.0184696
677.196	0.0185063
677.274	0.0186137
677.352	0.0184482
677.430	0.0186394
677.509	0.0185416
677.587	0.0185909
677.665	0.0184760
677.743	0.0185155
677.821	0.0186058
677.899	0.0184928
677.977	0.0185924
678.055	0.0186629
678.134	0.0185828
678.212	0.0187008
678.290	0.0186295
678.368	0.0185531
678.446	0.0187000
678.524	0.0187111
678.602	0.0184991
678.680	0.0185103
678.759	0.0185703
678.837	0.0185365
678.915	0.0185987
678.993	0.0184729
679.071	0.0185163
679.149	0.0185597
679.227	0.0185680
679.305	0.0183900
679.384	0.0185884
679.462	0.0185468
679.540	0.0184696
679.618	0.0184420
679.696	0.0183788
679.774	0.0184097
679.852	0.0184349
679.930	0.0184397
680.009	0.0182990
680.087	0.0182864
680.165	0.0184338
680.243	0.0183749
680.321	0.0182930
680.399	0.0182352
680.477	0.0183344
680.555	0.0183944
680.634	0.0183288
680.712	0.0183667
680.790	0.0183785
680.868	0.0181963
680.946	0.0184550
681.024	0.0184877
681.102	0.0184473
681.180	0.0183946
681.259	0.0183790
681.337	0.0184922
681.415	0.0185226
681.493	0.0184850
681.571	0.0185883
681.649	0.0183801
681.727	0.0184315
681.805	0.0183836
681.884	0.0184213
681.962	0.0185033
682.040	0.0183401
682.118	0.0184117
682.196	0.0183913
682.274	0.0184031
682.352	0.0184119
682.430	0.0183575
682.509	0.0182774
682.587	0.0181784
682.665	0.0183591
682.743	0.0183466
682.821	0.0183736
682.899	0.0181723
682.977	0.0183139
683.055	0.0183527
683.134	0.0182345
683.212	0.0181589
683.290	0.0181673
683.368	0.0183471
683.446	0.0182004
683.524	0.0182786
683.602	0.0182066
683.680	0.0182776
683.759	0.0183466
683.837	0.0183264
683.915	0.0182832
683.993	0.0185072
684.071	0.0184160
684.149	0.0185259
684.227	0.0184544
684.305	0.0184404
684.384	0.0184939
684.462	0.0186037
684.540	0.0184642
684.618	0.0185360
684.696	0.0185117
684.774	0.0185019
684.852	0.0185151
684.930	0.0184901
685.009	0.0184491
685.087	0.0184577
685.165	0.0185622
685.243	0.0185318
685.321	0.0185489
685.399	0.0184133
685.477	0.0183474
685.555	0.0184754
685.634	0.0185040
685.712	0.0185512
685.790	0.0184660
685.868	0.0185463
685.946	0.0184804
686.024	0.0184541
686.102	0.0185160
686.180	0.0185090
686.259	0.0185651
686.337	0.0185715
686.415	0.0185005
686.493	0.0186797
686.571	0.0185378
686.649	0.0185802
686.727	0.0184202
686.805	0.0187167
686.884	0.0185836
686.962	0.0185767
687.040	0.0184402
687.118	0.0185560
687.196	0.0184826
687.274	0.0184476
687.352	0.0185336
687.430	0.0185260
687.509	0.0186123
687.587	0.0186362
687.665	0.0185449
687.743	0.0186327
687.821	0.0185665
687.899	0.0186673
687.977	0.0186016
688.055	0.0185895
688.134	0.0185849
688.212	0.0185936
688.290	0.0185789
688.368	0.0186551
688.446	0.0188503
688.524	0.0186737
688.602	0.0187160
688.680	0.0187573
688.759	0.0188264
688.837	0.0187146
688.915	0.0187500
688.993	0.0187690
689.071	0.0188505
689.149	0.0187306
689.227	0.0187997
689.305	0.0189444
689.384	0.0186342
689.462	0.0187597
689.540	0.0188562
689.618	0.0187605
689.696	0.0188290
689.774	0.0188813
689.852	0.0189016
689.930	0.0188459
690.009	0.0186870
690.087	0.0187746
690.165	0.0187942
690.243	0.0187683
690.321	0.0186541
690.399	0.0187652
690.477	0.0186958
690.555	0.0187890
690.634	0.0185291
690.712	0.0185367
690.790	0.0186131
690.868	0.0183704
690.946	0.0183692
691.024	0.0183862
691.102	0.0183940
691.180	0.0184265
691.259	0.0184180
691.337	0.0183613
691.415	0.0182041
691.493	0.0182175
691.571	0.0182023
691.649	0.0183557
691.727	0.0182716
691.805	0.0183076
691.884	0.0182904
691.962	0.0181048
692.040	0.0182143
692.118	0.0183344
692.196	0.0182578
692.274	0.0182735
692.352	0.0182716
692.430	0.0182662
692.509	0.0183247
692.587	0.0183533
692.665	0.0183219
692.743	0.0183860
692.821	0.0184235
692.899	0.0183573
692.977	0.0183999
693.055	0.0182365
693.134	0.0182562
693.212	0.0183876
693.290	0.0183549
693.368	0.0182859
693.446	0.0182149
693.524	0.0181430
693.602	0.0182143
693.680	0.0182324
693.759	0.0182391
693.837	0.0180884
693.915	0.0180543
693.993	0.0180981
694.071	0.0180057
694.149	0.0181604
694.227	0.0180585
694.305	0.0180476
694.384	0.0182354
694.462	0.0182132
694.540	0.0181512
694.618	0.0181785
694.696	0.0181270
694.774	0.0183384
694.852	0.0183871
694.930	0.0183443
695.009	0.0183015
695.087	0.0184005
695.165	0.0183900
695.243	0.0184179
695.321	0.0184357
695.399	0.0182275
695.477	0.0184296
695.555	0.0184497
695.634	0.0184695
695.712	0.0184460
695.790	0.0184006
695.868	0.0185783
695.946	0.0185176
696.024	0.0183868
696.102	0.0185363
696.180	0.0184878
696.259	0.0184740
696.337	0.0185403
696.415	0.0185141
696.493	0.0183425
696.571	0.0185753
696.649	0.0186395
696.727	0.0184509
696.805	0.0185344
696.884	0.0185978
696.962	0.0186376
697.040	0.0185272
697.118	0.0186421
697.196	0.0184905
697.274	0.0184808
697.352	0.0185363
697.430	0.0185722
697.509	0.0185834
697.587	0.0186645
697.665	0.0186376
697.743	0.0186026
697.821	0.0187387
697.899	0.0187339
697.977	0.0186737
698.055	0.0187466
698.134	0.0188145
698.212	0.0186767
698.290	0.0186936
698.368	0.0187415
698.446	0.0187302
698.524	0.0189151
698.602	0.0187055
698.680	0.0187510
698.759	0.0186723
698.837	0.0187350
698.915	0.0188177
698.993	0.0187263
699.071	0.0187622
699.149	0.0186427
699.227	0.0186358
699.305	0.0186061
699.384	0.0186475
699.462	0.0185261
699.540	0.0185485
699.618	0.0184798
699.696	0.0188076
699.774	0.0185207
699.852	0.0185636
699.930	0.0185815
700.009	0.0184689
700.087	0.0185070
700.165	0.0185473
700.243	0.0186049
700.321	0.0186845
700.399	0.0186810
700.477	0.0185682
700.555	0.0186630
700.634	0.0187200
700.712	0.0185899
700.790	0.0186958
700.868	0.0187125
700.946	0.0186677
701.024	0.0186163
701.102	0.0185993
701.180	0.0184978
701.259	0.0185907
701.337	0.0186243
701.415	0.0185573
701.493	0.0184659
701.571	0.0184625
701.649	0.0184074
701.727	0.0184728
701.805	0.0185105
701.884	0.0185406
701.962	0.0184387
702.040	0.0182825
702.118	0.0184495
702.196	0.0186301
702.274	0.0184113
702.352	0.0184234
702.430	0.0185117
702.509	0.0184065
702.587	0.0185117
702.665	0.0184689
702.743	0.0185191
702.821	0.0185078
702.899	0.0183858
702.977	0.0185685
703.055	0.0183701
703.134	0.0183991
703.212	0.0183991
703.290	0.0184781
703.368	0.0184579
703.446	0.0182980
703.524	0.0183643
703.602	0.0183013
703.680	0.0183086
703.759	0.0184254
703.837	0.0184219
703.915	0.0181710
703.993	0.0182409
704.071	0.0182578
704.149	0.0182430
704.227	0.0182692
704.305	0.0182538
704.384	0.0181441
704.462	0.0181341
704.540	0.0180949
704.618	0.0181741
704.696	0.0181867
704.774	0.0180283
704.852	0.0180593
704.930	0.0182161
705.009	0.0180818
705.087	0.0181561
705.165	0.0180654
705.243	0.0181821
705.321	0.0181445
705.399	0.0182880
705.477	0.0181985
705.555	0.0182848
705.634	0.0182966
705.712	0.0182455
705.790	0.0182588
705.868	0.0184762
705.946	0.0185722
706.024	0.0184764
706.102	0.0184657
706.180	0.0186166
706.259	0.0185819
706.337	0.0186057
706.415	0.0185582
706.493	0.0186450
706.571	0.0186942
706.649	0.0186736
706.727	0.0187251
706.805	0.0186597
706.884	0.0187095
706.962	0.0185342
707.040	0.0184339
707.118	0.0184467
707.196	0.0184483
707.274	0.0184101
707.352	0.0182852
707.430	0.0184519
707.509	0.0183725
707.587	0.0182984
707.665	0.0182829
707.743	0.0183692
707.821	0.0184169
707.899	0.0182803
707.977	0.0184580
708.055	0.0183640
708.134	0.0185820
708.212	0.0184069
708.290	0.0186794
708.368	0.0186550
708.446	0.0186736
708.524	0.0188152
708.602	0.0187274
708.680	0.0186798
708.759	0.0189470
708.837	0.0188002
708.915	0.0188725
708.993	0.0188448
709.071	0.0190700
709.149	0.0188998
709.227	0.0187846
709.305	0.0189312
709.384	0.0188658
709.462	0.0188081
709.540	0.0188238
709.618	0.0186778
709.696	0.0186274
709.774	0.0186206
709.852	0.0186459
709.930	0.0185588
710.009	0.0184186
710.087	0.0184367
710.165	0.0184965
710.243	0.0182597
710.321	0.0184402
710.399	0.0182236
710.477	0.0182712
710.555	0.0183600
710.634	0.0184035
710.712	0.0183701
710.790	0.0184767
710.868	0.0184340
710.946	0.0184858
711.024	0.0184229
711.102	0.0184187
711.180	0.0185062
711.259	0.0186179
711.337	0.0186635
711.415	0.0186760
711.493	0.0187508
711.571	0.0187135
711.649	0.0187444
711.727	0.0186998
711.805	0.0187924
711.884	0.0187548
711.962	0.0188814
712.040	0.0188558
712.118	0.0188705
712.196	0.0188308
712.274	0.0187883
712.352	0.0186435
712.430	0.0186436
712.509	0.0186501
712.587	0.0187297
712.665	0.0185205
712.743	0.0184929
712.821	0.0183078
712.899	0.0185124
712.977	0.0184085
713.055	0.0183804
713.134	0.0182141
713.212	0.0183019
713.290	0.0181625
713.368	0.0180726
713.446	0.0181010
713.524	0.0182701
713.602	0.0181675
713.680	0.0183120
713.759	0.0182912
713.837	0.0182298
713.915	0.0183651
713.993	0.0184908
714.071	0.0183363
714.149	0.0183172
714.227	0.0184502
714.305	0.0184716
714.384	0.0186071
714.462	0.0185616
714.540	0.0185294
714.618	0.0186135
714.696	0.0186051
714.774	0.0186102
714.852	0.0186139
714.930	0.0186153
715.009	0.0184580
715.087	0.0184543
715.165	0.0185931
715.243	0.0185316
715.321	0.0183868
715.399	0.0186512
715.477	0.0185646
715.555	0.0185709
715.634	0.0184325
715.712	0.0184599
715.790	0.0184916
715.868	0.0185219
715.946	0.0184515
716.024	0.0185468
716.102	0.0185672
716.180	0.0185686
716.259	0.0186224
716.337	0.0186563
716.415	0.0184557
716.493	0.0185419
716.571	0.0186147
716.649	0.0185426
716.727	0.0185654
716.805	0.0184969
716.884	0.0185403
716.962	0.0186409
717.040	0.0183917
717.118	0.0185555
717.196	0.0184343
717.274	0.0183202
717.352	0.0184953
717.430	0.0183475
717.509	0.0184237
717.587	0.0184074
717.665	0.0183811
717.743	0.0184315
717.821	0.0183155
717.899	0.0183060
717.977	0.0184928
718.055	0.0186765
718.134	0.0186588
718.212	0.0186826
718.290	0.0185294
718.368	0.0187173
718.446	0.0187956
718.524	0.0187766
718.602	0.0188523
718.680	0.0188081
718.759	0.0187755
718.837	0.0187689
718.915	0.0188869
718.993	0.0187661
719.071	0.0187762
719.149	0.0188021
719.227	0.0187850
719.305	0.0187376
719.384	0.0187823
719.462	0.0187121
719.540	0.0188748
719.618	0.0187101
719.696	0.0189168
719.774	0.0187904
719.852	0.0186594
719.930	0.0188747
720.009	0.0186995
720.087	0.0187160
720.165	0.0185921
720.243	0.0187254
720.321	0.0187023
720.399	0.0186875
720.477	0.0185628
720.555	0.0185952
720.634	0.0187229
720.712	0.0186554
720.790	0.0185648
720.868	0.0186585
720.946	0.0184037
721.024	0.0184115
721.102	0.0185677
721.180	0.0186091
721.259	0.0185980
721.337	0.0185121
721.415	0.0187017
721.493	0.0187243
721.571	0.0186665
721.649	0.0186455
721.727	0.0186991
721.805	0.0186755
721.884	0.0187782
721.962	0.0187848
722.040	0.0186883
722.118	0.0186008
722.196	0.0187312
722.274	0.0185755
722.352	0.0185533
722.430	0.0186414
722.509	0.0187070
722.587	0.0186559
722.665	0.0186417
722.743	0.0184557
722.821	0.0185320
722.899	0.0184132
722.977	0.0184576
723.055	0.0185107
723.134	0.0184240
723.212	0.0183805
723.290	0.0185550
723.368	0.0184830
723.446	0.0184026
723.524	0.0185257
723.602	0.0184861
723.680	0.0185426
723.759	0.0185600
723.837	0.0186401
723.915	0.0187805
723.993	0.0186647
724.071	0.0186417
724.149	0.0189191
724.227	0.0187984
724.305	0.0188535
724.384	0.0188629
724.462	0.0189432
724.540	0.0190039
724.618	0.0189919
724.696	0.0189067
724.774	0.0188875
724.852	0.0190130
724.930	0.0190199
725.009	0.0189572
725.087	0.0190345
725.165	0.0189322
725.243	0.0189771
725.321	0.0188419
725.399	0.0188177
725.477	0.0186477
725.555	0.0186227
725.634	0.0187346
725.712	0.0186044
725.790	0.0186075
725.868	0.0187147
725.946	0.0187451
726.024	0.0184512
726.102	0.0185270
726.180	0.0184969
726.259	0.0184207
726.337	0.0184346
726.415	0.0184657
726.493	0.0184135
726.571	0.0184937
726.649	0.0185930
726.727	0.0183480
726.805	0.0184383
726.884	0.0182719
726.962	0.0182408
727.040	0.0184810
727.118	0.0185799
727.196	0.0184621
727.274	0.0184986
727.352	0.0186169
727.430	0.0185613
727.509	0.0186267
727.587	0.0186220
727.665	0.0187269
727.743	0.0186516
727.821	0.0186688
727.899	0.0186853
727.977	0.0186963
728.055	0.0186823
728.134	0.0186194
728.212	0.0185883
728.290	0.0186737
728.368	0.0186868
728.446	0.0186680
728.524	0.0186036
728.602	0.0185317
728.680	0.0185550
728.759	0.0185043
728.837	0.0186024
728.915	0.0185712
728.993	0.0185332
729.071	0.0185963
729.149	0.0185712
729.227	0.0186275
729.305	0.0186022
729.384	0.0185750
729.462	0.0185809
729.540	0.0185432
729.618	0.0185970
729.696	0.0183961
729.774	0.0185172
729.852	0.0186710
729.930	0.0184877
730.009	0.0182716
730.087	0.0184003
730.165	0.0184211
730.243	0.0184476
730.321	0.0184411
730.399	0.0184308
730.477	0.0184757
730.555	0.0184034
730.634	0.0184656
730.712	0.0184155
730.790	0.0185332
730.868	0.0185246
730.946	0.0185147
731.024	0.0186730
731.102	0.0184696
731.180	0.0185070
731.259	0.0185074
731.337	0.0185205
731.415	0.0186417
731.493	0.0186234
731.571	0.0185924
731.649	0.0186832
731.727	0.0187169
731.805	0.0183707
731.884	0.0185511
731.962	0.0186163
732.040	0.0186116
732.118	0.0185744
732.196	0.0186124
732.274	0.0185632
732.352	0.0185185
732.430	0.0184534
732.509	0.0185786
732.587	0.0185704
732.665	0.0186304
732.743	0.0186336
732.821	0.0185027
732.899	0.0186001
732.977	0.0186285
733.055	0.0186309
733.134	0.0186280
733.212	0.0186572
733.290	0.0186631
733.368	0.0185348
733.446	0.0184624
733.524	0.0185051
733.602	0.0185252
733.680	0.0184468
733.759	0.0184104
733.837	0.0184765
733.915	0.0185465
733.993	0.0184590
734.071	0.0183257
734.149	0.0183486
734.227	0.0183051
734.305	0.0183978
734.384	0.0182852
734.462	0.0183810
734.540	0.0186830
734.618	0.0183798
734.696	0.0185574
734.774	0.0185314
734.852	0.0185973
734.930	0.0186809
735.009	0.0186842
735.087	0.0189348
735.165	0.0188705
735.243	0.0189308
735.321	0.0190285
735.399	0.0190553
735.477	0.0189837
735.555	0.0190415
735.634	0.0189893
735.712	0.0189898
735.790	0.0189449
735.868	0.0188216
735.946	0.0189718
736.024	0.0188508
736.102	0.0187579
736.180	0.0186860
736.259	0.0186723
736.337	0.0185618
736.415	0.0184151
736.493	0.0183221
736.571	0.0183850
736.649	0.0182713
736.727	0.0180608
736.805	0.0180874
736.884	0.0181922
736.962	0.0179796
737.040	0.0178424
737.118	0.0180235
737.196	0.0180486
737.274	0.0180987
737.352	0.0179451
737.430	0.0180003
737.509	0.0181454
737.587	0.0181483
737.665	0.0179929
737.743	0.0180408
737.821	0.0182481
737.899	0.0181352
737.977	0.0182119
738.055	0.0183300
738.134	0.0183733
738.212	0.0182393
738.290	0.0184695
738.368	0.0183318
738.446	0.0184377
738.524	0.0184431
738.602	0.0185072
738.680	0.0184426
738.759	0.0184986
738.837	0.0184539
738.915	0.0183463
738.993	0.0184168
739.071	0.0184261
739.149	0.0184953
739.227	0.0185692
739.305	0.0185841
739.384	0.0185450
739.462	0.0185582
739.540	0.0185730
739.618	0.0185889
739.696	0.0188106
739.774	0.0187389
739.852	0.0187828
739.930	0.0188300
740.009	0.0187752
740.087	0.0187065
740.165	0.0188033
740.243	0.0187722
740.321	0.0188255
740.399	0.0188300
740.477	0.0187390
740.555	0.0189978
740.634	0.0188886
740.712	0.0187074
740.790	0.0186686
740.868	0.0188083
740.946	0.0186973
741.024	0.0186526
741.102	0.0185883
741.180	0.0185183
741.259	0.0184785
741.337	0.0184356
741.415	0.0183897
741.493	0.0185694
741.571	0.0182453
741.649	0.0183456
741.727	0.0184981
741.805	0.0185190
741.884	0.0182329
741.962	0.0181757
742.040	0.0183836
742.118	0.0183554
742.196	0.0182768
742.274	0.0183862
742.352	0.0183347
742.430	0.0184603
742.509	0.0185308
742.587	0.0185893
742.665	0.0186288
742.743	0.0186067
742.821	0.0185944
742.899	0.0186336
742.977	0.0187033
743.055	0.0186300
743.134	0.0186787
743.212	0.0186291
743.290	0.0187263
743.368	0.0187777
743.446	0.0188253
743.524	0.0185937
743.602	0.0186793
743.680	0.0186128
743.759	0.0187003
743.837	0.0186781
743.915	0.0187032
743.993	0.0187167
744.071	0.0186407
744.149	0.0185297
744.227	0.0187789
744.305	0.0188712
744.384	0.0188824
744.462	0.0187850
744.540	0.0188305
744.618	0.0186089
744.696	0.0187513
744.774	0.0187764
744.852	0.0187363
744.930	0.0188455
745.009	0.0188019
745.087	0.0188090
745.165	0.0186682
745.243	0.0187501
745.321	0.0187971
745.399	0.0188410
745.477	0.0188811
745.555	0.0188336
745.634	0.0186647
745.712	0.0185449
745.790	0.0185765
745.868	0.0186881
745.946	0.0184214
746.024	0.0185758
746.102	0.0183806
746.180	0.0183920
746.259	0.0184867
746.337	0.0184264
746.415	0.0183376
746.493	0.0184249
746.571	0.0183665
746.649	0.0182809
746.727	0.0181413
746.805	0.0184272
746.884	0.0184457
746.962	0.0184930
747.040	0.0183179
747.118	0.0183918
747.196	0.0184964
747.274	0.0184762
747.352	0.0185480
747.430	0.0184603
747.509	0.0184587
747.587	0.0186230
747.665	0.0186211
747.743	0.0187970
747.821	0.0186141
747.899	0.0186764
747.977	0.0185581
748.055	0.0183900
748.134	0.0185496
748.212	0.0184592
748.290	0.0183177
748.368	0.0184264
748.446	0.0185162
748.524	0.0184387
748.602	0.0184180
748.680	0.0184180
748.759	0.0184940
748.837	0.0183613
748.915	0.0184237
748.993	0.0183385
749.071	0.0184274
749.149	0.0185608
749.227	0.0185091
749.305	0.0185320
749.384	0.0186481
749.462	0.0186056
749.540	0.0188609
749.618	0.0185868
749.696	0.0188018
749.774	0.0186713
749.852	0.0188800
749.930	0.0188345
750.009	0.0186901
750.087	0.0186357
750.165	0.0186781
750.243	0.0184804
750.321	0.0184033
750.399	0.0185520
750.477	0.0183117
750.555	0.0183680
750.634	0.0183390
750.712	0.0184277
750.790	0.0183711
750.868	0.0183263
750.946	0.0182748
751.024	0.0182503
751.102	0.0184106
751.180	0.0184987
751.259	0.0184404
751.337	0.0184962
751.415	0.0184349
751.493	0.0184121
751.571	0.0185918
751.649	0.0184690
751.727	0.0184025
751.805	0.0185063
751.884	0.0184383
751.962	0.0183321
752.040	0.0184280
752.118	0.0185069
752.196	0.0184314
752.274	0.0184587
752.352	0.0183858
752.430	0.0182766
752.509	0.0185153
752.587	0.0185070
752.665	0.0184430
752.743	0.0183763
752.821	0.0183221
752.899	0.0185997
752.977	0.0185976
753.055	0.0184872
753.134	0.0185709
753.212	0.0184578
753.290	0.0183241
753.368	0.0183568
753.446	0.0183574
753.524	0.0183891
753.602	0.0184026
753.680	0.0184402
753.759	0.0184490
753.837	0.0184261
753.915	0.0183134
753.993	0.0183871
754.071	0.0183963
754.149	0.0184546
754.227	0.0185118
754.305	0.0184706
754.384	0.0184780
754.462	0.0183640
754.540	0.0184102
754.618	0.0184401
754.696	0.0185688
754.774	0.0185883
754.852	0.0184472
754.930	0.0185036
755.009	0.0185525
755.087	0.0184943
755.165	0.0186015
755.243	0.0185387
755.321	0.0185595
755.399	0.0185068
755.477	0.0185327
755.555	0.0185068
755.634	0.0186258
755.712	0.0186304
755.790	0.0184095
755.868	0.0185641
755.946	0.0186697
756.024	0.0186209
756.102	0.0186081
756.180	0.0184792
756.259	0.0185414
756.337	0.0185439
756.415	0.0185812
756.493	0.0185648
756.571	0.0184615
756.649	0.0184540
756.727	0.0184496
756.805	0.0183436
756.884	0.0182234
756.962	0.0183151
757.040	0.0182777
757.118	0.0182584
757.196	0.0183283
757.274	0.0182903
757.352	0.0182088
757.430	0.0182938
757.509	0.0183363
757.587	0.0182737
757.665	0.0183685
757.743	0.0184467
757.821	0.0185133
757.899	0.0184404
757.977	0.0182583
758.055	0.0184298
758.134	0.0185282
758.212	0.0184119
758.290	0.0183853
758.368	0.0184189
758.446	0.0185105
758.524	0.0185575
758.602	0.0184933
758.680	0.0184315
758.759	0.0183969
758.837	0.0183749
758.915	0.0182594
758.993	0.0182106
759.071	0.0183217
759.149	0.0184222
759.227	0.0182341
759.305	0.0182834
759.384	0.0183415
759.462	0.0182359
759.540	0.0183246
759.618	0.0182637
759.696	0.0182344
759.774	0.0183499
759.852	0.0182162
759.930	0.0182509
760.009	0.0183788
760.087	0.0183431
760.165	0.0182444
760.243	0.0183870
760.321	0.0183253
760.399	0.0182753
760.477	0.0182449
760.555	0.0183181
760.634	0.0183081
760.712	0.0182612
760.790	0.0182960
760.868	0.0183565
760.946	0.0183518
761.024	0.0183495
761.102	0.0184122
761.180	0.0183750
761.259	0.0183154
761.337	0.0184200
761.415	0.0183524
761.493	0.0183788
761.571	0.0181947
761.649	0.0182583
761.727	0.0184066
761.805	0.0182951
761.884	0.0183625
761.962	0.0184477
762.040	0.0181600
762.118	0.0183199
762.196	0.0184745
762.274	0.0183628
762.352	0.0183624
762.430	0.0183302
762.509	0.0185352
762.587	0.0185932
762.665	0.0185379
762.743	0.0185172
762.821	0.0186162
762.899	0.0185213
762.977	0.0184145
763.055	0.0184923
763.134	0.0185059
763.212	0.0185463
763.290	0.0184893
763.368	0.0185312
763.446	0.0184812
763.524	0.0184464
763.602	0.0185008
763.680	0.0185012
763.759	0.0183610
763.837	0.0184912
763.915	0.0185933
763.993	0.0184877
764.071	0.0184280
764.149	0.0184748
764.227	0.0186478
764.305	0.0187134
764.384	0.0187504
764.462	0.0188020
764.540	0.0187703
764.618	0.0186035
764.696	0.0186995
764.774	0.0186248
764.852	0.0187534
764.930	0.0188301
765.009	0.0187869
765.087	0.0187250
765.165	0.0187978
765.243	0.0187561
765.321	0.0186164
765.399	0.0187502
765.477	0.0187463
765.555	0.0186775
765.634	0.0186880
765.712	0.0188220
765.790	0.0186084
765.868	0.0186572
765.946	0.0186022
766.024	0.0185088
766.102	0.0184641
766.180	0.0184859
766.259	0.0185076
766.337	0.0183485
766.415	0.0182055
766.493	0.0183073
766.571	0.0182855
766.649	0.0181783
766.727	0.0180659
766.805	0.0181314
766.884	0.0182026
766.962	0.0181029
767.040	0.0182073
767.118	0.0181306
767.196	0.0181896
767.274	0.0182490
767.352	0.0181762
767.430	0.0182479
767.509	0.0184338
767.587	0.0183257
767.665	0.0183754
767.743	0.0183710
767.821	0.0185809
767.899	0.0185361
767.977	0.0184714
768.055	0.0184654
768.134	0.0185279
768.212	0.0185767
768.290	0.0185084
768.368	0.0184657
768.446	0.0185258
768.524	0.0186833
768.602	0.0185815
768.680	0.0184595
768.759	0.0185172
768.837	0.0185303
768.915	0.0185312
768.993	0.0183913
769.071	0.0184712
769.149	0.0184345
769.227	0.0183946
769.305	0.0183680
769.384	0.0185207
769.462	0.0185519
769.540	0.0185991
769.618	0.0185977
769.696	0.0185124
769.774	0.0184030
769.852	0.0184973
769.930	0.0184521
770.009	0.0183190
770.087	0.0184038
770.165	0.0185750
770.243	0.0183537
770.321	0.0183732
770.399	0.0183975
770.477	0.0182420
770.555	0.0182638
770.634	0.0182775
770.712	0.0181919
770.790	0.0183099
770.868	0.0183168
770.946	0.0183710
771.024	0.0182945
771.102	0.0183528
771.180	0.0183868
771.259	0.0184039
771.337	0.0183688
771.415	0.0182944
771.493	0.0183891
771.571	0.0184043
771.649	0.0185753
771.727	0.0186089
771.805	0.0185640
771.884	0.0185622
771.962	0.0184530
772.040	0.0185120
772.118	0.0185195
772.196	0.0186062
772.274	0.0186359
772.352	0.0185044
772.430	0.0186700
772.509	0.0185815
772.587	0.0186089
772.665	0.0187012
772.743	0.0185545
772.821	0.0185994
772.899	0.0186140
772.977	0.0185490
773.055	0.0186830
773.134	0.0186112
773.212	0.0185159
773.290	0.0187117
773.368	0.0186870
773.446	0.0185124
773.524	0.0185718
773.602	0.0185387
773.680	0.0185669
773.759	0.0185178
773.837	0.0186012
773.915	0.0184998
773.993	0.0184518
774.071	0.0184649
774.149	0.0183730
774.227	0.0186961
774.305	0.0185487
774.384	0.0184133
774.462	0.0186451
774.540	0.0183861
774.618	0.0186135
774.696	0.0186401
774.774	0.0184135
774.852	0.0183183
774.930	0.0185643
775.009	0.0185151
775.087	0.0186679
775.165	0.0186768
775.243	0.0185272
775.321	0.0185229
775.399	0.0185682
775.477	0.0186729
775.555	0.0186359
775.634	0.0186345
775.712	0.0186690
775.790	0.0186238
775.868	0.0187652
775.946	0.0185867
776.024	0.0187037
776.102	0.0185268
776.180	0.0185877
776.259	0.0185627
776.337	0.0187077
776.415	0.0185933
776.493	0.0186623
776.571	0.0184479
776.649	0.0185738
776.727	0.0185329
776.805	0.0185016
776.884	0.0185008
776.962	0.0186233
777.040	0.0185577
777.118	0.0185531
777.196	0.0186028
777.274	0.0186227
777.352	0.0187553
777.430	0.0185595
777.509	0.0186507
777.587	0.0186657
777.665	0.0187478
777.743	0.0186132
777.821	0.0186266
777.899	0.0187214
777.977	0.0186988
778.055	0.0186863
778.134	0.0187640
778.212	0.0186979
778.290	0.0187074
778.368	0.0186521
778.446	0.0187131
778.524	0.0186588
778.602	0.0185276
778.680	0.0187676
778.759	0.0187515
778.837	0.0185841
778.915	0.0186929
778.993	0.0187670
779.071	0.0186211
779.149	0.0188120
779.227	0.0189080
779.305	0.0188873
779.384	0.0188234
779.462	0.0186953
779.540	0.0187620
779.618	0.0187900
779.696	0.0186835
779.774	0.0186679
779.852	0.0185600
779.930	0.0186942
780.009	0.0186485
780.087	0.0185863
780.165	0.0186672
780.243	0.0184814
780.321	0.0185437
780.399	0.0186034
780.477	0.0184870
780.555	0.0183848
780.634	0.0183575
780.712	0.0183573
780.790	0.0183270
780.868	0.0183981
780.946	0.0183148
781.024	0.0181950
781.102	0.0182330
781.180	0.0182732
781.259	0.0182027
781.337	0.0181660
781.415	0.0182728
781.493	0.0181850
781.571	0.0182191
781.649	0.0182330
781.727	0.0182475
781.805	0.0182242
781.884	0.0181968
781.962	0.0182239
782.040	0.0182458
782.118	0.0182649
782.196	0.0182978
782.274	0.0181709
782.352	0.0183173
782.430	0.0184350
782.509	0.0182771
782.587	0.0183656
782.665	0.0183241
782.743	0.0184972
782.821	0.0184734
782.899	0.0184312
782.977	0.0185332
783.055	0.0186014
783.134	0.0186469
783.212	0.0186822
783.290	0.0185234
783.368	0.0186266
783.446	0.0185999
783.524	0.0187257
783.602	0.0186245
783.680	0.0185799
783.759	0.0186206
783.837	0.0185056
783.915	0.0186526
783.993	0.0186401
784.071	0.0185705
784.149	0.0185260
784.227	0.0185597
784.305	0.0186684
784.384	0.0184509
784.462	0.0184920
784.540	0.0184842
784.618	0.0186594
784.696	0.0184460
784.774	0.0184902
784.852	0.0184454
784.930	0.0184711
785.009	0.0185500
785.087	0.0184563
785.165	0.0183489
785.243	0.0184505
785.321	0.0184309
785.399	0.0183588
785.477	0.0184510
785.555	0.0185172
785.634	0.0184644
785.712	0.0183397
785.790	0.0183964
785.868	0.0184541
785.946	0.0184356
786.024	0.0184354
786.102	0.0184669
786.180	0.0185612
786.259	0.0185994
786.337	0.0185490
786.415	0.0184306
786.493	0.0185773
786.571	0.0186279
786.649	0.0186168
786.727	0.0185579
786.805	0.0186349
786.884	0.0187115
786.962	0.0187303
787.040	0.0187800
787.118	0.0186971
787.196	0.0187591
787.274	0.0188789
787.352	0.0188398
787.430	0.0187937
787.509	0.0189539
787.587	0.0189664
787.665	0.0190598
787.743	0.0188355
787.821	0.0189253
787.899	0.0187854
787.977	0.0188731
788.055	0.0189574
788.134	0.0188198
788.212	0.0188541
788.290	0.0188180
788.368	0.0188096
788.446	0.0186498
788.524	0.0188596
788.602	0.0187766
788.680	0.0186111
788.759	0.0187645
788.837	0.0186980
788.915	0.0185420
788.993	0.0185195
789.071	0.0184766
789.149	0.0184204
789.227	0.0185162
789.305	0.0184653
789.384	0.0182785
789.462	0.0182738
789.540	0.0181924
789.618	0.0182098
789.696	0.0182250
789.774	0.0181825
789.852	0.0183177
789.930	0.0183860
790.009	0.0182883
790.087	0.0183086
790.165	0.0182233
790.243	0.0184718
790.321	0.0183845
790.399	0.0184300
790.477	0.0185046
790.555	0.0184978
790.634	0.0185282
790.712	0.0185744
790.790	0.0185757
790.868	0.0185343
790.946	0.0184243
791.024	0.0185892
791.102	0.0185004
791.180	0.0184212
791.259	0.0185432
791.337	0.0186562
791.415	0.0185323
791.493	0.0185400
791.571	0.0184741
791.649	0.0184641
791.727	0.0185036
791.805	0.0183960
791.884	0.0184656
791.962	0.0183904
792.040	0.0184657
792.118	0.0184991
792.196	0.0184177
792.274	0.0183121
792.352	0.0183168
792.430	0.0182684
792.509	0.0184615
792.587	0.0184258
792.665	0.0182975
792.743	0.0182855
792.821	0.0182468
792.899	0.0182306
792.977	0.0184144
793.055	0.0183852
793.134	0.0183877
793.212	0.0182660
793.290	0.0183562
793.368	0.0183234
793.446	0.0184035
793.524	0.0185677
793.602	0.0185080
793.680	0.0184738
793.759	0.0185274
793.837	0.0185497
793.915	0.0185909
793.993	0.0186646
794.071	0.0186524
794.149	0.0186517
794.227	0.0186856
794.305	0.0185276
794.384	0.0185123
794.462	0.0185552
794.540	0.0187112
794.618	0.0186294
794.696	0.0185020
794.774	0.0185667
794.852	0.0184947
794.930	0.0185774
