06/03/2022	18:49:15	Ver.	4.1	UNKNOWN
Optical Delay	475.008614	Delta X		0.078125	Sweeps	1	Scan Rate	0/0
Coordinates	Axis 1	NaN	Axis 2	NaN	Axis 3	NaN	Axis 4	NaN	Axis 5	NaN	Axis 6	0.000000
TX Power	0.000000	RX Power	0.000000

475.009	0.0186748
475.087	0.0185341
475.165	0.0186025
475.243	0.0184694
475.321	0.0185000
475.399	0.0184791
475.477	0.0185878
475.555	0.0185695
475.634	0.0184117
475.712	0.0184695
475.790	0.0184945
475.868	0.0184347
475.946	0.0184097
476.024	0.0184762
476.102	0.0184550
476.180	0.0184342
476.259	0.0184142
476.337	0.0185275
476.415	0.0184444
476.493	0.0183372
476.571	0.0184589
476.649	0.0186037
476.727	0.0185106
476.805	0.0184099
476.884	0.0184975
476.962	0.0185391
477.040	0.0185162
477.118	0.0183936
477.196	0.0185395
477.274	0.0185156
477.352	0.0185123
477.430	0.0184747
477.509	0.0183922
477.587	0.0185488
477.665	0.0185658
477.743	0.0185739
477.821	0.0185634
477.899	0.0185558
477.977	0.0185098
478.055	0.0184055
478.134	0.0186217
478.212	0.0185447
478.290	0.0185093
478.368	0.0185785
478.446	0.0185714
478.524	0.0187354
478.602	0.0187741
478.680	0.0186375
478.759	0.0185926
478.837	0.0186537
478.915	0.0188177
478.993	0.0188990
479.071	0.0187920
479.149	0.0187028
479.227	0.0187578
479.305	0.0188397
479.384	0.0188450
479.462	0.0187932
479.540	0.0187326
479.618	0.0189243
479.696	0.0188628
479.774	0.0186967
479.852	0.0188152
479.930	0.0188033
480.009	0.0188380
480.087	0.0189614
480.165	0.0189111
480.243	0.0188443
480.321	0.0188034
480.399	0.0188976
480.477	0.0188002
480.555	0.0187991
480.634	0.0188141
480.712	0.0187476
480.790	0.0187897
480.868	0.0188285
480.946	0.0186799
481.024	0.0187963
481.102	0.0187713
481.180	0.0186828
481.259	0.0186465
481.337	0.0185615
481.415	0.0186072
481.493	0.0185036
481.571	0.0184967
481.649	0.0185356
481.727	0.0186052
481.805	0.0186801
481.884	0.0184949
481.962	0.0185252
482.040	0.0186015
482.118	0.0185654
482.196	0.0184010
482.274	0.0184119
482.352	0.0186790
482.430	0.0186217
482.509	0.0185995
482.587	0.0186192
482.665	0.0184733
482.743	0.0186237
482.821	0.0185143
482.899	0.0186709
482.977	0.0185654
483.055	0.0185009
483.134	0.0184911
483.212	0.0186519
483.290	0.0186113
483.368	0.0185207
483.446	0.0184404
483.524	0.0185838
483.602	0.0185690
483.680	0.0185165
483.759	0.0184033
483.837	0.0183366
483.915	0.0184508
483.993	0.0185538
484.071	0.0184462
484.149	0.0184258
484.227	0.0183447
484.305	0.0184265
484.384	0.0184609
484.462	0.0183525
484.540	0.0182876
484.618	0.0183466
484.696	0.0182780
484.774	0.0184087
484.852	0.0183347
484.930	0.0182880
485.009	0.0182745
485.087	0.0181963
485.165	0.0182340
485.243	0.0182222
485.321	0.0181630
485.399	0.0182151
485.477	0.0182648
485.555	0.0181873
485.634	0.0180574
485.712	0.0180969
485.790	0.0181849
485.868	0.0182331
485.946	0.0180973
486.024	0.0180180
486.102	0.0181144
486.180	0.0180522
486.259	0.0180990
486.337	0.0181078
486.415	0.0181043
486.493	0.0181693
486.571	0.0181000
486.649	0.0179834
486.727	0.0181241
486.805	0.0181716
486.884	0.0180884
486.962	0.0181400
487.040	0.0182448
487.118	0.0182480
487.196	0.0180729
487.274	0.0183147
487.352	0.0182124
487.430	0.0182527
487.509	0.0181871
487.587	0.0182579
487.665	0.0181493
487.743	0.0182207
487.821	0.0180750
487.899	0.0181963
487.977	0.0183263
488.055	0.0182287
488.134	0.0182449
488.212	0.0183271
488.290	0.0181468
488.368	0.0182397
488.446	0.0182485
488.524	0.0182664
488.602	0.0182800
488.680	0.0184201
488.759	0.0182642
488.837	0.0184309
488.915	0.0184796
488.993	0.0184335
489.071	0.0183199
489.149	0.0184847
489.227	0.0184235
489.305	0.0185048
489.384	0.0185414
489.462	0.0184969
489.540	0.0184914
489.618	0.0185087
489.696	0.0185881
489.774	0.0186276
489.852	0.0185538
489.930	0.0184701
490.009	0.0184468
490.087	0.0183442
490.165	0.0185309
490.243	0.0186177
490.321	0.0184171
490.399	0.0184863
490.477	0.0185256
490.555	0.0185648
490.634	0.0185104
490.712	0.0183377
490.790	0.0184766
490.868	0.0186365
490.946	0.0184644
491.024	0.0184123
491.102	0.0184861
491.180	0.0183538
491.259	0.0184384
491.337	0.0183813
491.415	0.0184344
491.493	0.0183456
491.571	0.0182790
491.649	0.0184134
491.727	0.0184566
491.805	0.0184641
491.884	0.0182697
491.962	0.0184283
492.040	0.0183314
492.118	0.0182858
492.196	0.0183691
492.274	0.0185751
492.352	0.0182734
492.430	0.0183968
492.509	0.0183646
492.587	0.0183727
492.665	0.0183609
492.743	0.0183508
492.821	0.0181875
492.899	0.0182742
492.977	0.0182820
493.055	0.0182324
493.134	0.0183432
493.212	0.0182202
493.290	0.0183669
493.368	0.0182994
493.446	0.0183324
493.524	0.0184622
493.602	0.0183345
493.680	0.0182805
493.759	0.0182363
493.837	0.0182854
493.915	0.0182110
493.993	0.0184352
494.071	0.0184100
494.149	0.0183913
494.227	0.0183706
494.305	0.0184347
494.384	0.0183027
494.462	0.0183769
494.540	0.0183781
494.618	0.0183640
494.696	0.0184605
494.774	0.0183325
494.852	0.0183196
494.930	0.0183176
495.009	0.0183551
495.087	0.0182819
495.165	0.0183527
495.243	0.0183894
495.321	0.0182146
495.399	0.0183277
495.477	0.0183143
495.555	0.0183093
495.634	0.0184415
495.712	0.0183190
495.790	0.0182416
495.868	0.0181642
495.946	0.0182886
496.024	0.0182132
496.102	0.0184416
496.180	0.0182408
496.259	0.0182436
496.337	0.0182112
496.415	0.0182480
496.493	0.0183694
496.571	0.0183600
496.649	0.0182469
496.727	0.0182019
496.805	0.0182320
496.884	0.0182996
496.962	0.0182807
497.040	0.0182957
497.118	0.0183196
497.196	0.0183705
497.274	0.0183734
497.352	0.0181815
497.430	0.0182501
497.509	0.0184543
497.587	0.0183649
497.665	0.0183581
497.743	0.0183002
497.821	0.0183772
497.899	0.0184859
497.977	0.0184760
498.055	0.0183537
498.134	0.0184967
498.212	0.0185233
498.290	0.0183796
498.368	0.0184382
498.446	0.0184745
498.524	0.0186627
498.602	0.0185438
498.680	0.0185394
498.759	0.0186044
498.837	0.0185583
498.915	0.0185754
498.993	0.0185606
499.071	0.0186580
499.149	0.0184682
499.227	0.0184422
499.305	0.0185439
499.384	0.0185736
499.462	0.0186359
499.540	0.0185986
499.618	0.0185526
499.696	0.0185868
499.774	0.0186086
499.852	0.0185262
499.930	0.0186356
500.009	0.0187782
500.087	0.0187137
500.165	0.0185598
500.243	0.0187222
500.321	0.0186308
500.399	0.0186056
500.477	0.0187659
500.555	0.0187193
500.634	0.0187095
500.712	0.0187999
500.790	0.0186258
500.868	0.0186282
500.946	0.0186794
501.024	0.0186213
501.102	0.0186923
501.180	0.0186792
501.259	0.0186326
501.337	0.0186670
501.415	0.0186626
501.493	0.0187437
501.571	0.0187704
501.649	0.0186459
501.727	0.0186671
501.805	0.0187259
501.884	0.0186244
501.962	0.0186833
502.040	0.0186908
502.118	0.0187172
502.196	0.0187560
502.274	0.0186916
502.352	0.0186896
502.430	0.0186965
502.509	0.0189280
502.587	0.0186058
502.665	0.0187679
502.743	0.0187267
502.821	0.0185766
502.899	0.0187340
502.977	0.0186594
503.055	0.0186995
503.134	0.0186922
503.212	0.0187072
503.290	0.0187224
503.368	0.0186753
503.446	0.0188105
503.524	0.0187389
503.602	0.0186594
503.680	0.0188128
503.759	0.0186162
503.837	0.0187638
503.915	0.0187740
503.993	0.0186888
504.071	0.0187332
504.149	0.0186716
504.227	0.0186716
504.305	0.0187267
504.384	0.0186835
504.462	0.0185966
504.540	0.0186342
504.618	0.0186547
504.696	0.0185990
504.774	0.0186221
504.852	0.0184283
504.930	0.0186028
505.009	0.0186611
505.087	0.0184650
505.165	0.0184149
505.243	0.0185310
505.321	0.0183785
505.399	0.0185278
505.477	0.0184969
505.555	0.0184327
505.634	0.0183222
505.712	0.0183797
505.790	0.0184007
505.868	0.0183714
505.946	0.0183989
506.024	0.0183720
506.102	0.0183781
506.180	0.0183915
506.259	0.0181779
506.337	0.0183037
506.415	0.0183221
506.493	0.0183589
506.571	0.0182415
506.649	0.0183665
506.727	0.0184235
506.805	0.0184069
506.884	0.0183591
506.962	0.0184248
507.040	0.0184631
507.118	0.0185230
507.196	0.0183978
507.274	0.0183620
507.352	0.0182713
507.430	0.0183545
507.509	0.0184680
507.587	0.0184685
507.665	0.0184035
507.743	0.0184958
507.821	0.0184453
507.899	0.0184603
507.977	0.0185332
508.055	0.0186512
508.134	0.0185213
508.212	0.0185094
508.290	0.0185784
508.368	0.0186739
508.446	0.0186317
508.524	0.0187379
508.602	0.0187029
508.680	0.0186236
508.759	0.0187659
508.837	0.0186713
508.915	0.0188713
508.993	0.0189119
509.071	0.0187411
509.149	0.0188371
509.227	0.0189076
509.305	0.0188939
509.384	0.0188860
509.462	0.0188766
509.540	0.0189205
509.618	0.0188378
509.696	0.0188303
509.774	0.0188477
509.852	0.0187325
509.930	0.0187959
510.009	0.0189464
510.087	0.0188528
510.165	0.0188923
510.243	0.0188766
510.321	0.0188503
510.399	0.0189172
510.477	0.0188634
510.555	0.0189854
510.634	0.0189147
510.712	0.0189684
510.790	0.0188627
510.868	0.0189695
510.946	0.0189384
511.024	0.0189998
511.102	0.0191102
511.180	0.0189175
511.259	0.0189506
511.337	0.0189124
511.415	0.0190277
511.493	0.0190110
511.571	0.0189770
511.649	0.0189684
511.727	0.0189562
511.805	0.0189084
511.884	0.0189443
511.962	0.0188290
512.040	0.0188537
512.118	0.0189874
512.196	0.0188860
512.274	0.0187820
512.352	0.0188858
512.430	0.0188918
512.509	0.0188051
512.587	0.0186993
512.665	0.0187067
512.743	0.0186549
512.821	0.0185543
512.899	0.0184943
512.977	0.0185590
513.055	0.0183272
513.134	0.0184368
513.212	0.0184051
513.290	0.0183076
513.368	0.0182899
513.446	0.0182693
513.524	0.0181164
513.602	0.0182526
513.680	0.0180157
513.759	0.0181085
513.837	0.0179359
513.915	0.0180674
513.993	0.0180045
514.071	0.0179746
514.149	0.0177400
514.227	0.0177897
514.305	0.0178579
514.384	0.0177337
514.462	0.0176596
514.540	0.0178200
514.618	0.0177995
514.696	0.0176940
514.774	0.0177955
514.852	0.0176202
514.930	0.0176155
515.009	0.0177808
515.087	0.0176318
515.165	0.0176502
515.243	0.0176700
515.321	0.0176063
515.399	0.0175933
515.477	0.0176482
515.555	0.0177178
515.634	0.0175729
515.712	0.0177422
515.790	0.0176084
515.868	0.0175198
515.946	0.0176810
516.024	0.0175940
516.102	0.0176096
516.180	0.0177366
516.259	0.0176406
516.337	0.0176063
516.415	0.0177652
516.493	0.0176688
516.571	0.0176112
516.649	0.0176575
516.727	0.0177248
516.805	0.0176497
516.884	0.0177789
516.962	0.0177052
517.040	0.0178062
517.118	0.0177247
517.196	0.0178789
517.274	0.0180362
517.352	0.0179230
517.430	0.0179220
517.509	0.0180997
517.587	0.0180721
517.665	0.0181897
517.743	0.0181617
517.821	0.0181587
517.899	0.0183195
517.977	0.0182587
518.055	0.0184084
518.134	0.0184876
518.212	0.0184052
518.290	0.0183753
518.368	0.0186235
518.446	0.0185585
518.524	0.0186047
518.602	0.0186587
518.680	0.0186555
518.759	0.0187577
518.837	0.0188071
518.915	0.0187501
518.993	0.0186440
519.071	0.0187711
519.149	0.0188437
519.227	0.0188402
519.305	0.0189069
519.384	0.0190435
519.462	0.0189109
519.540	0.0189748
519.618	0.0189725
519.696	0.0189989
519.774	0.0188921
519.852	0.0190268
519.930	0.0189704
520.009	0.0189870
520.087	0.0190752
520.165	0.0189641
520.243	0.0190098
520.321	0.0190496
520.399	0.0187959
520.477	0.0189641
520.555	0.0188998
520.634	0.0190097
520.712	0.0189583
520.790	0.0189070
520.868	0.0188854
520.946	0.0188892
521.024	0.0187937
521.102	0.0189413
521.180	0.0187557
521.259	0.0187748
521.337	0.0188472
521.415	0.0188464
521.493	0.0187794
521.571	0.0186423
521.649	0.0186651
521.727	0.0185639
521.805	0.0186649
521.884	0.0186494
521.962	0.0186600
522.040	0.0184800
522.118	0.0184721
522.196	0.0186083
522.274	0.0183317
522.352	0.0183347
522.430	0.0185269
522.509	0.0183821
522.587	0.0183049
522.665	0.0182183
522.743	0.0182047
522.821	0.0182902
522.899	0.0182443
522.977	0.0183862
523.055	0.0183971
523.134	0.0184025
523.212	0.0182834
523.290	0.0183913
523.368	0.0183713
523.446	0.0182893
523.524	0.0182384
523.602	0.0181715
523.680	0.0181423
523.759	0.0181084
523.837	0.0180592
523.915	0.0180614
523.993	0.0180621
524.071	0.0181380
524.149	0.0180445
524.227	0.0179250
524.305	0.0179339
524.384	0.0179205
524.462	0.0180378
524.540	0.0181081
524.618	0.0179304
524.696	0.0180329
524.774	0.0179961
524.852	0.0180329
524.930	0.0181084
525.009	0.0180682
525.087	0.0180793
525.165	0.0179117
525.243	0.0180036
525.321	0.0180830
525.399	0.0182458
525.477	0.0180470
525.555	0.0180579
525.634	0.0180989
525.712	0.0180695
525.790	0.0182011
525.868	0.0182362
525.946	0.0182557
526.024	0.0181485
526.102	0.0180802
526.180	0.0181360
526.259	0.0181910
526.337	0.0182231
526.415	0.0182052
526.493	0.0183926
526.571	0.0184027
526.649	0.0182697
526.727	0.0184641
526.805	0.0185241
526.884	0.0185384
526.962	0.0184645
527.040	0.0184736
527.118	0.0184687
527.196	0.0186375
527.274	0.0186752
527.352	0.0185956
527.430	0.0187186
527.509	0.0186326
527.587	0.0187953
527.665	0.0188583
527.743	0.0188657
527.821	0.0189285
527.899	0.0190582
527.977	0.0189653
528.055	0.0190905
528.134	0.0190836
528.212	0.0190570
528.290	0.0192310
528.368	0.0191376
528.446	0.0191179
528.524	0.0191757
528.602	0.0192110
528.680	0.0191679
528.759	0.0192248
528.837	0.0193617
528.915	0.0192922
528.993	0.0191624
529.071	0.0193872
529.149	0.0191091
529.227	0.0192475
529.305	0.0192362
529.384	0.0194824
529.462	0.0192685
529.540	0.0194313
529.618	0.0195240
529.696	0.0194433
529.774	0.0195023
529.852	0.0193643
529.930	0.0194041
530.009	0.0193188
530.087	0.0193394
530.165	0.0193000
530.243	0.0191474
530.321	0.0194189
530.399	0.0193635
530.477	0.0190885
530.555	0.0192401
530.634	0.0191380
530.712	0.0190615
530.790	0.0191166
530.868	0.0192346
530.946	0.0189651
531.024	0.0190457
531.102	0.0189300
531.180	0.0189516
531.259	0.0189773
531.337	0.0190569
531.415	0.0189684
531.493	0.0190060
531.571	0.0189750
531.649	0.0189813
531.727	0.0190126
531.805	0.0189838
531.884	0.0189020
531.962	0.0188870
532.040	0.0188124
532.118	0.0187264
532.196	0.0187788
532.274	0.0187933
532.352	0.0188597
532.430	0.0186690
532.509	0.0186812
532.587	0.0186578
532.665	0.0185699
532.743	0.0185508
532.821	0.0184581
532.899	0.0185782
532.977	0.0185105
533.055	0.0186800
533.134	0.0185384
533.212	0.0183897
533.290	0.0184235
533.368	0.0185122
533.446	0.0185177
533.524	0.0184290
533.602	0.0184782
533.680	0.0183884
533.759	0.0183461
533.837	0.0183589
533.915	0.0182475
533.993	0.0184504
534.071	0.0183218
534.149	0.0183144
534.227	0.0182996
534.305	0.0183485
534.384	0.0181056
534.462	0.0182316
534.540	0.0183601
534.618	0.0182938
534.696	0.0181699
534.774	0.0181913
534.852	0.0180757
534.930	0.0181532
535.009	0.0181580
535.087	0.0179432
535.165	0.0181317
535.243	0.0179372
535.321	0.0180326
535.399	0.0181490
535.477	0.0182164
535.555	0.0179960
535.634	0.0178999
535.712	0.0180150
535.790	0.0179897
535.868	0.0178192
535.946	0.0177441
536.024	0.0177142
536.102	0.0176530
536.180	0.0176740
536.259	0.0175383
536.337	0.0174326
536.415	0.0172894
536.493	0.0170408
536.571	0.0170654
536.649	0.0169090
536.727	0.0170005
536.805	0.0168268
536.884	0.0167635
536.962	0.0166515
537.040	0.0168098
537.118	0.0166548
537.196	0.0167216
537.274	0.0168396
537.352	0.0168987
537.430	0.0170578
537.509	0.0169707
537.587	0.0170390
537.665	0.0171883
537.743	0.0172932
537.821	0.0174210
537.899	0.0173827
537.977	0.0176490
538.055	0.0176840
538.134	0.0175864
538.212	0.0177336
538.290	0.0178400
538.368	0.0176576
538.446	0.0178667
538.524	0.0178769
538.602	0.0177272
538.680	0.0178069
538.759	0.0177840
538.837	0.0178819
538.915	0.0178642
538.993	0.0179910
539.071	0.0180036
539.149	0.0179418
539.227	0.0180730
539.305	0.0180847
539.384	0.0181848
539.462	0.0183058
539.540	0.0185272
539.618	0.0186385
539.696	0.0189220
539.774	0.0188867
539.852	0.0190534
539.930	0.0193237
540.009	0.0195715
540.087	0.0195766
540.165	0.0197712
540.243	0.0198722
540.321	0.0200344
540.399	0.0202227
540.477	0.0202773
540.555	0.0202432
540.634	0.0204533
540.712	0.0206642
540.790	0.0205355
540.868	0.0204422
540.946	0.0205634
541.024	0.0206316
541.102	0.0207266
541.180	0.0205681
541.259	0.0204692
541.337	0.0203956
541.415	0.0203643
541.493	0.0205181
541.571	0.0204123
541.649	0.0201873
541.727	0.0201579
541.805	0.0201226
541.884	0.0199944
541.962	0.0198936
542.040	0.0198676
542.118	0.0197808
542.196	0.0196321
542.274	0.0196352
542.352	0.0194040
542.430	0.0193500
542.509	0.0191869
542.587	0.0191257
542.665	0.0188699
542.743	0.0189768
542.821	0.0188906
542.899	0.0186726
542.977	0.0186223
543.055	0.0185583
543.134	0.0183203
543.212	0.0182571
543.290	0.0181732
543.368	0.0180844
543.446	0.0179218
543.524	0.0180928
543.602	0.0178931
543.680	0.0179213
543.759	0.0178216
543.837	0.0180366
543.915	0.0179463
543.993	0.0179206
544.071	0.0178908
544.149	0.0180518
544.227	0.0180704
544.305	0.0181225
544.384	0.0180424
544.462	0.0180441
544.540	0.0181447
544.618	0.0180482
544.696	0.0181520
544.774	0.0179765
544.852	0.0181624
544.930	0.0182003
545.009	0.0180270
545.087	0.0179926
545.165	0.0178468
545.243	0.0179076
545.321	0.0180608
545.399	0.0179769
545.477	0.0178822
545.555	0.0179320
545.634	0.0178512
545.712	0.0178604
545.790	0.0178419
545.868	0.0178110
545.946	0.0178682
546.024	0.0179342
546.102	0.0178131
546.180	0.0179038
546.259	0.0178397
546.337	0.0178230
546.415	0.0179654
546.493	0.0179714
546.571	0.0180018
546.649	0.0179421
546.727	0.0180290
546.805	0.0179921
546.884	0.0180806
546.962	0.0180482
547.040	0.0178889
547.118	0.0179926
547.196	0.0179999
547.274	0.0176815
547.352	0.0180092
547.430	0.0180340
547.509	0.0179234
547.587	0.0179756
547.665	0.0179195
547.743	0.0179965
547.821	0.0180116
547.899	0.0178876
547.977	0.0180495
548.055	0.0179935
548.134	0.0180727
548.212	0.0182320
548.290	0.0182158
548.368	0.0183451
548.446	0.0183056
548.524	0.0185482
548.602	0.0184384
548.680	0.0184010
548.759	0.0185075
548.837	0.0184242
548.915	0.0183524
548.993	0.0185619
549.071	0.0185301
549.149	0.0185862
549.227	0.0185699
549.305	0.0185770
549.384	0.0184641
549.462	0.0184420
549.540	0.0186638
549.618	0.0185327
549.696	0.0186278
549.774	0.0187531
549.852	0.0187290
549.930	0.0187415
550.009	0.0185920
550.087	0.0189133
550.165	0.0187524
550.243	0.0187663
550.321	0.0190179
550.399	0.0189683
550.477	0.0190134
550.555	0.0190915
550.634	0.0192343
550.712	0.0192043
550.790	0.0189878
550.868	0.0191338
550.946	0.0191296
551.024	0.0191729
551.102	0.0191763
551.180	0.0191409
551.259	0.0192239
551.337	0.0192615
551.415	0.0192914
551.493	0.0193050
551.571	0.0192700
551.649	0.0192760
551.727	0.0191991
551.805	0.0192817
551.884	0.0191709
551.962	0.0193948
552.040	0.0192687
552.118	0.0191747
552.196	0.0192222
552.274	0.0191798
552.352	0.0193571
552.430	0.0190525
552.509	0.0191620
552.587	0.0192131
552.665	0.0190915
552.743	0.0191064
552.821	0.0192911
552.899	0.0189969
552.977	0.0191747
553.055	0.0190974
553.134	0.0191159
553.212	0.0189568
553.290	0.0190827
553.368	0.0190791
553.446	0.0189651
553.524	0.0188608
553.602	0.0189087
553.680	0.0188988
553.759	0.0187730
553.837	0.0188471
553.915	0.0186198
553.993	0.0187354
554.071	0.0184883
554.149	0.0183866
554.227	0.0183859
554.305	0.0183418
554.384	0.0182909
554.462	0.0181600
554.540	0.0182769
554.618	0.0179697
554.696	0.0179404
554.774	0.0178646
554.852	0.0176970
554.930	0.0178851
555.009	0.0178027
555.087	0.0176180
555.165	0.0175192
555.243	0.0175638
555.321	0.0175385
555.399	0.0174897
555.477	0.0175272
555.555	0.0173949
555.634	0.0172975
555.712	0.0173118
555.790	0.0173756
555.868	0.0172874
555.946	0.0173244
556.024	0.0174059
556.102	0.0172661
556.180	0.0173502
556.259	0.0174419
556.337	0.0174599
556.415	0.0174666
556.493	0.0174955
556.571	0.0176360
556.649	0.0176138
556.727	0.0177438
556.805	0.0177492
556.884	0.0178115
556.962	0.0178435
557.040	0.0179634
557.118	0.0181322
557.196	0.0182385
557.274	0.0183512
557.352	0.0183851
557.430	0.0183463
557.509	0.0184760
557.587	0.0186747
557.665	0.0186567
557.743	0.0186545
557.821	0.0187576
557.899	0.0188765
557.977	0.0190106
558.055	0.0189838
558.134	0.0190591
558.212	0.0190516
558.290	0.0191080
558.368	0.0190771
558.446	0.0191910
558.524	0.0190971
558.602	0.0190910
558.680	0.0191541
558.759	0.0190150
558.837	0.0191998
558.915	0.0191914
558.993	0.0192834
559.071	0.0192468
559.149	0.0191581
559.227	0.0192085
559.305	0.0193002
559.384	0.0193980
559.462	0.0193077
559.540	0.0192588
559.618	0.0192240
559.696	0.0193855
559.774	0.0193114
559.852	0.0191245
559.930	0.0190852
560.009	0.0191700
560.087	0.0190098
560.165	0.0189236
560.243	0.0188894
560.321	0.0186146
560.399	0.0185806
560.477	0.0185068
560.555	0.0184314
560.634	0.0185754
560.712	0.0183893
560.790	0.0182643
560.868	0.0184993
560.946	0.0185484
561.024	0.0182743
561.102	0.0183311
561.180	0.0184515
561.259	0.0184955
561.337	0.0184406
561.415	0.0183052
561.493	0.0184406
561.571	0.0183834
561.649	0.0182761
561.727	0.0183942
561.805	0.0185328
561.884	0.0184945
561.962	0.0184552
562.040	0.0184892
562.118	0.0184531
562.196	0.0185647
562.274	0.0185323
562.352	0.0185615
562.430	0.0185806
562.509	0.0185017
562.587	0.0184315
562.665	0.0185386
562.743	0.0184959
562.821	0.0184259
562.899	0.0183687
562.977	0.0184356
563.055	0.0183669
563.134	0.0182558
563.212	0.0181950
563.290	0.0180678
563.368	0.0181840
563.446	0.0181294
563.524	0.0181032
563.602	0.0180248
563.680	0.0179443
563.759	0.0180114
563.837	0.0180291
563.915	0.0179444
563.993	0.0180036
564.071	0.0180058
564.149	0.0178843
564.227	0.0178758
564.305	0.0179624
564.384	0.0179675
564.462	0.0178740
564.540	0.0177984
564.618	0.0178748
564.696	0.0179547
564.774	0.0181308
564.852	0.0179856
564.930	0.0180035
565.009	0.0180053
565.087	0.0179996
565.165	0.0181048
565.243	0.0180718
565.321	0.0180898
565.399	0.0182079
565.477	0.0181815
565.555	0.0183535
565.634	0.0183647
565.712	0.0183192
565.790	0.0182243
565.868	0.0183250
565.946	0.0184038
566.024	0.0182710
566.102	0.0182421
566.180	0.0183618
566.259	0.0182422
566.337	0.0181425
566.415	0.0181067
566.493	0.0181338
566.571	0.0181485
566.649	0.0180853
566.727	0.0181236
566.805	0.0180534
566.884	0.0182187
566.962	0.0181642
567.040	0.0182440
567.118	0.0181197
567.196	0.0180192
567.274	0.0180640
567.352	0.0180651
567.430	0.0181664
567.509	0.0180872
567.587	0.0181295
567.665	0.0180610
567.743	0.0178737
567.821	0.0179435
567.899	0.0181689
567.977	0.0180866
568.055	0.0179293
568.134	0.0179751
568.212	0.0179720
568.290	0.0180952
568.368	0.0180730
568.446	0.0180201
568.524	0.0181087
568.602	0.0181046
568.680	0.0180833
568.759	0.0181213
568.837	0.0183192
568.915	0.0181597
568.993	0.0183221
569.071	0.0184245
569.149	0.0183897
569.227	0.0185513
569.305	0.0187070
569.384	0.0186311
569.462	0.0187418
569.540	0.0186852
569.618	0.0187834
569.696	0.0188992
569.774	0.0190243
569.852	0.0189595
569.930	0.0189817
570.009	0.0189874
570.087	0.0189189
570.165	0.0190030
570.243	0.0191125
570.321	0.0191742
570.399	0.0190194
570.477	0.0189268
570.555	0.0190887
570.634	0.0189115
570.712	0.0191108
570.790	0.0189390
570.868	0.0188068
570.946	0.0188322
571.024	0.0189008
571.102	0.0189191
571.180	0.0188942
571.259	0.0189475
571.337	0.0189607
571.415	0.0189174
571.493	0.0188937
571.571	0.0188689
571.649	0.0188524
571.727	0.0188404
571.805	0.0188326
571.884	0.0187689
571.962	0.0187640
572.040	0.0188998
572.118	0.0187022
572.196	0.0187952
572.274	0.0186958
572.352	0.0187367
572.430	0.0186676
572.509	0.0186147
572.587	0.0187353
572.665	0.0185400
572.743	0.0185977
572.821	0.0186305
572.899	0.0186132
572.977	0.0184982
573.055	0.0185781
573.134	0.0186065
573.212	0.0185933
573.290	0.0186562
573.368	0.0186959
573.446	0.0185770
573.524	0.0186497
573.602	0.0186980
573.680	0.0187241
573.759	0.0186704
573.837	0.0185960
573.915	0.0186561
573.993	0.0188360
574.071	0.0187900
574.149	0.0186860
574.227	0.0187932
574.305	0.0188615
574.384	0.0187922
574.462	0.0188134
574.540	0.0188542
574.618	0.0188927
574.696	0.0188837
574.774	0.0187996
574.852	0.0188931
574.930	0.0188298
575.009	0.0186484
575.087	0.0184027
575.165	0.0184618
575.243	0.0185429
575.321	0.0185600
575.399	0.0184509
575.477	0.0183945
575.555	0.0184235
575.634	0.0183538
575.712	0.0184490
575.790	0.0183386
575.868	0.0183412
575.946	0.0184859
576.024	0.0184422
576.102	0.0183025
576.180	0.0184779
576.259	0.0183334
576.337	0.0182498
576.415	0.0182880
576.493	0.0183355
576.571	0.0183498
576.649	0.0183355
576.727	0.0183011
576.805	0.0182230
576.884	0.0183262
576.962	0.0182746
577.040	0.0184110
577.118	0.0184246
577.196	0.0182748
577.274	0.0183038
577.352	0.0182498
577.430	0.0181733
577.509	0.0182513
577.587	0.0182539
577.665	0.0181841
577.743	0.0183059
577.821	0.0182140
577.899	0.0181384
577.977	0.0182412
578.055	0.0182477
578.134	0.0182214
578.212	0.0182478
578.290	0.0181591
578.368	0.0180347
578.446	0.0181973
578.524	0.0181056
578.602	0.0180618
578.680	0.0182556
578.759	0.0180852
578.837	0.0180742
578.915	0.0181283
578.993	0.0180129
579.071	0.0180068
579.149	0.0181199
579.227	0.0181213
579.305	0.0180278
579.384	0.0180602
579.462	0.0180061
579.540	0.0182903
579.618	0.0181489
579.696	0.0180459
579.774	0.0181821
579.852	0.0182877
579.930	0.0180963
580.009	0.0182590
580.087	0.0181499
580.165	0.0183064
580.243	0.0185225
580.321	0.0184354
580.399	0.0185375
580.477	0.0185106
580.555	0.0184603
580.634	0.0186245
580.712	0.0185448
580.790	0.0186334
580.868	0.0185802
580.946	0.0187776
581.024	0.0187018
581.102	0.0187061
581.180	0.0187138
581.259	0.0186914
581.337	0.0188152
581.415	0.0188006
581.493	0.0188267
581.571	0.0186487
581.649	0.0188428
581.727	0.0188919
581.805	0.0188191
581.884	0.0189384
581.962	0.0188727
582.040	0.0188560
582.118	0.0188820
582.196	0.0189647
582.274	0.0190488
582.352	0.0189285
582.430	0.0189865
582.509	0.0190834
582.587	0.0190581
582.665	0.0191135
582.743	0.0190411
582.821	0.0190060
582.899	0.0188608
582.977	0.0189879
583.055	0.0191716
583.134	0.0191473
583.212	0.0191515
583.290	0.0191312
583.368	0.0191254
583.446	0.0191492
583.524	0.0189095
583.602	0.0189302
583.680	0.0190980
583.759	0.0191021
583.837	0.0188924
583.915	0.0190572
583.993	0.0190527
584.071	0.0190583
584.149	0.0189326
584.227	0.0188905
584.305	0.0186548
584.384	0.0187815
584.462	0.0188740
584.540	0.0188946
584.618	0.0187618
584.696	0.0186707
584.774	0.0185757
584.852	0.0187239
584.930	0.0186819
585.009	0.0185535
585.087	0.0184959
585.165	0.0186203
585.243	0.0184121
585.321	0.0183518
585.399	0.0184706
585.477	0.0183622
585.555	0.0183736
585.634	0.0183453
585.712	0.0182431
585.790	0.0183910
585.868	0.0182632
585.946	0.0182347
586.024	0.0181545
586.102	0.0181048
586.180	0.0181431
586.259	0.0181524
586.337	0.0181845
586.415	0.0180806
586.493	0.0180968
586.571	0.0179600
586.649	0.0179494
586.727	0.0180032
586.805	0.0180701
586.884	0.0178922
586.962	0.0179609
587.040	0.0180692
587.118	0.0180109
587.196	0.0180284
587.274	0.0180367
587.352	0.0180125
587.430	0.0180598
587.509	0.0180421
587.587	0.0181956
587.665	0.0181651
587.743	0.0181548
587.821	0.0180902
587.899	0.0181832
587.977	0.0182745
588.055	0.0181087
588.134	0.0182224
588.212	0.0183249
588.290	0.0182296
588.368	0.0183381
588.446	0.0183229
588.524	0.0183662
588.602	0.0182743
588.680	0.0183747
588.759	0.0183663
588.837	0.0182131
588.915	0.0182278
588.993	0.0183425
589.071	0.0181620
589.149	0.0183308
589.227	0.0182716
589.305	0.0181139
589.384	0.0182474
589.462	0.0182836
589.540	0.0181458
589.618	0.0184731
589.696	0.0183247
589.774	0.0181934
589.852	0.0182235
589.930	0.0182955
590.009	0.0182665
590.087	0.0182750
590.165	0.0182946
590.243	0.0183916
590.321	0.0182925
590.399	0.0184031
590.477	0.0183876
590.555	0.0183940
590.634	0.0184098
590.712	0.0184768
590.790	0.0182400
590.868	0.0182903
590.946	0.0184053
591.024	0.0183788
591.102	0.0183868
591.180	0.0184908
591.259	0.0184231
591.337	0.0185217
591.415	0.0185622
591.493	0.0184473
591.571	0.0184328
591.649	0.0184710
591.727	0.0185082
591.805	0.0185382
591.884	0.0185685
591.962	0.0185551
592.040	0.0185714
592.118	0.0184308
592.196	0.0185298
592.274	0.0185322
592.352	0.0184506
592.430	0.0185250
592.509	0.0186231
592.587	0.0186405
592.665	0.0184782
592.743	0.0185574
592.821	0.0184980
592.899	0.0186497
592.977	0.0185855
593.055	0.0185896
593.134	0.0185298
593.212	0.0184984
593.290	0.0185269
593.368	0.0184673
593.446	0.0183864
593.524	0.0185694
593.602	0.0186064
593.680	0.0186107
593.759	0.0186216
593.837	0.0184306
593.915	0.0185870
593.993	0.0185806
594.071	0.0186246
594.149	0.0186568
594.227	0.0186179
594.305	0.0186094
594.384	0.0186372
594.462	0.0188338
594.540	0.0187454
594.618	0.0185979
594.696	0.0186590
594.774	0.0186952
594.852	0.0187380
594.930	0.0187979
595.009	0.0186621
595.087	0.0185851
595.165	0.0186565
595.243	0.0186138
595.321	0.0184930
595.399	0.0185516
595.477	0.0185950
595.555	0.0186504
595.634	0.0187310
595.712	0.0187425
595.790	0.0184841
595.868	0.0185336
595.946	0.0184238
596.024	0.0185140
596.102	0.0183685
596.180	0.0183002
596.259	0.0183646
596.337	0.0183115
596.415	0.0182423
596.493	0.0181713
596.571	0.0181857
596.649	0.0182448
596.727	0.0183151
596.805	0.0182305
596.884	0.0181302
596.962	0.0182728
597.040	0.0180871
597.118	0.0181229
597.196	0.0180208
597.274	0.0180832
597.352	0.0179173
597.430	0.0181208
597.509	0.0181071
597.587	0.0180869
597.665	0.0180891
597.743	0.0181425
597.821	0.0181007
597.899	0.0180599
597.977	0.0180268
598.055	0.0179938
598.134	0.0181184
598.212	0.0180060
598.290	0.0181487
598.368	0.0180195
598.446	0.0180286
598.524	0.0180793
598.602	0.0180422
598.680	0.0179613
598.759	0.0179087
598.837	0.0180606
598.915	0.0180664
598.993	0.0179199
599.071	0.0179843
599.149	0.0180835
599.227	0.0181126
599.305	0.0181032
599.384	0.0181188
599.462	0.0181840
599.540	0.0181789
599.618	0.0182420
599.696	0.0183771
599.774	0.0180682
599.852	0.0181127
599.930	0.0181873
600.009	0.0181649
600.087	0.0183085
600.165	0.0181924
600.243	0.0183415
600.321	0.0183340
600.399	0.0182913
600.477	0.0183669
600.555	0.0182410
600.634	0.0182377
600.712	0.0183962
600.790	0.0184865
600.868	0.0185112
600.946	0.0185329
601.024	0.0185233
601.102	0.0184504
601.180	0.0184943
601.259	0.0186973
601.337	0.0186536
601.415	0.0186573
601.493	0.0185535
601.571	0.0187932
601.649	0.0186408
601.727	0.0185901
601.805	0.0187511
601.884	0.0187424
601.962	0.0186709
602.040	0.0187025
602.118	0.0185206
602.196	0.0186473
602.274	0.0185706
602.352	0.0184917
602.430	0.0186375
602.509	0.0185833
602.587	0.0185757
602.665	0.0185421
602.743	0.0186069
602.821	0.0184250
602.899	0.0186172
602.977	0.0185280
603.055	0.0186017
603.134	0.0186608
603.212	0.0185143
603.290	0.0184372
603.368	0.0186019
603.446	0.0185996
603.524	0.0184238
603.602	0.0187203
603.680	0.0186304
603.759	0.0186958
603.837	0.0186136
603.915	0.0186301
603.993	0.0187175
604.071	0.0186382
604.149	0.0188129
604.227	0.0187826
604.305	0.0187338
604.384	0.0186569
604.462	0.0187379
604.540	0.0186531
604.618	0.0185865
604.696	0.0186495
604.774	0.0187070
604.852	0.0186618
604.930	0.0187093
605.009	0.0186373
605.087	0.0185258
605.165	0.0186259
605.243	0.0186913
605.321	0.0185881
605.399	0.0187067
605.477	0.0187125
605.555	0.0186346
605.634	0.0186743
605.712	0.0187265
605.790	0.0185921
605.868	0.0186983
605.946	0.0186417
606.024	0.0186871
606.102	0.0186359
606.180	0.0187399
606.259	0.0187202
606.337	0.0187788
606.415	0.0186529
606.493	0.0187216
606.571	0.0186698
606.649	0.0186865
606.727	0.0187105
606.805	0.0185629
606.884	0.0186320
606.962	0.0187773
607.040	0.0186369
607.118	0.0186067
607.196	0.0187103
607.274	0.0186856
607.352	0.0185533
607.430	0.0183690
607.509	0.0186391
607.587	0.0185225
607.665	0.0184722
607.743	0.0184681
607.821	0.0184240
607.899	0.0184447
607.977	0.0186118
608.055	0.0184529
608.134	0.0183990
608.212	0.0185245
608.290	0.0183917
608.368	0.0184558
608.446	0.0184850
608.524	0.0185363
608.602	0.0186091
608.680	0.0184604
608.759	0.0184998
608.837	0.0184491
608.915	0.0185831
608.993	0.0185013
609.071	0.0184528
609.149	0.0184881
609.227	0.0184542
609.305	0.0184937
609.384	0.0185616
609.462	0.0185320
609.540	0.0185476
609.618	0.0186363
609.696	0.0186374
609.774	0.0184629
609.852	0.0185381
609.930	0.0186067
610.009	0.0184419
610.087	0.0184249
610.165	0.0184383
610.243	0.0185323
610.321	0.0184965
610.399	0.0184827
610.477	0.0186203
610.555	0.0185400
610.634	0.0185775
610.712	0.0184819
610.790	0.0183315
610.868	0.0185559
610.946	0.0185559
611.024	0.0184956
611.102	0.0185390
611.180	0.0183972
611.259	0.0184383
611.337	0.0183480
611.415	0.0184930
611.493	0.0184003
611.571	0.0183365
611.649	0.0183620
611.727	0.0183858
611.805	0.0184386
611.884	0.0184805
611.962	0.0184419
612.040	0.0184239
612.118	0.0184116
612.196	0.0185005
612.274	0.0183163
612.352	0.0185315
612.430	0.0185154
612.509	0.0184086
612.587	0.0185310
612.665	0.0186236
612.743	0.0185043
612.821	0.0184854
612.899	0.0184023
612.977	0.0184679
613.055	0.0184660
613.134	0.0184518
613.212	0.0185180
613.290	0.0182514
613.368	0.0183131
613.446	0.0184257
613.524	0.0184347
613.602	0.0183023
613.680	0.0182625
613.759	0.0184422
613.837	0.0183395
613.915	0.0183102
613.993	0.0183797
614.071	0.0183285
614.149	0.0182520
614.227	0.0183605
614.305	0.0182186
614.384	0.0182339
614.462	0.0183625
614.540	0.0182770
614.618	0.0182964
614.696	0.0184389
614.774	0.0182784
614.852	0.0182757
614.930	0.0183269
615.009	0.0183064
615.087	0.0182297
615.165	0.0182037
615.243	0.0183237
615.321	0.0183917
615.399	0.0182735
615.477	0.0182513
615.555	0.0182834
615.634	0.0181889
615.712	0.0183288
615.790	0.0181435
615.868	0.0182806
615.946	0.0182888
616.024	0.0181467
616.102	0.0182734
616.180	0.0183710
616.259	0.0181439
616.337	0.0181706
616.415	0.0183549
616.493	0.0183883
616.571	0.0182424
616.649	0.0183332
616.727	0.0184237
616.805	0.0184319
616.884	0.0183565
616.962	0.0183791
617.040	0.0183038
617.118	0.0183802
617.196	0.0183991
617.274	0.0181673
617.352	0.0182658
617.430	0.0183458
617.509	0.0183670
617.587	0.0183545
617.665	0.0183212
617.743	0.0183392
617.821	0.0183572
617.899	0.0182879
617.977	0.0182945
618.055	0.0182856
618.134	0.0183586
618.212	0.0181384
618.290	0.0183315
618.368	0.0183895
618.446	0.0182896
618.524	0.0183051
618.602	0.0183686
618.680	0.0182677
618.759	0.0184139
618.837	0.0182520
618.915	0.0183423
618.993	0.0183948
619.071	0.0182870
619.149	0.0183081
619.227	0.0183829
619.305	0.0184782
619.384	0.0183965
619.462	0.0183691
619.540	0.0183548
619.618	0.0183482
619.696	0.0184482
619.774	0.0182766
619.852	0.0183346
619.930	0.0184353
620.009	0.0183854
620.087	0.0184484
620.165	0.0184808
620.243	0.0184138
620.321	0.0184334
620.399	0.0184174
620.477	0.0183826
620.555	0.0184116
620.634	0.0184105
620.712	0.0184712
620.790	0.0184430
620.868	0.0184151
620.946	0.0183486
621.024	0.0185403
621.102	0.0184015
621.180	0.0183019
621.259	0.0183615
621.337	0.0184353
621.415	0.0184055
621.493	0.0183241
621.571	0.0184512
621.649	0.0183630
621.727	0.0182202
621.805	0.0183511
621.884	0.0184743
621.962	0.0182834
622.040	0.0184235
622.118	0.0183772
622.196	0.0184340
622.274	0.0184419
622.352	0.0183861
622.430	0.0183488
622.509	0.0185063
622.587	0.0184832
622.665	0.0185136
622.743	0.0185096
622.821	0.0185551
622.899	0.0183882
622.977	0.0183698
623.055	0.0184531
623.134	0.0186250
623.212	0.0185674
623.290	0.0184159
623.368	0.0184421
623.446	0.0183920
623.524	0.0184955
623.602	0.0185616
623.680	0.0184497
623.759	0.0183916
623.837	0.0183665
623.915	0.0185238
623.993	0.0184456
624.071	0.0183356
624.149	0.0183300
624.227	0.0185207
624.305	0.0185036
624.384	0.0184812
624.462	0.0183255
624.540	0.0183248
624.618	0.0183328
624.696	0.0183939
624.774	0.0184318
624.852	0.0183782
624.930	0.0184075
625.009	0.0184975
625.087	0.0184569
625.165	0.0185814
625.243	0.0183321
625.321	0.0183655
625.399	0.0183504
625.477	0.0184399
625.555	0.0185686
625.634	0.0185582
625.712	0.0184495
625.790	0.0183525
625.868	0.0183897
625.946	0.0185546
626.024	0.0185703
626.102	0.0182691
626.180	0.0183872
626.259	0.0184272
626.337	0.0183829
626.415	0.0185564
626.493	0.0184960
626.571	0.0184995
626.649	0.0185027
626.727	0.0186026
626.805	0.0185101
626.884	0.0187251
626.962	0.0186661
627.040	0.0186076
627.118	0.0185719
627.196	0.0185916
627.274	0.0185668
627.352	0.0186838
627.430	0.0184767
627.509	0.0186280
627.587	0.0187116
627.665	0.0185082
627.743	0.0186842
627.821	0.0187541
627.899	0.0186210
627.977	0.0185375
628.055	0.0187217
628.134	0.0185632
628.212	0.0186221
628.290	0.0185652
628.368	0.0185912
628.446	0.0187048
628.524	0.0186502
628.602	0.0185033
628.680	0.0185999
628.759	0.0184905
628.837	0.0185622
628.915	0.0185618
628.993	0.0185023
629.071	0.0185474
629.149	0.0185917
629.227	0.0185533
629.305	0.0185390
629.384	0.0184202
629.462	0.0185256
629.540	0.0185211
629.618	0.0185024
629.696	0.0184854
629.774	0.0183677
629.852	0.0184900
629.930	0.0184483
630.009	0.0186105
630.087	0.0182935
630.165	0.0183649
630.243	0.0185520
630.321	0.0185010
630.399	0.0186131
630.477	0.0184100
630.555	0.0184376
630.634	0.0185215
630.712	0.0184763
630.790	0.0183674
630.868	0.0185600
630.946	0.0185911
631.024	0.0185719
631.102	0.0184244
631.180	0.0184589
631.259	0.0184696
631.337	0.0185696
631.415	0.0185284
631.493	0.0185726
631.571	0.0185646
631.649	0.0184518
631.727	0.0185233
631.805	0.0185733
631.884	0.0186585
631.962	0.0184269
632.040	0.0185983
632.118	0.0186562
632.196	0.0186841
632.274	0.0187505
632.352	0.0186032
632.430	0.0185917
632.509	0.0187592
632.587	0.0186105
632.665	0.0186827
632.743	0.0185714
632.821	0.0186521
632.899	0.0187502
632.977	0.0186069
633.055	0.0187051
633.134	0.0188011
633.212	0.0186195
633.290	0.0186388
633.368	0.0187775
633.446	0.0187222
633.524	0.0187382
633.602	0.0188175
633.680	0.0187388
633.759	0.0187523
633.837	0.0187718
633.915	0.0188278
633.993	0.0188304
634.071	0.0187180
634.149	0.0187257
634.227	0.0187627
634.305	0.0186880
634.384	0.0187048
634.462	0.0187199
634.540	0.0187781
634.618	0.0185886
634.696	0.0186287
634.774	0.0186357
634.852	0.0186078
634.930	0.0185712
635.009	0.0184221
635.087	0.0184212
635.165	0.0183602
635.243	0.0183878
635.321	0.0184924
635.399	0.0182731
635.477	0.0183337
635.555	0.0184149
635.634	0.0181683
635.712	0.0182285
635.790	0.0182086
635.868	0.0181258
635.946	0.0183444
636.024	0.0181607
636.102	0.0180769
636.180	0.0181264
636.259	0.0182139
636.337	0.0181712
636.415	0.0181459
636.493	0.0181670
636.571	0.0181903
636.649	0.0182311
636.727	0.0181660
636.805	0.0182513
636.884	0.0180931
636.962	0.0180499
637.040	0.0181773
637.118	0.0180816
637.196	0.0181325
637.274	0.0183127
637.352	0.0181567
637.430	0.0181431
637.509	0.0183636
637.587	0.0182903
637.665	0.0183013
637.743	0.0183312
637.821	0.0182939
637.899	0.0183369
637.977	0.0185296
638.055	0.0185530
638.134	0.0182899
638.212	0.0185049
638.290	0.0185480
638.368	0.0185999
638.446	0.0185490
638.524	0.0185754
638.602	0.0187684
638.680	0.0186530
638.759	0.0186600
638.837	0.0186087
638.915	0.0186580
638.993	0.0186137
639.071	0.0186861
639.149	0.0186143
639.227	0.0187771
639.305	0.0186358
639.384	0.0185854
639.462	0.0186420
639.540	0.0185374
639.618	0.0187082
639.696	0.0185437
639.774	0.0185544
639.852	0.0185577
639.930	0.0187144
640.009	0.0184399
640.087	0.0184417
640.165	0.0185486
640.243	0.0184314
640.321	0.0185289
640.399	0.0185771
640.477	0.0184149
640.555	0.0184610
640.634	0.0185477
640.712	0.0185354
640.790	0.0186343
640.868	0.0185879
640.946	0.0184029
641.024	0.0185112
641.102	0.0185722
641.180	0.0184549
641.259	0.0184521
641.337	0.0184802
641.415	0.0185258
641.493	0.0184232
641.571	0.0185700
641.649	0.0186212
641.727	0.0186446
641.805	0.0186620
641.884	0.0186530
641.962	0.0185944
642.040	0.0185997
642.118	0.0188354
642.196	0.0186304
642.274	0.0185149
642.352	0.0187105
642.430	0.0186412
642.509	0.0185703
642.587	0.0186801
642.665	0.0186093
642.743	0.0186084
642.821	0.0186313
642.899	0.0187026
642.977	0.0185771
643.055	0.0185308
643.134	0.0186201
643.212	0.0185763
643.290	0.0186172
643.368	0.0185902
643.446	0.0185419
643.524	0.0184886
643.602	0.0185636
643.680	0.0185381
643.759	0.0184635
643.837	0.0185459
643.915	0.0186685
643.993	0.0186069
644.071	0.0185668
644.149	0.0183150
644.227	0.0185219
644.305	0.0185535
644.384	0.0184180
644.462	0.0185502
644.540	0.0184438
644.618	0.0183765
644.696	0.0184644
644.774	0.0184219
644.852	0.0183114
644.930	0.0183939
645.009	0.0182364
645.087	0.0183849
645.165	0.0184796
645.243	0.0184270
645.321	0.0182748
645.399	0.0181675
645.477	0.0183437
645.555	0.0183949
645.634	0.0182874
645.712	0.0183234
645.790	0.0182559
645.868	0.0182796
645.946	0.0182531
646.024	0.0181123
646.102	0.0183380
646.180	0.0183058
646.259	0.0183077
646.337	0.0181484
646.415	0.0182071
646.493	0.0181500
646.571	0.0181278
646.649	0.0182058
646.727	0.0180843
646.805	0.0180623
646.884	0.0182592
646.962	0.0182175
647.040	0.0181873
647.118	0.0180868
647.196	0.0180034
647.274	0.0182755
647.352	0.0183831
647.430	0.0183063
647.509	0.0182964
647.587	0.0182238
647.665	0.0182240
647.743	0.0183001
647.821	0.0182008
647.899	0.0183487
647.977	0.0183948
648.055	0.0183781
648.134	0.0184595
648.212	0.0183913
648.290	0.0182479
648.368	0.0183363
648.446	0.0183003
648.524	0.0184147
648.602	0.0183086
648.680	0.0184458
648.759	0.0184357
648.837	0.0182043
648.915	0.0184110
648.993	0.0183429
649.071	0.0183512
649.149	0.0183738
649.227	0.0183077
649.305	0.0183263
649.384	0.0183571
649.462	0.0184360
649.540	0.0184193
649.618	0.0182040
649.696	0.0181990
649.774	0.0183686
649.852	0.0182736
649.930	0.0182994
650.009	0.0182733
650.087	0.0183649
650.165	0.0183744
650.243	0.0182866
650.321	0.0182744
650.399	0.0183611
650.477	0.0184962
650.555	0.0185722
650.634	0.0184924
650.712	0.0185530
650.790	0.0186092
650.868	0.0186040
650.946	0.0187167
651.024	0.0186890
651.102	0.0187981
651.180	0.0187755
651.259	0.0188976
651.337	0.0188107
651.415	0.0186897
651.493	0.0188525
651.571	0.0185880
651.649	0.0187709
651.727	0.0187485
651.805	0.0188490
651.884	0.0188573
651.962	0.0187167
652.040	0.0187457
652.118	0.0187869
652.196	0.0186293
652.274	0.0186454
652.352	0.0188073
652.430	0.0186179
652.509	0.0187338
652.587	0.0186320
652.665	0.0187328
652.743	0.0187771
652.821	0.0186268
652.899	0.0185976
652.977	0.0185428
653.055	0.0184475
653.134	0.0186423
653.212	0.0186779
653.290	0.0185905
653.368	0.0185198
653.446	0.0184908
653.524	0.0184706
653.602	0.0186366
653.680	0.0186671
653.759	0.0185696
653.837	0.0185574
653.915	0.0186626
653.993	0.0185376
654.071	0.0186052
654.149	0.0188121
654.227	0.0186250
654.305	0.0185851
654.384	0.0186718
654.462	0.0186800
654.540	0.0185350
654.618	0.0187569
654.696	0.0185880
654.774	0.0187235
654.852	0.0187860
654.930	0.0188586
655.009	0.0188521
655.087	0.0188951
655.165	0.0187961
655.243	0.0189205
655.321	0.0189014
655.399	0.0188602
655.477	0.0188699
655.555	0.0188570
655.634	0.0188008
655.712	0.0188490
655.790	0.0187896
655.868	0.0189265
655.946	0.0187904
656.024	0.0186616
656.102	0.0186934
656.180	0.0186621
656.259	0.0187193
656.337	0.0186259
656.415	0.0186134
656.493	0.0186092
656.571	0.0183710
656.649	0.0183405
656.727	0.0184073
656.805	0.0183743
656.884	0.0185168
656.962	0.0183961
657.040	0.0183748
657.118	0.0184132
657.196	0.0184116
657.274	0.0184008
657.352	0.0184662
657.430	0.0183678
657.509	0.0182565
657.587	0.0181712
657.665	0.0182322
657.743	0.0183004
657.821	0.0181550
657.899	0.0181765
657.977	0.0180292
658.055	0.0179810
658.134	0.0179319
658.212	0.0179877
658.290	0.0177994
658.368	0.0179826
658.446	0.0179417
658.524	0.0178896
658.602	0.0178691
658.680	0.0179974
658.759	0.0178908
658.837	0.0177808
658.915	0.0178408
658.993	0.0179742
659.071	0.0180885
659.149	0.0179312
659.227	0.0179887
659.305	0.0182600
659.384	0.0182377
659.462	0.0183992
659.540	0.0183588
659.618	0.0182989
659.696	0.0183636
659.774	0.0185493
659.852	0.0186105
659.930	0.0186259
660.009	0.0184686
660.087	0.0184926
660.165	0.0186285
660.243	0.0187037
660.321	0.0186742
660.399	0.0187504
660.477	0.0187225
660.555	0.0187082
660.634	0.0186565
660.712	0.0185413
660.790	0.0185815
660.868	0.0186806
660.946	0.0185810
661.024	0.0187961
661.102	0.0186250
661.180	0.0185275
661.259	0.0185133
661.337	0.0185583
661.415	0.0185957
661.493	0.0185927
661.571	0.0186569
661.649	0.0187029
661.727	0.0185864
661.805	0.0186494
661.884	0.0185898
661.962	0.0187047
662.040	0.0185857
662.118	0.0186121
662.196	0.0185699
662.274	0.0186176
662.352	0.0187686
662.430	0.0186182
662.509	0.0185851
662.587	0.0186616
662.665	0.0186561
662.743	0.0185727
662.821	0.0187296
662.899	0.0187213
662.977	0.0184932
663.055	0.0185330
663.134	0.0186578
663.212	0.0186132
663.290	0.0187345
663.368	0.0186775
663.446	0.0186304
663.524	0.0186199
663.602	0.0186784
663.680	0.0186732
663.759	0.0187028
663.837	0.0187487
663.915	0.0186134
663.993	0.0185975
664.071	0.0186579
664.149	0.0186267
664.227	0.0187054
664.305	0.0186625
664.384	0.0186852
664.462	0.0186842
664.540	0.0186095
664.618	0.0184468
664.696	0.0184865
664.774	0.0185146
664.852	0.0185863
664.930	0.0184740
665.009	0.0184834
665.087	0.0185274
665.165	0.0185234
665.243	0.0186106
665.321	0.0184331
665.399	0.0183250
665.477	0.0184650
665.555	0.0184818
665.634	0.0183111
665.712	0.0183368
665.790	0.0184541
665.868	0.0185003
665.946	0.0185158
666.024	0.0182891
666.102	0.0183004
666.180	0.0183951
666.259	0.0183818
666.337	0.0184185
666.415	0.0184202
666.493	0.0184592
666.571	0.0184196
666.649	0.0184515
666.727	0.0184875
666.805	0.0185221
666.884	0.0184394
666.962	0.0184737
667.040	0.0184320
667.118	0.0184481
667.196	0.0185698
667.274	0.0185768
667.352	0.0183596
667.430	0.0184142
667.509	0.0182953
667.587	0.0182574
667.665	0.0183441
667.743	0.0183694
667.821	0.0181946
667.899	0.0182990
667.977	0.0183158
668.055	0.0181801
668.134	0.0181993
668.212	0.0183072
668.290	0.0182686
668.368	0.0183148
668.446	0.0181808
668.524	0.0182525
668.602	0.0182862
668.680	0.0181575
668.759	0.0181492
668.837	0.0183070
668.915	0.0182924
668.993	0.0181943
669.071	0.0181107
669.149	0.0181824
669.227	0.0181848
669.305	0.0180782
669.384	0.0182149
669.462	0.0180593
669.540	0.0180452
669.618	0.0179735
669.696	0.0181153
669.774	0.0180873
669.852	0.0180329
669.930	0.0181413
670.009	0.0180886
670.087	0.0180708
670.165	0.0181140
670.243	0.0180470
670.321	0.0180415
670.399	0.0181079
670.477	0.0181780
670.555	0.0182622
670.634	0.0183086
670.712	0.0180284
670.790	0.0182610
670.868	0.0181477
670.946	0.0181497
671.024	0.0182447
671.102	0.0181786
671.180	0.0183808
671.259	0.0182639
671.337	0.0181664
671.415	0.0181289
671.493	0.0182774
671.571	0.0181252
671.649	0.0182085
671.727	0.0182358
671.805	0.0183634
671.884	0.0182738
671.962	0.0182019
672.040	0.0183723
672.118	0.0183233
672.196	0.0182719
672.274	0.0183110
672.352	0.0184231
672.430	0.0184232
672.509	0.0183979
672.587	0.0184167
672.665	0.0182843
672.743	0.0185092
672.821	0.0185526
672.899	0.0183974
672.977	0.0184436
673.055	0.0186023
673.134	0.0186286
673.212	0.0186923
673.290	0.0186779
673.368	0.0187264
673.446	0.0186232
673.524	0.0184501
673.602	0.0185678
673.680	0.0187591
673.759	0.0185983
673.837	0.0186398
673.915	0.0187138
673.993	0.0187902
674.071	0.0187153
674.149	0.0185320
674.227	0.0186292
674.305	0.0184534
674.384	0.0185368
674.462	0.0185909
674.540	0.0186193
674.618	0.0184765
674.696	0.0182317
674.774	0.0184093
674.852	0.0184198
674.930	0.0182767
675.009	0.0184935
675.087	0.0184451
675.165	0.0183624
675.243	0.0184787
675.321	0.0183166
675.399	0.0182972
675.477	0.0185911
675.555	0.0185032
675.634	0.0184355
675.712	0.0184887
675.790	0.0185069
675.868	0.0184171
675.946	0.0182622
676.024	0.0184489
676.102	0.0184496
676.180	0.0183230
676.259	0.0184682
676.337	0.0183186
676.415	0.0182925
676.493	0.0184386
676.571	0.0184223
676.649	0.0181670
676.727	0.0181938
676.805	0.0185096
676.884	0.0184250
676.962	0.0183358
677.040	0.0182809
677.118	0.0183840
677.196	0.0182509
677.274	0.0182918
677.352	0.0183317
677.430	0.0183470
677.509	0.0183776
677.587	0.0183707
677.665	0.0184331
677.743	0.0184111
677.821	0.0184013
677.899	0.0184451
677.977	0.0183943
678.055	0.0184013
678.134	0.0186371
678.212	0.0184393
678.290	0.0186057
678.368	0.0184707
678.446	0.0184941
678.524	0.0184914
678.602	0.0185617
678.680	0.0185811
678.759	0.0185591
678.837	0.0184767
678.915	0.0185744
678.993	0.0184815
679.071	0.0184306
679.149	0.0185105
679.227	0.0185401
679.305	0.0186722
679.384	0.0184260
679.462	0.0183624
679.540	0.0183887
679.618	0.0184268
679.696	0.0182793
679.774	0.0182277
679.852	0.0183094
679.930	0.0184064
680.009	0.0183791
680.087	0.0181234
680.165	0.0183740
680.243	0.0184234
680.321	0.0182613
680.399	0.0182361
680.477	0.0183017
680.555	0.0183917
680.634	0.0182170
680.712	0.0182174
680.790	0.0183266
680.868	0.0183171
680.946	0.0183087
681.024	0.0182907
681.102	0.0182198
681.180	0.0182945
681.259	0.0183887
681.337	0.0182357
681.415	0.0182227
681.493	0.0182607
681.571	0.0183850
681.649	0.0181535
681.727	0.0183175
681.805	0.0183792
681.884	0.0182747
681.962	0.0181707
682.040	0.0183184
682.118	0.0181107
682.196	0.0182037
682.274	0.0180661
682.352	0.0182014
682.430	0.0181705
682.509	0.0183269
682.587	0.0182720
682.665	0.0181410
682.743	0.0182839
682.821	0.0183102
682.899	0.0183186
682.977	0.0182771
683.055	0.0183118
683.134	0.0182872
683.212	0.0183907
683.290	0.0185287
683.368	0.0184410
683.446	0.0185297
683.524	0.0184124
683.602	0.0185270
683.680	0.0185794
683.759	0.0185019
683.837	0.0185034
683.915	0.0185208
683.993	0.0186531
684.071	0.0186941
684.149	0.0188103
684.227	0.0186494
684.305	0.0186794
684.384	0.0187749
684.462	0.0187586
684.540	0.0187399
684.618	0.0186514
684.696	0.0186624
684.774	0.0189062
684.852	0.0187232
684.930	0.0187665
685.009	0.0187849
685.087	0.0187524
685.165	0.0185764
685.243	0.0187004
685.321	0.0188451
685.399	0.0186473
685.477	0.0186287
685.555	0.0187327
685.634	0.0186532
685.712	0.0186157
685.790	0.0186774
685.868	0.0186292
685.946	0.0185357
686.024	0.0185449
686.102	0.0186050
686.180	0.0185149
686.259	0.0184218
686.337	0.0184367
686.415	0.0183536
686.493	0.0183492
686.571	0.0183607
686.649	0.0184333
686.727	0.0182400
686.805	0.0180727
686.884	0.0182841
686.962	0.0182616
687.040	0.0183349
687.118	0.0182484
687.196	0.0181845
687.274	0.0181557
687.352	0.0181397
687.430	0.0182794
687.509	0.0181573
687.587	0.0181941
687.665	0.0182983
687.743	0.0181731
687.821	0.0182186
687.899	0.0183234
687.977	0.0181612
688.055	0.0181561
688.134	0.0183625
688.212	0.0183088
688.290	0.0181970
688.368	0.0182233
688.446	0.0182285
688.524	0.0182528
688.602	0.0184705
688.680	0.0184235
688.759	0.0184172
688.837	0.0183925
688.915	0.0184554
688.993	0.0184689
689.071	0.0184377
689.149	0.0185183
689.227	0.0183481
689.305	0.0185384
689.384	0.0184575
689.462	0.0184569
689.540	0.0185220
689.618	0.0185886
689.696	0.0185680
689.774	0.0185429
689.852	0.0185123
689.930	0.0184501
690.009	0.0185777
690.087	0.0184612
690.165	0.0185129
690.243	0.0183950
690.321	0.0182769
690.399	0.0184624
690.477	0.0183825
690.555	0.0183564
690.634	0.0184377
690.712	0.0183500
690.790	0.0184383
690.868	0.0184070
690.946	0.0184035
691.024	0.0185053
691.102	0.0183157
691.180	0.0185127
691.259	0.0185014
691.337	0.0183401
691.415	0.0183682
691.493	0.0184935
691.571	0.0183809
691.649	0.0184322
691.727	0.0183209
691.805	0.0183121
691.884	0.0182619
691.962	0.0183696
692.040	0.0184541
692.118	0.0184459
692.196	0.0182301
692.274	0.0183513
692.352	0.0183488
692.430	0.0184448
692.509	0.0184459
692.587	0.0184541
692.665	0.0183562
692.743	0.0183333
692.821	0.0184434
692.899	0.0183828
692.977	0.0182513
693.055	0.0183522
693.134	0.0183085
693.212	0.0182590
693.290	0.0182355
693.368	0.0184093
693.446	0.0182378
693.524	0.0182169
693.602	0.0181271
693.680	0.0182495
693.759	0.0182646
693.837	0.0182842
693.915	0.0183315
693.993	0.0183229
694.071	0.0183058
694.149	0.0182978
694.227	0.0182561
694.305	0.0183219
694.384	0.0184210
694.462	0.0183360
694.540	0.0184176
694.618	0.0184232
694.696	0.0183410
694.774	0.0185830
694.852	0.0184743
694.930	0.0184113
695.009	0.0185188
695.087	0.0185046
695.165	0.0186089
695.243	0.0184588
695.321	0.0185892
695.399	0.0185931
695.477	0.0186243
695.555	0.0185945
695.634	0.0186161
695.712	0.0186062
695.790	0.0185271
695.868	0.0187292
695.946	0.0185631
696.024	0.0184031
696.102	0.0185619
696.180	0.0184026
696.259	0.0186278
696.337	0.0185957
696.415	0.0187595
696.493	0.0186651
696.571	0.0184185
696.649	0.0186421
696.727	0.0184614
696.805	0.0185700
696.884	0.0186573
696.962	0.0185302
697.040	0.0185953
697.118	0.0185990
697.196	0.0186383
697.274	0.0185904
697.352	0.0185854
697.430	0.0185705
697.509	0.0187180
697.587	0.0187569
697.665	0.0185570
697.743	0.0184698
697.821	0.0186422
697.899	0.0186757
697.977	0.0186310
698.055	0.0184494
698.134	0.0185622
698.212	0.0185659
698.290	0.0184219
698.368	0.0183512
698.446	0.0185143
698.524	0.0183394
698.602	0.0183487
698.680	0.0183331
698.759	0.0183126
698.837	0.0183603
698.915	0.0182838
698.993	0.0183069
699.071	0.0181300
699.149	0.0182557
699.227	0.0182041
699.305	0.0182577
699.384	0.0182040
699.462	0.0182551
699.540	0.0181879
699.618	0.0182071
699.696	0.0182048
699.774	0.0182200
699.852	0.0182967
699.930	0.0182629
700.009	0.0183258
700.087	0.0183199
700.165	0.0182762
700.243	0.0182193
700.321	0.0182721
700.399	0.0182584
700.477	0.0183479
700.555	0.0181415
700.634	0.0182754
700.712	0.0183482
700.790	0.0182835
700.868	0.0183927
700.946	0.0183423
701.024	0.0184913
701.102	0.0183751
701.180	0.0183150
701.259	0.0182707
701.337	0.0183703
701.415	0.0183627
701.493	0.0184771
701.571	0.0183508
701.649	0.0184037
701.727	0.0182859
701.805	0.0184601
701.884	0.0184866
701.962	0.0185693
702.040	0.0184718
702.118	0.0186208
702.196	0.0185173
702.274	0.0184119
702.352	0.0187080
702.430	0.0185012
702.509	0.0184520
702.587	0.0184899
702.665	0.0185384
702.743	0.0184991
702.821	0.0183384
702.899	0.0183818
702.977	0.0185094
703.055	0.0184254
703.134	0.0183633
703.212	0.0183942
703.290	0.0183230
703.368	0.0184209
703.446	0.0184450
703.524	0.0183495
703.602	0.0182729
703.680	0.0181937
703.759	0.0184111
703.837	0.0183727
703.915	0.0184068
703.993	0.0183533
704.071	0.0183485
704.149	0.0182087
704.227	0.0182612
704.305	0.0182942
704.384	0.0182107
704.462	0.0182981
704.540	0.0182217
704.618	0.0182745
704.696	0.0182808
704.774	0.0183392
704.852	0.0183438
704.930	0.0183370
705.009	0.0183836
705.087	0.0183528
705.165	0.0184345
705.243	0.0185023
705.321	0.0183517
705.399	0.0183907
705.477	0.0184953
705.555	0.0184711
705.634	0.0183740
705.712	0.0187224
705.790	0.0186333
705.868	0.0186422
705.946	0.0187012
706.024	0.0188364
706.102	0.0188343
706.180	0.0185500
706.259	0.0187163
706.337	0.0187683
706.415	0.0186933
706.493	0.0186646
706.571	0.0185497
706.649	0.0187229
706.727	0.0184032
706.805	0.0185172
706.884	0.0185471
706.962	0.0185723
707.040	0.0185138
707.118	0.0183634
707.196	0.0185128
707.274	0.0184710
707.352	0.0183797
707.430	0.0184777
707.509	0.0184442
707.587	0.0185306
707.665	0.0184393
707.743	0.0184896
707.821	0.0186177
707.899	0.0185517
707.977	0.0186773
708.055	0.0187830
708.134	0.0186544
708.212	0.0188510
708.290	0.0187828
708.368	0.0186611
708.446	0.0187579
708.524	0.0187222
708.602	0.0187155
708.680	0.0188388
708.759	0.0188092
708.837	0.0187926
708.915	0.0187388
708.993	0.0185942
709.071	0.0188130
709.149	0.0186594
709.227	0.0185423
709.305	0.0187248
709.384	0.0186015
709.462	0.0185333
709.540	0.0183826
709.618	0.0184111
709.696	0.0184422
709.774	0.0183740
709.852	0.0183106
709.930	0.0184492
710.009	0.0184387
710.087	0.0183859
710.165	0.0183461
710.243	0.0184060
710.321	0.0184882
710.399	0.0184244
710.477	0.0185706
710.555	0.0183384
710.634	0.0184504
710.712	0.0185358
710.790	0.0185528
710.868	0.0185844
710.946	0.0187002
711.024	0.0186552
711.102	0.0186773
711.180	0.0186467
711.259	0.0187261
711.337	0.0186186
711.415	0.0186848
711.493	0.0186226
711.571	0.0186332
711.649	0.0188099
711.727	0.0187099
711.805	0.0185658
711.884	0.0186006
711.962	0.0186042
712.040	0.0186657
712.118	0.0185807
712.196	0.0184871
712.274	0.0184653
712.352	0.0184866
712.430	0.0184153
712.509	0.0185198
712.587	0.0184763
712.665	0.0183434
712.743	0.0181458
712.821	0.0182937
712.899	0.0182697
712.977	0.0182887
713.055	0.0182211
713.134	0.0182946
713.212	0.0183167
713.290	0.0182352
713.368	0.0183463
713.446	0.0183643
713.524	0.0184129
713.602	0.0184541
713.680	0.0184922
713.759	0.0184252
713.837	0.0185596
713.915	0.0185431
713.993	0.0184698
714.071	0.0184685
714.149	0.0186092
714.227	0.0186519
714.305	0.0186411
714.384	0.0186417
714.462	0.0185767
714.540	0.0185717
714.618	0.0186356
714.696	0.0186769
714.774	0.0187242
714.852	0.0186974
714.930	0.0185930
715.009	0.0186294
715.087	0.0187276
715.165	0.0186753
715.243	0.0187321
715.321	0.0188115
715.399	0.0187457
715.477	0.0187939
715.555	0.0186370
715.634	0.0187775
715.712	0.0188264
715.790	0.0188875
715.868	0.0188779
715.946	0.0188812
716.024	0.0187159
716.102	0.0187730
716.180	0.0188633
716.259	0.0188060
716.337	0.0187244
716.415	0.0185717
716.493	0.0186961
716.571	0.0185305
716.649	0.0184824
716.727	0.0185502
716.805	0.0185909
716.884	0.0184699
716.962	0.0184254
717.040	0.0183456
717.118	0.0183882
717.196	0.0183182
717.274	0.0184008
717.352	0.0183883
717.430	0.0185921
717.509	0.0184131
717.587	0.0185046
717.665	0.0184369
717.743	0.0185464
717.821	0.0186095
717.899	0.0186005
717.977	0.0188142
718.055	0.0185303
718.134	0.0186107
718.212	0.0187606
718.290	0.0186873
718.368	0.0187329
718.446	0.0186391
718.524	0.0186697
718.602	0.0186014
718.680	0.0185606
718.759	0.0187202
718.837	0.0187128
718.915	0.0186316
718.993	0.0185236
719.071	0.0185894
719.149	0.0185366
719.227	0.0185700
719.305	0.0186111
719.384	0.0184519
719.462	0.0184891
719.540	0.0184513
719.618	0.0186640
719.696	0.0185479
719.774	0.0185519
719.852	0.0185260
719.930	0.0184648
720.009	0.0186691
720.087	0.0185023
720.165	0.0183846
720.243	0.0184303
720.321	0.0185152
720.399	0.0184602
720.477	0.0184460
720.555	0.0183456
720.634	0.0183490
720.712	0.0184177
720.790	0.0183370
720.868	0.0183782
720.946	0.0184769
721.024	0.0184225
721.102	0.0184152
721.180	0.0185553
721.259	0.0185506
721.337	0.0186698
721.415	0.0186422
721.493	0.0185218
721.571	0.0184805
721.649	0.0186679
721.727	0.0185536
721.805	0.0185656
721.884	0.0184647
721.962	0.0184198
722.040	0.0184342
722.118	0.0184226
722.196	0.0183510
722.274	0.0184425
722.352	0.0183604
722.430	0.0182970
722.509	0.0181975
722.587	0.0181932
722.665	0.0181791
722.743	0.0180849
722.821	0.0183118
722.899	0.0180933
722.977	0.0181007
723.055	0.0181684
723.134	0.0181398
723.212	0.0180932
723.290	0.0182195
723.368	0.0182709
723.446	0.0181909
723.524	0.0183399
723.602	0.0183364
723.680	0.0182682
723.759	0.0181457
723.837	0.0183467
723.915	0.0183520
723.993	0.0183186
724.071	0.0184375
724.149	0.0184788
724.227	0.0183820
724.305	0.0184434
724.384	0.0184978
724.462	0.0185468
724.540	0.0184986
724.618	0.0184905
724.696	0.0184872
724.774	0.0184334
724.852	0.0185684
724.930	0.0184406
725.009	0.0184572
725.087	0.0183353
725.165	0.0184129
725.243	0.0184643
725.321	0.0183685
725.399	0.0183797
725.477	0.0182832
725.555	0.0184560
725.634	0.0182968
725.712	0.0184283
725.790	0.0183311
725.868	0.0184291
725.946	0.0182616
726.024	0.0184752
726.102	0.0183942
726.180	0.0182275
726.259	0.0184690
726.337	0.0183069
726.415	0.0184927
726.493	0.0182408
726.571	0.0184058
726.649	0.0184775
726.727	0.0185408
726.805	0.0185851
726.884	0.0184666
726.962	0.0186082
727.040	0.0186345
727.118	0.0185778
727.196	0.0186530
727.274	0.0186366
727.352	0.0185852
727.430	0.0187289
727.509	0.0186645
727.587	0.0187204
727.665	0.0187495
727.743	0.0187415
727.821	0.0187284
727.899	0.0188603
727.977	0.0187582
728.055	0.0187431
728.134	0.0187024
728.212	0.0187466
728.290	0.0185837
728.368	0.0186371
728.446	0.0186418
728.524	0.0186462
728.602	0.0187760
728.680	0.0186688
728.759	0.0185485
728.837	0.0187962
728.915	0.0188120
728.993	0.0186962
729.071	0.0185980
729.149	0.0186808
729.227	0.0188120
729.305	0.0188776
729.384	0.0186059
729.462	0.0184986
729.540	0.0185993
729.618	0.0185295
729.696	0.0185892
729.774	0.0184937
729.852	0.0184301
729.930	0.0182589
730.009	0.0183908
730.087	0.0183419
730.165	0.0182410
730.243	0.0182161
730.321	0.0182043
730.399	0.0183606
730.477	0.0182688
730.555	0.0182761
730.634	0.0182478
730.712	0.0183294
730.790	0.0185143
730.868	0.0184483
730.946	0.0185055
731.024	0.0185218
731.102	0.0184358
731.180	0.0185843
731.259	0.0186445
731.337	0.0186017
731.415	0.0186795
731.493	0.0186451
731.571	0.0185360
731.649	0.0185012
731.727	0.0187760
731.805	0.0186102
731.884	0.0185009
731.962	0.0185312
732.040	0.0185473
732.118	0.0185437
732.196	0.0184514
732.274	0.0186395
732.352	0.0185384
732.430	0.0184202
732.509	0.0185303
732.587	0.0185494
732.665	0.0183641
732.743	0.0184058
732.821	0.0183412
732.899	0.0183551
732.977	0.0184363
733.055	0.0183275
733.134	0.0182932
733.212	0.0182973
733.290	0.0183081
733.368	0.0182784
733.446	0.0181418
733.524	0.0181683
733.602	0.0180553
733.680	0.0181729
733.759	0.0181341
733.837	0.0180375
733.915	0.0181426
733.993	0.0181607
734.071	0.0181097
734.149	0.0180676
734.227	0.0180670
734.305	0.0180135
734.384	0.0179545
734.462	0.0179801
734.540	0.0179958
734.618	0.0179745
734.696	0.0181516
734.774	0.0182078
734.852	0.0181131
734.930	0.0182470
735.009	0.0184038
735.087	0.0184378
735.165	0.0185107
735.243	0.0184574
735.321	0.0186602
735.399	0.0187733
735.477	0.0189350
735.555	0.0189442
735.634	0.0189591
735.712	0.0190235
735.790	0.0190875
735.868	0.0189650
735.946	0.0189774
736.024	0.0190688
736.102	0.0188342
736.180	0.0189317
736.259	0.0188272
736.337	0.0187809
736.415	0.0186648
736.493	0.0186211
736.571	0.0185063
736.649	0.0186110
736.727	0.0185825
736.805	0.0183236
736.884	0.0184414
736.962	0.0183912
737.040	0.0182861
737.118	0.0182463
737.196	0.0183431
737.274	0.0183189
737.352	0.0183611
737.430	0.0183421
737.509	0.0184083
737.587	0.0183636
737.665	0.0184444
737.743	0.0183761
737.821	0.0185725
737.899	0.0186544
737.977	0.0186998
738.055	0.0187499
738.134	0.0187782
738.212	0.0187817
738.290	0.0189304
738.368	0.0189286
738.446	0.0187996
738.524	0.0188958
738.602	0.0190482
738.680	0.0189748
738.759	0.0190675
738.837	0.0190057
738.915	0.0188795
738.993	0.0188387
739.071	0.0188458
739.149	0.0188195
739.227	0.0188108
739.305	0.0187823
739.384	0.0186592
739.462	0.0183280
739.540	0.0185286
739.618	0.0185942
739.696	0.0185363
739.774	0.0184201
739.852	0.0185320
739.930	0.0184906
740.009	0.0185023
740.087	0.0184689
740.165	0.0186359
740.243	0.0187036
740.321	0.0186191
740.399	0.0185941
740.477	0.0186398
740.555	0.0186950
740.634	0.0188345
740.712	0.0188369
740.790	0.0187270
740.868	0.0187114
740.946	0.0186463
741.024	0.0184566
741.102	0.0185355
741.180	0.0185311
741.259	0.0183321
741.337	0.0182986
741.415	0.0183749
741.493	0.0183093
741.571	0.0180933
741.649	0.0180476
741.727	0.0180848
741.805	0.0180116
741.884	0.0181860
741.962	0.0181118
742.040	0.0179552
742.118	0.0180270
742.196	0.0180637
742.274	0.0181714
742.352	0.0182223
742.430	0.0183937
742.509	0.0183000
742.587	0.0184217
742.665	0.0185474
742.743	0.0186209
742.821	0.0185564
742.899	0.0186376
742.977	0.0187682
743.055	0.0187920
743.134	0.0187826
743.212	0.0186922
743.290	0.0186726
743.368	0.0187839
743.446	0.0186863
743.524	0.0187405
743.602	0.0186424
743.680	0.0184113
743.759	0.0183326
743.837	0.0184974
743.915	0.0183325
743.993	0.0182160
744.071	0.0184588
744.149	0.0182566
744.227	0.0182184
744.305	0.0181779
744.384	0.0182767
744.462	0.0181951
744.540	0.0182124
744.618	0.0182354
744.696	0.0183192
744.774	0.0182648
744.852	0.0183295
744.930	0.0184246
745.009	0.0184039
745.087	0.0184539
745.165	0.0184537
745.243	0.0184930
745.321	0.0185334
745.399	0.0184442
745.477	0.0184671
745.555	0.0186246
745.634	0.0185755
745.712	0.0182827
745.790	0.0183298
745.868	0.0182378
745.946	0.0180688
746.024	0.0180668
746.102	0.0179188
746.180	0.0179873
746.259	0.0179472
746.337	0.0178345
746.415	0.0179143
746.493	0.0180228
746.571	0.0178943
746.649	0.0179479
746.727	0.0179704
746.805	0.0180067
746.884	0.0181204
746.962	0.0181294
747.040	0.0182480
747.118	0.0181487
747.196	0.0183215
747.274	0.0184254
747.352	0.0184158
747.430	0.0184196
747.509	0.0183943
747.587	0.0185014
747.665	0.0184587
747.743	0.0184721
747.821	0.0187476
747.899	0.0186826
747.977	0.0185811
748.055	0.0186559
748.134	0.0185706
748.212	0.0185937
748.290	0.0184496
748.368	0.0184176
748.446	0.0184346
748.524	0.0184881
748.602	0.0183356
748.680	0.0183878
748.759	0.0182738
748.837	0.0183534
748.915	0.0182464
748.993	0.0181383
749.071	0.0181877
749.149	0.0183508
749.227	0.0179970
749.305	0.0182206
749.384	0.0181560
749.462	0.0181679
749.540	0.0181561
749.618	0.0181992
749.696	0.0181380
749.774	0.0182191
749.852	0.0183248
749.930	0.0183063
750.009	0.0182746
750.087	0.0182343
750.165	0.0183148
750.243	0.0184029
750.321	0.0184021
750.399	0.0183082
750.477	0.0183189
750.555	0.0184570
750.634	0.0183754
750.712	0.0183549
750.790	0.0183773
750.868	0.0183707
750.946	0.0184184
751.024	0.0184660
751.102	0.0183359
751.180	0.0181956
751.259	0.0183644
751.337	0.0184661
751.415	0.0183704
751.493	0.0183233
751.571	0.0182982
751.649	0.0184218
751.727	0.0184935
751.805	0.0183234
751.884	0.0181532
751.962	0.0183022
752.040	0.0182977
752.118	0.0183224
752.196	0.0184842
752.274	0.0183525
752.352	0.0182641
752.430	0.0183070
752.509	0.0184252
752.587	0.0184381
752.665	0.0183860
752.743	0.0184840
752.821	0.0185087
752.899	0.0185538
752.977	0.0185198
753.055	0.0184020
753.134	0.0185548
753.212	0.0185890
753.290	0.0186140
753.368	0.0185485
753.446	0.0186804
753.524	0.0186086
753.602	0.0184583
753.680	0.0185941
753.759	0.0185764
753.837	0.0183992
753.915	0.0184532
753.993	0.0183644
754.071	0.0183987
754.149	0.0183070
754.227	0.0182826
754.305	0.0183424
754.384	0.0182394
754.462	0.0182599
754.540	0.0181817
754.618	0.0180949
754.696	0.0181245
754.774	0.0182589
754.852	0.0183188
754.930	0.0182556
755.009	0.0181910
755.087	0.0182476
755.165	0.0181589
755.243	0.0182544
755.321	0.0182079
755.399	0.0181798
755.477	0.0183131
755.555	0.0183510
755.634	0.0182908
755.712	0.0184644
755.790	0.0183784
755.868	0.0184800
755.946	0.0184846
756.024	0.0184178
756.102	0.0185091
756.180	0.0186827
756.259	0.0186053
756.337	0.0184787
756.415	0.0185258
756.493	0.0185911
756.571	0.0184939
756.649	0.0184341
756.727	0.0185728
756.805	0.0184750
756.884	0.0184398
756.962	0.0185380
757.040	0.0183286
757.118	0.0183233
757.196	0.0183595
757.274	0.0184721
757.352	0.0183555
757.430	0.0183315
757.509	0.0183693
757.587	0.0183345
757.665	0.0183940
757.743	0.0185944
757.821	0.0185248
757.899	0.0185193
757.977	0.0185712
758.055	0.0185390
758.134	0.0186275
758.212	0.0187705
758.290	0.0186750
758.368	0.0188444
758.446	0.0186591
758.524	0.0186754
758.602	0.0186657
758.680	0.0187479
758.759	0.0186849
758.837	0.0188958
758.915	0.0188282
758.993	0.0187034
759.071	0.0187558
759.149	0.0186644
759.227	0.0186318
759.305	0.0187891
759.384	0.0187421
759.462	0.0186613
759.540	0.0185977
759.618	0.0187453
759.696	0.0186855
759.774	0.0186179
759.852	0.0187017
759.930	0.0187570
760.009	0.0185487
760.087	0.0186240
760.165	0.0186196
760.243	0.0185130
760.321	0.0185782
760.399	0.0184780
760.477	0.0185395
760.555	0.0185519
760.634	0.0185161
760.712	0.0185701
760.790	0.0185989
760.868	0.0186015
760.946	0.0183852
761.024	0.0185149
761.102	0.0186382
761.180	0.0185859
761.259	0.0185827
761.337	0.0184010
761.415	0.0184717
761.493	0.0184634
761.571	0.0184129
761.649	0.0183723
761.727	0.0183738
761.805	0.0182498
761.884	0.0181668
761.962	0.0181890
762.040	0.0182035
762.118	0.0180686
762.196	0.0180023
762.274	0.0180601
762.352	0.0181184
762.430	0.0180096
762.509	0.0180244
762.587	0.0180726
762.665	0.0180808
762.743	0.0179180
762.821	0.0179903
762.899	0.0182039
762.977	0.0181800
763.055	0.0182150
763.134	0.0181452
763.212	0.0182298
763.290	0.0181932
763.368	0.0181836
763.446	0.0183363
763.524	0.0183652
763.602	0.0181139
763.680	0.0180930
763.759	0.0181411
763.837	0.0182098
763.915	0.0181870
763.993	0.0182315
764.071	0.0183514
764.149	0.0183266
764.227	0.0182956
764.305	0.0182539
764.384	0.0182561
764.462	0.0182233
764.540	0.0182658
764.618	0.0182087
764.696	0.0182420
764.774	0.0181268
764.852	0.0182358
764.930	0.0181679
765.009	0.0181234
765.087	0.0181171
765.165	0.0182238
765.243	0.0181477
765.321	0.0182201
765.399	0.0181664
765.477	0.0180991
765.555	0.0180667
765.634	0.0182051
765.712	0.0182788
765.790	0.0182479
765.868	0.0183241
765.946	0.0183466
766.024	0.0182684
766.102	0.0182837
766.180	0.0183138
766.259	0.0183875
766.337	0.0183306
766.415	0.0182316
766.493	0.0183547
766.571	0.0182367
766.649	0.0181557
766.727	0.0181908
766.805	0.0181013
766.884	0.0180585
766.962	0.0181672
767.040	0.0181456
767.118	0.0181768
767.196	0.0181883
767.274	0.0183112
767.352	0.0184073
767.430	0.0182948
767.509	0.0183174
767.587	0.0184155
767.665	0.0183864
767.743	0.0184312
767.821	0.0185236
767.899	0.0184407
767.977	0.0184122
768.055	0.0185493
768.134	0.0186355
768.212	0.0186794
768.290	0.0186539
768.368	0.0185852
768.446	0.0186060
768.524	0.0185891
768.602	0.0185682
768.680	0.0185671
768.759	0.0186281
768.837	0.0186235
768.915	0.0186564
768.993	0.0187027
769.071	0.0186443
769.149	0.0185439
769.227	0.0187302
769.305	0.0186549
769.384	0.0185919
769.462	0.0186268
769.540	0.0186883
769.618	0.0186710
769.696	0.0186160
769.774	0.0186353
769.852	0.0186320
769.930	0.0186726
770.009	0.0187876
770.087	0.0184639
770.165	0.0184942
770.243	0.0184669
770.321	0.0184583
770.399	0.0183527
770.477	0.0184870
770.555	0.0183492
770.634	0.0183521
770.712	0.0182912
770.790	0.0183465
770.868	0.0182818
770.946	0.0182582
771.024	0.0183414
771.102	0.0184790
771.180	0.0185427
771.259	0.0185020
771.337	0.0184644
771.415	0.0184519
771.493	0.0185685
771.571	0.0184888
771.649	0.0186661
771.727	0.0187402
771.805	0.0187216
771.884	0.0187861
771.962	0.0188716
772.040	0.0186745
772.118	0.0186810
772.196	0.0186115
772.274	0.0187714
772.352	0.0187895
772.430	0.0187132
772.509	0.0186752
772.587	0.0186219
772.665	0.0186886
772.743	0.0185534
772.821	0.0186676
772.899	0.0185075
772.977	0.0186608
773.055	0.0184971
773.134	0.0185201
773.212	0.0185492
773.290	0.0186317
773.368	0.0185469
773.446	0.0184957
773.524	0.0186047
773.602	0.0185945
773.680	0.0184919
773.759	0.0185468
773.837	0.0186799
773.915	0.0187033
773.993	0.0185899
774.071	0.0186460
774.149	0.0188236
774.227	0.0186591
774.305	0.0187417
774.384	0.0187394
774.462	0.0185960
774.540	0.0186913
774.618	0.0187832
774.696	0.0188531
774.774	0.0188776
774.852	0.0189061
774.930	0.0188401
775.009	0.0186892
775.087	0.0189241
775.165	0.0187043
775.243	0.0187839
775.321	0.0187354
775.399	0.0188396
775.477	0.0188276
775.555	0.0187212
775.634	0.0186815
775.712	0.0185756
775.790	0.0184345
775.868	0.0183096
775.946	0.0183997
776.024	0.0184709
776.102	0.0183255
776.180	0.0183023
776.259	0.0181378
776.337	0.0181534
776.415	0.0182549
776.493	0.0182436
776.571	0.0182194
776.649	0.0182774
776.727	0.0182774
776.805	0.0182715
776.884	0.0183162
776.962	0.0183996
777.040	0.0183691
777.118	0.0184872
777.196	0.0184131
777.274	0.0184730
777.352	0.0184383
777.430	0.0184769
777.509	0.0183850
777.587	0.0184647
777.665	0.0185053
777.743	0.0185545
777.821	0.0185818
777.899	0.0184446
777.977	0.0184869
778.055	0.0183983
778.134	0.0183931
778.212	0.0183970
778.290	0.0185336
778.368	0.0185293
778.446	0.0184328
778.524	0.0183974
778.602	0.0183651
778.680	0.0184253
778.759	0.0184389
778.837	0.0185040
778.915	0.0185048
778.993	0.0185960
779.071	0.0184716
779.149	0.0183899
779.227	0.0186959
779.305	0.0185675
779.384	0.0185612
779.462	0.0186720
779.540	0.0185994
779.618	0.0186690
779.696	0.0187133
779.774	0.0186900
779.852	0.0186894
779.930	0.0188029
780.009	0.0186108
780.087	0.0185715
780.165	0.0186758
780.243	0.0184709
780.321	0.0183629
780.399	0.0184356
780.477	0.0182938
780.555	0.0183162
780.634	0.0183589
780.712	0.0183625
780.790	0.0183308
780.868	0.0183067
780.946	0.0181706
781.024	0.0182934
781.102	0.0183318
781.180	0.0183586
781.259	0.0183073
781.337	0.0182602
781.415	0.0182699
781.493	0.0183543
781.571	0.0184167
781.649	0.0183601
781.727	0.0184664
781.805	0.0184254
781.884	0.0185188
781.962	0.0183568
782.040	0.0184132
782.118	0.0185694
782.196	0.0185050
782.274	0.0181989
782.352	0.0182942
782.430	0.0182915
782.509	0.0183991
782.587	0.0181922
782.665	0.0183508
782.743	0.0183239
782.821	0.0182575
782.899	0.0184237
782.977	0.0183772
783.055	0.0182464
783.134	0.0183975
783.212	0.0184708
783.290	0.0183940
783.368	0.0185240
783.446	0.0185477
783.524	0.0187161
783.602	0.0186237
783.680	0.0186076
783.759	0.0186713
783.837	0.0185741
783.915	0.0185973
783.993	0.0185335
784.071	0.0186269
784.149	0.0185677
784.227	0.0185227
784.305	0.0185315
784.384	0.0185793
784.462	0.0184644
784.540	0.0186257
784.618	0.0184671
784.696	0.0185033
784.774	0.0184582
784.852	0.0185440
784.930	0.0185432
785.009	0.0186398
785.087	0.0186777
785.165	0.0184865
785.243	0.0185183
785.321	0.0184282
785.399	0.0184037
785.477	0.0182603
785.555	0.0184081
785.634	0.0184827
785.712	0.0183794
785.790	0.0184000
785.868	0.0183734
785.946	0.0183512
786.024	0.0183132
786.102	0.0183070
786.180	0.0182546
786.259	0.0181771
786.337	0.0183874
786.415	0.0181947
786.493	0.0182284
786.571	0.0181292
786.649	0.0182796
786.727	0.0182602
786.805	0.0183138
786.884	0.0183231
786.962	0.0182600
787.040	0.0182577
787.118	0.0182298
787.196	0.0184172
787.274	0.0184073
787.352	0.0182914
787.430	0.0184212
787.509	0.0183961
787.587	0.0185484
787.665	0.0182885
787.743	0.0183189
787.821	0.0184715
787.899	0.0186127
787.977	0.0183891
788.055	0.0184873
788.134	0.0185824
788.212	0.0186916
788.290	0.0186768
788.368	0.0186652
788.446	0.0187156
788.524	0.0186686
788.602	0.0187103
788.680	0.0186170
788.759	0.0186573
788.837	0.0186064
788.915	0.0186476
788.993	0.0183994
789.071	0.0184492
789.149	0.0184878
789.227	0.0184225
789.305	0.0182211
789.384	0.0185036
789.462	0.0183372
789.540	0.0183062
789.618	0.0183601
789.696	0.0183772
789.774	0.0182387
789.852	0.0182397
789.930	0.0182879
790.009	0.0183106
790.087	0.0185364
790.165	0.0184530
790.243	0.0184982
790.321	0.0185631
790.399	0.0187189
790.477	0.0187094
790.555	0.0187220
790.634	0.0184854
790.712	0.0186544
790.790	0.0186440
790.868	0.0186911
790.946	0.0186691
791.024	0.0187131
791.102	0.0186626
791.180	0.0187521
791.259	0.0186010
791.337	0.0186569
791.415	0.0188580
791.493	0.0186595
791.571	0.0186208
791.649	0.0186117
791.727	0.0187215
791.805	0.0188045
791.884	0.0186740
791.962	0.0185803
792.040	0.0186679
792.118	0.0187701
792.196	0.0188052
792.274	0.0186803
792.352	0.0186969
792.430	0.0187760
792.509	0.0188316
792.587	0.0185952
792.665	0.0187348
792.743	0.0187814
792.821	0.0185973
792.899	0.0184962
792.977	0.0186681
793.055	0.0186552
793.134	0.0185158
793.212	0.0185239
793.290	0.0184812
793.368	0.0183231
793.446	0.0183914
793.524	0.0184377
793.602	0.0183628
793.680	0.0184125
793.759	0.0184134
793.837	0.0185329
793.915	0.0184401
793.993	0.0184359
794.071	0.0184688
794.149	0.0185577
794.227	0.0184456
794.305	0.0185798
794.384	0.0186514
794.462	0.0185520
794.540	0.0186969
794.618	0.0186115
794.696	0.0186749
794.774	0.0186996
794.852	0.0187122
794.930	0.0186089
