06/03/2022	18:07:38	Ver.	4.1	UNKNOWN
Optical Delay	599.995081	Delta X		0.078125	Sweeps	1	Scan Rate	0/0
Coordinates	Axis 1	NaN	Axis 2	NaN	Axis 3	NaN	Axis 4	NaN	Axis 5	NaN	Axis 6	0.000000
TX Power	0.000000	RX Power	0.000000

599.995	0.0179744
600.073	0.0179749
600.151	0.0179401
600.229	0.0179437
600.308	0.0180318
600.386	0.0181120
600.464	0.0180135
600.542	0.0179939
600.620	0.0179816
600.698	0.0180003
600.776	0.0180131
600.854	0.0179419
600.933	0.0181439
601.011	0.0180769
601.089	0.0179202
601.167	0.0179794
601.245	0.0180428
601.323	0.0179794
601.401	0.0179132
601.479	0.0178774
601.558	0.0179831
601.636	0.0180107
601.714	0.0179645
601.792	0.0177631
601.870	0.0179893
601.948	0.0180322
602.026	0.0179670
602.104	0.0179987
602.183	0.0179344
602.261	0.0181498
602.339	0.0179511
602.417	0.0179383
602.495	0.0179771
602.573	0.0179793
602.651	0.0181046
602.729	0.0180457
602.808	0.0179751
602.886	0.0180721
602.964	0.0180626
603.042	0.0179425
603.120	0.0179607
603.198	0.0180711
603.276	0.0180357
603.354	0.0181484
603.433	0.0179585
603.511	0.0178976
603.589	0.0180627
603.667	0.0180031
603.745	0.0180310
603.823	0.0180500
603.901	0.0178759
603.979	0.0179322
604.058	0.0180505
604.136	0.0180614
604.214	0.0180515
604.292	0.0180858
604.370	0.0180859
604.448	0.0179579
604.526	0.0180066
604.604	0.0180761
604.683	0.0179577
604.761	0.0178864
604.839	0.0179886
604.917	0.0180893
604.995	0.0179584
605.073	0.0179387
605.151	0.0180031
605.229	0.0179469
605.308	0.0179581
605.386	0.0181107
605.464	0.0178662
605.542	0.0179884
605.620	0.0179377
605.698	0.0180276
605.776	0.0180690
605.854	0.0179668
605.933	0.0179638
606.011	0.0178645
606.089	0.0179311
606.167	0.0179626
606.245	0.0180113
606.323	0.0179581
606.401	0.0180377
606.479	0.0180833
606.558	0.0179959
606.636	0.0180176
606.714	0.0179720
606.792	0.0179533
606.870	0.0180427
606.948	0.0179014
607.026	0.0180141
607.104	0.0179404
607.183	0.0181757
607.261	0.0179523
607.339	0.0178761
607.417	0.0179046
607.495	0.0180125
607.573	0.0179798
607.651	0.0179808
607.729	0.0179740
607.808	0.0179857
607.886	0.0180490
607.964	0.0178602
608.042	0.0180181
608.120	0.0179442
608.198	0.0179258
608.276	0.0178209
608.354	0.0178409
608.433	0.0179153
608.511	0.0180045
608.589	0.0180419
608.667	0.0180113
608.745	0.0179078
608.823	0.0178510
608.901	0.0178980
608.979	0.0179099
609.058	0.0180936
609.136	0.0179732
609.214	0.0178808
609.292	0.0178794
609.370	0.0179495
609.448	0.0180706
609.526	0.0180206
609.604	0.0179716
609.683	0.0178687
609.761	0.0180908
609.839	0.0179911
609.917	0.0180076
609.995	0.0180800
610.073	0.0180260
610.151	0.0180555
610.229	0.0179782
610.308	0.0179562
610.386	0.0179009
610.464	0.0179620
610.542	0.0179196
610.620	0.0180450
610.698	0.0180019
610.776	0.0179300
610.854	0.0179707
610.933	0.0179670
611.011	0.0180425
611.089	0.0181896
611.167	0.0179519
611.245	0.0180045
611.323	0.0178760
611.401	0.0179795
611.479	0.0178640
611.558	0.0179542
611.636	0.0180079
611.714	0.0180149
611.792	0.0179350
611.870	0.0180294
611.948	0.0180448
612.026	0.0179906
612.104	0.0180806
612.183	0.0180890
612.261	0.0179356
612.339	0.0179027
612.417	0.0180368
612.495	0.0180293
612.573	0.0179105
612.651	0.0180304
612.729	0.0180817
612.808	0.0179399
612.886	0.0179748
612.964	0.0179350
613.042	0.0179963
613.120	0.0179764
613.198	0.0179203
613.276	0.0180202
613.354	0.0179980
613.433	0.0179739
613.511	0.0179968
613.589	0.0178394
613.667	0.0179234
613.745	0.0179771
613.823	0.0180695
613.901	0.0180745
613.979	0.0180728
614.058	0.0179150
614.136	0.0179185
614.214	0.0179185
614.292	0.0177828
614.370	0.0180089
614.448	0.0180540
614.526	0.0180301
614.604	0.0178114
614.683	0.0180621
614.761	0.0180009
614.839	0.0177859
614.917	0.0179388
614.995	0.0180737
615.073	0.0180448
615.151	0.0179785
615.229	0.0179578
615.308	0.0178674
615.386	0.0179716
615.464	0.0179614
615.542	0.0180048
615.620	0.0180569
615.698	0.0179056
615.776	0.0179379
615.854	0.0179648
615.933	0.0180926
616.011	0.0179588
616.089	0.0179937
616.167	0.0179559
616.245	0.0179097
616.323	0.0180343
616.401	0.0179268
616.479	0.0179193
616.558	0.0180663
616.636	0.0178255
616.714	0.0179668
616.792	0.0180167
616.870	0.0179515
616.948	0.0180023
617.026	0.0178598
617.104	0.0180529
617.183	0.0179700
617.261	0.0179611
617.339	0.0179736
617.417	0.0180108
617.495	0.0179083
617.573	0.0178310
617.651	0.0179588
617.729	0.0180360
617.808	0.0180906
617.886	0.0180422
617.964	0.0178568
618.042	0.0179348
618.120	0.0179632
618.198	0.0179464
618.276	0.0180211
618.354	0.0179365
618.433	0.0178681
618.511	0.0178371
618.589	0.0180000
618.667	0.0180663
618.745	0.0179947
618.823	0.0179345
618.901	0.0179702
618.979	0.0179061
619.058	0.0180404
619.136	0.0180121
619.214	0.0178796
619.292	0.0178860
619.370	0.0179575
619.448	0.0180009
619.526	0.0179166
619.604	0.0180374
619.683	0.0181255
619.761	0.0179970
619.839	0.0180116
619.917	0.0179452
619.995	0.0179456
620.073	0.0179924
620.151	0.0178751
620.229	0.0178438
620.308	0.0179169
620.386	0.0179443
620.464	0.0179945
620.542	0.0180590
620.620	0.0178934
620.698	0.0178782
620.776	0.0179340
620.854	0.0180436
620.933	0.0179197
621.011	0.0179567
621.089	0.0179087
621.167	0.0179673
621.245	0.0180703
621.323	0.0179820
621.401	0.0179630
621.479	0.0178529
621.558	0.0179902
621.636	0.0181755
621.714	0.0179414
621.792	0.0179940
621.870	0.0179837
621.948	0.0180716
622.026	0.0179523
622.104	0.0179642
622.183	0.0179278
622.261	0.0180645
622.339	0.0178968
622.417	0.0181129
622.495	0.0180135
622.573	0.0179594
622.651	0.0179080
622.729	0.0180703
622.808	0.0179655
622.886	0.0181292
622.964	0.0179796
623.042	0.0179181
623.120	0.0180352
623.198	0.0179249
623.276	0.0178816
623.354	0.0178272
623.433	0.0179733
623.511	0.0180015
623.589	0.0179378
623.667	0.0179372
623.745	0.0180748
623.823	0.0179784
623.901	0.0178355
623.979	0.0180259
624.058	0.0179398
624.136	0.0180270
624.214	0.0178739
624.292	0.0179649
624.370	0.0179519
624.448	0.0181468
624.526	0.0179352
624.604	0.0179378
624.683	0.0180249
624.761	0.0178546
624.839	0.0180251
624.917	0.0181326
624.995	0.0180545
625.073	0.0180226
625.151	0.0179938
625.229	0.0180277
625.308	0.0180173
625.386	0.0180580
625.464	0.0180087
625.542	0.0179557
625.620	0.0178848
625.698	0.0179768
625.776	0.0179723
625.854	0.0180418
625.933	0.0180362
626.011	0.0179365
626.089	0.0179516
626.167	0.0179695
626.245	0.0182005
626.323	0.0180309
626.401	0.0179967
626.479	0.0180142
626.558	0.0181532
626.636	0.0179236
626.714	0.0180882
626.792	0.0178859
626.870	0.0179140
626.948	0.0180463
627.026	0.0180811
627.104	0.0180125
627.183	0.0180309
627.261	0.0179530
627.339	0.0180541
627.417	0.0181209
627.495	0.0179332
627.573	0.0179166
627.651	0.0179527
627.729	0.0179514
627.808	0.0179945
627.886	0.0178211
627.964	0.0179373
628.042	0.0179460
628.120	0.0180338
628.198	0.0180874
628.276	0.0179526
628.354	0.0177993
628.433	0.0179470
628.511	0.0179687
628.589	0.0180748
628.667	0.0180180
628.745	0.0178545
628.823	0.0179227
628.901	0.0179475
628.979	0.0179664
629.058	0.0180003
629.136	0.0180372
629.214	0.0180090
629.292	0.0180132
629.370	0.0180314
629.448	0.0180283
629.526	0.0180681
629.604	0.0178842
629.683	0.0179674
629.761	0.0178800
629.839	0.0179557
629.917	0.0181051
629.995	0.0179986
630.073	0.0178572
630.151	0.0179494
630.229	0.0179643
630.308	0.0179519
630.386	0.0178072
630.464	0.0179512
630.542	0.0180133
630.620	0.0180151
630.698	0.0180096
630.776	0.0180137
630.854	0.0178621
630.933	0.0179859
631.011	0.0180061
631.089	0.0179672
631.167	0.0179221
631.245	0.0180670
631.323	0.0181366
631.401	0.0180145
631.479	0.0180261
631.558	0.0180573
631.636	0.0180285
631.714	0.0180763
631.792	0.0178555
631.870	0.0179471
631.948	0.0180788
632.026	0.0179943
632.104	0.0179269
632.183	0.0179858
632.261	0.0179094
632.339	0.0180294
632.417	0.0180217
632.495	0.0180720
632.573	0.0178853
632.651	0.0180027
632.729	0.0180256
632.808	0.0179678
632.886	0.0179732
632.964	0.0180515
633.042	0.0180578
633.120	0.0179377
633.198	0.0180406
633.276	0.0179058
633.354	0.0178142
633.433	0.0180611
633.511	0.0181306
633.589	0.0179867
633.667	0.0178960
633.745	0.0179363
633.823	0.0180441
633.901	0.0180979
633.979	0.0180656
634.058	0.0178541
634.136	0.0180686
634.214	0.0179227
634.292	0.0180180
634.370	0.0179558
634.448	0.0179444
634.526	0.0179595
634.604	0.0179722
634.683	0.0179877
634.761	0.0179922
634.839	0.0180795
634.917	0.0180894
634.995	0.0179286
635.073	0.0180489
635.151	0.0180770
635.229	0.0180931
635.308	0.0180616
635.386	0.0178619
635.464	0.0180109
635.542	0.0179411
635.620	0.0178864
635.698	0.0180003
635.776	0.0178768
635.854	0.0178831
635.933	0.0180145
636.011	0.0180321
636.089	0.0179481
636.167	0.0179041
636.245	0.0178907
636.323	0.0179822
636.401	0.0180257
636.479	0.0179896
636.558	0.0178609
636.636	0.0180183
636.714	0.0180199
636.792	0.0180637
636.870	0.0180133
636.948	0.0178652
637.026	0.0179440
637.104	0.0178560
637.183	0.0179154
637.261	0.0179651
637.339	0.0180350
637.417	0.0178398
637.495	0.0179760
637.573	0.0178751
637.651	0.0179426
637.729	0.0179214
637.808	0.0179610
637.886	0.0179517
637.964	0.0179590
638.042	0.0180502
638.120	0.0179414
638.198	0.0180399
638.276	0.0179996
638.354	0.0180370
638.433	0.0178905
638.511	0.0179884
638.589	0.0179776
638.667	0.0179656
638.745	0.0179016
638.823	0.0179070
638.901	0.0178669
638.979	0.0179517
639.058	0.0181497
639.136	0.0179374
639.214	0.0179569
639.292	0.0180732
639.370	0.0180634
639.448	0.0178376
639.526	0.0179542
639.604	0.0182318
639.683	0.0180084
639.761	0.0178534
639.839	0.0178806
639.917	0.0180154
639.995	0.0179423
640.073	0.0180333
640.151	0.0179096
640.229	0.0179144
640.308	0.0179950
640.386	0.0179837
640.464	0.0179551
640.542	0.0179925
640.620	0.0179371
640.698	0.0179751
640.776	0.0180473
640.854	0.0180012
640.933	0.0181078
641.011	0.0180914
641.089	0.0180167
641.167	0.0178788
641.245	0.0179536
641.323	0.0179569
641.401	0.0180101
641.479	0.0180062
641.558	0.0179997
641.636	0.0179784
641.714	0.0180472
641.792	0.0180660
641.870	0.0180721
641.948	0.0179282
642.026	0.0180383
642.104	0.0179589
642.183	0.0179050
642.261	0.0180190
642.339	0.0180138
642.417	0.0180150
642.495	0.0179599
642.573	0.0180001
642.651	0.0178839
642.729	0.0180827
642.808	0.0179718
642.886	0.0180122
642.964	0.0178725
643.042	0.0180582
643.120	0.0180123
643.198	0.0180098
643.276	0.0179769
643.354	0.0178620
643.433	0.0179765
643.511	0.0179505
643.589	0.0179424
643.667	0.0180114
643.745	0.0180266
643.823	0.0180300
643.901	0.0180337
643.979	0.0180008
644.058	0.0180135
644.136	0.0179641
644.214	0.0179482
644.292	0.0180679
644.370	0.0180233
644.448	0.0180379
644.526	0.0179584
644.604	0.0180472
644.683	0.0181068
644.761	0.0179054
644.839	0.0178403
644.917	0.0180154
644.995	0.0179961
645.073	0.0179659
645.151	0.0179307
645.229	0.0177987
645.308	0.0180615
645.386	0.0179843
645.464	0.0179692
645.542	0.0180009
645.620	0.0181561
645.698	0.0181689
645.776	0.0179411
645.854	0.0179640
645.933	0.0180807
646.011	0.0179572
646.089	0.0180329
646.167	0.0179702
646.245	0.0179253
646.323	0.0179858
646.401	0.0179032
646.479	0.0179687
646.558	0.0179041
646.636	0.0179854
646.714	0.0178978
646.792	0.0178336
646.870	0.0179782
646.948	0.0178857
647.026	0.0181496
647.104	0.0179790
647.183	0.0179614
647.261	0.0180463
647.339	0.0179040
647.417	0.0180251
647.495	0.0179990
647.573	0.0179259
647.651	0.0179682
647.729	0.0180253
647.808	0.0179730
647.886	0.0181049
647.964	0.0180137
648.042	0.0180464
648.120	0.0178593
648.198	0.0179578
648.276	0.0180621
648.354	0.0180087
648.433	0.0178604
648.511	0.0177998
648.589	0.0180542
648.667	0.0180530
648.745	0.0180935
648.823	0.0180583
648.901	0.0178777
648.979	0.0180833
649.058	0.0180253
649.136	0.0180238
649.214	0.0179726
649.292	0.0180313
649.370	0.0179999
649.448	0.0179919
649.526	0.0180290
649.604	0.0179491
649.683	0.0181284
649.761	0.0179906
649.839	0.0178888
649.917	0.0179126
649.995	0.0179897
650.073	0.0180081
650.151	0.0180916
650.229	0.0181005
650.308	0.0180159
650.386	0.0178988
650.464	0.0180550
650.542	0.0180495
650.620	0.0179028
650.698	0.0180695
650.776	0.0178481
650.854	0.0180175
650.933	0.0179708
651.011	0.0179144
651.089	0.0180029
651.167	0.0180140
651.245	0.0179298
651.323	0.0179708
651.401	0.0179307
651.479	0.0179192
651.558	0.0180429
651.636	0.0178816
651.714	0.0178555
651.792	0.0178910
651.870	0.0180283
651.948	0.0179727
652.026	0.0178684
652.104	0.0180139
652.183	0.0179765
652.261	0.0180322
652.339	0.0179050
652.417	0.0179431
652.495	0.0180286
652.573	0.0181367
652.651	0.0181078
652.729	0.0179733
652.808	0.0180296
652.886	0.0178736
652.964	0.0181082
653.042	0.0179167
653.120	0.0180193
653.198	0.0179218
653.276	0.0178466
653.354	0.0179454
653.433	0.0178436
653.511	0.0179350
653.589	0.0179665
653.667	0.0180054
653.745	0.0179917
653.823	0.0179491
653.901	0.0179263
653.979	0.0179501
654.058	0.0179762
654.136	0.0179876
654.214	0.0180193
654.292	0.0179218
654.370	0.0179597
654.448	0.0179698
654.526	0.0179073
654.604	0.0179240
654.683	0.0179420
654.761	0.0179028
654.839	0.0179057
654.917	0.0180114
654.995	0.0179581
655.073	0.0180491
655.151	0.0179475
655.229	0.0179813
655.308	0.0180445
655.386	0.0178985
655.464	0.0180362
655.542	0.0180532
655.620	0.0180173
655.698	0.0178962
655.776	0.0178050
655.854	0.0179885
655.933	0.0179716
656.011	0.0179398
656.089	0.0179810
656.167	0.0179964
656.245	0.0180164
656.323	0.0179321
656.401	0.0178982
656.479	0.0180602
656.558	0.0180519
656.636	0.0180267
656.714	0.0179333
656.792	0.0179698
656.870	0.0180286
656.948	0.0179251
657.026	0.0180238
657.104	0.0180168
657.183	0.0178848
657.261	0.0178330
657.339	0.0178370
657.417	0.0179401
657.495	0.0180568
657.573	0.0180262
657.651	0.0180230
657.729	0.0179935
657.808	0.0181070
657.886	0.0180747
657.964	0.0180021
658.042	0.0179624
658.120	0.0180532
658.198	0.0180051
658.276	0.0179465
658.354	0.0180577
658.433	0.0180678
658.511	0.0180501
658.589	0.0180092
658.667	0.0178881
658.745	0.0180437
658.823	0.0181129
658.901	0.0180759
658.979	0.0179829
659.058	0.0179633
659.136	0.0180615
659.214	0.0179552
659.292	0.0180482
659.370	0.0180246
659.448	0.0180077
659.526	0.0179942
659.604	0.0179443
659.683	0.0179363
659.761	0.0180923
659.839	0.0179185
659.917	0.0178533
659.995	0.0179828
660.073	0.0179890
660.151	0.0180424
660.229	0.0179788
660.308	0.0179362
660.386	0.0180302
660.464	0.0179830
660.542	0.0179620
660.620	0.0179414
660.698	0.0180841
660.776	0.0180378
660.854	0.0179036
660.933	0.0179685
661.011	0.0180856
661.089	0.0180437
661.167	0.0179600
661.245	0.0180035
661.323	0.0178418
661.401	0.0179842
661.479	0.0179816
661.558	0.0180096
661.636	0.0179726
661.714	0.0178922
661.792	0.0179804
661.870	0.0179507
661.948	0.0179456
662.026	0.0179552
662.104	0.0179742
662.183	0.0179752
662.261	0.0179490
662.339	0.0180410
662.417	0.0180189
662.495	0.0180634
662.573	0.0178775
662.651	0.0180658
662.729	0.0179496
662.808	0.0181080
662.886	0.0179461
662.964	0.0179900
663.042	0.0180006
663.120	0.0180058
663.198	0.0179684
663.276	0.0180367
663.354	0.0180657
663.433	0.0180218
663.511	0.0180891
663.589	0.0178798
663.667	0.0179576
663.745	0.0180786
663.823	0.0181135
663.901	0.0180073
663.979	0.0180622
664.058	0.0179308
664.136	0.0179345
664.214	0.0178913
664.292	0.0179752
664.370	0.0181219
664.448	0.0181200
664.526	0.0179104
664.604	0.0179197
664.683	0.0180569
664.761	0.0180276
664.839	0.0179824
664.917	0.0179874
664.995	0.0179774
665.073	0.0180029
665.151	0.0179505
665.229	0.0179073
665.308	0.0180066
665.386	0.0180849
665.464	0.0180135
665.542	0.0178822
665.620	0.0179512
665.698	0.0180563
665.776	0.0179871
665.854	0.0180093
665.933	0.0177907
666.011	0.0180019
666.089	0.0180019
666.167	0.0179460
666.245	0.0179713
666.323	0.0179753
666.401	0.0179925
666.479	0.0180605
666.558	0.0179039
666.636	0.0180441
666.714	0.0181179
666.792	0.0179668
666.870	0.0180679
666.948	0.0179939
667.026	0.0179269
667.104	0.0179200
667.183	0.0180330
667.261	0.0180548
667.339	0.0179497
667.417	0.0180611
667.495	0.0180765
667.573	0.0180281
667.651	0.0180199
667.729	0.0180222
667.808	0.0181290
667.886	0.0179326
667.964	0.0179909
668.042	0.0180030
668.120	0.0179404
668.198	0.0180804
668.276	0.0180064
668.354	0.0179602
668.433	0.0178721
668.511	0.0179647
668.589	0.0180235
668.667	0.0180176
668.745	0.0178475
668.823	0.0180078
668.901	0.0179529
668.979	0.0179900
669.058	0.0178820
669.136	0.0180196
669.214	0.0180119
669.292	0.0179584
669.370	0.0179729
669.448	0.0179484
669.526	0.0180302
669.604	0.0180368
669.683	0.0179166
669.761	0.0179145
669.839	0.0180053
669.917	0.0179679
669.995	0.0180752
670.073	0.0179900
670.151	0.0180687
670.229	0.0179568
670.308	0.0178159
670.386	0.0179041
670.464	0.0179903
670.542	0.0179461
670.620	0.0179504
670.698	0.0180038
670.776	0.0180091
670.854	0.0179192
670.933	0.0177766
671.011	0.0179061
671.089	0.0179365
671.167	0.0178748
671.245	0.0178852
671.323	0.0180790
671.401	0.0179231
671.479	0.0179015
671.558	0.0178638
671.636	0.0178715
671.714	0.0180314
671.792	0.0178998
671.870	0.0181189
671.948	0.0179346
672.026	0.0180339
672.104	0.0179771
672.183	0.0179964
672.261	0.0178620
672.339	0.0180336
672.417	0.0179630
672.495	0.0179505
672.573	0.0179929
672.651	0.0180437
672.729	0.0179928
672.808	0.0179836
672.886	0.0178851
672.964	0.0178812
673.042	0.0179489
673.120	0.0179685
673.198	0.0178790
673.276	0.0179613
673.354	0.0178870
673.433	0.0178983
673.511	0.0180186
673.589	0.0179301
673.667	0.0179999
673.745	0.0178255
673.823	0.0180061
673.901	0.0180253
673.979	0.0180995
674.058	0.0178432
674.136	0.0179108
674.214	0.0179308
674.292	0.0179622
674.370	0.0178436
674.448	0.0179388
674.526	0.0179449
674.604	0.0180062
674.683	0.0179169
674.761	0.0179050
674.839	0.0180141
674.917	0.0179273
674.995	0.0179946
675.073	0.0180001
675.151	0.0179094
675.229	0.0179557
675.308	0.0179704
675.386	0.0179779
675.464	0.0180965
675.542	0.0180625
675.620	0.0180254
675.698	0.0180222
675.776	0.0179524
675.854	0.0178767
675.933	0.0179225
676.011	0.0179061
676.089	0.0179397
676.167	0.0178915
676.245	0.0179133
676.323	0.0180054
676.401	0.0179594
676.479	0.0179593
676.558	0.0178799
676.636	0.0179546
676.714	0.0180054
676.792	0.0179021
676.870	0.0180007
676.948	0.0178687
677.026	0.0178783
677.104	0.0179411
677.183	0.0179576
677.261	0.0179652
677.339	0.0179805
677.417	0.0179488
677.495	0.0179060
677.573	0.0180189
677.651	0.0179595
677.729	0.0180135
677.808	0.0179763
677.886	0.0178841
677.964	0.0178469
678.042	0.0180956
678.120	0.0179762
678.198	0.0179231
678.276	0.0179470
678.354	0.0179482
678.433	0.0179425
678.511	0.0180167
678.589	0.0179067
678.667	0.0179185
678.745	0.0179896
678.823	0.0179411
678.901	0.0181261
678.979	0.0179286
679.058	0.0179514
679.136	0.0179894
679.214	0.0179248
679.292	0.0180360
679.370	0.0178896
679.448	0.0179910
679.526	0.0179719
679.604	0.0179288
679.683	0.0180114
679.761	0.0181362
679.839	0.0178790
679.917	0.0179771
679.995	0.0179723
680.073	0.0180636
680.151	0.0179068
680.229	0.0179323
680.308	0.0180353
680.386	0.0179569
680.464	0.0180306
680.542	0.0179963
680.620	0.0179462
680.698	0.0179217
680.776	0.0177926
680.854	0.0181366
680.933	0.0180667
681.011	0.0179434
681.089	0.0180853
681.167	0.0180074
681.245	0.0179998
681.323	0.0180450
681.401	0.0179901
681.479	0.0178976
681.558	0.0180891
681.636	0.0179581
681.714	0.0180443
681.792	0.0180350
681.870	0.0181043
681.948	0.0180433
682.026	0.0180225
682.104	0.0180972
682.183	0.0180977
682.261	0.0179477
682.339	0.0180305
682.417	0.0181384
682.495	0.0181410
682.573	0.0180483
682.651	0.0180054
682.729	0.0180334
682.808	0.0180458
682.886	0.0179021
682.964	0.0180391
683.042	0.0179740
683.120	0.0180475
683.198	0.0180637
683.276	0.0179279
683.354	0.0180579
683.433	0.0179940
683.511	0.0180907
683.589	0.0180885
683.667	0.0181059
683.745	0.0179947
683.823	0.0180782
683.901	0.0180246
683.979	0.0181748
684.058	0.0181432
684.136	0.0180830
684.214	0.0181647
684.292	0.0181474
684.370	0.0180603
684.448	0.0180731
684.526	0.0180991
684.604	0.0180447
684.683	0.0180410
684.761	0.0181485
684.839	0.0180921
684.917	0.0181657
684.995	0.0179498
685.073	0.0180852
685.151	0.0181827
685.229	0.0180537
685.308	0.0179847
685.386	0.0179298
685.464	0.0180561
685.542	0.0181055
685.620	0.0179932
685.698	0.0180747
685.776	0.0180058
685.854	0.0181560
685.933	0.0181612
686.011	0.0179093
686.089	0.0180475
686.167	0.0180938
686.245	0.0181215
686.323	0.0181009
686.401	0.0180128
686.479	0.0180170
686.558	0.0181423
686.636	0.0179617
686.714	0.0181542
686.792	0.0181481
686.870	0.0180364
686.948	0.0179997
687.026	0.0180365
687.104	0.0181079
687.183	0.0181212
687.261	0.0180780
687.339	0.0179621
687.417	0.0180137
687.495	0.0180449
687.573	0.0180908
687.651	0.0180527
687.729	0.0180642
687.808	0.0179737
687.886	0.0179726
687.964	0.0179553
688.042	0.0180138
688.120	0.0178407
688.198	0.0178882
688.276	0.0180605
688.354	0.0180103
688.433	0.0179654
688.511	0.0179626
688.589	0.0179636
688.667	0.0178815
688.745	0.0179408
688.823	0.0178696
688.901	0.0179644
688.979	0.0180488
689.058	0.0179354
689.136	0.0179221
689.214	0.0180383
689.292	0.0178033
689.370	0.0178342
689.448	0.0179408
689.526	0.0179304
689.604	0.0179420
689.683	0.0180383
689.761	0.0179685
689.839	0.0179799
689.917	0.0179580
689.995	0.0177838
690.073	0.0178110
690.151	0.0180273
690.229	0.0179586
690.308	0.0179605
690.386	0.0178795
690.464	0.0179817
690.542	0.0178889
690.620	0.0179400
690.698	0.0178945
690.776	0.0180821
690.854	0.0180265
690.933	0.0177772
691.011	0.0177864
691.089	0.0178977
691.167	0.0179150
691.245	0.0179930
691.323	0.0178992
691.401	0.0179446
691.479	0.0178358
691.558	0.0180391
691.636	0.0179120
691.714	0.0178542
691.792	0.0179774
691.870	0.0180010
691.948	0.0179507
692.026	0.0179308
692.104	0.0179387
692.183	0.0179400
692.261	0.0180128
692.339	0.0179800
692.417	0.0179568
692.495	0.0179694
692.573	0.0177873
692.651	0.0179337
692.729	0.0180853
692.808	0.0179272
692.886	0.0179625
692.964	0.0178873
693.042	0.0177766
693.120	0.0179366
693.198	0.0178936
693.276	0.0178696
693.354	0.0179532
693.433	0.0178376
693.511	0.0180220
693.589	0.0179297
693.667	0.0178838
693.745	0.0178803
693.823	0.0178434
693.901	0.0178532
693.979	0.0179302
694.058	0.0179990
694.136	0.0179498
694.214	0.0180357
694.292	0.0180934
694.370	0.0178757
694.448	0.0179142
694.526	0.0178930
694.604	0.0178986
694.683	0.0180417
694.761	0.0179810
694.839	0.0179295
694.917	0.0179619
694.995	0.0180413
695.073	0.0179693
695.151	0.0179139
695.229	0.0180634
695.308	0.0179427
695.386	0.0179334
695.464	0.0180816
695.542	0.0180215
695.620	0.0179594
695.698	0.0178214
695.776	0.0178356
695.854	0.0179770
695.933	0.0178748
696.011	0.0177141
696.089	0.0178914
696.167	0.0179448
696.245	0.0179970
696.323	0.0180747
696.401	0.0179864
696.479	0.0182220
696.558	0.0184550
696.636	0.0184552
696.714	0.0185164
696.792	0.0185984
696.870	0.0184481
696.948	0.0184788
697.026	0.0186170
697.104	0.0183447
697.183	0.0183078
697.261	0.0180922
697.339	0.0179458
697.417	0.0177452
697.495	0.0173577
697.573	0.0172426
697.651	0.0170502
697.729	0.0167110
697.808	0.0164562
697.886	0.0164181
697.964	0.0163313
698.042	0.0163391
698.120	0.0163083
698.198	0.0167027
698.276	0.0170208
698.354	0.0174120
698.433	0.0180085
698.511	0.0186999
698.589	0.0192104
698.667	0.0199468
698.745	0.0205051
698.823	0.0209774
698.901	0.0213333
698.979	0.0216328
699.058	0.0215580
699.136	0.0212390
699.214	0.0209585
699.292	0.0202562
699.370	0.0194947
699.448	0.0188223
699.526	0.0180239
699.604	0.0168605
699.683	0.0158996
699.761	0.0151248
699.839	0.0145625
699.917	0.0138383
699.995	0.0135663
700.073	0.0134379
700.151	0.0136490
700.229	0.0139273
700.308	0.0143163
700.386	0.0148132
700.464	0.0156981
700.542	0.0166693
700.620	0.0175389
700.698	0.0183418
700.776	0.0192921
700.854	0.0200935
700.933	0.0208216
701.011	0.0213341
701.089	0.0217492
701.167	0.0219956
701.245	0.0221822
701.323	0.0221077
701.401	0.0218893
701.479	0.0217003
701.558	0.0212194
701.636	0.0206520
701.714	0.0199797
701.792	0.0193947
701.870	0.0186857
701.948	0.0178484
702.026	0.0171584
702.104	0.0165485
702.183	0.0158081
702.261	0.0152068
702.339	0.0148967
702.417	0.0146416
702.495	0.0143769
702.573	0.0143925
702.651	0.0146938
702.729	0.0149410
702.808	0.0152688
702.886	0.0156496
702.964	0.0162475
703.042	0.0166984
703.120	0.0173355
703.198	0.0179029
703.276	0.0183502
703.354	0.0187428
703.433	0.0189995
703.511	0.0191977
703.589	0.0195811
703.667	0.0197823
703.745	0.0200397
703.823	0.0198602
703.901	0.0199294
703.979	0.0198518
704.058	0.0197543
704.136	0.0193711
704.214	0.0188924
704.292	0.0184810
704.370	0.0179843
704.448	0.0173244
704.526	0.0167797
704.604	0.0161878
704.683	0.0156831
704.761	0.0152766
704.839	0.0151552
704.917	0.0152142
704.995	0.0152187
705.073	0.0155331
705.151	0.0160950
705.229	0.0167588
705.308	0.0174443
705.386	0.0183792
705.464	0.0191745
705.542	0.0200132
705.620	0.0207131
705.698	0.0212051
705.776	0.0214417
705.854	0.0216105
705.933	0.0216553
706.011	0.0214520
706.089	0.0210765
706.167	0.0208396
706.245	0.0202203
706.323	0.0198804
706.401	0.0193223
706.479	0.0188152
706.558	0.0183164
706.636	0.0176990
706.714	0.0172276
706.792	0.0167788
706.870	0.0162499
706.948	0.0158126
707.026	0.0152626
707.104	0.0149134
707.183	0.0146453
707.261	0.0143062
707.339	0.0140471
707.417	0.0139960
707.495	0.0141180
707.573	0.0142413
707.651	0.0146752
707.729	0.0151809
707.808	0.0158030
707.886	0.0164136
707.964	0.0173206
708.042	0.0181576
708.120	0.0188451
708.198	0.0195256
708.276	0.0201750
708.354	0.0206725
708.433	0.0211305
708.511	0.0211236
708.589	0.0213853
708.667	0.0215127
708.745	0.0211428
708.823	0.0210569
708.901	0.0205622
708.979	0.0203246
709.058	0.0198045
709.136	0.0193190
709.214	0.0190697
709.292	0.0184645
709.370	0.0179887
709.448	0.0177261
709.526	0.0174335
709.604	0.0171880
709.683	0.0170223
709.761	0.0168931
709.839	0.0168943
709.917	0.0168986
709.995	0.0169339
710.073	0.0170296
710.151	0.0171375
710.229	0.0172226
710.308	0.0172359
710.386	0.0172620
710.464	0.0174137
710.542	0.0173750
710.620	0.0172832
710.698	0.0173862
710.776	0.0174329
710.854	0.0174075
710.933	0.0177291
711.011	0.0176868
711.089	0.0178558
711.167	0.0181084
711.245	0.0181777
711.323	0.0180787
711.401	0.0183921
711.479	0.0183231
711.558	0.0183540
711.636	0.0182569
711.714	0.0181202
711.792	0.0182124
711.870	0.0182816
711.948	0.0183636
712.026	0.0184377
712.104	0.0185236
712.183	0.0186500
712.261	0.0188261
712.339	0.0188707
712.417	0.0188967
712.495	0.0189187
712.573	0.0188569
712.651	0.0187096
712.729	0.0187120
712.808	0.0184521
712.886	0.0181590
712.964	0.0179587
713.042	0.0177281
713.120	0.0176343
713.198	0.0173819
713.276	0.0173042
713.354	0.0170985
713.433	0.0170589
713.511	0.0170606
713.589	0.0170148
713.667	0.0169308
713.745	0.0170036
713.823	0.0169307
713.901	0.0170770
713.979	0.0170197
714.058	0.0170384
714.136	0.0172057
714.214	0.0172796
714.292	0.0174539
714.370	0.0176037
714.448	0.0176267
714.526	0.0178642
714.604	0.0181609
714.683	0.0183127
714.761	0.0183057
714.839	0.0185883
714.917	0.0185865
714.995	0.0189041
715.073	0.0189031
715.151	0.0189851
715.229	0.0191682
715.308	0.0190955
715.386	0.0191055
715.464	0.0189683
715.542	0.0188870
715.620	0.0186384
715.698	0.0185375
715.776	0.0182235
715.854	0.0178842
715.933	0.0177457
716.011	0.0175758
716.089	0.0174252
716.167	0.0174117
716.245	0.0173144
716.323	0.0172714
716.401	0.0173239
716.479	0.0174754
716.558	0.0175633
716.636	0.0178094
716.714	0.0179043
716.792	0.0181006
716.870	0.0182582
716.948	0.0183741
717.026	0.0182998
717.104	0.0184918
717.183	0.0182317
717.261	0.0180089
717.339	0.0179786
717.417	0.0177311
717.495	0.0174628
717.573	0.0174560
717.651	0.0174074
717.729	0.0173197
717.808	0.0173795
717.886	0.0172640
717.964	0.0172829
718.042	0.0174211
718.120	0.0175065
718.198	0.0174931
718.276	0.0175623
718.354	0.0175647
718.433	0.0175588
718.511	0.0176561
718.589	0.0176279
718.667	0.0176203
718.745	0.0174889
718.823	0.0175391
718.901	0.0175944
718.979	0.0177538
719.058	0.0177156
719.136	0.0178091
719.214	0.0178853
719.292	0.0181612
719.370	0.0183560
719.448	0.0184388
719.526	0.0186383
719.604	0.0189105
719.683	0.0188429
719.761	0.0189896
719.839	0.0190645
719.917	0.0190723
719.995	0.0188103
720.073	0.0187098
720.151	0.0185861
720.229	0.0183115
720.308	0.0181228
720.386	0.0178731
720.464	0.0178497
720.542	0.0176129
720.620	0.0175853
720.698	0.0175547
720.776	0.0174422
720.854	0.0174349
720.933	0.0173952
721.011	0.0175626
721.089	0.0175880
721.167	0.0175425
721.245	0.0176466
721.323	0.0177715
721.401	0.0179121
721.479	0.0180661
721.558	0.0180622
721.636	0.0182256
721.714	0.0182101
721.792	0.0184159
721.870	0.0184676
721.948	0.0185294
722.026	0.0183949
722.104	0.0182918
722.183	0.0184490
722.261	0.0183901
722.339	0.0183458
722.417	0.0183304
722.495	0.0184054
722.573	0.0181286
722.651	0.0179502
722.729	0.0179786
722.808	0.0177862
722.886	0.0177313
722.964	0.0175473
723.042	0.0174964
723.120	0.0174825
723.198	0.0174281
723.276	0.0174240
723.354	0.0174966
723.433	0.0176121
723.511	0.0175822
723.589	0.0178098
723.667	0.0179259
723.745	0.0180140
723.823	0.0180343
723.901	0.0181209
723.979	0.0180863
724.058	0.0182226
724.136	0.0182616
724.214	0.0181654
724.292	0.0182335
724.370	0.0181925
724.448	0.0180699
724.526	0.0180903
724.604	0.0179823
724.683	0.0178421
724.761	0.0178371
724.839	0.0177672
724.917	0.0177900
724.995	0.0177063
725.073	0.0178043
725.151	0.0177862
725.229	0.0177499
725.308	0.0179496
725.386	0.0176704
725.464	0.0177863
725.542	0.0178594
725.620	0.0178130
725.698	0.0178316
725.776	0.0179716
725.854	0.0178603
725.933	0.0179684
726.011	0.0180251
726.089	0.0179472
726.167	0.0180798
726.245	0.0181643
726.323	0.0182054
726.401	0.0181565
726.479	0.0179959
726.558	0.0180972
726.636	0.0180917
726.714	0.0181857
726.792	0.0181144
726.870	0.0179552
726.948	0.0179572
727.026	0.0179757
727.104	0.0181055
727.183	0.0179921
727.261	0.0179910
727.339	0.0180878
727.417	0.0180315
727.495	0.0180359
727.573	0.0181709
727.651	0.0180067
727.729	0.0179501
727.808	0.0181116
727.886	0.0181277
727.964	0.0179811
728.042	0.0180921
728.120	0.0179269
728.198	0.0178533
728.276	0.0177850
728.354	0.0178046
728.433	0.0177350
728.511	0.0175328
728.589	0.0176670
728.667	0.0175565
728.745	0.0175642
728.823	0.0173666
728.901	0.0174062
728.979	0.0173331
729.058	0.0173406
729.136	0.0173804
729.214	0.0174374
729.292	0.0176479
729.370	0.0176302
729.448	0.0177153
729.526	0.0177827
729.604	0.0178481
729.683	0.0180894
729.761	0.0180462
729.839	0.0182389
729.917	0.0183276
729.995	0.0182964
730.073	0.0184193
730.151	0.0184344
730.229	0.0185989
730.308	0.0184173
730.386	0.0183469
730.464	0.0183839
730.542	0.0184432
730.620	0.0180766
730.698	0.0180473
730.776	0.0178738
730.854	0.0178143
730.933	0.0178028
731.011	0.0179755
731.089	0.0178452
731.167	0.0177584
731.245	0.0178718
731.323	0.0180782
731.401	0.0181017
731.479	0.0181204
731.558	0.0183109
731.636	0.0180441
731.714	0.0182212
731.792	0.0181606
731.870	0.0183429
731.948	0.0183680
732.026	0.0182370
732.104	0.0181498
732.183	0.0180427
732.261	0.0179487
732.339	0.0178991
732.417	0.0178465
732.495	0.0178355
732.573	0.0177540
732.651	0.0179082
732.729	0.0177785
732.808	0.0177636
732.886	0.0176835
732.964	0.0178942
733.042	0.0178008
733.120	0.0179604
733.198	0.0180048
733.276	0.0179121
733.354	0.0178154
733.433	0.0177542
733.511	0.0178630
733.589	0.0177628
733.667	0.0177757
733.745	0.0178095
733.823	0.0178688
733.901	0.0179048
733.979	0.0178963
734.058	0.0179624
734.136	0.0179298
734.214	0.0178677
734.292	0.0180720
734.370	0.0179388
734.448	0.0180258
734.526	0.0180401
734.604	0.0179100
734.683	0.0179617
734.761	0.0180299
734.839	0.0180033
734.917	0.0180801
734.995	0.0179869
735.073	0.0180779
735.151	0.0181351
735.229	0.0181278
735.308	0.0182957
735.386	0.0183917
735.464	0.0184538
735.542	0.0185445
735.620	0.0184228
735.698	0.0185054
735.776	0.0184933
735.854	0.0184250
735.933	0.0183916
736.011	0.0181553
736.089	0.0179314
736.167	0.0178876
736.245	0.0175627
736.323	0.0176701
736.401	0.0175128
736.479	0.0173867
736.558	0.0173534
736.636	0.0175505
736.714	0.0175910
736.792	0.0175260
736.870	0.0176595
736.948	0.0176780
737.026	0.0177656
737.104	0.0179358
737.183	0.0179312
737.261	0.0182520
737.339	0.0183043
737.417	0.0184175
737.495	0.0184502
737.573	0.0184252
737.651	0.0184464
737.729	0.0184650
737.808	0.0183217
737.886	0.0181246
737.964	0.0180844
738.042	0.0181216
738.120	0.0179779
738.198	0.0178006
738.276	0.0179418
738.354	0.0177901
738.433	0.0177808
738.511	0.0179372
738.589	0.0179061
738.667	0.0178434
738.745	0.0179102
738.823	0.0180169
738.901	0.0178651
738.979	0.0179128
739.058	0.0181291
739.136	0.0180453
739.214	0.0179673
739.292	0.0181570
739.370	0.0182073
739.448	0.0179423
739.526	0.0177363
739.604	0.0178542
739.683	0.0179538
739.761	0.0177930
739.839	0.0177009
739.917	0.0176623
739.995	0.0176956
740.073	0.0175895
740.151	0.0176096
740.229	0.0175563
740.308	0.0176293
740.386	0.0177209
740.464	0.0178082
740.542	0.0179350
740.620	0.0180360
740.698	0.0182901
740.776	0.0184614
740.854	0.0184967
740.933	0.0184714
741.011	0.0185966
741.089	0.0186352
741.167	0.0188198
741.245	0.0187447
741.323	0.0185999
741.401	0.0183942
741.479	0.0181486
741.558	0.0181259
741.636	0.0179787
741.714	0.0178645
741.792	0.0176537
741.870	0.0177319
741.948	0.0174805
742.026	0.0174010
742.104	0.0172971
742.183	0.0173438
742.261	0.0175387
742.339	0.0174865
742.417	0.0174514
742.495	0.0177100
742.573	0.0177769
742.651	0.0178358
742.729	0.0178503
742.808	0.0179358
742.886	0.0180323
742.964	0.0181573
743.042	0.0181342
743.120	0.0182597
743.198	0.0181696
743.276	0.0183467
743.354	0.0184352
743.433	0.0182598
743.511	0.0180531
743.589	0.0179903
743.667	0.0178514
743.745	0.0179008
743.823	0.0178264
743.901	0.0174977
743.979	0.0172903
744.058	0.0172900
744.136	0.0172511
744.214	0.0173222
744.292	0.0170821
744.370	0.0172609
744.448	0.0173595
744.526	0.0173582
744.604	0.0173849
744.683	0.0175547
744.761	0.0178950
744.839	0.0179716
744.917	0.0180038
744.995	0.0181184
745.073	0.0184111
745.151	0.0185633
745.229	0.0186265
745.308	0.0186761
745.386	0.0188012
745.464	0.0188860
745.542	0.0187840
745.620	0.0187428
745.698	0.0187862
745.776	0.0186200
745.854	0.0183076
745.933	0.0182804
746.011	0.0181670
746.089	0.0178798
746.167	0.0179156
746.245	0.0177634
746.323	0.0176966
746.401	0.0179086
746.479	0.0175299
746.558	0.0176393
746.636	0.0176608
746.714	0.0178386
746.792	0.0178078
746.870	0.0179393
746.948	0.0178049
747.026	0.0178661
747.104	0.0180261
747.183	0.0179841
747.261	0.0177683
747.339	0.0179230
747.417	0.0179398
747.495	0.0178973
747.573	0.0179202
747.651	0.0179010
747.729	0.0177148
747.808	0.0178461
747.886	0.0179034
747.964	0.0178262
748.042	0.0178381
748.120	0.0179234
748.198	0.0176786
748.276	0.0179300
748.354	0.0178474
748.433	0.0177581
748.511	0.0178533
748.589	0.0180123
748.667	0.0179852
748.745	0.0179754
748.823	0.0180077
748.901	0.0180606
748.979	0.0182348
749.058	0.0180296
749.136	0.0181204
749.214	0.0180943
749.292	0.0180130
749.370	0.0179890
749.448	0.0180604
749.526	0.0180787
749.604	0.0181651
749.683	0.0181366
749.761	0.0180380
749.839	0.0179416
749.917	0.0179929
749.995	0.0180619
750.073	0.0179919
750.151	0.0179784
750.229	0.0179613
750.308	0.0178729
750.386	0.0179305
750.464	0.0177943
750.542	0.0177418
750.620	0.0176939
750.698	0.0179234
750.776	0.0179896
750.854	0.0177910
750.933	0.0177933
751.011	0.0178854
751.089	0.0179453
751.167	0.0178086
751.245	0.0178593
751.323	0.0179325
751.401	0.0179108
751.479	0.0180048
751.558	0.0178008
751.636	0.0177281
751.714	0.0176760
751.792	0.0175759
751.870	0.0176567
751.948	0.0176609
752.026	0.0175664
752.104	0.0176289
752.183	0.0177299
752.261	0.0178904
752.339	0.0179834
752.417	0.0179346
752.495	0.0179926
752.573	0.0181264
752.651	0.0183943
752.729	0.0183891
752.808	0.0183442
752.886	0.0185344
752.964	0.0183398
753.042	0.0184937
753.120	0.0184290
753.198	0.0186747
753.276	0.0184818
753.354	0.0185264
753.433	0.0184213
753.511	0.0183054
753.589	0.0183167
753.667	0.0184483
753.745	0.0181572
753.823	0.0179245
753.901	0.0179227
753.979	0.0181310
754.058	0.0180579
754.136	0.0179902
754.214	0.0177558
754.292	0.0176150
754.370	0.0177626
754.448	0.0176838
754.526	0.0175269
754.604	0.0175358
754.683	0.0175764
754.761	0.0174807
754.839	0.0177889
754.917	0.0177640
754.995	0.0178009
755.073	0.0178188
755.151	0.0177850
755.229	0.0180506
755.308	0.0179384
755.386	0.0179495
755.464	0.0181547
755.542	0.0180466
755.620	0.0180502
755.698	0.0180406
755.776	0.0181706
755.854	0.0181184
755.933	0.0180979
756.011	0.0179621
756.089	0.0178209
756.167	0.0178979
756.245	0.0177023
756.323	0.0178185
756.401	0.0178153
756.479	0.0177927
756.558	0.0178417
756.636	0.0177632
756.714	0.0178510
756.792	0.0179482
756.870	0.0177383
756.948	0.0177158
757.026	0.0178526
757.104	0.0179636
757.183	0.0179843
757.261	0.0178829
757.339	0.0179332
757.417	0.0179153
757.495	0.0179823
757.573	0.0179538
757.651	0.0179932
757.729	0.0180450
757.808	0.0180713
757.886	0.0181201
757.964	0.0180972
758.042	0.0181812
758.120	0.0180964
758.198	0.0180003
758.276	0.0180059
758.354	0.0180765
758.433	0.0180125
758.511	0.0179500
758.589	0.0180197
758.667	0.0179267
758.745	0.0177638
758.823	0.0178592
758.901	0.0178262
758.979	0.0177370
759.058	0.0177316
759.136	0.0177898
759.214	0.0178592
759.292	0.0179359
759.370	0.0179025
759.448	0.0178220
759.526	0.0178065
759.604	0.0178376
759.683	0.0179619
759.761	0.0182988
759.839	0.0181907
759.917	0.0182992
759.995	0.0181708
760.073	0.0181419
760.151	0.0182373
760.229	0.0183253
760.308	0.0182797
760.386	0.0182035
760.464	0.0182158
760.542	0.0182816
760.620	0.0182451
760.698	0.0183000
760.776	0.0181644
760.854	0.0181303
760.933	0.0180880
761.011	0.0180059
761.089	0.0180904
761.167	0.0180927
761.245	0.0180158
761.323	0.0179247
761.401	0.0180125
761.479	0.0179292
761.558	0.0179592
761.636	0.0177577
761.714	0.0178032
761.792	0.0180306
761.870	0.0179385
761.948	0.0179920
762.026	0.0179124
762.104	0.0181045
762.183	0.0180824
762.261	0.0181883
762.339	0.0181826
762.417	0.0183098
762.495	0.0181641
762.573	0.0183151
762.651	0.0183444
762.729	0.0182199
762.808	0.0180614
762.886	0.0181406
762.964	0.0180643
763.042	0.0179568
763.120	0.0179215
763.198	0.0179401
763.276	0.0177805
763.354	0.0176640
763.433	0.0177423
763.511	0.0176983
763.589	0.0178318
763.667	0.0177458
763.745	0.0175974
763.823	0.0176202
763.901	0.0176601
763.979	0.0177232
764.058	0.0177396
764.136	0.0177560
764.214	0.0178875
764.292	0.0177597
764.370	0.0178857
764.448	0.0179473
764.526	0.0179742
764.604	0.0179970
764.683	0.0179665
764.761	0.0179796
764.839	0.0178780
764.917	0.0179323
764.995	0.0177517
765.073	0.0178932
765.151	0.0179053
765.229	0.0175995
765.308	0.0178734
765.386	0.0179060
765.464	0.0180729
765.542	0.0180230
765.620	0.0180196
765.698	0.0180473
765.776	0.0182359
765.854	0.0182084
765.933	0.0181302
766.011	0.0181837
766.089	0.0182130
766.167	0.0181389
766.245	0.0180674
766.323	0.0182143
766.401	0.0180984
766.479	0.0181281
766.558	0.0179757
766.636	0.0180000
766.714	0.0181184
766.792	0.0180128
766.870	0.0178481
766.948	0.0179102
767.026	0.0177718
767.104	0.0178077
767.183	0.0179317
767.261	0.0179721
767.339	0.0180273
767.417	0.0179889
767.495	0.0180170
767.573	0.0180762
767.651	0.0181003
767.729	0.0180073
767.808	0.0181181
767.886	0.0181339
767.964	0.0182187
768.042	0.0182253
768.120	0.0181450
768.198	0.0182772
768.276	0.0182613
768.354	0.0182219
768.433	0.0180212
768.511	0.0181278
768.589	0.0181170
768.667	0.0180619
768.745	0.0181309
768.823	0.0178268
768.901	0.0179321
768.979	0.0177982
769.058	0.0177418
769.136	0.0177776
769.214	0.0177616
769.292	0.0177935
769.370	0.0176871
769.448	0.0176945
769.526	0.0176385
769.604	0.0176418
769.683	0.0177857
769.761	0.0179251
769.839	0.0179433
769.917	0.0179155
769.995	0.0179023
770.073	0.0179230
770.151	0.0180166
770.229	0.0180507
770.308	0.0181490
770.386	0.0181229
770.464	0.0179678
770.542	0.0180872
770.620	0.0180641
770.698	0.0179769
770.776	0.0177484
770.854	0.0178670
770.933	0.0178465
771.011	0.0178710
771.089	0.0176103
771.167	0.0177073
771.245	0.0176701
771.323	0.0177414
771.401	0.0176856
771.479	0.0177451
771.558	0.0176768
771.636	0.0177271
771.714	0.0178598
771.792	0.0177853
771.870	0.0178149
771.948	0.0179778
772.026	0.0179664
772.104	0.0180145
772.183	0.0181729
772.261	0.0181486
772.339	0.0180315
772.417	0.0181667
772.495	0.0181342
772.573	0.0182152
772.651	0.0181815
772.729	0.0181482
772.808	0.0180905
772.886	0.0182770
772.964	0.0180363
773.042	0.0181087
773.120	0.0181614
773.198	0.0182395
773.276	0.0182077
773.354	0.0180740
773.433	0.0180569
773.511	0.0179369
773.589	0.0178905
773.667	0.0179910
773.745	0.0180676
773.823	0.0180016
773.901	0.0178481
773.979	0.0179357
774.058	0.0179257
774.136	0.0179057
774.214	0.0178194
774.292	0.0178770
774.370	0.0178613
774.448	0.0177670
774.526	0.0178314
774.604	0.0178946
774.683	0.0178142
774.761	0.0178051
774.839	0.0180430
774.917	0.0180237
774.995	0.0179790
775.073	0.0180366
775.151	0.0181903
775.229	0.0181638
775.308	0.0181200
775.386	0.0181711
775.464	0.0181071
775.542	0.0180986
775.620	0.0181409
775.698	0.0181892
775.776	0.0180719
775.854	0.0180740
775.933	0.0180972
776.011	0.0179480
776.089	0.0178931
776.167	0.0178316
776.245	0.0178239
776.323	0.0179095
776.401	0.0177781
776.479	0.0178256
776.558	0.0178743
776.636	0.0177521
776.714	0.0177622
776.792	0.0178408
776.870	0.0177474
776.948	0.0176922
777.026	0.0180201
777.104	0.0180557
777.183	0.0180231
777.261	0.0179043
777.339	0.0180731
777.417	0.0181401
777.495	0.0181518
777.573	0.0182007
777.651	0.0181665
777.729	0.0181168
777.808	0.0181584
777.886	0.0181364
777.964	0.0180855
778.042	0.0180604
778.120	0.0182267
778.198	0.0181285
778.276	0.0181239
778.354	0.0180417
778.433	0.0179344
778.511	0.0180126
778.589	0.0179520
778.667	0.0180264
778.745	0.0179914
778.823	0.0178345
778.901	0.0178467
778.979	0.0179577
779.058	0.0179611
779.136	0.0177282
779.214	0.0177040
779.292	0.0177863
779.370	0.0178526
779.448	0.0177789
779.526	0.0179491
779.604	0.0179905
779.683	0.0178372
779.761	0.0179400
779.839	0.0180678
779.917	0.0181239
779.995	0.0181291
780.073	0.0181225
780.151	0.0181774
780.229	0.0181072
780.308	0.0182205
780.386	0.0182225
780.464	0.0182926
780.542	0.0181261
780.620	0.0182708
780.698	0.0181629
780.776	0.0180690
780.854	0.0180749
780.933	0.0180102
781.011	0.0181550
781.089	0.0179446
781.167	0.0179456
781.245	0.0177528
781.323	0.0178587
781.401	0.0177937
781.479	0.0178148
781.558	0.0177331
781.636	0.0177917
781.714	0.0177733
781.792	0.0177484
781.870	0.0178963
781.948	0.0179100
782.026	0.0178989
782.104	0.0178692
782.183	0.0178593
782.261	0.0178939
782.339	0.0179283
782.417	0.0179429
782.495	0.0180973
782.573	0.0180316
782.651	0.0180168
782.729	0.0181377
782.808	0.0181217
782.886	0.0181692
782.964	0.0182383
783.042	0.0182429
783.120	0.0182121
783.198	0.0182116
783.276	0.0182152
783.354	0.0181844
783.433	0.0180515
783.511	0.0180543
783.589	0.0180051
783.667	0.0179923
783.745	0.0178532
783.823	0.0178983
783.901	0.0179725
783.979	0.0179678
784.058	0.0178441
784.136	0.0179424
784.214	0.0179185
784.292	0.0179494
784.370	0.0179662
784.448	0.0180128
784.526	0.0180837
784.604	0.0180802
784.683	0.0179729
784.761	0.0180293
784.839	0.0180775
784.917	0.0180739
784.995	0.0181140
785.073	0.0180141
785.151	0.0180225
785.229	0.0180222
785.308	0.0179507
785.386	0.0179992
785.464	0.0181030
785.542	0.0181207
785.620	0.0181022
785.698	0.0179459
785.776	0.0179601
785.854	0.0179454
785.933	0.0179630
786.011	0.0178387
786.089	0.0179724
786.167	0.0179517
786.245	0.0177219
786.323	0.0177969
786.401	0.0177502
786.479	0.0177169
786.558	0.0177743
786.636	0.0177431
786.714	0.0177615
786.792	0.0177727
786.870	0.0178233
786.948	0.0178957
787.026	0.0178090
787.104	0.0177805
787.183	0.0180502
787.261	0.0180077
787.339	0.0180322
787.417	0.0181927
787.495	0.0181626
787.573	0.0182712
787.651	0.0182550
787.729	0.0183916
787.808	0.0182466
787.886	0.0182304
787.964	0.0182821
788.042	0.0181619
788.120	0.0181227
788.198	0.0182679
788.276	0.0181863
788.354	0.0180788
788.433	0.0179790
788.511	0.0179325
788.589	0.0181438
788.667	0.0177828
788.745	0.0179169
788.823	0.0179263
788.901	0.0178278
788.979	0.0177778
789.058	0.0176343
789.136	0.0178965
789.214	0.0179222
789.292	0.0179261
789.370	0.0179707
789.448	0.0178503
789.526	0.0179002
789.604	0.0180569
789.683	0.0180109
789.761	0.0180316
789.839	0.0180896
789.917	0.0180563
789.995	0.0182111
790.073	0.0181194
790.151	0.0181391
790.229	0.0181371
790.308	0.0180849
790.386	0.0181050
790.464	0.0180230
790.542	0.0180213
790.620	0.0181369
790.698	0.0182198
790.776	0.0181670
790.854	0.0181171
790.933	0.0181080
791.011	0.0180112
791.089	0.0180839
791.167	0.0181804
791.245	0.0181408
791.323	0.0180875
791.401	0.0181415
791.479	0.0180941
791.558	0.0181223
791.636	0.0181128
791.714	0.0180584
791.792	0.0181355
791.870	0.0181323
791.948	0.0181252
792.026	0.0179115
792.104	0.0180000
792.183	0.0179020
792.261	0.0180875
792.339	0.0178910
792.417	0.0179325
792.495	0.0179361
792.573	0.0178101
792.651	0.0179307
792.729	0.0181137
792.808	0.0178946
792.886	0.0179922
792.964	0.0180659
793.042	0.0180991
793.120	0.0180450
793.198	0.0181158
793.276	0.0181010
793.354	0.0182449
793.433	0.0179831
793.511	0.0181242
793.589	0.0179333
793.667	0.0179291
793.745	0.0178182
793.823	0.0178867
793.901	0.0178880
793.979	0.0178880
794.058	0.0178872
794.136	0.0178481
794.214	0.0177160
794.292	0.0178590
794.370	0.0177566
794.448	0.0177853
794.526	0.0176858
794.604	0.0176425
794.683	0.0178122
794.761	0.0179023
794.839	0.0179704
794.917	0.0179469
794.995	0.0180401
795.073	0.0182169
795.151	0.0179964
795.229	0.0181834
795.308	0.0182131
795.386	0.0183360
795.464	0.0184127
795.542	0.0184303
795.620	0.0183104
795.698	0.0184366
795.776	0.0182335
795.854	0.0182490
795.933	0.0182755
796.011	0.0180318
796.089	0.0180241
796.167	0.0180705
796.245	0.0178853
796.323	0.0177285
796.401	0.0177126
796.479	0.0176564
796.558	0.0175754
796.636	0.0176711
796.714	0.0177508
796.792	0.0176963
796.870	0.0176978
796.948	0.0176601
797.026	0.0176527
797.104	0.0178500
797.183	0.0179248
797.261	0.0179202
797.339	0.0180175
797.417	0.0180355
797.495	0.0181406
797.573	0.0181864
797.651	0.0182378
797.729	0.0182182
797.808	0.0182806
797.886	0.0181696
797.964	0.0181980
798.042	0.0180917
798.120	0.0182572
798.198	0.0182042
798.276	0.0181072
798.354	0.0181267
798.433	0.0181886
798.511	0.0178886
798.589	0.0179097
798.667	0.0178389
798.745	0.0178326
798.823	0.0178928
798.901	0.0177760
798.979	0.0177500
799.058	0.0178697
799.136	0.0178037
799.214	0.0178916
799.292	0.0178512
799.370	0.0178917
799.448	0.0178254
799.526	0.0178314
799.604	0.0178522
799.683	0.0177972
799.761	0.0180376
799.839	0.0180621
799.917	0.0178793
799.995	0.0179706
800.073	0.0178817
800.151	0.0180688
800.229	0.0180274
800.308	0.0179266
800.386	0.0178474
800.464	0.0179608
800.542	0.0180347
800.620	0.0180500
800.698	0.0177831
800.776	0.0178619
800.854	0.0178647
800.933	0.0178183
801.011	0.0178801
801.089	0.0180048
801.167	0.0178741
801.245	0.0181625
801.323	0.0180494
801.401	0.0181022
801.479	0.0181391
801.558	0.0181885
801.636	0.0181750
801.714	0.0181525
801.792	0.0182373
801.870	0.0181110
801.948	0.0181707
802.026	0.0182018
802.104	0.0181367
802.183	0.0180560
802.261	0.0180022
802.339	0.0179610
802.417	0.0178795
802.495	0.0178916
802.573	0.0179327
802.651	0.0177709
802.729	0.0178780
802.808	0.0178417
802.886	0.0180038
802.964	0.0177709
803.042	0.0178891
803.120	0.0179661
803.198	0.0179760
803.276	0.0179413
803.354	0.0180526
803.433	0.0181412
803.511	0.0180251
803.589	0.0181506
803.667	0.0181625
803.745	0.0181381
803.823	0.0181660
803.901	0.0181180
803.979	0.0181470
804.058	0.0179990
804.136	0.0180121
804.214	0.0179932
804.292	0.0178215
804.370	0.0176936
804.448	0.0176846
804.526	0.0177150
804.604	0.0175798
804.683	0.0176340
804.761	0.0176095
804.839	0.0176171
804.917	0.0177373
804.995	0.0177547
805.073	0.0176792
805.151	0.0178189
805.229	0.0179761
805.308	0.0180202
805.386	0.0180896
805.464	0.0181656
805.542	0.0182507
805.620	0.0183487
805.698	0.0183553
805.776	0.0183681
805.854	0.0182725
805.933	0.0183848
806.011	0.0183669
806.089	0.0182282
806.167	0.0182436
806.245	0.0181101
806.323	0.0180579
806.401	0.0178390
806.479	0.0178844
806.558	0.0177876
806.636	0.0178136
806.714	0.0178105
806.792	0.0177657
806.870	0.0176569
806.948	0.0177338
807.026	0.0178091
807.104	0.0177988
807.183	0.0177401
807.261	0.0178878
807.339	0.0180022
807.417	0.0178756
807.495	0.0178794
807.573	0.0180523
807.651	0.0180508
807.729	0.0182086
807.808	0.0181981
807.886	0.0181276
807.964	0.0183095
808.042	0.0182668
808.120	0.0181941
808.198	0.0181919
808.276	0.0181789
808.354	0.0181682
808.433	0.0178447
808.511	0.0179908
808.589	0.0178390
808.667	0.0179809
808.745	0.0179476
808.823	0.0176771
808.901	0.0176256
808.979	0.0177432
809.058	0.0176974
809.136	0.0177427
809.214	0.0178253
809.292	0.0178436
809.370	0.0180067
809.448	0.0180400
809.526	0.0179435
809.604	0.0180216
809.683	0.0180637
809.761	0.0179765
809.839	0.0181013
809.917	0.0180876
809.995	0.0180266
810.073	0.0182054
810.151	0.0181703
810.229	0.0180243
810.308	0.0181686
810.386	0.0180312
810.464	0.0180181
810.542	0.0180952
810.620	0.0180231
810.698	0.0178202
810.776	0.0179281
810.854	0.0178845
810.933	0.0179577
811.011	0.0178448
811.089	0.0178960
811.167	0.0180219
811.245	0.0178912
811.323	0.0178535
811.401	0.0179433
811.479	0.0179899
811.558	0.0180302
811.636	0.0181235
811.714	0.0182100
811.792	0.0181209
811.870	0.0181118
811.948	0.0180167
812.026	0.0180883
812.104	0.0181706
812.183	0.0181142
812.261	0.0179296
812.339	0.0181011
812.417	0.0180663
812.495	0.0179589
812.573	0.0178432
812.651	0.0179482
812.729	0.0179582
812.808	0.0179305
812.886	0.0178989
812.964	0.0179799
813.042	0.0179091
813.120	0.0179366
813.198	0.0178991
813.276	0.0179504
813.354	0.0178668
813.433	0.0179951
813.511	0.0178897
813.589	0.0179612
813.667	0.0180463
813.745	0.0179239
813.823	0.0177613
813.901	0.0179822
813.979	0.0180621
814.058	0.0180378
814.136	0.0179514
814.214	0.0180579
814.292	0.0180610
814.370	0.0178404
814.448	0.0178691
814.526	0.0179108
814.604	0.0179485
814.683	0.0179135
814.761	0.0177937
814.839	0.0179102
814.917	0.0178333
814.995	0.0179356
815.073	0.0178701
815.151	0.0178493
815.229	0.0179337
815.308	0.0179404
815.386	0.0179572
815.464	0.0179758
815.542	0.0180586
815.620	0.0179252
815.698	0.0181843
815.776	0.0180913
815.854	0.0181847
815.933	0.0182760
816.011	0.0181367
816.089	0.0180951
816.167	0.0182631
816.245	0.0180819
816.323	0.0179989
816.401	0.0181343
816.479	0.0181613
816.558	0.0179626
816.636	0.0179339
816.714	0.0178877
816.792	0.0179835
816.870	0.0177876
816.948	0.0177943
817.026	0.0176804
817.104	0.0176499
817.183	0.0176440
817.261	0.0177597
817.339	0.0177570
817.417	0.0177923
817.495	0.0179598
817.573	0.0179829
817.651	0.0179013
817.729	0.0179282
817.808	0.0179359
817.886	0.0180563
817.964	0.0180665
818.042	0.0181301
818.120	0.0181612
818.198	0.0182642
818.276	0.0181973
818.354	0.0180822
818.433	0.0181940
818.511	0.0182793
818.589	0.0179946
818.667	0.0181039
818.745	0.0180897
818.823	0.0180331
818.901	0.0178677
818.979	0.0180156
819.058	0.0179863
819.136	0.0178073
819.214	0.0178176
819.292	0.0179990
819.370	0.0178535
819.448	0.0178057
819.526	0.0178832
819.604	0.0178826
819.683	0.0179807
819.761	0.0179515
819.839	0.0179979
819.917	0.0180382
819.995	0.0178736
820.073	0.0179039
820.151	0.0180671
820.229	0.0179099
820.308	0.0179698
820.386	0.0180009
820.464	0.0179636
820.542	0.0180004
820.620	0.0180225
820.698	0.0180473
820.776	0.0178586
820.854	0.0178451
820.933	0.0179342
821.011	0.0180110
821.089	0.0179810
821.167	0.0179958
821.245	0.0179896
821.323	0.0180137
821.401	0.0179216
821.479	0.0179674
821.558	0.0180167
821.636	0.0180938
821.714	0.0180795
821.792	0.0179399
821.870	0.0179967
821.948	0.0180697
822.026	0.0179372
822.104	0.0180502
822.183	0.0179263
822.261	0.0180030
822.339	0.0179295
822.417	0.0178893
822.495	0.0178941
822.573	0.0179810
822.651	0.0178909
822.729	0.0179309
822.808	0.0178671
822.886	0.0179089
822.964	0.0178796
823.042	0.0179494
823.120	0.0180019
823.198	0.0180468
823.276	0.0180785
823.354	0.0180302
823.433	0.0180856
823.511	0.0180191
823.589	0.0182396
823.667	0.0180606
823.745	0.0180160
823.823	0.0181989
823.901	0.0181705
823.979	0.0180640
824.058	0.0181423
824.136	0.0180230
824.214	0.0180982
824.292	0.0180723
824.370	0.0178613
824.448	0.0179612
824.526	0.0179576
824.604	0.0179366
824.683	0.0178968
824.761	0.0178613
824.839	0.0177467
824.917	0.0178202
824.995	0.0177881
825.073	0.0176206
825.151	0.0178606
825.229	0.0178436
825.308	0.0177096
825.386	0.0177772
825.464	0.0178538
825.542	0.0177737
825.620	0.0177048
825.698	0.0177882
825.776	0.0178655
825.854	0.0179503
825.933	0.0180679
826.011	0.0179104
826.089	0.0178848
826.167	0.0179414
826.245	0.0179277
826.323	0.0180852
826.401	0.0179744
826.479	0.0180230
826.558	0.0178365
826.636	0.0179374
826.714	0.0179783
826.792	0.0179258
826.870	0.0179249
826.948	0.0180128
827.026	0.0180270
827.104	0.0179684
827.183	0.0180324
827.261	0.0181421
827.339	0.0180800
827.417	0.0181470
827.495	0.0180494
827.573	0.0179985
827.651	0.0180725
827.729	0.0180323
827.808	0.0180354
827.886	0.0180489
827.964	0.0180676
828.042	0.0180225
828.120	0.0180846
828.198	0.0179886
828.276	0.0178966
828.354	0.0179418
828.433	0.0179082
828.511	0.0180286
828.589	0.0177299
828.667	0.0178876
828.745	0.0178337
828.823	0.0177538
828.901	0.0179517
828.979	0.0178738
829.058	0.0176896
829.136	0.0177091
829.214	0.0177989
829.292	0.0177918
829.370	0.0177351
829.448	0.0178470
829.526	0.0179234
829.604	0.0178503
829.683	0.0177917
829.761	0.0177280
829.839	0.0178257
829.917	0.0177356
829.995	0.0179244
830.073	0.0179861
830.151	0.0179557
830.229	0.0178558
830.308	0.0179034
830.386	0.0180998
830.464	0.0180199
830.542	0.0180491
830.620	0.0180694
830.698	0.0179465
830.776	0.0179955
830.854	0.0179676
830.933	0.0180003
831.011	0.0180759
831.089	0.0181002
831.167	0.0180090
831.245	0.0178983
831.323	0.0180154
831.401	0.0181630
831.479	0.0181043
831.558	0.0179456
831.636	0.0179226
831.714	0.0178790
831.792	0.0179886
831.870	0.0178793
831.948	0.0178945
832.026	0.0178564
832.104	0.0178387
832.183	0.0178207
832.261	0.0180122
832.339	0.0178896
832.417	0.0177857
832.495	0.0177887
832.573	0.0179679
832.651	0.0179827
832.729	0.0178944
832.808	0.0180552
832.886	0.0181812
832.964	0.0180927
833.042	0.0180363
833.120	0.0181393
833.198	0.0180891
833.276	0.0180811
833.354	0.0180692
833.433	0.0180039
833.511	0.0179504
833.589	0.0178480
833.667	0.0179304
833.745	0.0179676
833.823	0.0178449
833.901	0.0178029
833.979	0.0179101
834.058	0.0177464
834.136	0.0178905
834.214	0.0178456
834.292	0.0179335
834.370	0.0178827
834.448	0.0175551
834.526	0.0176858
834.604	0.0178814
834.683	0.0180557
834.761	0.0180092
834.839	0.0180894
834.917	0.0179859
834.995	0.0181513
835.073	0.0181333
835.151	0.0179922
835.229	0.0181162
835.308	0.0181522
835.386	0.0182829
835.464	0.0183234
835.542	0.0183532
835.620	0.0181995
835.698	0.0179578
835.776	0.0181046
835.854	0.0179851
835.933	0.0179012
836.011	0.0180101
836.089	0.0179239
836.167	0.0179391
836.245	0.0179145
836.323	0.0178945
836.401	0.0178847
836.479	0.0179175
836.558	0.0179388
836.636	0.0180250
836.714	0.0179211
836.792	0.0180042
836.870	0.0180038
836.948	0.0180192
837.026	0.0181075
837.104	0.0180965
837.183	0.0179813
837.261	0.0180399
837.339	0.0180115
837.417	0.0179430
837.495	0.0182047
837.573	0.0181022
837.651	0.0179019
837.729	0.0178553
837.808	0.0179192
837.886	0.0179915
837.964	0.0179510
838.042	0.0178471
838.120	0.0178596
838.198	0.0179301
838.276	0.0180627
838.354	0.0179306
838.433	0.0178899
838.511	0.0177786
838.589	0.0178246
838.667	0.0178851
838.745	0.0179472
838.823	0.0181277
838.901	0.0179052
838.979	0.0180370
839.058	0.0181422
839.136	0.0180660
839.214	0.0181707
839.292	0.0182001
839.370	0.0180131
839.448	0.0180196
839.526	0.0180384
839.604	0.0180299
839.683	0.0180277
839.761	0.0181711
839.839	0.0180238
839.917	0.0179766
839.995	0.0179650
840.073	0.0178521
840.151	0.0179570
840.229	0.0179057
840.308	0.0179192
840.386	0.0178162
840.464	0.0178259
840.542	0.0177980
840.620	0.0178434
840.698	0.0178717
840.776	0.0178536
840.854	0.0179650
840.933	0.0179864
841.011	0.0180647
841.089	0.0181004
841.167	0.0180029
841.245	0.0180106
841.323	0.0181757
841.401	0.0181028
841.479	0.0180560
841.558	0.0182486
841.636	0.0181881
841.714	0.0181959
841.792	0.0181239
841.870	0.0181270
841.948	0.0181911
842.026	0.0180393
842.104	0.0181124
842.183	0.0179478
842.261	0.0180126
842.339	0.0180337
842.417	0.0180177
842.495	0.0179960
842.573	0.0179102
842.651	0.0179184
842.729	0.0180608
842.808	0.0180581
842.886	0.0178706
842.964	0.0179774
843.042	0.0180544
843.120	0.0179450
843.198	0.0180448
843.276	0.0180764
843.354	0.0180656
843.433	0.0179928
843.511	0.0180245
843.589	0.0180569
843.667	0.0180952
843.745	0.0181480
843.823	0.0181268
843.901	0.0180306
843.979	0.0180487
844.058	0.0180585
844.136	0.0180206
844.214	0.0179813
844.292	0.0178767
844.370	0.0180294
844.448	0.0179370
844.526	0.0179577
844.604	0.0179030
844.683	0.0179501
844.761	0.0178114
844.839	0.0179266
844.917	0.0179295
844.995	0.0179072
845.073	0.0179899
845.151	0.0180277
845.229	0.0180330
845.308	0.0179617
845.386	0.0181012
845.464	0.0179950
845.542	0.0181140
845.620	0.0180116
845.698	0.0179469
845.776	0.0180370
845.854	0.0181038
845.933	0.0182078
846.011	0.0180788
846.089	0.0180487
846.167	0.0180600
846.245	0.0179380
846.323	0.0180765
846.401	0.0181100
846.479	0.0181285
846.558	0.0181129
846.636	0.0180360
846.714	0.0179936
846.792	0.0182139
846.870	0.0181017
846.948	0.0180892
847.026	0.0180792
847.104	0.0180075
847.183	0.0181865
847.261	0.0180617
847.339	0.0181293
847.417	0.0180724
847.495	0.0179565
847.573	0.0179592
847.651	0.0180809
847.729	0.0178795
847.808	0.0181104
847.886	0.0178394
847.964	0.0179552
848.042	0.0180300
848.120	0.0179808
848.198	0.0179766
848.276	0.0179403
848.354	0.0178662
848.433	0.0178010
848.511	0.0178833
848.589	0.0178503
848.667	0.0178635
848.745	0.0179418
848.823	0.0178969
848.901	0.0178606
848.979	0.0179469
849.058	0.0178694
849.136	0.0179647
849.214	0.0176349
849.292	0.0178006
849.370	0.0179453
849.448	0.0178534
849.526	0.0178172
849.604	0.0178853
849.683	0.0180587
849.761	0.0179206
849.839	0.0180648
849.917	0.0180662
849.995	0.0179357
850.073	0.0178586
850.151	0.0179868
850.229	0.0180399
850.308	0.0179607
850.386	0.0179200
850.464	0.0180090
850.542	0.0178861
850.620	0.0180833
850.698	0.0178362
850.776	0.0178543
850.854	0.0179715
850.933	0.0180511
851.011	0.0179698
851.089	0.0179384
851.167	0.0178996
851.245	0.0178667
851.323	0.0180031
851.401	0.0178080
851.479	0.0180460
851.558	0.0179469
851.636	0.0179393
851.714	0.0179166
851.792	0.0180093
851.870	0.0180067
851.948	0.0179645
852.026	0.0179610
852.104	0.0178633
852.183	0.0181837
852.261	0.0181139
852.339	0.0181292
852.417	0.0179635
852.495	0.0180533
852.573	0.0179684
852.651	0.0181013
852.729	0.0180708
852.808	0.0178145
852.886	0.0179520
852.964	0.0180686
853.042	0.0179694
853.120	0.0179593
853.198	0.0178278
853.276	0.0179764
853.354	0.0177827
853.433	0.0180083
853.511	0.0178702
853.589	0.0177785
853.667	0.0178192
853.745	0.0177345
853.823	0.0177810
853.901	0.0179476
853.979	0.0178371
854.058	0.0177712
854.136	0.0179382
854.214	0.0179687
854.292	0.0179618
854.370	0.0177896
854.448	0.0179509
854.526	0.0180598
854.604	0.0181853
854.683	0.0179224
854.761	0.0180842
854.839	0.0180827
854.917	0.0180341
854.995	0.0180476
855.073	0.0178870
855.151	0.0179034
855.229	0.0181825
855.308	0.0180920
855.386	0.0181672
855.464	0.0180128
855.542	0.0179402
855.620	0.0179624
855.698	0.0179839
855.776	0.0179643
855.854	0.0179022
855.933	0.0179522
856.011	0.0180314
856.089	0.0180170
856.167	0.0181798
856.245	0.0180438
856.323	0.0180369
856.401	0.0180962
856.479	0.0180711
856.558	0.0181910
856.636	0.0179955
856.714	0.0181083
856.792	0.0179291
856.870	0.0180499
856.948	0.0179365
857.026	0.0180046
857.104	0.0179237
857.183	0.0180612
857.261	0.0179790
857.339	0.0178997
857.417	0.0180934
857.495	0.0179079
857.573	0.0179182
857.651	0.0179889
857.729	0.0180057
857.808	0.0179282
857.886	0.0180460
857.964	0.0180305
858.042	0.0178738
858.120	0.0182130
858.198	0.0180701
858.276	0.0181138
858.354	0.0180495
858.433	0.0181449
858.511	0.0183012
858.589	0.0180900
858.667	0.0181767
858.745	0.0180672
858.823	0.0178903
858.901	0.0179156
858.979	0.0179905
859.058	0.0179449
859.136	0.0179070
859.214	0.0180222
859.292	0.0180013
859.370	0.0178798
859.448	0.0178614
859.526	0.0181248
859.604	0.0180426
859.683	0.0180872
859.761	0.0180647
859.839	0.0179520
859.917	0.0180576
859.995	0.0179813
860.073	0.0179923
860.151	0.0181094
860.229	0.0180496
860.308	0.0180592
860.386	0.0180822
860.464	0.0180163
860.542	0.0179601
860.620	0.0180835
860.698	0.0179877
860.776	0.0179328
860.854	0.0179516
860.933	0.0178461
861.011	0.0179131
861.089	0.0178796
861.167	0.0179314
861.245	0.0179675
861.323	0.0179260
861.401	0.0180383
861.479	0.0178976
861.558	0.0178272
861.636	0.0179138
861.714	0.0179618
861.792	0.0179450
861.870	0.0180048
861.948	0.0180516
862.026	0.0180125
862.104	0.0180917
862.183	0.0181038
862.261	0.0179468
862.339	0.0180318
862.417	0.0179601
862.495	0.0180042
862.573	0.0180393
862.651	0.0179995
862.729	0.0180788
862.808	0.0180396
862.886	0.0179417
862.964	0.0179253
863.042	0.0180539
863.120	0.0178969
863.198	0.0179114
863.276	0.0179826
863.354	0.0179366
863.433	0.0179990
863.511	0.0179581
863.589	0.0180946
863.667	0.0180109
863.745	0.0180338
863.823	0.0180562
863.901	0.0180396
863.979	0.0179760
864.058	0.0180398
864.136	0.0180943
864.214	0.0180766
864.292	0.0181311
864.370	0.0178525
864.448	0.0180088
864.526	0.0181194
864.604	0.0180495
864.683	0.0181631
864.761	0.0180048
864.839	0.0180496
864.917	0.0182183
864.995	0.0180404
865.073	0.0180921
865.151	0.0180405
865.229	0.0179877
865.308	0.0180642
865.386	0.0180438
865.464	0.0180483
865.542	0.0179940
865.620	0.0181168
865.698	0.0180455
865.776	0.0180645
865.854	0.0179885
865.933	0.0180409
866.011	0.0179897
866.089	0.0179575
866.167	0.0179066
866.245	0.0179260
866.323	0.0179651
866.401	0.0177647
866.479	0.0178942
866.558	0.0180117
866.636	0.0179410
866.714	0.0178651
866.792	0.0179735
866.870	0.0179897
866.948	0.0181521
867.026	0.0179415
867.104	0.0181091
867.183	0.0180031
867.261	0.0179259
867.339	0.0180772
867.417	0.0178237
867.495	0.0178821
867.573	0.0179892
867.651	0.0180390
867.729	0.0178969
867.808	0.0180976
867.886	0.0179860
867.964	0.0178663
868.042	0.0179317
868.120	0.0180450
868.198	0.0180557
868.276	0.0181564
868.354	0.0180414
868.433	0.0179926
868.511	0.0180219
868.589	0.0181278
868.667	0.0180869
868.745	0.0180917
868.823	0.0181042
868.901	0.0181007
868.979	0.0180908
869.058	0.0181078
869.136	0.0180155
869.214	0.0180196
869.292	0.0179440
869.370	0.0179858
869.448	0.0182007
869.526	0.0181382
869.604	0.0181046
869.683	0.0182433
869.761	0.0179399
869.839	0.0180960
869.917	0.0180226
869.995	0.0181616
870.073	0.0179343
870.151	0.0180168
870.229	0.0179936
870.308	0.0178734
870.386	0.0178168
870.464	0.0178728
870.542	0.0178018
870.620	0.0178360
870.698	0.0177065
870.776	0.0177987
870.854	0.0178252
870.933	0.0178345
871.011	0.0179456
871.089	0.0178166
871.167	0.0178968
871.245	0.0179884
871.323	0.0181210
871.401	0.0180459
871.479	0.0181272
871.558	0.0181828
871.636	0.0181500
871.714	0.0180833
871.792	0.0181102
871.870	0.0180956
871.948	0.0182642
872.026	0.0180331
872.104	0.0180795
872.183	0.0180373
872.261	0.0180751
872.339	0.0181087
872.417	0.0179652
872.495	0.0181105
872.573	0.0178868
872.651	0.0179032
872.729	0.0178988
872.808	0.0179328
872.886	0.0178747
872.964	0.0179501
873.042	0.0178925
873.120	0.0179483
873.198	0.0177622
873.276	0.0178117
873.354	0.0180247
873.433	0.0179105
873.511	0.0179542
873.589	0.0178574
873.667	0.0178255
873.745	0.0179173
873.823	0.0178929
873.901	0.0178983
873.979	0.0179377
874.058	0.0178740
874.136	0.0180857
874.214	0.0180325
874.292	0.0180237
874.370	0.0178423
874.448	0.0177645
874.526	0.0179343
874.604	0.0179735
874.683	0.0178680
874.761	0.0178837
874.839	0.0179794
874.917	0.0179348
874.995	0.0179166
875.073	0.0179257
875.151	0.0178497
875.229	0.0178191
875.308	0.0178811
875.386	0.0178833
875.464	0.0179115
875.542	0.0179590
875.620	0.0178612
875.698	0.0178806
875.776	0.0179343
875.854	0.0178387
875.933	0.0179303
876.011	0.0178942
876.089	0.0181014
876.167	0.0179120
876.245	0.0179115
876.323	0.0179442
876.401	0.0178328
876.479	0.0178545
876.558	0.0180099
876.636	0.0179502
876.714	0.0179910
876.792	0.0179429
876.870	0.0179697
876.948	0.0179921
877.026	0.0181361
877.104	0.0179888
877.183	0.0179368
877.261	0.0178808
877.339	0.0179081
877.417	0.0179072
877.495	0.0178382
877.573	0.0179352
877.651	0.0178452
877.729	0.0178838
877.808	0.0179288
877.886	0.0178968
877.964	0.0179596
878.042	0.0178013
878.120	0.0179653
878.198	0.0180116
878.276	0.0178885
878.354	0.0180150
878.433	0.0180364
878.511	0.0179871
878.589	0.0178524
878.667	0.0179975
878.745	0.0179427
878.823	0.0179033
878.901	0.0179903
878.979	0.0179861
879.058	0.0178250
879.136	0.0179160
879.214	0.0177956
879.292	0.0177955
879.370	0.0179384
879.448	0.0178312
879.526	0.0177971
879.604	0.0178370
879.683	0.0178342
879.761	0.0178671
879.839	0.0178784
879.917	0.0178315
879.995	0.0177488
880.073	0.0177831
880.151	0.0179128
880.229	0.0178288
880.308	0.0179279
880.386	0.0179454
880.464	0.0178798
880.542	0.0179546
880.620	0.0179709
880.698	0.0178490
880.776	0.0180410
880.854	0.0180017
880.933	0.0179851
881.011	0.0181335
881.089	0.0180752
881.167	0.0180148
881.245	0.0180573
881.323	0.0180919
881.401	0.0180792
881.479	0.0179865
881.558	0.0180585
881.636	0.0180148
881.714	0.0180470
881.792	0.0180814
881.870	0.0180212
881.948	0.0180169
882.026	0.0179620
882.104	0.0181580
882.183	0.0179116
882.261	0.0179670
882.339	0.0178236
882.417	0.0179095
882.495	0.0179057
882.573	0.0179845
882.651	0.0179185
882.729	0.0180196
882.808	0.0179675
882.886	0.0178262
882.964	0.0180149
883.042	0.0179393
883.120	0.0179276
883.198	0.0180338
883.276	0.0178969
883.354	0.0180322
883.433	0.0179874
883.511	0.0180310
883.589	0.0180188
883.667	0.0180890
883.745	0.0180369
883.823	0.0180943
883.901	0.0180202
883.979	0.0181442
884.058	0.0180435
884.136	0.0181111
884.214	0.0180191
884.292	0.0180983
884.370	0.0179520
884.448	0.0180354
884.526	0.0179785
884.604	0.0179827
884.683	0.0179422
884.761	0.0178299
884.839	0.0178976
884.917	0.0180229
884.995	0.0179358
885.073	0.0178868
885.151	0.0180730
885.229	0.0179865
885.308	0.0180422
885.386	0.0179327
885.464	0.0179462
885.542	0.0179794
885.620	0.0181117
885.698	0.0178927
885.776	0.0179991
885.854	0.0181220
885.933	0.0180477
886.011	0.0179472
886.089	0.0180382
886.167	0.0180173
886.245	0.0178709
886.323	0.0179334
886.401	0.0181599
886.479	0.0178596
886.558	0.0177835
886.636	0.0179202
886.714	0.0179870
886.792	0.0177716
886.870	0.0178209
886.948	0.0178978
887.026	0.0179200
887.104	0.0178779
887.183	0.0179230
887.261	0.0179515
887.339	0.0178672
887.417	0.0177814
887.495	0.0178872
887.573	0.0178265
887.651	0.0177918
887.729	0.0179623
887.808	0.0179488
887.886	0.0178612
887.964	0.0178880
888.042	0.0180431
888.120	0.0179385
888.198	0.0179781
888.276	0.0180296
888.354	0.0179569
888.433	0.0179899
888.511	0.0180685
888.589	0.0179140
888.667	0.0179411
888.745	0.0180946
888.823	0.0181441
888.901	0.0179423
888.979	0.0178471
889.058	0.0179033
889.136	0.0178381
889.214	0.0178187
889.292	0.0178985
889.370	0.0177213
889.448	0.0178345
889.526	0.0177637
889.604	0.0178156
889.683	0.0177625
889.761	0.0177173
889.839	0.0179130
889.917	0.0178553
889.995	0.0179385
890.073	0.0180395
890.151	0.0181902
890.229	0.0180228
890.308	0.0181898
890.386	0.0183228
890.464	0.0183998
890.542	0.0184431
890.620	0.0184179
890.698	0.0183898
890.776	0.0185411
890.854	0.0183629
890.933	0.0182867
891.011	0.0182495
891.089	0.0180290
891.167	0.0179689
891.245	0.0177217
891.323	0.0176979
891.401	0.0174948
891.479	0.0174965
891.558	0.0174691
891.636	0.0172485
891.714	0.0174643
891.792	0.0172636
891.870	0.0173443
891.948	0.0175108
892.026	0.0175723
892.104	0.0176874
892.183	0.0178526
892.261	0.0181228
892.339	0.0181177
892.417	0.0182891
892.495	0.0183421
892.573	0.0185304
892.651	0.0185609
892.729	0.0187376
892.808	0.0185860
892.886	0.0186538
892.964	0.0185716
893.042	0.0183617
893.120	0.0182625
893.198	0.0181742
893.276	0.0179789
893.354	0.0178439
893.433	0.0177416
893.511	0.0176765
893.589	0.0175214
893.667	0.0173308
893.745	0.0173247
893.823	0.0174075
893.901	0.0174920
893.979	0.0173421
894.058	0.0173687
894.136	0.0175494
894.214	0.0175179
894.292	0.0176143
894.370	0.0178088
894.448	0.0178127
894.526	0.0180260
894.604	0.0181613
894.683	0.0179588
894.761	0.0182305
894.839	0.0182606
894.917	0.0184370
894.995	0.0182063
895.073	0.0181424
895.151	0.0182365
895.229	0.0181886
895.308	0.0180828
895.386	0.0181368
895.464	0.0179660
895.542	0.0180324
895.620	0.0177999
895.698	0.0178749
895.776	0.0178485
895.854	0.0179346
895.933	0.0179867
896.011	0.0178387
896.089	0.0177667
896.167	0.0177853
896.245	0.0178640
896.323	0.0178322
896.401	0.0179346
896.479	0.0177782
896.558	0.0178044
896.636	0.0179044
896.714	0.0180177
896.792	0.0179933
896.870	0.0182413
896.948	0.0181760
897.026	0.0182226
897.104	0.0183218
897.183	0.0181974
897.261	0.0182214
897.339	0.0182748
897.417	0.0183205
897.495	0.0182605
897.573	0.0181527
897.651	0.0180041
897.729	0.0181084
897.808	0.0178173
897.886	0.0178775
897.964	0.0177681
898.042	0.0176526
898.120	0.0177837
898.198	0.0177596
898.276	0.0176414
898.354	0.0177145
898.433	0.0175994
898.511	0.0176849
898.589	0.0176771
898.667	0.0174329
898.745	0.0176616
898.823	0.0176334
898.901	0.0176093
898.979	0.0175114
899.058	0.0176630
899.136	0.0177214
899.214	0.0176534
899.292	0.0176983
899.370	0.0179084
899.448	0.0179079
899.526	0.0179621
899.604	0.0179259
899.683	0.0181022
899.761	0.0181075
899.839	0.0181741
899.917	0.0180746
899.995	0.0181757
900.073	0.0182511
900.151	0.0183399
900.229	0.0183624
900.308	0.0183495
900.386	0.0183717
900.464	0.0182896
900.542	0.0182545
900.620	0.0182851
900.698	0.0182150
900.776	0.0181642
900.854	0.0179715
900.933	0.0178101
901.011	0.0178399
901.089	0.0177011
901.167	0.0175138
901.245	0.0176999
901.323	0.0175251
901.401	0.0175117
901.479	0.0175980
901.558	0.0175566
901.636	0.0175768
901.714	0.0175314
901.792	0.0175687
901.870	0.0177251
901.948	0.0177621
902.026	0.0179840
902.104	0.0180814
902.183	0.0181300
902.261	0.0180884
902.339	0.0182194
902.417	0.0182105
902.495	0.0182932
902.573	0.0184628
902.651	0.0182534
902.729	0.0181582
902.808	0.0182083
902.886	0.0181839
902.964	0.0180549
903.042	0.0180334
903.120	0.0180164
903.198	0.0180913
903.276	0.0179023
903.354	0.0177081
903.433	0.0176962
903.511	0.0176272
903.589	0.0176231
903.667	0.0176926
903.745	0.0177072
903.823	0.0176480
903.901	0.0176375
903.979	0.0177963
904.058	0.0177674
904.136	0.0178879
904.214	0.0178736
904.292	0.0179056
904.370	0.0179379
904.448	0.0179810
904.526	0.0178781
904.604	0.0180894
904.683	0.0180359
904.761	0.0180550
904.839	0.0180866
904.917	0.0181230
904.995	0.0182262
905.073	0.0180083
905.151	0.0181801
905.229	0.0180876
905.308	0.0178397
905.386	0.0179092
905.464	0.0180191
905.542	0.0180421
905.620	0.0178947
905.698	0.0180323
905.776	0.0179351
905.854	0.0177357
905.933	0.0177947
906.011	0.0179108
906.089	0.0178625
906.167	0.0177229
906.245	0.0178123
906.323	0.0178455
906.401	0.0179745
906.479	0.0178870
906.558	0.0179139
906.636	0.0179903
906.714	0.0180014
906.792	0.0180204
906.870	0.0180378
906.948	0.0180738
907.026	0.0180874
907.104	0.0179943
907.183	0.0180223
907.261	0.0180019
907.339	0.0182163
907.417	0.0181001
907.495	0.0180415
907.573	0.0179550
907.651	0.0179199
907.729	0.0179798
907.808	0.0179996
907.886	0.0179944
907.964	0.0179440
908.042	0.0179756
908.120	0.0179553
908.198	0.0178941
908.276	0.0179207
908.354	0.0179373
908.433	0.0178590
908.511	0.0179956
908.589	0.0180348
908.667	0.0178824
908.745	0.0178387
908.823	0.0177427
908.901	0.0177773
908.979	0.0178366
909.058	0.0178317
909.136	0.0179180
909.214	0.0179631
909.292	0.0179006
909.370	0.0178925
909.448	0.0179517
909.526	0.0179874
909.604	0.0178275
909.683	0.0178730
909.761	0.0177711
909.839	0.0179000
909.917	0.0179527
909.995	0.0179099
910.073	0.0177422
910.151	0.0178181
910.229	0.0179003
910.308	0.0176289
910.386	0.0177520
910.464	0.0176729
910.542	0.0178153
910.620	0.0177398
910.698	0.0178967
910.776	0.0179221
910.854	0.0181048
910.933	0.0180651
911.011	0.0181659
911.089	0.0181342
911.167	0.0181300
911.245	0.0180486
911.323	0.0182533
911.401	0.0182234
911.479	0.0182737
911.558	0.0182729
911.636	0.0180354
911.714	0.0180315
911.792	0.0179100
911.870	0.0179073
911.948	0.0179006
912.026	0.0180164
912.104	0.0179000
912.183	0.0178699
912.261	0.0178676
912.339	0.0178690
912.417	0.0178164
912.495	0.0178126
912.573	0.0178764
912.651	0.0178442
912.729	0.0177324
912.808	0.0178895
912.886	0.0178609
912.964	0.0178686
913.042	0.0178845
913.120	0.0179562
913.198	0.0179778
913.276	0.0180148
913.354	0.0180375
913.433	0.0179527
913.511	0.0181456
913.589	0.0180566
913.667	0.0181290
913.745	0.0180807
913.823	0.0180405
913.901	0.0180090
913.979	0.0179571
914.058	0.0179943
914.136	0.0181020
914.214	0.0180317
914.292	0.0180196
914.370	0.0179921
914.448	0.0179153
914.526	0.0180147
914.604	0.0179807
914.683	0.0179874
914.761	0.0178435
914.839	0.0178793
914.917	0.0180109
914.995	0.0178779
915.073	0.0180459
915.151	0.0179729
915.229	0.0179716
915.308	0.0181217
915.386	0.0182061
915.464	0.0180347
915.542	0.0180219
915.620	0.0181546
915.698	0.0182290
915.776	0.0181857
915.854	0.0181386
915.933	0.0182191
916.011	0.0181145
916.089	0.0182032
916.167	0.0180678
916.245	0.0180704
916.323	0.0180742
916.401	0.0180386
916.479	0.0179684
916.558	0.0180120
916.636	0.0181359
916.714	0.0178388
916.792	0.0178133
916.870	0.0178290
916.948	0.0178634
917.026	0.0177477
917.104	0.0177058
917.183	0.0177298
917.261	0.0178651
917.339	0.0178175
917.417	0.0178879
917.495	0.0178394
917.573	0.0179075
917.651	0.0181003
917.729	0.0179755
917.808	0.0179931
917.886	0.0181216
917.964	0.0181188
918.042	0.0181001
918.120	0.0180898
918.198	0.0181157
918.276	0.0180580
918.354	0.0182522
918.433	0.0180605
918.511	0.0181223
918.589	0.0179978
918.667	0.0180346
918.745	0.0182175
918.823	0.0181104
918.901	0.0179975
918.979	0.0178701
919.058	0.0179598
919.136	0.0179975
919.214	0.0179628
919.292	0.0180518
919.370	0.0180265
919.448	0.0180025
919.526	0.0179443
919.604	0.0179009
919.683	0.0180212
919.761	0.0180961
919.839	0.0179265
919.917	0.0179588
