06/03/2022	18:08:13	Ver.	4.1	UNKNOWN
Optical Delay	599.995081	Delta X		0.078125	Sweeps	1	Scan Rate	0/0
Coordinates	Axis 1	NaN	Axis 2	NaN	Axis 3	NaN	Axis 4	NaN	Axis 5	NaN	Axis 6	0.000000
TX Power	0.000000	RX Power	0.000000

599.995	0.0180585
600.073	0.0180882
600.151	0.0180524
600.229	0.0180868
600.308	0.0180115
600.386	0.0180991
600.464	0.0179641
600.542	0.0180789
600.620	0.0181035
600.698	0.0180373
600.776	0.0181456
600.854	0.0181924
600.933	0.0179465
601.011	0.0180994
601.089	0.0181108
601.167	0.0179829
601.245	0.0180144
601.323	0.0181249
601.401	0.0179250
601.479	0.0181424
601.558	0.0180640
601.636	0.0180872
601.714	0.0180981
601.792	0.0181618
601.870	0.0181489
601.948	0.0181680
602.026	0.0179414
602.104	0.0180331
602.183	0.0181036
602.261	0.0180779
602.339	0.0181080
602.417	0.0181178
602.495	0.0179483
602.573	0.0180733
602.651	0.0181425
602.729	0.0179495
602.808	0.0181092
602.886	0.0181766
602.964	0.0180259
603.042	0.0179942
603.120	0.0179660
603.198	0.0181218
603.276	0.0180466
603.354	0.0181702
603.433	0.0180780
603.511	0.0180839
603.589	0.0180547
603.667	0.0181731
603.745	0.0179834
603.823	0.0179762
603.901	0.0180303
603.979	0.0179607
604.058	0.0180756
604.136	0.0180704
604.214	0.0181094
604.292	0.0180581
604.370	0.0179202
604.448	0.0180415
604.526	0.0181821
604.604	0.0181667
604.683	0.0180344
604.761	0.0180555
604.839	0.0181924
604.917	0.0182137
604.995	0.0181777
605.073	0.0179470
605.151	0.0180228
605.229	0.0181095
605.308	0.0180529
605.386	0.0181522
605.464	0.0179619
605.542	0.0179665
605.620	0.0180191
605.698	0.0179944
605.776	0.0180534
605.854	0.0182079
605.933	0.0180644
606.011	0.0181625
606.089	0.0180968
606.167	0.0182314
606.245	0.0181366
606.323	0.0180728
606.401	0.0179959
606.479	0.0180312
606.558	0.0181049
606.636	0.0179140
606.714	0.0180337
606.792	0.0181984
606.870	0.0179613
606.948	0.0180044
607.026	0.0180086
607.104	0.0180812
607.183	0.0181610
607.261	0.0181807
607.339	0.0181551
607.417	0.0180334
607.495	0.0181586
607.573	0.0180591
607.651	0.0179578
607.729	0.0181097
607.808	0.0181516
607.886	0.0179786
607.964	0.0181187
608.042	0.0182340
608.120	0.0181332
608.198	0.0180796
608.276	0.0180565
608.354	0.0179760
608.433	0.0181097
608.511	0.0180704
608.589	0.0180841
608.667	0.0179413
608.745	0.0179968
608.823	0.0181100
608.901	0.0181547
608.979	0.0181396
609.058	0.0181405
609.136	0.0181479
609.214	0.0180231
609.292	0.0179797
609.370	0.0181287
609.448	0.0181372
609.526	0.0181110
609.604	0.0180188
609.683	0.0181011
609.761	0.0180431
609.839	0.0179969
609.917	0.0179974
609.995	0.0180977
610.073	0.0181036
610.151	0.0181014
610.229	0.0179994
610.308	0.0180652
610.386	0.0181015
610.464	0.0180310
610.542	0.0180526
610.620	0.0181545
610.698	0.0181161
610.776	0.0180586
610.854	0.0180243
610.933	0.0181600
611.011	0.0181248
611.089	0.0179676
611.167	0.0181456
611.245	0.0181122
611.323	0.0178371
611.401	0.0179935
611.479	0.0180434
611.558	0.0180571
611.636	0.0180956
611.714	0.0181518
611.792	0.0180588
611.870	0.0180750
611.948	0.0182514
612.026	0.0180801
612.104	0.0180663
612.183	0.0180206
612.261	0.0181613
612.339	0.0180434
612.417	0.0180008
612.495	0.0180518
612.573	0.0180914
612.651	0.0181180
612.729	0.0180537
612.808	0.0180357
612.886	0.0180891
612.964	0.0181347
613.042	0.0182038
613.120	0.0180703
613.198	0.0180661
613.276	0.0182202
613.354	0.0180769
613.433	0.0180126
613.511	0.0180099
613.589	0.0180637
613.667	0.0181804
613.745	0.0181570
613.823	0.0180784
613.901	0.0181061
613.979	0.0180292
614.058	0.0180800
614.136	0.0181984
614.214	0.0181065
614.292	0.0181335
614.370	0.0181556
614.448	0.0181153
614.526	0.0180896
614.604	0.0181077
614.683	0.0181101
614.761	0.0180679
614.839	0.0181147
614.917	0.0181558
614.995	0.0180537
615.073	0.0181352
615.151	0.0180585
615.229	0.0180489
615.308	0.0180435
615.386	0.0182898
615.464	0.0180229
615.542	0.0180518
615.620	0.0180148
615.698	0.0180798
615.776	0.0181113
615.854	0.0180842
615.933	0.0181175
616.011	0.0181863
616.089	0.0181901
616.167	0.0179677
616.245	0.0181226
616.323	0.0181000
616.401	0.0181341
616.479	0.0182308
616.558	0.0181680
616.636	0.0181480
616.714	0.0179047
616.792	0.0181423
616.870	0.0181478
616.948	0.0181423
617.026	0.0180151
617.104	0.0181319
617.183	0.0181532
617.261	0.0180354
617.339	0.0180457
617.417	0.0181310
617.495	0.0181361
617.573	0.0179750
617.651	0.0181134
617.729	0.0180217
617.808	0.0180543
617.886	0.0180641
617.964	0.0180727
618.042	0.0182372
618.120	0.0180129
618.198	0.0179799
618.276	0.0180393
618.354	0.0181554
618.433	0.0179563
618.511	0.0181433
618.589	0.0180930
618.667	0.0180602
618.745	0.0179907
618.823	0.0182261
618.901	0.0181351
618.979	0.0181132
619.058	0.0180198
619.136	0.0181779
619.214	0.0182312
619.292	0.0180774
619.370	0.0180702
619.448	0.0181988
619.526	0.0180018
619.604	0.0179776
619.683	0.0181743
619.761	0.0181714
619.839	0.0181557
619.917	0.0181439
619.995	0.0181059
620.073	0.0180839
620.151	0.0181217
620.229	0.0181081
620.308	0.0181045
620.386	0.0180644
620.464	0.0180944
620.542	0.0181536
620.620	0.0179330
620.698	0.0181123
620.776	0.0181845
620.854	0.0180634
620.933	0.0180206
621.011	0.0180766
621.089	0.0180285
621.167	0.0179905
621.245	0.0182156
621.323	0.0180925
621.401	0.0180745
621.479	0.0182169
621.558	0.0182318
621.636	0.0182232
621.714	0.0181036
621.792	0.0180767
621.870	0.0181694
621.948	0.0181731
622.026	0.0181226
622.104	0.0182364
622.183	0.0178931
622.261	0.0179722
622.339	0.0182668
622.417	0.0182233
622.495	0.0180402
622.573	0.0181559
622.651	0.0180733
622.729	0.0180741
622.808	0.0181410
622.886	0.0180854
622.964	0.0181456
623.042	0.0181571
623.120	0.0180711
623.198	0.0180339
623.276	0.0181144
623.354	0.0180279
623.433	0.0180874
623.511	0.0180424
623.589	0.0179632
623.667	0.0180457
623.745	0.0180809
623.823	0.0180236
623.901	0.0181390
623.979	0.0180798
624.058	0.0181133
624.136	0.0180569
624.214	0.0182568
624.292	0.0181786
624.370	0.0181036
624.448	0.0180757
624.526	0.0181635
624.604	0.0180830
624.683	0.0181432
624.761	0.0182329
624.839	0.0181160
624.917	0.0181754
624.995	0.0180605
625.073	0.0179308
625.151	0.0180633
625.229	0.0181592
625.308	0.0180550
625.386	0.0180737
625.464	0.0180635
625.542	0.0182017
625.620	0.0180411
625.698	0.0180862
625.776	0.0180827
625.854	0.0180895
625.933	0.0181981
626.011	0.0182043
626.089	0.0180379
626.167	0.0180806
626.245	0.0180873
626.323	0.0180264
626.401	0.0181427
626.479	0.0182270
626.558	0.0181468
626.636	0.0180170
626.714	0.0180373
626.792	0.0182303
626.870	0.0180717
626.948	0.0180743
627.026	0.0180844
627.104	0.0181796
627.183	0.0180824
627.261	0.0180197
627.339	0.0180305
627.417	0.0180495
627.495	0.0180840
627.573	0.0180271
627.651	0.0180427
627.729	0.0180336
627.808	0.0181968
627.886	0.0179472
627.964	0.0180853
628.042	0.0180408
628.120	0.0180415
628.198	0.0181516
628.276	0.0181600
628.354	0.0180075
628.433	0.0180306
628.511	0.0182023
628.589	0.0180396
628.667	0.0180354
628.745	0.0181553
628.823	0.0180502
628.901	0.0180037
628.979	0.0180742
629.058	0.0181775
629.136	0.0181247
629.214	0.0182011
629.292	0.0181940
629.370	0.0181364
629.448	0.0181888
629.526	0.0180036
629.604	0.0180938
629.683	0.0181408
629.761	0.0182091
629.839	0.0181768
629.917	0.0181060
629.995	0.0180726
630.073	0.0179862
630.151	0.0181857
630.229	0.0181681
630.308	0.0181104
630.386	0.0179726
630.464	0.0180619
630.542	0.0181280
630.620	0.0182008
630.698	0.0180938
630.776	0.0180521
630.854	0.0181455
630.933	0.0181075
631.011	0.0179841
631.089	0.0180822
631.167	0.0181070
631.245	0.0181251
631.323	0.0181847
631.401	0.0181554
631.479	0.0182249
631.558	0.0180700
631.636	0.0182435
631.714	0.0181543
631.792	0.0179705
631.870	0.0181553
631.948	0.0181835
632.026	0.0180906
632.104	0.0180661
632.183	0.0181111
632.261	0.0181361
632.339	0.0181715
632.417	0.0180984
632.495	0.0180563
632.573	0.0180645
632.651	0.0180146
632.729	0.0180536
632.808	0.0180804
632.886	0.0181899
632.964	0.0181577
633.042	0.0180619
633.120	0.0181077
633.198	0.0181158
633.276	0.0180969
633.354	0.0181889
633.433	0.0180633
633.511	0.0181612
633.589	0.0182047
633.667	0.0181298
633.745	0.0182243
633.823	0.0182040
633.901	0.0179823
633.979	0.0181247
634.058	0.0181631
634.136	0.0180609
634.214	0.0181667
634.292	0.0182024
634.370	0.0180711
634.448	0.0181115
634.526	0.0180875
634.604	0.0181988
634.683	0.0180933
634.761	0.0181443
634.839	0.0182591
634.917	0.0179660
634.995	0.0180290
635.073	0.0179593
635.151	0.0180381
635.229	0.0179832
635.308	0.0179912
635.386	0.0179733
635.464	0.0180352
635.542	0.0181037
635.620	0.0180751
635.698	0.0180956
635.776	0.0181561
635.854	0.0182436
635.933	0.0181628
636.011	0.0180672
636.089	0.0181080
636.167	0.0180898
636.245	0.0181239
636.323	0.0180340
636.401	0.0181215
636.479	0.0181030
636.558	0.0180843
636.636	0.0181467
636.714	0.0180422
636.792	0.0181601
636.870	0.0180952
636.948	0.0179510
637.026	0.0182604
637.104	0.0182314
637.183	0.0180846
637.261	0.0179478
637.339	0.0180827
637.417	0.0180204
637.495	0.0181435
637.573	0.0181129
637.651	0.0180633
637.729	0.0181354
637.808	0.0182623
637.886	0.0181406
637.964	0.0180552
638.042	0.0180560
638.120	0.0181566
638.198	0.0179748
638.276	0.0180961
638.354	0.0180956
638.433	0.0181124
638.511	0.0180875
638.589	0.0181126
638.667	0.0181303
638.745	0.0180916
638.823	0.0181290
638.901	0.0181459
638.979	0.0181064
639.058	0.0180164
639.136	0.0181065
639.214	0.0181690
639.292	0.0182227
639.370	0.0180369
639.448	0.0180573
639.526	0.0180878
639.604	0.0182304
639.683	0.0180943
639.761	0.0180347
639.839	0.0181531
639.917	0.0181767
639.995	0.0181273
640.073	0.0181450
640.151	0.0180713
640.229	0.0181337
640.308	0.0180974
640.386	0.0180807
640.464	0.0181562
640.542	0.0181781
640.620	0.0181535
640.698	0.0181992
640.776	0.0180999
640.854	0.0181465
640.933	0.0180786
641.011	0.0181494
641.089	0.0179897
641.167	0.0180434
641.245	0.0180521
641.323	0.0181494
641.401	0.0181143
641.479	0.0180942
641.558	0.0180183
641.636	0.0180643
641.714	0.0182690
641.792	0.0181708
641.870	0.0180563
641.948	0.0182161
642.026	0.0180594
642.104	0.0181174
642.183	0.0181568
642.261	0.0180557
642.339	0.0179347
642.417	0.0181010
642.495	0.0182144
642.573	0.0180763
642.651	0.0181366
642.729	0.0180704
642.808	0.0181145
642.886	0.0181589
642.964	0.0180749
643.042	0.0180045
643.120	0.0180614
643.198	0.0179201
643.276	0.0179725
643.354	0.0181868
643.433	0.0180542
643.511	0.0180145
643.589	0.0181071
643.667	0.0179967
643.745	0.0180116
643.823	0.0181173
643.901	0.0181448
643.979	0.0181699
644.058	0.0181830
644.136	0.0180782
644.214	0.0181883
644.292	0.0181594
644.370	0.0180289
644.448	0.0180295
644.526	0.0181325
644.604	0.0181159
644.683	0.0180866
644.761	0.0181153
644.839	0.0181039
644.917	0.0182020
644.995	0.0179286
645.073	0.0180273
645.151	0.0180434
645.229	0.0182625
645.308	0.0182175
645.386	0.0180897
645.464	0.0181641
645.542	0.0182072
645.620	0.0180987
645.698	0.0181703
645.776	0.0181273
645.854	0.0180758
645.933	0.0181059
646.011	0.0182217
646.089	0.0181416
646.167	0.0181673
646.245	0.0180670
646.323	0.0183100
646.401	0.0180890
646.479	0.0180830
646.558	0.0180541
646.636	0.0181400
646.714	0.0181258
646.792	0.0180688
646.870	0.0181734
646.948	0.0180545
647.026	0.0181116
647.104	0.0180080
647.183	0.0180695
647.261	0.0180475
647.339	0.0181030
647.417	0.0181940
647.495	0.0181126
647.573	0.0180366
647.651	0.0182142
647.729	0.0181765
647.808	0.0181027
647.886	0.0180975
647.964	0.0181181
648.042	0.0180710
648.120	0.0180575
648.198	0.0181130
648.276	0.0181228
648.354	0.0180344
648.433	0.0178960
648.511	0.0180710
648.589	0.0180157
648.667	0.0179955
648.745	0.0179695
648.823	0.0181169
648.901	0.0181957
648.979	0.0181186
649.058	0.0181067
649.136	0.0180368
649.214	0.0182130
649.292	0.0181628
649.370	0.0179939
649.448	0.0179736
649.526	0.0181053
649.604	0.0181180
649.683	0.0180648
649.761	0.0180727
649.839	0.0180628
649.917	0.0181285
649.995	0.0181757
650.073	0.0180074
650.151	0.0178999
650.229	0.0181579
650.308	0.0180752
650.386	0.0179414
650.464	0.0180703
650.542	0.0181221
650.620	0.0181417
650.698	0.0181190
650.776	0.0180943
650.854	0.0182461
650.933	0.0181815
651.011	0.0181367
651.089	0.0181026
651.167	0.0180373
651.245	0.0180402
651.323	0.0180204
651.401	0.0180923
651.479	0.0181622
651.558	0.0181428
651.636	0.0180043
651.714	0.0179709
651.792	0.0179858
651.870	0.0181145
651.948	0.0181368
652.026	0.0181263
652.104	0.0181010
652.183	0.0181675
652.261	0.0179704
652.339	0.0180338
652.417	0.0180233
652.495	0.0180731
652.573	0.0181361
652.651	0.0181084
652.729	0.0180206
652.808	0.0181131
652.886	0.0182556
652.964	0.0182903
653.042	0.0180845
653.120	0.0180183
653.198	0.0180948
653.276	0.0182487
653.354	0.0180453
653.433	0.0181119
653.511	0.0181808
653.589	0.0181319
653.667	0.0180225
653.745	0.0179747
653.823	0.0180862
653.901	0.0182613
653.979	0.0181477
654.058	0.0181473
654.136	0.0181750
654.214	0.0179848
654.292	0.0180868
654.370	0.0180743
654.448	0.0181085
654.526	0.0181445
654.604	0.0182041
654.683	0.0181530
654.761	0.0180014
654.839	0.0179880
654.917	0.0180173
654.995	0.0181024
655.073	0.0181292
655.151	0.0181941
655.229	0.0180664
655.308	0.0180347
655.386	0.0182133
655.464	0.0180695
655.542	0.0180586
655.620	0.0180858
655.698	0.0180784
655.776	0.0181644
655.854	0.0179570
655.933	0.0181551
656.011	0.0180006
656.089	0.0181110
656.167	0.0182117
656.245	0.0182363
656.323	0.0181622
656.401	0.0181367
656.479	0.0180775
656.558	0.0180089
656.636	0.0182471
656.714	0.0180383
656.792	0.0180296
656.870	0.0180000
656.948	0.0181428
657.026	0.0180701
657.104	0.0180625
657.183	0.0180910
657.261	0.0181679
657.339	0.0181342
657.417	0.0180644
657.495	0.0180298
657.573	0.0181803
657.651	0.0182323
657.729	0.0181532
657.808	0.0181381
657.886	0.0181490
657.964	0.0179897
658.042	0.0180650
658.120	0.0179800
658.198	0.0180276
658.276	0.0182188
658.354	0.0180949
658.433	0.0180828
658.511	0.0180386
658.589	0.0180374
658.667	0.0182289
658.745	0.0180502
658.823	0.0180532
658.901	0.0181359
658.979	0.0181046
659.058	0.0181528
659.136	0.0180977
659.214	0.0180119
659.292	0.0181271
659.370	0.0181670
659.448	0.0182491
659.526	0.0181083
659.604	0.0182271
659.683	0.0182095
659.761	0.0181173
659.839	0.0181182
659.917	0.0181315
659.995	0.0181082
660.073	0.0180282
660.151	0.0181683
660.229	0.0181461
660.308	0.0180424
660.386	0.0182207
660.464	0.0181679
660.542	0.0181217
660.620	0.0181745
660.698	0.0180867
660.776	0.0181683
660.854	0.0180939
660.933	0.0180259
661.011	0.0181381
661.089	0.0180064
661.167	0.0182088
661.245	0.0181461
661.323	0.0180814
661.401	0.0181267
661.479	0.0181483
661.558	0.0181981
661.636	0.0180721
661.714	0.0181372
661.792	0.0182935
661.870	0.0183203
661.948	0.0179978
662.026	0.0180585
662.104	0.0179936
662.183	0.0180734
662.261	0.0181864
662.339	0.0181600
662.417	0.0180554
662.495	0.0180234
662.573	0.0180789
662.651	0.0180275
662.729	0.0181418
662.808	0.0181171
662.886	0.0180853
662.964	0.0180629
663.042	0.0181986
663.120	0.0181860
663.198	0.0181635
663.276	0.0180235
663.354	0.0180412
663.433	0.0181493
663.511	0.0180621
663.589	0.0180283
663.667	0.0180226
663.745	0.0181733
663.823	0.0182341
663.901	0.0179340
663.979	0.0180215
664.058	0.0180052
664.136	0.0181763
664.214	0.0180434
664.292	0.0179691
664.370	0.0180819
664.448	0.0181345
664.526	0.0181664
664.604	0.0181306
664.683	0.0181805
664.761	0.0180431
664.839	0.0180967
664.917	0.0180756
664.995	0.0181023
665.073	0.0180779
665.151	0.0179911
665.229	0.0181210
665.308	0.0180471
665.386	0.0181355
665.464	0.0182043
665.542	0.0181161
665.620	0.0180768
665.698	0.0180561
665.776	0.0181975
665.854	0.0181602
665.933	0.0181982
666.011	0.0180509
666.089	0.0179904
666.167	0.0181561
666.245	0.0181670
666.323	0.0181416
666.401	0.0180344
666.479	0.0180695
666.558	0.0181854
666.636	0.0181588
666.714	0.0180519
666.792	0.0181575
666.870	0.0182056
666.948	0.0180721
667.026	0.0181707
667.104	0.0180781
667.183	0.0181815
667.261	0.0180804
667.339	0.0181958
667.417	0.0181783
667.495	0.0181567
667.573	0.0180897
667.651	0.0181319
667.729	0.0180753
667.808	0.0181735
667.886	0.0181290
667.964	0.0181691
668.042	0.0181391
668.120	0.0180764
668.198	0.0181094
668.276	0.0180413
668.354	0.0181738
668.433	0.0181554
668.511	0.0182011
668.589	0.0181188
668.667	0.0180752
668.745	0.0179549
668.823	0.0182476
668.901	0.0180795
668.979	0.0180310
669.058	0.0181097
669.136	0.0181150
669.214	0.0180726
669.292	0.0180482
669.370	0.0182644
669.448	0.0181016
669.526	0.0182192
669.604	0.0179211
669.683	0.0180679
669.761	0.0181116
669.839	0.0181256
669.917	0.0181203
669.995	0.0181926
670.073	0.0179835
670.151	0.0180236
670.229	0.0180280
670.308	0.0180516
670.386	0.0180985
670.464	0.0180960
670.542	0.0181537
670.620	0.0181344
670.698	0.0180515
670.776	0.0181523
670.854	0.0181850
670.933	0.0181364
671.011	0.0180368
671.089	0.0181213
671.167	0.0180697
671.245	0.0180495
671.323	0.0180885
671.401	0.0180982
671.479	0.0179893
671.558	0.0180459
671.636	0.0179806
671.714	0.0180697
671.792	0.0180131
671.870	0.0180981
671.948	0.0181116
672.026	0.0180891
672.104	0.0180485
672.183	0.0181595
672.261	0.0181281
672.339	0.0180808
672.417	0.0181347
672.495	0.0181130
672.573	0.0180170
672.651	0.0180818
672.729	0.0180309
672.808	0.0181071
672.886	0.0181019
672.964	0.0180434
673.042	0.0180723
673.120	0.0182379
673.198	0.0182150
673.276	0.0181678
673.354	0.0180908
673.433	0.0181163
673.511	0.0181147
673.589	0.0180714
673.667	0.0180772
673.745	0.0180467
673.823	0.0181409
673.901	0.0180102
673.979	0.0180602
674.058	0.0180823
674.136	0.0181165
674.214	0.0181242
674.292	0.0181345
674.370	0.0180286
674.448	0.0180038
674.526	0.0179214
674.604	0.0180256
674.683	0.0181429
674.761	0.0180987
674.839	0.0182327
674.917	0.0181190
674.995	0.0180795
675.073	0.0182098
675.151	0.0181062
675.229	0.0182210
675.308	0.0181325
675.386	0.0181800
675.464	0.0179946
675.542	0.0179043
675.620	0.0179102
675.698	0.0181352
675.776	0.0182126
675.854	0.0181052
675.933	0.0180468
676.011	0.0181623
676.089	0.0180267
676.167	0.0181030
676.245	0.0181882
676.323	0.0181300
676.401	0.0180688
676.479	0.0181225
676.558	0.0181168
676.636	0.0180159
676.714	0.0179864
676.792	0.0179832
676.870	0.0179519
676.948	0.0181272
677.026	0.0180423
677.104	0.0180634
677.183	0.0181039
677.261	0.0180592
677.339	0.0179121
677.417	0.0181093
677.495	0.0180087
677.573	0.0179191
677.651	0.0179448
677.729	0.0180125
677.808	0.0181384
677.886	0.0180599
677.964	0.0180433
678.042	0.0180222
678.120	0.0180684
678.198	0.0180148
678.276	0.0180668
678.354	0.0180518
678.433	0.0181702
678.511	0.0181055
678.589	0.0180573
678.667	0.0181068
678.745	0.0179902
678.823	0.0180209
678.901	0.0180484
678.979	0.0182371
679.058	0.0179641
679.136	0.0179220
679.214	0.0180743
679.292	0.0182242
679.370	0.0180262
679.448	0.0181684
679.526	0.0182072
679.604	0.0179253
679.683	0.0180506
679.761	0.0181535
679.839	0.0180535
679.917	0.0180687
679.995	0.0180168
680.073	0.0180732
680.151	0.0180988
680.229	0.0179279
680.308	0.0180330
680.386	0.0180807
680.464	0.0181203
680.542	0.0181303
680.620	0.0181293
680.698	0.0180219
680.776	0.0182138
680.854	0.0180023
680.933	0.0181212
681.011	0.0181156
681.089	0.0181451
681.167	0.0180901
681.245	0.0179346
681.323	0.0180338
681.401	0.0181153
681.479	0.0181232
681.558	0.0182462
681.636	0.0181845
681.714	0.0180616
681.792	0.0181700
681.870	0.0181577
681.948	0.0180966
682.026	0.0181207
682.104	0.0181062
682.183	0.0181325
682.261	0.0181098
682.339	0.0180831
682.417	0.0182343
682.495	0.0181020
682.573	0.0182047
682.651	0.0181377
682.729	0.0180550
682.808	0.0181968
682.886	0.0181391
682.964	0.0182387
683.042	0.0180850
683.120	0.0181241
683.198	0.0181609
683.276	0.0180431
683.354	0.0180162
683.433	0.0182040
683.511	0.0182530
683.589	0.0182566
683.667	0.0181811
683.745	0.0181451
683.823	0.0180375
683.901	0.0181468
683.979	0.0181226
684.058	0.0180949
684.136	0.0180850
684.214	0.0181353
684.292	0.0182073
684.370	0.0182146
684.448	0.0181463
684.526	0.0182111
684.604	0.0182860
684.683	0.0181565
684.761	0.0180716
684.839	0.0182156
684.917	0.0182548
684.995	0.0182017
685.073	0.0180331
685.151	0.0183413
685.229	0.0183046
685.308	0.0181564
685.386	0.0180847
685.464	0.0181970
685.542	0.0182533
685.620	0.0181668
685.698	0.0181263
685.776	0.0181532
685.854	0.0181906
685.933	0.0181397
686.011	0.0182561
686.089	0.0181338
686.167	0.0181438
686.245	0.0181565
686.323	0.0181174
686.401	0.0181623
686.479	0.0180817
686.558	0.0181141
686.636	0.0182458
686.714	0.0181516
686.792	0.0181441
686.870	0.0180177
686.948	0.0181763
687.026	0.0181770
687.104	0.0180726
687.183	0.0181359
687.261	0.0180166
687.339	0.0180879
687.417	0.0181551
687.495	0.0181601
687.573	0.0180599
687.651	0.0180343
687.729	0.0180576
687.808	0.0178950
687.886	0.0181023
687.964	0.0179935
688.042	0.0180903
688.120	0.0181385
688.198	0.0180485
688.276	0.0180799
688.354	0.0180322
688.433	0.0180125
688.511	0.0180269
688.589	0.0180868
688.667	0.0181782
688.745	0.0180223
688.823	0.0180315
688.901	0.0181472
688.979	0.0180345
689.058	0.0180550
689.136	0.0180741
689.214	0.0182738
689.292	0.0181042
689.370	0.0179939
689.448	0.0179858
689.526	0.0180098
689.604	0.0180954
689.683	0.0181087
689.761	0.0180282
689.839	0.0181329
689.917	0.0180535
689.995	0.0180383
690.073	0.0178786
690.151	0.0179677
690.229	0.0180206
690.308	0.0180854
690.386	0.0179531
690.464	0.0180160
690.542	0.0180874
690.620	0.0180582
690.698	0.0180094
690.776	0.0180779
690.854	0.0180507
690.933	0.0179383
691.011	0.0181396
691.089	0.0180775
691.167	0.0180386
691.245	0.0181088
691.323	0.0180061
691.401	0.0180711
691.479	0.0180618
691.558	0.0181201
691.636	0.0181553
691.714	0.0181035
691.792	0.0181135
691.870	0.0179900
691.948	0.0180885
692.026	0.0181102
692.104	0.0181800
692.183	0.0181158
692.261	0.0178423
692.339	0.0179887
692.417	0.0182188
692.495	0.0181347
692.573	0.0181566
692.651	0.0181026
692.729	0.0180828
692.808	0.0179618
692.886	0.0180607
692.964	0.0181891
693.042	0.0180641
693.120	0.0181356
693.198	0.0180140
693.276	0.0180904
693.354	0.0179959
693.433	0.0180524
693.511	0.0179600
693.589	0.0179987
693.667	0.0179530
693.745	0.0179362
693.823	0.0180293
693.901	0.0181232
693.979	0.0181036
694.058	0.0179687
694.136	0.0180934
694.214	0.0181464
694.292	0.0179382
694.370	0.0180453
694.448	0.0180268
694.526	0.0180530
694.604	0.0181738
694.683	0.0182019
694.761	0.0181280
694.839	0.0180298
694.917	0.0180176
694.995	0.0179779
695.073	0.0181398
695.151	0.0180560
695.229	0.0180121
695.308	0.0180660
695.386	0.0178065
695.464	0.0179620
695.542	0.0181131
695.620	0.0180672
695.698	0.0179197
695.776	0.0180312
695.854	0.0181264
695.933	0.0181841
696.011	0.0183559
696.089	0.0182953
696.167	0.0184237
696.245	0.0186570
696.323	0.0185922
696.401	0.0185233
696.479	0.0185429
696.558	0.0186675
696.636	0.0184360
696.714	0.0182346
696.792	0.0182835
696.870	0.0180977
696.948	0.0180449
697.026	0.0177187
697.104	0.0176367
697.183	0.0173505
697.261	0.0171500
697.339	0.0171407
697.417	0.0170582
697.495	0.0170200
697.573	0.0170605
697.651	0.0170158
697.729	0.0171027
697.808	0.0171132
697.886	0.0172063
697.964	0.0175208
698.042	0.0178328
698.120	0.0182006
698.198	0.0186425
698.276	0.0191422
698.354	0.0195126
698.433	0.0198507
698.511	0.0203236
698.589	0.0208997
698.667	0.0209556
698.745	0.0211307
698.823	0.0211234
698.901	0.0208593
698.979	0.0205953
699.058	0.0200848
699.136	0.0195193
699.214	0.0188429
699.292	0.0180377
699.370	0.0172237
699.448	0.0162107
699.526	0.0154719
699.604	0.0148336
699.683	0.0142330
699.761	0.0135602
699.839	0.0132503
699.917	0.0131818
699.995	0.0131944
700.073	0.0132283
700.151	0.0136562
700.229	0.0141685
700.308	0.0147013
700.386	0.0156361
700.464	0.0168307
700.542	0.0178828
700.620	0.0193677
700.698	0.0207029
700.776	0.0219425
700.854	0.0231175
700.933	0.0241710
701.011	0.0249604
701.089	0.0255280
701.167	0.0257478
701.245	0.0256728
701.323	0.0252079
701.401	0.0244544
701.479	0.0232867
701.558	0.0220198
701.636	0.0204944
701.714	0.0188452
701.792	0.0171211
701.870	0.0155666
701.948	0.0139351
702.026	0.0126513
702.104	0.0116055
702.183	0.0108947
702.261	0.0103116
702.339	0.0101946
702.417	0.0103206
702.495	0.0107024
702.573	0.0115457
702.651	0.0126025
702.729	0.0136739
702.808	0.0150694
702.886	0.0166290
702.964	0.0179430
703.042	0.0194045
703.120	0.0205379
703.198	0.0216085
703.276	0.0226238
703.354	0.0233075
703.433	0.0237640
703.511	0.0239846
703.589	0.0240265
703.667	0.0236681
703.745	0.0233148
703.823	0.0227800
703.901	0.0219355
703.979	0.0210004
704.058	0.0200594
704.136	0.0190083
704.214	0.0180619
704.292	0.0170256
704.370	0.0159832
704.448	0.0151556
704.526	0.0144314
704.604	0.0138030
704.683	0.0131001
704.761	0.0127960
704.839	0.0127093
704.917	0.0129516
704.995	0.0134137
705.073	0.0139420
705.151	0.0150133
705.229	0.0160671
705.308	0.0173248
705.386	0.0184030
705.464	0.0198840
705.542	0.0211264
705.620	0.0220095
705.698	0.0228423
705.776	0.0235201
705.854	0.0238904
705.933	0.0238646
706.011	0.0238273
706.089	0.0232956
706.167	0.0226337
706.245	0.0220501
706.323	0.0209942
706.401	0.0201302
706.479	0.0191138
706.558	0.0181423
706.636	0.0173961
706.714	0.0163738
706.792	0.0156464
706.870	0.0147604
706.948	0.0139880
707.026	0.0133553
707.104	0.0127359
707.183	0.0125835
707.261	0.0122538
707.339	0.0121555
707.417	0.0121856
707.495	0.0125131
707.573	0.0132815
707.651	0.0138649
707.729	0.0151060
707.808	0.0163151
707.886	0.0175948
707.964	0.0187881
708.042	0.0199422
708.120	0.0211639
708.198	0.0222952
708.276	0.0230986
708.354	0.0236712
708.433	0.0238910
708.511	0.0239066
708.589	0.0237573
708.667	0.0234124
708.745	0.0227074
708.823	0.0221070
708.901	0.0211976
708.979	0.0201720
709.058	0.0192325
709.136	0.0183173
709.214	0.0174730
709.292	0.0166924
709.370	0.0160744
709.448	0.0156393
709.526	0.0152455
709.604	0.0150670
709.683	0.0151244
709.761	0.0152454
709.839	0.0156327
709.917	0.0160097
709.995	0.0165930
710.073	0.0172189
710.151	0.0177373
710.229	0.0183171
710.308	0.0188152
710.386	0.0193375
710.464	0.0195531
710.542	0.0196204
710.620	0.0195860
710.698	0.0197232
710.776	0.0194097
710.854	0.0190913
710.933	0.0188385
711.011	0.0185892
711.089	0.0182202
711.167	0.0177337
711.245	0.0173956
711.323	0.0172572
711.401	0.0167874
711.479	0.0164855
711.558	0.0162600
711.636	0.0161543
711.714	0.0159861
711.792	0.0158900
711.870	0.0161677
711.948	0.0165127
712.026	0.0167702
712.104	0.0172242
712.183	0.0177971
712.261	0.0184789
712.339	0.0190009
712.417	0.0197338
712.495	0.0202494
712.573	0.0207331
712.651	0.0210113
712.729	0.0213261
712.808	0.0212074
712.886	0.0210262
712.964	0.0207422
713.042	0.0204205
713.120	0.0200157
713.198	0.0192658
713.276	0.0186735
713.354	0.0181364
713.433	0.0174867
713.511	0.0170020
713.589	0.0164108
713.667	0.0161590
713.745	0.0156611
713.823	0.0154862
713.901	0.0151388
713.979	0.0150371
714.058	0.0150351
714.136	0.0152324
714.214	0.0155099
714.292	0.0159428
714.370	0.0162685
714.448	0.0168411
714.526	0.0173691
714.604	0.0178654
714.683	0.0183720
714.761	0.0188443
714.839	0.0193491
714.917	0.0199216
714.995	0.0203449
715.073	0.0205498
715.151	0.0208351
715.229	0.0208893
715.308	0.0206721
715.386	0.0206570
715.464	0.0205297
715.542	0.0200433
715.620	0.0195853
715.698	0.0191216
715.776	0.0184962
715.854	0.0181043
715.933	0.0174634
716.011	0.0169972
716.089	0.0165913
716.167	0.0164719
716.245	0.0162009
716.323	0.0159219
716.401	0.0161721
716.479	0.0163022
716.558	0.0167117
716.636	0.0170143
716.714	0.0173797
716.792	0.0179556
716.870	0.0185127
716.948	0.0187504
717.026	0.0191087
717.104	0.0192422
717.183	0.0193025
717.261	0.0194522
717.339	0.0194802
717.417	0.0192859
717.495	0.0188819
717.573	0.0186369
717.651	0.0184919
717.729	0.0181134
717.808	0.0178336
717.886	0.0174827
717.964	0.0173096
718.042	0.0170913
718.120	0.0168261
718.198	0.0167736
718.276	0.0167016
718.354	0.0165122
718.433	0.0165652
718.511	0.0167307
718.589	0.0166737
718.667	0.0169103
718.745	0.0170687
718.823	0.0174732
718.901	0.0178623
718.979	0.0180239
719.058	0.0182597
719.136	0.0185781
719.214	0.0188189
719.292	0.0192363
719.370	0.0193985
719.448	0.0197812
719.526	0.0197422
719.604	0.0198154
719.683	0.0199693
719.761	0.0197323
719.839	0.0197333
719.917	0.0195975
719.995	0.0192211
720.073	0.0189013
720.151	0.0186149
720.229	0.0182590
720.308	0.0180905
720.386	0.0177123
720.464	0.0175852
720.542	0.0172423
720.620	0.0171028
720.698	0.0168594
720.776	0.0167671
720.854	0.0168171
720.933	0.0167027
721.011	0.0168951
721.089	0.0171334
721.167	0.0172703
721.245	0.0173914
721.323	0.0177842
721.401	0.0180994
721.479	0.0184482
721.558	0.0186846
721.636	0.0190864
721.714	0.0192728
721.792	0.0194473
721.870	0.0193550
721.948	0.0195399
722.026	0.0194359
722.104	0.0193703
722.183	0.0191727
722.261	0.0189512
722.339	0.0186701
722.417	0.0184226
722.495	0.0181056
722.573	0.0179792
722.651	0.0176463
722.729	0.0174728
722.808	0.0172255
722.886	0.0171181
722.964	0.0170828
723.042	0.0169327
723.120	0.0169209
723.198	0.0170840
723.276	0.0171449
723.354	0.0172324
723.433	0.0175362
723.511	0.0177169
723.589	0.0178378
723.667	0.0180521
723.745	0.0181811
723.823	0.0183960
723.901	0.0184721
723.979	0.0185416
724.058	0.0186565
724.136	0.0188544
724.214	0.0185293
724.292	0.0186240
724.370	0.0185766
724.448	0.0185497
724.526	0.0184148
724.604	0.0183139
724.683	0.0182542
724.761	0.0181427
724.839	0.0180103
724.917	0.0180482
724.995	0.0179368
725.073	0.0177130
725.151	0.0177398
725.229	0.0177427
725.308	0.0177145
725.386	0.0176765
725.464	0.0177728
725.542	0.0178602
725.620	0.0178504
725.698	0.0178870
725.776	0.0178655
725.854	0.0179845
725.933	0.0181646
726.011	0.0181100
726.089	0.0180544
726.167	0.0181480
726.245	0.0182671
726.323	0.0181931
726.401	0.0184132
726.479	0.0183904
726.558	0.0184808
726.636	0.0184693
726.714	0.0184657
726.792	0.0184097
726.870	0.0183994
726.948	0.0184558
727.026	0.0183879
727.104	0.0185272
727.183	0.0184711
727.261	0.0184086
727.339	0.0182406
727.417	0.0182677
727.495	0.0181730
727.573	0.0181018
727.651	0.0181187
727.729	0.0180155
727.808	0.0177415
727.886	0.0178474
727.964	0.0178218
728.042	0.0177131
728.120	0.0174987
728.198	0.0175110
728.276	0.0174273
728.354	0.0175610
728.433	0.0176800
728.511	0.0176881
728.589	0.0179102
728.667	0.0178722
728.745	0.0178632
728.823	0.0180301
728.901	0.0181541
728.979	0.0182220
729.058	0.0182203
729.136	0.0182515
729.214	0.0183102
729.292	0.0182424
729.370	0.0182145
729.448	0.0180695
729.526	0.0179711
729.604	0.0179784
729.683	0.0179083
729.761	0.0178031
729.839	0.0178960
729.917	0.0179162
729.995	0.0178988
730.073	0.0179273
730.151	0.0180686
730.229	0.0184885
730.308	0.0184480
730.386	0.0184236
730.464	0.0184582
730.542	0.0184659
730.620	0.0184674
730.698	0.0185343
730.776	0.0184703
730.854	0.0181870
730.933	0.0181212
731.011	0.0181252
731.089	0.0179456
731.167	0.0177468
731.245	0.0177161
731.323	0.0175711
731.401	0.0176163
731.479	0.0175832
731.558	0.0174708
731.636	0.0174947
731.714	0.0175924
731.792	0.0176885
731.870	0.0177266
731.948	0.0178924
732.026	0.0180852
732.104	0.0180576
732.183	0.0183185
732.261	0.0184059
732.339	0.0185728
732.417	0.0187421
732.495	0.0187013
732.573	0.0185769
732.651	0.0186811
732.729	0.0186510
732.808	0.0187254
732.886	0.0186199
732.964	0.0185192
733.042	0.0183362
733.120	0.0181236
733.198	0.0179507
733.276	0.0179076
733.354	0.0177773
733.433	0.0177917
733.511	0.0176398
733.589	0.0175441
733.667	0.0176124
733.745	0.0176897
733.823	0.0176607
733.901	0.0177644
733.979	0.0178885
734.058	0.0179989
734.136	0.0178976
734.214	0.0181476
734.292	0.0181609
734.370	0.0180866
734.448	0.0181187
734.526	0.0183266
734.604	0.0183617
734.683	0.0182571
734.761	0.0182968
734.839	0.0181798
734.917	0.0181110
734.995	0.0182128
735.073	0.0181026
735.151	0.0180785
735.229	0.0181441
735.308	0.0181496
735.386	0.0181300
735.464	0.0181844
735.542	0.0182046
735.620	0.0182104
735.698	0.0183895
735.776	0.0183685
735.854	0.0182914
735.933	0.0182329
736.011	0.0183296
736.089	0.0183095
736.167	0.0182559
736.245	0.0182610
736.323	0.0182458
736.401	0.0181699
736.479	0.0181522
736.558	0.0179575
736.636	0.0178994
736.714	0.0179790
736.792	0.0177616
736.870	0.0180238
736.948	0.0179893
737.026	0.0177805
737.104	0.0177209
737.183	0.0176864
737.261	0.0178516
737.339	0.0178487
737.417	0.0178996
737.495	0.0179243
737.573	0.0178126
737.651	0.0181054
737.729	0.0180280
737.808	0.0181226
737.886	0.0181649
737.964	0.0183143
738.042	0.0184865
738.120	0.0183816
738.198	0.0184429
738.276	0.0184422
738.354	0.0183748
738.433	0.0182688
738.511	0.0183694
738.589	0.0182118
738.667	0.0181734
738.745	0.0181359
738.823	0.0179898
738.901	0.0179434
738.979	0.0179463
739.058	0.0179034
739.136	0.0176836
739.214	0.0178996
739.292	0.0178440
739.370	0.0178936
739.448	0.0178645
739.526	0.0178712
739.604	0.0180125
739.683	0.0178757
739.761	0.0179306
739.839	0.0180605
739.917	0.0179176
739.995	0.0182085
740.073	0.0182116
740.151	0.0183040
740.229	0.0183321
740.308	0.0183080
740.386	0.0183186
740.464	0.0183990
740.542	0.0184048
740.620	0.0185361
740.698	0.0184576
740.776	0.0184383
740.854	0.0186018
740.933	0.0185780
741.011	0.0185737
741.089	0.0187341
741.167	0.0185938
741.245	0.0184315
741.323	0.0182558
741.401	0.0181983
741.479	0.0182496
741.558	0.0182594
741.636	0.0180405
741.714	0.0179213
741.792	0.0179254
741.870	0.0179804
741.948	0.0179910
742.026	0.0178825
742.104	0.0178885
742.183	0.0177673
742.261	0.0179337
742.339	0.0178551
742.417	0.0178415
742.495	0.0178987
742.573	0.0178149
742.651	0.0178732
742.729	0.0179928
742.808	0.0180717
742.886	0.0179488
742.964	0.0179311
743.042	0.0179996
743.120	0.0179327
743.198	0.0178771
743.276	0.0179722
743.354	0.0180102
743.433	0.0179813
743.511	0.0180086
743.589	0.0177153
743.667	0.0178580
743.745	0.0178317
743.823	0.0176638
743.901	0.0178123
743.979	0.0177216
744.058	0.0178708
744.136	0.0176284
744.214	0.0177643
744.292	0.0177245
744.370	0.0177294
744.448	0.0179171
744.526	0.0180461
744.604	0.0181681
744.683	0.0180573
744.761	0.0182406
744.839	0.0182512
744.917	0.0184307
744.995	0.0183533
745.073	0.0184002
745.151	0.0185468
745.229	0.0185786
745.308	0.0184295
745.386	0.0186176
745.464	0.0185218
745.542	0.0183930
745.620	0.0186001
745.698	0.0185274
745.776	0.0185502
745.854	0.0183229
745.933	0.0185876
746.011	0.0184671
746.089	0.0184372
746.167	0.0182776
746.245	0.0182278
746.323	0.0183379
746.401	0.0182307
746.479	0.0181326
746.558	0.0180952
746.636	0.0180508
746.714	0.0181055
746.792	0.0179309
746.870	0.0177936
746.948	0.0176250
747.026	0.0178740
747.104	0.0178864
747.183	0.0177869
747.261	0.0177357
747.339	0.0177976
747.417	0.0178498
747.495	0.0179564
747.573	0.0177766
747.651	0.0178156
747.729	0.0180308
747.808	0.0180769
747.886	0.0180656
747.964	0.0182024
748.042	0.0181738
748.120	0.0182548
748.198	0.0183028
748.276	0.0181956
748.354	0.0183298
748.433	0.0182819
748.511	0.0183163
748.589	0.0183786
748.667	0.0183550
748.745	0.0182549
748.823	0.0182225
748.901	0.0183279
748.979	0.0184084
749.058	0.0183522
749.136	0.0183118
749.214	0.0182212
749.292	0.0181101
749.370	0.0181121
749.448	0.0181367
749.526	0.0180023
749.604	0.0180103
749.683	0.0179871
749.761	0.0179246
749.839	0.0178969
749.917	0.0178426
749.995	0.0178207
750.073	0.0177562
750.151	0.0177997
750.229	0.0178440
750.308	0.0178070
750.386	0.0178830
750.464	0.0178940
750.542	0.0178834
750.620	0.0179337
750.698	0.0178726
750.776	0.0179325
750.854	0.0180783
750.933	0.0180515
751.011	0.0179730
751.089	0.0180173
751.167	0.0179134
751.245	0.0178017
751.323	0.0177418
751.401	0.0177466
751.479	0.0176865
751.558	0.0176787
751.636	0.0177428
751.714	0.0176189
751.792	0.0177197
751.870	0.0178031
751.948	0.0179163
752.026	0.0180593
752.104	0.0181975
752.183	0.0182087
752.261	0.0183280
752.339	0.0184219
752.417	0.0184741
752.495	0.0185405
752.573	0.0186980
752.651	0.0186222
752.729	0.0186106
752.808	0.0187084
752.886	0.0185943
752.964	0.0185198
753.042	0.0186953
753.120	0.0185668
753.198	0.0185057
753.276	0.0183868
753.354	0.0183798
753.433	0.0184149
753.511	0.0182711
753.589	0.0181050
753.667	0.0181641
753.745	0.0181233
753.823	0.0181300
753.901	0.0179739
753.979	0.0180224
754.058	0.0178322
754.136	0.0178651
754.214	0.0177438
754.292	0.0176514
754.370	0.0177026
754.448	0.0175640
754.526	0.0175700
754.604	0.0176822
754.683	0.0177094
754.761	0.0175068
754.839	0.0177107
754.917	0.0176305
754.995	0.0178556
755.073	0.0179446
755.151	0.0179933
755.229	0.0180527
755.308	0.0181162
755.386	0.0182359
755.464	0.0181577
755.542	0.0181107
755.620	0.0182063
755.698	0.0182260
755.776	0.0182344
755.854	0.0182397
755.933	0.0182179
756.011	0.0182561
756.089	0.0181716
756.167	0.0181065
756.245	0.0180781
756.323	0.0178819
756.401	0.0178345
756.479	0.0179259
756.558	0.0178281
756.636	0.0177767
756.714	0.0178422
756.792	0.0177108
756.870	0.0176666
756.948	0.0178340
757.026	0.0177767
757.104	0.0177951
757.183	0.0178609
757.261	0.0181030
757.339	0.0181828
757.417	0.0181885
757.495	0.0181062
757.573	0.0182156
757.651	0.0183471
757.729	0.0184056
757.808	0.0185520
757.886	0.0185224
757.964	0.0184636
758.042	0.0183907
758.120	0.0183401
758.198	0.0182305
758.276	0.0182671
758.354	0.0182897
758.433	0.0180074
758.511	0.0179553
758.589	0.0179879
758.667	0.0178722
758.745	0.0179083
758.823	0.0176491
758.901	0.0177112
758.979	0.0177823
759.058	0.0177831
759.136	0.0178425
759.214	0.0178255
759.292	0.0178739
759.370	0.0179616
759.448	0.0181030
759.526	0.0181552
759.604	0.0182842
759.683	0.0183449
759.761	0.0183479
759.839	0.0184047
759.917	0.0185617
759.995	0.0184353
760.073	0.0184975
760.151	0.0184290
760.229	0.0184367
760.308	0.0183901
760.386	0.0184175
760.464	0.0182993
760.542	0.0183246
760.620	0.0182195
760.698	0.0181850
760.776	0.0181073
760.854	0.0181130
760.933	0.0181704
761.011	0.0180457
761.089	0.0179610
761.167	0.0181171
761.245	0.0182370
761.323	0.0182269
761.401	0.0180077
761.479	0.0180611
761.558	0.0181393
761.636	0.0182406
761.714	0.0181615
761.792	0.0182714
761.870	0.0182484
761.948	0.0182246
762.026	0.0182788
762.104	0.0181556
762.183	0.0183391
762.261	0.0183223
762.339	0.0183267
762.417	0.0183795
762.495	0.0183727
762.573	0.0183925
762.651	0.0183057
762.729	0.0182003
762.808	0.0182923
762.886	0.0181478
762.964	0.0180354
763.042	0.0179292
763.120	0.0178310
763.198	0.0179415
763.276	0.0178864
763.354	0.0178788
763.433	0.0177192
763.511	0.0179462
763.589	0.0180025
763.667	0.0178097
763.745	0.0177680
763.823	0.0178144
763.901	0.0178796
763.979	0.0179419
764.058	0.0179591
764.136	0.0179611
764.214	0.0178111
764.292	0.0178931
764.370	0.0180601
764.448	0.0181431
764.526	0.0181644
764.604	0.0181819
764.683	0.0182417
764.761	0.0182157
764.839	0.0181617
764.917	0.0184018
764.995	0.0182888
765.073	0.0182426
765.151	0.0184067
765.229	0.0184244
765.308	0.0184061
765.386	0.0184145
765.464	0.0183620
765.542	0.0183493
765.620	0.0183902
765.698	0.0181969
765.776	0.0181672
765.854	0.0182602
765.933	0.0182751
766.011	0.0181017
766.089	0.0179528
766.167	0.0180013
766.245	0.0180380
766.323	0.0177431
766.401	0.0179336
766.479	0.0178487
766.558	0.0177777
766.636	0.0177345
766.714	0.0178545
766.792	0.0178973
766.870	0.0179272
766.948	0.0179215
767.026	0.0179723
767.104	0.0179581
767.183	0.0180331
767.261	0.0182883
767.339	0.0182124
767.417	0.0183456
767.495	0.0183136
767.573	0.0184464
767.651	0.0185208
767.729	0.0184740
767.808	0.0183089
767.886	0.0185465
767.964	0.0184268
768.042	0.0184436
768.120	0.0184013
768.198	0.0184101
768.276	0.0181778
768.354	0.0182310
768.433	0.0180573
768.511	0.0179878
768.589	0.0179565
768.667	0.0179391
768.745	0.0179948
768.823	0.0178838
768.901	0.0179291
768.979	0.0178378
769.058	0.0178197
769.136	0.0178454
769.214	0.0179316
769.292	0.0178815
769.370	0.0180242
769.448	0.0178822
769.526	0.0179317
769.604	0.0179618
769.683	0.0179858
769.761	0.0181864
769.839	0.0180962
769.917	0.0182493
769.995	0.0181223
770.073	0.0182273
770.151	0.0182211
770.229	0.0183335
770.308	0.0181251
770.386	0.0181738
770.464	0.0181250
770.542	0.0181084
770.620	0.0180295
770.698	0.0180481
770.776	0.0179898
770.854	0.0178770
770.933	0.0179585
771.011	0.0178475
771.089	0.0177032
771.167	0.0177823
771.245	0.0178000
771.323	0.0177176
771.401	0.0178428
771.479	0.0178302
771.558	0.0177549
771.636	0.0179559
771.714	0.0178770
771.792	0.0178049
771.870	0.0180116
771.948	0.0179121
772.026	0.0180157
772.104	0.0181797
772.183	0.0181808
772.261	0.0182394
772.339	0.0182406
772.417	0.0183272
772.495	0.0183836
772.573	0.0184730
772.651	0.0184132
772.729	0.0184142
772.808	0.0185353
772.886	0.0185289
772.964	0.0185339
773.042	0.0183516
773.120	0.0184680
773.198	0.0183584
773.276	0.0183775
773.354	0.0182710
773.433	0.0181352
773.511	0.0179983
773.589	0.0181418
773.667	0.0180264
773.745	0.0179854
773.823	0.0179447
773.901	0.0179451
773.979	0.0178954
774.058	0.0177654
774.136	0.0178078
774.214	0.0179347
774.292	0.0179391
774.370	0.0177605
774.448	0.0179894
774.526	0.0180052
774.604	0.0179967
774.683	0.0180249
774.761	0.0180652
774.839	0.0181074
774.917	0.0182962
774.995	0.0182684
775.073	0.0181606
775.151	0.0182483
775.229	0.0185154
775.308	0.0183070
775.386	0.0183360
775.464	0.0184027
775.542	0.0183295
775.620	0.0184081
775.698	0.0182446
775.776	0.0180723
775.854	0.0180757
775.933	0.0180254
776.011	0.0179684
776.089	0.0179217
776.167	0.0178483
776.245	0.0180048
776.323	0.0178725
776.401	0.0177726
776.479	0.0178466
776.558	0.0178723
776.636	0.0176611
776.714	0.0178712
776.792	0.0178686
776.870	0.0178529
776.948	0.0179123
777.026	0.0180070
777.104	0.0181866
777.183	0.0180381
777.261	0.0180179
777.339	0.0182497
777.417	0.0182112
777.495	0.0183067
777.573	0.0183029
777.651	0.0183662
777.729	0.0181637
777.808	0.0183288
777.886	0.0183541
777.964	0.0182946
778.042	0.0182870
778.120	0.0182101
778.198	0.0181521
778.276	0.0181878
778.354	0.0180397
778.433	0.0179344
778.511	0.0180999
778.589	0.0179690
778.667	0.0179996
778.745	0.0180072
778.823	0.0178552
778.901	0.0179041
778.979	0.0179446
779.058	0.0178084
779.136	0.0178295
779.214	0.0178319
779.292	0.0178808
779.370	0.0179007
779.448	0.0179775
779.526	0.0179083
779.604	0.0179589
779.683	0.0181844
779.761	0.0182106
779.839	0.0180260
779.917	0.0182593
779.995	0.0181935
780.073	0.0182497
780.151	0.0182948
780.229	0.0183225
780.308	0.0182971
780.386	0.0184892
780.464	0.0184711
780.542	0.0182549
780.620	0.0184174
780.698	0.0183669
780.776	0.0182996
780.854	0.0182603
780.933	0.0181633
781.011	0.0182103
781.089	0.0180586
781.167	0.0180813
781.245	0.0179725
781.323	0.0178626
781.401	0.0178930
781.479	0.0178445
781.558	0.0178273
781.636	0.0177583
781.714	0.0179096
781.792	0.0179008
781.870	0.0178411
781.948	0.0179512
782.026	0.0179385
782.104	0.0180453
782.183	0.0180686
782.261	0.0181209
782.339	0.0181365
782.417	0.0182501
782.495	0.0182677
782.573	0.0182298
782.651	0.0184525
782.729	0.0181830
782.808	0.0182735
782.886	0.0182654
782.964	0.0182980
783.042	0.0184181
783.120	0.0182575
783.198	0.0182550
783.276	0.0181779
783.354	0.0181409
783.433	0.0180402
783.511	0.0180807
783.589	0.0181046
783.667	0.0180649
783.745	0.0178405
783.823	0.0178696
783.901	0.0180708
783.979	0.0178917
784.058	0.0179935
784.136	0.0179665
784.214	0.0180687
784.292	0.0179772
784.370	0.0179280
784.448	0.0179488
784.526	0.0180725
784.604	0.0180232
784.683	0.0181202
784.761	0.0182199
784.839	0.0182518
784.917	0.0183350
784.995	0.0183200
785.073	0.0184723
785.151	0.0185540
785.229	0.0184710
785.308	0.0182334
785.386	0.0184043
785.464	0.0183372
785.542	0.0182005
785.620	0.0184242
785.698	0.0183355
785.776	0.0181773
785.854	0.0181039
785.933	0.0180534
786.011	0.0179869
786.089	0.0178329
786.167	0.0178585
786.245	0.0177796
786.323	0.0178991
786.401	0.0179015
786.479	0.0177216
786.558	0.0177334
786.636	0.0176624
786.714	0.0178636
786.792	0.0177373
786.870	0.0178784
786.948	0.0180032
787.026	0.0179492
787.104	0.0179852
787.183	0.0181931
787.261	0.0181728
787.339	0.0182803
787.417	0.0181690
787.495	0.0182255
787.573	0.0183258
787.651	0.0182693
787.729	0.0184129
787.808	0.0182755
787.886	0.0185335
787.964	0.0184543
788.042	0.0183771
788.120	0.0183641
788.198	0.0183907
788.276	0.0182174
788.354	0.0182720
788.433	0.0181317
788.511	0.0180405
788.589	0.0181809
788.667	0.0180178
788.745	0.0178408
788.823	0.0178643
788.901	0.0178580
788.979	0.0178059
789.058	0.0177932
789.136	0.0178133
789.214	0.0178869
789.292	0.0179138
789.370	0.0180202
789.448	0.0180582
789.526	0.0178275
789.604	0.0179723
789.683	0.0180882
789.761	0.0180541
789.839	0.0182045
789.917	0.0181469
789.995	0.0182991
790.073	0.0182056
790.151	0.0182388
790.229	0.0184722
790.308	0.0182484
790.386	0.0183987
790.464	0.0183108
790.542	0.0183787
790.620	0.0184123
790.698	0.0183894
790.776	0.0182557
790.854	0.0182825
790.933	0.0181839
791.011	0.0182946
791.089	0.0182446
791.167	0.0181890
791.245	0.0181606
791.323	0.0180711
791.401	0.0182935
791.479	0.0182001
791.558	0.0181434
791.636	0.0182042
791.714	0.0180025
791.792	0.0180282
791.870	0.0179791
791.948	0.0180179
792.026	0.0180553
792.104	0.0180177
792.183	0.0181537
792.261	0.0179519
792.339	0.0180297
792.417	0.0182069
792.495	0.0180476
792.573	0.0180312
792.651	0.0180695
792.729	0.0181683
792.808	0.0180551
792.886	0.0180698
792.964	0.0181922
793.042	0.0181976
793.120	0.0181813
793.198	0.0181894
793.276	0.0182111
793.354	0.0182229
793.433	0.0180402
793.511	0.0181396
793.589	0.0180732
793.667	0.0180820
793.745	0.0180575
793.823	0.0178224
793.901	0.0179104
793.979	0.0179626
794.058	0.0178698
794.136	0.0179362
794.214	0.0179771
794.292	0.0179426
794.370	0.0179522
794.448	0.0179370
794.526	0.0179991
794.604	0.0180860
794.683	0.0180232
794.761	0.0181286
794.839	0.0181186
794.917	0.0181161
794.995	0.0183231
795.073	0.0183858
795.151	0.0182832
795.229	0.0183597
795.308	0.0185063
795.386	0.0184505
795.464	0.0184447
795.542	0.0185810
795.620	0.0185402
795.698	0.0183636
795.776	0.0182342
795.854	0.0182236
795.933	0.0182175
796.011	0.0182393
796.089	0.0181285
796.167	0.0179352
796.245	0.0178683
796.323	0.0178128
796.401	0.0177625
796.479	0.0177892
796.558	0.0176701
796.636	0.0175011
796.714	0.0178037
796.792	0.0176712
796.870	0.0177007
796.948	0.0177292
797.026	0.0178851
797.104	0.0179051
797.183	0.0178901
797.261	0.0181081
797.339	0.0181348
797.417	0.0181817
797.495	0.0183057
797.573	0.0182663
797.651	0.0182319
797.729	0.0182805
797.808	0.0184625
797.886	0.0183182
797.964	0.0182457
798.042	0.0182752
798.120	0.0183140
798.198	0.0183024
798.276	0.0181979
798.354	0.0181129
798.433	0.0180348
798.511	0.0179350
798.589	0.0178555
798.667	0.0179101
798.745	0.0177551
798.823	0.0178149
798.901	0.0177534
798.979	0.0176839
799.058	0.0176987
799.136	0.0178100
799.214	0.0179036
799.292	0.0178096
799.370	0.0178249
799.448	0.0179320
799.526	0.0179865
799.604	0.0179005
799.683	0.0181687
799.761	0.0180824
799.839	0.0180547
799.917	0.0181268
799.995	0.0182230
800.073	0.0182922
800.151	0.0182956
800.229	0.0182420
800.308	0.0182697
800.386	0.0182217
800.464	0.0182764
800.542	0.0182669
800.620	0.0182783
800.698	0.0181895
800.776	0.0181973
800.854	0.0181516
800.933	0.0180402
801.011	0.0182294
801.089	0.0181257
801.167	0.0179810
801.245	0.0179151
801.323	0.0179383
801.401	0.0180569
801.479	0.0181091
801.558	0.0182392
801.636	0.0180701
801.714	0.0180580
801.792	0.0180920
801.870	0.0180701
801.948	0.0179852
802.026	0.0179167
802.104	0.0179104
802.183	0.0180858
802.261	0.0179037
802.339	0.0179803
802.417	0.0177971
802.495	0.0177934
802.573	0.0178440
802.651	0.0179379
802.729	0.0180707
802.808	0.0179298
802.886	0.0180427
802.964	0.0179290
803.042	0.0179202
803.120	0.0180193
803.198	0.0178959
803.276	0.0179580
803.354	0.0180228
803.433	0.0180814
803.511	0.0180575
803.589	0.0180560
803.667	0.0182459
803.745	0.0181718
803.823	0.0180462
803.901	0.0180216
803.979	0.0180722
804.058	0.0181334
804.136	0.0181207
804.214	0.0180529
804.292	0.0179459
804.370	0.0178707
804.448	0.0179234
804.526	0.0178448
804.604	0.0177577
804.683	0.0178049
804.761	0.0177267
804.839	0.0176402
804.917	0.0177468
804.995	0.0175714
805.073	0.0176907
805.151	0.0177264
805.229	0.0177367
805.308	0.0178956
805.386	0.0178465
805.464	0.0179475
805.542	0.0182458
805.620	0.0182996
805.698	0.0183595
805.776	0.0183238
805.854	0.0185514
805.933	0.0184538
806.011	0.0185934
806.089	0.0186584
806.167	0.0186375
806.245	0.0185831
806.323	0.0185063
806.401	0.0184576
806.479	0.0184261
806.558	0.0184137
806.636	0.0182555
806.714	0.0181968
806.792	0.0181726
806.870	0.0181546
806.948	0.0180186
807.026	0.0179969
807.104	0.0178471
807.183	0.0178125
807.261	0.0178484
807.339	0.0177570
807.417	0.0178368
807.495	0.0178445
807.573	0.0177487
807.651	0.0177963
807.729	0.0179555
807.808	0.0179016
807.886	0.0180462
807.964	0.0180669
808.042	0.0180260
808.120	0.0182537
808.198	0.0182800
808.276	0.0180983
808.354	0.0182262
808.433	0.0183963
808.511	0.0182236
808.589	0.0183052
808.667	0.0184135
808.745	0.0181329
808.823	0.0181524
808.901	0.0181134
808.979	0.0181200
809.058	0.0181428
809.136	0.0180778
809.214	0.0179832
809.292	0.0179406
809.370	0.0178925
809.448	0.0179068
809.526	0.0178874
809.604	0.0179765
809.683	0.0179138
809.761	0.0179236
809.839	0.0179327
809.917	0.0178543
809.995	0.0178536
810.073	0.0180603
810.151	0.0180817
810.229	0.0180901
810.308	0.0181280
810.386	0.0182645
810.464	0.0182585
810.542	0.0182896
810.620	0.0182410
810.698	0.0183186
810.776	0.0182713
810.854	0.0182881
810.933	0.0182936
811.011	0.0183167
811.089	0.0182979
811.167	0.0183577
811.245	0.0182701
811.323	0.0181606
811.401	0.0184166
811.479	0.0182510
811.558	0.0182236
811.636	0.0180919
811.714	0.0181548
811.792	0.0180636
811.870	0.0179035
811.948	0.0180484
812.026	0.0178770
812.104	0.0178670
812.183	0.0177899
812.261	0.0180061
812.339	0.0178497
812.417	0.0178792
812.495	0.0180020
812.573	0.0180148
812.651	0.0178820
812.729	0.0179293
812.808	0.0182419
812.886	0.0181890
812.964	0.0182369
813.042	0.0181977
813.120	0.0182336
813.198	0.0183157
813.276	0.0182294
813.354	0.0183530
813.433	0.0183627
813.511	0.0183427
813.589	0.0184098
813.667	0.0184565
813.745	0.0183968
813.823	0.0182230
813.901	0.0183060
813.979	0.0181325
814.058	0.0181518
814.136	0.0181152
814.214	0.0178835
814.292	0.0179020
814.370	0.0179018
814.448	0.0179330
814.526	0.0178430
814.604	0.0179595
814.683	0.0179302
814.761	0.0178721
814.839	0.0178207
814.917	0.0180180
814.995	0.0179440
815.073	0.0179798
815.151	0.0180509
815.229	0.0180260
815.308	0.0181953
815.386	0.0180898
815.464	0.0181541
815.542	0.0182230
815.620	0.0183099
815.698	0.0184553
815.776	0.0183106
815.854	0.0182932
815.933	0.0183260
816.011	0.0184000
816.089	0.0182651
816.167	0.0183958
816.245	0.0181937
816.323	0.0181315
816.401	0.0183498
816.479	0.0182765
816.558	0.0180061
816.636	0.0180057
816.714	0.0179112
816.792	0.0177702
816.870	0.0178361
816.948	0.0178310
817.026	0.0177847
817.104	0.0177419
817.183	0.0178888
817.261	0.0179546
817.339	0.0179300
817.417	0.0180064
817.495	0.0179842
817.573	0.0179874
817.651	0.0181102
817.729	0.0181622
817.808	0.0183511
817.886	0.0182281
817.964	0.0183048
818.042	0.0182970
818.120	0.0183029
818.198	0.0184222
818.276	0.0182975
818.354	0.0182131
818.433	0.0182739
818.511	0.0183247
818.589	0.0181860
818.667	0.0182337
818.745	0.0182035
818.823	0.0181966
818.901	0.0181299
818.979	0.0181586
819.058	0.0179958
819.136	0.0181378
819.214	0.0181947
819.292	0.0182225
819.370	0.0180631
819.448	0.0180940
819.526	0.0182028
819.604	0.0182313
819.683	0.0181680
819.761	0.0180186
819.839	0.0181875
819.917	0.0181480
819.995	0.0180577
820.073	0.0180324
820.151	0.0180591
820.229	0.0181046
820.308	0.0179120
820.386	0.0180136
820.464	0.0179563
820.542	0.0179538
820.620	0.0180205
820.698	0.0180037
820.776	0.0180416
820.854	0.0178307
820.933	0.0180300
821.011	0.0178992
821.089	0.0178807
821.167	0.0180839
821.245	0.0181352
821.323	0.0180321
821.401	0.0181137
821.479	0.0182207
821.558	0.0182503
821.636	0.0182675
821.714	0.0182993
821.792	0.0181728
821.870	0.0182295
821.948	0.0182357
822.026	0.0181831
822.104	0.0182214
822.183	0.0182361
822.261	0.0182009
822.339	0.0182415
822.417	0.0181635
822.495	0.0180206
822.573	0.0179987
822.651	0.0179440
822.729	0.0179144
822.808	0.0180393
822.886	0.0180616
822.964	0.0179948
823.042	0.0179155
823.120	0.0179147
823.198	0.0181699
823.276	0.0181224
823.354	0.0179992
823.433	0.0180634
823.511	0.0181210
823.589	0.0181842
823.667	0.0182174
823.745	0.0181701
823.823	0.0181510
823.901	0.0181815
823.979	0.0183501
824.058	0.0181370
824.136	0.0180618
824.214	0.0182279
824.292	0.0182115
824.370	0.0181686
824.448	0.0181223
824.526	0.0182200
824.604	0.0180708
824.683	0.0179974
824.761	0.0180769
824.839	0.0179472
824.917	0.0178691
824.995	0.0178941
825.073	0.0178953
825.151	0.0178034
825.229	0.0178101
825.308	0.0178271
825.386	0.0177863
825.464	0.0177754
825.542	0.0178911
825.620	0.0178125
825.698	0.0178117
825.776	0.0177740
825.854	0.0179000
825.933	0.0179501
826.011	0.0180199
826.089	0.0179931
826.167	0.0179696
826.245	0.0180888
826.323	0.0179794
826.401	0.0180029
826.479	0.0179620
826.558	0.0179647
826.636	0.0180642
826.714	0.0180177
826.792	0.0180733
826.870	0.0182026
826.948	0.0180704
827.026	0.0180804
827.104	0.0180735
827.183	0.0180236
827.261	0.0180902
827.339	0.0181748
827.417	0.0183411
827.495	0.0181813
827.573	0.0181171
827.651	0.0182627
827.729	0.0181293
827.808	0.0181884
827.886	0.0182365
827.964	0.0183000
828.042	0.0183305
828.120	0.0182295
828.198	0.0180438
828.276	0.0180837
828.354	0.0180637
828.433	0.0180930
828.511	0.0181326
828.589	0.0179446
828.667	0.0179634
828.745	0.0180218
828.823	0.0179281
828.901	0.0179359
828.979	0.0179563
829.058	0.0178398
829.136	0.0178664
829.214	0.0178093
829.292	0.0178299
829.370	0.0178965
829.448	0.0178822
829.526	0.0178735
829.604	0.0179579
829.683	0.0180553
829.761	0.0180547
829.839	0.0180627
829.917	0.0179549
829.995	0.0181631
830.073	0.0181867
830.151	0.0181537
830.229	0.0182366
830.308	0.0180921
830.386	0.0182178
830.464	0.0183308
830.542	0.0181870
830.620	0.0181700
830.698	0.0182652
830.776	0.0182370
830.854	0.0182393
830.933	0.0181378
831.011	0.0181929
831.089	0.0182222
831.167	0.0182034
831.245	0.0182892
831.323	0.0181892
831.401	0.0181763
831.479	0.0181564
831.558	0.0181166
831.636	0.0181529
831.714	0.0180927
831.792	0.0180875
831.870	0.0181692
831.948	0.0182484
832.026	0.0180067
832.104	0.0179874
832.183	0.0181030
832.261	0.0180468
832.339	0.0180963
832.417	0.0180405
832.495	0.0180540
832.573	0.0180600
832.651	0.0181225
832.729	0.0181083
832.808	0.0181833
832.886	0.0181554
832.964	0.0182269
833.042	0.0182513
833.120	0.0181973
833.198	0.0182560
833.276	0.0182101
833.354	0.0180293
833.433	0.0180672
833.511	0.0180507
833.589	0.0179795
833.667	0.0178313
833.745	0.0178872
833.823	0.0179719
833.901	0.0179446
833.979	0.0177792
834.058	0.0177467
834.136	0.0179347
834.214	0.0177795
834.292	0.0180585
834.370	0.0179124
834.448	0.0179140
834.526	0.0179346
834.604	0.0180792
834.683	0.0180890
834.761	0.0181088
834.839	0.0180931
834.917	0.0182289
834.995	0.0182697
835.073	0.0181888
835.151	0.0181779
835.229	0.0183900
835.308	0.0184286
835.386	0.0182035
835.464	0.0183064
835.542	0.0184058
835.620	0.0182548
835.698	0.0182011
835.776	0.0182819
835.854	0.0183557
835.933	0.0182959
836.011	0.0181157
836.089	0.0180621
836.167	0.0180062
836.245	0.0181896
836.323	0.0181870
836.401	0.0180482
836.479	0.0182267
836.558	0.0180931
836.636	0.0181327
836.714	0.0182339
836.792	0.0180972
836.870	0.0181345
836.948	0.0179314
837.026	0.0181080
837.104	0.0180258
837.183	0.0181006
837.261	0.0181207
837.339	0.0182166
837.417	0.0181911
837.495	0.0180585
837.573	0.0178645
837.651	0.0180356
837.729	0.0181154
837.808	0.0181013
837.886	0.0180521
837.964	0.0181853
838.042	0.0182274
838.120	0.0180506
838.198	0.0182705
838.276	0.0182280
838.354	0.0180256
838.433	0.0182564
838.511	0.0183251
838.589	0.0182388
838.667	0.0183691
838.745	0.0181652
838.823	0.0181917
838.901	0.0182686
838.979	0.0181779
839.058	0.0182090
839.136	0.0181985
839.214	0.0182114
839.292	0.0180970
839.370	0.0182298
839.448	0.0181002
839.526	0.0179755
839.604	0.0180466
839.683	0.0180238
839.761	0.0179069
839.839	0.0179755
839.917	0.0179310
839.995	0.0180331
840.073	0.0179284
840.151	0.0179417
840.229	0.0179383
840.308	0.0178001
840.386	0.0177574
840.464	0.0177627
840.542	0.0177666
840.620	0.0178908
840.698	0.0178009
840.776	0.0179686
840.854	0.0179827
840.933	0.0180597
841.011	0.0179640
841.089	0.0179829
841.167	0.0180865
841.245	0.0180592
841.323	0.0182232
841.401	0.0182140
841.479	0.0184008
841.558	0.0183581
841.636	0.0183498
841.714	0.0182307
841.792	0.0184222
841.870	0.0181115
841.948	0.0183086
842.026	0.0184264
842.104	0.0183344
842.183	0.0183273
842.261	0.0182504
842.339	0.0182036
842.417	0.0181651
842.495	0.0182832
842.573	0.0181791
842.651	0.0181120
842.729	0.0182082
842.808	0.0180374
842.886	0.0183059
842.964	0.0181203
843.042	0.0179819
843.120	0.0181085
843.198	0.0182214
843.276	0.0180092
843.354	0.0181254
843.433	0.0181439
843.511	0.0181258
843.589	0.0181897
843.667	0.0181953
843.745	0.0180958
843.823	0.0181255
843.901	0.0180880
843.979	0.0181578
844.058	0.0180574
844.136	0.0181608
844.214	0.0180305
844.292	0.0180125
844.370	0.0179797
844.448	0.0179449
844.526	0.0181187
844.604	0.0180882
844.683	0.0179720
844.761	0.0179523
844.839	0.0178987
844.917	0.0179742
844.995	0.0179270
845.073	0.0178477
845.151	0.0179810
845.229	0.0179321
845.308	0.0181155
845.386	0.0179365
845.464	0.0179802
845.542	0.0179262
845.620	0.0180965
845.698	0.0182278
845.776	0.0181113
845.854	0.0181326
845.933	0.0181335
846.011	0.0181850
846.089	0.0183542
846.167	0.0183448
846.245	0.0180894
846.323	0.0182310
846.401	0.0184060
846.479	0.0182509
846.558	0.0182689
846.636	0.0183355
846.714	0.0183070
846.792	0.0183750
846.870	0.0183698
846.948	0.0181422
847.026	0.0181824
847.104	0.0182098
847.183	0.0182375
847.261	0.0183402
847.339	0.0181848
847.417	0.0181320
847.495	0.0183099
847.573	0.0182088
847.651	0.0180957
847.729	0.0180086
847.808	0.0179337
847.886	0.0180396
847.964	0.0180590
848.042	0.0180654
848.120	0.0179097
848.198	0.0179410
848.276	0.0178624
848.354	0.0178520
848.433	0.0178590
848.511	0.0178812
848.589	0.0178687
848.667	0.0179826
848.745	0.0180748
848.823	0.0178011
848.901	0.0177340
848.979	0.0180522
849.058	0.0180116
849.136	0.0178998
849.214	0.0180293
849.292	0.0180611
849.370	0.0180699
849.448	0.0180406
849.526	0.0180247
849.604	0.0180621
849.683	0.0179794
849.761	0.0181453
849.839	0.0181122
849.917	0.0180518
849.995	0.0179475
850.073	0.0179534
850.151	0.0180958
850.229	0.0178960
850.308	0.0179234
850.386	0.0180917
850.464	0.0180734
850.542	0.0179059
850.620	0.0180363
850.698	0.0181531
850.776	0.0181584
850.854	0.0178789
850.933	0.0180545
851.011	0.0181244
851.089	0.0180464
851.167	0.0181184
851.245	0.0181696
851.323	0.0180872
851.401	0.0180662
851.479	0.0180994
851.558	0.0180830
851.636	0.0181910
851.714	0.0181091
851.792	0.0182165
851.870	0.0181641
851.948	0.0182926
852.026	0.0182952
852.104	0.0182665
852.183	0.0182396
852.261	0.0181655
852.339	0.0182728
852.417	0.0182069
852.495	0.0181795
852.573	0.0183307
852.651	0.0182417
852.729	0.0181497
852.808	0.0179974
852.886	0.0181760
852.964	0.0181523
853.042	0.0179889
853.120	0.0179504
853.198	0.0181049
853.276	0.0178796
853.354	0.0178888
853.433	0.0179316
853.511	0.0179361
853.589	0.0178508
853.667	0.0179504
853.745	0.0179615
853.823	0.0179861
853.901	0.0179044
853.979	0.0178889
854.058	0.0179176
854.136	0.0179301
854.214	0.0179559
854.292	0.0179897
854.370	0.0180411
854.448	0.0180163
854.526	0.0180931
854.604	0.0180689
854.683	0.0180548
854.761	0.0182838
854.839	0.0181724
854.917	0.0181315
854.995	0.0182201
855.073	0.0181724
855.151	0.0180925
855.229	0.0180988
855.308	0.0182577
855.386	0.0182738
855.464	0.0182698
855.542	0.0181651
855.620	0.0181984
855.698	0.0181543
855.776	0.0181494
855.854	0.0181330
855.933	0.0181423
856.011	0.0181277
856.089	0.0181126
856.167	0.0180278
856.245	0.0181628
856.323	0.0181005
856.401	0.0179781
856.479	0.0180589
856.558	0.0181744
856.636	0.0180875
856.714	0.0180503
856.792	0.0181950
856.870	0.0180939
856.948	0.0180659
857.026	0.0180470
857.104	0.0181510
857.183	0.0182037
857.261	0.0181947
857.339	0.0182475
857.417	0.0182548
857.495	0.0181220
857.573	0.0182963
857.651	0.0182516
857.729	0.0181723
857.808	0.0181430
857.886	0.0181994
857.964	0.0182384
858.042	0.0181976
858.120	0.0182262
858.198	0.0181743
858.276	0.0180849
858.354	0.0181075
858.433	0.0182078
858.511	0.0180309
858.589	0.0180909
858.667	0.0180309
858.745	0.0181165
858.823	0.0180962
858.901	0.0180741
858.979	0.0180216
859.058	0.0181239
859.136	0.0182722
859.214	0.0182086
859.292	0.0182076
859.370	0.0180981
859.448	0.0182603
859.526	0.0181639
859.604	0.0182152
859.683	0.0182607
859.761	0.0182996
859.839	0.0183630
859.917	0.0180958
859.995	0.0180702
860.073	0.0182442
860.151	0.0182903
860.229	0.0183479
860.308	0.0181369
860.386	0.0181123
860.464	0.0180807
860.542	0.0182743
860.620	0.0180524
860.698	0.0180161
860.776	0.0182179
860.854	0.0181065
860.933	0.0179996
861.011	0.0181876
861.089	0.0181210
861.167	0.0180994
861.245	0.0180751
861.323	0.0180706
861.401	0.0182601
861.479	0.0181055
861.558	0.0181583
861.636	0.0181432
861.714	0.0181353
861.792	0.0180466
861.870	0.0179240
861.948	0.0182001
862.026	0.0182417
862.104	0.0180072
862.183	0.0181313
862.261	0.0181406
862.339	0.0179465
862.417	0.0180134
862.495	0.0180435
862.573	0.0181603
862.651	0.0180479
862.729	0.0181011
862.808	0.0180080
862.886	0.0180704
862.964	0.0181376
863.042	0.0181342
863.120	0.0180800
863.198	0.0181925
863.276	0.0180492
863.354	0.0180556
863.433	0.0180749
863.511	0.0182133
863.589	0.0182552
863.667	0.0182230
863.745	0.0183076
863.823	0.0182330
863.901	0.0183730
863.979	0.0182917
864.058	0.0182085
864.136	0.0182178
864.214	0.0182191
864.292	0.0182616
864.370	0.0181381
864.448	0.0181200
864.526	0.0181864
864.604	0.0181609
864.683	0.0180091
864.761	0.0181352
864.839	0.0181139
864.917	0.0180618
864.995	0.0181039
865.073	0.0181899
865.151	0.0181316
865.229	0.0181993
865.308	0.0180596
865.386	0.0181133
865.464	0.0181454
865.542	0.0180943
865.620	0.0181792
865.698	0.0181606
865.776	0.0182210
865.854	0.0180624
865.933	0.0181647
866.011	0.0182513
866.089	0.0182911
866.167	0.0181638
866.245	0.0180957
866.323	0.0182574
866.401	0.0181979
866.479	0.0180726
866.558	0.0181046
866.636	0.0181426
866.714	0.0182330
866.792	0.0181207
866.870	0.0178876
866.948	0.0179405
867.026	0.0180930
867.104	0.0179868
867.183	0.0179305
867.261	0.0180231
867.339	0.0179913
867.417	0.0179156
867.495	0.0179566
867.573	0.0180418
867.651	0.0180473
867.729	0.0180238
867.808	0.0180602
867.886	0.0180653
867.964	0.0181959
868.042	0.0181586
868.120	0.0181023
868.198	0.0182458
868.276	0.0182662
868.354	0.0181870
868.433	0.0184073
868.511	0.0183601
868.589	0.0183130
868.667	0.0183807
868.745	0.0184032
868.823	0.0183544
868.901	0.0182404
868.979	0.0181492
869.058	0.0182001
869.136	0.0183314
869.214	0.0181700
869.292	0.0181529
869.370	0.0180669
869.448	0.0180318
869.526	0.0181803
869.604	0.0180202
869.683	0.0180544
869.761	0.0179402
869.839	0.0180135
869.917	0.0178972
869.995	0.0179967
870.073	0.0179786
870.151	0.0180041
870.229	0.0179201
870.308	0.0178585
870.386	0.0179454
870.464	0.0179526
870.542	0.0179857
870.620	0.0180873
870.698	0.0179395
870.776	0.0181120
870.854	0.0181814
870.933	0.0180565
871.011	0.0181135
871.089	0.0181931
871.167	0.0181950
871.245	0.0181792
871.323	0.0181575
871.401	0.0181474
871.479	0.0182221
871.558	0.0181194
871.636	0.0181537
871.714	0.0182639
871.792	0.0181806
871.870	0.0180795
871.948	0.0181372
872.026	0.0181688
872.104	0.0181981
872.183	0.0180065
872.261	0.0179597
872.339	0.0180583
872.417	0.0179929
872.495	0.0181585
872.573	0.0181551
872.651	0.0180383
872.729	0.0180695
872.808	0.0179179
872.886	0.0180968
872.964	0.0182287
873.042	0.0182082
873.120	0.0181299
873.198	0.0182321
873.276	0.0181250
873.354	0.0181230
873.433	0.0182718
873.511	0.0181168
873.589	0.0181699
873.667	0.0180382
873.745	0.0180505
873.823	0.0181959
873.901	0.0181420
873.979	0.0181219
874.058	0.0179884
874.136	0.0180894
874.214	0.0180037
874.292	0.0181497
874.370	0.0179813
874.448	0.0180099
874.526	0.0180232
874.604	0.0178971
874.683	0.0178310
874.761	0.0179179
874.839	0.0179314
874.917	0.0179619
874.995	0.0179618
875.073	0.0179337
875.151	0.0179230
875.229	0.0180106
875.308	0.0178490
875.386	0.0179159
875.464	0.0179598
875.542	0.0180398
875.620	0.0179904
875.698	0.0180339
875.776	0.0180305
875.854	0.0182088
875.933	0.0181459
876.011	0.0181422
876.089	0.0181825
876.167	0.0181572
876.245	0.0180775
876.323	0.0183374
876.401	0.0181319
876.479	0.0182330
876.558	0.0181690
876.636	0.0181258
876.714	0.0182050
876.792	0.0182292
876.870	0.0181083
876.948	0.0180898
877.026	0.0180466
877.104	0.0182365
877.183	0.0182217
877.261	0.0181258
877.339	0.0180728
877.417	0.0179888
877.495	0.0181877
877.573	0.0180478
877.651	0.0180556
877.729	0.0179763
877.808	0.0178841
877.886	0.0181151
877.964	0.0178534
878.042	0.0180586
878.120	0.0182130
878.198	0.0180099
878.276	0.0179991
878.354	0.0181172
878.433	0.0182022
878.511	0.0182082
878.589	0.0180550
878.667	0.0180883
878.745	0.0181866
878.823	0.0182146
878.901	0.0181483
878.979	0.0181609
879.058	0.0181786
879.136	0.0180290
879.214	0.0180905
879.292	0.0180766
879.370	0.0181393
879.448	0.0180598
879.526	0.0180412
879.604	0.0180624
879.683	0.0180598
879.761	0.0181239
879.839	0.0179594
879.917	0.0180235
879.995	0.0180351
880.073	0.0179673
880.151	0.0179700
880.229	0.0178469
880.308	0.0178804
880.386	0.0180947
880.464	0.0180843
880.542	0.0180683
880.620	0.0180403
880.698	0.0181309
880.776	0.0180836
880.854	0.0181001
880.933	0.0182846
881.011	0.0183153
881.089	0.0180915
881.167	0.0181920
881.245	0.0184655
881.323	0.0182693
881.401	0.0182104
881.479	0.0182851
881.558	0.0181846
881.636	0.0181589
881.714	0.0181536
881.792	0.0181832
881.870	0.0181068
881.948	0.0180955
882.026	0.0181120
882.104	0.0181161
882.183	0.0181317
882.261	0.0182144
882.339	0.0180009
882.417	0.0180544
882.495	0.0179859
882.573	0.0180246
882.651	0.0181233
882.729	0.0178748
882.808	0.0180450
882.886	0.0181274
882.964	0.0180237
883.042	0.0181217
883.120	0.0181151
883.198	0.0181791
883.276	0.0181008
883.354	0.0181271
883.433	0.0181673
883.511	0.0181452
883.589	0.0181588
883.667	0.0182026
883.745	0.0182122
883.823	0.0182496
883.901	0.0181904
883.979	0.0182388
884.058	0.0182617
884.136	0.0181222
884.214	0.0181200
884.292	0.0181496
884.370	0.0180782
884.448	0.0180997
884.526	0.0180075
884.604	0.0180374
884.683	0.0180293
884.761	0.0180518
884.839	0.0180711
884.917	0.0180348
884.995	0.0181194
885.073	0.0179919
885.151	0.0180560
885.229	0.0181929
885.308	0.0180779
885.386	0.0180653
885.464	0.0181661
885.542	0.0180993
885.620	0.0180432
885.698	0.0180649
885.776	0.0180872
885.854	0.0181499
885.933	0.0181792
886.011	0.0181541
886.089	0.0180650
886.167	0.0181767
886.245	0.0180618
886.323	0.0182429
886.401	0.0181734
886.479	0.0180717
886.558	0.0179595
886.636	0.0181281
886.714	0.0181125
886.792	0.0181167
886.870	0.0179047
886.948	0.0177660
887.026	0.0180148
887.104	0.0180642
887.183	0.0179010
887.261	0.0179546
887.339	0.0180221
887.417	0.0179224
887.495	0.0179592
887.573	0.0180279
887.651	0.0181054
887.729	0.0180967
887.808	0.0181487
887.886	0.0181569
887.964	0.0181826
888.042	0.0180850
888.120	0.0182435
888.198	0.0181261
888.276	0.0180668
888.354	0.0181991
888.433	0.0181696
888.511	0.0182459
888.589	0.0181350
888.667	0.0180552
888.745	0.0179713
888.823	0.0180472
888.901	0.0180082
888.979	0.0179286
889.058	0.0180589
889.136	0.0180931
889.214	0.0178895
889.292	0.0180322
889.370	0.0180599
889.448	0.0178625
889.526	0.0177803
889.604	0.0180875
889.683	0.0181251
889.761	0.0180527
889.839	0.0180323
889.917	0.0180692
889.995	0.0182771
890.073	0.0183237
890.151	0.0183496
890.229	0.0183537
890.308	0.0184341
890.386	0.0183546
890.464	0.0183390
890.542	0.0183875
890.620	0.0183546
890.698	0.0183613
890.776	0.0182973
890.854	0.0182199
890.933	0.0180392
891.011	0.0180135
891.089	0.0180290
891.167	0.0179359
891.245	0.0175894
891.323	0.0177092
891.401	0.0176638
891.479	0.0174744
891.558	0.0176904
891.636	0.0175365
891.714	0.0175571
891.792	0.0177404
891.870	0.0178704
891.948	0.0176502
892.026	0.0180183
892.104	0.0180669
892.183	0.0181999
892.261	0.0183721
892.339	0.0186019
892.417	0.0186234
892.495	0.0187574
892.573	0.0189434
892.651	0.0189198
892.729	0.0189456
892.808	0.0189786
892.886	0.0187634
892.964	0.0187432
893.042	0.0185526
893.120	0.0183370
893.198	0.0182394
893.276	0.0177971
893.354	0.0177715
893.433	0.0176001
893.511	0.0173614
893.589	0.0172459
893.667	0.0170766
893.745	0.0171065
893.823	0.0170785
893.901	0.0172252
893.979	0.0171355
894.058	0.0172692
894.136	0.0174197
894.214	0.0175524
894.292	0.0177380
894.370	0.0180087
894.448	0.0181614
894.526	0.0182436
894.604	0.0186342
894.683	0.0187248
894.761	0.0187275
894.839	0.0189413
894.917	0.0190038
894.995	0.0188412
895.073	0.0188220
895.151	0.0188157
895.229	0.0186535
895.308	0.0186259
895.386	0.0185188
895.464	0.0182745
895.542	0.0181611
895.620	0.0179742
895.698	0.0179402
895.776	0.0179823
895.854	0.0178275
895.933	0.0176610
896.011	0.0177098
896.089	0.0176461
896.167	0.0175849
896.245	0.0174844
896.323	0.0175668
896.401	0.0174467
896.479	0.0173742
896.558	0.0176816
896.636	0.0177375
896.714	0.0177767
896.792	0.0178937
896.870	0.0177445
896.948	0.0180906
897.026	0.0182310
897.104	0.0183999
897.183	0.0185101
897.261	0.0185563
897.339	0.0186281
897.417	0.0185418
897.495	0.0187074
897.573	0.0187070
897.651	0.0185716
897.729	0.0185995
897.808	0.0183626
897.886	0.0181937
897.964	0.0181544
898.042	0.0181525
898.120	0.0179284
898.198	0.0177832
898.276	0.0177919
898.354	0.0178413
898.433	0.0176214
898.511	0.0175315
898.589	0.0175391
898.667	0.0174310
898.745	0.0174932
898.823	0.0175893
898.901	0.0174403
898.979	0.0174584
899.058	0.0176801
899.136	0.0175581
899.214	0.0176885
899.292	0.0178473
899.370	0.0179400
899.448	0.0180570
899.526	0.0181394
899.604	0.0183905
899.683	0.0185310
899.761	0.0183267
899.839	0.0184887
899.917	0.0185031
899.995	0.0184681
900.073	0.0186198
900.151	0.0186501
900.229	0.0186105
900.308	0.0185881
900.386	0.0184914
900.464	0.0187100
900.542	0.0182851
900.620	0.0180972
900.698	0.0182304
900.776	0.0180780
900.854	0.0180576
900.933	0.0178804
901.011	0.0178075
901.089	0.0176479
901.167	0.0176398
901.245	0.0176139
901.323	0.0175549
901.401	0.0175006
901.479	0.0175700
901.558	0.0175527
901.636	0.0175143
901.714	0.0175778
901.792	0.0176990
901.870	0.0178635
901.948	0.0178589
902.026	0.0178599
902.104	0.0180280
902.183	0.0181696
902.261	0.0182026
902.339	0.0183361
902.417	0.0182724
902.495	0.0182320
902.573	0.0183772
902.651	0.0183709
902.729	0.0183015
902.808	0.0183770
902.886	0.0182364
902.964	0.0182072
903.042	0.0181419
903.120	0.0180088
903.198	0.0179604
903.276	0.0178484
903.354	0.0178859
903.433	0.0178549
903.511	0.0177205
903.589	0.0177953
903.667	0.0177982
903.745	0.0178729
903.823	0.0177879
903.901	0.0177031
903.979	0.0178476
904.058	0.0178684
904.136	0.0178255
904.214	0.0179987
904.292	0.0180105
904.370	0.0179595
904.448	0.0179842
904.526	0.0181059
904.604	0.0181937
904.683	0.0183109
904.761	0.0182247
904.839	0.0183262
904.917	0.0183323
904.995	0.0183578
905.073	0.0182644
905.151	0.0182001
905.229	0.0183060
905.308	0.0183009
905.386	0.0182224
905.464	0.0180791
905.542	0.0181104
905.620	0.0180112
905.698	0.0179211
905.776	0.0178587
905.854	0.0179002
905.933	0.0178079
906.011	0.0178663
906.089	0.0178201
906.167	0.0179595
906.245	0.0178001
906.323	0.0177529
906.401	0.0179462
906.479	0.0179626
906.558	0.0180173
906.636	0.0179439
906.714	0.0180680
906.792	0.0181089
906.870	0.0181069
906.948	0.0181474
907.026	0.0180824
907.104	0.0180244
907.183	0.0181702
907.261	0.0181568
907.339	0.0179875
907.417	0.0180858
907.495	0.0180839
907.573	0.0180893
907.651	0.0180607
907.729	0.0180380
907.808	0.0180389
907.886	0.0181382
907.964	0.0181130
908.042	0.0181490
908.120	0.0180485
908.198	0.0181870
908.276	0.0182209
908.354	0.0181307
908.433	0.0182025
908.511	0.0183081
908.589	0.0181062
908.667	0.0181454
908.745	0.0181292
908.823	0.0181310
908.901	0.0180250
908.979	0.0180138
909.058	0.0180160
909.136	0.0179599
909.214	0.0179387
909.292	0.0178664
909.370	0.0180617
909.448	0.0178246
909.526	0.0177323
909.604	0.0177016
909.683	0.0178085
909.761	0.0178289
909.839	0.0177997
909.917	0.0177574
909.995	0.0178066
910.073	0.0178231
910.151	0.0178242
910.229	0.0178619
910.308	0.0179006
910.386	0.0179402
910.464	0.0180869
910.542	0.0180159
910.620	0.0180434
910.698	0.0180503
910.776	0.0182939
910.854	0.0183862
910.933	0.0182137
911.011	0.0183551
911.089	0.0184069
911.167	0.0184135
911.245	0.0183721
911.323	0.0183797
911.401	0.0183659
911.479	0.0183015
911.558	0.0182660
911.636	0.0181798
911.714	0.0180724
911.792	0.0181289
911.870	0.0181568
911.948	0.0180627
912.026	0.0180883
912.104	0.0179375
912.183	0.0179314
912.261	0.0179495
912.339	0.0178922
912.417	0.0176882
912.495	0.0178906
912.573	0.0178999
912.651	0.0179059
912.729	0.0179295
912.808	0.0178905
912.886	0.0178955
912.964	0.0181062
913.042	0.0181684
913.120	0.0180857
913.198	0.0181059
913.276	0.0180823
913.354	0.0181390
913.433	0.0182343
913.511	0.0181867
913.589	0.0182603
913.667	0.0182661
913.745	0.0182650
913.823	0.0182412
913.901	0.0181602
913.979	0.0181981
914.058	0.0181979
914.136	0.0180576
914.214	0.0180961
914.292	0.0180789
914.370	0.0181483
914.448	0.0180059
914.526	0.0178944
914.604	0.0180186
914.683	0.0180805
914.761	0.0179253
914.839	0.0179337
914.917	0.0179866
914.995	0.0180843
915.073	0.0180588
915.151	0.0179329
915.229	0.0179458
915.308	0.0180016
915.386	0.0183272
915.464	0.0182272
915.542	0.0182117
915.620	0.0182607
915.698	0.0183727
915.776	0.0181017
915.854	0.0182039
915.933	0.0182319
916.011	0.0182067
916.089	0.0182328
916.167	0.0181661
916.245	0.0180403
916.323	0.0181106
916.401	0.0182100
916.479	0.0182828
916.558	0.0181483
916.636	0.0180573
916.714	0.0181387
916.792	0.0181113
916.870	0.0179483
916.948	0.0179620
917.026	0.0180855
917.104	0.0180965
917.183	0.0179594
917.261	0.0179948
917.339	0.0181235
917.417	0.0179698
917.495	0.0180462
917.573	0.0180061
917.651	0.0180357
917.729	0.0180865
917.808	0.0181847
917.886	0.0182542
917.964	0.0182540
918.042	0.0182758
918.120	0.0182694
918.198	0.0182844
918.276	0.0184138
918.354	0.0182046
918.433	0.0182310
918.511	0.0183680
918.589	0.0183340
918.667	0.0180309
918.745	0.0180641
918.823	0.0179662
918.901	0.0181041
918.979	0.0180089
919.058	0.0179720
919.136	0.0179112
919.214	0.0181004
919.292	0.0178724
919.370	0.0178480
919.448	0.0179663
919.526	0.0179200
919.604	0.0178418
919.683	0.0178135
919.761	0.0179451
919.839	0.0178995
919.917	0.0179286
