06/03/2022	18:08:58	Ver.	4.1	UNKNOWN
Optical Delay	599.995081	Delta X		0.078125	Sweeps	1	Scan Rate	0/0
Coordinates	Axis 1	NaN	Axis 2	NaN	Axis 3	NaN	Axis 4	NaN	Axis 5	NaN	Axis 6	0.000000
TX Power	0.000000	RX Power	0.000000

599.995	0.0179922
600.073	0.0180769
600.151	0.0180799
600.229	0.0181515
600.308	0.0180719
600.386	0.0180589
600.464	0.0179488
600.542	0.0179842
600.620	0.0179442
600.698	0.0180141
600.776	0.0178999
600.854	0.0180014
600.933	0.0181371
601.011	0.0180248
601.089	0.0178898
601.167	0.0180332
601.245	0.0180240
601.323	0.0180656
601.401	0.0179876
601.479	0.0180550
601.558	0.0180410
601.636	0.0180700
601.714	0.0180487
601.792	0.0181235
601.870	0.0179068
601.948	0.0179456
602.026	0.0179800
602.104	0.0179993
602.183	0.0179910
602.261	0.0179888
602.339	0.0179845
602.417	0.0179005
602.495	0.0181171
602.573	0.0180941
602.651	0.0180349
602.729	0.0180640
602.808	0.0181698
602.886	0.0180576
602.964	0.0180939
603.042	0.0182481
603.120	0.0180822
603.198	0.0179863
603.276	0.0179018
603.354	0.0181207
603.433	0.0181470
603.511	0.0180921
603.589	0.0181976
603.667	0.0179579
603.745	0.0182089
603.823	0.0180683
603.901	0.0180725
603.979	0.0180081
604.058	0.0179428
604.136	0.0179393
604.214	0.0180532
604.292	0.0180654
604.370	0.0181365
604.448	0.0181317
604.526	0.0178356
604.604	0.0179137
604.683	0.0180492
604.761	0.0179975
604.839	0.0181046
604.917	0.0180167
604.995	0.0179475
605.073	0.0180680
605.151	0.0178539
605.229	0.0180121
605.308	0.0180908
605.386	0.0180296
605.464	0.0180084
605.542	0.0179804
605.620	0.0180347
605.698	0.0182175
605.776	0.0179719
605.854	0.0180621
605.933	0.0180380
606.011	0.0181216
606.089	0.0179378
606.167	0.0181209
606.245	0.0179877
606.323	0.0182004
606.401	0.0179888
606.479	0.0180256
606.558	0.0179805
606.636	0.0180859
606.714	0.0179256
606.792	0.0178373
606.870	0.0180292
606.948	0.0180870
607.026	0.0180647
607.104	0.0179855
607.183	0.0179742
607.261	0.0182124
607.339	0.0180288
607.417	0.0180376
607.495	0.0181622
607.573	0.0180383
607.651	0.0178836
607.729	0.0180279
607.808	0.0180695
607.886	0.0179771
607.964	0.0178808
608.042	0.0180830
608.120	0.0180307
608.198	0.0180586
608.276	0.0180797
608.354	0.0180784
608.433	0.0180756
608.511	0.0181645
608.589	0.0179685
608.667	0.0179311
608.745	0.0179890
608.823	0.0179113
608.901	0.0182391
608.979	0.0181332
609.058	0.0180953
609.136	0.0181307
609.214	0.0179346
609.292	0.0180336
609.370	0.0181456
609.448	0.0179688
609.526	0.0180949
609.604	0.0180490
609.683	0.0179969
609.761	0.0181395
609.839	0.0180717
609.917	0.0179310
609.995	0.0180161
610.073	0.0181364
610.151	0.0180876
610.229	0.0180649
610.308	0.0180761
610.386	0.0179190
610.464	0.0181190
610.542	0.0180786
610.620	0.0179121
610.698	0.0180618
610.776	0.0180949
610.854	0.0179846
610.933	0.0181286
611.011	0.0181684
611.089	0.0178970
611.167	0.0180969
611.245	0.0180003
611.323	0.0179635
611.401	0.0181056
611.479	0.0181734
611.558	0.0179493
611.636	0.0179664
611.714	0.0180731
611.792	0.0181004
611.870	0.0180605
611.948	0.0179839
612.026	0.0180064
612.104	0.0180422
612.183	0.0179478
612.261	0.0181849
612.339	0.0181038
612.417	0.0180376
612.495	0.0180818
612.573	0.0179816
612.651	0.0179916
612.729	0.0180336
612.808	0.0181351
612.886	0.0180537
612.964	0.0181030
613.042	0.0180181
613.120	0.0180166
613.198	0.0180976
613.276	0.0180659
613.354	0.0182063
613.433	0.0180183
613.511	0.0180074
613.589	0.0180869
613.667	0.0179692
613.745	0.0180766
613.823	0.0179144
613.901	0.0179542
613.979	0.0182172
614.058	0.0180968
614.136	0.0178755
614.214	0.0179466
614.292	0.0180049
614.370	0.0180548
614.448	0.0180402
614.526	0.0180994
614.604	0.0179867
614.683	0.0180604
614.761	0.0181883
614.839	0.0180532
614.917	0.0180677
614.995	0.0179429
615.073	0.0180583
615.151	0.0181229
615.229	0.0179691
615.308	0.0179427
615.386	0.0179683
615.464	0.0180994
615.542	0.0181033
615.620	0.0179697
615.698	0.0181039
615.776	0.0180737
615.854	0.0178830
615.933	0.0179939
616.011	0.0180016
616.089	0.0180369
616.167	0.0181116
616.245	0.0182241
616.323	0.0181215
616.401	0.0181286
616.479	0.0180651
616.558	0.0179146
616.636	0.0179778
616.714	0.0179965
616.792	0.0179999
616.870	0.0179120
616.948	0.0180800
617.026	0.0181306
617.104	0.0180153
617.183	0.0179253
617.261	0.0179933
617.339	0.0180631
617.417	0.0179878
617.495	0.0180367
617.573	0.0179135
617.651	0.0179749
617.729	0.0181090
617.808	0.0180035
617.886	0.0179208
617.964	0.0180568
618.042	0.0179964
618.120	0.0179746
618.198	0.0179161
618.276	0.0180779
618.354	0.0180036
618.433	0.0179515
618.511	0.0180511
618.589	0.0179432
618.667	0.0180344
618.745	0.0180798
618.823	0.0180843
618.901	0.0179920
618.979	0.0179862
619.058	0.0180052
619.136	0.0181231
619.214	0.0179633
619.292	0.0181752
619.370	0.0180707
619.448	0.0181343
619.526	0.0179345
619.604	0.0179459
619.683	0.0180186
619.761	0.0179882
619.839	0.0179913
619.917	0.0180163
619.995	0.0180543
620.073	0.0180838
620.151	0.0179930
620.229	0.0180773
620.308	0.0179887
620.386	0.0180401
620.464	0.0180357
620.542	0.0180452
620.620	0.0181939
620.698	0.0179399
620.776	0.0180886
620.854	0.0179511
620.933	0.0179774
621.011	0.0181039
621.089	0.0180839
621.167	0.0181897
621.245	0.0181580
621.323	0.0180142
621.401	0.0180820
621.479	0.0182075
621.558	0.0179911
621.636	0.0181482
621.714	0.0179742
621.792	0.0181377
621.870	0.0181077
621.948	0.0180362
622.026	0.0179443
622.104	0.0181210
622.183	0.0180099
622.261	0.0180022
622.339	0.0179241
622.417	0.0179442
622.495	0.0179140
622.573	0.0180118
622.651	0.0179821
622.729	0.0180031
622.808	0.0180233
622.886	0.0179156
622.964	0.0179557
623.042	0.0179066
623.120	0.0179910
623.198	0.0178770
623.276	0.0179830
623.354	0.0180239
623.433	0.0179202
623.511	0.0179735
623.589	0.0179927
623.667	0.0179806
623.745	0.0180324
623.823	0.0180899
623.901	0.0180993
623.979	0.0180647
624.058	0.0180907
624.136	0.0180420
624.214	0.0181059
624.292	0.0181433
624.370	0.0181592
624.448	0.0180212
624.526	0.0181286
624.604	0.0181078
624.683	0.0178166
624.761	0.0178721
624.839	0.0180769
624.917	0.0180700
624.995	0.0180180
625.073	0.0180090
625.151	0.0179697
625.229	0.0179041
625.308	0.0179965
625.386	0.0179913
625.464	0.0178835
625.542	0.0178361
625.620	0.0179935
625.698	0.0179071
625.776	0.0181227
625.854	0.0179351
625.933	0.0180836
626.011	0.0180711
626.089	0.0180042
626.167	0.0180852
626.245	0.0179562
626.323	0.0180255
626.401	0.0179887
626.479	0.0180991
626.558	0.0181170
626.636	0.0180889
626.714	0.0180438
626.792	0.0180109
626.870	0.0179836
626.948	0.0181744
627.026	0.0180714
627.104	0.0180860
627.183	0.0180009
627.261	0.0179709
627.339	0.0179980
627.417	0.0180860
627.495	0.0180682
627.573	0.0180895
627.651	0.0180074
627.729	0.0180843
627.808	0.0179586
627.886	0.0178705
627.964	0.0179327
628.042	0.0179612
628.120	0.0178973
628.198	0.0180302
628.276	0.0179867
628.354	0.0179761
628.433	0.0178616
628.511	0.0181123
628.589	0.0180566
628.667	0.0180714
628.745	0.0180954
628.823	0.0180388
628.901	0.0179537
628.979	0.0180103
629.058	0.0180673
629.136	0.0180409
629.214	0.0179790
629.292	0.0180148
629.370	0.0180950
629.448	0.0182340
629.526	0.0180239
629.604	0.0181225
629.683	0.0180959
629.761	0.0179396
629.839	0.0179716
629.917	0.0180851
629.995	0.0179330
630.073	0.0180686
630.151	0.0180167
630.229	0.0179183
630.308	0.0181674
630.386	0.0181451
630.464	0.0180496
630.542	0.0179568
630.620	0.0180060
630.698	0.0181183
630.776	0.0180431
630.854	0.0179684
630.933	0.0179395
631.011	0.0180956
631.089	0.0179901
631.167	0.0180429
631.245	0.0180201
631.323	0.0180671
631.401	0.0181444
631.479	0.0179720
631.558	0.0180683
631.636	0.0180788
631.714	0.0179858
631.792	0.0179919
631.870	0.0181772
631.948	0.0181058
632.026	0.0180378
632.104	0.0179547
632.183	0.0180668
632.261	0.0181117
632.339	0.0180503
632.417	0.0179990
632.495	0.0179419
632.573	0.0180727
632.651	0.0181636
632.729	0.0180536
632.808	0.0180221
632.886	0.0179067
632.964	0.0180872
633.042	0.0182276
633.120	0.0179873
633.198	0.0179227
633.276	0.0179948
633.354	0.0181431
633.433	0.0181003
633.511	0.0181479
633.589	0.0179736
633.667	0.0180672
633.745	0.0181081
633.823	0.0180499
633.901	0.0179832
633.979	0.0180249
634.058	0.0180407
634.136	0.0180485
634.214	0.0181100
634.292	0.0180582
634.370	0.0180712
634.448	0.0180884
634.526	0.0180188
634.604	0.0180366
634.683	0.0181060
634.761	0.0180905
634.839	0.0180843
634.917	0.0180893
634.995	0.0178891
635.073	0.0180026
635.151	0.0181622
635.229	0.0180091
635.308	0.0180596
635.386	0.0179102
635.464	0.0179112
635.542	0.0180554
635.620	0.0181211
635.698	0.0180389
635.776	0.0179210
635.854	0.0179747
635.933	0.0180736
636.011	0.0180238
636.089	0.0180328
636.167	0.0179851
636.245	0.0180793
636.323	0.0179776
636.401	0.0181153
636.479	0.0180534
636.558	0.0180353
636.636	0.0179754
636.714	0.0179959
636.792	0.0181314
636.870	0.0179567
636.948	0.0178590
637.026	0.0181053
637.104	0.0180146
637.183	0.0179536
637.261	0.0179315
637.339	0.0179971
637.417	0.0180637
637.495	0.0180313
637.573	0.0180856
637.651	0.0180122
637.729	0.0180711
637.808	0.0180521
637.886	0.0179883
637.964	0.0180342
638.042	0.0181848
638.120	0.0180697
638.198	0.0180309
638.276	0.0180698
638.354	0.0180641
638.433	0.0180011
638.511	0.0180183
638.589	0.0179567
638.667	0.0180890
638.745	0.0181367
638.823	0.0180926
638.901	0.0180312
638.979	0.0180117
639.058	0.0179675
639.136	0.0180702
639.214	0.0180271
639.292	0.0181318
639.370	0.0180659
639.448	0.0180016
639.526	0.0180508
639.604	0.0179511
639.683	0.0180817
639.761	0.0181046
639.839	0.0180290
639.917	0.0180192
639.995	0.0178934
640.073	0.0180608
640.151	0.0180106
640.229	0.0180042
640.308	0.0182175
640.386	0.0181142
640.464	0.0181993
640.542	0.0180672
640.620	0.0180683
640.698	0.0180972
640.776	0.0178566
640.854	0.0181160
640.933	0.0180722
641.011	0.0179159
641.089	0.0180867
641.167	0.0180746
641.245	0.0180565
641.323	0.0180935
641.401	0.0180889
641.479	0.0179853
641.558	0.0181316
641.636	0.0181062
641.714	0.0180085
641.792	0.0180807
641.870	0.0181130
641.948	0.0181503
642.026	0.0178902
642.104	0.0180937
642.183	0.0181121
642.261	0.0178602
642.339	0.0179333
642.417	0.0180662
642.495	0.0180323
642.573	0.0180083
642.651	0.0180184
642.729	0.0180409
642.808	0.0179702
642.886	0.0180123
642.964	0.0180145
643.042	0.0178944
643.120	0.0180035
643.198	0.0181118
643.276	0.0181189
643.354	0.0180199
643.433	0.0181264
643.511	0.0181182
643.589	0.0180978
643.667	0.0180346
643.745	0.0181501
643.823	0.0180225
643.901	0.0181130
643.979	0.0181074
644.058	0.0180322
644.136	0.0180132
644.214	0.0180688
644.292	0.0181409
644.370	0.0180300
644.448	0.0181419
644.526	0.0181031
644.604	0.0180569
644.683	0.0181412
644.761	0.0179675
644.839	0.0181337
644.917	0.0180781
644.995	0.0181432
645.073	0.0179346
645.151	0.0180795
645.229	0.0181400
645.308	0.0180878
645.386	0.0178970
645.464	0.0180845
645.542	0.0180884
645.620	0.0181445
645.698	0.0180059
645.776	0.0179138
645.854	0.0180093
645.933	0.0180794
646.011	0.0180445
646.089	0.0180007
646.167	0.0179143
646.245	0.0179615
646.323	0.0180695
646.401	0.0180948
646.479	0.0179220
646.558	0.0180013
646.636	0.0179749
646.714	0.0179921
646.792	0.0180151
646.870	0.0182243
646.948	0.0180621
647.026	0.0180388
647.104	0.0178979
647.183	0.0181452
647.261	0.0180254
647.339	0.0181210
647.417	0.0180807
647.495	0.0181310
647.573	0.0180354
647.651	0.0178963
647.729	0.0179478
647.808	0.0179749
647.886	0.0179706
647.964	0.0180464
648.042	0.0180593
648.120	0.0180470
648.198	0.0181092
648.276	0.0180483
648.354	0.0181128
648.433	0.0180315
648.511	0.0180560
648.589	0.0180466
648.667	0.0180470
648.745	0.0181083
648.823	0.0180719
648.901	0.0180457
648.979	0.0179725
649.058	0.0181176
649.136	0.0179897
649.214	0.0180222
649.292	0.0180784
649.370	0.0181071
649.448	0.0178998
649.526	0.0181068
649.604	0.0180486
649.683	0.0180678
649.761	0.0180515
649.839	0.0179662
649.917	0.0179510
649.995	0.0181207
650.073	0.0180813
650.151	0.0179794
650.229	0.0180669
650.308	0.0179671
650.386	0.0179636
650.464	0.0180689
650.542	0.0181000
650.620	0.0179538
650.698	0.0179655
650.776	0.0180070
650.854	0.0180823
650.933	0.0180092
651.011	0.0181242
651.089	0.0179948
651.167	0.0180333
651.245	0.0181526
651.323	0.0179643
651.401	0.0179955
651.479	0.0180421
651.558	0.0180028
651.636	0.0181353
651.714	0.0180557
651.792	0.0180771
651.870	0.0180253
651.948	0.0181650
652.026	0.0179965
652.104	0.0181526
652.183	0.0180696
652.261	0.0180936
652.339	0.0180211
652.417	0.0180505
652.495	0.0181325
652.573	0.0180914
652.651	0.0180284
652.729	0.0182114
652.808	0.0179801
652.886	0.0178956
652.964	0.0179200
653.042	0.0181992
653.120	0.0180464
653.198	0.0180374
653.276	0.0180999
653.354	0.0179056
653.433	0.0180162
653.511	0.0180355
653.589	0.0180703
653.667	0.0180116
653.745	0.0180920
653.823	0.0180691
653.901	0.0180412
653.979	0.0181044
654.058	0.0179958
654.136	0.0179734
654.214	0.0180305
654.292	0.0179589
654.370	0.0180082
654.448	0.0180300
654.526	0.0180486
654.604	0.0179830
654.683	0.0180228
654.761	0.0179440
654.839	0.0180425
654.917	0.0180405
654.995	0.0180889
655.073	0.0179211
655.151	0.0180535
655.229	0.0181033
655.308	0.0180805
655.386	0.0180267
655.464	0.0180560
655.542	0.0180828
655.620	0.0180158
655.698	0.0180785
655.776	0.0181908
655.854	0.0180611
655.933	0.0180527
656.011	0.0181459
656.089	0.0180466
656.167	0.0180248
656.245	0.0180946
656.323	0.0179321
656.401	0.0180933
656.479	0.0180526
656.558	0.0181302
656.636	0.0181218
656.714	0.0181071
656.792	0.0180872
656.870	0.0178667
656.948	0.0179866
657.026	0.0180876
657.104	0.0181329
657.183	0.0180839
657.261	0.0180837
657.339	0.0180209
657.417	0.0180958
657.495	0.0180382
657.573	0.0181087
657.651	0.0180065
657.729	0.0180487
657.808	0.0180550
657.886	0.0180332
657.964	0.0178282
658.042	0.0180563
658.120	0.0181091
658.198	0.0180283
658.276	0.0181652
658.354	0.0179459
658.433	0.0179917
658.511	0.0180637
658.589	0.0180926
658.667	0.0181075
658.745	0.0180505
658.823	0.0181392
658.901	0.0181304
658.979	0.0180690
659.058	0.0179817
659.136	0.0179469
659.214	0.0179469
659.292	0.0179694
659.370	0.0180811
659.448	0.0180075
659.526	0.0180139
659.604	0.0179110
659.683	0.0181101
659.761	0.0179563
659.839	0.0180123
659.917	0.0180226
659.995	0.0179213
660.073	0.0180989
660.151	0.0180779
660.229	0.0180433
660.308	0.0180439
660.386	0.0180845
660.464	0.0179887
660.542	0.0180252
660.620	0.0180186
660.698	0.0179491
660.776	0.0180540
660.854	0.0181271
660.933	0.0181001
661.011	0.0180528
661.089	0.0180856
661.167	0.0180814
661.245	0.0179893
661.323	0.0180482
661.401	0.0180144
661.479	0.0180910
661.558	0.0181303
661.636	0.0180547
661.714	0.0181216
661.792	0.0180242
661.870	0.0181183
661.948	0.0181279
662.026	0.0180882
662.104	0.0180901
662.183	0.0180042
662.261	0.0181155
662.339	0.0180673
662.417	0.0180135
662.495	0.0180769
662.573	0.0180466
662.651	0.0179510
662.729	0.0180897
662.808	0.0179851
662.886	0.0180721
662.964	0.0180898
663.042	0.0179357
663.120	0.0180840
663.198	0.0181747
663.276	0.0180724
663.354	0.0179290
663.433	0.0181088
663.511	0.0180328
663.589	0.0182317
663.667	0.0180447
663.745	0.0181042
663.823	0.0180093
663.901	0.0181695
663.979	0.0178408
664.058	0.0180434
664.136	0.0180914
664.214	0.0180579
664.292	0.0182164
664.370	0.0181673
664.448	0.0181818
664.526	0.0180694
664.604	0.0180978
664.683	0.0180166
664.761	0.0180832
664.839	0.0181809
664.917	0.0181246
664.995	0.0180330
665.073	0.0180631
665.151	0.0180287
665.229	0.0179993
665.308	0.0181696
665.386	0.0180728
665.464	0.0180561
665.542	0.0180172
665.620	0.0182017
665.698	0.0180309
665.776	0.0180183
665.854	0.0181737
665.933	0.0180761
666.011	0.0180201
666.089	0.0179552
666.167	0.0179368
666.245	0.0180508
666.323	0.0181004
666.401	0.0180701
666.479	0.0180124
666.558	0.0180896
666.636	0.0181072
666.714	0.0180521
666.792	0.0179581
666.870	0.0181789
666.948	0.0180980
667.026	0.0179960
667.104	0.0180981
667.183	0.0180605
667.261	0.0180527
667.339	0.0180904
667.417	0.0179993
667.495	0.0181348
667.573	0.0179962
667.651	0.0180314
667.729	0.0181814
667.808	0.0179271
667.886	0.0180054
667.964	0.0181095
668.042	0.0178879
668.120	0.0179925
668.198	0.0182749
668.276	0.0181384
668.354	0.0179191
668.433	0.0180956
668.511	0.0181648
668.589	0.0180940
668.667	0.0181924
668.745	0.0179825
668.823	0.0181493
668.901	0.0181677
668.979	0.0179840
669.058	0.0181503
669.136	0.0181090
669.214	0.0181427
669.292	0.0180441
669.370	0.0180135
669.448	0.0180645
669.526	0.0181504
669.604	0.0181278
669.683	0.0181817
669.761	0.0180973
669.839	0.0180927
669.917	0.0180426
669.995	0.0180782
670.073	0.0179713
670.151	0.0180251
670.229	0.0180809
670.308	0.0180640
670.386	0.0180068
670.464	0.0179721
670.542	0.0180317
670.620	0.0180733
670.698	0.0180649
670.776	0.0179628
670.854	0.0181041
670.933	0.0181190
671.011	0.0181150
671.089	0.0180524
671.167	0.0180238
671.245	0.0180043
671.323	0.0181026
671.401	0.0182259
671.479	0.0179886
671.558	0.0180942
671.636	0.0179899
671.714	0.0182186
671.792	0.0181061
671.870	0.0179529
671.948	0.0180177
672.026	0.0180370
672.104	0.0181268
672.183	0.0180553
672.261	0.0180024
672.339	0.0181471
672.417	0.0179841
672.495	0.0179865
672.573	0.0180642
672.651	0.0180295
672.729	0.0179834
672.808	0.0181113
672.886	0.0179774
672.964	0.0180892
673.042	0.0180854
673.120	0.0180323
673.198	0.0180962
673.276	0.0181311
673.354	0.0180977
673.433	0.0183139
673.511	0.0180746
673.589	0.0180618
673.667	0.0180370
673.745	0.0180944
673.823	0.0181040
673.901	0.0179901
673.979	0.0182123
674.058	0.0181683
674.136	0.0179472
674.214	0.0180785
674.292	0.0181512
674.370	0.0179377
674.448	0.0180868
674.526	0.0180805
674.604	0.0181400
674.683	0.0181779
674.761	0.0181828
674.839	0.0181898
674.917	0.0179980
674.995	0.0181342
675.073	0.0182117
675.151	0.0181792
675.229	0.0180872
675.308	0.0180404
675.386	0.0180580
675.464	0.0179746
675.542	0.0179942
675.620	0.0180531
675.698	0.0180888
675.776	0.0180490
675.854	0.0180009
675.933	0.0179982
676.011	0.0180015
676.089	0.0179567
676.167	0.0180931
676.245	0.0180339
676.323	0.0180322
676.401	0.0180261
676.479	0.0180962
676.558	0.0181065
676.636	0.0180760
676.714	0.0179689
676.792	0.0180865
676.870	0.0180286
676.948	0.0179221
677.026	0.0180378
677.104	0.0181021
677.183	0.0179376
677.261	0.0179646
677.339	0.0180631
677.417	0.0178986
677.495	0.0180515
677.573	0.0180264
677.651	0.0179812
677.729	0.0180943
677.808	0.0181393
677.886	0.0180928
677.964	0.0180489
678.042	0.0180521
678.120	0.0181432
678.198	0.0181132
678.276	0.0182085
678.354	0.0180439
678.433	0.0181162
678.511	0.0181448
678.589	0.0181026
678.667	0.0181644
678.745	0.0182874
678.823	0.0181578
678.901	0.0181204
678.979	0.0181431
679.058	0.0181239
679.136	0.0181612
679.214	0.0182123
679.292	0.0180867
679.370	0.0182729
679.448	0.0181442
679.526	0.0180994
679.604	0.0180807
679.683	0.0180593
679.761	0.0180402
679.839	0.0181738
679.917	0.0180202
679.995	0.0180664
680.073	0.0182059
680.151	0.0181226
680.229	0.0181705
680.308	0.0183267
680.386	0.0180733
680.464	0.0182306
680.542	0.0181654
680.620	0.0180559
680.698	0.0181879
680.776	0.0181974
680.854	0.0180873
680.933	0.0181239
681.011	0.0181575
681.089	0.0181116
681.167	0.0180290
681.245	0.0182087
681.323	0.0182759
681.401	0.0182268
681.479	0.0181855
681.558	0.0180418
681.636	0.0182151
681.714	0.0182124
681.792	0.0181049
681.870	0.0181773
681.948	0.0183049
682.026	0.0181606
682.104	0.0181511
682.183	0.0181214
682.261	0.0181080
682.339	0.0182126
682.417	0.0181194
682.495	0.0182948
682.573	0.0181147
682.651	0.0181449
682.729	0.0180271
682.808	0.0182452
682.886	0.0181458
682.964	0.0181058
683.042	0.0181495
683.120	0.0182442
683.198	0.0180933
683.276	0.0181370
683.354	0.0181503
683.433	0.0182021
683.511	0.0181815
683.589	0.0181530
683.667	0.0180574
683.745	0.0180925
683.823	0.0181721
683.901	0.0181579
683.979	0.0181876
684.058	0.0180367
684.136	0.0181707
684.214	0.0182955
684.292	0.0182020
684.370	0.0181137
684.448	0.0179737
684.526	0.0180924
684.604	0.0180944
684.683	0.0182385
684.761	0.0180259
684.839	0.0180775
684.917	0.0180157
684.995	0.0181368
685.073	0.0180973
685.151	0.0181804
685.229	0.0180939
685.308	0.0181051
685.386	0.0181023
685.464	0.0180627
685.542	0.0179671
685.620	0.0181145
685.698	0.0182545
685.776	0.0180452
685.854	0.0180219
685.933	0.0181185
686.011	0.0181028
686.089	0.0180384
686.167	0.0180675
686.245	0.0180902
686.323	0.0180463
686.401	0.0180140
686.479	0.0181615
686.558	0.0181213
686.636	0.0180051
686.714	0.0180430
686.792	0.0180546
686.870	0.0180709
686.948	0.0180733
687.026	0.0180613
687.104	0.0181271
687.183	0.0181961
687.261	0.0181015
687.339	0.0180300
687.417	0.0180785
687.495	0.0179869
687.573	0.0180486
687.651	0.0182146
687.729	0.0181561
687.808	0.0179195
687.886	0.0180179
687.964	0.0181945
688.042	0.0181760
688.120	0.0181481
688.198	0.0179687
688.276	0.0180148
688.354	0.0179993
688.433	0.0180450
688.511	0.0179781
688.589	0.0180803
688.667	0.0179543
688.745	0.0180805
688.823	0.0181062
688.901	0.0180119
688.979	0.0180482
689.058	0.0179854
689.136	0.0179835
689.214	0.0181708
689.292	0.0181252
689.370	0.0179554
689.448	0.0179811
689.526	0.0181044
689.604	0.0180774
689.683	0.0181211
689.761	0.0179751
689.839	0.0180122
689.917	0.0178515
689.995	0.0180521
690.073	0.0179737
690.151	0.0179509
690.229	0.0181013
690.308	0.0180560
690.386	0.0178409
690.464	0.0180139
690.542	0.0180809
690.620	0.0180106
690.698	0.0179104
690.776	0.0179694
690.854	0.0180164
690.933	0.0180001
691.011	0.0180107
691.089	0.0180490
691.167	0.0181047
691.245	0.0181503
691.323	0.0180671
691.401	0.0178612
691.479	0.0181436
691.558	0.0180320
691.636	0.0180275
691.714	0.0180047
691.792	0.0179517
691.870	0.0180920
691.948	0.0181027
692.026	0.0180580
692.104	0.0181320
692.183	0.0180667
692.261	0.0179853
692.339	0.0180077
692.417	0.0179360
692.495	0.0181185
692.573	0.0181351
692.651	0.0179655
692.729	0.0181512
692.808	0.0179881
692.886	0.0179563
692.964	0.0180822
693.042	0.0179430
693.120	0.0180559
693.198	0.0179872
693.276	0.0179353
693.354	0.0179626
693.433	0.0180443
693.511	0.0180045
693.589	0.0179607
693.667	0.0179723
693.745	0.0180974
693.823	0.0180240
693.901	0.0179906
693.979	0.0180641
694.058	0.0181969
694.136	0.0181847
694.214	0.0181525
694.292	0.0181288
694.370	0.0180389
694.448	0.0180672
694.526	0.0180240
694.604	0.0179350
694.683	0.0179338
694.761	0.0179730
694.839	0.0179327
694.917	0.0179755
694.995	0.0181024
695.073	0.0182354
695.151	0.0181738
695.229	0.0181245
695.308	0.0182722
695.386	0.0184317
695.464	0.0184668
695.542	0.0185177
695.620	0.0185582
695.698	0.0185175
695.776	0.0185068
695.854	0.0183674
695.933	0.0183711
696.011	0.0182761
696.089	0.0181312
696.167	0.0180454
696.245	0.0177084
696.323	0.0175628
696.401	0.0174174
696.479	0.0170415
696.558	0.0170251
696.636	0.0169515
696.714	0.0166507
696.792	0.0167843
696.870	0.0168485
696.948	0.0169882
697.026	0.0171439
697.104	0.0172898
697.183	0.0177171
697.261	0.0180055
697.339	0.0184236
697.417	0.0188687
697.495	0.0191745
697.573	0.0196211
697.651	0.0199095
697.729	0.0203072
697.808	0.0205187
697.886	0.0207224
697.964	0.0207223
698.042	0.0206216
698.120	0.0203810
698.198	0.0199854
698.276	0.0194528
698.354	0.0190121
698.433	0.0184789
698.511	0.0179577
698.589	0.0174237
698.667	0.0168432
698.745	0.0162309
698.823	0.0157887
698.901	0.0157571
698.979	0.0151601
699.058	0.0150667
699.136	0.0148130
699.214	0.0147701
699.292	0.0146999
699.370	0.0146402
699.448	0.0146763
699.526	0.0148240
699.604	0.0149827
699.683	0.0153336
699.761	0.0156264
699.839	0.0163175
699.917	0.0168890
699.995	0.0177686
700.073	0.0185372
700.151	0.0196736
700.229	0.0207665
700.308	0.0218557
700.386	0.0227303
700.464	0.0236895
700.542	0.0242967
700.620	0.0249500
700.698	0.0252568
700.776	0.0252383
700.854	0.0249469
700.933	0.0243620
701.011	0.0236259
701.089	0.0223780
701.167	0.0211340
701.245	0.0198650
701.323	0.0184477
701.401	0.0169008
701.479	0.0155627
701.558	0.0142936
701.636	0.0130453
701.714	0.0121565
701.792	0.0113812
701.870	0.0105173
701.948	0.00991470
702.026	0.00971336
702.104	0.00956360
702.183	0.00968994
702.261	0.0101316
702.339	0.0107847
702.417	0.0115539
702.495	0.0126118
702.573	0.0137135
702.651	0.0153114
702.729	0.0168771
702.808	0.0186136
702.886	0.0205103
702.964	0.0222645
703.042	0.0240486
703.120	0.0256920
703.198	0.0267377
703.276	0.0277232
703.354	0.0285056
703.433	0.0286806
703.511	0.0283881
703.589	0.0277050
703.667	0.0266891
703.745	0.0254320
703.823	0.0240782
703.901	0.0221930
703.979	0.0202895
704.058	0.0186149
704.136	0.0166461
704.214	0.0147467
704.292	0.0131960
704.370	0.0120126
704.448	0.0108834
704.526	0.00997086
704.604	0.00947731
704.683	0.00929596
704.761	0.00922859
704.839	0.00969734
704.917	0.00996216
704.995	0.0105911
705.073	0.0117262
705.151	0.0129211
705.229	0.0144344
705.308	0.0162318
705.386	0.0178862
705.464	0.0197854
705.542	0.0216441
705.620	0.0231291
705.698	0.0246592
705.776	0.0256724
705.854	0.0265420
705.933	0.0268063
706.011	0.0268746
706.089	0.0262813
706.167	0.0253263
706.245	0.0241302
706.323	0.0227847
706.401	0.0214709
706.479	0.0199546
706.558	0.0185185
706.636	0.0171262
706.714	0.0160264
706.792	0.0149761
706.870	0.0141364
706.948	0.0133581
707.026	0.0125433
707.104	0.0123289
707.183	0.0118475
707.261	0.0116241
707.339	0.0115697
707.417	0.0115163
707.495	0.0116924
707.573	0.0120644
707.651	0.0128037
707.729	0.0135830
707.808	0.0146046
707.886	0.0161980
707.964	0.0174633
708.042	0.0189439
708.120	0.0204056
708.198	0.0218722
708.276	0.0232779
708.354	0.0243600
708.433	0.0249609
708.511	0.0254608
708.589	0.0255823
708.667	0.0253578
708.745	0.0247456
708.823	0.0239967
708.901	0.0232062
708.979	0.0223306
709.058	0.0213345
709.136	0.0203420
709.214	0.0193713
709.292	0.0184524
709.370	0.0178504
709.448	0.0169556
709.526	0.0164585
709.604	0.0158922
709.683	0.0151967
709.761	0.0145689
709.839	0.0143562
709.917	0.0141509
709.995	0.0140274
710.073	0.0141587
710.151	0.0140574
710.229	0.0142944
710.308	0.0148735
710.386	0.0151182
710.464	0.0156859
710.542	0.0160751
710.620	0.0165727
710.698	0.0172150
710.776	0.0176187
710.854	0.0181979
710.933	0.0186784
711.011	0.0191142
711.089	0.0195811
711.167	0.0198567
711.245	0.0199538
711.323	0.0200850
711.401	0.0198878
711.479	0.0198016
711.558	0.0193797
711.636	0.0190803
711.714	0.0186974
711.792	0.0183057
711.870	0.0177623
711.948	0.0173943
712.026	0.0172182
712.104	0.0170419
712.183	0.0171170
712.261	0.0171265
712.339	0.0174010
712.417	0.0176872
712.495	0.0180029
712.573	0.0184090
712.651	0.0186036
712.729	0.0187781
712.808	0.0189563
712.886	0.0189725
712.964	0.0191258
713.042	0.0189886
713.120	0.0191700
713.198	0.0190820
713.276	0.0190573
713.354	0.0190880
713.433	0.0190242
713.511	0.0188651
713.589	0.0187006
713.667	0.0185941
713.745	0.0184740
713.823	0.0181290
713.901	0.0179399
713.979	0.0176953
714.058	0.0174011
714.136	0.0169859
714.214	0.0167115
714.292	0.0165179
714.370	0.0159866
714.448	0.0158160
714.526	0.0158639
714.604	0.0159644
714.683	0.0161634
714.761	0.0164558
714.839	0.0168399
714.917	0.0174361
714.995	0.0177551
715.073	0.0181552
715.151	0.0186092
715.229	0.0191189
715.308	0.0193859
715.386	0.0195209
715.464	0.0196257
715.542	0.0197269
715.620	0.0197910
715.698	0.0193380
715.776	0.0190874
715.854	0.0188725
715.933	0.0188123
716.011	0.0184381
716.089	0.0181151
716.167	0.0179969
716.245	0.0178127
716.323	0.0176035
716.401	0.0176757
716.479	0.0177272
716.558	0.0176989
716.636	0.0177070
716.714	0.0177248
716.792	0.0178629
716.870	0.0180102
716.948	0.0181258
717.026	0.0179698
717.104	0.0180366
717.183	0.0179633
717.261	0.0178984
717.339	0.0179877
717.417	0.0179292
717.495	0.0176965
717.573	0.0176580
717.651	0.0176375
717.729	0.0174911
717.808	0.0174916
717.886	0.0173968
717.964	0.0174934
718.042	0.0176060
718.120	0.0177136
718.198	0.0177714
718.276	0.0176667
718.354	0.0178304
718.433	0.0179877
718.511	0.0177866
718.589	0.0179008
718.667	0.0181641
718.745	0.0180415
718.823	0.0181600
718.901	0.0181284
718.979	0.0182292
719.058	0.0182673
719.136	0.0183830
719.214	0.0184344
719.292	0.0184425
719.370	0.0186356
719.448	0.0187035
719.526	0.0188321
719.604	0.0189052
719.683	0.0188203
719.761	0.0187846
719.839	0.0187162
719.917	0.0185338
719.995	0.0183466
720.073	0.0181993
720.151	0.0179743
720.229	0.0179071
720.308	0.0175269
720.386	0.0175576
720.464	0.0175668
720.542	0.0175611
720.620	0.0175152
720.698	0.0176852
720.776	0.0177779
720.854	0.0179239
720.933	0.0179687
721.011	0.0181346
721.089	0.0179845
721.167	0.0180224
721.245	0.0181989
721.323	0.0182507
721.401	0.0182066
721.479	0.0180663
721.558	0.0181951
721.636	0.0182127
721.714	0.0181481
721.792	0.0181939
721.870	0.0183028
721.948	0.0181459
722.026	0.0180360
722.104	0.0182173
722.183	0.0182607
722.261	0.0181749
722.339	0.0181035
722.417	0.0181490
722.495	0.0181120
722.573	0.0183195
722.651	0.0181099
722.729	0.0179993
722.808	0.0178966
722.886	0.0178933
722.964	0.0177448
723.042	0.0174420
723.120	0.0174497
723.198	0.0172816
723.276	0.0171983
723.354	0.0171282
723.433	0.0172330
723.511	0.0171678
723.589	0.0172186
723.667	0.0172303
723.745	0.0174273
723.823	0.0176086
723.901	0.0177441
723.979	0.0179198
724.058	0.0179564
724.136	0.0179839
724.214	0.0180744
724.292	0.0182088
724.370	0.0181927
724.448	0.0182680
724.526	0.0183026
724.604	0.0183893
724.683	0.0186328
724.761	0.0186897
724.839	0.0184673
724.917	0.0186646
724.995	0.0186588
725.073	0.0185789
725.151	0.0184090
725.229	0.0183067
725.308	0.0181848
725.386	0.0178882
725.464	0.0178944
725.542	0.0176576
725.620	0.0175060
725.698	0.0173640
725.776	0.0170796
725.854	0.0172276
725.933	0.0172543
726.011	0.0173390
726.089	0.0173508
726.167	0.0175182
726.245	0.0174955
726.323	0.0176665
726.401	0.0180963
726.479	0.0181929
726.558	0.0182431
726.636	0.0185291
726.714	0.0186102
726.792	0.0186520
726.870	0.0188327
726.948	0.0188711
727.026	0.0189000
727.104	0.0188608
727.183	0.0188613
727.261	0.0187366
727.339	0.0185824
727.417	0.0186630
727.495	0.0184349
727.573	0.0180529
727.651	0.0179079
727.729	0.0180066
727.808	0.0176009
727.886	0.0174258
727.964	0.0172304
728.042	0.0172031
728.120	0.0171785
728.198	0.0171199
728.276	0.0171072
728.354	0.0170852
728.433	0.0172224
728.511	0.0173529
728.589	0.0173434
728.667	0.0173224
728.745	0.0176653
728.823	0.0177567
728.901	0.0178639
728.979	0.0179100
729.058	0.0180793
729.136	0.0182204
729.214	0.0183323
729.292	0.0184696
729.370	0.0184586
729.448	0.0184695
729.526	0.0185569
729.604	0.0185493
729.683	0.0186192
729.761	0.0186216
729.839	0.0185870
729.917	0.0184391
729.995	0.0183881
730.073	0.0184546
730.151	0.0183695
730.229	0.0184653
730.308	0.0183459
730.386	0.0180957
730.464	0.0179472
730.542	0.0179706
730.620	0.0177997
730.698	0.0176479
730.776	0.0175214
730.854	0.0175533
730.933	0.0173751
731.011	0.0172043
731.089	0.0171992
731.167	0.0170514
731.245	0.0170354
731.323	0.0170699
731.401	0.0171526
731.479	0.0173052
731.558	0.0174885
731.636	0.0176677
731.714	0.0179518
731.792	0.0180435
731.870	0.0181857
731.948	0.0184154
732.026	0.0184559
732.104	0.0185677
732.183	0.0186707
732.261	0.0186638
732.339	0.0190218
732.417	0.0190826
732.495	0.0188924
732.573	0.0188963
732.651	0.0189297
732.729	0.0189251
732.808	0.0187876
732.886	0.0185787
732.964	0.0185084
733.042	0.0183829
733.120	0.0182475
733.198	0.0180041
733.276	0.0177876
733.354	0.0177628
733.433	0.0176293
733.511	0.0174180
733.589	0.0173087
733.667	0.0172163
733.745	0.0172079
733.823	0.0171976
733.901	0.0172311
733.979	0.0173055
734.058	0.0174182
734.136	0.0175591
734.214	0.0176449
734.292	0.0178168
734.370	0.0177898
734.448	0.0180742
734.526	0.0181622
734.604	0.0183569
734.683	0.0184695
734.761	0.0182446
734.839	0.0184971
734.917	0.0183854
734.995	0.0182951
735.073	0.0183835
735.151	0.0182922
735.229	0.0182388
735.308	0.0182349
735.386	0.0181584
735.464	0.0180786
735.542	0.0182148
735.620	0.0182653
735.698	0.0182529
735.776	0.0182470
735.854	0.0181815
735.933	0.0182574
736.011	0.0182551
736.089	0.0182021
736.167	0.0179895
736.245	0.0180241
736.323	0.0178412
736.401	0.0176840
736.479	0.0177837
736.558	0.0176782
736.636	0.0175090
736.714	0.0175056
736.792	0.0175282
736.870	0.0175905
736.948	0.0176012
737.026	0.0175736
737.104	0.0175348
737.183	0.0178006
737.261	0.0178957
737.339	0.0180488
737.417	0.0179990
737.495	0.0180293
737.573	0.0181783
737.651	0.0182555
737.729	0.0182250
737.808	0.0184049
737.886	0.0186328
737.964	0.0185847
738.042	0.0187067
738.120	0.0186124
738.198	0.0184599
738.276	0.0185867
738.354	0.0184427
738.433	0.0183728
738.511	0.0183313
738.589	0.0182151
738.667	0.0181942
738.745	0.0180044
738.823	0.0178346
738.901	0.0177363
738.979	0.0177135
739.058	0.0174866
739.136	0.0173848
739.214	0.0172586
739.292	0.0173730
739.370	0.0173993
739.448	0.0173415
739.526	0.0174375
739.604	0.0176542
739.683	0.0176157
739.761	0.0177772
739.839	0.0178588
739.917	0.0180585
739.995	0.0181877
740.073	0.0184095
740.151	0.0185353
740.229	0.0186504
740.308	0.0186407
740.386	0.0187114
740.464	0.0187377
740.542	0.0187380
740.620	0.0187789
740.698	0.0187539
740.776	0.0186295
740.854	0.0186456
740.933	0.0185717
741.011	0.0185498
741.089	0.0185443
741.167	0.0184371
741.245	0.0182816
741.323	0.0182932
741.401	0.0181763
741.479	0.0180216
741.558	0.0179500
741.636	0.0178494
741.714	0.0177409
741.792	0.0176799
741.870	0.0177569
741.948	0.0177717
742.026	0.0177767
742.104	0.0176926
742.183	0.0179076
742.261	0.0177989
742.339	0.0178205
742.417	0.0179498
742.495	0.0178575
742.573	0.0177996
742.651	0.0178944
742.729	0.0178925
742.808	0.0176777
742.886	0.0177288
742.964	0.0176016
743.042	0.0177444
743.120	0.0176488
743.198	0.0178043
743.276	0.0178215
743.354	0.0178179
743.433	0.0182074
743.511	0.0182230
743.589	0.0182289
743.667	0.0182747
743.745	0.0183771
743.823	0.0184191
743.901	0.0183733
743.979	0.0182499
744.058	0.0183415
744.136	0.0181000
744.214	0.0181924
744.292	0.0180386
744.370	0.0179002
744.448	0.0178405
744.526	0.0177482
744.604	0.0178984
744.683	0.0178261
744.761	0.0177452
744.839	0.0178790
744.917	0.0179393
744.995	0.0179205
745.073	0.0178887
745.151	0.0180352
745.229	0.0180968
745.308	0.0180465
745.386	0.0181121
745.464	0.0181799
745.542	0.0182626
745.620	0.0183852
745.698	0.0183577
745.776	0.0182588
745.854	0.0182705
745.933	0.0181898
746.011	0.0183457
746.089	0.0184637
746.167	0.0183358
746.245	0.0183784
746.323	0.0182870
746.401	0.0182320
746.479	0.0181763
746.558	0.0183337
746.636	0.0182570
746.714	0.0181443
746.792	0.0180897
746.870	0.0178615
746.948	0.0178552
747.026	0.0178531
747.104	0.0178475
747.183	0.0178043
747.261	0.0176888
747.339	0.0177470
747.417	0.0178558
747.495	0.0177354
747.573	0.0177618
747.651	0.0179205
747.729	0.0181416
747.808	0.0180613
747.886	0.0181612
747.964	0.0182810
748.042	0.0182264
748.120	0.0182490
748.198	0.0182617
748.276	0.0181496
748.354	0.0182697
748.433	0.0184049
748.511	0.0184069
748.589	0.0182676
748.667	0.0183331
748.745	0.0183492
748.823	0.0183180
748.901	0.0182627
748.979	0.0182545
749.058	0.0181282
749.136	0.0181962
749.214	0.0182086
749.292	0.0179979
749.370	0.0179384
749.448	0.0178616
749.526	0.0176580
749.604	0.0177370
749.683	0.0176007
749.761	0.0175827
749.839	0.0176350
749.917	0.0176898
749.995	0.0176439
750.073	0.0176468
750.151	0.0176841
750.229	0.0177528
750.308	0.0177798
750.386	0.0177824
750.464	0.0178907
750.542	0.0177671
750.620	0.0178136
750.698	0.0177952
750.776	0.0178155
750.854	0.0175651
750.933	0.0177635
751.011	0.0178745
751.089	0.0176196
751.167	0.0177168
751.245	0.0178885
751.323	0.0178753
751.401	0.0180116
751.479	0.0180318
751.558	0.0181444
751.636	0.0182629
751.714	0.0183576
751.792	0.0184454
751.870	0.0184319
751.948	0.0184219
752.026	0.0185132
752.104	0.0184151
752.183	0.0184946
752.261	0.0184351
752.339	0.0182966
752.417	0.0182101
752.495	0.0183490
752.573	0.0182372
752.651	0.0181590
752.729	0.0181751
752.808	0.0181499
752.886	0.0180615
752.964	0.0180700
753.042	0.0180663
753.120	0.0180232
753.198	0.0179461
753.276	0.0180340
753.354	0.0178381
753.433	0.0180037
753.511	0.0179197
753.589	0.0179451
753.667	0.0179857
753.745	0.0177038
753.823	0.0178464
753.901	0.0179316
753.979	0.0179691
754.058	0.0178491
754.136	0.0178484
754.214	0.0179021
754.292	0.0179524
754.370	0.0179232
754.448	0.0180128
754.526	0.0180093
754.604	0.0179284
754.683	0.0179779
754.761	0.0178533
754.839	0.0180003
754.917	0.0180328
754.995	0.0179303
755.073	0.0177781
755.151	0.0177898
755.229	0.0178226
755.308	0.0177929
755.386	0.0177594
755.464	0.0178710
755.542	0.0178854
755.620	0.0178562
755.698	0.0177905
755.776	0.0179356
755.854	0.0181107
755.933	0.0179545
756.011	0.0180133
756.089	0.0181083
756.167	0.0180978
756.245	0.0181519
756.323	0.0181277
756.401	0.0178928
756.479	0.0181721
756.558	0.0181749
756.636	0.0180536
756.714	0.0180827
756.792	0.0179954
756.870	0.0181421
756.948	0.0181933
757.026	0.0181462
757.104	0.0180186
757.183	0.0181710
757.261	0.0181992
757.339	0.0180811
757.417	0.0181011
757.495	0.0180758
757.573	0.0183098
757.651	0.0181606
757.729	0.0182940
757.808	0.0183496
757.886	0.0182245
757.964	0.0182029
758.042	0.0181351
758.120	0.0181716
758.198	0.0180340
758.276	0.0180096
758.354	0.0178831
758.433	0.0179564
758.511	0.0178719
758.589	0.0177533
758.667	0.0177088
758.745	0.0179070
758.823	0.0177477
758.901	0.0176954
758.979	0.0177608
759.058	0.0177864
759.136	0.0178636
759.214	0.0179735
759.292	0.0178954
759.370	0.0180221
759.448	0.0180934
759.526	0.0182456
759.604	0.0182875
759.683	0.0182460
759.761	0.0183010
759.839	0.0183994
759.917	0.0184219
759.995	0.0183109
760.073	0.0182494
760.151	0.0184672
760.229	0.0181792
760.308	0.0181950
760.386	0.0181052
760.464	0.0181208
760.542	0.0181120
760.620	0.0180711
760.698	0.0180514
760.776	0.0178810
760.854	0.0178682
760.933	0.0179630
761.011	0.0179402
761.089	0.0179599
761.167	0.0178811
761.245	0.0179520
761.323	0.0179801
761.401	0.0180342
761.479	0.0179346
761.558	0.0180695
761.636	0.0180118
761.714	0.0181030
761.792	0.0181140
761.870	0.0182125
761.948	0.0181389
762.026	0.0181559
762.104	0.0181360
762.183	0.0182263
762.261	0.0182366
762.339	0.0183216
762.417	0.0182715
762.495	0.0181447
762.573	0.0181075
762.651	0.0180984
762.729	0.0180772
762.808	0.0179261
762.886	0.0179768
762.964	0.0177728
763.042	0.0178601
763.120	0.0177330
763.198	0.0176221
763.276	0.0176467
763.354	0.0177883
763.433	0.0177001
763.511	0.0175470
763.589	0.0179554
763.667	0.0179953
763.745	0.0178114
763.823	0.0176566
763.901	0.0180081
763.979	0.0180198
764.058	0.0180496
764.136	0.0181024
764.214	0.0180841
764.292	0.0180514
764.370	0.0181004
764.448	0.0182571
764.526	0.0182926
764.604	0.0183714
764.683	0.0181805
764.761	0.0183784
764.839	0.0184180
764.917	0.0184313
764.995	0.0183635
765.073	0.0182874
765.151	0.0184341
765.229	0.0184194
765.308	0.0183242
765.386	0.0182685
765.464	0.0182754
765.542	0.0182701
765.620	0.0180580
765.698	0.0180403
765.776	0.0179946
765.854	0.0179991
765.933	0.0178384
766.011	0.0177617
766.089	0.0177613
766.167	0.0175624
766.245	0.0175975
766.323	0.0177200
766.401	0.0176634
766.479	0.0175542
766.558	0.0178004
766.636	0.0175563
766.714	0.0176555
766.792	0.0176568
766.870	0.0176959
766.948	0.0177972
767.026	0.0178270
767.104	0.0178609
767.183	0.0179792
767.261	0.0181618
767.339	0.0182281
767.417	0.0183829
767.495	0.0183967
767.573	0.0184905
767.651	0.0185541
767.729	0.0186169
767.808	0.0186806
767.886	0.0185583
767.964	0.0185972
768.042	0.0184604
768.120	0.0183019
768.198	0.0183339
768.276	0.0181918
768.354	0.0180437
768.433	0.0180912
768.511	0.0179835
768.589	0.0179978
768.667	0.0177447
768.745	0.0176575
768.823	0.0177094
768.901	0.0176573
768.979	0.0177713
769.058	0.0177039
769.136	0.0176894
769.214	0.0175990
769.292	0.0177631
769.370	0.0177835
769.448	0.0177626
769.526	0.0179247
769.604	0.0179252
769.683	0.0178622
769.761	0.0181505
769.839	0.0182129
769.917	0.0182343
769.995	0.0183985
770.073	0.0183762
770.151	0.0183755
770.229	0.0184223
770.308	0.0182671
770.386	0.0184097
770.464	0.0184252
770.542	0.0183332
770.620	0.0181613
770.698	0.0180935
770.776	0.0181628
770.854	0.0179218
770.933	0.0177433
771.011	0.0177959
771.089	0.0177926
771.167	0.0176779
771.245	0.0176329
771.323	0.0174352
771.401	0.0175075
771.479	0.0176256
771.558	0.0175022
771.636	0.0175932
771.714	0.0177147
771.792	0.0178619
771.870	0.0178192
771.948	0.0179156
772.026	0.0181269
772.104	0.0179910
772.183	0.0180866
772.261	0.0182949
772.339	0.0183376
772.417	0.0184940
772.495	0.0184275
772.573	0.0184692
772.651	0.0185912
772.729	0.0186192
772.808	0.0185626
772.886	0.0185767
772.964	0.0184658
773.042	0.0183409
773.120	0.0184656
773.198	0.0182742
773.276	0.0184383
773.354	0.0182508
773.433	0.0180232
773.511	0.0180543
773.589	0.0179923
773.667	0.0179953
773.745	0.0178976
773.823	0.0176521
773.901	0.0177389
773.979	0.0176650
774.058	0.0176579
774.136	0.0178814
774.214	0.0176996
774.292	0.0176743
774.370	0.0176143
774.448	0.0178374
774.526	0.0177978
774.604	0.0178713
774.683	0.0180354
774.761	0.0179520
774.839	0.0180498
774.917	0.0179913
774.995	0.0180154
775.073	0.0183051
775.151	0.0181236
775.229	0.0182862
775.308	0.0182849
775.386	0.0183450
775.464	0.0183866
775.542	0.0183525
775.620	0.0180759
775.698	0.0181559
775.776	0.0183167
775.854	0.0181170
775.933	0.0180116
776.011	0.0181170
776.089	0.0179193
776.167	0.0180271
776.245	0.0178317
776.323	0.0178165
776.401	0.0178341
776.479	0.0179772
776.558	0.0178361
776.636	0.0177811
776.714	0.0178768
776.792	0.0178620
776.870	0.0178004
776.948	0.0178391
777.026	0.0179345
777.104	0.0179490
777.183	0.0180090
777.261	0.0180145
777.339	0.0179862
777.417	0.0179936
777.495	0.0179941
777.573	0.0180435
777.651	0.0182015
777.729	0.0181553
777.808	0.0181606
777.886	0.0181674
777.964	0.0181941
778.042	0.0182681
778.120	0.0184665
778.198	0.0183391
778.276	0.0182352
778.354	0.0182983
778.433	0.0182642
778.511	0.0183300
778.589	0.0182835
778.667	0.0181139
778.745	0.0181532
778.823	0.0180969
778.901	0.0179360
778.979	0.0178699
779.058	0.0179237
779.136	0.0179386
779.214	0.0178703
779.292	0.0178143
779.370	0.0179032
779.448	0.0179311
779.526	0.0179016
779.604	0.0180045
779.683	0.0179333
779.761	0.0180830
779.839	0.0180545
779.917	0.0180003
779.995	0.0180959
780.073	0.0182077
780.151	0.0181040
780.229	0.0181290
780.308	0.0182476
780.386	0.0181150
780.464	0.0182182
780.542	0.0182952
780.620	0.0180553
780.698	0.0180981
780.776	0.0181354
780.854	0.0180906
780.933	0.0180972
781.011	0.0180318
781.089	0.0181758
781.167	0.0180443
781.245	0.0178289
781.323	0.0179747
781.401	0.0178865
781.479	0.0179524
781.558	0.0178516
781.636	0.0178667
781.714	0.0177879
781.792	0.0179229
781.870	0.0179086
781.948	0.0177655
782.026	0.0179508
782.104	0.0180295
782.183	0.0180335
782.261	0.0179739
782.339	0.0180403
782.417	0.0180279
782.495	0.0181401
782.573	0.0180510
782.651	0.0181850
782.729	0.0181892
782.808	0.0181001
782.886	0.0180463
782.964	0.0180875
783.042	0.0180532
783.120	0.0181348
783.198	0.0180265
783.276	0.0180337
783.354	0.0180293
783.433	0.0180235
783.511	0.0180048
783.589	0.0179539
783.667	0.0178008
783.745	0.0179070
783.823	0.0178603
783.901	0.0179094
783.979	0.0176266
784.058	0.0177950
784.136	0.0179158
784.214	0.0178837
784.292	0.0179571
784.370	0.0180280
784.448	0.0179857
784.526	0.0179916
784.604	0.0181377
784.683	0.0182542
784.761	0.0181620
784.839	0.0183647
784.917	0.0183675
784.995	0.0183786
785.073	0.0184832
785.151	0.0184895
785.229	0.0183040
785.308	0.0185106
785.386	0.0184868
785.464	0.0182381
785.542	0.0183224
785.620	0.0182083
785.698	0.0181546
785.776	0.0182601
785.854	0.0180754
785.933	0.0181296
786.011	0.0180166
786.089	0.0180264
786.167	0.0180706
786.245	0.0177865
786.323	0.0177003
786.401	0.0179272
786.479	0.0178571
786.558	0.0176920
786.636	0.0177583
786.714	0.0178592
786.792	0.0177618
786.870	0.0177499
786.948	0.0177924
787.026	0.0179641
787.104	0.0179972
787.183	0.0181456
787.261	0.0179309
787.339	0.0180013
787.417	0.0181880
787.495	0.0180869
787.573	0.0182729
787.651	0.0183743
787.729	0.0183451
787.808	0.0182387
787.886	0.0182662
787.964	0.0182396
788.042	0.0183187
788.120	0.0182549
788.198	0.0181914
788.276	0.0180242
788.354	0.0179726
788.433	0.0180695
788.511	0.0179466
788.589	0.0180537
788.667	0.0178918
788.745	0.0178334
788.823	0.0179190
788.901	0.0178502
788.979	0.0178308
789.058	0.0180186
789.136	0.0179597
789.214	0.0179216
789.292	0.0180122
789.370	0.0178572
789.448	0.0179097
789.526	0.0180679
789.604	0.0180455
789.683	0.0180395
789.761	0.0181499
789.839	0.0180545
789.917	0.0180827
789.995	0.0183114
790.073	0.0181895
790.151	0.0182795
790.229	0.0183852
790.308	0.0181345
790.386	0.0182013
790.464	0.0182346
790.542	0.0183908
790.620	0.0184475
790.698	0.0182899
790.776	0.0181531
790.854	0.0182921
790.933	0.0180927
791.011	0.0181577
791.089	0.0180484
791.167	0.0181229
791.245	0.0180867
791.323	0.0179785
791.401	0.0179659
791.479	0.0179572
791.558	0.0179997
791.636	0.0179292
791.714	0.0178497
791.792	0.0178141
791.870	0.0178204
791.948	0.0178245
792.026	0.0177885
792.104	0.0178789
792.183	0.0177387
792.261	0.0178819
792.339	0.0178627
792.417	0.0180609
792.495	0.0180344
792.573	0.0181189
792.651	0.0181377
792.729	0.0181858
792.808	0.0181546
792.886	0.0181411
792.964	0.0182307
793.042	0.0182637
793.120	0.0182478
793.198	0.0181509
793.276	0.0183015
793.354	0.0182431
793.433	0.0181386
793.511	0.0181205
793.589	0.0180386
793.667	0.0180312
793.745	0.0179337
793.823	0.0178556
793.901	0.0179242
793.979	0.0180469
794.058	0.0180315
794.136	0.0180379
794.214	0.0179037
794.292	0.0179182
794.370	0.0179303
794.448	0.0179891
794.526	0.0180121
794.604	0.0180474
794.683	0.0180398
794.761	0.0179920
794.839	0.0180055
794.917	0.0181068
794.995	0.0181813
795.073	0.0180330
795.151	0.0180657
795.229	0.0181864
795.308	0.0181270
795.386	0.0181860
795.464	0.0180320
795.542	0.0180377
795.620	0.0177985
795.698	0.0179557
795.776	0.0179611
795.854	0.0177208
795.933	0.0178753
796.011	0.0178306
796.089	0.0177280
796.167	0.0175445
796.245	0.0177192
796.323	0.0177190
796.401	0.0175384
796.479	0.0177996
796.558	0.0177125
796.636	0.0178862
796.714	0.0179975
796.792	0.0180482
796.870	0.0180450
796.948	0.0180515
797.026	0.0181809
797.104	0.0183784
797.183	0.0183153
797.261	0.0183980
797.339	0.0183975
797.417	0.0182577
797.495	0.0182897
797.573	0.0184051
797.651	0.0183572
797.729	0.0183140
797.808	0.0182003
797.886	0.0181101
797.964	0.0180634
798.042	0.0179805
798.120	0.0179623
798.198	0.0179163
798.276	0.0176766
798.354	0.0176753
798.433	0.0177039
798.511	0.0175294
798.589	0.0177114
798.667	0.0175249
798.745	0.0175874
798.823	0.0174893
798.901	0.0176653
798.979	0.0176306
799.058	0.0176360
799.136	0.0177847
799.214	0.0176890
799.292	0.0179932
799.370	0.0179155
799.448	0.0180867
799.526	0.0182162
799.604	0.0183330
799.683	0.0181661
799.761	0.0183338
799.839	0.0184575
799.917	0.0185427
799.995	0.0184560
800.073	0.0185233
800.151	0.0184843
800.229	0.0186037
800.308	0.0185250
800.386	0.0183801
800.464	0.0184288
800.542	0.0185499
800.620	0.0184294
800.698	0.0183717
800.776	0.0182758
800.854	0.0183207
800.933	0.0181569
801.011	0.0181892
801.089	0.0179351
801.167	0.0180593
801.245	0.0178562
801.323	0.0178074
801.401	0.0176659
801.479	0.0174767
801.558	0.0175903
801.636	0.0175175
801.714	0.0175056
801.792	0.0177250
801.870	0.0177692
801.948	0.0177226
802.026	0.0177744
802.104	0.0175425
802.183	0.0177856
802.261	0.0178149
802.339	0.0180459
802.417	0.0179871
802.495	0.0181445
802.573	0.0181528
802.651	0.0181615
802.729	0.0182612
802.808	0.0183507
802.886	0.0183216
802.964	0.0184676
803.042	0.0185733
803.120	0.0185777
803.198	0.0183846
803.276	0.0184295
803.354	0.0183677
803.433	0.0183801
803.511	0.0183147
803.589	0.0181812
803.667	0.0182252
803.745	0.0181780
803.823	0.0179503
803.901	0.0178008
803.979	0.0178770
804.058	0.0177767
804.136	0.0176445
804.214	0.0177054
804.292	0.0177229
804.370	0.0174554
804.448	0.0175390
804.526	0.0175927
804.604	0.0176020
804.683	0.0175334
804.761	0.0176521
804.839	0.0176025
804.917	0.0176279
804.995	0.0175993
805.073	0.0177080
805.151	0.0177298
805.229	0.0178068
805.308	0.0178307
805.386	0.0179803
805.464	0.0180666
805.542	0.0182251
805.620	0.0183742
805.698	0.0183650
805.776	0.0185164
805.854	0.0184911
805.933	0.0186121
806.011	0.0186891
806.089	0.0186002
806.167	0.0185819
806.245	0.0185698
806.323	0.0186082
806.401	0.0184878
806.479	0.0182726
806.558	0.0184361
806.636	0.0182961
806.714	0.0183016
806.792	0.0181106
806.870	0.0180416
806.948	0.0180041
807.026	0.0178616
807.104	0.0178635
807.183	0.0177840
807.261	0.0177135
807.339	0.0176710
807.417	0.0175860
807.495	0.0173889
807.573	0.0176265
807.651	0.0176981
807.729	0.0175883
807.808	0.0175742
807.886	0.0176750
807.964	0.0177095
808.042	0.0176849
808.120	0.0178268
808.198	0.0179346
808.276	0.0180213
808.354	0.0181288
808.433	0.0180531
808.511	0.0181371
808.589	0.0181226
808.667	0.0183564
808.745	0.0184292
808.823	0.0182285
808.901	0.0183949
808.979	0.0184298
809.058	0.0184805
809.136	0.0184345
809.214	0.0181473
809.292	0.0182021
809.370	0.0182264
809.448	0.0180462
809.526	0.0179659
809.604	0.0180692
809.683	0.0180862
809.761	0.0179881
809.839	0.0180373
809.917	0.0179324
809.995	0.0179750
810.073	0.0178967
810.151	0.0179863
810.229	0.0181377
810.308	0.0179861
810.386	0.0180419
810.464	0.0180474
810.542	0.0180161
810.620	0.0181845
810.698	0.0180796
810.776	0.0181113
810.854	0.0181548
810.933	0.0182536
811.011	0.0182331
811.089	0.0181686
811.167	0.0181972
811.245	0.0182948
811.323	0.0182646
811.401	0.0182278
811.479	0.0180417
811.558	0.0180342
811.636	0.0180733
811.714	0.0179628
811.792	0.0179266
811.870	0.0178611
811.948	0.0178908
812.026	0.0178104
812.104	0.0177804
812.183	0.0178336
812.261	0.0178659
812.339	0.0179418
812.417	0.0181096
812.495	0.0178535
812.573	0.0179252
812.651	0.0179785
812.729	0.0180934
812.808	0.0180804
812.886	0.0182215
812.964	0.0181782
813.042	0.0181253
813.120	0.0182257
813.198	0.0182461
813.276	0.0182535
813.354	0.0181812
813.433	0.0182842
813.511	0.0182043
813.589	0.0181471
813.667	0.0182760
813.745	0.0181284
813.823	0.0179439
813.901	0.0179994
813.979	0.0180403
814.058	0.0178214
814.136	0.0178418
814.214	0.0179570
814.292	0.0179052
814.370	0.0178347
814.448	0.0177083
814.526	0.0177565
814.604	0.0177615
814.683	0.0177246
814.761	0.0176247
814.839	0.0179380
814.917	0.0179321
814.995	0.0177807
815.073	0.0179108
815.151	0.0178553
815.229	0.0179135
815.308	0.0181133
815.386	0.0181392
815.464	0.0181844
815.542	0.0181785
815.620	0.0181741
815.698	0.0182247
815.776	0.0182176
815.854	0.0183792
815.933	0.0182775
816.011	0.0183517
816.089	0.0182532
816.167	0.0181679
816.245	0.0180577
816.323	0.0180419
816.401	0.0181789
816.479	0.0180447
816.558	0.0179753
816.636	0.0179485
816.714	0.0178648
816.792	0.0178867
816.870	0.0178011
816.948	0.0177071
817.026	0.0176286
817.104	0.0176254
817.183	0.0176115
817.261	0.0175485
817.339	0.0175231
817.417	0.0176345
817.495	0.0176870
817.573	0.0176382
817.651	0.0176646
817.729	0.0177653
817.808	0.0179637
817.886	0.0179043
817.964	0.0179111
818.042	0.0180228
818.120	0.0182018
818.198	0.0180885
818.276	0.0184204
818.354	0.0183588
818.433	0.0185569
818.511	0.0185295
818.589	0.0184846
818.667	0.0185217
818.745	0.0184345
818.823	0.0184445
818.901	0.0183432
818.979	0.0183572
819.058	0.0181888
819.136	0.0180913
819.214	0.0182003
819.292	0.0178990
819.370	0.0180240
819.448	0.0180135
819.526	0.0178339
819.604	0.0177290
819.683	0.0176785
819.761	0.0176913
819.839	0.0176537
819.917	0.0175086
819.995	0.0174535
820.073	0.0174193
820.151	0.0176369
820.229	0.0176677
820.308	0.0176920
820.386	0.0177877
820.464	0.0177237
820.542	0.0178398
820.620	0.0177895
820.698	0.0179972
820.776	0.0179664
820.854	0.0180746
820.933	0.0179778
821.011	0.0181485
821.089	0.0181807
821.167	0.0183088
821.245	0.0183009
821.323	0.0184534
821.401	0.0183463
821.479	0.0183234
821.558	0.0184325
821.636	0.0183071
821.714	0.0181978
821.792	0.0182722
821.870	0.0183018
821.948	0.0182704
822.026	0.0181870
822.104	0.0180609
822.183	0.0180829
822.261	0.0181318
822.339	0.0180421
822.417	0.0179494
822.495	0.0179428
822.573	0.0177682
822.651	0.0178938
822.729	0.0177165
822.808	0.0176202
822.886	0.0177703
822.964	0.0178005
823.042	0.0179405
823.120	0.0178326
823.198	0.0179999
823.276	0.0179836
823.354	0.0179512
823.433	0.0180125
823.511	0.0181032
823.589	0.0180959
823.667	0.0181434
823.745	0.0183539
823.823	0.0183656
823.901	0.0182236
823.979	0.0184285
824.058	0.0183930
824.136	0.0183451
824.214	0.0183002
824.292	0.0183313
824.370	0.0183586
824.448	0.0181712
824.526	0.0180431
824.604	0.0181966
824.683	0.0180689
824.761	0.0179742
824.839	0.0179364
824.917	0.0179616
824.995	0.0179424
825.073	0.0178279
825.151	0.0178293
825.229	0.0176776
825.308	0.0177592
825.386	0.0175949
825.464	0.0175031
825.542	0.0174808
825.620	0.0174628
825.698	0.0175534
825.776	0.0176292
825.854	0.0176277
825.933	0.0176073
826.011	0.0177186
826.089	0.0177105
826.167	0.0177330
826.245	0.0179704
826.323	0.0180126
826.401	0.0180758
826.479	0.0181904
826.558	0.0182500
826.636	0.0182771
826.714	0.0182230
826.792	0.0182638
826.870	0.0183418
826.948	0.0184599
827.026	0.0184389
827.104	0.0184398
827.183	0.0181746
827.261	0.0182752
827.339	0.0183435
827.417	0.0182802
827.495	0.0183669
827.573	0.0182287
827.651	0.0181277
827.729	0.0179854
827.808	0.0180219
827.886	0.0178798
827.964	0.0178632
828.042	0.0178316
828.120	0.0178986
828.198	0.0177422
828.276	0.0176352
828.354	0.0175674
828.433	0.0176173
828.511	0.0175937
828.589	0.0176006
828.667	0.0175877
828.745	0.0176302
828.823	0.0176342
828.901	0.0176437
828.979	0.0179351
829.058	0.0179981
829.136	0.0179568
829.214	0.0180431
829.292	0.0180605
829.370	0.0181350
829.448	0.0182060
829.526	0.0182390
829.604	0.0184539
829.683	0.0183504
829.761	0.0183751
829.839	0.0183641
829.917	0.0182786
829.995	0.0183518
830.073	0.0182684
830.151	0.0183624
830.229	0.0184966
830.308	0.0182630
830.386	0.0182597
830.464	0.0182077
830.542	0.0182320
830.620	0.0181347
830.698	0.0180572
830.776	0.0180756
830.854	0.0178933
830.933	0.0177531
831.011	0.0178513
831.089	0.0178793
831.167	0.0177270
831.245	0.0178703
831.323	0.0176994
831.401	0.0178490
831.479	0.0178984
831.558	0.0177768
831.636	0.0177603
831.714	0.0179168
831.792	0.0180413
831.870	0.0180475
831.948	0.0181371
832.026	0.0180168
832.104	0.0181213
832.183	0.0181914
832.261	0.0182119
832.339	0.0181486
832.417	0.0182263
832.495	0.0182803
832.573	0.0183129
832.651	0.0182809
832.729	0.0182883
832.808	0.0182221
832.886	0.0181252
832.964	0.0180843
833.042	0.0181590
833.120	0.0180856
833.198	0.0181854
833.276	0.0180308
833.354	0.0180558
833.433	0.0178757
833.511	0.0178233
833.589	0.0180543
833.667	0.0179119
833.745	0.0178326
833.823	0.0179017
833.901	0.0179015
833.979	0.0178196
834.058	0.0178802
834.136	0.0179101
834.214	0.0179171
834.292	0.0179082
834.370	0.0178722
834.448	0.0180368
834.526	0.0179781
834.604	0.0180608
834.683	0.0181534
834.761	0.0181007
834.839	0.0180356
834.917	0.0181841
834.995	0.0181179
835.073	0.0181055
835.151	0.0183371
835.229	0.0182652
835.308	0.0183412
835.386	0.0182923
835.464	0.0183894
835.542	0.0183447
835.620	0.0182634
835.698	0.0183347
835.776	0.0182922
835.854	0.0182159
835.933	0.0184303
836.011	0.0182646
836.089	0.0183018
836.167	0.0181879
836.245	0.0180019
836.323	0.0182027
836.401	0.0180132
836.479	0.0180408
836.558	0.0180705
836.636	0.0178388
836.714	0.0179801
836.792	0.0178424
836.870	0.0178813
836.948	0.0178126
837.026	0.0178270
837.104	0.0177511
837.183	0.0176917
837.261	0.0178042
837.339	0.0179002
837.417	0.0178657
837.495	0.0176951
837.573	0.0179375
837.651	0.0178403
837.729	0.0179391
837.808	0.0179606
837.886	0.0180207
837.964	0.0182032
838.042	0.0182455
838.120	0.0181559
838.198	0.0183764
838.276	0.0184080
838.354	0.0183668
838.433	0.0184889
838.511	0.0184658
838.589	0.0185284
838.667	0.0185808
838.745	0.0184537
838.823	0.0184049
838.901	0.0183329
838.979	0.0183737
839.058	0.0181216
839.136	0.0181584
839.214	0.0181074
839.292	0.0179094
839.370	0.0178719
839.448	0.0178655
839.526	0.0177672
839.604	0.0176956
839.683	0.0175843
839.761	0.0177884
839.839	0.0176328
839.917	0.0176820
839.995	0.0177683
840.073	0.0177438
840.151	0.0177061
840.229	0.0177299
840.308	0.0178458
840.386	0.0177817
840.464	0.0179307
840.542	0.0178533
840.620	0.0178929
840.698	0.0179778
840.776	0.0179785
840.854	0.0181504
840.933	0.0181785
841.011	0.0181808
841.089	0.0180991
841.167	0.0182611
841.245	0.0183755
841.323	0.0182473
841.401	0.0184221
841.479	0.0183469
841.558	0.0183440
841.636	0.0182825
841.714	0.0183089
841.792	0.0182591
841.870	0.0182998
841.948	0.0181512
842.026	0.0182214
842.104	0.0181915
842.183	0.0182176
842.261	0.0181608
842.339	0.0180937
842.417	0.0181054
842.495	0.0180491
842.573	0.0181672
842.651	0.0181824
842.729	0.0179992
842.808	0.0178928
842.886	0.0179581
842.964	0.0179847
843.042	0.0179791
843.120	0.0179926
843.198	0.0178893
843.276	0.0178506
843.354	0.0180486
843.433	0.0180386
843.511	0.0180618
843.589	0.0179387
843.667	0.0179723
843.745	0.0179760
843.823	0.0180231
843.901	0.0179385
843.979	0.0180338
844.058	0.0179994
844.136	0.0179289
844.214	0.0179557
844.292	0.0179308
844.370	0.0179890
844.448	0.0179351
844.526	0.0179546
844.604	0.0179775
844.683	0.0178497
844.761	0.0178003
844.839	0.0179025
844.917	0.0180348
844.995	0.0179134
845.073	0.0178621
845.151	0.0179063
845.229	0.0179568
845.308	0.0178751
845.386	0.0179421
845.464	0.0180906
845.542	0.0180671
845.620	0.0178302
845.698	0.0179591
845.776	0.0180265
845.854	0.0180168
845.933	0.0180769
846.011	0.0180652
846.089	0.0181689
846.167	0.0183320
846.245	0.0181351
846.323	0.0182595
846.401	0.0182735
846.479	0.0183560
846.558	0.0182440
846.636	0.0181992
846.714	0.0184319
846.792	0.0183230
846.870	0.0182512
846.948	0.0183031
847.026	0.0182397
847.104	0.0182235
847.183	0.0181299
847.261	0.0180972
847.339	0.0180862
847.417	0.0180729
847.495	0.0180721
847.573	0.0180156
847.651	0.0178484
847.729	0.0179227
847.808	0.0178939
847.886	0.0179751
847.964	0.0178217
848.042	0.0178490
848.120	0.0178262
848.198	0.0179052
848.276	0.0177117
848.354	0.0178186
848.433	0.0178461
848.511	0.0178810
848.589	0.0177374
848.667	0.0178257
848.745	0.0178598
848.823	0.0178974
848.901	0.0179704
848.979	0.0179653
849.058	0.0179899
849.136	0.0180069
849.214	0.0179616
849.292	0.0179368
849.370	0.0180630
849.448	0.0181461
849.526	0.0181317
849.604	0.0181048
849.683	0.0181367
849.761	0.0179813
849.839	0.0182219
849.917	0.0180804
849.995	0.0180965
850.073	0.0181076
850.151	0.0178873
850.229	0.0180053
850.308	0.0180109
850.386	0.0179324
850.464	0.0179214
850.542	0.0179452
850.620	0.0178904
850.698	0.0179507
850.776	0.0178912
850.854	0.0179343
850.933	0.0180887
851.011	0.0180293
851.089	0.0180373
851.167	0.0180605
851.245	0.0179617
851.323	0.0181405
851.401	0.0181940
851.479	0.0180997
851.558	0.0181605
851.636	0.0182793
851.714	0.0183616
851.792	0.0183582
851.870	0.0183799
851.948	0.0184017
852.026	0.0183817
852.104	0.0181973
852.183	0.0183937
852.261	0.0183801
852.339	0.0183039
852.417	0.0184084
852.495	0.0183018
852.573	0.0182104
852.651	0.0181145
852.729	0.0181311
852.808	0.0181722
852.886	0.0180549
852.964	0.0178156
853.042	0.0178596
853.120	0.0178682
853.198	0.0177089
853.276	0.0176387
853.354	0.0178714
853.433	0.0176537
853.511	0.0177489
853.589	0.0177055
853.667	0.0176248
853.745	0.0175844
853.823	0.0178883
853.901	0.0178880
853.979	0.0177433
854.058	0.0179874
854.136	0.0180294
854.214	0.0181207
854.292	0.0180299
854.370	0.0180501
854.448	0.0182050
854.526	0.0184066
854.604	0.0181654
854.683	0.0181503
854.761	0.0182885
854.839	0.0183286
854.917	0.0183253
854.995	0.0183081
855.073	0.0182792
855.151	0.0183266
855.229	0.0183234
855.308	0.0182623
855.386	0.0182442
855.464	0.0180422
855.542	0.0182458
855.620	0.0182114
855.698	0.0180822
855.776	0.0180357
855.854	0.0179784
855.933	0.0179777
856.011	0.0180981
856.089	0.0179152
856.167	0.0178735
856.245	0.0179461
856.323	0.0178851
856.401	0.0179082
856.479	0.0179422
856.558	0.0178862
856.636	0.0180457
856.714	0.0179550
856.792	0.0179031
856.870	0.0179029
856.948	0.0179330
857.026	0.0180231
857.104	0.0181813
857.183	0.0181490
857.261	0.0182736
857.339	0.0182288
857.417	0.0182233
857.495	0.0183526
857.573	0.0183043
857.651	0.0182925
857.729	0.0182652
857.808	0.0182450
857.886	0.0183640
857.964	0.0182845
858.042	0.0182016
858.120	0.0181528
858.198	0.0182315
858.276	0.0181849
858.354	0.0182431
858.433	0.0181669
858.511	0.0180115
858.589	0.0179747
858.667	0.0179984
858.745	0.0179475
858.823	0.0177410
858.901	0.0180327
858.979	0.0179443
859.058	0.0180888
859.136	0.0180625
859.214	0.0180090
859.292	0.0180646
859.370	0.0181152
859.448	0.0181756
859.526	0.0181448
859.604	0.0183264
859.683	0.0182742
859.761	0.0182052
859.839	0.0181876
859.917	0.0182948
859.995	0.0184311
860.073	0.0183283
860.151	0.0181799
860.229	0.0181329
860.308	0.0181754
860.386	0.0181560
860.464	0.0181748
860.542	0.0181506
860.620	0.0179839
860.698	0.0178818
860.776	0.0181117
860.854	0.0179196
860.933	0.0180184
861.011	0.0180844
861.089	0.0179131
861.167	0.0178734
861.245	0.0178944
861.323	0.0177354
861.401	0.0180448
861.479	0.0179103
861.558	0.0179331
861.636	0.0178967
861.714	0.0177818
861.792	0.0179490
861.870	0.0178950
861.948	0.0178675
862.026	0.0179248
862.104	0.0178404
862.183	0.0179001
862.261	0.0180216
862.339	0.0179722
862.417	0.0180299
862.495	0.0181234
862.573	0.0180414
862.651	0.0181783
862.729	0.0182338
862.808	0.0182218
862.886	0.0181472
862.964	0.0182326
863.042	0.0184757
863.120	0.0182596
863.198	0.0183614
863.276	0.0183132
863.354	0.0183097
863.433	0.0182772
863.511	0.0183572
863.589	0.0182105
863.667	0.0181616
863.745	0.0182289
863.823	0.0181718
863.901	0.0180340
863.979	0.0182002
864.058	0.0180889
864.136	0.0179219
864.214	0.0179812
864.292	0.0180141
864.370	0.0178277
864.448	0.0178967
864.526	0.0179339
864.604	0.0178875
864.683	0.0179886
864.761	0.0179136
864.839	0.0179143
864.917	0.0179112
864.995	0.0178924
865.073	0.0179297
865.151	0.0178774
865.229	0.0178701
865.308	0.0181128
865.386	0.0180903
865.464	0.0180662
865.542	0.0181124
865.620	0.0181245
865.698	0.0182787
865.776	0.0181950
865.854	0.0181838
865.933	0.0183637
866.011	0.0181954
866.089	0.0182989
866.167	0.0182413
866.245	0.0183157
866.323	0.0182317
866.401	0.0181465
866.479	0.0182504
866.558	0.0179272
866.636	0.0180459
866.714	0.0181035
866.792	0.0180119
866.870	0.0178057
866.948	0.0178784
867.026	0.0178628
867.104	0.0180000
867.183	0.0178783
867.261	0.0179357
867.339	0.0178645
867.417	0.0178062
867.495	0.0178536
867.573	0.0179398
867.651	0.0180073
867.729	0.0180101
867.808	0.0180623
867.886	0.0179318
867.964	0.0179469
868.042	0.0179793
868.120	0.0181591
868.198	0.0180795
868.276	0.0181107
868.354	0.0182829
868.433	0.0181406
868.511	0.0183754
868.589	0.0182734
868.667	0.0182255
868.745	0.0182991
868.823	0.0182815
868.901	0.0182258
868.979	0.0180980
869.058	0.0181685
869.136	0.0182539
869.214	0.0181081
869.292	0.0179801
869.370	0.0180585
869.448	0.0179453
869.526	0.0178629
869.604	0.0179414
869.683	0.0178175
869.761	0.0178043
869.839	0.0178722
869.917	0.0179414
869.995	0.0178714
870.073	0.0178742
870.151	0.0178753
870.229	0.0179829
870.308	0.0180541
870.386	0.0179993
870.464	0.0180406
870.542	0.0179377
870.620	0.0181212
870.698	0.0180658
870.776	0.0182293
870.854	0.0181541
870.933	0.0181071
871.011	0.0182796
871.089	0.0182508
871.167	0.0182816
871.245	0.0182001
871.323	0.0181217
871.401	0.0181941
871.479	0.0183546
871.558	0.0181116
871.636	0.0179994
871.714	0.0180924
871.792	0.0180734
871.870	0.0179876
871.948	0.0179072
872.026	0.0179642
872.104	0.0180027
872.183	0.0179672
872.261	0.0179588
872.339	0.0180145
872.417	0.0178049
872.495	0.0178336
872.573	0.0178495
872.651	0.0179790
872.729	0.0182023
872.808	0.0182417
872.886	0.0180578
872.964	0.0181166
873.042	0.0181056
873.120	0.0181943
873.198	0.0182874
873.276	0.0181422
873.354	0.0182558
873.433	0.0183090
873.511	0.0181633
873.589	0.0180498
873.667	0.0181679
873.745	0.0179762
873.823	0.0180177
873.901	0.0180573
873.979	0.0178632
874.058	0.0179861
874.136	0.0180070
874.214	0.0178418
874.292	0.0179153
874.370	0.0179398
874.448	0.0179649
874.526	0.0178429
874.604	0.0177635
874.683	0.0177766
874.761	0.0177686
874.839	0.0178839
874.917	0.0178410
874.995	0.0179190
875.073	0.0179360
875.151	0.0180492
875.229	0.0178977
875.308	0.0180133
875.386	0.0180528
875.464	0.0179168
875.542	0.0180984
875.620	0.0182996
875.698	0.0182135
875.776	0.0181196
875.854	0.0182835
875.933	0.0181071
876.011	0.0182461
876.089	0.0182713
876.167	0.0182001
876.245	0.0182290
876.323	0.0182043
876.401	0.0181784
876.479	0.0181717
876.558	0.0182798
876.636	0.0181681
876.714	0.0180945
876.792	0.0180726
876.870	0.0179722
876.948	0.0180600
877.026	0.0179723
877.104	0.0181086
877.183	0.0178325
877.261	0.0178757
877.339	0.0179411
877.417	0.0179492
877.495	0.0180476
877.573	0.0178429
877.651	0.0179505
877.729	0.0179527
877.808	0.0178333
877.886	0.0178804
877.964	0.0179944
878.042	0.0179684
878.120	0.0180492
878.198	0.0179597
878.276	0.0180466
878.354	0.0181013
878.433	0.0182130
878.511	0.0180899
878.589	0.0181655
878.667	0.0181528
878.745	0.0181892
878.823	0.0182626
878.901	0.0181494
878.979	0.0182846
879.058	0.0181255
879.136	0.0182469
879.214	0.0180546
879.292	0.0181271
879.370	0.0179752
879.448	0.0181207
879.526	0.0181194
879.604	0.0179235
879.683	0.0180078
879.761	0.0180716
879.839	0.0179906
879.917	0.0179815
879.995	0.0179585
880.073	0.0179816
880.151	0.0180062
880.229	0.0179784
880.308	0.0180376
880.386	0.0180549
880.464	0.0180621
880.542	0.0181303
880.620	0.0180586
880.698	0.0181307
880.776	0.0181696
880.854	0.0181776
880.933	0.0181526
881.011	0.0181708
881.089	0.0182162
881.167	0.0181850
881.245	0.0181668
881.323	0.0182494
881.401	0.0181873
881.479	0.0182359
881.558	0.0181338
881.636	0.0181038
881.714	0.0180135
881.792	0.0180877
881.870	0.0179716
881.948	0.0180586
882.026	0.0180700
882.104	0.0180112
882.183	0.0180093
882.261	0.0178521
882.339	0.0177766
882.417	0.0177581
882.495	0.0178192
882.573	0.0176415
882.651	0.0177566
882.729	0.0178935
882.808	0.0178741
882.886	0.0179070
882.964	0.0179463
883.042	0.0178714
883.120	0.0179267
883.198	0.0179758
883.276	0.0179656
883.354	0.0180973
883.433	0.0180627
883.511	0.0181528
883.589	0.0182266
883.667	0.0182181
883.745	0.0181792
883.823	0.0182276
883.901	0.0181895
883.979	0.0181351
884.058	0.0183100
884.136	0.0182480
884.214	0.0180882
884.292	0.0180705
884.370	0.0182351
884.448	0.0180646
884.526	0.0180636
884.604	0.0180855
884.683	0.0181317
884.761	0.0181178
884.839	0.0179704
884.917	0.0179257
884.995	0.0179182
885.073	0.0179691
885.151	0.0180766
885.229	0.0179704
885.308	0.0178341
885.386	0.0179316
885.464	0.0179984
885.542	0.0179588
885.620	0.0180302
885.698	0.0180273
885.776	0.0180079
885.854	0.0179903
885.933	0.0180732
886.011	0.0181214
886.089	0.0178477
886.167	0.0179541
886.245	0.0179507
886.323	0.0180043
886.401	0.0179018
886.479	0.0178334
886.558	0.0179552
886.636	0.0179789
886.714	0.0179624
886.792	0.0180275
886.870	0.0179617
886.948	0.0179704
887.026	0.0180664
887.104	0.0179691
887.183	0.0179219
887.261	0.0180637
887.339	0.0182484
887.417	0.0180240
887.495	0.0179836
887.573	0.0180682
887.651	0.0180493
887.729	0.0180820
887.808	0.0181195
887.886	0.0180638
887.964	0.0181371
888.042	0.0180663
888.120	0.0179552
888.198	0.0180141
888.276	0.0180033
888.354	0.0180547
888.433	0.0180620
888.511	0.0179310
888.589	0.0179865
888.667	0.0179688
888.745	0.0182091
888.823	0.0181414
888.901	0.0180665
888.979	0.0180803
889.058	0.0181142
889.136	0.0181900
889.214	0.0181865
889.292	0.0181535
889.370	0.0180492
889.448	0.0181435
889.526	0.0182603
889.604	0.0182507
889.683	0.0181950
889.761	0.0182533
889.839	0.0181224
889.917	0.0180444
889.995	0.0180608
890.073	0.0177267
890.151	0.0178559
890.229	0.0179304
890.308	0.0176833
890.386	0.0177380
890.464	0.0177741
890.542	0.0176707
890.620	0.0176523
890.698	0.0176977
890.776	0.0178318
890.854	0.0177637
890.933	0.0177831
891.011	0.0176237
891.089	0.0179414
891.167	0.0178484
891.245	0.0178622
891.323	0.0178304
891.401	0.0179455
891.479	0.0180798
891.558	0.0180596
891.636	0.0181479
891.714	0.0181586
891.792	0.0182940
891.870	0.0185154
891.948	0.0184877
892.026	0.0185057
892.104	0.0185778
892.183	0.0188068
892.261	0.0186960
892.339	0.0187079
892.417	0.0188057
892.495	0.0187244
892.573	0.0185203
892.651	0.0184163
892.729	0.0183142
892.808	0.0181519
892.886	0.0179646
892.964	0.0177542
893.042	0.0177077
893.120	0.0174184
893.198	0.0173553
893.276	0.0170015
893.354	0.0169855
893.433	0.0170604
893.511	0.0168768
893.589	0.0169943
893.667	0.0171298
893.745	0.0171212
893.823	0.0172452
893.901	0.0172353
893.979	0.0173467
894.058	0.0176069
894.136	0.0177138
894.214	0.0180215
894.292	0.0179911
894.370	0.0182088
894.448	0.0185107
894.526	0.0186617
894.604	0.0187033
894.683	0.0189622
894.761	0.0191087
894.839	0.0190696
894.917	0.0191117
894.995	0.0189821
895.073	0.0187991
895.151	0.0189993
895.229	0.0188371
895.308	0.0185890
895.386	0.0184061
895.464	0.0180567
895.542	0.0181065
895.620	0.0177083
895.698	0.0176456
895.776	0.0174047
895.854	0.0173292
895.933	0.0172321
896.011	0.0171098
896.089	0.0169453
896.167	0.0169710
896.245	0.0170093
896.323	0.0169810
896.401	0.0170435
896.479	0.0172411
896.558	0.0172732
896.636	0.0174180
896.714	0.0177301
896.792	0.0179687
896.870	0.0179524
896.948	0.0183556
897.026	0.0186455
897.104	0.0187712
897.183	0.0188031
897.261	0.0190852
897.339	0.0191473
897.417	0.0191456
897.495	0.0191035
897.573	0.0190995
897.651	0.0190355
897.729	0.0190175
897.808	0.0189337
897.886	0.0186276
897.964	0.0183990
898.042	0.0183523
898.120	0.0180831
898.198	0.0177569
898.276	0.0176666
898.354	0.0174877
898.433	0.0172665
898.511	0.0172044
898.589	0.0172694
898.667	0.0170635
898.745	0.0169687
898.823	0.0169984
898.901	0.0170189
898.979	0.0171444
899.058	0.0171095
899.136	0.0172977
899.214	0.0174596
899.292	0.0175600
899.370	0.0176254
899.448	0.0179568
899.526	0.0179076
899.604	0.0180297
899.683	0.0183439
899.761	0.0184148
899.839	0.0185533
899.917	0.0187719
899.995	0.0187709
900.073	0.0188795
900.151	0.0190242
900.229	0.0190005
900.308	0.0188128
900.386	0.0187285
900.464	0.0187456
900.542	0.0186660
900.620	0.0184724
900.698	0.0183429
900.776	0.0181564
900.854	0.0180803
900.933	0.0179417
901.011	0.0179114
901.089	0.0176164
901.167	0.0175418
901.245	0.0175625
901.323	0.0175323
901.401	0.0172842
901.479	0.0173843
901.558	0.0173460
901.636	0.0173690
901.714	0.0173646
901.792	0.0174891
901.870	0.0175753
901.948	0.0176542
902.026	0.0177792
902.104	0.0176701
902.183	0.0180010
902.261	0.0181355
902.339	0.0181011
902.417	0.0182747
902.495	0.0181719
902.573	0.0183327
902.651	0.0182446
902.729	0.0184329
902.808	0.0182232
902.886	0.0183774
902.964	0.0183387
903.042	0.0181490
903.120	0.0183311
903.198	0.0181615
903.276	0.0182448
903.354	0.0182217
903.433	0.0180756
903.511	0.0180025
903.589	0.0180099
903.667	0.0178807
903.745	0.0181062
903.823	0.0181285
903.901	0.0179680
903.979	0.0179631
904.058	0.0179033
904.136	0.0179092
904.214	0.0178307
904.292	0.0179604
904.370	0.0179284
904.448	0.0179901
904.526	0.0180307
904.604	0.0180878
904.683	0.0180136
904.761	0.0180070
904.839	0.0179926
904.917	0.0180669
904.995	0.0179774
905.073	0.0180419
905.151	0.0180515
905.229	0.0180478
905.308	0.0182073
905.386	0.0181570
905.464	0.0181059
905.542	0.0180070
905.620	0.0180245
905.698	0.0180772
905.776	0.0180093
905.854	0.0180099
905.933	0.0180109
906.011	0.0179253
906.089	0.0180152
906.167	0.0178041
906.245	0.0177541
906.323	0.0178954
906.401	0.0179591
906.479	0.0178980
906.558	0.0178960
906.636	0.0179261
906.714	0.0179933
906.792	0.0179193
906.870	0.0179762
906.948	0.0179111
907.026	0.0179795
907.104	0.0180185
907.183	0.0180887
907.261	0.0179404
907.339	0.0180861
907.417	0.0179707
907.495	0.0179481
907.573	0.0179170
907.651	0.0178493
907.729	0.0179393
907.808	0.0181611
907.886	0.0180739
907.964	0.0180641
908.042	0.0180418
908.120	0.0182995
908.198	0.0182896
908.276	0.0182151
908.354	0.0181176
908.433	0.0182252
908.511	0.0180662
908.589	0.0182615
908.667	0.0182035
908.745	0.0180095
908.823	0.0182175
908.901	0.0179063
908.979	0.0178451
909.058	0.0179623
909.136	0.0180255
909.214	0.0177745
909.292	0.0178644
909.370	0.0177814
909.448	0.0176320
909.526	0.0176633
909.604	0.0178107
909.683	0.0178942
909.761	0.0177251
909.839	0.0177572
909.917	0.0179160
909.995	0.0178540
910.073	0.0179717
910.151	0.0180683
910.229	0.0179881
910.308	0.0180399
910.386	0.0180851
910.464	0.0182181
910.542	0.0182645
910.620	0.0182618
910.698	0.0183017
910.776	0.0182798
910.854	0.0182379
910.933	0.0184050
911.011	0.0181801
911.089	0.0182153
911.167	0.0182832
911.245	0.0183990
911.323	0.0183211
911.401	0.0181641
911.479	0.0182059
911.558	0.0181245
911.636	0.0180827
911.714	0.0180271
911.792	0.0179987
911.870	0.0180668
911.948	0.0179992
912.026	0.0179874
912.104	0.0178135
912.183	0.0178880
912.261	0.0179392
912.339	0.0178214
912.417	0.0178941
912.495	0.0180519
912.573	0.0180035
912.651	0.0180494
912.729	0.0180998
912.808	0.0181406
912.886	0.0180581
912.964	0.0180307
913.042	0.0182015
913.120	0.0181480
913.198	0.0180670
913.276	0.0181957
913.354	0.0181734
913.433	0.0181483
913.511	0.0180602
913.589	0.0181487
913.667	0.0181917
913.745	0.0182536
913.823	0.0182156
913.901	0.0181864
913.979	0.0182178
914.058	0.0182011
914.136	0.0181793
914.214	0.0181567
914.292	0.0182642
914.370	0.0180758
914.448	0.0181565
914.526	0.0181216
914.604	0.0180923
914.683	0.0180526
914.761	0.0180678
914.839	0.0181118
914.917	0.0180154
914.995	0.0180554
915.073	0.0180387
915.151	0.0180534
915.229	0.0179380
915.308	0.0181304
915.386	0.0181666
915.464	0.0181516
915.542	0.0181341
915.620	0.0181718
915.698	0.0181844
915.776	0.0180818
915.854	0.0182727
915.933	0.0181310
916.011	0.0180294
916.089	0.0180507
916.167	0.0180518
916.245	0.0181200
916.323	0.0182148
916.401	0.0180867
916.479	0.0180878
916.558	0.0181091
916.636	0.0180212
916.714	0.0180271
916.792	0.0180234
916.870	0.0181588
916.948	0.0181224
917.026	0.0179218
917.104	0.0179872
917.183	0.0179945
917.261	0.0180210
917.339	0.0178939
917.417	0.0179894
917.495	0.0179443
917.573	0.0180386
917.651	0.0181544
917.729	0.0180560
917.808	0.0181277
917.886	0.0181786
917.964	0.0181856
918.042	0.0182427
918.120	0.0182645
918.198	0.0182232
918.276	0.0182676
918.354	0.0183999
918.433	0.0182256
918.511	0.0183101
918.589	0.0181542
918.667	0.0181968
918.745	0.0182134
918.823	0.0180338
918.901	0.0180882
918.979	0.0180514
919.058	0.0180769
919.136	0.0180386
919.214	0.0179331
919.292	0.0178243
919.370	0.0178495
919.448	0.0177831
919.526	0.0178531
919.604	0.0178094
919.683	0.0176444
919.761	0.0177873
919.839	0.0177225
919.917	0.0176458
