06/03/2022	18:10:23	Ver.	4.1	UNKNOWN
Optical Delay	599.995081	Delta X		0.078125	Sweeps	1	Scan Rate	0/0
Coordinates	Axis 1	NaN	Axis 2	NaN	Axis 3	NaN	Axis 4	NaN	Axis 5	NaN	Axis 6	0.000000
TX Power	0.000000	RX Power	0.000000

599.995	0.0179217
600.073	0.0178971
600.151	0.0178510
600.229	0.0179490
600.308	0.0179618
600.386	0.0178537
600.464	0.0179227
600.542	0.0177690
600.620	0.0179739
600.698	0.0178996
600.776	0.0179393
600.854	0.0179416
600.933	0.0178969
601.011	0.0178873
601.089	0.0179170
601.167	0.0178976
601.245	0.0178915
601.323	0.0180048
601.401	0.0179034
601.479	0.0178872
601.558	0.0178610
601.636	0.0178938
601.714	0.0180297
601.792	0.0179127
601.870	0.0178095
601.948	0.0178961
602.026	0.0179194
602.104	0.0179424
602.183	0.0179207
602.261	0.0178163
602.339	0.0179643
602.417	0.0179254
602.495	0.0178633
602.573	0.0179308
602.651	0.0178709
602.729	0.0178551
602.808	0.0179197
602.886	0.0178952
602.964	0.0177573
603.042	0.0178078
603.120	0.0179588
603.198	0.0179134
603.276	0.0179069
603.354	0.0179840
603.433	0.0178319
603.511	0.0180267
603.589	0.0179974
603.667	0.0178712
603.745	0.0178278
603.823	0.0178416
603.901	0.0179182
603.979	0.0178642
604.058	0.0181869
604.136	0.0180037
604.214	0.0178458
604.292	0.0178426
604.370	0.0178613
604.448	0.0179255
604.526	0.0178954
604.604	0.0179520
604.683	0.0177706
604.761	0.0179987
604.839	0.0178679
604.917	0.0179103
604.995	0.0179471
605.073	0.0179156
605.151	0.0178371
605.229	0.0178750
605.308	0.0179243
605.386	0.0178844
605.464	0.0178486
605.542	0.0178986
605.620	0.0179406
605.698	0.0179002
605.776	0.0179723
605.854	0.0178462
605.933	0.0179149
606.011	0.0179613
606.089	0.0178727
606.167	0.0178930
606.245	0.0178509
606.323	0.0178786
606.401	0.0178753
606.479	0.0179639
606.558	0.0178418
606.636	0.0178671
606.714	0.0180341
606.792	0.0178402
606.870	0.0178597
606.948	0.0178711
607.026	0.0178788
607.104	0.0179715
607.183	0.0179124
607.261	0.0179584
607.339	0.0179042
607.417	0.0179872
607.495	0.0178495
607.573	0.0179449
607.651	0.0179191
607.729	0.0179331
607.808	0.0180090
607.886	0.0179565
607.964	0.0179232
608.042	0.0180079
608.120	0.0179146
608.198	0.0179577
608.276	0.0179315
608.354	0.0178862
608.433	0.0178747
608.511	0.0178780
608.589	0.0179082
608.667	0.0179412
608.745	0.0178521
608.823	0.0179181
608.901	0.0179107
608.979	0.0178334
609.058	0.0178281
609.136	0.0179469
609.214	0.0177711
609.292	0.0178327
609.370	0.0178815
609.448	0.0179790
609.526	0.0178120
609.604	0.0179120
609.683	0.0178556
609.761	0.0178865
609.839	0.0179193
609.917	0.0178989
609.995	0.0179095
610.073	0.0178854
610.151	0.0179963
610.229	0.0178436
610.308	0.0179229
610.386	0.0179637
610.464	0.0177998
610.542	0.0178883
610.620	0.0179891
610.698	0.0177953
610.776	0.0178838
610.854	0.0179118
610.933	0.0179276
611.011	0.0178323
611.089	0.0179381
611.167	0.0179049
611.245	0.0178206
611.323	0.0178374
611.401	0.0178843
611.479	0.0179694
611.558	0.0179536
611.636	0.0179993
611.714	0.0178516
611.792	0.0178332
611.870	0.0178182
611.948	0.0178587
612.026	0.0179370
612.104	0.0179780
612.183	0.0179724
612.261	0.0179481
612.339	0.0180527
612.417	0.0179185
612.495	0.0179096
612.573	0.0179766
612.651	0.0177959
612.729	0.0179762
612.808	0.0179165
612.886	0.0179732
612.964	0.0179581
613.042	0.0180183
613.120	0.0179493
613.198	0.0180043
613.276	0.0179867
613.354	0.0178719
613.433	0.0178062
613.511	0.0178886
613.589	0.0178298
613.667	0.0178303
613.745	0.0180119
613.823	0.0178516
613.901	0.0178593
613.979	0.0179943
614.058	0.0179153
614.136	0.0178416
614.214	0.0178784
614.292	0.0180062
614.370	0.0179266
614.448	0.0178656
614.526	0.0180379
614.604	0.0180369
614.683	0.0179270
614.761	0.0179195
614.839	0.0179502
614.917	0.0180473
614.995	0.0180770
615.073	0.0179705
615.151	0.0178612
615.229	0.0178989
615.308	0.0179444
615.386	0.0178947
615.464	0.0179465
615.542	0.0179171
615.620	0.0178709
615.698	0.0180157
615.776	0.0180158
615.854	0.0179669
615.933	0.0179710
616.011	0.0178985
616.089	0.0178757
616.167	0.0178539
616.245	0.0180079
616.323	0.0178917
616.401	0.0178149
616.479	0.0180233
616.558	0.0179427
616.636	0.0180564
616.714	0.0180418
616.792	0.0178319
616.870	0.0179503
616.948	0.0179037
617.026	0.0179198
617.104	0.0178648
617.183	0.0179484
617.261	0.0179119
617.339	0.0179605
617.417	0.0179859
617.495	0.0178696
617.573	0.0180848
617.651	0.0178001
617.729	0.0179665
617.808	0.0179705
617.886	0.0179301
617.964	0.0178755
618.042	0.0179448
618.120	0.0179158
618.198	0.0178515
618.276	0.0179102
618.354	0.0178021
618.433	0.0179957
618.511	0.0178020
618.589	0.0178517
618.667	0.0178963
618.745	0.0178420
618.823	0.0178377
618.901	0.0180438
618.979	0.0179310
619.058	0.0179061
619.136	0.0179786
619.214	0.0180061
619.292	0.0177386
619.370	0.0177995
619.448	0.0179667
619.526	0.0179950
619.604	0.0178193
619.683	0.0179109
619.761	0.0179036
619.839	0.0179927
619.917	0.0179338
619.995	0.0178525
620.073	0.0179602
620.151	0.0179638
620.229	0.0180184
620.308	0.0179295
620.386	0.0179298
620.464	0.0178154
620.542	0.0179978
620.620	0.0179739
620.698	0.0179402
620.776	0.0180894
620.854	0.0180647
620.933	0.0179568
621.011	0.0180020
621.089	0.0180167
621.167	0.0178429
621.245	0.0178445
621.323	0.0179076
621.401	0.0178546
621.479	0.0180116
621.558	0.0179002
621.636	0.0179208
621.714	0.0180096
621.792	0.0178801
621.870	0.0179593
621.948	0.0179748
622.026	0.0178882
622.104	0.0179836
622.183	0.0180150
622.261	0.0178178
622.339	0.0179554
622.417	0.0180637
622.495	0.0178317
622.573	0.0178392
622.651	0.0178732
622.729	0.0180012
622.808	0.0178436
622.886	0.0178905
622.964	0.0177998
623.042	0.0179371
623.120	0.0179176
623.198	0.0178262
623.276	0.0177745
623.354	0.0178222
623.433	0.0178406
623.511	0.0179972
623.589	0.0180508
623.667	0.0178693
623.745	0.0179514
623.823	0.0179243
623.901	0.0179324
623.979	0.0179847
624.058	0.0179389
624.136	0.0180293
624.214	0.0179209
624.292	0.0179963
624.370	0.0179362
624.448	0.0179929
624.526	0.0178693
624.604	0.0180038
624.683	0.0180289
624.761	0.0179033
624.839	0.0179961
624.917	0.0178626
624.995	0.0179334
625.073	0.0179134
625.151	0.0179617
625.229	0.0178635
625.308	0.0178111
625.386	0.0178235
625.464	0.0178009
625.542	0.0178174
625.620	0.0177856
625.698	0.0178499
625.776	0.0178773
625.854	0.0179237
625.933	0.0178602
626.011	0.0178854
626.089	0.0178316
626.167	0.0179331
626.245	0.0177949
626.323	0.0178237
626.401	0.0178354
626.479	0.0179273
626.558	0.0178857
626.636	0.0179222
626.714	0.0178862
626.792	0.0178931
626.870	0.0180564
626.948	0.0179543
627.026	0.0179787
627.104	0.0181018
627.183	0.0179098
627.261	0.0178899
627.339	0.0180006
627.417	0.0178721
627.495	0.0180194
627.573	0.0179832
627.651	0.0179210
627.729	0.0179313
627.808	0.0178226
627.886	0.0179105
627.964	0.0179398
628.042	0.0178255
628.120	0.0179300
628.198	0.0180529
628.276	0.0179205
628.354	0.0178917
628.433	0.0179044
628.511	0.0180176
628.589	0.0179472
628.667	0.0177703
628.745	0.0178810
628.823	0.0179006
628.901	0.0179143
628.979	0.0178167
629.058	0.0179544
629.136	0.0178835
629.214	0.0178266
629.292	0.0177932
629.370	0.0179566
629.448	0.0177769
629.526	0.0179629
629.604	0.0179374
629.683	0.0179411
629.761	0.0179180
629.839	0.0180128
629.917	0.0178946
629.995	0.0178407
630.073	0.0179126
630.151	0.0179266
630.229	0.0178860
630.308	0.0179679
630.386	0.0178904
630.464	0.0179005
630.542	0.0179910
630.620	0.0180319
630.698	0.0180207
630.776	0.0177149
630.854	0.0179353
630.933	0.0179971
631.011	0.0179816
631.089	0.0178609
631.167	0.0180432
631.245	0.0178736
631.323	0.0178874
631.401	0.0180111
631.479	0.0180054
631.558	0.0179210
631.636	0.0178867
631.714	0.0180760
631.792	0.0179285
631.870	0.0179094
631.948	0.0180013
632.026	0.0179633
632.104	0.0178434
632.183	0.0179257
632.261	0.0179346
632.339	0.0178571
632.417	0.0178681
632.495	0.0178385
632.573	0.0178725
632.651	0.0180418
632.729	0.0178352
632.808	0.0178209
632.886	0.0180148
632.964	0.0180148
633.042	0.0179599
633.120	0.0178239
633.198	0.0178703
633.276	0.0180212
633.354	0.0180937
633.433	0.0178756
633.511	0.0178275
633.589	0.0179176
633.667	0.0179663
633.745	0.0179478
633.823	0.0179254
633.901	0.0179649
633.979	0.0178625
634.058	0.0179462
634.136	0.0178957
634.214	0.0179023
634.292	0.0179832
634.370	0.0178339
634.448	0.0178734
634.526	0.0179776
634.604	0.0178404
634.683	0.0179376
634.761	0.0178841
634.839	0.0179208
634.917	0.0178243
634.995	0.0179496
635.073	0.0179179
635.151	0.0179757
635.229	0.0178608
635.308	0.0179390
635.386	0.0180206
635.464	0.0179060
635.542	0.0177746
635.620	0.0178568
635.698	0.0177658
635.776	0.0178624
635.854	0.0177705
635.933	0.0177676
636.011	0.0178936
636.089	0.0179379
636.167	0.0179729
636.245	0.0179571
636.323	0.0178816
636.401	0.0178730
636.479	0.0179260
636.558	0.0179382
636.636	0.0179425
636.714	0.0178999
636.792	0.0180730
636.870	0.0178909
636.948	0.0178059
637.026	0.0179485
637.104	0.0179507
637.183	0.0179478
637.261	0.0178679
637.339	0.0179620
637.417	0.0180235
637.495	0.0179728
637.573	0.0178855
637.651	0.0179217
637.729	0.0179068
637.808	0.0179697
637.886	0.0179703
637.964	0.0178639
638.042	0.0180312
638.120	0.0179411
638.198	0.0180050
638.276	0.0179002
638.354	0.0179807
638.433	0.0179186
638.511	0.0178365
638.589	0.0179316
638.667	0.0179527
638.745	0.0177909
638.823	0.0179344
638.901	0.0178034
638.979	0.0178678
639.058	0.0177774
639.136	0.0178571
639.214	0.0178120
639.292	0.0180124
639.370	0.0180116
639.448	0.0179871
639.526	0.0178824
639.604	0.0179057
639.683	0.0178934
639.761	0.0178547
639.839	0.0178748
639.917	0.0180924
639.995	0.0179724
640.073	0.0179578
640.151	0.0179994
640.229	0.0178201
640.308	0.0178828
640.386	0.0179821
640.464	0.0178904
640.542	0.0178747
640.620	0.0180603
640.698	0.0180094
640.776	0.0179697
640.854	0.0178165
640.933	0.0179756
641.011	0.0179422
641.089	0.0178352
641.167	0.0178783
641.245	0.0178785
641.323	0.0177887
641.401	0.0179332
641.479	0.0179789
641.558	0.0179399
641.636	0.0177998
641.714	0.0178391
641.792	0.0179967
641.870	0.0179168
641.948	0.0177553
642.026	0.0177700
642.104	0.0179329
642.183	0.0179655
642.261	0.0178212
642.339	0.0179150
642.417	0.0180408
642.495	0.0178522
642.573	0.0178299
642.651	0.0178724
642.729	0.0178898
642.808	0.0179885
642.886	0.0179953
642.964	0.0178759
643.042	0.0179397
643.120	0.0180441
643.198	0.0179504
643.276	0.0178865
643.354	0.0179049
643.433	0.0179762
643.511	0.0178054
643.589	0.0180311
643.667	0.0179401
643.745	0.0178944
643.823	0.0178120
643.901	0.0178971
643.979	0.0179297
644.058	0.0180107
644.136	0.0179031
644.214	0.0178645
644.292	0.0179881
644.370	0.0179535
644.448	0.0178691
644.526	0.0179028
644.604	0.0179662
644.683	0.0178859
644.761	0.0178745
644.839	0.0178373
644.917	0.0179462
644.995	0.0178843
645.073	0.0178165
645.151	0.0179929
645.229	0.0180049
645.308	0.0178812
645.386	0.0177927
645.464	0.0178775
645.542	0.0180478
645.620	0.0179333
645.698	0.0178706
645.776	0.0179153
645.854	0.0177855
645.933	0.0178394
646.011	0.0178970
646.089	0.0179724
646.167	0.0178758
646.245	0.0177513
646.323	0.0179177
646.401	0.0178813
646.479	0.0179942
646.558	0.0178300
646.636	0.0178592
646.714	0.0179117
646.792	0.0178867
646.870	0.0178961
646.948	0.0178503
647.026	0.0178499
647.104	0.0179677
647.183	0.0179602
647.261	0.0179268
647.339	0.0178553
647.417	0.0178055
647.495	0.0179164
647.573	0.0179647
647.651	0.0180125
647.729	0.0177792
647.808	0.0178680
647.886	0.0180181
647.964	0.0178844
648.042	0.0178816
648.120	0.0178954
648.198	0.0178840
648.276	0.0179369
648.354	0.0177888
648.433	0.0178571
648.511	0.0177881
648.589	0.0178321
648.667	0.0178474
648.745	0.0179070
648.823	0.0178710
648.901	0.0179200
648.979	0.0179865
649.058	0.0178429
649.136	0.0179140
649.214	0.0178874
649.292	0.0178516
649.370	0.0178208
649.448	0.0179220
649.526	0.0178045
649.604	0.0178425
649.683	0.0178678
649.761	0.0179156
649.839	0.0179855
649.917	0.0176788
649.995	0.0178823
650.073	0.0177633
650.151	0.0177959
650.229	0.0178714
650.308	0.0178576
650.386	0.0178862
650.464	0.0179181
650.542	0.0178380
650.620	0.0177541
650.698	0.0178363
650.776	0.0180446
650.854	0.0179626
650.933	0.0179953
651.011	0.0179700
651.089	0.0178488
651.167	0.0178640
651.245	0.0179718
651.323	0.0178086
651.401	0.0178482
651.479	0.0177875
651.558	0.0179615
651.636	0.0178195
651.714	0.0179179
651.792	0.0179087
651.870	0.0178770
651.948	0.0179518
652.026	0.0179797
652.104	0.0178532
652.183	0.0177811
652.261	0.0179105
652.339	0.0178320
652.417	0.0178132
652.495	0.0178983
652.573	0.0179105
652.651	0.0179440
652.729	0.0180156
652.808	0.0178107
652.886	0.0178698
652.964	0.0178343
653.042	0.0179630
653.120	0.0179214
653.198	0.0178740
653.276	0.0179018
653.354	0.0180008
653.433	0.0178075
653.511	0.0179639
653.589	0.0179861
653.667	0.0179941
653.745	0.0180168
653.823	0.0179652
653.901	0.0179735
653.979	0.0178874
654.058	0.0180044
654.136	0.0179676
654.214	0.0178712
654.292	0.0178559
654.370	0.0180241
654.448	0.0180695
654.526	0.0178666
654.604	0.0178869
654.683	0.0178552
654.761	0.0178780
654.839	0.0178402
654.917	0.0178956
654.995	0.0178778
655.073	0.0178290
655.151	0.0178856
655.229	0.0178033
655.308	0.0178979
655.386	0.0179977
655.464	0.0178805
655.542	0.0178454
655.620	0.0179086
655.698	0.0179242
655.776	0.0178844
655.854	0.0179781
655.933	0.0179479
656.011	0.0179823
656.089	0.0179146
656.167	0.0179908
656.245	0.0179240
656.323	0.0180125
656.401	0.0180599
656.479	0.0179263
656.558	0.0180544
656.636	0.0180576
656.714	0.0179068
656.792	0.0178324
656.870	0.0179211
656.948	0.0178953
657.026	0.0178661
657.104	0.0179799
657.183	0.0178609
657.261	0.0179051
657.339	0.0179251
657.417	0.0179320
657.495	0.0179247
657.573	0.0179238
657.651	0.0179490
657.729	0.0177740
657.808	0.0178368
657.886	0.0178392
657.964	0.0179044
658.042	0.0179800
658.120	0.0179727
658.198	0.0178384
658.276	0.0179074
658.354	0.0178114
658.433	0.0178546
658.511	0.0179089
658.589	0.0179818
658.667	0.0179017
658.745	0.0179410
658.823	0.0178397
658.901	0.0178718
658.979	0.0180586
659.058	0.0180471
659.136	0.0178080
659.214	0.0180075
659.292	0.0179391
659.370	0.0178677
659.448	0.0178896
659.526	0.0180058
659.604	0.0178816
659.683	0.0180092
659.761	0.0179140
659.839	0.0180258
659.917	0.0180470
659.995	0.0180058
660.073	0.0179664
660.151	0.0178728
660.229	0.0179231
660.308	0.0179492
660.386	0.0179399
660.464	0.0178079
660.542	0.0180477
660.620	0.0178500
660.698	0.0178970
660.776	0.0178868
660.854	0.0178649
660.933	0.0179189
661.011	0.0179776
661.089	0.0179118
661.167	0.0179737
661.245	0.0180601
661.323	0.0179288
661.401	0.0180128
661.479	0.0178871
661.558	0.0179865
661.636	0.0177656
661.714	0.0179343
661.792	0.0180753
661.870	0.0178158
661.948	0.0178421
662.026	0.0179096
662.104	0.0180096
662.183	0.0178175
662.261	0.0178672
662.339	0.0177948
662.417	0.0178493
662.495	0.0179499
662.573	0.0180307
662.651	0.0179915
662.729	0.0178845
662.808	0.0178231
662.886	0.0178568
662.964	0.0179595
663.042	0.0178294
663.120	0.0180499
663.198	0.0179867
663.276	0.0178417
663.354	0.0179307
663.433	0.0179552
663.511	0.0179202
663.589	0.0180279
663.667	0.0179369
663.745	0.0179063
663.823	0.0180333
663.901	0.0180733
663.979	0.0179245
664.058	0.0178951
664.136	0.0179891
664.214	0.0179129
664.292	0.0177739
664.370	0.0179729
664.448	0.0180505
664.526	0.0180014
664.604	0.0178550
664.683	0.0178001
664.761	0.0179855
664.839	0.0179317
664.917	0.0178728
664.995	0.0179282
665.073	0.0178392
665.151	0.0179962
665.229	0.0179746
665.308	0.0178488
665.386	0.0178809
665.464	0.0179706
665.542	0.0178587
665.620	0.0178376
665.698	0.0177315
665.776	0.0179514
665.854	0.0178602
665.933	0.0178509
666.011	0.0179198
666.089	0.0179103
666.167	0.0179288
666.245	0.0178307
666.323	0.0180193
666.401	0.0178578
666.479	0.0179176
666.558	0.0178535
666.636	0.0178240
666.714	0.0179415
666.792	0.0178562
666.870	0.0179169
666.948	0.0180035
667.026	0.0179106
667.104	0.0178627
667.183	0.0179376
667.261	0.0179218
667.339	0.0180062
667.417	0.0178006
667.495	0.0177763
667.573	0.0178312
667.651	0.0178745
667.729	0.0179001
667.808	0.0179390
667.886	0.0180620
667.964	0.0179321
668.042	0.0179107
668.120	0.0179672
668.198	0.0177878
668.276	0.0180299
668.354	0.0179584
668.433	0.0179556
668.511	0.0178239
668.589	0.0178886
668.667	0.0179197
668.745	0.0179993
668.823	0.0179424
668.901	0.0178732
668.979	0.0178997
669.058	0.0179189
669.136	0.0180061
669.214	0.0178689
669.292	0.0178899
669.370	0.0179160
669.448	0.0178220
669.526	0.0178572
669.604	0.0178885
669.683	0.0179191
669.761	0.0179583
669.839	0.0178233
669.917	0.0177801
669.995	0.0179939
670.073	0.0179596
670.151	0.0177307
670.229	0.0178817
670.308	0.0178776
670.386	0.0180720
670.464	0.0178205
670.542	0.0178480
670.620	0.0178967
670.698	0.0179037
670.776	0.0179154
670.854	0.0180804
670.933	0.0179269
671.011	0.0179311
671.089	0.0180035
671.167	0.0179295
671.245	0.0179071
671.323	0.0178111
671.401	0.0178426
671.479	0.0180570
671.558	0.0180209
671.636	0.0179944
671.714	0.0178135
671.792	0.0178532
671.870	0.0178987
671.948	0.0179469
672.026	0.0180020
672.104	0.0178272
672.183	0.0178332
672.261	0.0179470
672.339	0.0178624
672.417	0.0178999
672.495	0.0178703
672.573	0.0179247
672.651	0.0178468
672.729	0.0178625
672.808	0.0179573
672.886	0.0178253
672.964	0.0178355
673.042	0.0178838
673.120	0.0180069
673.198	0.0179277
673.276	0.0180320
673.354	0.0179102
673.433	0.0177594
673.511	0.0179739
673.589	0.0180677
673.667	0.0179908
673.745	0.0178742
673.823	0.0179291
673.901	0.0178432
673.979	0.0178673
674.058	0.0179721
674.136	0.0178656
674.214	0.0178462
674.292	0.0180719
674.370	0.0179361
674.448	0.0179823
674.526	0.0178787
674.604	0.0180369
674.683	0.0179025
674.761	0.0179920
674.839	0.0180495
674.917	0.0178539
674.995	0.0178044
675.073	0.0179263
675.151	0.0179637
675.229	0.0178272
675.308	0.0178369
675.386	0.0178349
675.464	0.0180398
675.542	0.0179392
675.620	0.0178577
675.698	0.0178629
675.776	0.0179826
675.854	0.0179478
675.933	0.0179173
676.011	0.0178441
676.089	0.0179539
676.167	0.0178352
676.245	0.0179663
676.323	0.0178656
676.401	0.0179581
676.479	0.0179993
676.558	0.0178809
676.636	0.0178935
676.714	0.0179604
676.792	0.0178008
676.870	0.0178547
676.948	0.0179775
677.026	0.0179320
677.104	0.0179240
677.183	0.0179077
677.261	0.0178777
677.339	0.0179834
677.417	0.0178986
677.495	0.0179370
677.573	0.0178461
677.651	0.0180396
677.729	0.0178346
677.808	0.0179979
677.886	0.0178616
677.964	0.0178631
678.042	0.0178246
678.120	0.0178592
678.198	0.0179115
678.276	0.0179282
678.354	0.0178676
678.433	0.0179115
678.511	0.0178446
678.589	0.0178227
678.667	0.0179785
678.745	0.0178618
678.823	0.0178703
678.901	0.0180645
678.979	0.0180733
679.058	0.0179076
679.136	0.0178954
679.214	0.0181067
679.292	0.0180254
679.370	0.0179263
679.448	0.0178493
679.526	0.0178252
679.604	0.0179249
679.683	0.0181464
679.761	0.0179980
679.839	0.0179623
679.917	0.0179665
679.995	0.0179356
680.073	0.0178795
680.151	0.0180882
680.229	0.0178764
680.308	0.0180679
680.386	0.0178754
680.464	0.0177570
680.542	0.0179815
680.620	0.0180309
680.698	0.0180229
680.776	0.0179691
680.854	0.0178885
680.933	0.0180510
681.011	0.0179695
681.089	0.0180149
681.167	0.0179835
681.245	0.0178886
681.323	0.0179133
681.401	0.0180139
681.479	0.0180128
681.558	0.0180917
681.636	0.0180040
681.714	0.0179752
681.792	0.0178717
681.870	0.0179569
681.948	0.0179026
682.026	0.0179080
682.104	0.0179136
682.183	0.0179842
682.261	0.0180530
682.339	0.0178627
682.417	0.0179678
682.495	0.0179670
682.573	0.0178377
682.651	0.0178983
682.729	0.0179259
682.808	0.0179857
682.886	0.0179414
682.964	0.0177893
683.042	0.0179556
683.120	0.0180132
683.198	0.0178802
683.276	0.0178411
683.354	0.0178593
683.433	0.0179433
683.511	0.0178761
683.589	0.0178395
683.667	0.0179281
683.745	0.0178302
683.823	0.0178761
683.901	0.0178774
683.979	0.0178827
684.058	0.0179214
684.136	0.0178996
684.214	0.0180116
684.292	0.0179137
684.370	0.0180260
684.448	0.0179419
684.526	0.0179135
684.604	0.0179298
684.683	0.0179263
684.761	0.0178529
684.839	0.0179051
684.917	0.0179731
684.995	0.0179689
685.073	0.0179636
685.151	0.0179494
685.229	0.0179306
685.308	0.0178827
685.386	0.0178990
685.464	0.0178262
685.542	0.0179905
685.620	0.0178785
685.698	0.0178490
685.776	0.0178609
685.854	0.0179474
685.933	0.0178879
686.011	0.0176901
686.089	0.0179224
686.167	0.0180652
686.245	0.0178674
686.323	0.0178664
686.401	0.0178482
686.479	0.0179216
686.558	0.0178629
686.636	0.0179501
686.714	0.0178709
686.792	0.0179987
686.870	0.0178857
686.948	0.0179502
687.026	0.0178448
687.104	0.0178626
687.183	0.0177872
687.261	0.0179344
687.339	0.0178458
687.417	0.0178872
687.495	0.0179091
687.573	0.0179411
687.651	0.0179520
687.729	0.0178548
687.808	0.0179328
687.886	0.0178825
687.964	0.0179433
688.042	0.0178554
688.120	0.0178419
688.198	0.0178704
688.276	0.0179579
688.354	0.0179000
688.433	0.0179436
688.511	0.0177956
688.589	0.0179388
688.667	0.0178687
688.745	0.0178595
688.823	0.0178585
688.901	0.0178477
688.979	0.0179475
689.058	0.0179391
689.136	0.0178281
689.214	0.0178164
689.292	0.0178658
689.370	0.0178938
689.448	0.0178896
689.526	0.0179440
689.604	0.0178683
689.683	0.0179081
689.761	0.0178102
689.839	0.0178362
689.917	0.0178951
689.995	0.0179646
690.073	0.0178504
690.151	0.0177863
690.229	0.0178209
690.308	0.0180135
690.386	0.0177814
690.464	0.0179501
690.542	0.0178554
690.620	0.0178731
690.698	0.0180126
690.776	0.0178927
690.854	0.0177960
690.933	0.0178848
691.011	0.0179749
691.089	0.0179066
691.167	0.0179561
691.245	0.0180444
691.323	0.0179375
691.401	0.0179453
691.479	0.0179773
691.558	0.0180035
691.636	0.0179832
691.714	0.0179907
691.792	0.0179856
691.870	0.0177822
691.948	0.0178577
692.026	0.0178075
692.104	0.0179496
692.183	0.0178716
692.261	0.0177066
692.339	0.0177238
692.417	0.0177105
692.495	0.0179001
692.573	0.0177827
692.651	0.0178632
692.729	0.0178800
692.808	0.0178298
692.886	0.0179619
692.964	0.0179146
693.042	0.0180058
693.120	0.0180537
693.198	0.0180984
693.276	0.0181323
693.354	0.0179639
693.433	0.0179509
693.511	0.0178771
693.589	0.0179199
693.667	0.0178452
693.745	0.0178272
693.823	0.0176608
693.901	0.0176015
693.979	0.0174938
694.058	0.0174840
694.136	0.0175575
694.214	0.0176245
694.292	0.0178407
694.370	0.0180172
694.448	0.0180175
694.526	0.0183317
694.604	0.0184800
694.683	0.0185765
694.761	0.0186073
694.839	0.0186407
694.917	0.0185284
694.995	0.0184741
695.073	0.0183425
695.151	0.0181746
695.229	0.0179970
695.308	0.0178468
695.386	0.0175916
695.464	0.0173557
695.542	0.0172409
695.620	0.0169091
695.698	0.0167879
695.776	0.0166957
695.854	0.0165773
695.933	0.0165242
696.011	0.0164207
696.089	0.0164073
696.167	0.0165807
696.245	0.0170449
696.323	0.0172691
696.401	0.0175394
696.479	0.0180493
696.558	0.0183759
696.636	0.0188947
696.714	0.0191161
696.792	0.0192731
696.870	0.0196928
696.948	0.0199310
697.026	0.0199590
697.104	0.0200781
697.183	0.0199160
697.261	0.0197897
697.339	0.0196270
697.417	0.0192592
697.495	0.0191206
697.573	0.0187288
697.651	0.0182608
697.729	0.0178268
697.808	0.0173096
697.886	0.0168488
697.964	0.0164189
698.042	0.0161434
698.120	0.0157966
698.198	0.0155930
698.276	0.0155206
698.354	0.0155858
698.433	0.0155865
698.511	0.0155225
698.589	0.0156242
698.667	0.0156749
698.745	0.0160069
698.823	0.0161343
698.901	0.0162230
698.979	0.0164928
699.058	0.0168558
699.136	0.0170664
699.214	0.0172405
699.292	0.0175103
699.370	0.0178960
699.448	0.0181673
699.526	0.0185840
699.604	0.0192419
699.683	0.0196488
699.761	0.0202049
699.839	0.0206699
699.917	0.0213834
699.995	0.0217860
700.073	0.0220530
700.151	0.0221964
700.229	0.0222392
700.308	0.0221283
700.386	0.0218192
700.464	0.0214060
700.542	0.0209461
700.620	0.0203127
700.698	0.0196919
700.776	0.0190244
700.854	0.0183138
700.933	0.0177747
701.011	0.0172311
701.089	0.0167478
701.167	0.0160355
701.245	0.0156387
701.323	0.0150728
701.401	0.0145488
701.479	0.0138010
701.558	0.0132908
701.636	0.0127098
701.714	0.0123568
701.792	0.0118500
701.870	0.0118017
701.948	0.0116740
702.026	0.0118307
702.104	0.0123169
702.183	0.0128610
702.261	0.0136549
702.339	0.0144863
702.417	0.0155510
702.495	0.0166226
702.573	0.0178044
702.651	0.0189589
702.729	0.0201393
702.808	0.0210992
702.886	0.0221320
702.964	0.0231502
703.042	0.0237025
703.120	0.0243875
703.198	0.0248662
703.276	0.0250581
703.354	0.0253383
703.433	0.0252208
703.511	0.0250364
703.589	0.0247625
703.667	0.0245205
703.745	0.0238314
703.823	0.0231427
703.901	0.0224830
703.979	0.0214572
704.058	0.0205476
704.136	0.0196249
704.214	0.0185671
704.292	0.0173593
704.370	0.0164143
704.448	0.0155589
704.526	0.0148886
704.604	0.0136081
704.683	0.0128633
704.761	0.0119486
704.839	0.0111491
704.917	0.0102907
704.995	0.00966278
705.073	0.00911316
705.151	0.00877396
705.229	0.00868279
705.308	0.00884041
705.386	0.00912117
705.464	0.00975815
705.542	0.0109174
705.620	0.0121386
705.698	0.0135310
705.776	0.0152024
705.854	0.0170946
705.933	0.0189152
706.011	0.0206200
706.089	0.0222413
706.167	0.0238251
706.245	0.0251197
706.323	0.0262266
706.401	0.0271261
706.479	0.0278541
706.558	0.0281750
706.636	0.0282730
706.714	0.0279789
706.792	0.0273414
706.870	0.0263993
706.948	0.0251109
707.026	0.0239239
707.104	0.0224062
707.183	0.0210866
707.261	0.0196065
707.339	0.0182461
707.417	0.0172397
707.495	0.0164025
707.573	0.0155909
707.651	0.0151157
707.729	0.0145882
707.808	0.0140990
707.886	0.0134722
707.964	0.0129107
708.042	0.0123914
708.120	0.0118642
708.198	0.0112656
708.276	0.0109472
708.354	0.0107733
708.433	0.0107748
708.511	0.0107802
708.589	0.0113538
708.667	0.0119216
708.745	0.0128430
708.823	0.0139553
708.901	0.0151019
708.979	0.0164278
709.058	0.0178882
709.136	0.0191392
709.214	0.0202768
709.292	0.0216257
709.370	0.0226897
709.448	0.0236121
709.526	0.0242250
709.604	0.0247765
709.683	0.0251865
709.761	0.0251151
709.839	0.0250560
709.917	0.0247897
709.995	0.0241463
710.073	0.0235191
710.151	0.0228028
710.229	0.0218194
710.308	0.0208842
710.386	0.0198928
710.464	0.0191998
710.542	0.0184953
710.620	0.0176507
710.698	0.0170125
710.776	0.0163609
710.854	0.0159186
710.933	0.0150986
711.011	0.0144446
711.089	0.0138248
711.167	0.0129827
711.245	0.0123758
711.323	0.0118142
711.401	0.0114465
711.479	0.0112653
711.558	0.0111543
711.636	0.0111156
711.714	0.0114152
711.792	0.0118190
711.870	0.0125826
711.948	0.0134478
712.026	0.0142988
712.104	0.0154418
712.183	0.0167117
712.261	0.0179570
712.339	0.0190596
712.417	0.0201937
712.495	0.0211715
712.573	0.0220888
712.651	0.0230298
712.729	0.0236327
712.808	0.0240518
712.886	0.0243890
712.964	0.0245023
713.042	0.0243832
713.120	0.0242158
713.198	0.0238628
713.276	0.0234865
713.354	0.0227523
713.433	0.0222120
713.511	0.0214938
713.589	0.0207094
713.667	0.0201533
713.745	0.0196658
713.823	0.0188998
713.901	0.0184373
713.979	0.0178004
714.058	0.0173726
714.136	0.0167501
714.214	0.0163390
714.292	0.0156626
714.370	0.0151141
714.448	0.0146231
714.526	0.0140350
714.604	0.0136082
714.683	0.0131351
714.761	0.0128532
714.839	0.0126344
714.917	0.0127100
714.995	0.0128582
715.073	0.0129863
715.151	0.0133905
715.229	0.0137824
715.308	0.0143259
715.386	0.0149096
715.464	0.0155875
715.542	0.0162505
715.620	0.0171793
715.698	0.0177921
715.776	0.0184908
715.854	0.0191655
715.933	0.0196741
716.011	0.0203088
716.089	0.0207259
716.167	0.0211016
716.245	0.0212541
716.323	0.0212347
716.401	0.0213558
716.479	0.0212946
716.558	0.0212878
716.636	0.0210753
716.714	0.0209525
716.792	0.0206370
716.870	0.0204924
716.948	0.0202377
717.026	0.0199212
717.104	0.0197372
717.183	0.0194514
717.261	0.0188835
717.339	0.0186342
717.417	0.0182259
717.495	0.0178564
717.573	0.0174088
717.651	0.0172361
717.729	0.0168702
717.808	0.0166747
717.886	0.0166804
717.964	0.0166096
718.042	0.0165429
718.120	0.0165459
718.198	0.0165495
718.276	0.0164684
718.354	0.0164120
718.433	0.0165755
718.511	0.0166199
718.589	0.0165459
718.667	0.0167190
718.745	0.0166049
718.823	0.0168003
718.901	0.0167812
718.979	0.0169025
719.058	0.0171694
719.136	0.0170834
719.214	0.0172887
719.292	0.0174545
719.370	0.0176226
719.448	0.0179002
719.526	0.0180468
719.604	0.0183139
719.683	0.0185947
719.761	0.0186623
719.839	0.0187890
719.917	0.0190437
719.995	0.0190295
720.073	0.0190138
720.151	0.0191270
720.229	0.0189484
720.308	0.0188935
720.386	0.0187996
720.464	0.0186314
720.542	0.0183250
720.620	0.0182179
720.698	0.0180087
720.776	0.0178784
720.854	0.0177116
720.933	0.0175295
721.011	0.0173954
721.089	0.0173058
721.167	0.0172741
721.245	0.0173372
721.323	0.0174648
721.401	0.0174304
721.479	0.0175410
721.558	0.0176337
721.636	0.0176098
721.714	0.0179215
721.792	0.0180013
721.870	0.0180753
721.948	0.0180516
722.026	0.0180023
722.104	0.0182104
722.183	0.0184054
722.261	0.0183386
722.339	0.0182562
722.417	0.0182144
722.495	0.0181579
722.573	0.0179465
722.651	0.0178580
722.729	0.0176504
722.808	0.0175410
722.886	0.0175452
722.964	0.0173631
723.042	0.0173029
723.120	0.0172463
723.198	0.0171703
723.276	0.0171988
723.354	0.0174773
723.433	0.0175568
723.511	0.0177602
723.589	0.0180301
723.667	0.0180791
723.745	0.0182843
723.823	0.0182053
723.901	0.0183205
723.979	0.0183017
724.058	0.0184822
724.136	0.0184160
724.214	0.0183662
724.292	0.0184561
724.370	0.0183303
724.448	0.0182269
724.526	0.0180807
724.604	0.0179578
724.683	0.0178358
724.761	0.0176434
724.839	0.0173656
724.917	0.0173070
724.995	0.0170243
725.073	0.0171340
725.151	0.0168610
725.229	0.0170183
725.308	0.0171497
725.386	0.0170958
725.464	0.0173238
725.542	0.0175561
725.620	0.0177435
725.698	0.0180453
725.776	0.0180360
725.854	0.0181436
725.933	0.0181322
726.011	0.0182146
726.089	0.0180731
726.167	0.0180995
726.245	0.0181258
726.323	0.0182374
726.401	0.0180556
726.479	0.0179818
726.558	0.0181972
726.636	0.0181560
726.714	0.0183036
726.792	0.0182820
726.870	0.0184629
726.948	0.0185848
727.026	0.0185556
727.104	0.0184193
727.183	0.0185982
727.261	0.0185346
727.339	0.0184669
727.417	0.0184273
727.495	0.0184499
727.573	0.0183356
727.651	0.0183289
727.729	0.0181458
727.808	0.0180309
727.886	0.0180589
727.964	0.0181559
728.042	0.0177541
728.120	0.0176434
728.198	0.0177348
728.276	0.0176611
728.354	0.0174870
728.433	0.0174507
728.511	0.0173855
728.589	0.0173819
728.667	0.0173654
728.745	0.0171136
728.823	0.0172657
728.901	0.0172681
728.979	0.0171894
729.058	0.0172602
729.136	0.0171670
729.214	0.0172332
729.292	0.0173296
729.370	0.0173608
729.448	0.0172839
729.526	0.0174407
729.604	0.0175876
729.683	0.0176543
729.761	0.0177574
729.839	0.0176950
729.917	0.0180891
729.995	0.0181380
730.073	0.0180429
730.151	0.0181094
730.229	0.0181807
730.308	0.0181815
730.386	0.0181970
730.464	0.0182421
730.542	0.0181444
730.620	0.0182673
730.698	0.0181670
730.776	0.0181637
730.854	0.0180825
730.933	0.0181524
731.011	0.0180810
731.089	0.0181120
731.167	0.0180879
731.245	0.0181218
731.323	0.0181463
731.401	0.0182114
731.479	0.0181345
731.558	0.0182925
731.636	0.0184113
731.714	0.0185494
731.792	0.0185124
731.870	0.0185001
731.948	0.0186876
732.026	0.0188398
732.104	0.0188798
732.183	0.0185950
732.261	0.0186981
732.339	0.0186911
732.417	0.0185229
732.495	0.0183554
732.573	0.0182133
732.651	0.0180694
732.729	0.0178403
732.808	0.0176691
732.886	0.0175054
732.964	0.0175894
733.042	0.0175233
733.120	0.0175076
733.198	0.0175252
733.276	0.0174577
733.354	0.0176268
733.433	0.0176273
733.511	0.0176087
733.589	0.0177094
733.667	0.0176952
733.745	0.0177046
733.823	0.0175993
733.901	0.0173688
733.979	0.0172724
734.058	0.0172598
734.136	0.0171030
734.214	0.0169952
734.292	0.0170430
734.370	0.0170193
734.448	0.0168990
734.526	0.0169901
734.604	0.0170844
734.683	0.0171194
734.761	0.0174822
734.839	0.0176636
734.917	0.0178336
734.995	0.0181106
735.073	0.0183407
735.151	0.0186506
735.229	0.0188891
735.308	0.0189558
735.386	0.0189487
735.464	0.0191100
735.542	0.0192155
735.620	0.0191717
735.698	0.0192954
735.776	0.0190679
735.854	0.0190259
735.933	0.0188137
736.011	0.0185610
736.089	0.0185410
736.167	0.0185521
736.245	0.0182964
736.323	0.0181778
736.401	0.0180458
736.479	0.0179437
736.558	0.0178943
736.636	0.0177380
736.714	0.0175311
736.792	0.0174724
736.870	0.0174123
736.948	0.0172389
737.026	0.0172346
737.104	0.0170851
737.183	0.0171671
737.261	0.0171307
737.339	0.0170358
737.417	0.0170486
737.495	0.0170643
737.573	0.0170541
737.651	0.0170509
737.729	0.0171223
737.808	0.0172014
737.886	0.0173210
737.964	0.0174268
738.042	0.0174065
738.120	0.0175816
738.198	0.0178932
738.276	0.0179275
738.354	0.0179775
738.433	0.0181268
738.511	0.0184634
738.589	0.0185201
738.667	0.0186254
738.745	0.0187135
738.823	0.0187500
738.901	0.0190257
738.979	0.0190984
739.058	0.0189534
739.136	0.0189709
739.214	0.0189523
739.292	0.0189426
739.370	0.0186834
739.448	0.0186086
739.526	0.0184708
739.604	0.0182925
739.683	0.0182267
739.761	0.0180531
739.839	0.0177972
739.917	0.0178364
739.995	0.0175807
740.073	0.0174606
740.151	0.0173328
740.229	0.0171603
740.308	0.0172746
740.386	0.0173441
740.464	0.0172842
740.542	0.0173134
740.620	0.0174004
740.698	0.0175253
740.776	0.0175531
740.854	0.0175599
740.933	0.0175932
741.011	0.0175841
741.089	0.0178886
741.167	0.0177798
741.245	0.0178860
741.323	0.0180391
741.401	0.0178574
741.479	0.0180099
741.558	0.0179780
741.636	0.0179047
741.714	0.0179411
741.792	0.0179489
741.870	0.0180688
741.948	0.0178477
742.026	0.0179206
742.104	0.0177998
742.183	0.0179094
742.261	0.0179198
742.339	0.0179333
742.417	0.0178005
742.495	0.0178828
742.573	0.0180486
742.651	0.0179698
742.729	0.0180590
742.808	0.0180885
742.886	0.0180860
742.964	0.0181406
743.042	0.0182732
743.120	0.0181721
743.198	0.0181084
743.276	0.0180651
743.354	0.0179892
743.433	0.0179248
743.511	0.0179904
743.589	0.0179891
743.667	0.0179063
743.745	0.0178902
743.823	0.0179481
743.901	0.0178492
743.979	0.0178679
744.058	0.0179846
744.136	0.0180058
744.214	0.0179860
744.292	0.0180776
744.370	0.0181245
744.448	0.0181222
744.526	0.0181298
744.604	0.0182654
744.683	0.0182211
744.761	0.0180224
744.839	0.0179925
744.917	0.0179131
744.995	0.0178189
745.073	0.0176887
745.151	0.0175648
745.229	0.0176131
745.308	0.0175107
745.386	0.0175643
745.464	0.0175896
745.542	0.0175304
745.620	0.0176484
745.698	0.0175906
745.776	0.0175866
745.854	0.0177173
745.933	0.0178094
746.011	0.0177849
746.089	0.0178623
746.167	0.0179164
746.245	0.0178602
746.323	0.0179327
746.401	0.0178656
746.479	0.0181050
746.558	0.0180476
746.636	0.0181091
746.714	0.0180671
746.792	0.0181309
746.870	0.0182692
746.948	0.0181627
747.026	0.0181959
747.104	0.0180584
747.183	0.0181557
747.261	0.0180732
747.339	0.0181758
747.417	0.0180747
747.495	0.0180809
747.573	0.0181400
747.651	0.0179423
747.729	0.0181066
747.808	0.0180182
747.886	0.0179042
747.964	0.0179496
748.042	0.0177628
748.120	0.0177785
748.198	0.0177067
748.276	0.0175497
748.354	0.0176241
748.433	0.0176666
748.511	0.0175511
748.589	0.0176353
748.667	0.0177570
748.745	0.0177879
748.823	0.0177499
748.901	0.0177687
748.979	0.0178168
749.058	0.0177883
749.136	0.0177770
749.214	0.0178188
749.292	0.0178420
749.370	0.0179131
749.448	0.0179208
749.526	0.0180847
749.604	0.0179214
749.683	0.0178889
749.761	0.0179672
749.839	0.0181543
749.917	0.0181693
749.995	0.0181137
750.073	0.0180996
750.151	0.0181481
750.229	0.0181066
750.308	0.0181572
750.386	0.0180965
750.464	0.0180142
750.542	0.0179065
750.620	0.0179268
750.698	0.0180889
750.776	0.0180654
750.854	0.0180928
750.933	0.0180832
751.011	0.0178803
751.089	0.0178732
751.167	0.0178863
751.245	0.0178824
751.323	0.0178273
751.401	0.0178751
751.479	0.0178690
751.558	0.0179234
751.636	0.0179076
751.714	0.0178658
751.792	0.0179478
751.870	0.0179340
751.948	0.0178778
752.026	0.0179642
752.104	0.0179678
752.183	0.0178490
752.261	0.0178664
752.339	0.0179112
752.417	0.0178445
752.495	0.0177973
752.573	0.0177208
752.651	0.0178365
752.729	0.0178204
752.808	0.0177267
752.886	0.0178802
752.964	0.0177714
753.042	0.0178747
753.120	0.0178811
753.198	0.0179102
753.276	0.0179968
753.354	0.0180077
753.433	0.0180728
753.511	0.0181071
753.589	0.0181274
753.667	0.0182120
753.745	0.0182498
753.823	0.0183347
753.901	0.0182198
753.979	0.0183961
754.058	0.0182236
754.136	0.0182347
754.214	0.0181947
754.292	0.0181831
754.370	0.0181116
754.448	0.0181554
754.526	0.0178966
754.604	0.0178162
754.683	0.0178499
754.761	0.0178496
754.839	0.0179206
754.917	0.0178410
754.995	0.0178742
755.073	0.0179790
755.151	0.0177263
755.229	0.0178075
755.308	0.0178783
755.386	0.0176785
755.464	0.0177350
755.542	0.0175629
755.620	0.0176472
755.698	0.0175223
755.776	0.0175641
755.854	0.0176002
755.933	0.0175978
756.011	0.0175472
756.089	0.0176177
756.167	0.0175986
756.245	0.0177680
756.323	0.0178703
756.401	0.0178307
756.479	0.0179927
756.558	0.0181161
756.636	0.0181758
756.714	0.0180307
756.792	0.0182732
756.870	0.0182326
756.948	0.0182605
757.026	0.0182084
757.104	0.0182230
757.183	0.0180466
757.261	0.0181322
757.339	0.0180769
757.417	0.0179568
757.495	0.0178758
757.573	0.0178678
757.651	0.0179021
757.729	0.0178648
757.808	0.0177624
757.886	0.0178305
757.964	0.0179581
758.042	0.0179090
758.120	0.0180733
758.198	0.0178432
758.276	0.0179108
758.354	0.0179810
758.433	0.0180347
758.511	0.0180698
758.589	0.0180317
758.667	0.0180377
758.745	0.0180261
758.823	0.0180331
758.901	0.0179926
758.979	0.0180547
759.058	0.0179739
759.136	0.0180640
759.214	0.0179482
759.292	0.0180858
759.370	0.0180317
759.448	0.0179713
759.526	0.0180639
759.604	0.0179559
759.683	0.0179641
759.761	0.0180912
759.839	0.0180219
759.917	0.0179450
759.995	0.0178849
760.073	0.0179517
760.151	0.0179697
760.229	0.0178831
760.308	0.0179946
760.386	0.0179433
760.464	0.0178740
760.542	0.0179269
760.620	0.0179394
760.698	0.0178970
760.776	0.0178433
760.854	0.0178646
760.933	0.0178973
761.011	0.0178707
761.089	0.0178535
761.167	0.0177033
761.245	0.0178899
761.323	0.0177898
761.401	0.0177561
761.479	0.0177314
761.558	0.0176861
761.636	0.0177808
761.714	0.0177623
761.792	0.0178385
761.870	0.0176410
761.948	0.0179260
762.026	0.0178683
762.104	0.0177419
762.183	0.0180037
762.261	0.0179220
762.339	0.0178724
762.417	0.0178168
762.495	0.0179716
762.573	0.0180356
762.651	0.0180609
762.729	0.0181431
762.808	0.0181971
762.886	0.0180849
762.964	0.0179750
763.042	0.0181438
763.120	0.0181863
763.198	0.0181951
763.276	0.0180186
763.354	0.0180875
763.433	0.0179853
763.511	0.0178809
763.589	0.0177405
763.667	0.0176434
763.745	0.0177416
763.823	0.0176456
763.901	0.0175739
763.979	0.0176545
764.058	0.0176086
764.136	0.0176790
764.214	0.0176728
764.292	0.0178855
764.370	0.0177717
764.448	0.0176822
764.526	0.0178535
764.604	0.0180468
764.683	0.0180252
764.761	0.0182603
764.839	0.0181870
764.917	0.0182742
764.995	0.0182551
765.073	0.0181969
765.151	0.0184433
765.229	0.0182356
765.308	0.0183528
765.386	0.0182240
765.464	0.0181932
765.542	0.0181537
765.620	0.0181680
765.698	0.0180962
765.776	0.0181182
765.854	0.0182082
765.933	0.0181408
766.011	0.0180442
766.089	0.0179986
766.167	0.0181676
766.245	0.0179140
766.323	0.0179055
766.401	0.0179955
766.479	0.0179611
766.558	0.0178678
766.636	0.0179466
766.714	0.0179667
766.792	0.0179771
766.870	0.0180187
766.948	0.0180776
767.026	0.0178864
767.104	0.0179659
767.183	0.0179044
767.261	0.0178341
767.339	0.0180576
767.417	0.0178887
767.495	0.0179599
767.573	0.0178365
767.651	0.0179659
767.729	0.0177542
767.808	0.0178777
767.886	0.0180911
767.964	0.0179276
768.042	0.0179276
768.120	0.0179417
768.198	0.0178781
768.276	0.0180396
768.354	0.0180780
768.433	0.0180241
768.511	0.0179904
768.589	0.0179832
768.667	0.0179108
768.745	0.0178987
768.823	0.0180689
768.901	0.0179768
768.979	0.0177798
769.058	0.0178773
769.136	0.0178720
769.214	0.0176419
769.292	0.0176508
769.370	0.0178629
769.448	0.0178346
769.526	0.0178378
769.604	0.0177955
769.683	0.0178592
769.761	0.0178745
769.839	0.0176730
769.917	0.0178511
769.995	0.0179379
770.073	0.0179660
770.151	0.0177903
770.229	0.0178165
770.308	0.0180328
770.386	0.0181342
770.464	0.0181986
770.542	0.0181014
770.620	0.0182354
770.698	0.0181403
770.776	0.0181654
770.854	0.0181526
770.933	0.0181834
771.011	0.0180693
771.089	0.0181559
771.167	0.0181419
771.245	0.0181040
771.323	0.0181339
771.401	0.0181342
771.479	0.0179724
771.558	0.0180669
771.636	0.0181013
771.714	0.0178045
771.792	0.0179301
771.870	0.0178191
771.948	0.0179594
772.026	0.0178052
772.104	0.0178492
772.183	0.0178116
772.261	0.0177961
772.339	0.0177696
772.417	0.0178660
772.495	0.0178273
772.573	0.0175810
772.651	0.0177189
772.729	0.0178403
772.808	0.0179447
772.886	0.0179123
772.964	0.0179465
773.042	0.0180110
773.120	0.0180490
773.198	0.0180360
773.276	0.0180076
773.354	0.0180546
773.433	0.0180339
773.511	0.0181728
773.589	0.0182368
773.667	0.0181051
773.745	0.0182512
773.823	0.0181594
773.901	0.0181931
773.979	0.0181555
774.058	0.0180125
774.136	0.0181416
774.214	0.0180297
774.292	0.0179941
774.370	0.0179189
774.448	0.0179559
774.526	0.0177213
774.604	0.0178637
774.683	0.0177274
774.761	0.0178429
774.839	0.0177495
774.917	0.0178538
774.995	0.0178423
775.073	0.0176624
775.151	0.0179377
775.229	0.0178112
775.308	0.0178844
775.386	0.0176988
775.464	0.0178425
775.542	0.0178826
775.620	0.0177422
775.698	0.0179182
775.776	0.0177808
775.854	0.0176716
775.933	0.0177084
776.011	0.0178670
776.089	0.0178287
776.167	0.0177709
776.245	0.0178136
776.323	0.0178726
776.401	0.0178583
776.479	0.0179800
776.558	0.0178929
776.636	0.0179997
776.714	0.0179308
776.792	0.0177934
776.870	0.0179085
776.948	0.0179397
777.026	0.0179838
777.104	0.0177724
777.183	0.0178579
777.261	0.0177767
777.339	0.0176935
777.417	0.0178749
777.495	0.0177345
777.573	0.0178726
777.651	0.0179027
777.729	0.0178927
777.808	0.0178581
777.886	0.0180385
777.964	0.0181220
778.042	0.0181429
778.120	0.0181405
778.198	0.0181297
778.276	0.0182549
778.354	0.0182774
778.433	0.0182775
778.511	0.0181945
778.589	0.0182533
778.667	0.0183167
778.745	0.0181449
778.823	0.0181936
778.901	0.0181078
778.979	0.0182907
779.058	0.0181412
779.136	0.0180747
779.214	0.0181451
779.292	0.0180450
779.370	0.0177914
779.448	0.0178539
779.526	0.0178760
779.604	0.0177209
779.683	0.0176705
779.761	0.0176277
779.839	0.0175710
779.917	0.0174683
779.995	0.0173920
780.073	0.0175592
780.151	0.0174574
780.229	0.0175468
780.308	0.0176262
780.386	0.0175408
780.464	0.0176552
780.542	0.0176474
780.620	0.0178385
780.698	0.0179353
780.776	0.0178383
780.854	0.0178753
780.933	0.0178893
781.011	0.0178978
781.089	0.0181145
781.167	0.0180421
781.245	0.0182065
781.323	0.0181519
781.401	0.0181989
781.479	0.0183265
781.558	0.0183485
781.636	0.0182542
781.714	0.0183619
781.792	0.0184494
781.870	0.0183276
781.948	0.0183524
782.026	0.0182070
782.104	0.0182700
782.183	0.0182217
782.261	0.0181568
782.339	0.0179780
782.417	0.0179055
782.495	0.0178907
782.573	0.0178809
782.651	0.0178760
782.729	0.0178114
782.808	0.0177387
782.886	0.0176985
782.964	0.0175206
783.042	0.0175588
783.120	0.0174880
783.198	0.0173531
783.276	0.0174754
783.354	0.0173911
783.433	0.0174754
783.511	0.0174395
783.589	0.0174376
783.667	0.0175127
783.745	0.0175182
783.823	0.0176413
783.901	0.0177159
783.979	0.0177539
784.058	0.0179459
784.136	0.0179504
784.214	0.0177531
784.292	0.0178816
784.370	0.0179500
784.448	0.0180184
784.526	0.0180618
784.604	0.0180190
784.683	0.0181056
784.761	0.0180277
784.839	0.0181487
784.917	0.0182177
784.995	0.0182116
785.073	0.0181959
785.151	0.0181053
785.229	0.0182888
785.308	0.0182414
785.386	0.0182861
785.464	0.0182501
785.542	0.0183240
785.620	0.0182884
785.698	0.0183415
785.776	0.0182456
785.854	0.0181168
785.933	0.0181481
786.011	0.0181143
786.089	0.0180801
786.167	0.0179915
786.245	0.0179967
786.323	0.0177909
786.401	0.0178458
786.479	0.0177330
786.558	0.0178169
786.636	0.0176623
786.714	0.0175385
786.792	0.0176730
786.870	0.0176920
786.948	0.0177699
787.026	0.0176100
787.104	0.0176119
787.183	0.0176349
787.261	0.0176294
787.339	0.0176218
787.417	0.0178392
787.495	0.0177888
787.573	0.0178444
787.651	0.0178323
787.729	0.0178416
787.808	0.0179118
787.886	0.0178735
787.964	0.0179663
788.042	0.0179308
788.120	0.0180460
788.198	0.0180757
788.276	0.0180704
788.354	0.0180637
788.433	0.0181162
788.511	0.0181252
788.589	0.0180312
788.667	0.0181013
788.745	0.0179900
788.823	0.0179153
788.901	0.0179536
788.979	0.0180799
789.058	0.0180679
789.136	0.0179285
789.214	0.0180779
789.292	0.0178590
789.370	0.0179046
789.448	0.0181419
789.526	0.0179531
789.604	0.0180035
789.683	0.0180388
789.761	0.0179395
789.839	0.0177991
789.917	0.0179087
789.995	0.0178308
790.073	0.0178828
790.151	0.0178795
790.229	0.0179748
790.308	0.0177800
790.386	0.0178710
790.464	0.0179878
790.542	0.0179153
790.620	0.0178857
790.698	0.0179410
790.776	0.0179330
790.854	0.0177497
790.933	0.0177385
791.011	0.0179200
791.089	0.0177120
791.167	0.0178269
791.245	0.0177314
791.323	0.0178044
791.401	0.0179707
791.479	0.0177458
791.558	0.0177806
791.636	0.0179109
791.714	0.0178900
791.792	0.0179862
791.870	0.0180136
791.948	0.0179344
792.026	0.0179259
792.104	0.0180328
792.183	0.0179831
792.261	0.0178859
792.339	0.0180342
792.417	0.0180809
792.495	0.0180917
792.573	0.0182101
792.651	0.0181501
792.729	0.0180410
792.808	0.0181506
792.886	0.0181778
792.964	0.0180357
793.042	0.0181271
793.120	0.0179367
793.198	0.0180273
793.276	0.0180781
793.354	0.0180788
793.433	0.0180901
793.511	0.0181257
793.589	0.0179242
793.667	0.0181062
793.745	0.0181186
793.823	0.0180802
793.901	0.0181171
793.979	0.0181394
794.058	0.0180427
794.136	0.0179871
794.214	0.0180444
794.292	0.0180114
794.370	0.0179422
794.448	0.0178857
794.526	0.0179191
794.604	0.0178683
794.683	0.0176638
794.761	0.0176115
794.839	0.0176969
794.917	0.0176115
794.995	0.0175758
795.073	0.0174929
795.151	0.0175452
795.229	0.0174293
795.308	0.0174395
795.386	0.0175687
795.464	0.0176915
795.542	0.0176038
795.620	0.0175929
795.698	0.0177873
795.776	0.0177503
795.854	0.0176550
795.933	0.0179420
796.011	0.0180318
796.089	0.0182542
796.167	0.0181969
796.245	0.0182068
796.323	0.0183225
796.401	0.0183449
796.479	0.0182633
796.558	0.0184801
796.636	0.0184262
796.714	0.0185455
796.792	0.0183913
796.870	0.0183785
796.948	0.0183938
797.026	0.0181911
797.104	0.0182854
797.183	0.0181798
797.261	0.0182131
797.339	0.0181370
797.417	0.0180267
797.495	0.0179771
797.573	0.0179275
797.651	0.0179098
797.729	0.0177291
797.808	0.0178963
797.886	0.0176853
797.964	0.0178975
798.042	0.0176951
798.120	0.0173653
798.198	0.0176566
798.276	0.0176298
798.354	0.0175686
798.433	0.0175124
798.511	0.0174396
798.589	0.0175718
798.667	0.0175543
798.745	0.0174727
798.823	0.0174841
798.901	0.0174370
798.979	0.0176051
799.058	0.0175243
799.136	0.0176947
799.214	0.0177538
799.292	0.0178082
799.370	0.0177056
799.448	0.0179807
799.526	0.0180206
799.604	0.0182624
799.683	0.0182304
799.761	0.0182915
799.839	0.0186118
799.917	0.0186788
799.995	0.0185428
800.073	0.0187610
800.151	0.0189079
800.229	0.0188300
800.308	0.0188600
800.386	0.0188473
800.464	0.0187654
800.542	0.0185341
800.620	0.0185144
800.698	0.0185518
800.776	0.0182548
800.854	0.0181990
800.933	0.0178638
801.011	0.0177074
801.089	0.0175948
801.167	0.0176829
801.245	0.0174434
801.323	0.0172393
801.401	0.0172927
801.479	0.0170410
801.558	0.0169872
801.636	0.0171170
801.714	0.0169180
801.792	0.0169910
801.870	0.0170645
801.948	0.0171942
802.026	0.0172389
802.104	0.0174355
802.183	0.0175229
802.261	0.0174557
802.339	0.0175626
802.417	0.0177403
802.495	0.0179001
802.573	0.0181142
802.651	0.0180861
802.729	0.0181572
802.808	0.0182643
802.886	0.0184203
802.964	0.0184595
803.042	0.0184616
803.120	0.0186039
803.198	0.0186422
803.276	0.0187071
803.354	0.0186129
803.433	0.0185655
803.511	0.0186490
803.589	0.0185487
803.667	0.0185390
803.745	0.0184165
803.823	0.0184029
803.901	0.0183631
803.979	0.0182205
804.058	0.0179919
804.136	0.0180054
804.214	0.0178565
804.292	0.0179067
804.370	0.0176863
804.448	0.0175844
804.526	0.0174064
804.604	0.0174232
804.683	0.0173698
804.761	0.0173667
804.839	0.0172647
804.917	0.0172149
804.995	0.0172222
805.073	0.0174526
805.151	0.0172815
805.229	0.0173574
805.308	0.0172711
805.386	0.0175008
805.464	0.0175333
805.542	0.0176613
805.620	0.0176371
805.698	0.0178880
805.776	0.0179672
805.854	0.0178459
805.933	0.0180907
806.011	0.0181794
806.089	0.0183621
806.167	0.0182827
806.245	0.0184077
806.323	0.0184539
806.401	0.0185032
806.479	0.0185551
806.558	0.0184718
806.636	0.0186074
806.714	0.0183753
806.792	0.0182226
806.870	0.0182568
806.948	0.0183428
807.026	0.0181786
807.104	0.0181892
807.183	0.0181595
807.261	0.0179688
807.339	0.0178036
807.417	0.0176858
807.495	0.0176995
807.573	0.0177260
807.651	0.0175585
807.729	0.0173727
807.808	0.0172515
807.886	0.0173306
807.964	0.0171690
808.042	0.0172428
808.120	0.0173053
808.198	0.0172031
808.276	0.0173888
808.354	0.0172739
808.433	0.0172763
808.511	0.0174301
808.589	0.0174018
808.667	0.0176237
808.745	0.0176266
808.823	0.0177326
808.901	0.0177639
808.979	0.0178328
809.058	0.0179441
809.136	0.0179858
809.214	0.0180354
809.292	0.0182511
809.370	0.0182906
809.448	0.0183630
809.526	0.0184308
809.604	0.0185764
809.683	0.0185155
809.761	0.0184840
809.839	0.0185563
809.917	0.0184743
809.995	0.0186094
810.073	0.0184151
810.151	0.0182680
810.229	0.0181442
810.308	0.0181785
810.386	0.0180543
810.464	0.0180217
810.542	0.0178846
810.620	0.0178484
810.698	0.0178818
810.776	0.0176453
810.854	0.0176380
810.933	0.0175436
811.011	0.0174465
811.089	0.0174447
811.167	0.0172551
811.245	0.0173494
811.323	0.0172912
811.401	0.0174277
811.479	0.0174084
811.558	0.0174684
811.636	0.0175130
811.714	0.0172361
811.792	0.0175070
811.870	0.0175215
811.948	0.0174014
812.026	0.0175527
812.104	0.0175675
812.183	0.0177441
812.261	0.0176207
812.339	0.0177481
812.417	0.0179128
812.495	0.0178443
812.573	0.0178730
812.651	0.0179791
812.729	0.0182030
812.808	0.0181998
812.886	0.0181822
812.964	0.0183229
813.042	0.0183750
813.120	0.0184931
813.198	0.0184711
813.276	0.0184265
813.354	0.0184642
813.433	0.0183304
813.511	0.0182817
813.589	0.0183120
813.667	0.0180959
813.745	0.0180465
813.823	0.0180008
813.901	0.0180252
813.979	0.0179758
814.058	0.0178285
814.136	0.0177969
814.214	0.0178023
814.292	0.0177375
814.370	0.0177607
814.448	0.0177416
814.526	0.0176658
814.604	0.0176816
814.683	0.0177589
814.761	0.0175703
814.839	0.0176203
814.917	0.0177341
814.995	0.0177648
815.073	0.0177442
815.151	0.0176190
815.229	0.0175170
815.308	0.0176038
815.386	0.0176373
815.464	0.0178133
815.542	0.0177563
815.620	0.0178432
815.698	0.0178876
815.776	0.0179350
815.854	0.0181101
815.933	0.0181181
816.011	0.0179707
816.089	0.0181851
816.167	0.0181601
816.245	0.0180765
816.323	0.0178811
816.401	0.0180161
816.479	0.0180506
816.558	0.0180388
816.636	0.0179168
816.714	0.0180081
816.792	0.0179871
816.870	0.0179252
816.948	0.0179930
817.026	0.0179476
817.104	0.0179055
817.183	0.0177981
817.261	0.0177483
817.339	0.0178719
817.417	0.0179100
817.495	0.0179363
817.573	0.0180193
817.651	0.0180167
817.729	0.0179471
817.808	0.0178833
817.886	0.0180181
817.964	0.0180613
818.042	0.0179941
818.120	0.0179253
818.198	0.0179169
818.276	0.0178932
818.354	0.0179885
818.433	0.0179206
818.511	0.0179436
818.589	0.0177865
818.667	0.0177522
818.745	0.0179305
818.823	0.0178915
818.901	0.0178136
818.979	0.0177923
819.058	0.0178442
819.136	0.0178127
819.214	0.0179218
819.292	0.0179480
819.370	0.0179163
819.448	0.0178445
819.526	0.0179314
819.604	0.0180759
819.683	0.0180222
819.761	0.0180363
819.839	0.0181285
819.917	0.0181696
819.995	0.0181073
820.073	0.0180896
820.151	0.0182095
820.229	0.0178368
820.308	0.0180135
820.386	0.0179510
820.464	0.0179735
820.542	0.0178748
820.620	0.0177778
820.698	0.0178445
820.776	0.0178765
820.854	0.0177780
820.933	0.0178888
821.011	0.0179092
821.089	0.0178634
821.167	0.0179121
821.245	0.0179007
821.323	0.0180099
821.401	0.0181836
821.479	0.0181981
821.558	0.0180287
821.636	0.0179640
821.714	0.0182293
821.792	0.0181573
821.870	0.0181087
821.948	0.0180611
822.026	0.0179967
822.104	0.0179559
822.183	0.0178609
822.261	0.0178388
822.339	0.0178389
822.417	0.0177043
822.495	0.0175975
822.573	0.0175598
822.651	0.0175311
822.729	0.0175948
822.808	0.0175140
822.886	0.0174535
822.964	0.0175299
823.042	0.0175581
823.120	0.0175924
823.198	0.0176746
823.276	0.0176227
823.354	0.0177293
823.433	0.0177988
823.511	0.0178632
823.589	0.0177838
823.667	0.0178334
823.745	0.0180310
823.823	0.0179986
823.901	0.0180051
823.979	0.0182211
824.058	0.0182567
824.136	0.0180786
824.214	0.0181640
824.292	0.0183407
824.370	0.0183257
824.448	0.0182814
824.526	0.0183087
824.604	0.0182351
824.683	0.0182323
824.761	0.0181730
824.839	0.0182193
824.917	0.0181036
824.995	0.0181745
825.073	0.0180653
825.151	0.0179983
825.229	0.0178531
825.308	0.0177229
825.386	0.0179108
825.464	0.0177888
825.542	0.0177646
825.620	0.0177095
825.698	0.0175699
825.776	0.0175759
825.854	0.0175992
825.933	0.0176063
826.011	0.0175568
826.089	0.0175387
826.167	0.0174554
826.245	0.0174402
826.323	0.0174681
826.401	0.0175580
826.479	0.0175599
826.558	0.0174029
826.636	0.0175833
826.714	0.0176627
826.792	0.0175972
826.870	0.0178026
826.948	0.0177923
827.026	0.0179984
827.104	0.0179704
827.183	0.0180281
827.261	0.0181566
827.339	0.0181523
827.417	0.0183609
827.495	0.0185415
827.573	0.0184310
827.651	0.0184040
827.729	0.0184698
827.808	0.0183477
827.886	0.0182904
827.964	0.0182912
828.042	0.0182975
828.120	0.0181207
828.198	0.0180518
828.276	0.0178999
828.354	0.0177946
828.433	0.0179513
828.511	0.0178585
828.589	0.0177087
828.667	0.0175192
828.745	0.0174758
828.823	0.0175780
828.901	0.0176676
828.979	0.0174725
829.058	0.0175358
829.136	0.0176048
829.214	0.0174648
829.292	0.0176545
829.370	0.0177006
829.448	0.0177119
829.526	0.0176424
829.604	0.0176624
829.683	0.0178268
829.761	0.0178822
829.839	0.0179337
829.917	0.0180471
829.995	0.0180895
830.073	0.0180607
830.151	0.0179417
830.229	0.0181609
830.308	0.0181842
830.386	0.0181384
830.464	0.0182265
830.542	0.0182330
830.620	0.0181353
830.698	0.0181529
830.776	0.0181364
830.854	0.0180655
830.933	0.0179253
831.011	0.0179800
831.089	0.0180225
831.167	0.0178517
831.245	0.0177648
831.323	0.0177782
831.401	0.0177083
831.479	0.0176001
831.558	0.0176182
831.636	0.0175543
831.714	0.0174378
831.792	0.0175558
831.870	0.0177624
831.948	0.0177303
832.026	0.0176491
832.104	0.0177557
832.183	0.0177408
832.261	0.0177100
832.339	0.0176966
832.417	0.0178532
832.495	0.0179723
832.573	0.0179072
832.651	0.0180437
832.729	0.0180904
832.808	0.0181013
832.886	0.0180981
832.964	0.0181730
833.042	0.0182087
833.120	0.0182204
833.198	0.0183026
833.276	0.0183384
833.354	0.0182893
833.433	0.0183959
833.511	0.0181948
833.589	0.0182314
833.667	0.0182311
833.745	0.0183207
833.823	0.0183099
833.901	0.0181304
833.979	0.0180447
834.058	0.0180038
834.136	0.0178580
834.214	0.0177922
834.292	0.0178517
834.370	0.0178085
834.448	0.0177523
834.526	0.0175706
834.604	0.0177001
834.683	0.0176521
834.761	0.0176231
834.839	0.0176022
834.917	0.0175693
834.995	0.0177065
835.073	0.0176084
835.151	0.0176641
835.229	0.0177664
835.308	0.0177687
835.386	0.0178275
835.464	0.0178951
835.542	0.0179555
835.620	0.0180125
835.698	0.0181671
835.776	0.0181491
835.854	0.0181982
835.933	0.0183442
836.011	0.0181771
836.089	0.0183147
836.167	0.0183722
836.245	0.0182322
836.323	0.0184433
836.401	0.0183825
836.479	0.0183042
836.558	0.0182263
836.636	0.0182944
836.714	0.0181863
836.792	0.0180550
836.870	0.0180096
836.948	0.0181507
837.026	0.0179936
837.104	0.0178876
837.183	0.0179716
837.261	0.0178063
837.339	0.0177489
837.417	0.0175806
837.495	0.0177269
837.573	0.0175343
837.651	0.0176319
837.729	0.0175727
837.808	0.0174612
837.886	0.0174793
837.964	0.0176556
838.042	0.0176855
838.120	0.0176041
838.198	0.0174877
838.276	0.0176235
838.354	0.0177110
838.433	0.0176603
838.511	0.0178129
838.589	0.0178276
838.667	0.0179137
838.745	0.0179106
838.823	0.0179758
838.901	0.0180505
838.979	0.0180630
839.058	0.0181805
839.136	0.0182072
839.214	0.0182138
839.292	0.0181058
839.370	0.0179628
839.448	0.0182215
839.526	0.0181923
839.604	0.0183294
839.683	0.0182330
839.761	0.0181650
839.839	0.0181545
839.917	0.0181169
839.995	0.0182053
840.073	0.0182337
840.151	0.0181944
840.229	0.0180948
840.308	0.0180612
840.386	0.0181456
840.464	0.0180350
840.542	0.0179207
840.620	0.0179842
840.698	0.0179699
840.776	0.0177925
840.854	0.0177179
840.933	0.0178275
841.011	0.0176959
841.089	0.0177815
841.167	0.0177205
841.245	0.0178770
841.323	0.0177940
841.401	0.0177966
841.479	0.0178803
841.558	0.0180325
841.636	0.0179708
841.714	0.0180462
841.792	0.0179578
841.870	0.0181474
841.948	0.0181178
842.026	0.0181197
842.104	0.0180534
842.183	0.0182417
842.261	0.0182571
842.339	0.0180765
842.417	0.0180235
842.495	0.0180489
842.573	0.0180460
842.651	0.0180135
842.729	0.0181515
842.808	0.0181532
842.886	0.0180450
842.964	0.0179601
843.042	0.0180701
843.120	0.0179517
843.198	0.0179839
843.276	0.0179096
843.354	0.0178613
843.433	0.0178606
843.511	0.0179367
843.589	0.0178870
843.667	0.0180092
843.745	0.0178400
843.823	0.0179229
843.901	0.0179004
843.979	0.0178484
844.058	0.0178176
844.136	0.0179192
844.214	0.0177871
844.292	0.0177399
844.370	0.0178058
844.448	0.0178413
844.526	0.0180528
844.604	0.0178209
844.683	0.0177992
844.761	0.0179104
844.839	0.0181731
844.917	0.0178962
844.995	0.0178432
845.073	0.0178585
845.151	0.0180655
845.229	0.0180560
845.308	0.0180177
845.386	0.0179538
845.464	0.0178518
845.542	0.0180198
845.620	0.0179939
845.698	0.0178546
845.776	0.0178846
845.854	0.0179838
845.933	0.0178813
846.011	0.0179330
846.089	0.0179693
846.167	0.0179848
846.245	0.0178340
846.323	0.0180173
846.401	0.0179338
846.479	0.0178882
846.558	0.0178765
846.636	0.0179454
846.714	0.0178029
846.792	0.0178459
846.870	0.0179140
846.948	0.0179794
847.026	0.0178926
847.104	0.0177753
847.183	0.0179910
847.261	0.0178996
847.339	0.0177203
847.417	0.0178559
847.495	0.0179830
847.573	0.0180213
847.651	0.0178972
847.729	0.0180247
847.808	0.0179440
847.886	0.0180914
847.964	0.0180267
848.042	0.0180071
848.120	0.0180363
848.198	0.0179948
848.276	0.0180312
848.354	0.0180346
848.433	0.0179426
848.511	0.0180321
848.589	0.0180207
848.667	0.0181432
848.745	0.0179618
848.823	0.0179619
848.901	0.0178665
848.979	0.0178798
849.058	0.0179150
849.136	0.0178999
849.214	0.0178951
849.292	0.0177361
849.370	0.0176583
849.448	0.0178870
849.526	0.0178694
849.604	0.0177734
849.683	0.0177006
849.761	0.0177165
849.839	0.0178345
849.917	0.0177781
849.995	0.0179249
850.073	0.0178914
850.151	0.0179153
850.229	0.0178184
850.308	0.0179520
850.386	0.0180081
850.464	0.0179675
850.542	0.0179797
850.620	0.0180536
850.698	0.0180469
850.776	0.0179719
850.854	0.0180538
850.933	0.0180489
851.011	0.0179285
851.089	0.0178565
851.167	0.0178992
851.245	0.0180043
851.323	0.0179185
851.401	0.0179610
851.479	0.0179479
851.558	0.0180101
851.636	0.0179233
851.714	0.0180421
851.792	0.0181560
851.870	0.0180581
851.948	0.0179179
852.026	0.0180135
852.104	0.0179081
852.183	0.0180021
852.261	0.0180717
852.339	0.0178716
852.417	0.0178606
852.495	0.0178250
852.573	0.0180193
852.651	0.0179394
852.729	0.0179386
852.808	0.0179280
852.886	0.0179121
852.964	0.0178361
853.042	0.0178234
853.120	0.0179928
853.198	0.0179404
853.276	0.0177505
853.354	0.0177292
853.433	0.0178844
853.511	0.0178460
853.589	0.0177611
853.667	0.0177930
853.745	0.0177061
853.823	0.0177891
853.901	0.0177518
853.979	0.0178297
854.058	0.0177068
854.136	0.0176694
854.214	0.0179122
854.292	0.0179438
854.370	0.0178411
854.448	0.0179475
854.526	0.0179358
854.604	0.0178931
854.683	0.0181086
854.761	0.0180656
854.839	0.0179982
854.917	0.0181023
854.995	0.0181158
855.073	0.0180281
855.151	0.0181297
855.229	0.0180978
855.308	0.0180201
855.386	0.0180134
855.464	0.0180004
855.542	0.0182131
855.620	0.0180690
855.698	0.0180282
855.776	0.0177549
855.854	0.0178925
855.933	0.0180495
856.011	0.0181002
856.089	0.0179606
856.167	0.0179620
856.245	0.0181976
856.323	0.0179728
856.401	0.0179682
856.479	0.0179768
856.558	0.0178534
856.636	0.0181065
856.714	0.0179378
856.792	0.0181062
856.870	0.0181783
856.948	0.0180522
857.026	0.0179739
857.104	0.0179607
857.183	0.0180413
857.261	0.0180634
857.339	0.0178874
857.417	0.0179078
857.495	0.0178570
857.573	0.0178167
857.651	0.0178616
857.729	0.0178188
857.808	0.0178133
857.886	0.0177546
857.964	0.0179846
858.042	0.0180210
858.120	0.0179335
858.198	0.0178414
858.276	0.0178465
858.354	0.0177927
858.433	0.0180147
858.511	0.0178713
858.589	0.0178202
858.667	0.0178004
858.745	0.0179379
858.823	0.0179989
858.901	0.0179042
858.979	0.0178320
859.058	0.0179585
859.136	0.0179247
859.214	0.0179927
859.292	0.0178772
859.370	0.0178996
859.448	0.0179167
859.526	0.0178683
859.604	0.0179250
859.683	0.0179594
859.761	0.0180800
859.839	0.0179302
859.917	0.0179592
859.995	0.0180345
860.073	0.0179859
860.151	0.0178291
860.229	0.0179723
860.308	0.0180488
860.386	0.0180093
860.464	0.0179725
860.542	0.0181246
860.620	0.0180483
860.698	0.0179520
860.776	0.0181721
860.854	0.0181464
860.933	0.0181234
861.011	0.0180524
861.089	0.0180557
861.167	0.0180827
861.245	0.0181535
861.323	0.0180304
861.401	0.0179966
861.479	0.0179669
861.558	0.0179672
861.636	0.0179884
861.714	0.0179062
861.792	0.0176707
861.870	0.0178613
861.948	0.0177794
862.026	0.0177748
862.104	0.0179896
862.183	0.0178412
862.261	0.0178760
862.339	0.0177272
862.417	0.0179480
862.495	0.0179247
862.573	0.0178902
862.651	0.0178145
862.729	0.0177934
862.808	0.0179129
862.886	0.0179749
862.964	0.0179635
863.042	0.0178909
863.120	0.0178518
863.198	0.0178974
863.276	0.0181118
863.354	0.0181084
863.433	0.0180250
863.511	0.0180631
863.589	0.0181404
863.667	0.0181169
863.745	0.0182048
863.823	0.0181040
863.901	0.0180772
863.979	0.0181062
864.058	0.0181514
864.136	0.0181860
864.214	0.0180524
864.292	0.0180849
864.370	0.0180247
864.448	0.0180313
864.526	0.0180244
864.604	0.0179091
864.683	0.0178845
864.761	0.0178595
864.839	0.0178925
864.917	0.0178589
864.995	0.0177251
865.073	0.0177518
865.151	0.0176559
865.229	0.0176643
865.308	0.0177534
865.386	0.0175816
865.464	0.0177224
865.542	0.0178245
865.620	0.0177004
865.698	0.0176848
865.776	0.0178783
865.854	0.0178079
865.933	0.0178976
866.011	0.0178485
866.089	0.0178859
866.167	0.0179773
866.245	0.0179841
866.323	0.0179086
866.401	0.0181719
866.479	0.0181176
866.558	0.0181667
866.636	0.0181999
866.714	0.0181311
866.792	0.0180789
866.870	0.0179906
866.948	0.0181128
867.026	0.0180756
867.104	0.0180154
867.183	0.0178910
867.261	0.0178658
867.339	0.0179939
867.417	0.0179402
867.495	0.0178208
867.573	0.0178210
867.651	0.0177958
867.729	0.0179818
867.808	0.0178725
867.886	0.0178603
867.964	0.0177146
868.042	0.0178777
868.120	0.0179544
868.198	0.0179578
868.276	0.0178650
868.354	0.0177831
868.433	0.0177840
868.511	0.0179202
868.589	0.0178405
868.667	0.0178438
868.745	0.0178043
868.823	0.0178175
868.901	0.0180034
868.979	0.0178593
869.058	0.0179456
869.136	0.0178575
869.214	0.0180444
869.292	0.0179491
869.370	0.0179575
869.448	0.0179166
869.526	0.0180187
869.604	0.0179422
869.683	0.0178910
869.761	0.0180126
869.839	0.0180179
869.917	0.0179403
869.995	0.0178232
870.073	0.0178386
870.151	0.0179455
870.229	0.0180077
870.308	0.0179315
870.386	0.0178931
870.464	0.0179241
870.542	0.0180151
870.620	0.0178814
870.698	0.0179449
870.776	0.0179468
870.854	0.0178557
870.933	0.0178907
871.011	0.0178947
871.089	0.0179998
871.167	0.0178478
871.245	0.0178702
871.323	0.0178703
871.401	0.0180327
871.479	0.0179390
871.558	0.0178458
871.636	0.0178232
871.714	0.0179710
871.792	0.0179940
871.870	0.0178287
871.948	0.0177980
872.026	0.0178470
872.104	0.0177741
872.183	0.0179214
872.261	0.0179398
872.339	0.0178835
872.417	0.0179748
872.495	0.0178904
872.573	0.0178202
872.651	0.0178025
872.729	0.0179435
872.808	0.0178860
872.886	0.0179881
872.964	0.0180532
873.042	0.0177601
873.120	0.0179471
873.198	0.0179354
873.276	0.0176983
873.354	0.0178716
873.433	0.0178224
873.511	0.0177618
873.589	0.0178266
873.667	0.0179448
873.745	0.0178796
873.823	0.0178529
873.901	0.0177626
873.979	0.0178126
874.058	0.0178516
874.136	0.0179786
874.214	0.0179374
874.292	0.0179047
874.370	0.0178503
874.448	0.0177541
874.526	0.0178717
874.604	0.0180701
874.683	0.0180054
874.761	0.0178697
874.839	0.0179053
874.917	0.0178632
874.995	0.0179230
875.073	0.0178931
875.151	0.0179462
875.229	0.0178860
875.308	0.0178749
875.386	0.0178483
875.464	0.0180096
875.542	0.0178950
875.620	0.0179682
875.698	0.0179438
875.776	0.0179134
875.854	0.0178477
875.933	0.0179724
876.011	0.0178358
876.089	0.0178542
876.167	0.0179756
876.245	0.0179607
876.323	0.0178793
876.401	0.0178401
876.479	0.0178895
876.558	0.0180489
876.636	0.0179331
876.714	0.0178685
876.792	0.0178831
876.870	0.0177219
876.948	0.0179253
877.026	0.0177589
877.104	0.0179613
877.183	0.0179218
877.261	0.0177946
877.339	0.0179093
877.417	0.0178020
877.495	0.0178143
877.573	0.0178178
877.651	0.0177905
877.729	0.0178680
877.808	0.0178311
877.886	0.0177836
877.964	0.0177470
878.042	0.0178579
878.120	0.0178779
878.198	0.0178197
878.276	0.0178801
878.354	0.0178703
878.433	0.0179924
878.511	0.0179301
878.589	0.0180363
878.667	0.0180451
878.745	0.0179580
878.823	0.0179317
878.901	0.0178930
878.979	0.0180512
879.058	0.0179037
879.136	0.0179386
879.214	0.0180762
879.292	0.0179610
879.370	0.0179227
879.448	0.0179697
879.526	0.0179876
879.604	0.0178981
879.683	0.0179173
879.761	0.0179082
879.839	0.0179420
879.917	0.0178438
879.995	0.0177389
880.073	0.0178891
880.151	0.0177293
880.229	0.0177406
880.308	0.0176707
880.386	0.0176109
880.464	0.0176322
880.542	0.0175188
880.620	0.0176370
880.698	0.0176398
880.776	0.0176476
880.854	0.0177465
880.933	0.0177655
881.011	0.0178628
881.089	0.0178911
881.167	0.0178175
881.245	0.0177760
881.323	0.0178909
881.401	0.0178374
881.479	0.0179877
881.558	0.0181184
881.636	0.0179488
881.714	0.0179337
881.792	0.0180476
881.870	0.0181299
881.948	0.0180970
882.026	0.0180768
882.104	0.0179353
882.183	0.0180634
882.261	0.0180141
882.339	0.0181564
882.417	0.0180201
882.495	0.0179717
882.573	0.0178189
882.651	0.0177979
882.729	0.0179401
882.808	0.0177721
882.886	0.0178371
882.964	0.0179650
883.042	0.0178745
883.120	0.0177852
883.198	0.0177811
883.276	0.0178350
883.354	0.0178830
883.433	0.0178643
883.511	0.0178963
883.589	0.0178738
883.667	0.0177114
883.745	0.0178365
883.823	0.0177487
883.901	0.0177528
883.979	0.0177903
884.058	0.0178387
884.136	0.0178932
884.214	0.0179539
884.292	0.0177438
884.370	0.0179245
884.448	0.0180267
884.526	0.0178662
884.604	0.0180373
884.683	0.0179972
884.761	0.0179781
884.839	0.0179661
884.917	0.0180514
884.995	0.0180536
885.073	0.0180775
885.151	0.0178926
885.229	0.0180341
885.308	0.0180566
885.386	0.0178951
885.464	0.0179686
885.542	0.0179741
885.620	0.0178401
885.698	0.0177994
885.776	0.0177835
885.854	0.0177657
885.933	0.0176756
886.011	0.0178599
886.089	0.0178828
886.167	0.0177645
886.245	0.0178902
886.323	0.0176267
886.401	0.0179286
886.479	0.0177923
886.558	0.0178026
886.636	0.0179102
886.714	0.0178692
886.792	0.0178903
886.870	0.0178260
886.948	0.0179565
887.026	0.0178517
887.104	0.0177839
887.183	0.0177743
887.261	0.0178703
887.339	0.0177860
887.417	0.0177094
887.495	0.0179314
887.573	0.0178458
887.651	0.0177679
887.729	0.0178480
887.808	0.0180403
887.886	0.0177836
887.964	0.0176656
888.042	0.0180604
888.120	0.0179825
888.198	0.0180159
888.276	0.0180885
888.354	0.0181260
888.433	0.0181485
888.511	0.0180546
888.589	0.0182021
888.667	0.0181005
888.745	0.0180956
888.823	0.0181207
888.901	0.0180617
888.979	0.0180450
889.058	0.0179626
889.136	0.0178436
889.214	0.0179170
889.292	0.0179921
889.370	0.0179642
889.448	0.0180271
889.526	0.0179009
889.604	0.0178822
889.683	0.0177453
889.761	0.0177531
889.839	0.0175455
889.917	0.0175893
889.995	0.0176888
890.073	0.0175475
890.151	0.0176896
890.229	0.0176634
890.308	0.0176440
890.386	0.0176765
890.464	0.0175755
890.542	0.0176668
890.620	0.0177029
890.698	0.0177917
890.776	0.0178121
890.854	0.0178915
890.933	0.0178229
891.011	0.0178316
891.089	0.0178909
891.167	0.0179652
891.245	0.0181246
891.323	0.0181626
891.401	0.0182087
891.479	0.0182224
891.558	0.0181751
891.636	0.0183905
891.714	0.0183578
891.792	0.0183418
891.870	0.0183207
891.948	0.0182138
892.026	0.0182256
892.104	0.0180740
892.183	0.0181332
892.261	0.0180473
892.339	0.0180378
892.417	0.0179548
892.495	0.0177599
892.573	0.0176411
892.651	0.0176543
892.729	0.0176935
892.808	0.0176432
892.886	0.0177223
892.964	0.0176723
893.042	0.0175659
893.120	0.0176266
893.198	0.0174023
893.276	0.0173621
893.354	0.0175420
893.433	0.0175103
893.511	0.0174324
893.589	0.0173911
893.667	0.0175102
893.745	0.0175719
893.823	0.0174592
893.901	0.0175497
893.979	0.0177323
894.058	0.0177850
894.136	0.0177409
894.214	0.0178515
894.292	0.0181382
894.370	0.0182497
894.448	0.0183109
894.526	0.0183472
894.604	0.0183811
894.683	0.0183131
894.761	0.0186114
894.839	0.0186597
894.917	0.0183690
894.995	0.0183975
895.073	0.0184376
895.151	0.0183895
895.229	0.0183321
895.308	0.0183427
895.386	0.0183152
895.464	0.0182232
895.542	0.0180154
895.620	0.0180731
895.698	0.0177728
895.776	0.0177285
895.854	0.0176971
895.933	0.0174831
896.011	0.0174970
896.089	0.0173190
896.167	0.0173508
896.245	0.0173656
896.323	0.0172648
896.401	0.0171392
896.479	0.0172595
896.558	0.0172350
896.636	0.0172066
896.714	0.0174441
896.792	0.0173259
896.870	0.0174409
896.948	0.0174734
897.026	0.0176594
897.104	0.0176878
897.183	0.0177705
897.261	0.0177704
897.339	0.0180987
897.417	0.0182483
897.495	0.0182025
897.573	0.0183295
897.651	0.0186478
897.729	0.0186845
897.808	0.0188060
897.886	0.0188246
897.964	0.0189884
898.042	0.0188291
898.120	0.0189067
898.198	0.0187030
898.276	0.0187543
898.354	0.0187344
898.433	0.0187524
898.511	0.0184692
898.589	0.0182430
898.667	0.0181335
898.745	0.0179772
898.823	0.0176257
898.901	0.0175655
898.979	0.0173416
899.058	0.0171741
899.136	0.0171378
899.214	0.0169444
899.292	0.0168291
899.370	0.0169376
899.448	0.0168789
899.526	0.0169012
899.604	0.0170396
899.683	0.0170062
899.761	0.0171378
899.839	0.0171279
899.917	0.0172630
899.995	0.0173126
900.073	0.0174160
900.151	0.0174900
900.229	0.0175944
900.308	0.0178066
900.386	0.0179002
900.464	0.0180598
900.542	0.0181586
900.620	0.0183709
900.698	0.0184964
900.776	0.0186726
900.854	0.0185670
900.933	0.0189809
901.011	0.0188101
901.089	0.0189510
901.167	0.0188345
901.245	0.0189674
901.323	0.0189215
901.401	0.0188503
901.479	0.0187568
901.558	0.0185793
901.636	0.0184515
901.714	0.0181969
901.792	0.0181682
901.870	0.0179033
901.948	0.0176921
902.026	0.0174818
902.104	0.0173839
902.183	0.0172863
902.261	0.0170728
902.339	0.0170631
902.417	0.0169879
902.495	0.0169125
902.573	0.0170392
902.651	0.0170406
902.729	0.0171672
902.808	0.0170656
902.886	0.0171212
902.964	0.0173071
903.042	0.0173029
903.120	0.0174107
903.198	0.0174030
903.276	0.0175480
903.354	0.0177245
903.433	0.0179358
903.511	0.0179288
903.589	0.0180849
903.667	0.0181992
903.745	0.0182183
903.823	0.0183026
903.901	0.0183501
903.979	0.0184759
904.058	0.0186678
904.136	0.0186113
904.214	0.0185622
904.292	0.0187962
904.370	0.0187222
904.448	0.0186176
904.526	0.0185016
904.604	0.0184715
904.683	0.0184557
904.761	0.0183191
904.839	0.0181416
904.917	0.0180190
904.995	0.0179745
905.073	0.0178181
905.151	0.0178155
905.229	0.0177075
905.308	0.0175671
905.386	0.0173833
905.464	0.0174023
905.542	0.0174079
905.620	0.0173557
905.698	0.0174734
905.776	0.0174440
905.854	0.0175099
905.933	0.0175117
906.011	0.0174017
906.089	0.0174176
906.167	0.0174635
906.245	0.0174690
906.323	0.0173251
906.401	0.0175789
906.479	0.0176369
906.558	0.0177007
906.636	0.0177241
906.714	0.0176628
906.792	0.0177818
906.870	0.0179736
906.948	0.0180019
907.026	0.0181421
907.104	0.0180322
907.183	0.0181776
907.261	0.0183331
907.339	0.0184566
907.417	0.0183678
907.495	0.0183195
907.573	0.0183168
907.651	0.0183398
907.729	0.0182912
907.808	0.0181910
907.886	0.0181682
907.964	0.0180788
908.042	0.0180656
908.120	0.0179644
908.198	0.0179853
908.276	0.0179427
908.354	0.0178196
908.433	0.0178416
908.511	0.0176605
908.589	0.0177627
908.667	0.0176427
908.745	0.0176125
908.823	0.0176585
908.901	0.0176193
908.979	0.0176624
909.058	0.0176379
909.136	0.0177863
909.214	0.0175919
909.292	0.0177575
909.370	0.0178050
909.448	0.0176685
909.526	0.0178516
909.604	0.0178160
909.683	0.0179619
909.761	0.0179053
909.839	0.0180963
909.917	0.0180368
909.995	0.0180775
910.073	0.0181960
910.151	0.0181190
910.229	0.0181269
910.308	0.0181949
910.386	0.0180651
910.464	0.0180895
910.542	0.0180972
910.620	0.0180671
910.698	0.0180863
910.776	0.0180721
910.854	0.0178360
910.933	0.0179309
911.011	0.0179202
911.089	0.0178680
911.167	0.0178653
911.245	0.0179253
911.323	0.0178560
911.401	0.0179405
911.479	0.0179118
911.558	0.0178364
911.636	0.0177783
911.714	0.0178280
911.792	0.0179655
911.870	0.0179802
911.948	0.0178732
912.026	0.0179414
912.104	0.0179436
912.183	0.0178806
912.261	0.0179976
912.339	0.0178791
912.417	0.0178893
912.495	0.0180013
912.573	0.0179964
912.651	0.0180078
912.729	0.0180907
912.808	0.0180865
912.886	0.0180645
912.964	0.0182293
913.042	0.0181122
913.120	0.0181030
913.198	0.0181277
913.276	0.0180857
913.354	0.0181422
913.433	0.0180448
913.511	0.0182381
913.589	0.0179447
913.667	0.0179881
913.745	0.0178772
913.823	0.0179512
913.901	0.0179260
913.979	0.0180139
914.058	0.0179196
914.136	0.0179609
914.214	0.0178082
914.292	0.0178959
914.370	0.0177899
914.448	0.0178423
914.526	0.0178310
914.604	0.0178819
914.683	0.0178435
914.761	0.0177719
914.839	0.0178280
914.917	0.0178208
914.995	0.0177453
915.073	0.0178985
915.151	0.0178291
915.229	0.0178940
915.308	0.0179495
915.386	0.0179416
915.464	0.0178543
915.542	0.0178596
915.620	0.0179039
915.698	0.0178070
915.776	0.0178967
915.854	0.0179880
915.933	0.0178740
916.011	0.0179354
916.089	0.0178691
916.167	0.0178629
916.245	0.0180073
916.323	0.0179913
916.401	0.0180392
916.479	0.0180164
916.558	0.0180247
916.636	0.0179519
916.714	0.0180238
916.792	0.0178766
916.870	0.0179893
916.948	0.0179759
917.026	0.0179423
917.104	0.0179379
917.183	0.0179931
917.261	0.0178722
917.339	0.0178121
917.417	0.0178698
917.495	0.0177728
917.573	0.0177413
917.651	0.0179088
917.729	0.0178780
917.808	0.0179254
917.886	0.0180018
917.964	0.0177463
918.042	0.0178302
918.120	0.0179324
918.198	0.0178513
918.276	0.0178497
918.354	0.0178474
918.433	0.0179607
918.511	0.0181113
918.589	0.0180253
918.667	0.0180976
918.745	0.0180418
918.823	0.0179810
918.901	0.0179013
918.979	0.0180119
919.058	0.0180618
919.136	0.0178563
919.214	0.0178690
919.292	0.0180116
919.370	0.0179517
919.448	0.0178694
919.526	0.0178197
919.604	0.0179015
919.683	0.0179035
919.761	0.0178024
919.839	0.0178246
919.917	0.0177668
