06/03/2022	18:11:08	Ver.	4.1	UNKNOWN
Optical Delay	599.995081	Delta X		0.078125	Sweeps	1	Scan Rate	0/0
Coordinates	Axis 1	NaN	Axis 2	NaN	Axis 3	NaN	Axis 4	NaN	Axis 5	NaN	Axis 6	0.000000
TX Power	0.000000	RX Power	0.000000

599.995	0.0180605
600.073	0.0181435
600.151	0.0180880
600.229	0.0179580
600.308	0.0181277
600.386	0.0180695
600.464	0.0181082
600.542	0.0180296
600.620	0.0180552
600.698	0.0181101
600.776	0.0181472
600.854	0.0182203
600.933	0.0179816
601.011	0.0179411
601.089	0.0179854
601.167	0.0180669
601.245	0.0181116
601.323	0.0180554
601.401	0.0179082
601.479	0.0180827
601.558	0.0180331
601.636	0.0180541
601.714	0.0178931
601.792	0.0180643
601.870	0.0181074
601.948	0.0180379
602.026	0.0179463
602.104	0.0180479
602.183	0.0179824
602.261	0.0180450
602.339	0.0181268
602.417	0.0180874
602.495	0.0181170
602.573	0.0182719
602.651	0.0180476
602.729	0.0180952
602.808	0.0181533
602.886	0.0181001
602.964	0.0180587
603.042	0.0180499
603.120	0.0180705
603.198	0.0181824
603.276	0.0181244
603.354	0.0180624
603.433	0.0180163
603.511	0.0182040
603.589	0.0180211
603.667	0.0180262
603.745	0.0181014
603.823	0.0180471
603.901	0.0180823
603.979	0.0180412
604.058	0.0180848
604.136	0.0181180
604.214	0.0180948
604.292	0.0179710
604.370	0.0180006
604.448	0.0181258
604.526	0.0181264
604.604	0.0181741
604.683	0.0180061
604.761	0.0180952
604.839	0.0182187
604.917	0.0180479
604.995	0.0179824
605.073	0.0179657
605.151	0.0180433
605.229	0.0180199
605.308	0.0181884
605.386	0.0180763
605.464	0.0180965
605.542	0.0181011
605.620	0.0180822
605.698	0.0180768
605.776	0.0181325
605.854	0.0181437
605.933	0.0180743
606.011	0.0181717
606.089	0.0181968
606.167	0.0180366
606.245	0.0180071
606.323	0.0181910
606.401	0.0181168
606.479	0.0181979
606.558	0.0180515
606.636	0.0180369
606.714	0.0179943
606.792	0.0180058
606.870	0.0180151
606.948	0.0181254
607.026	0.0181084
607.104	0.0180461
607.183	0.0181596
607.261	0.0180976
607.339	0.0180652
607.417	0.0181168
607.495	0.0182063
607.573	0.0180988
607.651	0.0180508
607.729	0.0180553
607.808	0.0181870
607.886	0.0181339
607.964	0.0180405
608.042	0.0181156
608.120	0.0180658
608.198	0.0180732
608.276	0.0181597
608.354	0.0181058
608.433	0.0181105
608.511	0.0180907
608.589	0.0180931
608.667	0.0179818
608.745	0.0180978
608.823	0.0181199
608.901	0.0180093
608.979	0.0180830
609.058	0.0181533
609.136	0.0180835
609.214	0.0180921
609.292	0.0180378
609.370	0.0179883
609.448	0.0180962
609.526	0.0181003
609.604	0.0181102
609.683	0.0180632
609.761	0.0181210
609.839	0.0180325
609.917	0.0180348
609.995	0.0180600
610.073	0.0180316
610.151	0.0182254
610.229	0.0180170
610.308	0.0181036
610.386	0.0182218
610.464	0.0182069
610.542	0.0179697
610.620	0.0178550
610.698	0.0181582
610.776	0.0181050
610.854	0.0180173
610.933	0.0181670
611.011	0.0181506
611.089	0.0180330
611.167	0.0179816
611.245	0.0180624
611.323	0.0179915
611.401	0.0179480
611.479	0.0179955
611.558	0.0180027
611.636	0.0180200
611.714	0.0180846
611.792	0.0180492
611.870	0.0180757
611.948	0.0180530
612.026	0.0180724
612.104	0.0180714
612.183	0.0179614
612.261	0.0180025
612.339	0.0179834
612.417	0.0179933
612.495	0.0179832
612.573	0.0180148
612.651	0.0180449
612.729	0.0181551
612.808	0.0180471
612.886	0.0180476
612.964	0.0181225
613.042	0.0179940
613.120	0.0180189
613.198	0.0180158
613.276	0.0180193
613.354	0.0180264
613.433	0.0181403
613.511	0.0181587
613.589	0.0180193
613.667	0.0178902
613.745	0.0180819
613.823	0.0180589
613.901	0.0179903
613.979	0.0180175
614.058	0.0179855
614.136	0.0181745
614.214	0.0180540
614.292	0.0179318
614.370	0.0180570
614.448	0.0179745
614.526	0.0180550
614.604	0.0181760
614.683	0.0180061
614.761	0.0180668
614.839	0.0181175
614.917	0.0180870
614.995	0.0181327
615.073	0.0180731
615.151	0.0179901
615.229	0.0180063
615.308	0.0179866
615.386	0.0182682
615.464	0.0182056
615.542	0.0181414
615.620	0.0180807
615.698	0.0180525
615.776	0.0179740
615.854	0.0182255
615.933	0.0180622
616.011	0.0179153
616.089	0.0179506
616.167	0.0181472
616.245	0.0179591
616.323	0.0181399
616.401	0.0180661
616.479	0.0180981
616.558	0.0180981
616.636	0.0180385
616.714	0.0180315
616.792	0.0180473
616.870	0.0181287
616.948	0.0180584
617.026	0.0181129
617.104	0.0181459
617.183	0.0181735
617.261	0.0182466
617.339	0.0180711
617.417	0.0180783
617.495	0.0181267
617.573	0.0180768
617.651	0.0180416
617.729	0.0179636
617.808	0.0180006
617.886	0.0181219
617.964	0.0181024
618.042	0.0179779
618.120	0.0180680
618.198	0.0180505
618.276	0.0180627
618.354	0.0179837
618.433	0.0179504
618.511	0.0180766
618.589	0.0180856
618.667	0.0179370
618.745	0.0180580
618.823	0.0180469
618.901	0.0180436
618.979	0.0181029
619.058	0.0180835
619.136	0.0180009
619.214	0.0180328
619.292	0.0181294
619.370	0.0180776
619.448	0.0180038
619.526	0.0181440
619.604	0.0179968
619.683	0.0180647
619.761	0.0182298
619.839	0.0180881
619.917	0.0182081
619.995	0.0180080
620.073	0.0180824
620.151	0.0180440
620.229	0.0179858
620.308	0.0181796
620.386	0.0180424
620.464	0.0180972
620.542	0.0180679
620.620	0.0179683
620.698	0.0180215
620.776	0.0180831
620.854	0.0180756
620.933	0.0180566
621.011	0.0180487
621.089	0.0180284
621.167	0.0180577
621.245	0.0180020
621.323	0.0181400
621.401	0.0181014
621.479	0.0180614
621.558	0.0180844
621.636	0.0180534
621.714	0.0179547
621.792	0.0181551
621.870	0.0181200
621.948	0.0180006
622.026	0.0180610
622.104	0.0182227
622.183	0.0179552
622.261	0.0180810
622.339	0.0181107
622.417	0.0180911
622.495	0.0180186
622.573	0.0179366
622.651	0.0180901
622.729	0.0179576
622.808	0.0180804
622.886	0.0181993
622.964	0.0181973
623.042	0.0181194
623.120	0.0181193
623.198	0.0181084
623.276	0.0180858
623.354	0.0180579
623.433	0.0180696
623.511	0.0180976
623.589	0.0181472
623.667	0.0180502
623.745	0.0180711
623.823	0.0182055
623.901	0.0180915
623.979	0.0179943
624.058	0.0180068
624.136	0.0182419
624.214	0.0181699
624.292	0.0179523
624.370	0.0179834
624.448	0.0180844
624.526	0.0181323
624.604	0.0181376
624.683	0.0180036
624.761	0.0179961
624.839	0.0180760
624.917	0.0181633
624.995	0.0181020
625.073	0.0180577
625.151	0.0180086
625.229	0.0181013
625.308	0.0181116
625.386	0.0179520
625.464	0.0181352
625.542	0.0182068
625.620	0.0180238
625.698	0.0180735
625.776	0.0179721
625.854	0.0181046
625.933	0.0181285
626.011	0.0181188
626.089	0.0180873
626.167	0.0180398
626.245	0.0180379
626.323	0.0181194
626.401	0.0180032
626.479	0.0179236
626.558	0.0181172
626.636	0.0181326
626.714	0.0181588
626.792	0.0180070
626.870	0.0180882
626.948	0.0180324
627.026	0.0180685
627.104	0.0182763
627.183	0.0181709
627.261	0.0181694
627.339	0.0179942
627.417	0.0181335
627.495	0.0180711
627.573	0.0181106
627.651	0.0181187
627.729	0.0181213
627.808	0.0181764
627.886	0.0180592
627.964	0.0180416
628.042	0.0180572
628.120	0.0180203
628.198	0.0181018
628.276	0.0181112
628.354	0.0181011
628.433	0.0181748
628.511	0.0180422
628.589	0.0179577
628.667	0.0180521
628.745	0.0180364
628.823	0.0180007
628.901	0.0180517
628.979	0.0180476
629.058	0.0181062
629.136	0.0181392
629.214	0.0179993
629.292	0.0180699
629.370	0.0180775
629.448	0.0181631
629.526	0.0180428
629.604	0.0181637
629.683	0.0180161
629.761	0.0179633
629.839	0.0181171
629.917	0.0180627
629.995	0.0180279
630.073	0.0181638
630.151	0.0181429
630.229	0.0181754
630.308	0.0181622
630.386	0.0181499
630.464	0.0179659
630.542	0.0179949
630.620	0.0180582
630.698	0.0180793
630.776	0.0181643
630.854	0.0180956
630.933	0.0179296
631.011	0.0181454
631.089	0.0181916
631.167	0.0180828
631.245	0.0180589
631.323	0.0181504
631.401	0.0180862
631.479	0.0181252
631.558	0.0180685
631.636	0.0180477
631.714	0.0181532
631.792	0.0181805
631.870	0.0180927
631.948	0.0180294
632.026	0.0181683
632.104	0.0181029
632.183	0.0179896
632.261	0.0180362
632.339	0.0181065
632.417	0.0181506
632.495	0.0181516
632.573	0.0180014
632.651	0.0179929
632.729	0.0180179
632.808	0.0180976
632.886	0.0179839
632.964	0.0179600
633.042	0.0180132
633.120	0.0180942
633.198	0.0181577
633.276	0.0180933
633.354	0.0181092
633.433	0.0181519
633.511	0.0181127
633.589	0.0181539
633.667	0.0182702
633.745	0.0181012
633.823	0.0180656
633.901	0.0180903
633.979	0.0180994
634.058	0.0180764
634.136	0.0180270
634.214	0.0180972
634.292	0.0180865
634.370	0.0183035
634.448	0.0182267
634.526	0.0181062
634.604	0.0181414
634.683	0.0182011
634.761	0.0179680
634.839	0.0180659
634.917	0.0180676
634.995	0.0181168
635.073	0.0180944
635.151	0.0180605
635.229	0.0179881
635.308	0.0181184
635.386	0.0182066
635.464	0.0180789
635.542	0.0180093
635.620	0.0180221
635.698	0.0180106
635.776	0.0180697
635.854	0.0180230
635.933	0.0181089
636.011	0.0180836
636.089	0.0180186
636.167	0.0180051
636.245	0.0181848
636.323	0.0181913
636.401	0.0182267
636.479	0.0180845
636.558	0.0180551
636.636	0.0180327
636.714	0.0180002
636.792	0.0180302
636.870	0.0181618
636.948	0.0182177
637.026	0.0181915
637.104	0.0181437
637.183	0.0180501
637.261	0.0180308
637.339	0.0180405
637.417	0.0181400
637.495	0.0180592
637.573	0.0181606
637.651	0.0180638
637.729	0.0182041
637.808	0.0181592
637.886	0.0181103
637.964	0.0181107
638.042	0.0180357
638.120	0.0181657
638.198	0.0181623
638.276	0.0181227
638.354	0.0181049
638.433	0.0182559
638.511	0.0181034
638.589	0.0180035
638.667	0.0181373
638.745	0.0181300
638.823	0.0181236
638.901	0.0179884
638.979	0.0181100
639.058	0.0181829
639.136	0.0179649
639.214	0.0180223
639.292	0.0180574
639.370	0.0181339
639.448	0.0179580
639.526	0.0180881
639.604	0.0180569
639.683	0.0180047
639.761	0.0180940
639.839	0.0181177
639.917	0.0180824
639.995	0.0181372
640.073	0.0180997
640.151	0.0182356
640.229	0.0181186
640.308	0.0179453
640.386	0.0180146
640.464	0.0181339
640.542	0.0180753
640.620	0.0180191
640.698	0.0182622
640.776	0.0181078
640.854	0.0180656
640.933	0.0180520
641.011	0.0181538
641.089	0.0179659
641.167	0.0181490
641.245	0.0182519
641.323	0.0180985
641.401	0.0180584
641.479	0.0180897
641.558	0.0180785
641.636	0.0181445
641.714	0.0180843
641.792	0.0181351
641.870	0.0178999
641.948	0.0180578
642.026	0.0179739
642.104	0.0180847
642.183	0.0182253
642.261	0.0181157
642.339	0.0180199
642.417	0.0179382
642.495	0.0180744
642.573	0.0180604
642.651	0.0181535
642.729	0.0182933
642.808	0.0180450
642.886	0.0180946
642.964	0.0182202
643.042	0.0181573
643.120	0.0180512
643.198	0.0181850
643.276	0.0180804
643.354	0.0179554
643.433	0.0181645
643.511	0.0180560
643.589	0.0180195
643.667	0.0181105
643.745	0.0180006
643.823	0.0181152
643.901	0.0181487
643.979	0.0181103
644.058	0.0180521
644.136	0.0181292
644.214	0.0181948
644.292	0.0181061
644.370	0.0180720
644.448	0.0180863
644.526	0.0181284
644.604	0.0180125
644.683	0.0180774
644.761	0.0180443
644.839	0.0181789
644.917	0.0180250
644.995	0.0180523
645.073	0.0181390
645.151	0.0181065
645.229	0.0181205
645.308	0.0181105
645.386	0.0179874
645.464	0.0181908
645.542	0.0181596
645.620	0.0180803
645.698	0.0181911
645.776	0.0181075
645.854	0.0180677
645.933	0.0181449
646.011	0.0181815
646.089	0.0180981
646.167	0.0180818
646.245	0.0181332
646.323	0.0181055
646.401	0.0180913
646.479	0.0179002
646.558	0.0180611
646.636	0.0181209
646.714	0.0180243
646.792	0.0180477
646.870	0.0179934
646.948	0.0180740
647.026	0.0180604
647.104	0.0180874
647.183	0.0180239
647.261	0.0180051
647.339	0.0180031
647.417	0.0180450
647.495	0.0182562
647.573	0.0181561
647.651	0.0180322
647.729	0.0180836
647.808	0.0181284
647.886	0.0180859
647.964	0.0181283
648.042	0.0179884
648.120	0.0180290
648.198	0.0182288
648.276	0.0181834
648.354	0.0181059
648.433	0.0179012
648.511	0.0180914
648.589	0.0182443
648.667	0.0180548
648.745	0.0180460
648.823	0.0180714
648.901	0.0181135
648.979	0.0181084
649.058	0.0179799
649.136	0.0179812
649.214	0.0181120
649.292	0.0181512
649.370	0.0179577
649.448	0.0180879
649.526	0.0181589
649.604	0.0180383
649.683	0.0181343
649.761	0.0180880
649.839	0.0182350
649.917	0.0179924
649.995	0.0180100
650.073	0.0182544
650.151	0.0180906
650.229	0.0181467
650.308	0.0179180
650.386	0.0181405
650.464	0.0182043
650.542	0.0181817
650.620	0.0180472
650.698	0.0181371
650.776	0.0180819
650.854	0.0180931
650.933	0.0180924
651.011	0.0181156
651.089	0.0180679
651.167	0.0181261
651.245	0.0181060
651.323	0.0181039
651.401	0.0181121
651.479	0.0181063
651.558	0.0181100
651.636	0.0180384
651.714	0.0180878
651.792	0.0180967
651.870	0.0180380
651.948	0.0180730
652.026	0.0180344
652.104	0.0181942
652.183	0.0181195
652.261	0.0180255
652.339	0.0181356
652.417	0.0179684
652.495	0.0181947
652.573	0.0182302
652.651	0.0180904
652.729	0.0180210
652.808	0.0180964
652.886	0.0181232
652.964	0.0180583
653.042	0.0180272
653.120	0.0180219
653.198	0.0181009
653.276	0.0181172
653.354	0.0180304
653.433	0.0180672
653.511	0.0181268
653.589	0.0180365
653.667	0.0180024
653.745	0.0180766
653.823	0.0181134
653.901	0.0178754
653.979	0.0180647
654.058	0.0180951
654.136	0.0180308
654.214	0.0180241
654.292	0.0180891
654.370	0.0181754
654.448	0.0180318
654.526	0.0180020
654.604	0.0179391
654.683	0.0179995
654.761	0.0179970
654.839	0.0182458
654.917	0.0181080
654.995	0.0181018
655.073	0.0181445
655.151	0.0179726
655.229	0.0180098
655.308	0.0181346
655.386	0.0180091
655.464	0.0179797
655.542	0.0181671
655.620	0.0181012
655.698	0.0180701
655.776	0.0180045
655.854	0.0181249
655.933	0.0180479
656.011	0.0180039
656.089	0.0180470
656.167	0.0179473
656.245	0.0179946
656.323	0.0181037
656.401	0.0180379
656.479	0.0181142
656.558	0.0181372
656.636	0.0181384
656.714	0.0180563
656.792	0.0181721
656.870	0.0181178
656.948	0.0181406
657.026	0.0181208
657.104	0.0182180
657.183	0.0181257
657.261	0.0181083
657.339	0.0179813
657.417	0.0180343
657.495	0.0179369
657.573	0.0178983
657.651	0.0183234
657.729	0.0180408
657.808	0.0181145
657.886	0.0179724
657.964	0.0180758
658.042	0.0182138
658.120	0.0180518
658.198	0.0180296
658.276	0.0181540
658.354	0.0181137
658.433	0.0180239
658.511	0.0180948
658.589	0.0182067
658.667	0.0181499
658.745	0.0180717
658.823	0.0180914
658.901	0.0179347
658.979	0.0182060
659.058	0.0181775
659.136	0.0180640
659.214	0.0180173
659.292	0.0180050
659.370	0.0179897
659.448	0.0182367
659.526	0.0180421
659.604	0.0180798
659.683	0.0180585
659.761	0.0179874
659.839	0.0180864
659.917	0.0180933
659.995	0.0182111
660.073	0.0180642
660.151	0.0181052
660.229	0.0182287
660.308	0.0179855
660.386	0.0179207
660.464	0.0181094
660.542	0.0180067
660.620	0.0180910
660.698	0.0180046
660.776	0.0180939
660.854	0.0181167
660.933	0.0180566
661.011	0.0180342
661.089	0.0181197
661.167	0.0180682
661.245	0.0179391
661.323	0.0181098
661.401	0.0180226
661.479	0.0180716
661.558	0.0180703
661.636	0.0180315
661.714	0.0182794
661.792	0.0180842
661.870	0.0181038
661.948	0.0181246
662.026	0.0179662
662.104	0.0181645
662.183	0.0181046
662.261	0.0180373
662.339	0.0180396
662.417	0.0179539
662.495	0.0181127
662.573	0.0181351
662.651	0.0182245
662.729	0.0181345
662.808	0.0180340
662.886	0.0180598
662.964	0.0180635
663.042	0.0179123
663.120	0.0180594
663.198	0.0181221
663.276	0.0180755
663.354	0.0180650
663.433	0.0180407
663.511	0.0181052
663.589	0.0181519
663.667	0.0180773
663.745	0.0180037
663.823	0.0180092
663.901	0.0180190
663.979	0.0182336
664.058	0.0181555
664.136	0.0179173
664.214	0.0179799
664.292	0.0180473
664.370	0.0180156
664.448	0.0181470
664.526	0.0179883
664.604	0.0179861
664.683	0.0179951
664.761	0.0181081
664.839	0.0180698
664.917	0.0180207
664.995	0.0181351
665.073	0.0180197
665.151	0.0181227
665.229	0.0181042
665.308	0.0180384
665.386	0.0179707
665.464	0.0180707
665.542	0.0179938
665.620	0.0180028
665.698	0.0180900
665.776	0.0180322
665.854	0.0181136
665.933	0.0180453
666.011	0.0181500
666.089	0.0181078
666.167	0.0180825
666.245	0.0181503
666.323	0.0181059
666.401	0.0181548
666.479	0.0181184
666.558	0.0181754
666.636	0.0180666
666.714	0.0180391
666.792	0.0180226
666.870	0.0179588
666.948	0.0180618
667.026	0.0179993
667.104	0.0180941
667.183	0.0179610
667.261	0.0180129
667.339	0.0180455
667.417	0.0180289
667.495	0.0181550
667.573	0.0180788
667.651	0.0181336
667.729	0.0180360
667.808	0.0180778
667.886	0.0181522
667.964	0.0182081
668.042	0.0181193
668.120	0.0180069
668.198	0.0180517
668.276	0.0180971
668.354	0.0182075
668.433	0.0181020
668.511	0.0179246
668.589	0.0179436
668.667	0.0180575
668.745	0.0180839
668.823	0.0180634
668.901	0.0180607
668.979	0.0180623
669.058	0.0180972
669.136	0.0181441
669.214	0.0180592
669.292	0.0180522
669.370	0.0180524
669.448	0.0181303
669.526	0.0181293
669.604	0.0182160
669.683	0.0180595
669.761	0.0179143
669.839	0.0181978
669.917	0.0180630
669.995	0.0180836
670.073	0.0181329
670.151	0.0180208
670.229	0.0180648
670.308	0.0179655
670.386	0.0181360
670.464	0.0181802
670.542	0.0180822
670.620	0.0181133
670.698	0.0180679
670.776	0.0180692
670.854	0.0181467
670.933	0.0180833
671.011	0.0179620
671.089	0.0180220
671.167	0.0181057
671.245	0.0180729
671.323	0.0179423
671.401	0.0180273
671.479	0.0180711
671.558	0.0179665
671.636	0.0179580
671.714	0.0181387
671.792	0.0180498
671.870	0.0179542
671.948	0.0180474
672.026	0.0180653
672.104	0.0181574
672.183	0.0180436
672.261	0.0180896
672.339	0.0180076
672.417	0.0180260
672.495	0.0179923
672.573	0.0180054
672.651	0.0181250
672.729	0.0179315
672.808	0.0180625
672.886	0.0181999
672.964	0.0181925
673.042	0.0181648
673.120	0.0179590
673.198	0.0180976
673.276	0.0180631
673.354	0.0180791
673.433	0.0182612
673.511	0.0181924
673.589	0.0180730
673.667	0.0180531
673.745	0.0180926
673.823	0.0180773
673.901	0.0181797
673.979	0.0181606
674.058	0.0179804
674.136	0.0179777
674.214	0.0180813
674.292	0.0181429
674.370	0.0182408
674.448	0.0180839
674.526	0.0181483
674.604	0.0180441
674.683	0.0181316
674.761	0.0181883
674.839	0.0181753
674.917	0.0180381
674.995	0.0181538
675.073	0.0181016
675.151	0.0181507
675.229	0.0181497
675.308	0.0180836
675.386	0.0181140
675.464	0.0181169
675.542	0.0181042
675.620	0.0182632
675.698	0.0181094
675.776	0.0180805
675.854	0.0181685
675.933	0.0180104
676.011	0.0179031
676.089	0.0181760
676.167	0.0180807
676.245	0.0180077
676.323	0.0180564
676.401	0.0180820
676.479	0.0180579
676.558	0.0181413
676.636	0.0181627
676.714	0.0180722
676.792	0.0181122
676.870	0.0181728
676.948	0.0182328
677.026	0.0180434
677.104	0.0179827
677.183	0.0180622
677.261	0.0181264
677.339	0.0180041
677.417	0.0181506
677.495	0.0182085
677.573	0.0182681
677.651	0.0180625
677.729	0.0181335
677.808	0.0180946
677.886	0.0181120
677.964	0.0181782
678.042	0.0181140
678.120	0.0181750
678.198	0.0180582
678.276	0.0180576
678.354	0.0181743
678.433	0.0180717
678.511	0.0181265
678.589	0.0179600
678.667	0.0181395
678.745	0.0181514
678.823	0.0181558
678.901	0.0180779
678.979	0.0180894
679.058	0.0180644
679.136	0.0180892
679.214	0.0181985
679.292	0.0180812
679.370	0.0182093
679.448	0.0180925
679.526	0.0180328
679.604	0.0179912
679.683	0.0181789
679.761	0.0180654
679.839	0.0180830
679.917	0.0180262
679.995	0.0180872
680.073	0.0181003
680.151	0.0181486
680.229	0.0180717
680.308	0.0180031
680.386	0.0180922
680.464	0.0180885
680.542	0.0181063
680.620	0.0180932
680.698	0.0180989
680.776	0.0180631
680.854	0.0181456
680.933	0.0181083
681.011	0.0180323
681.089	0.0180617
681.167	0.0181297
681.245	0.0180998
681.323	0.0180400
681.401	0.0181114
681.479	0.0180828
681.558	0.0179302
681.636	0.0180744
681.714	0.0180453
681.792	0.0180460
681.870	0.0180997
681.948	0.0181066
682.026	0.0181335
682.104	0.0181833
682.183	0.0181406
682.261	0.0181468
682.339	0.0181321
682.417	0.0181371
682.495	0.0182244
682.573	0.0180064
682.651	0.0180102
682.729	0.0181043
682.808	0.0180315
682.886	0.0180495
682.964	0.0180866
683.042	0.0180516
683.120	0.0180414
683.198	0.0180329
683.276	0.0181853
683.354	0.0180584
683.433	0.0180907
683.511	0.0180737
683.589	0.0180901
683.667	0.0180367
683.745	0.0179723
683.823	0.0179559
683.901	0.0180118
683.979	0.0181387
684.058	0.0180821
684.136	0.0180597
684.214	0.0181036
684.292	0.0180144
684.370	0.0181098
684.448	0.0180215
684.526	0.0179974
684.604	0.0180026
684.683	0.0179591
684.761	0.0181142
684.839	0.0180664
684.917	0.0181362
684.995	0.0181336
685.073	0.0181098
685.151	0.0180042
685.229	0.0178530
685.308	0.0180394
685.386	0.0181734
685.464	0.0178970
685.542	0.0180384
685.620	0.0181528
685.698	0.0179713
685.776	0.0179579
685.854	0.0180646
685.933	0.0180230
686.011	0.0180318
686.089	0.0179639
686.167	0.0180671
686.245	0.0179961
686.323	0.0180009
686.401	0.0180499
686.479	0.0179845
686.558	0.0179749
686.636	0.0179902
686.714	0.0180450
686.792	0.0180577
686.870	0.0180534
686.948	0.0180911
687.026	0.0180429
687.104	0.0180441
687.183	0.0179805
687.261	0.0180507
687.339	0.0181330
687.417	0.0179241
687.495	0.0181181
687.573	0.0181852
687.651	0.0180801
687.729	0.0181587
687.808	0.0181618
687.886	0.0180847
687.964	0.0180608
688.042	0.0181626
688.120	0.0180365
688.198	0.0180081
688.276	0.0181879
688.354	0.0180964
688.433	0.0181355
688.511	0.0181459
688.589	0.0180052
688.667	0.0180951
688.745	0.0179852
688.823	0.0180536
688.901	0.0179150
688.979	0.0179179
689.058	0.0179758
689.136	0.0180809
689.214	0.0180188
689.292	0.0179414
689.370	0.0178814
689.448	0.0180553
689.526	0.0182081
689.604	0.0180633
689.683	0.0181386
689.761	0.0180380
689.839	0.0180490
689.917	0.0179961
689.995	0.0179423
690.073	0.0180745
690.151	0.0179887
690.229	0.0179342
690.308	0.0179773
690.386	0.0178586
690.464	0.0178875
690.542	0.0178856
690.620	0.0180204
690.698	0.0179721
690.776	0.0179839
690.854	0.0180960
690.933	0.0181972
691.011	0.0181320
691.089	0.0180968
691.167	0.0181331
691.245	0.0182788
691.323	0.0182561
691.401	0.0182072
691.479	0.0181136
691.558	0.0182344
691.636	0.0182685
691.714	0.0182442
691.792	0.0179280
691.870	0.0179634
691.948	0.0179816
692.026	0.0177960
692.104	0.0177054
692.183	0.0176691
692.261	0.0176373
692.339	0.0178645
692.417	0.0178406
692.495	0.0181432
692.573	0.0179659
692.651	0.0182381
692.729	0.0183290
692.808	0.0182463
692.886	0.0184711
692.964	0.0184039
693.042	0.0183150
693.120	0.0183504
693.198	0.0183224
693.276	0.0180910
693.354	0.0181873
693.433	0.0182552
693.511	0.0182185
693.589	0.0182211
693.667	0.0181100
693.745	0.0178522
693.823	0.0178357
693.901	0.0178985
693.979	0.0176168
694.058	0.0174440
694.136	0.0176154
694.214	0.0175484
694.292	0.0178521
694.370	0.0180090
694.448	0.0181498
694.526	0.0181825
694.604	0.0183878
694.683	0.0183871
694.761	0.0182209
694.839	0.0183181
694.917	0.0182849
694.995	0.0179800
695.073	0.0177293
695.151	0.0176232
695.229	0.0175594
695.308	0.0173402
695.386	0.0171596
695.464	0.0170290
695.542	0.0171454
695.620	0.0172019
695.698	0.0173666
695.776	0.0175688
695.854	0.0176301
695.933	0.0178990
696.011	0.0181223
696.089	0.0183232
696.167	0.0186926
696.245	0.0192800
696.323	0.0194910
696.401	0.0198194
696.479	0.0200892
696.558	0.0203729
696.636	0.0202528
696.714	0.0202454
696.792	0.0198412
696.870	0.0195960
696.948	0.0192320
697.026	0.0187469
697.104	0.0183136
697.183	0.0176786
697.261	0.0169130
697.339	0.0164973
697.417	0.0157657
697.495	0.0153493
697.573	0.0152281
697.651	0.0148530
697.729	0.0147843
697.808	0.0148234
697.886	0.0150690
697.964	0.0155442
698.042	0.0157940
698.120	0.0162308
698.198	0.0168127
698.276	0.0172440
698.354	0.0177070
698.433	0.0181519
698.511	0.0185590
698.589	0.0187824
698.667	0.0190775
698.745	0.0195683
698.823	0.0197615
698.901	0.0199371
698.979	0.0201342
699.058	0.0203673
699.136	0.0206329
699.214	0.0208470
699.292	0.0210744
699.370	0.0211505
699.448	0.0210410
699.526	0.0208900
699.604	0.0206152
699.683	0.0204637
699.761	0.0201677
699.839	0.0198402
699.917	0.0195177
699.995	0.0192395
700.073	0.0189429
700.151	0.0188396
700.229	0.0184270
700.308	0.0183543
700.386	0.0178094
700.464	0.0175080
700.542	0.0170934
700.620	0.0166413
700.698	0.0161065
700.776	0.0157013
700.854	0.0150374
700.933	0.0144996
701.011	0.0138018
701.089	0.0132844
701.167	0.0129704
701.245	0.0125911
701.323	0.0124358
701.401	0.0125854
701.479	0.0129543
701.558	0.0135408
701.636	0.0141007
701.714	0.0147935
701.792	0.0160108
701.870	0.0170480
701.948	0.0181684
702.026	0.0194545
702.104	0.0204760
702.183	0.0215471
702.261	0.0224023
702.339	0.0232055
702.417	0.0236961
702.495	0.0240688
702.573	0.0241084
702.651	0.0239558
702.729	0.0236849
702.808	0.0233455
702.886	0.0229385
702.964	0.0224059
703.042	0.0217084
703.120	0.0211264
703.198	0.0208482
703.276	0.0204456
703.354	0.0199576
703.433	0.0196443
703.511	0.0196893
703.589	0.0194953
703.667	0.0193508
703.745	0.0193187
703.823	0.0188943
703.901	0.0187189
703.979	0.0184462
704.058	0.0179283
704.136	0.0172077
704.214	0.0165936
704.292	0.0158158
704.370	0.0149425
704.448	0.0141895
704.526	0.0134411
704.604	0.0128349
704.683	0.0121520
704.761	0.0118026
704.839	0.0113769
704.917	0.0110524
704.995	0.0109516
705.073	0.0110503
705.151	0.0113029
705.229	0.0116785
705.308	0.0120639
705.386	0.0128848
705.464	0.0136954
705.542	0.0149158
705.620	0.0162643
705.698	0.0174294
705.776	0.0186838
705.854	0.0201331
705.933	0.0214907
706.011	0.0225759
706.089	0.0236470
706.167	0.0245008
706.245	0.0252775
706.323	0.0257500
706.401	0.0262191
706.479	0.0264990
706.558	0.0264453
706.636	0.0265121
706.714	0.0262971
706.792	0.0258721
706.870	0.0254412
706.948	0.0247220
707.026	0.0239185
707.104	0.0229970
707.183	0.0220934
707.261	0.0210840
707.339	0.0201321
707.417	0.0190435
707.495	0.0180853
707.573	0.0171021
707.651	0.0160354
707.729	0.0149982
707.808	0.0140778
707.886	0.0131529
707.964	0.0123032
708.042	0.0114025
708.120	0.0104561
708.198	0.00986359
708.276	0.00937553
708.354	0.00922630
708.433	0.00896492
708.511	0.00916489
708.589	0.00958672
708.667	0.0103358
708.745	0.0112395
708.823	0.0123245
708.901	0.0136603
708.979	0.0148754
709.058	0.0160029
709.136	0.0174436
709.214	0.0186366
709.292	0.0198231
709.370	0.0208198
709.448	0.0217838
709.526	0.0228114
709.604	0.0234641
709.683	0.0239104
709.761	0.0244370
709.839	0.0245264
709.917	0.0247328
709.995	0.0248177
710.073	0.0248256
710.151	0.0245780
710.229	0.0243769
710.308	0.0240430
710.386	0.0236784
710.464	0.0230753
710.542	0.0225744
710.620	0.0219578
710.698	0.0211575
710.776	0.0204216
710.854	0.0198986
710.933	0.0191305
711.011	0.0182796
711.089	0.0174075
711.167	0.0164567
711.245	0.0155357
711.323	0.0145250
711.401	0.0134787
711.479	0.0124432
711.558	0.0115921
711.636	0.0109683
711.714	0.0103231
711.792	0.00986092
711.870	0.00980301
711.948	0.00992126
712.026	0.0104903
712.104	0.0111874
712.183	0.0122675
712.261	0.0132717
712.339	0.0143526
712.417	0.0156712
712.495	0.0168902
712.573	0.0180789
712.651	0.0189792
712.729	0.0201324
712.808	0.0211136
712.886	0.0218648
712.964	0.0225387
713.042	0.0231428
713.120	0.0235024
713.198	0.0240187
713.276	0.0241994
713.354	0.0242239
713.433	0.0243427
713.511	0.0240871
713.589	0.0239262
713.667	0.0236362
713.745	0.0233009
713.823	0.0228037
713.901	0.0224844
713.979	0.0220509
714.058	0.0215657
714.136	0.0209622
714.214	0.0203573
714.292	0.0197442
714.370	0.0188796
714.448	0.0180333
714.526	0.0171746
714.604	0.0162637
714.683	0.0152277
714.761	0.0142099
714.839	0.0133603
714.917	0.0124509
714.995	0.0118394
715.073	0.0111729
715.151	0.0108583
715.229	0.0106226
715.308	0.0105461
715.386	0.0106354
715.464	0.0109845
715.542	0.0116174
715.620	0.0123055
715.698	0.0131432
715.776	0.0141925
715.854	0.0152175
715.933	0.0163690
716.011	0.0175838
716.089	0.0185435
716.167	0.0197630
716.245	0.0206852
716.323	0.0214355
716.401	0.0219029
716.479	0.0224829
716.558	0.0229109
716.636	0.0229778
716.714	0.0230701
716.792	0.0231119
716.870	0.0230012
716.948	0.0227594
717.026	0.0226234
717.104	0.0222009
717.183	0.0220330
717.261	0.0218021
717.339	0.0216788
717.417	0.0212669
717.495	0.0210859
717.573	0.0206668
717.651	0.0204350
717.729	0.0201083
717.808	0.0197121
717.886	0.0190726
717.964	0.0186498
718.042	0.0180647
718.120	0.0174583
718.198	0.0167561
718.276	0.0159843
718.354	0.0153778
718.433	0.0149235
718.511	0.0143441
718.589	0.0138548
718.667	0.0134319
718.745	0.0134283
718.823	0.0133859
718.901	0.0133568
718.979	0.0135990
719.058	0.0141048
719.136	0.0145146
719.214	0.0150229
719.292	0.0155116
719.370	0.0161246
719.448	0.0166642
719.526	0.0172197
719.604	0.0176089
719.683	0.0181038
719.761	0.0182127
719.839	0.0187126
719.917	0.0189687
719.995	0.0190205
720.073	0.0192673
720.151	0.0193505
720.229	0.0194981
720.308	0.0196327
720.386	0.0196254
720.464	0.0198618
720.542	0.0200124
720.620	0.0200520
720.698	0.0203945
720.776	0.0204866
720.854	0.0207564
720.933	0.0206934
721.011	0.0209793
721.089	0.0209907
721.167	0.0208025
721.245	0.0207220
721.323	0.0204550
721.401	0.0199052
721.479	0.0196124
721.558	0.0190179
721.636	0.0184703
721.714	0.0179131
721.792	0.0172598
721.870	0.0166284
721.948	0.0162157
722.026	0.0158251
722.104	0.0156671
722.183	0.0154114
722.261	0.0154475
722.339	0.0156454
722.417	0.0158734
722.495	0.0161448
722.573	0.0165892
722.651	0.0169188
722.729	0.0172417
722.808	0.0175136
722.886	0.0177483
722.964	0.0179690
723.042	0.0181152
723.120	0.0180954
723.198	0.0181360
723.276	0.0182365
723.354	0.0180631
723.433	0.0181103
723.511	0.0180909
723.589	0.0180256
723.667	0.0181978
723.745	0.0182179
723.823	0.0183224
723.901	0.0182087
723.979	0.0182711
724.058	0.0183445
724.136	0.0184377
724.214	0.0186740
724.292	0.0186897
724.370	0.0188844
724.448	0.0191157
724.526	0.0192715
724.604	0.0193687
724.683	0.0193981
724.761	0.0196021
724.839	0.0194263
724.917	0.0191897
724.995	0.0189315
725.073	0.0184903
725.151	0.0182109
725.229	0.0178815
725.308	0.0175945
725.386	0.0172163
725.464	0.0171647
725.542	0.0168526
725.620	0.0167764
725.698	0.0166471
725.776	0.0165853
725.854	0.0167917
725.933	0.0167892
726.011	0.0170367
726.089	0.0172926
726.167	0.0174434
726.245	0.0176213
726.323	0.0177772
726.401	0.0178589
726.479	0.0181310
726.558	0.0181332
726.636	0.0183222
726.714	0.0183212
726.792	0.0183968
726.870	0.0182926
726.948	0.0182912
727.026	0.0183651
727.104	0.0182927
727.183	0.0182195
727.261	0.0181679
727.339	0.0182528
727.417	0.0182366
727.495	0.0182477
727.573	0.0182637
727.651	0.0184383
727.729	0.0187074
727.808	0.0188772
727.886	0.0191133
727.964	0.0193258
728.042	0.0196244
728.120	0.0197810
728.198	0.0198022
728.276	0.0196771
728.354	0.0194989
728.433	0.0191744
728.511	0.0190539
728.589	0.0187057
728.667	0.0183211
728.745	0.0179246
728.823	0.0175514
728.901	0.0171338
728.979	0.0168511
729.058	0.0164912
729.136	0.0163153
729.214	0.0162691
729.292	0.0162299
729.370	0.0163229
729.448	0.0164236
729.526	0.0164929
729.604	0.0167818
729.683	0.0169985
729.761	0.0172324
729.839	0.0174049
729.917	0.0176384
729.995	0.0177414
730.073	0.0179456
730.151	0.0181225
730.229	0.0181132
730.308	0.0181188
730.386	0.0182545
730.464	0.0181761
730.542	0.0180312
730.620	0.0178642
730.698	0.0179501
730.776	0.0179739
730.854	0.0178858
730.933	0.0179460
731.011	0.0178767
731.089	0.0182848
731.167	0.0185066
731.245	0.0186731
731.323	0.0188845
731.401	0.0193702
731.479	0.0197051
731.558	0.0199061
731.636	0.0200027
731.714	0.0201190
731.792	0.0201064
731.870	0.0200422
731.948	0.0200958
732.026	0.0197906
732.104	0.0196039
732.183	0.0192479
732.261	0.0188622
732.339	0.0185883
732.417	0.0182811
732.495	0.0179488
732.573	0.0177277
732.651	0.0174977
732.729	0.0171400
732.808	0.0170121
732.886	0.0169497
732.964	0.0168790
733.042	0.0169772
733.120	0.0169716
733.198	0.0171175
733.276	0.0172395
733.354	0.0174368
733.433	0.0174367
733.511	0.0173756
733.589	0.0174819
733.667	0.0177044
733.745	0.0174847
733.823	0.0174125
733.901	0.0174678
733.979	0.0173218
734.058	0.0172298
734.136	0.0172067
734.214	0.0172272
734.292	0.0172374
734.370	0.0172915
734.448	0.0173238
734.526	0.0173983
734.604	0.0176436
734.683	0.0178508
734.761	0.0180173
734.839	0.0183472
734.917	0.0183052
734.995	0.0185308
735.073	0.0187653
735.151	0.0188911
735.229	0.0189965
735.308	0.0192030
735.386	0.0193060
735.464	0.0193507
735.542	0.0191998
735.620	0.0192618
735.698	0.0191735
735.776	0.0191191
735.854	0.0189781
735.933	0.0188471
736.011	0.0185425
736.089	0.0185509
736.167	0.0184421
736.245	0.0182003
736.323	0.0181806
736.401	0.0180208
736.479	0.0179205
736.558	0.0180430
736.636	0.0179748
736.714	0.0178889
736.792	0.0178893
736.870	0.0177571
736.948	0.0176866
737.026	0.0176910
737.104	0.0174764
737.183	0.0174472
737.261	0.0175291
737.339	0.0174734
737.417	0.0173087
737.495	0.0172923
737.573	0.0171924
737.651	0.0172483
737.729	0.0172764
737.808	0.0173227
737.886	0.0174402
737.964	0.0177232
738.042	0.0176771
738.120	0.0177708
738.198	0.0178845
738.276	0.0182264
738.354	0.0183148
738.433	0.0184787
738.511	0.0186401
738.589	0.0186707
738.667	0.0188396
738.745	0.0189611
738.823	0.0189541
738.901	0.0189445
738.979	0.0190081
739.058	0.0189338
739.136	0.0188645
739.214	0.0188567
739.292	0.0187620
739.370	0.0188805
739.448	0.0186818
739.526	0.0186069
739.604	0.0183256
739.683	0.0184345
739.761	0.0183356
739.839	0.0181616
739.917	0.0180702
739.995	0.0179956
740.073	0.0179621
740.151	0.0178953
740.229	0.0178194
740.308	0.0176672
740.386	0.0175243
740.464	0.0176136
740.542	0.0174261
740.620	0.0171909
740.698	0.0171983
740.776	0.0170881
740.854	0.0169039
740.933	0.0168024
741.011	0.0167839
741.089	0.0168147
741.167	0.0168043
741.245	0.0169048
741.323	0.0169770
741.401	0.0170549
741.479	0.0173967
741.558	0.0174673
741.636	0.0177792
741.714	0.0180707
741.792	0.0182738
741.870	0.0185050
741.948	0.0188522
742.026	0.0190421
742.104	0.0191213
742.183	0.0192975
742.261	0.0194566
742.339	0.0194333
742.417	0.0193192
742.495	0.0193958
742.573	0.0193756
742.651	0.0192460
742.729	0.0190630
742.808	0.0189603
742.886	0.0187432
742.964	0.0184963
743.042	0.0184235
743.120	0.0183399
743.198	0.0180357
743.276	0.0180540
743.354	0.0179652
743.433	0.0179738
743.511	0.0178754
743.589	0.0177201
743.667	0.0177388
743.745	0.0178732
743.823	0.0177998
743.901	0.0177703
743.979	0.0178992
744.058	0.0177542
744.136	0.0175734
744.214	0.0176903
744.292	0.0174618
744.370	0.0174907
744.448	0.0173207
744.526	0.0171388
744.604	0.0171514
744.683	0.0170619
744.761	0.0170818
744.839	0.0171764
744.917	0.0172703
744.995	0.0171336
745.073	0.0172997
745.151	0.0173924
745.229	0.0177105
745.308	0.0178923
745.386	0.0180753
745.464	0.0181262
745.542	0.0183711
745.620	0.0184769
745.698	0.0188128
745.776	0.0188644
745.854	0.0187399
745.933	0.0189162
746.011	0.0189585
746.089	0.0190289
746.167	0.0189288
746.245	0.0188400
746.323	0.0188000
746.401	0.0190512
746.479	0.0187974
746.558	0.0186225
746.636	0.0185934
746.714	0.0185368
746.792	0.0185664
746.870	0.0185524
746.948	0.0184508
747.026	0.0184840
747.104	0.0184727
747.183	0.0183206
747.261	0.0183037
747.339	0.0184489
747.417	0.0183441
747.495	0.0182874
747.573	0.0181477
747.651	0.0181199
747.729	0.0179766
747.808	0.0178477
747.886	0.0177640
747.964	0.0174490
748.042	0.0174699
748.120	0.0172523
748.198	0.0170206
748.276	0.0170108
748.354	0.0167542
748.433	0.0168125
748.511	0.0165525
748.589	0.0165184
748.667	0.0167188
748.745	0.0166145
748.823	0.0167280
748.901	0.0167881
748.979	0.0168747
749.058	0.0172097
749.136	0.0176661
749.214	0.0177508
749.292	0.0181001
749.370	0.0183045
749.448	0.0185414
749.526	0.0187664
749.604	0.0190421
749.683	0.0191889
749.761	0.0192464
749.839	0.0195517
749.917	0.0193273
749.995	0.0194102
750.073	0.0194027
750.151	0.0191922
750.229	0.0191782
750.308	0.0189291
750.386	0.0189239
750.464	0.0187067
750.542	0.0185003
750.620	0.0185892
750.698	0.0184859
750.776	0.0185242
750.854	0.0184982
750.933	0.0184260
751.011	0.0182578
751.089	0.0181777
751.167	0.0181882
751.245	0.0181716
751.323	0.0179953
751.401	0.0179314
751.479	0.0177780
751.558	0.0176715
751.636	0.0175651
751.714	0.0175638
751.792	0.0172939
751.870	0.0172487
751.948	0.0172508
752.026	0.0171320
752.104	0.0170279
752.183	0.0167985
752.261	0.0168390
752.339	0.0167935
752.417	0.0168992
752.495	0.0170163
752.573	0.0171207
752.651	0.0172057
752.729	0.0174390
752.808	0.0175185
752.886	0.0176459
752.964	0.0179411
753.042	0.0182056
753.120	0.0183597
753.198	0.0184250
753.276	0.0186089
753.354	0.0185712
753.433	0.0187846
753.511	0.0187766
753.589	0.0188157
753.667	0.0186793
753.745	0.0186521
753.823	0.0186855
753.901	0.0188837
753.979	0.0186886
754.058	0.0185320
754.136	0.0186408
754.214	0.0184239
754.292	0.0183456
754.370	0.0184420
754.448	0.0186229
754.526	0.0184081
754.604	0.0184537
754.683	0.0182752
754.761	0.0182900
754.839	0.0182812
754.917	0.0181820
754.995	0.0180418
755.073	0.0181689
755.151	0.0179300
755.229	0.0180557
755.308	0.0179368
755.386	0.0177940
755.464	0.0177500
755.542	0.0175158
755.620	0.0175340
755.698	0.0175675
755.776	0.0175768
755.854	0.0174265
755.933	0.0173412
756.011	0.0175803
756.089	0.0175403
756.167	0.0176246
756.245	0.0174851
756.323	0.0175144
756.401	0.0175945
756.479	0.0175687
756.558	0.0176266
756.636	0.0177159
756.714	0.0177781
756.792	0.0177034
756.870	0.0176163
756.948	0.0177794
757.026	0.0178961
757.104	0.0179327
757.183	0.0178293
757.261	0.0180421
757.339	0.0179861
757.417	0.0180081
757.495	0.0181528
757.573	0.0180937
757.651	0.0182452
757.729	0.0183856
757.808	0.0184860
757.886	0.0185938
757.964	0.0185184
758.042	0.0187928
758.120	0.0186995
758.198	0.0187764
758.276	0.0187745
758.354	0.0189168
758.433	0.0189844
758.511	0.0188093
758.589	0.0187052
758.667	0.0186613
758.745	0.0186456
758.823	0.0185525
758.901	0.0184126
758.979	0.0182089
759.058	0.0180753
759.136	0.0181068
759.214	0.0181046
759.292	0.0179376
759.370	0.0177087
759.448	0.0178093
759.526	0.0177610
759.604	0.0177146
759.683	0.0176941
759.761	0.0177279
759.839	0.0174988
759.917	0.0176366
759.995	0.0175680
760.073	0.0175671
760.151	0.0175761
760.229	0.0175116
760.308	0.0175980
760.386	0.0176581
760.464	0.0177093
760.542	0.0177502
760.620	0.0176589
760.698	0.0178335
760.776	0.0178757
760.854	0.0179495
760.933	0.0178802
761.011	0.0181805
761.089	0.0183625
761.167	0.0182726
761.245	0.0183587
761.323	0.0184077
761.401	0.0184367
761.479	0.0186365
761.558	0.0185078
761.636	0.0185397
761.714	0.0186545
761.792	0.0184428
761.870	0.0184670
761.948	0.0184234
762.026	0.0185056
762.104	0.0184914
762.183	0.0183224
762.261	0.0182784
762.339	0.0181291
762.417	0.0182324
762.495	0.0181702
762.573	0.0181644
762.651	0.0181136
762.729	0.0180233
762.808	0.0182240
762.886	0.0181000
762.964	0.0181052
763.042	0.0179781
763.120	0.0180787
763.198	0.0180128
763.276	0.0180214
763.354	0.0179961
763.433	0.0179945
763.511	0.0177986
763.589	0.0179001
763.667	0.0178750
763.745	0.0178297
763.823	0.0178662
763.901	0.0180659
763.979	0.0178305
764.058	0.0178509
764.136	0.0179751
764.214	0.0178785
764.292	0.0180037
764.370	0.0179061
764.448	0.0179434
764.526	0.0180885
764.604	0.0180469
764.683	0.0181032
764.761	0.0181338
764.839	0.0181060
764.917	0.0181365
764.995	0.0182242
765.073	0.0181354
765.151	0.0182501
765.229	0.0181916
765.308	0.0182994
765.386	0.0180774
765.464	0.0182147
765.542	0.0182027
765.620	0.0180352
765.698	0.0182349
765.776	0.0183868
765.854	0.0183338
765.933	0.0183448
766.011	0.0183594
766.089	0.0182810
766.167	0.0184100
766.245	0.0184532
766.323	0.0185596
766.401	0.0184733
766.479	0.0184177
766.558	0.0185006
766.636	0.0184942
766.714	0.0184907
766.792	0.0185239
766.870	0.0184584
766.948	0.0183446
767.026	0.0183635
767.104	0.0181388
767.183	0.0181612
767.261	0.0181103
767.339	0.0180492
767.417	0.0179376
767.495	0.0180933
767.573	0.0178357
767.651	0.0178897
767.729	0.0178896
767.808	0.0179650
767.886	0.0180065
767.964	0.0177747
768.042	0.0177013
768.120	0.0177886
768.198	0.0178187
768.276	0.0178168
768.354	0.0178014
768.433	0.0177972
768.511	0.0178719
768.589	0.0180583
768.667	0.0179610
768.745	0.0178457
768.823	0.0180672
768.901	0.0180783
768.979	0.0179954
769.058	0.0180482
769.136	0.0181887
769.214	0.0181429
769.292	0.0180673
769.370	0.0181391
769.448	0.0181204
769.526	0.0181805
769.604	0.0182191
769.683	0.0180546
769.761	0.0180613
769.839	0.0180946
769.917	0.0181399
769.995	0.0180996
770.073	0.0181377
770.151	0.0182904
770.229	0.0182893
770.308	0.0184465
770.386	0.0183243
770.464	0.0184453
770.542	0.0183019
770.620	0.0183213
770.698	0.0185029
770.776	0.0183714
770.854	0.0185239
770.933	0.0184826
771.011	0.0185016
771.089	0.0184431
771.167	0.0185445
771.245	0.0182602
771.323	0.0183157
771.401	0.0182759
771.479	0.0181277
771.558	0.0179559
771.636	0.0179539
771.714	0.0178587
771.792	0.0177934
771.870	0.0178358
771.948	0.0176559
772.026	0.0177654
772.104	0.0177314
772.183	0.0177504
772.261	0.0177769
772.339	0.0178127
772.417	0.0177193
772.495	0.0177986
772.573	0.0177284
772.651	0.0179156
772.729	0.0179227
772.808	0.0179994
772.886	0.0181004
772.964	0.0179288
773.042	0.0180196
773.120	0.0181290
773.198	0.0181802
773.276	0.0182384
773.354	0.0181590
773.433	0.0182166
773.511	0.0183650
773.589	0.0183321
773.667	0.0183841
773.745	0.0183064
773.823	0.0182569
773.901	0.0181700
773.979	0.0184174
774.058	0.0183156
774.136	0.0182986
774.214	0.0182989
774.292	0.0182832
774.370	0.0181979
774.448	0.0183186
774.526	0.0182352
774.604	0.0182999
774.683	0.0181586
774.761	0.0179554
774.839	0.0179328
774.917	0.0179839
774.995	0.0181151
775.073	0.0178017
775.151	0.0177803
775.229	0.0179349
775.308	0.0179062
775.386	0.0179950
775.464	0.0178423
775.542	0.0178455
775.620	0.0177540
775.698	0.0176843
775.776	0.0178623
775.854	0.0178266
775.933	0.0177880
776.011	0.0177155
776.089	0.0177067
776.167	0.0176910
776.245	0.0176672
776.323	0.0176461
776.401	0.0176543
776.479	0.0177540
776.558	0.0177708
776.636	0.0176472
776.714	0.0177539
776.792	0.0177750
776.870	0.0178348
776.948	0.0179106
777.026	0.0180160
777.104	0.0180739
777.183	0.0180409
777.261	0.0181065
777.339	0.0181002
777.417	0.0181677
777.495	0.0181944
777.573	0.0183616
777.651	0.0184601
777.729	0.0183636
777.808	0.0183952
777.886	0.0184344
777.964	0.0185150
778.042	0.0183966
778.120	0.0185665
778.198	0.0186061
778.276	0.0184653
778.354	0.0184586
778.433	0.0185766
778.511	0.0184916
778.589	0.0183229
778.667	0.0182668
778.745	0.0182552
778.823	0.0182381
778.901	0.0180627
778.979	0.0179440
779.058	0.0179436
779.136	0.0176760
779.214	0.0178613
779.292	0.0179601
779.370	0.0177238
779.448	0.0174960
779.526	0.0176756
779.604	0.0175882
779.683	0.0174097
779.761	0.0175417
779.839	0.0176223
779.917	0.0174297
779.995	0.0174760
780.073	0.0176161
780.151	0.0174173
780.229	0.0174645
780.308	0.0176567
780.386	0.0174745
780.464	0.0175141
780.542	0.0177160
780.620	0.0179036
780.698	0.0179167
780.776	0.0179833
780.854	0.0180666
780.933	0.0183140
781.011	0.0182882
781.089	0.0183825
781.167	0.0185026
781.245	0.0185340
781.323	0.0186942
781.401	0.0186433
781.479	0.0186398
781.558	0.0187281
781.636	0.0187931
781.714	0.0186252
781.792	0.0185999
781.870	0.0185421
781.948	0.0183408
782.026	0.0182927
782.104	0.0182987
782.183	0.0179716
782.261	0.0182551
782.339	0.0181032
782.417	0.0178513
782.495	0.0176817
782.573	0.0178687
782.651	0.0177821
782.729	0.0176411
782.808	0.0176512
782.886	0.0175620
782.964	0.0173965
783.042	0.0174776
783.120	0.0175005
783.198	0.0175558
783.276	0.0174593
783.354	0.0175087
783.433	0.0175513
783.511	0.0175429
783.589	0.0176218
783.667	0.0176369
783.745	0.0175416
783.823	0.0177216
783.901	0.0178632
783.979	0.0179787
784.058	0.0180071
784.136	0.0180672
784.214	0.0180668
784.292	0.0181524
784.370	0.0180413
784.448	0.0182011
784.526	0.0182582
784.604	0.0183347
784.683	0.0184170
784.761	0.0184863
784.839	0.0184296
784.917	0.0184042
784.995	0.0185843
785.073	0.0183826
785.151	0.0186926
785.229	0.0186760
785.308	0.0185262
785.386	0.0184988
785.464	0.0184785
785.542	0.0185877
785.620	0.0185677
785.698	0.0184965
785.776	0.0183671
785.854	0.0183275
785.933	0.0183401
786.011	0.0182306
786.089	0.0181185
786.167	0.0181590
786.245	0.0180067
786.323	0.0180261
786.401	0.0180637
786.479	0.0179298
786.558	0.0179678
786.636	0.0178004
786.714	0.0176888
786.792	0.0178030
786.870	0.0177113
786.948	0.0177658
787.026	0.0176236
787.104	0.0177571
787.183	0.0176992
787.261	0.0175587
787.339	0.0176293
787.417	0.0177412
787.495	0.0176517
787.573	0.0175489
787.651	0.0175806
787.729	0.0177200
787.808	0.0176807
787.886	0.0178046
787.964	0.0178936
788.042	0.0178353
788.120	0.0180594
788.198	0.0181742
788.276	0.0181519
788.354	0.0181660
788.433	0.0182774
788.511	0.0182206
788.589	0.0183528
788.667	0.0185004
788.745	0.0183562
788.823	0.0184378
788.901	0.0185465
788.979	0.0185365
789.058	0.0184241
789.136	0.0185065
789.214	0.0185602
789.292	0.0184626
789.370	0.0185091
789.448	0.0186472
789.526	0.0185371
789.604	0.0184299
789.683	0.0184249
789.761	0.0184132
789.839	0.0185220
789.917	0.0183292
789.995	0.0183180
790.073	0.0183746
790.151	0.0182002
790.229	0.0181452
790.308	0.0178765
790.386	0.0178504
790.464	0.0178551
790.542	0.0177773
790.620	0.0177064
790.698	0.0177184
790.776	0.0176673
790.854	0.0175549
790.933	0.0175570
791.011	0.0174937
791.089	0.0173928
791.167	0.0175874
791.245	0.0176206
791.323	0.0176481
791.401	0.0177175
791.479	0.0177226
791.558	0.0178920
791.636	0.0178560
791.714	0.0179395
791.792	0.0182597
791.870	0.0182539
791.948	0.0184369
792.026	0.0185009
792.104	0.0184888
792.183	0.0186933
792.261	0.0185246
792.339	0.0183669
792.417	0.0185514
792.495	0.0185694
792.573	0.0185969
792.651	0.0185048
792.729	0.0185295
792.808	0.0184223
792.886	0.0183498
792.964	0.0181448
793.042	0.0182181
793.120	0.0183266
793.198	0.0181979
793.276	0.0180711
793.354	0.0181896
793.433	0.0181232
793.511	0.0180267
793.589	0.0180659
793.667	0.0181443
793.745	0.0179572
793.823	0.0179335
793.901	0.0178977
793.979	0.0178640
794.058	0.0179882
794.136	0.0178502
794.214	0.0178910
794.292	0.0179169
794.370	0.0178194
794.448	0.0177615
794.526	0.0177171
794.604	0.0177383
794.683	0.0177917
794.761	0.0177213
794.839	0.0176370
794.917	0.0177228
794.995	0.0178624
795.073	0.0177854
795.151	0.0177925
795.229	0.0179723
795.308	0.0178747
795.386	0.0179616
795.464	0.0180816
795.542	0.0179381
795.620	0.0181672
795.698	0.0181786
795.776	0.0182771
795.854	0.0183293
795.933	0.0184055
796.011	0.0185927
796.089	0.0184522
796.167	0.0184559
796.245	0.0184975
796.323	0.0185639
796.401	0.0184074
796.479	0.0183260
796.558	0.0184932
796.636	0.0184706
796.714	0.0183128
796.792	0.0183477
796.870	0.0182462
796.948	0.0180858
797.026	0.0180009
797.104	0.0179675
797.183	0.0179307
797.261	0.0178977
797.339	0.0178130
797.417	0.0177532
797.495	0.0176458
797.573	0.0177053
797.651	0.0175262
797.729	0.0175538
797.808	0.0176793
797.886	0.0176557
797.964	0.0176390
798.042	0.0178212
798.120	0.0176476
798.198	0.0177200
798.276	0.0178009
798.354	0.0176588
798.433	0.0177457
798.511	0.0177907
798.589	0.0177956
798.667	0.0178414
798.745	0.0179145
798.823	0.0179872
798.901	0.0180123
798.979	0.0179955
799.058	0.0179658
799.136	0.0180076
799.214	0.0181137
799.292	0.0181749
799.370	0.0182573
799.448	0.0182267
799.526	0.0182591
799.604	0.0184103
799.683	0.0184724
799.761	0.0182561
799.839	0.0184188
799.917	0.0184952
799.995	0.0186396
800.073	0.0187425
800.151	0.0185685
800.229	0.0186146
800.308	0.0184960
800.386	0.0185301
800.464	0.0184151
800.542	0.0183994
800.620	0.0182367
800.698	0.0180972
800.776	0.0180061
800.854	0.0180313
800.933	0.0177784
801.011	0.0177708
801.089	0.0176239
801.167	0.0175368
801.245	0.0174206
801.323	0.0173950
801.401	0.0173150
801.479	0.0172723
801.558	0.0174777
801.636	0.0173125
801.714	0.0173328
801.792	0.0173177
801.870	0.0172129
801.948	0.0174271
802.026	0.0174595
802.104	0.0175445
802.183	0.0177444
802.261	0.0178068
802.339	0.0178013
802.417	0.0178265
802.495	0.0178049
802.573	0.0181055
802.651	0.0181210
802.729	0.0181818
802.808	0.0182010
802.886	0.0183851
802.964	0.0185644
803.042	0.0185616
803.120	0.0184766
803.198	0.0185309
803.276	0.0187267
803.354	0.0184899
803.433	0.0185828
803.511	0.0185846
803.589	0.0184463
803.667	0.0185893
803.745	0.0183917
803.823	0.0184134
803.901	0.0182011
803.979	0.0181347
804.058	0.0180186
804.136	0.0180148
804.214	0.0179720
804.292	0.0179803
804.370	0.0178316
804.448	0.0178389
804.526	0.0176740
804.604	0.0175525
804.683	0.0174599
804.761	0.0175029
804.839	0.0175298
804.917	0.0174750
804.995	0.0175321
805.073	0.0174261
805.151	0.0175751
805.229	0.0176234
805.308	0.0176013
805.386	0.0176491
805.464	0.0177313
805.542	0.0178508
805.620	0.0179044
805.698	0.0178815
805.776	0.0179588
805.854	0.0180158
805.933	0.0181013
806.011	0.0180928
806.089	0.0182814
806.167	0.0183869
806.245	0.0184428
806.323	0.0184283
806.401	0.0184391
806.479	0.0183846
806.558	0.0185387
806.636	0.0187439
806.714	0.0185598
806.792	0.0184863
806.870	0.0184969
806.948	0.0184600
807.026	0.0183932
807.104	0.0182917
807.183	0.0182680
807.261	0.0182193
807.339	0.0181282
807.417	0.0181621
807.495	0.0183469
807.573	0.0180351
807.651	0.0181087
807.729	0.0180506
807.808	0.0178790
807.886	0.0178880
807.964	0.0177431
808.042	0.0176464
808.120	0.0178240
808.198	0.0177145
808.276	0.0176276
808.354	0.0175832
808.433	0.0176018
808.511	0.0176600
808.589	0.0176222
808.667	0.0177550
808.745	0.0178180
808.823	0.0177846
808.901	0.0179549
808.979	0.0180579
809.058	0.0181332
809.136	0.0181027
809.214	0.0181207
809.292	0.0182355
809.370	0.0181534
809.448	0.0182722
809.526	0.0182827
809.604	0.0183069
809.683	0.0183496
809.761	0.0184194
809.839	0.0184724
809.917	0.0184010
809.995	0.0184513
810.073	0.0184550
810.151	0.0182678
810.229	0.0181972
810.308	0.0181673
810.386	0.0181628
810.464	0.0180921
810.542	0.0180762
810.620	0.0180440
810.698	0.0179848
810.776	0.0179630
810.854	0.0179306
810.933	0.0179045
811.011	0.0180327
811.089	0.0179518
811.167	0.0176852
811.245	0.0177637
811.323	0.0177163
811.401	0.0177788
811.479	0.0179005
811.558	0.0178323
811.636	0.0178773
811.714	0.0178168
811.792	0.0178779
811.870	0.0178334
811.948	0.0180850
812.026	0.0179037
812.104	0.0180834
812.183	0.0180029
812.261	0.0181540
812.339	0.0182483
812.417	0.0181609
812.495	0.0183194
812.573	0.0183610
812.651	0.0181898
812.729	0.0183703
812.808	0.0184315
812.886	0.0183904
812.964	0.0182603
813.042	0.0183352
813.120	0.0184073
813.198	0.0183531
813.276	0.0183498
813.354	0.0183836
813.433	0.0185197
813.511	0.0184608
813.589	0.0183492
813.667	0.0184900
813.745	0.0184583
813.823	0.0183766
813.901	0.0183197
813.979	0.0182616
814.058	0.0181879
814.136	0.0181496
814.214	0.0180193
814.292	0.0180666
814.370	0.0179521
814.448	0.0178101
814.526	0.0178269
814.604	0.0176560
814.683	0.0177776
814.761	0.0177641
814.839	0.0175488
814.917	0.0175138
814.995	0.0175997
815.073	0.0177966
815.151	0.0178409
815.229	0.0176543
815.308	0.0176852
815.386	0.0177772
815.464	0.0177711
815.542	0.0179349
815.620	0.0179707
815.698	0.0179042
815.776	0.0179585
815.854	0.0181977
815.933	0.0180807
816.011	0.0180898
816.089	0.0180633
816.167	0.0181741
816.245	0.0181885
816.323	0.0181651
816.401	0.0182487
816.479	0.0181983
816.558	0.0182797
816.636	0.0182391
816.714	0.0183841
816.792	0.0183879
816.870	0.0184135
816.948	0.0184419
817.026	0.0183926
817.104	0.0183710
817.183	0.0184509
817.261	0.0184173
817.339	0.0185200
817.417	0.0183871
817.495	0.0182957
817.573	0.0183421
817.651	0.0183279
817.729	0.0182565
817.808	0.0183077
817.886	0.0181248
817.964	0.0182023
818.042	0.0180853
818.120	0.0179258
818.198	0.0177702
818.276	0.0178244
818.354	0.0178600
818.433	0.0177625
818.511	0.0176383
818.589	0.0177628
818.667	0.0176450
818.745	0.0176591
818.823	0.0176634
818.901	0.0176125
818.979	0.0176926
819.058	0.0178436
819.136	0.0179010
819.214	0.0179748
819.292	0.0179939
819.370	0.0178309
819.448	0.0179067
819.526	0.0181136
819.604	0.0182262
819.683	0.0183366
819.761	0.0184384
819.839	0.0183437
819.917	0.0182009
819.995	0.0182791
820.073	0.0183597
820.151	0.0185019
820.229	0.0183105
820.308	0.0183651
820.386	0.0183210
820.464	0.0183545
820.542	0.0183756
820.620	0.0184440
820.698	0.0184389
820.776	0.0183566
820.854	0.0183175
820.933	0.0182867
821.011	0.0183256
821.089	0.0182965
821.167	0.0181406
821.245	0.0180915
821.323	0.0180549
821.401	0.0180115
821.479	0.0178624
821.558	0.0179732
821.636	0.0178790
821.714	0.0177372
821.792	0.0175380
821.870	0.0176604
821.948	0.0175392
822.026	0.0175797
822.104	0.0177091
822.183	0.0176978
822.261	0.0175847
822.339	0.0174893
822.417	0.0176819
822.495	0.0176112
822.573	0.0175413
822.651	0.0176466
822.729	0.0177472
822.808	0.0177693
822.886	0.0177969
822.964	0.0177803
823.042	0.0177657
823.120	0.0179795
823.198	0.0180362
823.276	0.0180952
823.354	0.0180586
823.433	0.0182147
823.511	0.0181099
823.589	0.0182314
823.667	0.0184423
823.745	0.0183757
823.823	0.0183302
823.901	0.0184123
823.979	0.0183819
824.058	0.0183760
824.136	0.0183205
824.214	0.0184635
824.292	0.0184064
824.370	0.0184510
824.448	0.0182977
824.526	0.0184155
824.604	0.0183662
824.683	0.0183543
824.761	0.0182964
824.839	0.0182136
824.917	0.0181278
824.995	0.0179816
825.073	0.0180717
825.151	0.0179161
825.229	0.0180374
825.308	0.0179726
825.386	0.0177888
825.464	0.0177841
825.542	0.0178722
825.620	0.0177958
825.698	0.0176517
825.776	0.0178137
825.854	0.0177042
825.933	0.0176582
826.011	0.0176134
826.089	0.0176048
826.167	0.0176286
826.245	0.0176807
826.323	0.0176457
826.401	0.0175725
826.479	0.0176095
826.558	0.0177311
826.636	0.0177332
826.714	0.0177837
826.792	0.0178461
826.870	0.0177584
826.948	0.0178671
827.026	0.0180173
827.104	0.0179859
827.183	0.0180423
827.261	0.0181244
827.339	0.0182050
827.417	0.0181714
827.495	0.0182889
827.573	0.0183566
827.651	0.0182969
827.729	0.0183016
827.808	0.0184052
827.886	0.0184603
827.964	0.0186333
828.042	0.0183679
828.120	0.0185316
828.198	0.0183767
828.276	0.0184200
828.354	0.0183936
828.433	0.0183626
828.511	0.0182806
828.589	0.0184111
828.667	0.0182345
828.745	0.0182035
828.823	0.0182088
828.901	0.0182114
828.979	0.0180805
829.058	0.0181288
829.136	0.0180990
829.214	0.0180241
829.292	0.0178609
829.370	0.0179134
829.448	0.0178393
829.526	0.0179153
829.604	0.0179063
829.683	0.0178445
829.761	0.0177780
829.839	0.0178160
829.917	0.0178094
829.995	0.0177962
830.073	0.0177287
830.151	0.0178565
830.229	0.0178731
830.308	0.0178181
830.386	0.0179047
830.464	0.0180001
830.542	0.0181091
830.620	0.0180404
830.698	0.0180571
830.776	0.0181345
830.854	0.0180861
830.933	0.0181310
831.011	0.0180574
831.089	0.0180459
831.167	0.0179327
831.245	0.0181931
831.323	0.0179677
831.401	0.0180447
831.479	0.0180687
831.558	0.0179790
831.636	0.0180319
831.714	0.0180672
831.792	0.0180385
831.870	0.0181799
831.948	0.0180717
832.026	0.0181971
832.104	0.0181794
832.183	0.0181041
832.261	0.0181929
832.339	0.0182980
832.417	0.0181897
832.495	0.0182560
832.573	0.0182112
832.651	0.0183787
832.729	0.0183809
832.808	0.0182734
832.886	0.0181516
832.964	0.0182931
833.042	0.0183421
833.120	0.0181882
833.198	0.0181641
833.276	0.0181916
833.354	0.0182284
833.433	0.0182976
833.511	0.0182641
833.589	0.0183594
833.667	0.0182568
833.745	0.0182137
833.823	0.0182030
833.901	0.0182713
833.979	0.0182494
834.058	0.0183393
834.136	0.0183059
834.214	0.0183118
834.292	0.0181516
834.370	0.0182269
834.448	0.0180331
834.526	0.0180801
834.604	0.0181686
834.683	0.0179066
834.761	0.0179539
834.839	0.0180172
834.917	0.0179734
834.995	0.0177609
835.073	0.0178563
835.151	0.0179630
835.229	0.0177975
835.308	0.0178292
835.386	0.0178813
835.464	0.0179246
835.542	0.0180164
835.620	0.0180571
835.698	0.0181396
835.776	0.0180349
835.854	0.0182449
835.933	0.0182292
836.011	0.0183949
836.089	0.0183929
836.167	0.0183686
836.245	0.0184988
836.323	0.0184100
836.401	0.0184801
836.479	0.0185760
836.558	0.0185548
836.636	0.0183952
836.714	0.0183654
836.792	0.0184785
836.870	0.0183575
836.948	0.0184161
837.026	0.0182742
837.104	0.0181354
837.183	0.0180921
837.261	0.0183385
837.339	0.0181830
837.417	0.0180525
837.495	0.0179354
837.573	0.0180087
837.651	0.0178003
837.729	0.0178180
837.808	0.0177879
837.886	0.0177341
837.964	0.0178231
838.042	0.0177209
838.120	0.0178054
838.198	0.0177474
838.276	0.0175870
838.354	0.0177724
838.433	0.0178751
838.511	0.0178086
838.589	0.0178377
838.667	0.0178374
838.745	0.0179291
838.823	0.0179728
838.901	0.0178906
838.979	0.0179457
839.058	0.0180878
839.136	0.0181097
839.214	0.0181924
839.292	0.0181885
839.370	0.0182504
839.448	0.0182465
839.526	0.0182527
839.604	0.0184801
839.683	0.0185267
839.761	0.0185383
839.839	0.0184502
839.917	0.0186009
839.995	0.0184821
840.073	0.0185220
840.151	0.0184628
840.229	0.0185818
840.308	0.0186344
840.386	0.0185672
840.464	0.0184820
840.542	0.0184554
840.620	0.0183586
840.698	0.0182824
840.776	0.0182680
840.854	0.0182603
840.933	0.0181622
841.011	0.0181590
841.089	0.0180630
841.167	0.0181111
841.245	0.0179688
841.323	0.0178628
841.401	0.0178786
841.479	0.0178333
841.558	0.0178276
841.636	0.0177761
841.714	0.0178880
841.792	0.0178033
841.870	0.0175948
841.948	0.0176910
842.026	0.0177593
842.104	0.0177578
842.183	0.0177260
842.261	0.0179985
842.339	0.0180241
842.417	0.0179490
842.495	0.0178915
842.573	0.0179797
842.651	0.0178878
842.729	0.0178928
842.808	0.0179046
842.886	0.0180997
842.964	0.0179316
843.042	0.0180461
843.120	0.0181577
843.198	0.0180362
843.276	0.0181918
843.354	0.0181420
843.433	0.0181521
843.511	0.0182679
843.589	0.0183266
843.667	0.0182666
843.745	0.0182164
843.823	0.0183102
843.901	0.0183556
843.979	0.0182124
844.058	0.0182553
844.136	0.0183270
844.214	0.0183476
844.292	0.0182160
844.370	0.0182310
844.448	0.0181967
844.526	0.0183494
844.604	0.0181251
844.683	0.0182192
844.761	0.0181834
844.839	0.0182023
844.917	0.0181967
844.995	0.0181387
845.073	0.0181184
845.151	0.0180911
845.229	0.0180357
845.308	0.0181065
845.386	0.0181392
845.464	0.0179259
845.542	0.0179564
845.620	0.0179266
845.698	0.0178729
845.776	0.0180606
845.854	0.0179583
845.933	0.0179419
846.011	0.0179285
846.089	0.0179295
846.167	0.0177827
846.245	0.0178044
846.323	0.0178822
846.401	0.0179095
846.479	0.0178555
846.558	0.0177264
846.636	0.0179326
846.714	0.0178603
846.792	0.0177742
846.870	0.0180751
846.948	0.0179214
847.026	0.0180219
847.104	0.0180373
847.183	0.0180888
847.261	0.0181167
847.339	0.0181399
847.417	0.0182293
847.495	0.0182244
847.573	0.0182059
847.651	0.0181967
847.729	0.0181045
847.808	0.0182359
847.886	0.0183137
847.964	0.0182521
848.042	0.0183001
848.120	0.0184016
848.198	0.0182444
848.276	0.0182235
848.354	0.0182613
848.433	0.0182325
848.511	0.0182084
848.589	0.0182096
848.667	0.0182944
848.745	0.0181484
848.823	0.0182423
848.901	0.0180445
848.979	0.0181164
849.058	0.0181381
849.136	0.0181835
849.214	0.0179816
849.292	0.0179375
849.370	0.0180493
849.448	0.0179219
849.526	0.0178088
849.604	0.0177844
849.683	0.0179202
849.761	0.0178362
849.839	0.0176923
849.917	0.0176183
849.995	0.0176936
850.073	0.0178214
850.151	0.0178277
850.229	0.0177094
850.308	0.0177052
850.386	0.0178214
850.464	0.0178197
850.542	0.0177763
850.620	0.0178191
850.698	0.0179871
850.776	0.0179787
850.854	0.0179667
850.933	0.0181852
851.011	0.0181280
851.089	0.0182648
851.167	0.0183457
851.245	0.0182437
851.323	0.0182423
851.401	0.0183412
851.479	0.0183979
851.558	0.0183669
851.636	0.0184281
851.714	0.0181916
851.792	0.0181124
851.870	0.0183582
851.948	0.0183399
852.026	0.0181658
852.104	0.0181976
852.183	0.0182907
852.261	0.0181580
852.339	0.0183291
852.417	0.0182719
852.495	0.0181944
852.573	0.0181158
852.651	0.0181748
852.729	0.0180983
852.808	0.0181522
852.886	0.0181861
852.964	0.0179797
853.042	0.0179958
853.120	0.0179085
853.198	0.0180417
853.276	0.0178817
853.354	0.0179422
853.433	0.0180365
853.511	0.0178448
853.589	0.0178025
853.667	0.0178339
853.745	0.0177865
853.823	0.0178370
853.901	0.0178170
853.979	0.0177414
854.058	0.0177448
854.136	0.0178101
854.214	0.0179018
854.292	0.0178488
854.370	0.0179172
854.448	0.0178231
854.526	0.0180227
854.604	0.0180907
854.683	0.0178543
854.761	0.0179038
854.839	0.0180000
854.917	0.0179095
854.995	0.0180908
855.073	0.0181088
855.151	0.0181593
855.229	0.0180591
855.308	0.0181669
855.386	0.0181470
855.464	0.0181688
855.542	0.0183665
855.620	0.0183215
855.698	0.0181406
855.776	0.0182217
855.854	0.0182546
855.933	0.0183208
856.011	0.0181749
856.089	0.0181897
856.167	0.0182595
856.245	0.0183470
856.323	0.0181195
856.401	0.0180965
856.479	0.0181633
856.558	0.0181702
856.636	0.0182090
856.714	0.0182435
856.792	0.0181499
856.870	0.0182896
856.948	0.0181749
857.026	0.0181542
857.104	0.0183423
857.183	0.0181892
857.261	0.0181710
857.339	0.0181129
857.417	0.0181770
857.495	0.0181788
857.573	0.0180470
857.651	0.0180708
857.729	0.0181290
857.808	0.0182331
857.886	0.0180704
857.964	0.0181046
858.042	0.0181294
858.120	0.0180990
858.198	0.0179787
858.276	0.0177852
858.354	0.0180199
858.433	0.0179362
858.511	0.0179370
858.589	0.0181162
858.667	0.0180752
858.745	0.0180991
858.823	0.0178980
858.901	0.0180142
858.979	0.0180713
859.058	0.0181464
859.136	0.0181761
859.214	0.0182618
859.292	0.0182122
859.370	0.0180891
859.448	0.0182581
859.526	0.0182430
859.604	0.0180218
859.683	0.0182114
859.761	0.0181853
859.839	0.0181077
859.917	0.0182510
859.995	0.0181908
860.073	0.0181786
860.151	0.0180691
860.229	0.0180751
860.308	0.0181940
860.386	0.0180006
860.464	0.0180390
860.542	0.0181443
860.620	0.0180707
860.698	0.0180147
860.776	0.0180640
860.854	0.0181645
860.933	0.0181258
861.011	0.0181564
861.089	0.0179855
861.167	0.0181744
861.245	0.0181181
861.323	0.0180978
861.401	0.0180070
861.479	0.0180444
861.558	0.0180790
861.636	0.0180749
861.714	0.0180273
861.792	0.0181390
861.870	0.0180948
861.948	0.0180964
862.026	0.0180347
862.104	0.0180037
862.183	0.0180509
862.261	0.0180086
862.339	0.0181650
862.417	0.0179596
862.495	0.0180615
862.573	0.0179739
862.651	0.0180953
862.729	0.0180360
862.808	0.0180659
862.886	0.0179736
862.964	0.0180309
863.042	0.0179702
863.120	0.0180890
863.198	0.0180157
863.276	0.0180389
863.354	0.0182188
863.433	0.0181470
863.511	0.0180981
863.589	0.0181431
863.667	0.0182152
863.745	0.0182610
863.823	0.0181688
863.901	0.0181328
863.979	0.0182540
864.058	0.0181303
864.136	0.0182483
864.214	0.0181327
864.292	0.0181366
864.370	0.0181631
864.448	0.0179814
864.526	0.0179840
864.604	0.0179877
864.683	0.0181030
864.761	0.0180219
864.839	0.0181036
864.917	0.0180403
864.995	0.0179279
865.073	0.0180677
865.151	0.0178339
865.229	0.0180758
865.308	0.0180111
865.386	0.0180412
865.464	0.0180982
865.542	0.0180106
865.620	0.0179880
865.698	0.0181197
865.776	0.0178590
865.854	0.0180297
865.933	0.0180685
866.011	0.0179821
866.089	0.0180972
866.167	0.0182062
866.245	0.0181191
866.323	0.0178392
866.401	0.0180223
866.479	0.0179895
866.558	0.0181155
866.636	0.0180481
866.714	0.0181229
866.792	0.0182215
866.870	0.0180994
866.948	0.0181065
867.026	0.0180775
867.104	0.0180563
867.183	0.0180876
867.261	0.0180949
867.339	0.0182592
867.417	0.0180443
867.495	0.0180277
867.573	0.0179278
867.651	0.0180948
867.729	0.0179388
867.808	0.0177630
867.886	0.0178565
867.964	0.0179568
868.042	0.0177545
868.120	0.0176887
868.198	0.0176617
868.276	0.0178036
868.354	0.0176971
868.433	0.0178024
868.511	0.0177541
868.589	0.0177630
868.667	0.0177543
868.745	0.0178587
868.823	0.0179485
868.901	0.0177276
868.979	0.0179100
869.058	0.0179774
869.136	0.0179493
869.214	0.0180064
869.292	0.0182240
869.370	0.0180353
869.448	0.0181425
869.526	0.0181094
869.604	0.0182873
869.683	0.0181020
869.761	0.0179969
869.839	0.0181844
869.917	0.0182493
869.995	0.0181417
870.073	0.0181618
870.151	0.0181825
870.229	0.0182555
870.308	0.0181489
870.386	0.0181902
870.464	0.0181442
870.542	0.0180592
870.620	0.0181821
870.698	0.0181581
870.776	0.0181801
870.854	0.0181605
870.933	0.0180686
871.011	0.0180972
871.089	0.0180459
871.167	0.0180646
871.245	0.0179861
871.323	0.0178966
871.401	0.0180079
871.479	0.0178684
871.558	0.0178480
871.636	0.0178546
871.714	0.0178653
871.792	0.0179235
871.870	0.0178752
871.948	0.0180141
872.026	0.0178923
872.104	0.0178831
872.183	0.0178882
872.261	0.0179807
872.339	0.0178824
872.417	0.0179424
872.495	0.0178989
872.573	0.0179004
872.651	0.0178858
872.729	0.0180476
872.808	0.0180685
872.886	0.0179073
872.964	0.0179465
873.042	0.0178719
873.120	0.0180121
873.198	0.0181006
873.276	0.0179421
873.354	0.0180145
873.433	0.0179865
873.511	0.0179515
873.589	0.0179915
873.667	0.0179800
873.745	0.0179477
873.823	0.0179748
873.901	0.0180682
873.979	0.0181017
874.058	0.0180414
874.136	0.0181294
874.214	0.0180251
874.292	0.0180788
874.370	0.0181451
874.448	0.0180846
874.526	0.0181870
874.604	0.0182374
874.683	0.0180977
874.761	0.0181181
874.839	0.0180839
874.917	0.0182189
874.995	0.0180748
875.073	0.0180663
875.151	0.0181023
875.229	0.0180228
875.308	0.0181435
875.386	0.0179930
875.464	0.0181057
875.542	0.0181227
875.620	0.0179642
875.698	0.0178574
875.776	0.0179157
875.854	0.0178393
875.933	0.0178245
876.011	0.0177097
876.089	0.0177630
876.167	0.0177764
876.245	0.0178677
876.323	0.0177638
876.401	0.0177671
876.479	0.0178722
876.558	0.0178265
876.636	0.0178420
876.714	0.0178996
876.792	0.0177597
876.870	0.0180497
876.948	0.0180920
877.026	0.0180630
877.104	0.0179585
877.183	0.0180969
877.261	0.0182399
877.339	0.0181882
877.417	0.0181590
877.495	0.0181238
877.573	0.0181030
877.651	0.0183596
877.729	0.0182917
877.808	0.0182269
877.886	0.0182459
877.964	0.0182110
878.042	0.0181075
878.120	0.0181676
878.198	0.0181268
878.276	0.0180627
878.354	0.0181286
878.433	0.0182566
878.511	0.0180948
878.589	0.0179927
878.667	0.0180256
878.745	0.0180334
878.823	0.0180556
878.901	0.0180199
878.979	0.0180096
879.058	0.0179248
879.136	0.0178978
879.214	0.0179679
879.292	0.0179114
879.370	0.0179485
879.448	0.0179214
879.526	0.0179383
879.604	0.0178228
879.683	0.0179228
879.761	0.0178973
879.839	0.0179208
879.917	0.0177480
879.995	0.0178490
880.073	0.0178171
880.151	0.0179057
880.229	0.0179821
880.308	0.0179188
880.386	0.0178040
880.464	0.0179265
880.542	0.0178275
880.620	0.0179476
880.698	0.0179574
880.776	0.0178948
880.854	0.0179227
880.933	0.0181302
881.011	0.0181218
881.089	0.0181833
881.167	0.0181853
881.245	0.0182020
881.323	0.0180920
881.401	0.0180998
881.479	0.0180460
881.558	0.0181570
881.636	0.0181103
881.714	0.0180016
881.792	0.0181260
881.870	0.0181694
881.948	0.0180908
882.026	0.0182257
882.104	0.0182085
882.183	0.0182665
882.261	0.0180852
882.339	0.0181187
882.417	0.0181438
882.495	0.0181821
882.573	0.0183012
882.651	0.0182033
882.729	0.0182497
882.808	0.0180930
882.886	0.0180749
882.964	0.0182368
883.042	0.0179616
883.120	0.0180006
883.198	0.0180351
883.276	0.0178770
883.354	0.0178030
883.433	0.0178821
883.511	0.0178263
883.589	0.0179638
883.667	0.0178756
883.745	0.0177065
883.823	0.0178191
883.901	0.0178020
883.979	0.0179097
884.058	0.0179395
884.136	0.0179147
884.214	0.0178796
884.292	0.0178523
884.370	0.0178983
884.448	0.0178999
884.526	0.0179941
884.604	0.0180070
884.683	0.0180215
884.761	0.0180545
884.839	0.0179900
884.917	0.0180249
884.995	0.0179700
885.073	0.0181012
885.151	0.0181702
885.229	0.0180511
885.308	0.0180995
885.386	0.0182612
885.464	0.0182050
885.542	0.0183012
885.620	0.0182867
885.698	0.0182713
885.776	0.0183186
885.854	0.0184373
885.933	0.0181880
886.011	0.0182159
886.089	0.0182382
886.167	0.0182935
886.245	0.0182135
886.323	0.0181735
886.401	0.0180751
886.479	0.0181223
886.558	0.0179865
886.636	0.0179823
886.714	0.0179499
886.792	0.0176627
886.870	0.0178255
886.948	0.0176955
887.026	0.0177258
887.104	0.0177657
887.183	0.0178561
887.261	0.0178191
887.339	0.0178100
887.417	0.0178853
887.495	0.0178918
887.573	0.0180225
887.651	0.0180279
887.729	0.0179702
887.808	0.0180240
887.886	0.0180927
887.964	0.0181402
888.042	0.0180863
888.120	0.0181943
888.198	0.0182254
888.276	0.0180040
888.354	0.0181652
888.433	0.0181898
888.511	0.0180269
888.589	0.0180619
888.667	0.0180042
888.745	0.0180811
888.823	0.0179649
888.901	0.0180315
888.979	0.0179716
889.058	0.0180033
889.136	0.0180119
889.214	0.0180334
889.292	0.0179394
889.370	0.0180683
889.448	0.0179800
889.526	0.0180406
889.604	0.0181147
889.683	0.0179349
889.761	0.0178324
889.839	0.0180723
889.917	0.0180235
889.995	0.0180557
890.073	0.0179593
890.151	0.0179905
890.229	0.0181226
890.308	0.0179665
890.386	0.0179854
890.464	0.0179958
890.542	0.0180685
890.620	0.0180522
890.698	0.0181676
890.776	0.0180697
890.854	0.0181353
890.933	0.0181011
891.011	0.0181684
891.089	0.0181950
891.167	0.0181133
891.245	0.0181663
891.323	0.0181527
891.401	0.0180974
891.479	0.0179713
891.558	0.0179790
891.636	0.0181026
891.714	0.0179736
891.792	0.0180360
891.870	0.0178705
891.948	0.0179268
892.026	0.0178849
892.104	0.0177945
892.183	0.0178431
892.261	0.0178074
892.339	0.0177476
892.417	0.0175924
892.495	0.0176462
892.573	0.0177541
892.651	0.0177062
892.729	0.0176096
892.808	0.0176644
892.886	0.0176620
892.964	0.0176480
893.042	0.0176972
893.120	0.0177808
893.198	0.0177460
893.276	0.0180072
893.354	0.0180029
893.433	0.0179221
893.511	0.0182262
893.589	0.0182014
893.667	0.0183766
893.745	0.0184106
893.823	0.0185132
893.901	0.0186520
893.979	0.0185735
894.058	0.0185268
894.136	0.0184913
894.214	0.0184789
894.292	0.0184489
894.370	0.0181915
894.448	0.0182253
894.526	0.0182762
894.604	0.0181406
894.683	0.0180656
894.761	0.0179884
894.839	0.0178551
894.917	0.0179831
894.995	0.0177837
895.073	0.0179032
895.151	0.0179502
895.229	0.0179369
895.308	0.0178559
895.386	0.0178622
895.464	0.0178876
895.542	0.0179038
895.620	0.0179010
895.698	0.0179549
895.776	0.0178345
895.854	0.0177700
895.933	0.0176764
896.011	0.0176204
896.089	0.0175645
896.167	0.0176180
896.245	0.0176038
896.323	0.0177089
896.401	0.0175341
896.479	0.0176391
896.558	0.0175784
896.636	0.0177486
896.714	0.0177927
896.792	0.0177605
896.870	0.0179463
896.948	0.0177725
897.026	0.0178783
897.104	0.0179069
897.183	0.0180354
897.261	0.0180634
897.339	0.0180768
897.417	0.0182258
897.495	0.0184555
897.573	0.0186069
897.651	0.0185089
897.729	0.0186441
897.808	0.0186284
897.886	0.0186167
897.964	0.0188352
898.042	0.0186373
898.120	0.0185172
898.198	0.0184821
898.276	0.0186819
898.354	0.0184407
898.433	0.0183970
898.511	0.0184331
898.589	0.0182362
898.667	0.0181833
898.745	0.0180707
898.823	0.0179848
898.901	0.0178161
898.979	0.0178063
899.058	0.0177771
899.136	0.0176968
899.214	0.0174534
899.292	0.0175914
899.370	0.0173711
899.448	0.0172606
899.526	0.0172401
899.604	0.0172365
899.683	0.0173173
899.761	0.0172647
899.839	0.0170654
899.917	0.0172118
899.995	0.0173571
900.073	0.0174324
900.151	0.0175204
900.229	0.0175273
900.308	0.0176639
900.386	0.0178127
900.464	0.0179583
900.542	0.0180943
900.620	0.0182077
900.698	0.0182850
900.776	0.0185339
900.854	0.0187510
900.933	0.0187216
901.011	0.0187856
901.089	0.0187885
901.167	0.0188644
901.245	0.0189098
901.323	0.0188556
901.401	0.0189761
901.479	0.0187360
901.558	0.0187804
901.636	0.0186813
901.714	0.0185161
901.792	0.0184634
901.870	0.0183677
901.948	0.0181509
902.026	0.0181712
902.104	0.0179827
902.183	0.0178130
902.261	0.0179146
902.339	0.0176643
902.417	0.0176720
902.495	0.0175858
902.573	0.0174714
902.651	0.0175327
902.729	0.0175344
902.808	0.0176064
902.886	0.0174232
902.964	0.0174323
903.042	0.0175165
903.120	0.0173203
903.198	0.0175710
903.276	0.0175835
903.354	0.0176474
903.433	0.0175798
903.511	0.0176028
903.589	0.0176817
903.667	0.0178522
903.745	0.0177692
903.823	0.0178661
903.901	0.0180421
903.979	0.0181124
904.058	0.0183196
904.136	0.0184222
904.214	0.0184811
904.292	0.0185196
904.370	0.0187904
904.448	0.0187960
904.526	0.0187501
904.604	0.0188315
904.683	0.0187826
904.761	0.0187638
904.839	0.0186765
904.917	0.0185558
904.995	0.0184966
905.073	0.0184892
905.151	0.0182782
905.229	0.0180874
905.308	0.0181096
905.386	0.0178893
905.464	0.0178989
905.542	0.0177370
905.620	0.0177425
905.698	0.0176785
905.776	0.0176647
905.854	0.0175574
905.933	0.0176671
906.011	0.0175963
906.089	0.0177621
906.167	0.0178534
906.245	0.0178831
906.323	0.0179043
906.401	0.0179035
906.479	0.0178001
906.558	0.0178064
906.636	0.0176913
906.714	0.0179564
906.792	0.0179436
906.870	0.0178761
906.948	0.0179191
907.026	0.0177193
907.104	0.0177972
907.183	0.0178262
907.261	0.0179364
907.339	0.0180013
907.417	0.0179995
907.495	0.0180618
907.573	0.0181450
907.651	0.0180429
907.729	0.0183063
907.808	0.0183840
907.886	0.0184081
907.964	0.0184476
908.042	0.0182899
908.120	0.0183866
908.198	0.0184372
908.276	0.0184511
908.354	0.0184899
908.433	0.0182966
908.511	0.0183472
908.589	0.0183304
908.667	0.0183595
908.745	0.0182458
908.823	0.0182571
908.901	0.0181197
908.979	0.0181275
909.058	0.0181281
909.136	0.0178468
909.214	0.0182074
909.292	0.0180771
909.370	0.0180609
909.448	0.0179554
909.526	0.0180895
909.604	0.0180495
909.683	0.0179995
909.761	0.0181046
909.839	0.0181384
909.917	0.0181017
909.995	0.0181169
910.073	0.0180698
910.151	0.0178630
910.229	0.0180062
910.308	0.0180167
910.386	0.0180538
910.464	0.0180131
910.542	0.0179704
910.620	0.0179155
910.698	0.0179479
910.776	0.0179195
910.854	0.0178971
910.933	0.0179376
911.011	0.0179596
911.089	0.0179919
911.167	0.0179870
911.245	0.0180463
911.323	0.0180424
911.401	0.0180226
911.479	0.0180017
911.558	0.0180988
911.636	0.0180679
911.714	0.0180761
911.792	0.0180791
911.870	0.0181048
911.948	0.0181537
912.026	0.0181754
912.104	0.0181207
912.183	0.0180293
912.261	0.0181337
912.339	0.0182066
912.417	0.0181155
912.495	0.0182329
912.573	0.0180549
912.651	0.0182012
912.729	0.0181345
912.808	0.0181133
912.886	0.0181510
912.964	0.0182970
913.042	0.0182376
913.120	0.0182999
913.198	0.0181524
913.276	0.0181028
913.354	0.0181635
913.433	0.0181518
913.511	0.0181270
913.589	0.0180309
913.667	0.0179970
913.745	0.0179267
913.823	0.0179120
913.901	0.0179774
913.979	0.0179258
914.058	0.0179137
914.136	0.0179163
914.214	0.0179242
914.292	0.0179303
914.370	0.0179602
914.448	0.0178788
914.526	0.0180079
914.604	0.0180386
914.683	0.0180283
914.761	0.0181168
914.839	0.0180723
914.917	0.0180873
914.995	0.0181237
915.073	0.0179599
915.151	0.0181078
915.229	0.0180441
915.308	0.0178374
915.386	0.0179874
915.464	0.0179769
915.542	0.0179234
915.620	0.0178688
915.698	0.0179187
915.776	0.0179429
915.854	0.0180108
915.933	0.0178992
916.011	0.0180549
916.089	0.0179771
916.167	0.0180053
916.245	0.0180335
916.323	0.0180478
916.401	0.0182070
916.479	0.0181068
916.558	0.0182073
916.636	0.0181707
916.714	0.0183044
916.792	0.0181330
916.870	0.0181210
916.948	0.0181098
917.026	0.0180451
917.104	0.0181690
917.183	0.0180415
917.261	0.0181846
917.339	0.0181560
917.417	0.0180014
917.495	0.0181628
917.573	0.0180647
917.651	0.0180038
917.729	0.0181007
917.808	0.0181576
917.886	0.0180811
917.964	0.0182085
918.042	0.0181985
918.120	0.0181362
918.198	0.0181638
918.276	0.0182172
918.354	0.0182454
918.433	0.0181219
918.511	0.0180856
918.589	0.0181319
918.667	0.0181513
918.745	0.0180871
918.823	0.0180585
918.901	0.0179793
918.979	0.0178728
919.058	0.0178381
919.136	0.0177882
919.214	0.0179371
919.292	0.0178456
919.370	0.0178699
919.448	0.0178513
919.526	0.0179288
919.604	0.0179165
919.683	0.0179230
919.761	0.0181150
919.839	0.0181776
919.917	0.0181105
