06/03/2022	18:03:52	Ver.	4.1	UNKNOWN
Optical Delay	599.995081	Delta X		0.078125	Sweeps	1	Scan Rate	0/0
Coordinates	Axis 1	NaN	Axis 2	NaN	Axis 3	NaN	Axis 4	NaN	Axis 5	NaN	Axis 6	0.000000
TX Power	0.000000	RX Power	0.000000

599.995	0.0181817
600.073	0.0182858
600.151	0.0181971
600.229	0.0180846
600.308	0.0180724
600.386	0.0181651
600.464	0.0181410
600.542	0.0181675
600.620	0.0182067
600.698	0.0183086
600.776	0.0183247
600.854	0.0181558
600.933	0.0181116
601.011	0.0181409
601.089	0.0181772
601.167	0.0182434
601.245	0.0182322
601.323	0.0181808
601.401	0.0181422
601.479	0.0181233
601.558	0.0182091
601.636	0.0181942
601.714	0.0181950
601.792	0.0182114
601.870	0.0183596
601.948	0.0181760
602.026	0.0181764
602.104	0.0181619
602.183	0.0181639
602.261	0.0181044
602.339	0.0182177
602.417	0.0181886
602.495	0.0182195
602.573	0.0182031
602.651	0.0181261
602.729	0.0182751
602.808	0.0181492
602.886	0.0180856
602.964	0.0181173
603.042	0.0182729
603.120	0.0182217
603.198	0.0182103
603.276	0.0181108
603.354	0.0182589
603.433	0.0181671
603.511	0.0181738
603.589	0.0181555
603.667	0.0182398
603.745	0.0181642
603.823	0.0182881
603.901	0.0182344
603.979	0.0181676
604.058	0.0180404
604.136	0.0182481
604.214	0.0182755
604.292	0.0182188
604.370	0.0181947
604.448	0.0182285
604.526	0.0181692
604.604	0.0182276
604.683	0.0182062
604.761	0.0182483
604.839	0.0181030
604.917	0.0180315
604.995	0.0182557
605.073	0.0181255
605.151	0.0181165
605.229	0.0180871
605.308	0.0181091
605.386	0.0181696
605.464	0.0180074
605.542	0.0181562
605.620	0.0181430
605.698	0.0182233
605.776	0.0181284
605.854	0.0181883
605.933	0.0181938
606.011	0.0182520
606.089	0.0182228
606.167	0.0181100
606.245	0.0182684
606.323	0.0182214
606.401	0.0181595
606.479	0.0181771
606.558	0.0182138
606.636	0.0181833
606.714	0.0182197
606.792	0.0181112
606.870	0.0180653
606.948	0.0181379
607.026	0.0181110
607.104	0.0181309
607.183	0.0181354
607.261	0.0181525
607.339	0.0183253
607.417	0.0180647
607.495	0.0181356
607.573	0.0181569
607.651	0.0181205
607.729	0.0180505
607.808	0.0181654
607.886	0.0183053
607.964	0.0182261
608.042	0.0182551
608.120	0.0181796
608.198	0.0183432
608.276	0.0180772
608.354	0.0180882
608.433	0.0180776
608.511	0.0181115
608.589	0.0182524
608.667	0.0182301
608.745	0.0181489
608.823	0.0181525
608.901	0.0182014
608.979	0.0181680
609.058	0.0181938
609.136	0.0182520
609.214	0.0181924
609.292	0.0182200
609.370	0.0182349
609.448	0.0181120
609.526	0.0179646
609.604	0.0180964
609.683	0.0182053
609.761	0.0181981
609.839	0.0181754
609.917	0.0182310
609.995	0.0180894
610.073	0.0181754
610.151	0.0180817
610.229	0.0181528
610.308	0.0181593
610.386	0.0181489
610.464	0.0180994
610.542	0.0180914
610.620	0.0180112
610.698	0.0181155
610.776	0.0180698
610.854	0.0181385
610.933	0.0180770
611.011	0.0181372
611.089	0.0182343
611.167	0.0181098
611.245	0.0180569
611.323	0.0182137
611.401	0.0181946
611.479	0.0180285
611.558	0.0181467
611.636	0.0182341
611.714	0.0181508
611.792	0.0181186
611.870	0.0180888
611.948	0.0181911
612.026	0.0182218
612.104	0.0181870
612.183	0.0182066
612.261	0.0180780
612.339	0.0180689
612.417	0.0181350
612.495	0.0181585
612.573	0.0181912
612.651	0.0181274
612.729	0.0182986
612.808	0.0181458
612.886	0.0181260
612.964	0.0181663
613.042	0.0180850
613.120	0.0181800
613.198	0.0182169
613.276	0.0181316
613.354	0.0181947
613.433	0.0181656
613.511	0.0181323
613.589	0.0180166
613.667	0.0182187
613.745	0.0181822
613.823	0.0181219
613.901	0.0181012
613.979	0.0181813
614.058	0.0181695
614.136	0.0182147
614.214	0.0180508
614.292	0.0181335
614.370	0.0181271
614.448	0.0181165
614.526	0.0182028
614.604	0.0181700
614.683	0.0181840
614.761	0.0182681
614.839	0.0181147
614.917	0.0181438
614.995	0.0180830
615.073	0.0181595
615.151	0.0181517
615.229	0.0182119
615.308	0.0181654
615.386	0.0180860
615.464	0.0181536
615.542	0.0181460
615.620	0.0180904
615.698	0.0181966
615.776	0.0181546
615.854	0.0181884
615.933	0.0180428
616.011	0.0180102
616.089	0.0182140
616.167	0.0181986
616.245	0.0182362
616.323	0.0183050
616.401	0.0180726
616.479	0.0180202
616.558	0.0181875
616.636	0.0181130
616.714	0.0181816
616.792	0.0182994
616.870	0.0181141
616.948	0.0180347
617.026	0.0180550
617.104	0.0181187
617.183	0.0182005
617.261	0.0181193
617.339	0.0181812
617.417	0.0183304
617.495	0.0180982
617.573	0.0182027
617.651	0.0180445
617.729	0.0180644
617.808	0.0181342
617.886	0.0182571
617.964	0.0181934
618.042	0.0181786
618.120	0.0180914
618.198	0.0180970
618.276	0.0181899
618.354	0.0181437
618.433	0.0181556
618.511	0.0182759
618.589	0.0181767
618.667	0.0183753
618.745	0.0181943
618.823	0.0180850
618.901	0.0182185
618.979	0.0182017
619.058	0.0181853
619.136	0.0181849
619.214	0.0182821
619.292	0.0182845
619.370	0.0181852
619.448	0.0181200
619.526	0.0181874
619.604	0.0182629
619.683	0.0181934
619.761	0.0181219
619.839	0.0182336
619.917	0.0181492
619.995	0.0181331
620.073	0.0182287
620.151	0.0180888
620.229	0.0180695
620.308	0.0181469
620.386	0.0183089
620.464	0.0182742
620.542	0.0180518
620.620	0.0182269
620.698	0.0181247
620.776	0.0181790
620.854	0.0180865
620.933	0.0182526
621.011	0.0180907
621.089	0.0182805
621.167	0.0181864
621.245	0.0182049
621.323	0.0181195
621.401	0.0180602
621.479	0.0182207
621.558	0.0181579
621.636	0.0181519
621.714	0.0182410
621.792	0.0181885
621.870	0.0181761
621.948	0.0180608
622.026	0.0180402
622.104	0.0181817
622.183	0.0182005
622.261	0.0181234
622.339	0.0182484
622.417	0.0181985
622.495	0.0181425
622.573	0.0181425
622.651	0.0182503
622.729	0.0181827
622.808	0.0180816
622.886	0.0179739
622.964	0.0181503
623.042	0.0181649
623.120	0.0180479
623.198	0.0182278
623.276	0.0181765
623.354	0.0181078
623.433	0.0181984
623.511	0.0180714
623.589	0.0181067
623.667	0.0180755
623.745	0.0181760
623.823	0.0181162
623.901	0.0181710
623.979	0.0181909
624.058	0.0182360
624.136	0.0181915
624.214	0.0182011
624.292	0.0181103
624.370	0.0181708
624.448	0.0181657
624.526	0.0181688
624.604	0.0181770
624.683	0.0181194
624.761	0.0181177
624.839	0.0181846
624.917	0.0181561
624.995	0.0182264
625.073	0.0180613
625.151	0.0181096
625.229	0.0182573
625.308	0.0181064
625.386	0.0180317
625.464	0.0181781
625.542	0.0181074
625.620	0.0181269
625.698	0.0182609
625.776	0.0180767
625.854	0.0181949
625.933	0.0182168
626.011	0.0182825
626.089	0.0181081
626.167	0.0181474
626.245	0.0181038
626.323	0.0181566
626.401	0.0182167
626.479	0.0182359
626.558	0.0182106
626.636	0.0180897
626.714	0.0181158
626.792	0.0181802
626.870	0.0181997
626.948	0.0181541
627.026	0.0181886
627.104	0.0181646
627.183	0.0182549
627.261	0.0181180
627.339	0.0181655
627.417	0.0181447
627.495	0.0182226
627.573	0.0182533
627.651	0.0181171
627.729	0.0181709
627.808	0.0181589
627.886	0.0182577
627.964	0.0183060
628.042	0.0180804
628.120	0.0181721
628.198	0.0182552
628.276	0.0182999
628.354	0.0180961
628.433	0.0180890
628.511	0.0182758
628.589	0.0183009
628.667	0.0182241
628.745	0.0180943
628.823	0.0182167
628.901	0.0182405
628.979	0.0181403
629.058	0.0181461
629.136	0.0182309
629.214	0.0182320
629.292	0.0182436
629.370	0.0181778
629.448	0.0181754
629.526	0.0181091
629.604	0.0181792
629.683	0.0182262
629.761	0.0181988
629.839	0.0182064
629.917	0.0180295
629.995	0.0181466
630.073	0.0181400
630.151	0.0180742
630.229	0.0181905
630.308	0.0181345
630.386	0.0181265
630.464	0.0181456
630.542	0.0180769
630.620	0.0182100
630.698	0.0181528
630.776	0.0180783
630.854	0.0179584
630.933	0.0181946
631.011	0.0180920
631.089	0.0182251
631.167	0.0181075
631.245	0.0181025
631.323	0.0180423
631.401	0.0181367
631.479	0.0180947
631.558	0.0181923
631.636	0.0183238
631.714	0.0182545
631.792	0.0182881
631.870	0.0180785
631.948	0.0181740
632.026	0.0182922
632.104	0.0182751
632.183	0.0181665
632.261	0.0180309
632.339	0.0180625
632.417	0.0181980
632.495	0.0181496
632.573	0.0182868
632.651	0.0182507
632.729	0.0181140
632.808	0.0182445
632.886	0.0182710
632.964	0.0181336
633.042	0.0181142
633.120	0.0181991
633.198	0.0181239
633.276	0.0181443
633.354	0.0180856
633.433	0.0181460
633.511	0.0180949
633.589	0.0181428
633.667	0.0180844
633.745	0.0181281
633.823	0.0180709
633.901	0.0180684
633.979	0.0180658
634.058	0.0180214
634.136	0.0182456
634.214	0.0180827
634.292	0.0180818
634.370	0.0181664
634.448	0.0182688
634.526	0.0181887
634.604	0.0181322
634.683	0.0182521
634.761	0.0180042
634.839	0.0181094
634.917	0.0181741
634.995	0.0182413
635.073	0.0180723
635.151	0.0181494
635.229	0.0181489
635.308	0.0181758
635.386	0.0182847
635.464	0.0182174
635.542	0.0182165
635.620	0.0181518
635.698	0.0181584
635.776	0.0181089
635.854	0.0180821
635.933	0.0180630
636.011	0.0180891
636.089	0.0182325
636.167	0.0181808
636.245	0.0180885
636.323	0.0180833
636.401	0.0181468
636.479	0.0181842
636.558	0.0181348
636.636	0.0183234
636.714	0.0180618
636.792	0.0180743
636.870	0.0182758
636.948	0.0180989
637.026	0.0181052
637.104	0.0181527
637.183	0.0180850
637.261	0.0181306
637.339	0.0181699
637.417	0.0181850
637.495	0.0181914
637.573	0.0181285
637.651	0.0180943
637.729	0.0180556
637.808	0.0181628
637.886	0.0182584
637.964	0.0181461
638.042	0.0180288
638.120	0.0181552
638.198	0.0182237
638.276	0.0182475
638.354	0.0181124
638.433	0.0181932
638.511	0.0181756
638.589	0.0180488
638.667	0.0181093
638.745	0.0182891
638.823	0.0181218
638.901	0.0182041
638.979	0.0182082
639.058	0.0181207
639.136	0.0181431
639.214	0.0180645
639.292	0.0180257
639.370	0.0181009
639.448	0.0181374
639.526	0.0181773
639.604	0.0181047
639.683	0.0181532
639.761	0.0181895
639.839	0.0181824
639.917	0.0181531
639.995	0.0182324
640.073	0.0181409
640.151	0.0181763
640.229	0.0181423
640.308	0.0181431
640.386	0.0180559
640.464	0.0181927
640.542	0.0182700
640.620	0.0182379
640.698	0.0182449
640.776	0.0181493
640.854	0.0181584
640.933	0.0181832
641.011	0.0180756
641.089	0.0181578
641.167	0.0181905
641.245	0.0181788
641.323	0.0180450
641.401	0.0182528
641.479	0.0181948
641.558	0.0182113
641.636	0.0180835
641.714	0.0181300
641.792	0.0181810
641.870	0.0181004
641.948	0.0181779
642.026	0.0181155
642.104	0.0182121
642.183	0.0181611
642.261	0.0180531
642.339	0.0182564
642.417	0.0181945
642.495	0.0181315
642.573	0.0180490
642.651	0.0179878
642.729	0.0182245
642.808	0.0182169
642.886	0.0181868
642.964	0.0181933
643.042	0.0180959
643.120	0.0181444
643.198	0.0181643
643.276	0.0180840
643.354	0.0182892
643.433	0.0180946
643.511	0.0181233
643.589	0.0180774
643.667	0.0181657
643.745	0.0181542
643.823	0.0182296
643.901	0.0181850
643.979	0.0180798
644.058	0.0181561
644.136	0.0180375
644.214	0.0181362
644.292	0.0181842
644.370	0.0181218
644.448	0.0182304
644.526	0.0180853
644.604	0.0181561
644.683	0.0181402
644.761	0.0181126
644.839	0.0181085
644.917	0.0182668
644.995	0.0180846
645.073	0.0180744
645.151	0.0181930
645.229	0.0181019
645.308	0.0181510
645.386	0.0181061
645.464	0.0181985
645.542	0.0181969
645.620	0.0180468
645.698	0.0181002
645.776	0.0181390
645.854	0.0181032
645.933	0.0180932
646.011	0.0181089
646.089	0.0180357
646.167	0.0180418
646.245	0.0181575
646.323	0.0181305
646.401	0.0181196
646.479	0.0180550
646.558	0.0181120
646.636	0.0181328
646.714	0.0181390
646.792	0.0180569
646.870	0.0181081
646.948	0.0181638
647.026	0.0181950
647.104	0.0181781
647.183	0.0181266
647.261	0.0181689
647.339	0.0180602
647.417	0.0182179
647.495	0.0182078
647.573	0.0182220
647.651	0.0180875
647.729	0.0180074
647.808	0.0181490
647.886	0.0180518
647.964	0.0182014
648.042	0.0182050
648.120	0.0181870
648.198	0.0180442
648.276	0.0181850
648.354	0.0180679
648.433	0.0181458
648.511	0.0181908
648.589	0.0182605
648.667	0.0181834
648.745	0.0180416
648.823	0.0180762
648.901	0.0182165
648.979	0.0180983
649.058	0.0181944
649.136	0.0181854
649.214	0.0181277
649.292	0.0181228
649.370	0.0180743
649.448	0.0181576
649.526	0.0182851
649.604	0.0180639
649.683	0.0181676
649.761	0.0181127
649.839	0.0180933
649.917	0.0179956
649.995	0.0181900
650.073	0.0182043
650.151	0.0181147
650.229	0.0180829
650.308	0.0181697
650.386	0.0180997
650.464	0.0181838
650.542	0.0181385
650.620	0.0181237
650.698	0.0182804
650.776	0.0181908
650.854	0.0180134
650.933	0.0181374
651.011	0.0183041
651.089	0.0182873
651.167	0.0182377
651.245	0.0180885
651.323	0.0182248
651.401	0.0181364
651.479	0.0182185
651.558	0.0181297
651.636	0.0182478
651.714	0.0181785
651.792	0.0181572
651.870	0.0182178
651.948	0.0182907
652.026	0.0181824
652.104	0.0180804
652.183	0.0180720
652.261	0.0181913
652.339	0.0181130
652.417	0.0182001
652.495	0.0182119
652.573	0.0181020
652.651	0.0181279
652.729	0.0181181
652.808	0.0181368
652.886	0.0181646
652.964	0.0182118
653.042	0.0179768
653.120	0.0180768
653.198	0.0180916
653.276	0.0181910
653.354	0.0180847
653.433	0.0181081
653.511	0.0181981
653.589	0.0182363
653.667	0.0182080
653.745	0.0181246
653.823	0.0180521
653.901	0.0181167
653.979	0.0181860
654.058	0.0181121
654.136	0.0181957
654.214	0.0181788
654.292	0.0181281
654.370	0.0181840
654.448	0.0180997
654.526	0.0178963
654.604	0.0181219
654.683	0.0180936
654.761	0.0182664
654.839	0.0181013
654.917	0.0180888
654.995	0.0181824
655.073	0.0181592
655.151	0.0180668
655.229	0.0182067
655.308	0.0182193
655.386	0.0180356
655.464	0.0181297
655.542	0.0180318
655.620	0.0181396
655.698	0.0181853
655.776	0.0180500
655.854	0.0181406
655.933	0.0181200
656.011	0.0181828
656.089	0.0181792
656.167	0.0182488
656.245	0.0181754
656.323	0.0183678
656.401	0.0182273
656.479	0.0180209
656.558	0.0180947
656.636	0.0181689
656.714	0.0182364
656.792	0.0181124
656.870	0.0182024
656.948	0.0182437
657.026	0.0182174
657.104	0.0181371
657.183	0.0180988
657.261	0.0182594
657.339	0.0182278
657.417	0.0181850
657.495	0.0180869
657.573	0.0180621
657.651	0.0182033
657.729	0.0181747
657.808	0.0180910
657.886	0.0181925
657.964	0.0181685
658.042	0.0181404
658.120	0.0181616
658.198	0.0179700
658.276	0.0182675
658.354	0.0181603
658.433	0.0181690
658.511	0.0182130
658.589	0.0182942
658.667	0.0181293
658.745	0.0182249
658.823	0.0181298
658.901	0.0180971
658.979	0.0182230
659.058	0.0180080
659.136	0.0182302
659.214	0.0181466
659.292	0.0181394
659.370	0.0181403
659.448	0.0182684
659.526	0.0182497
659.604	0.0182012
659.683	0.0181454
659.761	0.0180569
659.839	0.0181929
659.917	0.0182076
659.995	0.0181982
660.073	0.0180721
660.151	0.0180828
660.229	0.0181699
660.308	0.0181440
660.386	0.0181391
660.464	0.0181377
660.542	0.0180403
660.620	0.0182073
660.698	0.0181338
660.776	0.0181670
660.854	0.0181556
660.933	0.0180476
661.011	0.0181453
661.089	0.0182195
661.167	0.0181307
661.245	0.0181343
661.323	0.0180792
661.401	0.0180755
661.479	0.0180677
661.558	0.0181395
661.636	0.0181438
661.714	0.0181554
661.792	0.0180138
661.870	0.0182098
661.948	0.0182298
662.026	0.0180821
662.104	0.0181290
662.183	0.0183001
662.261	0.0181366
662.339	0.0181007
662.417	0.0181661
662.495	0.0181726
662.573	0.0181813
662.651	0.0181646
662.729	0.0180132
662.808	0.0182059
662.886	0.0180591
662.964	0.0180289
663.042	0.0181747
663.120	0.0181137
663.198	0.0181972
663.276	0.0181428
663.354	0.0182479
663.433	0.0182079
663.511	0.0181897
663.589	0.0181041
663.667	0.0181400
663.745	0.0182376
663.823	0.0182108
663.901	0.0181491
663.979	0.0181794
664.058	0.0181516
664.136	0.0181970
664.214	0.0181161
664.292	0.0181497
664.370	0.0180458
664.448	0.0182744
664.526	0.0180390
664.604	0.0181887
664.683	0.0181694
664.761	0.0181895
664.839	0.0181705
664.917	0.0181803
664.995	0.0181442
665.073	0.0182267
665.151	0.0181176
665.229	0.0182548
665.308	0.0180794
665.386	0.0181862
665.464	0.0181370
665.542	0.0181840
665.620	0.0182076
665.698	0.0180587
665.776	0.0181406
665.854	0.0181377
665.933	0.0181788
666.011	0.0182647
666.089	0.0180761
666.167	0.0181638
666.245	0.0181351
666.323	0.0181998
666.401	0.0181141
666.479	0.0181721
666.558	0.0180980
666.636	0.0181770
666.714	0.0183439
666.792	0.0181310
666.870	0.0180807
666.948	0.0180758
667.026	0.0181558
667.104	0.0181039
667.183	0.0180790
667.261	0.0182086
667.339	0.0181478
667.417	0.0181020
667.495	0.0181723
667.573	0.0181494
667.651	0.0181454
667.729	0.0181087
667.808	0.0182182
667.886	0.0180316
667.964	0.0181284
668.042	0.0180756
668.120	0.0180685
668.198	0.0183882
668.276	0.0181344
668.354	0.0180743
668.433	0.0183916
668.511	0.0182124
668.589	0.0182363
668.667	0.0181593
668.745	0.0181031
668.823	0.0181384
668.901	0.0180215
668.979	0.0181297
669.058	0.0181697
669.136	0.0182191
669.214	0.0180972
669.292	0.0181735
669.370	0.0181011
669.448	0.0180649
669.526	0.0181720
669.604	0.0182307
669.683	0.0180806
669.761	0.0181418
669.839	0.0182231
669.917	0.0182656
669.995	0.0180261
670.073	0.0180376
670.151	0.0182060
670.229	0.0181933
670.308	0.0182406
670.386	0.0181569
670.464	0.0181072
670.542	0.0180857
670.620	0.0181247
670.698	0.0181995
670.776	0.0183353
670.854	0.0181939
670.933	0.0181500
671.011	0.0182718
671.089	0.0181066
671.167	0.0181483
671.245	0.0181393
671.323	0.0182079
671.401	0.0180698
671.479	0.0182076
671.558	0.0181402
671.636	0.0181436
671.714	0.0182159
671.792	0.0179960
671.870	0.0180917
671.948	0.0182644
672.026	0.0181170
672.104	0.0181308
672.183	0.0181096
672.261	0.0180680
672.339	0.0183171
672.417	0.0180711
672.495	0.0181197
672.573	0.0183008
672.651	0.0180347
672.729	0.0181016
672.808	0.0180830
672.886	0.0182072
672.964	0.0181762
673.042	0.0180846
673.120	0.0181781
673.198	0.0181086
673.276	0.0181368
673.354	0.0181277
673.433	0.0181332
673.511	0.0181025
673.589	0.0181173
673.667	0.0181689
673.745	0.0181341
673.823	0.0181927
673.901	0.0180891
673.979	0.0181937
674.058	0.0183015
674.136	0.0182322
674.214	0.0181999
674.292	0.0180336
674.370	0.0181927
674.448	0.0180900
674.526	0.0181314
674.604	0.0182565
674.683	0.0182538
674.761	0.0183029
674.839	0.0181015
674.917	0.0179916
674.995	0.0180339
675.073	0.0183881
675.151	0.0182217
675.229	0.0180873
675.308	0.0182021
675.386	0.0181630
675.464	0.0180233
675.542	0.0182310
675.620	0.0181414
675.698	0.0181580
675.776	0.0182211
675.854	0.0182404
675.933	0.0181499
676.011	0.0182105
676.089	0.0181999
676.167	0.0179629
676.245	0.0180991
676.323	0.0182111
676.401	0.0181089
676.479	0.0181482
676.558	0.0181908
676.636	0.0181409
676.714	0.0181288
676.792	0.0181223
676.870	0.0180878
676.948	0.0182676
677.026	0.0184222
677.104	0.0181854
677.183	0.0182348
677.261	0.0182199
677.339	0.0182151
677.417	0.0182240
677.495	0.0181689
677.573	0.0182204
677.651	0.0181541
677.729	0.0181287
677.808	0.0182232
677.886	0.0181827
677.964	0.0182295
678.042	0.0181529
678.120	0.0181911
678.198	0.0181516
678.276	0.0182146
678.354	0.0181267
678.433	0.0180627
678.511	0.0180485
678.589	0.0180842
678.667	0.0180249
678.745	0.0181105
678.823	0.0182116
678.901	0.0181534
678.979	0.0180680
679.058	0.0180595
679.136	0.0180936
679.214	0.0182397
679.292	0.0180502
679.370	0.0181515
679.448	0.0182190
679.526	0.0181380
679.604	0.0181002
679.683	0.0180489
679.761	0.0181602
679.839	0.0181051
679.917	0.0181448
679.995	0.0182931
680.073	0.0181631
680.151	0.0181801
680.229	0.0182183
680.308	0.0182380
680.386	0.0181850
680.464	0.0181373
680.542	0.0181948
680.620	0.0181514
680.698	0.0181977
680.776	0.0182323
680.854	0.0182024
680.933	0.0182506
681.011	0.0182242
681.089	0.0180974
681.167	0.0180218
681.245	0.0182629
681.323	0.0181819
681.401	0.0180772
681.479	0.0182116
681.558	0.0181437
681.636	0.0181551
681.714	0.0182001
681.792	0.0181599
681.870	0.0181976
681.948	0.0180581
682.026	0.0180465
682.104	0.0181883
682.183	0.0182237
682.261	0.0181632
682.339	0.0181111
682.417	0.0180836
682.495	0.0181936
682.573	0.0180946
682.651	0.0181132
682.729	0.0181284
682.808	0.0181755
682.886	0.0182269
682.964	0.0181107
683.042	0.0182123
683.120	0.0182159
683.198	0.0181989
683.276	0.0181165
683.354	0.0182792
683.433	0.0183026
683.511	0.0180632
683.589	0.0180289
683.667	0.0182228
683.745	0.0182686
683.823	0.0181570
683.901	0.0180933
683.979	0.0180000
684.058	0.0181568
684.136	0.0181525
684.214	0.0180923
684.292	0.0180325
684.370	0.0181478
684.448	0.0183175
684.526	0.0182430
684.604	0.0180830
684.683	0.0180746
684.761	0.0180824
684.839	0.0181967
684.917	0.0180155
684.995	0.0181265
685.073	0.0181698
685.151	0.0179847
685.229	0.0181491
685.308	0.0183392
685.386	0.0181552
685.464	0.0181783
685.542	0.0181990
685.620	0.0182474
685.698	0.0181454
685.776	0.0182233
685.854	0.0183276
685.933	0.0182254
686.011	0.0182184
686.089	0.0181084
686.167	0.0181812
686.245	0.0181985
686.323	0.0182369
686.401	0.0182185
686.479	0.0181991
686.558	0.0181950
686.636	0.0182282
686.714	0.0182084
686.792	0.0182032
686.870	0.0181912
686.948	0.0182411
687.026	0.0181911
687.104	0.0180585
687.183	0.0181783
687.261	0.0182235
687.339	0.0181779
687.417	0.0182386
687.495	0.0181462
687.573	0.0181960
687.651	0.0183369
687.729	0.0183233
687.808	0.0181161
687.886	0.0182368
687.964	0.0181372
688.042	0.0180722
688.120	0.0182076
688.198	0.0182743
688.276	0.0181759
688.354	0.0181083
688.433	0.0181384
688.511	0.0180628
688.589	0.0182172
688.667	0.0182033
688.745	0.0181064
688.823	0.0182733
688.901	0.0182104
688.979	0.0181261
689.058	0.0181566
689.136	0.0180289
689.214	0.0181869
689.292	0.0182633
689.370	0.0180900
689.448	0.0181992
689.526	0.0181492
689.604	0.0182672
689.683	0.0181977
689.761	0.0180869
689.839	0.0182007
689.917	0.0181551
689.995	0.0180785
690.073	0.0181093
690.151	0.0181780
690.229	0.0182409
690.308	0.0181470
690.386	0.0181598
690.464	0.0181921
690.542	0.0182288
690.620	0.0182020
690.698	0.0180944
690.776	0.0180345
690.854	0.0181946
690.933	0.0180511
691.011	0.0181822
691.089	0.0181966
691.167	0.0181845
691.245	0.0180542
691.323	0.0180476
691.401	0.0181490
691.479	0.0181856
691.558	0.0180155
691.636	0.0181660
691.714	0.0180942
691.792	0.0180611
691.870	0.0180843
691.948	0.0182040
692.026	0.0181808
692.104	0.0181212
692.183	0.0181649
692.261	0.0181257
692.339	0.0180810
692.417	0.0181403
692.495	0.0181587
692.573	0.0180995
692.651	0.0181241
692.729	0.0181739
692.808	0.0179665
692.886	0.0179823
692.964	0.0180814
693.042	0.0180135
693.120	0.0181155
693.198	0.0180369
693.276	0.0181184
693.354	0.0180758
693.433	0.0180882
693.511	0.0180222
693.589	0.0182003
693.667	0.0180765
693.745	0.0181077
693.823	0.0181200
693.901	0.0180336
693.979	0.0181207
694.058	0.0180840
694.136	0.0181113
694.214	0.0182084
694.292	0.0181242
694.370	0.0180556
694.448	0.0181155
694.526	0.0180972
694.604	0.0181245
694.683	0.0181352
694.761	0.0180868
694.839	0.0182246
694.917	0.0180906
694.995	0.0181070
695.073	0.0180862
695.151	0.0180547
695.229	0.0181161
695.308	0.0182498
695.386	0.0180830
695.464	0.0179329
695.542	0.0180639
695.620	0.0183013
695.698	0.0181588
695.776	0.0180492
695.854	0.0180977
695.933	0.0181184
696.011	0.0180645
696.089	0.0180691
696.167	0.0182168
696.245	0.0181852
696.323	0.0181664
696.401	0.0182119
696.479	0.0182469
696.558	0.0181550
696.636	0.0181955
696.714	0.0181347
696.792	0.0181268
696.870	0.0182903
696.948	0.0181477
697.026	0.0182895
697.104	0.0182728
697.183	0.0182820
697.261	0.0182550
697.339	0.0183428
697.417	0.0182318
697.495	0.0180370
697.573	0.0181198
697.651	0.0181552
697.729	0.0181404
697.808	0.0180428
697.886	0.0180708
697.964	0.0180608
698.042	0.0180530
698.120	0.0178316
698.198	0.0178767
698.276	0.0179265
698.354	0.0178883
698.433	0.0179648
698.511	0.0179913
698.589	0.0180045
698.667	0.0180375
698.745	0.0180478
698.823	0.0181146
698.901	0.0181325
698.979	0.0182626
699.058	0.0183524
699.136	0.0184204
699.214	0.0184355
699.292	0.0184581
699.370	0.0184383
699.448	0.0184322
699.526	0.0184300
699.604	0.0185386
699.683	0.0184872
699.761	0.0184277
699.839	0.0183981
699.917	0.0184477
699.995	0.0182389
700.073	0.0183686
700.151	0.0181068
700.229	0.0180302
700.308	0.0181132
700.386	0.0180122
700.464	0.0178789
700.542	0.0179417
700.620	0.0177912
700.698	0.0178011
700.776	0.0178261
700.854	0.0177907
700.933	0.0177671
701.011	0.0177536
701.089	0.0177084
701.167	0.0178381
701.245	0.0179206
701.323	0.0178896
701.401	0.0179735
701.479	0.0180031
701.558	0.0181053
701.636	0.0183053
701.714	0.0182673
701.792	0.0184827
701.870	0.0185024
701.948	0.0184554
702.026	0.0186176
702.104	0.0186295
702.183	0.0188183
702.261	0.0187003
702.339	0.0187464
702.417	0.0185942
702.495	0.0186235
702.573	0.0186450
702.651	0.0185806
702.729	0.0183784
702.808	0.0182442
702.886	0.0180713
702.964	0.0178728
703.042	0.0177966
703.120	0.0176188
703.198	0.0176620
703.276	0.0174464
703.354	0.0173183
703.433	0.0174544
703.511	0.0175419
703.589	0.0174919
703.667	0.0175581
703.745	0.0176035
703.823	0.0177567
703.901	0.0179182
703.979	0.0179750
704.058	0.0181329
704.136	0.0182999
704.214	0.0183172
704.292	0.0184414
704.370	0.0185434
704.448	0.0186678
704.526	0.0186050
704.604	0.0186620
704.683	0.0186523
704.761	0.0186188
704.839	0.0185286
704.917	0.0182917
704.995	0.0184169
705.073	0.0183871
705.151	0.0183643
705.229	0.0181789
705.308	0.0181393
705.386	0.0179585
705.464	0.0178713
705.542	0.0181120
705.620	0.0178326
705.698	0.0177923
705.776	0.0178246
705.854	0.0179028
705.933	0.0179002
706.011	0.0179649
706.089	0.0180296
706.167	0.0180426
706.245	0.0179872
706.323	0.0181879
706.401	0.0182260
706.479	0.0182487
706.558	0.0181303
706.636	0.0182501
706.714	0.0180992
706.792	0.0183338
706.870	0.0182451
706.948	0.0182445
707.026	0.0184141
707.104	0.0182664
707.183	0.0183563
707.261	0.0182886
707.339	0.0182993
707.417	0.0183512
707.495	0.0183213
707.573	0.0181899
707.651	0.0183047
707.729	0.0182275
707.808	0.0182675
707.886	0.0181586
707.964	0.0182968
708.042	0.0182976
708.120	0.0181534
708.198	0.0180937
708.276	0.0181430
708.354	0.0179790
708.433	0.0178162
708.511	0.0179156
708.589	0.0177769
708.667	0.0177069
708.745	0.0177733
708.823	0.0176822
708.901	0.0179470
708.979	0.0179119
709.058	0.0178822
709.136	0.0179252
709.214	0.0181179
709.292	0.0181550
709.370	0.0181393
709.448	0.0183563
709.526	0.0183079
709.604	0.0184257
709.683	0.0184566
709.761	0.0183391
709.839	0.0183257
709.917	0.0183687
709.995	0.0183975
710.073	0.0182619
710.151	0.0183610
710.229	0.0183187
710.308	0.0181744
710.386	0.0180682
710.464	0.0182182
710.542	0.0182372
710.620	0.0180666
710.698	0.0179893
710.776	0.0180344
710.854	0.0179884
710.933	0.0180567
711.011	0.0179509
711.089	0.0179169
711.167	0.0179287
711.245	0.0181316
711.323	0.0181044
711.401	0.0181021
711.479	0.0181039
711.558	0.0182525
711.636	0.0182764
711.714	0.0181893
711.792	0.0182221
711.870	0.0182977
711.948	0.0181977
712.026	0.0181464
712.104	0.0182050
712.183	0.0180641
712.261	0.0181096
712.339	0.0181690
712.417	0.0181037
712.495	0.0180036
712.573	0.0178693
712.651	0.0180808
712.729	0.0177886
712.808	0.0177570
712.886	0.0179131
712.964	0.0179117
713.042	0.0178299
713.120	0.0178001
713.198	0.0179535
713.276	0.0180367
713.354	0.0180151
713.433	0.0180603
713.511	0.0180822
713.589	0.0182198
713.667	0.0183237
713.745	0.0182437
713.823	0.0182171
713.901	0.0183196
713.979	0.0183871
714.058	0.0182479
714.136	0.0182172
714.214	0.0183921
714.292	0.0183676
714.370	0.0182505
714.448	0.0182365
714.526	0.0183152
714.604	0.0182599
714.683	0.0181813
714.761	0.0182973
714.839	0.0182488
714.917	0.0183269
714.995	0.0182260
715.073	0.0181882
715.151	0.0182910
715.229	0.0180783
715.308	0.0180760
715.386	0.0181708
715.464	0.0181426
715.542	0.0180165
715.620	0.0183229
715.698	0.0182536
715.776	0.0181879
715.854	0.0183205
715.933	0.0183190
716.011	0.0182912
716.089	0.0183476
716.167	0.0183450
716.245	0.0184288
716.323	0.0182795
716.401	0.0182968
716.479	0.0183117
716.558	0.0181367
716.636	0.0181340
716.714	0.0180458
716.792	0.0181229
716.870	0.0180457
716.948	0.0180006
717.026	0.0181234
717.104	0.0179700
717.183	0.0180464
717.261	0.0179951
717.339	0.0180964
717.417	0.0180196
717.495	0.0179610
717.573	0.0180086
717.651	0.0180252
717.729	0.0180639
717.808	0.0180840
717.886	0.0180723
717.964	0.0179977
718.042	0.0181058
718.120	0.0181270
718.198	0.0181332
718.276	0.0181240
718.354	0.0181714
718.433	0.0181956
718.511	0.0182602
718.589	0.0183224
718.667	0.0183621
718.745	0.0182663
718.823	0.0183170
718.901	0.0180415
718.979	0.0181151
719.058	0.0182210
719.136	0.0180666
719.214	0.0182025
719.292	0.0180347
719.370	0.0180094
719.448	0.0181384
719.526	0.0181044
719.604	0.0180692
719.683	0.0180119
719.761	0.0180589
719.839	0.0182652
719.917	0.0182912
719.995	0.0181358
720.073	0.0180603
720.151	0.0181856
720.229	0.0181761
720.308	0.0181468
720.386	0.0180943
720.464	0.0182494
720.542	0.0182609
720.620	0.0181993
720.698	0.0181421
720.776	0.0182006
720.854	0.0181064
720.933	0.0181636
721.011	0.0180709
721.089	0.0180711
721.167	0.0180927
721.245	0.0181902
721.323	0.0182045
721.401	0.0181134
721.479	0.0181538
721.558	0.0181047
721.636	0.0180849
721.714	0.0181270
721.792	0.0179668
721.870	0.0180497
721.948	0.0180934
722.026	0.0179910
722.104	0.0180922
722.183	0.0179959
722.261	0.0179916
722.339	0.0179288
722.417	0.0180846
722.495	0.0181277
722.573	0.0179888
722.651	0.0180316
722.729	0.0180484
722.808	0.0181656
722.886	0.0183027
722.964	0.0181722
723.042	0.0182394
723.120	0.0182399
723.198	0.0183711
723.276	0.0181882
723.354	0.0182259
723.433	0.0181402
723.511	0.0181216
723.589	0.0181336
723.667	0.0181028
723.745	0.0181151
723.823	0.0181253
723.901	0.0181299
723.979	0.0179350
724.058	0.0182568
724.136	0.0181399
724.214	0.0181413
724.292	0.0181010
724.370	0.0181036
724.448	0.0180994
724.526	0.0179526
724.604	0.0182487
724.683	0.0181100
724.761	0.0181601
724.839	0.0181894
724.917	0.0182432
724.995	0.0182433
725.073	0.0182910
725.151	0.0181667
725.229	0.0182561
725.308	0.0182440
725.386	0.0183394
725.464	0.0183624
725.542	0.0183013
725.620	0.0182502
725.698	0.0181104
725.776	0.0182385
725.854	0.0181934
725.933	0.0182071
726.011	0.0183112
726.089	0.0181641
726.167	0.0181246
726.245	0.0182201
726.323	0.0182674
726.401	0.0182043
726.479	0.0180978
726.558	0.0180625
726.636	0.0182578
726.714	0.0180585
726.792	0.0179963
726.870	0.0182578
726.948	0.0182147
727.026	0.0180924
727.104	0.0182352
727.183	0.0181874
727.261	0.0180540
727.339	0.0181788
727.417	0.0180265
727.495	0.0180362
727.573	0.0181606
727.651	0.0180112
727.729	0.0179638
727.808	0.0179811
727.886	0.0179380
727.964	0.0180897
728.042	0.0181540
728.120	0.0182140
728.198	0.0182449
728.276	0.0180260
728.354	0.0179473
728.433	0.0180748
728.511	0.0181459
728.589	0.0181570
728.667	0.0182638
728.745	0.0180578
728.823	0.0180955
728.901	0.0180103
728.979	0.0180408
729.058	0.0182199
729.136	0.0181001
729.214	0.0182632
729.292	0.0181221
729.370	0.0181445
729.448	0.0181589
729.526	0.0180798
729.604	0.0181242
729.683	0.0181468
729.761	0.0181708
729.839	0.0181744
729.917	0.0182884
729.995	0.0182927
730.073	0.0180508
730.151	0.0180814
730.229	0.0180077
730.308	0.0180933
730.386	0.0182420
730.464	0.0180978
730.542	0.0182500
730.620	0.0181763
730.698	0.0182074
730.776	0.0183747
730.854	0.0181485
730.933	0.0181413
731.011	0.0181886
731.089	0.0182972
731.167	0.0182371
731.245	0.0183341
731.323	0.0183279
731.401	0.0183608
731.479	0.0182506
731.558	0.0182369
731.636	0.0181234
731.714	0.0181823
731.792	0.0181109
731.870	0.0180842
731.948	0.0179848
732.026	0.0180272
732.104	0.0181942
732.183	0.0181422
732.261	0.0181831
732.339	0.0181221
732.417	0.0180407
732.495	0.0180214
732.573	0.0181187
732.651	0.0180899
732.729	0.0179265
732.808	0.0180715
732.886	0.0180860
732.964	0.0180987
733.042	0.0182098
733.120	0.0181339
733.198	0.0181978
733.276	0.0181667
733.354	0.0181275
733.433	0.0181920
733.511	0.0181801
733.589	0.0182927
733.667	0.0181805
733.745	0.0181107
733.823	0.0181359
733.901	0.0181730
733.979	0.0182194
734.058	0.0181108
734.136	0.0181404
734.214	0.0181418
734.292	0.0181263
734.370	0.0182225
734.448	0.0179424
734.526	0.0182604
734.604	0.0181402
734.683	0.0181064
734.761	0.0181601
734.839	0.0182324
734.917	0.0181997
734.995	0.0182272
735.073	0.0181918
735.151	0.0182462
735.229	0.0182117
735.308	0.0181401
735.386	0.0183576
735.464	0.0182603
735.542	0.0182388
735.620	0.0182451
735.698	0.0182229
735.776	0.0182791
735.854	0.0182652
735.933	0.0181596
736.011	0.0181718
736.089	0.0179870
736.167	0.0181119
736.245	0.0180578
736.323	0.0180941
736.401	0.0181797
736.479	0.0182593
736.558	0.0181348
736.636	0.0181314
736.714	0.0183108
736.792	0.0180923
736.870	0.0182609
736.948	0.0181516
737.026	0.0180606
737.104	0.0181129
737.183	0.0182787
737.261	0.0182568
737.339	0.0181573
737.417	0.0182452
737.495	0.0181021
737.573	0.0180816
737.651	0.0180444
737.729	0.0181456
737.808	0.0180839
737.886	0.0181045
737.964	0.0181205
738.042	0.0180077
738.120	0.0181280
738.198	0.0179159
738.276	0.0181319
738.354	0.0180961
738.433	0.0181918
738.511	0.0180754
738.589	0.0180070
738.667	0.0182898
738.745	0.0182074
738.823	0.0181634
738.901	0.0182721
738.979	0.0183179
739.058	0.0181754
739.136	0.0181564
739.214	0.0182999
739.292	0.0182969
739.370	0.0183175
739.448	0.0183408
739.526	0.0182334
739.604	0.0182069
739.683	0.0181580
739.761	0.0181914
739.839	0.0181786
739.917	0.0181143
739.995	0.0182661
740.073	0.0181178
740.151	0.0180418
740.229	0.0182016
740.308	0.0181593
740.386	0.0182034
740.464	0.0181800
740.542	0.0182489
740.620	0.0182401
740.698	0.0182894
740.776	0.0182027
740.854	0.0182275
740.933	0.0182631
741.011	0.0183214
741.089	0.0182162
741.167	0.0182628
741.245	0.0181277
741.323	0.0182137
741.401	0.0180836
741.479	0.0182085
741.558	0.0182749
741.636	0.0182006
741.714	0.0180403
741.792	0.0180549
741.870	0.0180338
741.948	0.0181678
742.026	0.0179411
742.104	0.0179988
742.183	0.0179436
742.261	0.0180766
742.339	0.0179890
742.417	0.0181371
742.495	0.0181005
742.573	0.0179908
742.651	0.0182476
742.729	0.0180201
742.808	0.0180256
742.886	0.0179701
742.964	0.0180677
743.042	0.0181649
743.120	0.0182236
743.198	0.0181514
743.276	0.0180387
743.354	0.0182439
743.433	0.0181924
743.511	0.0180759
743.589	0.0179829
743.667	0.0181522
743.745	0.0180869
743.823	0.0180283
743.901	0.0180519
743.979	0.0180452
744.058	0.0181229
744.136	0.0180978
744.214	0.0180782
744.292	0.0180560
744.370	0.0179627
744.448	0.0181078
744.526	0.0180956
744.604	0.0181659
744.683	0.0181699
744.761	0.0182983
744.839	0.0182355
744.917	0.0181953
744.995	0.0182329
745.073	0.0182159
745.151	0.0181962
745.229	0.0182763
745.308	0.0181378
745.386	0.0181287
745.464	0.0182417
745.542	0.0181387
745.620	0.0180359
745.698	0.0180131
745.776	0.0182581
745.854	0.0181655
745.933	0.0181073
746.011	0.0179581
746.089	0.0181710
746.167	0.0181484
746.245	0.0180839
746.323	0.0180915
746.401	0.0182156
746.479	0.0181025
746.558	0.0181352
746.636	0.0181338
746.714	0.0181982
746.792	0.0182128
746.870	0.0181852
746.948	0.0181954
747.026	0.0182669
747.104	0.0181905
747.183	0.0182124
747.261	0.0181249
747.339	0.0180708
747.417	0.0181903
747.495	0.0182484
747.573	0.0179903
747.651	0.0181455
747.729	0.0181666
747.808	0.0181578
747.886	0.0181641
747.964	0.0182188
748.042	0.0181615
748.120	0.0181259
748.198	0.0180711
748.276	0.0181042
748.354	0.0180897
748.433	0.0180610
748.511	0.0181760
748.589	0.0180708
748.667	0.0181072
748.745	0.0181716
748.823	0.0181667
748.901	0.0180790
748.979	0.0183032
749.058	0.0181957
749.136	0.0182917
749.214	0.0180973
749.292	0.0181872
749.370	0.0182251
749.448	0.0182908
749.526	0.0180856
749.604	0.0181570
749.683	0.0180711
749.761	0.0181705
749.839	0.0181676
749.917	0.0179845
749.995	0.0180121
750.073	0.0180625
750.151	0.0181777
750.229	0.0180635
750.308	0.0182526
750.386	0.0180927
750.464	0.0180614
750.542	0.0179942
750.620	0.0179272
750.698	0.0180056
750.776	0.0181429
750.854	0.0180954
750.933	0.0180308
751.011	0.0179880
751.089	0.0180049
751.167	0.0177502
751.245	0.0179479
751.323	0.0180741
751.401	0.0181664
751.479	0.0181528
751.558	0.0180211
751.636	0.0180206
751.714	0.0180314
751.792	0.0180248
751.870	0.0180099
751.948	0.0180052
752.026	0.0181363
752.104	0.0180622
752.183	0.0180235
752.261	0.0182147
752.339	0.0182237
752.417	0.0181842
752.495	0.0181429
752.573	0.0181731
752.651	0.0182157
752.729	0.0181019
752.808	0.0180532
752.886	0.0180484
752.964	0.0179553
753.042	0.0179200
753.120	0.0181722
753.198	0.0181530
753.276	0.0181946
753.354	0.0182832
753.433	0.0183351
753.511	0.0181307
753.589	0.0181015
753.667	0.0181534
753.745	0.0181398
753.823	0.0182644
753.901	0.0183057
753.979	0.0183215
754.058	0.0183145
754.136	0.0183317
754.214	0.0183338
754.292	0.0182690
754.370	0.0181987
754.448	0.0182214
754.526	0.0182510
754.604	0.0181480
754.683	0.0181131
754.761	0.0181239
754.839	0.0180271
754.917	0.0181961
754.995	0.0181938
755.073	0.0179028
755.151	0.0180328
755.229	0.0182012
755.308	0.0181271
755.386	0.0181352
755.464	0.0181104
755.542	0.0181120
755.620	0.0180370
755.698	0.0181210
755.776	0.0182367
755.854	0.0181923
755.933	0.0181276
756.011	0.0182070
756.089	0.0181821
756.167	0.0181936
756.245	0.0182651
756.323	0.0181177
756.401	0.0181936
756.479	0.0182488
756.558	0.0181114
756.636	0.0179779
756.714	0.0181480
756.792	0.0182141
756.870	0.0181226
756.948	0.0180212
757.026	0.0180976
757.104	0.0180875
757.183	0.0179130
757.261	0.0180491
757.339	0.0180467
757.417	0.0179855
757.495	0.0180296
757.573	0.0179839
757.651	0.0180077
757.729	0.0180400
757.808	0.0181239
757.886	0.0181125
757.964	0.0181509
758.042	0.0180314
758.120	0.0180874
758.198	0.0181266
758.276	0.0181358
758.354	0.0181823
758.433	0.0180897
758.511	0.0181284
758.589	0.0182037
758.667	0.0181042
758.745	0.0181025
758.823	0.0181316
758.901	0.0180254
758.979	0.0180306
759.058	0.0180061
759.136	0.0179993
759.214	0.0181211
759.292	0.0180604
759.370	0.0180884
759.448	0.0179519
759.526	0.0180350
759.604	0.0181269
759.683	0.0180534
759.761	0.0181500
759.839	0.0180516
759.917	0.0181866
759.995	0.0180775
760.073	0.0180099
760.151	0.0181530
760.229	0.0181506
760.308	0.0181695
760.386	0.0182094
760.464	0.0183296
760.542	0.0184224
760.620	0.0182358
760.698	0.0182584
760.776	0.0182339
760.854	0.0182163
760.933	0.0182309
761.011	0.0183316
761.089	0.0180872
761.167	0.0182075
761.245	0.0181734
761.323	0.0180825
761.401	0.0180463
761.479	0.0182648
761.558	0.0180524
761.636	0.0180916
761.714	0.0180666
761.792	0.0182392
761.870	0.0183058
761.948	0.0183278
762.026	0.0182376
762.104	0.0181185
762.183	0.0182610
762.261	0.0180912
762.339	0.0183335
762.417	0.0181822
762.495	0.0181857
762.573	0.0183222
762.651	0.0182347
762.729	0.0182521
762.808	0.0182440
762.886	0.0184698
762.964	0.0182067
763.042	0.0181575
763.120	0.0181763
763.198	0.0182010
763.276	0.0182418
763.354	0.0181154
763.433	0.0182846
763.511	0.0180997
763.589	0.0182478
763.667	0.0181020
763.745	0.0181161
763.823	0.0182577
763.901	0.0181956
763.979	0.0182000
764.058	0.0181259
764.136	0.0182049
764.214	0.0182264
764.292	0.0184193
764.370	0.0183329
764.448	0.0181592
764.526	0.0183336
764.604	0.0183315
764.683	0.0181120
764.761	0.0181822
764.839	0.0181383
764.917	0.0182039
764.995	0.0182281
765.073	0.0181927
765.151	0.0182231
765.229	0.0180873
765.308	0.0179381
765.386	0.0180752
765.464	0.0181601
765.542	0.0179609
765.620	0.0180645
765.698	0.0181789
765.776	0.0182224
765.854	0.0180536
765.933	0.0181246
766.011	0.0181324
766.089	0.0182993
766.167	0.0181426
766.245	0.0181888
766.323	0.0183211
766.401	0.0182832
766.479	0.0181702
766.558	0.0182498
766.636	0.0183058
766.714	0.0181760
766.792	0.0182359
766.870	0.0182327
766.948	0.0182663
767.026	0.0182246
767.104	0.0181367
767.183	0.0183114
767.261	0.0182890
767.339	0.0182838
767.417	0.0181944
767.495	0.0182137
767.573	0.0183530
767.651	0.0181809
767.729	0.0184405
767.808	0.0183376
767.886	0.0182741
767.964	0.0182531
768.042	0.0183047
768.120	0.0182279
768.198	0.0181306
768.276	0.0182113
768.354	0.0183390
768.433	0.0183694
768.511	0.0183304
768.589	0.0181964
768.667	0.0182269
768.745	0.0183112
768.823	0.0182290
768.901	0.0182513
768.979	0.0180529
769.058	0.0183091
769.136	0.0182915
769.214	0.0181305
769.292	0.0182448
769.370	0.0183041
769.448	0.0182333
769.526	0.0181818
769.604	0.0182371
769.683	0.0182672
769.761	0.0181199
769.839	0.0182236
769.917	0.0181343
769.995	0.0182836
770.073	0.0182636
770.151	0.0182792
770.229	0.0183022
770.308	0.0182343
770.386	0.0182209
770.464	0.0181293
770.542	0.0183688
770.620	0.0182552
770.698	0.0182721
770.776	0.0182257
770.854	0.0181577
770.933	0.0182968
771.011	0.0182647
771.089	0.0182596
771.167	0.0181732
771.245	0.0182888
771.323	0.0181765
771.401	0.0182026
771.479	0.0182614
771.558	0.0182410
771.636	0.0181437
771.714	0.0181849
771.792	0.0181827
771.870	0.0181824
771.948	0.0183400
772.026	0.0181254
772.104	0.0182069
772.183	0.0181120
772.261	0.0181894
772.339	0.0182728
772.417	0.0182333
772.495	0.0181552
772.573	0.0182307
772.651	0.0182978
772.729	0.0181522
772.808	0.0182572
772.886	0.0182581
772.964	0.0181360
773.042	0.0181687
773.120	0.0182449
773.198	0.0182841
773.276	0.0181422
773.354	0.0180462
773.433	0.0181786
773.511	0.0182837
773.589	0.0181718
773.667	0.0181251
773.745	0.0183027
773.823	0.0181633
773.901	0.0182097
773.979	0.0182944
774.058	0.0181735
774.136	0.0182293
774.214	0.0181915
774.292	0.0182854
774.370	0.0181760
774.448	0.0180872
774.526	0.0182629
774.604	0.0181479
774.683	0.0181438
774.761	0.0181389
774.839	0.0180502
774.917	0.0180585
774.995	0.0180862
775.073	0.0181230
775.151	0.0181371
775.229	0.0181287
775.308	0.0180782
775.386	0.0180180
775.464	0.0181552
775.542	0.0181547
775.620	0.0181956
775.698	0.0182542
775.776	0.0181731
775.854	0.0182540
775.933	0.0182437
776.011	0.0180782
776.089	0.0182870
776.167	0.0183414
776.245	0.0182495
776.323	0.0182437
776.401	0.0182592
776.479	0.0184196
776.558	0.0183648
776.636	0.0181767
776.714	0.0183342
776.792	0.0182627
776.870	0.0183105
776.948	0.0181394
777.026	0.0182844
777.104	0.0182890
777.183	0.0181523
777.261	0.0182432
777.339	0.0182186
777.417	0.0180829
777.495	0.0180445
777.573	0.0180875
777.651	0.0181305
777.729	0.0181295
777.808	0.0181932
777.886	0.0181573
777.964	0.0180612
778.042	0.0180767
778.120	0.0182788
778.198	0.0182555
778.276	0.0181656
778.354	0.0181961
778.433	0.0182448
778.511	0.0181255
778.589	0.0182655
778.667	0.0183261
778.745	0.0182143
778.823	0.0183079
778.901	0.0182510
778.979	0.0182873
779.058	0.0181451
779.136	0.0182128
779.214	0.0182815
779.292	0.0180684
779.370	0.0181708
779.448	0.0181514
779.526	0.0180952
779.604	0.0183077
779.683	0.0181957
779.761	0.0180772
779.839	0.0180191
779.917	0.0181388
779.995	0.0181680
780.073	0.0181944
780.151	0.0182295
780.229	0.0181022
780.308	0.0181522
780.386	0.0183121
780.464	0.0181967
780.542	0.0182368
780.620	0.0180742
780.698	0.0181734
780.776	0.0181802
780.854	0.0182542
780.933	0.0180605
781.011	0.0181216
781.089	0.0181796
781.167	0.0181085
781.245	0.0181824
781.323	0.0180797
781.401	0.0180477
781.479	0.0181635
781.558	0.0180962
781.636	0.0182471
781.714	0.0179431
781.792	0.0181770
781.870	0.0181867
781.948	0.0181221
782.026	0.0181145
782.104	0.0179837
782.183	0.0180219
782.261	0.0182100
782.339	0.0180560
782.417	0.0180375
782.495	0.0179747
782.573	0.0181321
782.651	0.0182164
782.729	0.0181302
782.808	0.0180293
782.886	0.0181500
782.964	0.0180729
783.042	0.0181876
783.120	0.0182559
783.198	0.0181741
783.276	0.0180829
783.354	0.0180658
783.433	0.0180946
783.511	0.0182237
783.589	0.0182792
783.667	0.0181091
783.745	0.0180888
783.823	0.0182429
783.901	0.0181421
783.979	0.0180932
784.058	0.0181194
784.136	0.0182465
784.214	0.0182204
784.292	0.0181015
784.370	0.0181065
784.448	0.0181140
784.526	0.0181911
784.604	0.0181510
784.683	0.0181580
784.761	0.0182434
784.839	0.0181639
784.917	0.0182003
784.995	0.0183695
785.073	0.0181844
785.151	0.0182610
785.229	0.0182485
785.308	0.0182069
785.386	0.0182959
785.464	0.0182964
785.542	0.0181958
785.620	0.0182494
785.698	0.0182984
785.776	0.0183449
785.854	0.0182298
785.933	0.0181625
786.011	0.0182726
786.089	0.0182263
786.167	0.0182600
786.245	0.0179709
786.323	0.0181309
786.401	0.0182163
786.479	0.0181500
786.558	0.0181748
786.636	0.0181346
786.714	0.0181747
786.792	0.0181140
786.870	0.0181375
786.948	0.0183765
787.026	0.0182898
787.104	0.0181447
787.183	0.0182428
787.261	0.0181499
787.339	0.0181790
787.417	0.0181703
787.495	0.0182466
787.573	0.0180803
787.651	0.0182130
787.729	0.0183117
787.808	0.0181836
787.886	0.0182180
787.964	0.0181313
788.042	0.0181586
788.120	0.0179971
788.198	0.0181487
788.276	0.0181722
788.354	0.0180740
788.433	0.0181131
788.511	0.0181373
788.589	0.0182135
788.667	0.0181189
788.745	0.0180074
788.823	0.0180611
788.901	0.0181384
788.979	0.0181565
789.058	0.0181750
789.136	0.0181308
789.214	0.0181546
789.292	0.0181342
789.370	0.0180261
789.448	0.0180512
789.526	0.0181602
789.604	0.0181898
789.683	0.0182152
789.761	0.0181895
789.839	0.0182365
789.917	0.0182838
789.995	0.0182407
790.073	0.0180719
790.151	0.0182632
790.229	0.0181089
790.308	0.0180716
790.386	0.0181651
790.464	0.0180936
790.542	0.0180441
790.620	0.0180801
790.698	0.0181483
790.776	0.0181689
790.854	0.0181653
790.933	0.0181956
791.011	0.0182594
791.089	0.0182349
791.167	0.0183900
791.245	0.0182559
791.323	0.0181134
791.401	0.0182508
791.479	0.0182700
791.558	0.0182487
791.636	0.0183436
791.714	0.0182448
791.792	0.0183747
791.870	0.0182969
791.948	0.0182252
792.026	0.0182117
792.104	0.0181343
792.183	0.0181793
792.261	0.0182040
792.339	0.0181305
792.417	0.0181131
792.495	0.0182827
792.573	0.0181598
792.651	0.0181866
792.729	0.0180673
792.808	0.0181741
792.886	0.0180766
792.964	0.0181853
793.042	0.0180840
793.120	0.0182190
793.198	0.0183071
793.276	0.0181082
793.354	0.0181430
793.433	0.0181721
793.511	0.0181171
793.589	0.0181434
793.667	0.0182378
793.745	0.0181896
793.823	0.0181824
793.901	0.0181632
793.979	0.0180965
794.058	0.0180737
794.136	0.0181452
794.214	0.0179831
794.292	0.0179159
794.370	0.0181422
794.448	0.0182346
794.526	0.0181186
794.604	0.0181443
794.683	0.0180463
794.761	0.0181617
794.839	0.0180646
794.917	0.0182442
794.995	0.0182030
795.073	0.0183109
795.151	0.0181338
795.229	0.0181425
795.308	0.0180936
795.386	0.0182209
795.464	0.0181389
795.542	0.0182335
795.620	0.0181248
795.698	0.0181557
795.776	0.0182237
795.854	0.0183516
795.933	0.0182920
796.011	0.0182108
796.089	0.0182336
796.167	0.0181323
796.245	0.0182781
796.323	0.0181689
796.401	0.0182771
796.479	0.0182364
796.558	0.0181119
796.636	0.0181082
796.714	0.0182918
796.792	0.0182158
796.870	0.0182499
796.948	0.0181637
797.026	0.0181283
797.104	0.0181466
797.183	0.0180357
797.261	0.0182170
797.339	0.0181575
797.417	0.0181137
797.495	0.0181065
797.573	0.0181448
797.651	0.0181261
797.729	0.0181879
797.808	0.0181729
797.886	0.0181293
797.964	0.0181776
798.042	0.0182349
798.120	0.0180879
798.198	0.0180421
798.276	0.0181419
798.354	0.0181692
798.433	0.0182456
798.511	0.0182748
798.589	0.0182346
798.667	0.0181920
798.745	0.0181119
798.823	0.0182594
798.901	0.0183443
798.979	0.0182705
799.058	0.0182579
799.136	0.0182207
799.214	0.0182746
799.292	0.0180910
799.370	0.0181749
799.448	0.0183624
799.526	0.0183051
799.604	0.0181193
799.683	0.0180384
799.761	0.0180671
799.839	0.0181568
799.917	0.0182820
799.995	0.0180534
800.073	0.0180825
800.151	0.0181107
800.229	0.0180336
800.308	0.0179963
800.386	0.0181779
800.464	0.0180872
800.542	0.0181503
800.620	0.0181082
800.698	0.0179172
800.776	0.0181691
800.854	0.0182036
800.933	0.0180946
801.011	0.0181713
801.089	0.0181526
801.167	0.0180495
801.245	0.0180817
801.323	0.0181691
801.401	0.0181428
801.479	0.0180737
801.558	0.0181512
801.636	0.0182472
801.714	0.0181632
801.792	0.0181628
801.870	0.0182270
801.948	0.0181874
802.026	0.0182281
802.104	0.0180739
802.183	0.0180296
802.261	0.0180491
802.339	0.0181941
802.417	0.0179324
802.495	0.0180342
802.573	0.0182143
802.651	0.0180539
802.729	0.0180630
802.808	0.0181364
802.886	0.0181803
802.964	0.0180270
803.042	0.0180173
803.120	0.0181703
803.198	0.0181469
803.276	0.0179465
803.354	0.0181524
803.433	0.0181786
803.511	0.0180909
803.589	0.0180662
803.667	0.0181341
803.745	0.0181951
803.823	0.0181648
803.901	0.0182327
803.979	0.0181471
804.058	0.0182814
804.136	0.0181548
804.214	0.0181555
804.292	0.0182130
804.370	0.0182143
804.448	0.0180922
804.526	0.0181414
804.604	0.0181979
804.683	0.0181909
804.761	0.0181406
804.839	0.0181419
804.917	0.0182780
804.995	0.0181558
805.073	0.0182030
805.151	0.0181693
805.229	0.0181609
805.308	0.0181178
805.386	0.0181634
805.464	0.0182016
805.542	0.0181351
805.620	0.0182277
805.698	0.0181242
805.776	0.0180698
805.854	0.0181329
805.933	0.0181279
806.011	0.0181983
806.089	0.0181249
806.167	0.0180699
806.245	0.0181226
806.323	0.0181796
806.401	0.0180298
806.479	0.0181403
806.558	0.0181772
806.636	0.0180781
806.714	0.0180810
806.792	0.0181032
806.870	0.0181794
806.948	0.0181225
807.026	0.0181125
807.104	0.0180430
807.183	0.0180399
807.261	0.0181950
807.339	0.0181655
807.417	0.0182456
807.495	0.0182267
807.573	0.0182580
807.651	0.0182608
807.729	0.0181815
807.808	0.0181955
807.886	0.0182640
807.964	0.0183231
808.042	0.0183085
808.120	0.0182510
808.198	0.0182202
808.276	0.0182891
808.354	0.0183372
808.433	0.0181300
808.511	0.0183916
808.589	0.0181772
808.667	0.0181805
808.745	0.0181271
808.823	0.0182452
808.901	0.0182755
808.979	0.0180739
809.058	0.0181989
809.136	0.0181367
809.214	0.0182047
809.292	0.0182861
809.370	0.0181953
809.448	0.0181192
809.526	0.0182862
809.604	0.0181715
809.683	0.0180226
809.761	0.0181992
809.839	0.0181982
809.917	0.0182801
809.995	0.0183112
810.073	0.0181726
810.151	0.0182781
810.229	0.0180704
810.308	0.0182211
810.386	0.0181702
810.464	0.0182030
810.542	0.0181956
810.620	0.0181750
810.698	0.0182397
810.776	0.0181938
810.854	0.0182339
810.933	0.0181822
811.011	0.0181271
811.089	0.0181265
811.167	0.0181433
811.245	0.0181411
811.323	0.0181501
811.401	0.0181729
811.479	0.0181873
811.558	0.0181329
811.636	0.0181886
811.714	0.0181846
811.792	0.0180959
811.870	0.0179725
811.948	0.0181537
812.026	0.0180903
812.104	0.0181888
812.183	0.0180967
812.261	0.0181006
812.339	0.0180595
812.417	0.0179958
812.495	0.0181084
812.573	0.0181526
812.651	0.0181400
812.729	0.0181832
812.808	0.0182634
812.886	0.0180093
812.964	0.0181567
813.042	0.0183353
813.120	0.0181077
813.198	0.0181119
813.276	0.0182047
813.354	0.0181204
813.433	0.0181287
813.511	0.0181111
813.589	0.0180837
813.667	0.0181239
813.745	0.0181420
813.823	0.0180176
813.901	0.0180383
813.979	0.0180577
814.058	0.0180881
814.136	0.0180752
814.214	0.0181236
814.292	0.0180793
814.370	0.0181660
814.448	0.0181534
814.526	0.0181611
814.604	0.0182352
814.683	0.0182603
814.761	0.0181956
814.839	0.0182098
814.917	0.0182658
814.995	0.0182142
815.073	0.0181232
815.151	0.0182655
815.229	0.0181459
815.308	0.0181168
815.386	0.0181885
815.464	0.0180602
815.542	0.0183142
815.620	0.0181528
815.698	0.0181223
815.776	0.0182404
815.854	0.0181739
815.933	0.0181865
816.011	0.0182227
816.089	0.0182307
816.167	0.0181546
816.245	0.0183268
816.323	0.0181486
816.401	0.0180775
816.479	0.0183505
816.558	0.0181708
816.636	0.0181173
816.714	0.0182735
816.792	0.0182296
816.870	0.0181123
816.948	0.0182057
817.026	0.0181725
817.104	0.0181657
817.183	0.0182182
817.261	0.0183774
817.339	0.0181964
817.417	0.0182566
817.495	0.0182394
817.573	0.0181558
817.651	0.0180840
817.729	0.0182021
817.808	0.0182084
817.886	0.0180320
817.964	0.0182374
818.042	0.0182186
818.120	0.0181705
818.198	0.0182129
818.276	0.0181367
818.354	0.0181911
818.433	0.0181895
818.511	0.0181822
818.589	0.0180869
818.667	0.0180099
818.745	0.0180988
818.823	0.0181367
818.901	0.0180513
818.979	0.0180627
819.058	0.0181109
819.136	0.0181104
819.214	0.0180830
819.292	0.0181710
819.370	0.0180640
819.448	0.0181689
819.526	0.0182431
819.604	0.0182024
819.683	0.0182306
819.761	0.0182427
819.839	0.0182590
819.917	0.0180777
819.995	0.0180634
820.073	0.0180572
820.151	0.0181277
820.229	0.0181993
820.308	0.0182130
820.386	0.0181705
820.464	0.0181442
820.542	0.0183020
820.620	0.0182086
820.698	0.0180842
820.776	0.0181616
820.854	0.0182404
820.933	0.0182146
821.011	0.0181496
821.089	0.0183469
821.167	0.0183992
821.245	0.0182610
821.323	0.0181349
821.401	0.0182509
821.479	0.0182372
821.558	0.0182134
821.636	0.0181905
821.714	0.0182093
821.792	0.0181908
821.870	0.0183086
821.948	0.0183199
822.026	0.0182727
822.104	0.0182155
822.183	0.0182566
822.261	0.0182991
822.339	0.0181594
822.417	0.0180905
822.495	0.0182386
822.573	0.0181686
822.651	0.0181319
822.729	0.0181846
822.808	0.0181845
822.886	0.0181207
822.964	0.0181998
823.042	0.0181929
823.120	0.0182574
823.198	0.0180895
823.276	0.0182606
823.354	0.0180402
823.433	0.0182082
823.511	0.0181521
823.589	0.0180959
823.667	0.0180355
823.745	0.0181556
823.823	0.0181828
823.901	0.0182652
823.979	0.0183095
824.058	0.0180865
824.136	0.0182249
824.214	0.0182445
824.292	0.0181451
824.370	0.0182307
824.448	0.0181178
824.526	0.0181491
824.604	0.0181433
824.683	0.0180339
824.761	0.0181451
824.839	0.0182920
824.917	0.0181267
824.995	0.0180570
825.073	0.0181182
825.151	0.0180205
825.229	0.0181659
825.308	0.0181955
825.386	0.0180413
825.464	0.0181191
825.542	0.0182397
825.620	0.0181664
825.698	0.0180626
825.776	0.0181142
825.854	0.0181947
825.933	0.0182068
826.011	0.0180468
826.089	0.0180659
826.167	0.0181129
826.245	0.0181188
826.323	0.0182561
826.401	0.0181563
826.479	0.0182772
826.558	0.0181198
826.636	0.0181806
826.714	0.0182564
826.792	0.0182802
826.870	0.0181268
826.948	0.0182474
827.026	0.0182646
827.104	0.0182386
827.183	0.0180405
827.261	0.0181191
827.339	0.0182054
827.417	0.0180713
827.495	0.0181145
827.573	0.0181602
827.651	0.0182053
827.729	0.0182382
827.808	0.0182803
827.886	0.0180740
827.964	0.0182851
828.042	0.0182423
828.120	0.0181752
828.198	0.0181600
828.276	0.0181869
828.354	0.0181229
828.433	0.0182264
828.511	0.0181902
828.589	0.0180744
828.667	0.0180582
828.745	0.0181648
828.823	0.0181403
828.901	0.0180901
828.979	0.0181576
829.058	0.0181548
829.136	0.0182325
829.214	0.0180360
829.292	0.0180956
829.370	0.0182142
829.448	0.0181269
829.526	0.0180461
829.604	0.0180571
829.683	0.0182463
829.761	0.0181491
829.839	0.0180862
829.917	0.0180334
829.995	0.0180660
830.073	0.0181918
830.151	0.0182388
830.229	0.0180729
830.308	0.0180840
830.386	0.0180883
830.464	0.0182303
830.542	0.0182636
830.620	0.0180609
830.698	0.0182195
830.776	0.0182787
830.854	0.0181983
830.933	0.0180490
831.011	0.0181709
831.089	0.0182366
831.167	0.0180541
831.245	0.0181548
831.323	0.0181847
831.401	0.0182191
831.479	0.0181026
831.558	0.0179973
831.636	0.0183051
831.714	0.0183090
831.792	0.0182772
831.870	0.0180732
831.948	0.0181866
832.026	0.0182270
832.104	0.0181704
832.183	0.0181939
832.261	0.0180935
832.339	0.0181722
832.417	0.0182735
832.495	0.0181353
832.573	0.0182549
832.651	0.0182006
832.729	0.0182130
832.808	0.0182712
832.886	0.0181168
832.964	0.0182289
833.042	0.0181014
833.120	0.0180779
833.198	0.0181419
833.276	0.0181116
833.354	0.0180438
833.433	0.0179901
833.511	0.0180595
833.589	0.0181969
833.667	0.0181354
833.745	0.0181141
833.823	0.0181617
833.901	0.0181110
833.979	0.0181229
834.058	0.0181678
834.136	0.0181741
834.214	0.0181480
834.292	0.0181300
834.370	0.0181191
834.448	0.0181811
834.526	0.0182627
834.604	0.0181065
834.683	0.0182172
834.761	0.0181242
834.839	0.0181910
834.917	0.0182238
834.995	0.0181120
835.073	0.0182454
835.151	0.0181190
835.229	0.0180546
835.308	0.0180431
835.386	0.0181957
835.464	0.0182092
835.542	0.0182020
835.620	0.0181750
835.698	0.0182621
835.776	0.0180894
835.854	0.0182689
835.933	0.0181432
836.011	0.0181260
836.089	0.0183434
836.167	0.0181415
836.245	0.0181809
836.323	0.0182328
836.401	0.0181137
836.479	0.0181358
836.558	0.0182889
836.636	0.0181576
836.714	0.0182881
836.792	0.0183218
836.870	0.0182274
836.948	0.0182571
837.026	0.0181567
837.104	0.0182623
837.183	0.0181305
837.261	0.0181673
837.339	0.0182206
837.417	0.0183878
837.495	0.0181202
837.573	0.0180801
837.651	0.0181717
837.729	0.0181478
837.808	0.0181313
837.886	0.0180955
837.964	0.0183457
838.042	0.0181451
838.120	0.0181805
838.198	0.0181638
838.276	0.0179909
838.354	0.0180299
838.433	0.0182451
838.511	0.0181259
838.589	0.0180996
838.667	0.0180927
838.745	0.0180991
838.823	0.0181424
838.901	0.0181125
838.979	0.0180450
839.058	0.0180592
839.136	0.0182021
839.214	0.0180811
839.292	0.0180604
839.370	0.0182734
839.448	0.0181476
839.526	0.0181332
839.604	0.0180778
839.683	0.0181669
839.761	0.0181707
839.839	0.0181293
839.917	0.0181981
839.995	0.0181676
840.073	0.0181885
840.151	0.0181342
840.229	0.0182880
840.308	0.0180264
840.386	0.0181943
840.464	0.0181976
840.542	0.0181528
840.620	0.0180936
840.698	0.0182217
840.776	0.0180154
840.854	0.0180654
840.933	0.0181469
841.011	0.0181893
841.089	0.0181640
841.167	0.0181663
841.245	0.0181579
841.323	0.0181782
841.401	0.0181491
841.479	0.0181783
841.558	0.0181460
841.636	0.0181248
841.714	0.0181849
841.792	0.0181011
841.870	0.0182478
841.948	0.0183056
842.026	0.0181522
842.104	0.0182272
842.183	0.0182279
842.261	0.0182144
842.339	0.0181178
842.417	0.0181534
842.495	0.0182568
842.573	0.0181705
842.651	0.0182147
842.729	0.0182047
842.808	0.0182954
842.886	0.0181982
842.964	0.0180564
843.042	0.0181361
843.120	0.0182237
843.198	0.0181293
843.276	0.0182089
843.354	0.0182587
843.433	0.0180537
843.511	0.0182956
843.589	0.0181589
843.667	0.0180830
843.745	0.0182247
843.823	0.0181740
843.901	0.0181197
843.979	0.0181043
844.058	0.0181296
844.136	0.0180972
844.214	0.0179832
844.292	0.0181400
844.370	0.0179658
844.448	0.0180560
844.526	0.0180818
844.604	0.0180294
844.683	0.0179943
844.761	0.0180295
844.839	0.0180225
844.917	0.0180447
844.995	0.0180152
845.073	0.0179523
845.151	0.0181638
845.229	0.0181438
845.308	0.0181633
845.386	0.0182491
845.464	0.0181926
845.542	0.0183163
845.620	0.0181145
845.698	0.0181944
845.776	0.0182231
845.854	0.0181081
845.933	0.0182364
846.011	0.0182157
846.089	0.0180588
846.167	0.0182391
846.245	0.0181779
846.323	0.0181898
846.401	0.0181677
846.479	0.0182153
846.558	0.0180891
846.636	0.0181416
846.714	0.0181870
846.792	0.0181672
846.870	0.0181139
846.948	0.0181098
847.026	0.0181083
847.104	0.0181110
847.183	0.0182590
847.261	0.0180101
847.339	0.0180702
847.417	0.0180973
847.495	0.0181741
847.573	0.0181870
847.651	0.0181442
847.729	0.0181987
847.808	0.0181718
847.886	0.0181153
847.964	0.0180794
848.042	0.0181469
848.120	0.0181903
848.198	0.0182658
848.276	0.0182655
848.354	0.0181911
848.433	0.0181499
848.511	0.0181972
848.589	0.0181178
848.667	0.0181874
848.745	0.0181850
848.823	0.0181246
848.901	0.0181428
848.979	0.0182292
849.058	0.0181543
849.136	0.0182198
849.214	0.0180888
849.292	0.0179995
849.370	0.0181401
849.448	0.0181533
849.526	0.0182337
849.604	0.0181716
849.683	0.0181561
849.761	0.0182546
849.839	0.0182521
849.917	0.0181614
849.995	0.0182558
850.073	0.0181973
850.151	0.0180145
850.229	0.0181526
850.308	0.0182073
850.386	0.0181927
850.464	0.0182234
850.542	0.0180969
850.620	0.0180317
850.698	0.0182778
850.776	0.0181976
850.854	0.0181728
850.933	0.0180813
851.011	0.0180541
851.089	0.0182067
851.167	0.0181727
851.245	0.0180028
851.323	0.0183266
851.401	0.0181236
851.479	0.0180730
851.558	0.0180330
851.636	0.0182260
851.714	0.0182030
851.792	0.0180010
851.870	0.0180836
851.948	0.0180483
852.026	0.0181345
852.104	0.0180190
852.183	0.0182349
852.261	0.0182169
852.339	0.0180932
852.417	0.0181852
852.495	0.0180035
852.573	0.0180749
852.651	0.0181806
852.729	0.0181129
852.808	0.0181384
852.886	0.0181696
852.964	0.0180357
853.042	0.0179690
853.120	0.0181224
853.198	0.0181567
853.276	0.0181561
853.354	0.0182050
853.433	0.0181425
853.511	0.0181606
853.589	0.0182642
853.667	0.0182137
853.745	0.0181737
853.823	0.0180950
853.901	0.0180508
853.979	0.0181473
854.058	0.0182475
854.136	0.0181833
854.214	0.0180975
854.292	0.0181595
854.370	0.0180644
854.448	0.0182010
854.526	0.0179778
854.604	0.0180089
854.683	0.0182668
854.761	0.0180824
854.839	0.0180315
854.917	0.0178689
854.995	0.0181562
855.073	0.0180508
855.151	0.0180593
855.229	0.0181248
855.308	0.0180280
855.386	0.0182612
855.464	0.0180573
855.542	0.0180278
855.620	0.0180786
855.698	0.0180633
855.776	0.0179733
855.854	0.0181248
855.933	0.0182265
856.011	0.0181941
856.089	0.0182842
856.167	0.0180808
856.245	0.0181763
856.323	0.0181697
856.401	0.0181387
856.479	0.0181029
856.558	0.0182121
856.636	0.0182466
856.714	0.0181628
856.792	0.0181571
856.870	0.0181092
856.948	0.0181892
857.026	0.0181071
857.104	0.0182332
857.183	0.0182197
857.261	0.0182964
857.339	0.0180984
857.417	0.0181729
857.495	0.0180291
857.573	0.0181707
857.651	0.0181578
857.729	0.0181969
857.808	0.0183217
857.886	0.0182554
857.964	0.0181583
858.042	0.0183403
858.120	0.0184020
858.198	0.0182121
858.276	0.0182697
858.354	0.0182525
858.433	0.0181771
858.511	0.0182186
858.589	0.0182230
858.667	0.0182603
858.745	0.0181939
858.823	0.0182198
858.901	0.0181543
858.979	0.0182303
859.058	0.0181856
859.136	0.0183150
859.214	0.0181870
859.292	0.0183678
859.370	0.0182201
859.448	0.0182706
859.526	0.0181104
859.604	0.0181580
859.683	0.0182758
859.761	0.0181606
859.839	0.0181413
859.917	0.0180793
859.995	0.0182500
860.073	0.0181986
860.151	0.0180724
860.229	0.0182312
860.308	0.0182373
860.386	0.0181271
860.464	0.0182047
860.542	0.0181116
860.620	0.0181148
860.698	0.0181935
860.776	0.0181610
860.854	0.0180437
860.933	0.0181094
861.011	0.0181477
861.089	0.0180344
861.167	0.0181696
861.245	0.0180895
861.323	0.0180029
861.401	0.0180960
861.479	0.0182438
861.558	0.0182253
861.636	0.0182771
861.714	0.0181367
861.792	0.0181206
861.870	0.0182796
861.948	0.0180481
862.026	0.0181402
862.104	0.0182500
862.183	0.0181470
862.261	0.0181544
862.339	0.0182478
862.417	0.0181150
862.495	0.0182283
862.573	0.0181145
862.651	0.0181764
862.729	0.0181918
862.808	0.0179689
862.886	0.0180945
862.964	0.0180892
863.042	0.0180930
863.120	0.0181375
863.198	0.0181772
863.276	0.0182306
863.354	0.0181187
863.433	0.0181776
863.511	0.0181693
863.589	0.0181283
863.667	0.0181117
863.745	0.0181213
863.823	0.0181868
863.901	0.0181583
863.979	0.0180820
864.058	0.0182464
864.136	0.0180486
864.214	0.0181763
864.292	0.0181817
864.370	0.0181992
864.448	0.0179882
864.526	0.0180979
864.604	0.0182055
864.683	0.0181974
864.761	0.0181406
864.839	0.0181940
864.917	0.0181997
864.995	0.0181418
865.073	0.0181007
865.151	0.0181361
865.229	0.0181831
865.308	0.0180769
865.386	0.0180780
865.464	0.0182281
865.542	0.0183174
865.620	0.0182230
865.698	0.0181654
865.776	0.0181573
865.854	0.0182080
865.933	0.0182285
866.011	0.0181732
866.089	0.0182098
866.167	0.0180990
866.245	0.0182240
866.323	0.0181914
866.401	0.0180827
866.479	0.0182629
866.558	0.0182277
866.636	0.0181498
866.714	0.0181606
866.792	0.0182944
866.870	0.0184451
866.948	0.0183552
867.026	0.0182949
867.104	0.0183207
867.183	0.0183125
867.261	0.0181089
867.339	0.0181273
867.417	0.0182885
867.495	0.0182358
867.573	0.0181171
867.651	0.0180784
867.729	0.0180672
867.808	0.0180845
867.886	0.0181989
867.964	0.0181954
868.042	0.0182873
868.120	0.0181702
868.198	0.0180238
868.276	0.0180750
868.354	0.0181278
868.433	0.0181922
868.511	0.0182536
868.589	0.0181231
868.667	0.0181758
868.745	0.0181947
868.823	0.0182182
868.901	0.0181577
868.979	0.0182436
869.058	0.0181960
869.136	0.0181411
869.214	0.0179645
869.292	0.0181973
869.370	0.0182244
869.448	0.0180540
869.526	0.0181828
869.604	0.0182191
869.683	0.0181996
869.761	0.0180669
869.839	0.0182465
869.917	0.0181775
869.995	0.0181469
870.073	0.0182632
870.151	0.0182028
870.229	0.0183067
870.308	0.0182840
870.386	0.0181880
870.464	0.0181444
870.542	0.0182559
870.620	0.0182217
870.698	0.0181708
870.776	0.0182337
870.854	0.0182562
870.933	0.0183067
871.011	0.0182573
871.089	0.0181869
871.167	0.0182884
871.245	0.0183917
871.323	0.0182322
871.401	0.0183228
871.479	0.0182777
871.558	0.0182860
871.636	0.0182077
871.714	0.0180738
871.792	0.0182793
871.870	0.0182031
871.948	0.0179967
872.026	0.0181491
872.104	0.0181081
872.183	0.0180293
872.261	0.0181306
872.339	0.0181662
872.417	0.0181044
872.495	0.0179932
872.573	0.0181536
872.651	0.0183165
872.729	0.0181284
872.808	0.0180235
872.886	0.0180582
872.964	0.0181581
873.042	0.0181789
873.120	0.0181431
873.198	0.0182309
873.276	0.0181281
873.354	0.0181727
873.433	0.0181561
873.511	0.0181638
873.589	0.0181361
873.667	0.0181652
873.745	0.0182362
873.823	0.0183022
873.901	0.0182121
873.979	0.0181831
874.058	0.0182561
874.136	0.0183115
874.214	0.0183242
874.292	0.0181902
874.370	0.0180449
874.448	0.0181282
874.526	0.0183219
874.604	0.0182133
874.683	0.0182471
874.761	0.0181626
874.839	0.0181389
874.917	0.0182163
874.995	0.0180745
875.073	0.0181867
875.151	0.0182818
875.229	0.0182292
875.308	0.0180256
875.386	0.0180877
875.464	0.0181933
875.542	0.0181680
875.620	0.0182478
875.698	0.0182545
875.776	0.0179744
875.854	0.0181690
875.933	0.0182554
876.011	0.0180962
876.089	0.0181028
876.167	0.0182272
876.245	0.0181785
876.323	0.0182244
876.401	0.0181194
876.479	0.0181953
876.558	0.0182367
876.636	0.0181095
876.714	0.0181628
876.792	0.0181456
876.870	0.0181543
876.948	0.0182151
877.026	0.0182085
877.104	0.0183446
877.183	0.0181602
877.261	0.0180206
877.339	0.0182506
877.417	0.0180776
877.495	0.0181814
877.573	0.0182075
877.651	0.0182574
877.729	0.0180829
877.808	0.0180975
877.886	0.0181487
877.964	0.0181177
878.042	0.0181297
878.120	0.0182410
878.198	0.0181063
878.276	0.0182751
878.354	0.0181275
878.433	0.0181992
878.511	0.0181554
878.589	0.0182626
878.667	0.0181152
878.745	0.0181676
878.823	0.0181335
878.901	0.0181019
878.979	0.0181966
879.058	0.0183617
879.136	0.0180708
879.214	0.0181112
879.292	0.0181863
879.370	0.0180338
879.448	0.0181512
879.526	0.0180399
879.604	0.0180923
879.683	0.0182354
879.761	0.0181457
879.839	0.0181680
879.917	0.0181456
879.995	0.0181521
880.073	0.0181553
880.151	0.0180071
880.229	0.0181450
880.308	0.0181765
880.386	0.0181470
880.464	0.0181603
880.542	0.0182665
880.620	0.0181614
880.698	0.0180354
880.776	0.0182121
880.854	0.0184667
880.933	0.0183132
881.011	0.0181973
881.089	0.0181628
881.167	0.0182863
881.245	0.0182294
881.323	0.0182536
881.401	0.0182581
881.479	0.0181916
881.558	0.0182372
881.636	0.0182487
881.714	0.0181969
881.792	0.0182651
881.870	0.0181680
881.948	0.0182292
882.026	0.0181735
882.104	0.0180571
882.183	0.0181486
882.261	0.0181709
882.339	0.0180789
882.417	0.0181992
882.495	0.0181847
882.573	0.0180593
882.651	0.0181116
882.729	0.0181625
882.808	0.0181284
882.886	0.0181564
882.964	0.0182021
883.042	0.0179868
883.120	0.0180789
883.198	0.0182732
883.276	0.0182102
883.354	0.0181547
883.433	0.0182559
883.511	0.0182893
883.589	0.0181149
883.667	0.0183003
883.745	0.0181907
883.823	0.0181607
883.901	0.0181861
883.979	0.0180978
884.058	0.0181512
884.136	0.0182381
884.214	0.0183618
884.292	0.0182243
884.370	0.0182441
884.448	0.0183466
884.526	0.0181326
884.604	0.0181523
884.683	0.0181028
884.761	0.0181205
884.839	0.0181469
884.917	0.0182401
884.995	0.0180778
885.073	0.0181837
885.151	0.0181541
885.229	0.0180960
885.308	0.0182551
885.386	0.0181991
885.464	0.0180521
885.542	0.0180502
885.620	0.0182241
885.698	0.0182896
885.776	0.0180945
885.854	0.0181324
885.933	0.0183022
886.011	0.0181373
886.089	0.0181518
886.167	0.0181825
886.245	0.0181757
886.323	0.0182074
886.401	0.0180840
886.479	0.0181704
886.558	0.0180573
886.636	0.0181649
886.714	0.0181422
886.792	0.0182600
886.870	0.0182757
886.948	0.0182385
887.026	0.0181698
887.104	0.0181377
887.183	0.0182059
887.261	0.0180854
887.339	0.0183102
887.417	0.0181634
887.495	0.0182473
887.573	0.0182440
887.651	0.0182079
887.729	0.0181416
887.808	0.0182262
887.886	0.0182042
887.964	0.0182559
888.042	0.0181818
888.120	0.0183139
888.198	0.0181535
888.276	0.0182182
888.354	0.0182211
888.433	0.0180901
888.511	0.0181397
888.589	0.0180214
888.667	0.0182087
888.745	0.0181453
888.823	0.0180169
888.901	0.0182002
888.979	0.0183193
889.058	0.0181223
889.136	0.0181604
889.214	0.0182027
889.292	0.0181860
889.370	0.0181494
889.448	0.0182112
889.526	0.0182330
889.604	0.0182971
889.683	0.0180888
889.761	0.0180655
889.839	0.0180330
889.917	0.0181757
889.995	0.0181579
890.073	0.0180686
890.151	0.0180851
890.229	0.0181300
890.308	0.0180331
890.386	0.0180531
890.464	0.0181329
890.542	0.0181808
890.620	0.0181998
890.698	0.0182343
890.776	0.0182421
890.854	0.0182614
890.933	0.0181620
891.011	0.0182220
891.089	0.0181390
891.167	0.0182990
891.245	0.0181924
891.323	0.0181567
891.401	0.0181125
891.479	0.0181784
891.558	0.0181440
891.636	0.0182210
891.714	0.0181829
891.792	0.0179934
891.870	0.0181364
891.948	0.0182304
892.026	0.0181337
892.104	0.0180578
892.183	0.0180547
892.261	0.0182056
892.339	0.0180707
892.417	0.0180463
892.495	0.0180943
892.573	0.0181450
892.651	0.0181184
892.729	0.0180188
892.808	0.0180486
892.886	0.0181397
892.964	0.0180719
893.042	0.0180871
893.120	0.0181540
893.198	0.0181731
893.276	0.0182642
893.354	0.0181879
893.433	0.0181600
893.511	0.0182040
893.589	0.0181982
893.667	0.0181895
893.745	0.0182375
893.823	0.0181573
893.901	0.0182281
893.979	0.0180641
894.058	0.0183133
894.136	0.0181941
894.214	0.0181610
894.292	0.0181017
894.370	0.0180841
894.448	0.0181995
894.526	0.0181250
894.604	0.0180439
894.683	0.0181053
894.761	0.0181432
894.839	0.0181075
894.917	0.0179078
894.995	0.0179457
895.073	0.0182468
895.151	0.0180853
895.229	0.0180437
895.308	0.0181120
895.386	0.0181741
895.464	0.0182211
895.542	0.0181336
895.620	0.0181872
895.698	0.0181838
895.776	0.0181832
895.854	0.0182738
895.933	0.0181911
896.011	0.0183160
896.089	0.0182749
896.167	0.0182230
896.245	0.0183710
896.323	0.0182024
896.401	0.0183121
896.479	0.0183302
896.558	0.0181918
896.636	0.0180747
896.714	0.0181134
896.792	0.0181992
896.870	0.0181784
896.948	0.0179613
897.026	0.0179564
897.104	0.0179870
897.183	0.0181302
897.261	0.0181056
897.339	0.0180558
897.417	0.0180577
897.495	0.0180979
897.573	0.0181239
897.651	0.0180820
897.729	0.0181860
897.808	0.0180351
897.886	0.0179855
897.964	0.0182169
898.042	0.0181083
898.120	0.0182164
898.198	0.0181327
898.276	0.0181485
898.354	0.0181767
898.433	0.0181570
898.511	0.0181408
898.589	0.0181455
898.667	0.0182080
898.745	0.0183702
898.823	0.0181789
898.901	0.0183797
898.979	0.0181376
899.058	0.0181377
899.136	0.0181740
899.214	0.0182347
899.292	0.0183304
899.370	0.0182494
899.448	0.0180779
899.526	0.0182159
899.604	0.0182211
899.683	0.0182220
899.761	0.0181458
899.839	0.0179762
899.917	0.0182000
899.995	0.0182804
900.073	0.0182118
900.151	0.0181608
900.229	0.0181307
900.308	0.0181285
900.386	0.0181220
900.464	0.0181223
900.542	0.0181013
900.620	0.0181269
900.698	0.0182397
900.776	0.0183267
900.854	0.0182069
900.933	0.0180365
901.011	0.0182262
901.089	0.0182466
901.167	0.0182819
901.245	0.0182222
901.323	0.0181002
901.401	0.0179845
901.479	0.0182251
901.558	0.0181658
901.636	0.0181580
901.714	0.0181435
901.792	0.0180055
901.870	0.0181741
901.948	0.0181406
902.026	0.0181202
902.104	0.0181383
902.183	0.0181929
902.261	0.0181328
902.339	0.0180381
902.417	0.0180357
902.495	0.0181970
902.573	0.0180154
902.651	0.0180373
902.729	0.0181334
902.808	0.0181543
902.886	0.0182342
902.964	0.0182198
903.042	0.0182141
903.120	0.0181372
903.198	0.0181929
903.276	0.0182824
903.354	0.0181091
903.433	0.0182613
903.511	0.0181737
903.589	0.0182358
903.667	0.0184050
903.745	0.0182090
903.823	0.0181719
903.901	0.0180529
903.979	0.0182076
904.058	0.0181762
904.136	0.0181281
904.214	0.0180936
904.292	0.0181386
904.370	0.0179620
904.448	0.0181327
904.526	0.0180032
904.604	0.0180567
904.683	0.0182240
904.761	0.0180505
904.839	0.0180236
904.917	0.0180883
904.995	0.0181662
905.073	0.0181834
905.151	0.0180848
905.229	0.0181107
905.308	0.0182236
905.386	0.0180378
905.464	0.0182253
905.542	0.0182211
905.620	0.0183314
905.698	0.0182098
905.776	0.0182621
905.854	0.0183845
905.933	0.0183014
906.011	0.0181920
906.089	0.0182201
906.167	0.0182640
906.245	0.0181819
906.323	0.0181993
906.401	0.0182185
906.479	0.0181480
906.558	0.0181949
906.636	0.0181419
906.714	0.0181177
906.792	0.0182123
906.870	0.0181530
906.948	0.0182817
907.026	0.0180970
907.104	0.0180126
907.183	0.0179977
907.261	0.0180560
907.339	0.0181598
907.417	0.0181019
907.495	0.0180369
907.573	0.0180610
907.651	0.0180453
907.729	0.0181473
907.808	0.0180276
907.886	0.0181346
907.964	0.0181690
908.042	0.0180209
908.120	0.0179820
908.198	0.0181711
908.276	0.0181788
908.354	0.0181059
908.433	0.0181330
908.511	0.0179143
908.589	0.0179662
908.667	0.0180656
908.745	0.0180880
908.823	0.0180885
908.901	0.0179746
908.979	0.0181265
909.058	0.0181749
909.136	0.0180184
909.214	0.0180566
909.292	0.0180695
909.370	0.0182162
909.448	0.0180154
909.526	0.0180426
909.604	0.0180790
909.683	0.0180852
909.761	0.0181277
909.839	0.0182007
909.917	0.0182513
909.995	0.0180917
910.073	0.0182051
910.151	0.0182619
910.229	0.0182200
910.308	0.0181048
910.386	0.0181261
910.464	0.0180966
910.542	0.0181445
910.620	0.0182722
910.698	0.0180653
910.776	0.0181282
910.854	0.0181872
910.933	0.0182474
911.011	0.0181134
911.089	0.0179781
911.167	0.0180799
911.245	0.0179823
911.323	0.0180657
911.401	0.0181153
911.479	0.0182279
911.558	0.0181548
911.636	0.0180534
911.714	0.0181675
911.792	0.0181623
911.870	0.0181168
911.948	0.0181240
912.026	0.0181116
912.104	0.0180049
912.183	0.0180645
912.261	0.0182281
912.339	0.0181155
912.417	0.0181656
912.495	0.0180955
912.573	0.0181583
912.651	0.0182313
912.729	0.0181183
912.808	0.0181287
912.886	0.0181995
912.964	0.0180482
913.042	0.0180534
913.120	0.0180849
913.198	0.0180656
913.276	0.0180714
913.354	0.0181109
913.433	0.0180646
913.511	0.0181289
913.589	0.0180428
913.667	0.0181756
913.745	0.0180215
913.823	0.0181101
913.901	0.0182487
913.979	0.0181924
914.058	0.0181945
914.136	0.0181796
914.214	0.0181722
914.292	0.0180854
914.370	0.0181181
914.448	0.0181953
914.526	0.0182088
914.604	0.0182129
914.683	0.0181567
914.761	0.0180514
914.839	0.0181534
914.917	0.0181982
914.995	0.0181200
915.073	0.0180940
915.151	0.0181940
915.229	0.0181551
915.308	0.0181625
915.386	0.0181364
915.464	0.0181463
915.542	0.0181857
915.620	0.0182078
915.698	0.0181143
915.776	0.0181403
915.854	0.0180738
915.933	0.0180278
916.011	0.0181369
916.089	0.0179982
916.167	0.0181149
916.245	0.0181564
916.323	0.0179866
916.401	0.0181724
916.479	0.0181190
916.558	0.0181358
916.636	0.0182262
916.714	0.0180845
916.792	0.0181689
916.870	0.0181805
916.948	0.0181936
917.026	0.0181686
917.104	0.0180848
917.183	0.0181144
917.261	0.0180747
917.339	0.0181721
917.417	0.0181072
917.495	0.0181318
917.573	0.0181444
917.651	0.0181150
917.729	0.0180740
917.808	0.0180100
917.886	0.0181029
917.964	0.0180471
918.042	0.0180148
918.120	0.0181661
918.198	0.0182249
918.276	0.0181983
918.354	0.0183079
918.433	0.0181128
918.511	0.0180530
918.589	0.0181542
918.667	0.0181947
918.745	0.0182354
918.823	0.0181218
918.901	0.0181439
918.979	0.0182610
919.058	0.0182459
919.136	0.0180711
919.214	0.0182100
919.292	0.0181702
919.370	0.0181108
919.448	0.0182455
919.526	0.0181900
919.604	0.0183225
919.683	0.0182524
919.761	0.0182346
919.839	0.0182419
919.917	0.0182584
