06/03/2022	18:13:33	Ver.	4.1	UNKNOWN
Optical Delay	599.995081	Delta X		0.078125	Sweeps	1	Scan Rate	0/0
Coordinates	Axis 1	NaN	Axis 2	NaN	Axis 3	NaN	Axis 4	NaN	Axis 5	NaN	Axis 6	0.000000
TX Power	0.000000	RX Power	0.000000

599.995	0.0179108
600.073	0.0179060
600.151	0.0179825
600.229	0.0180278
600.308	0.0179042
600.386	0.0179623
600.464	0.0179416
600.542	0.0179436
600.620	0.0179788
600.698	0.0180027
600.776	0.0179163
600.854	0.0179630
600.933	0.0179098
601.011	0.0180659
601.089	0.0179636
601.167	0.0178378
601.245	0.0179860
601.323	0.0179530
601.401	0.0178798
601.479	0.0180302
601.558	0.0180140
601.636	0.0179063
601.714	0.0179457
601.792	0.0180150
601.870	0.0179549
601.948	0.0179176
602.026	0.0180042
602.104	0.0180534
602.183	0.0179851
602.261	0.0178805
602.339	0.0179638
602.417	0.0179154
602.495	0.0179600
602.573	0.0180430
602.651	0.0180005
602.729	0.0178881
602.808	0.0180205
602.886	0.0180256
602.964	0.0180060
603.042	0.0179703
603.120	0.0179040
603.198	0.0180115
603.276	0.0179052
603.354	0.0179174
603.433	0.0179935
603.511	0.0178326
603.589	0.0179852
603.667	0.0179531
603.745	0.0179582
603.823	0.0180725
603.901	0.0179994
603.979	0.0178872
604.058	0.0179634
604.136	0.0180481
604.214	0.0179896
604.292	0.0179454
604.370	0.0179210
604.448	0.0178714
604.526	0.0178697
604.604	0.0179099
604.683	0.0178225
604.761	0.0179501
604.839	0.0181355
604.917	0.0179356
604.995	0.0180170
605.073	0.0180399
605.151	0.0179280
605.229	0.0178999
605.308	0.0178494
605.386	0.0180173
605.464	0.0179639
605.542	0.0179739
605.620	0.0179752
605.698	0.0180692
605.776	0.0180966
605.854	0.0178862
605.933	0.0178679
606.011	0.0178166
606.089	0.0178809
606.167	0.0180717
606.245	0.0179499
606.323	0.0180217
606.401	0.0179235
606.479	0.0180468
606.558	0.0179097
606.636	0.0178958
606.714	0.0178755
606.792	0.0180531
606.870	0.0180772
606.948	0.0179996
607.026	0.0178859
607.104	0.0179848
607.183	0.0180723
607.261	0.0179436
607.339	0.0179043
607.417	0.0180090
607.495	0.0179565
607.573	0.0178927
607.651	0.0178867
607.729	0.0180308
607.808	0.0178816
607.886	0.0179182
607.964	0.0179675
608.042	0.0179899
608.120	0.0178564
608.198	0.0179381
608.276	0.0178391
608.354	0.0179810
608.433	0.0180543
608.511	0.0178705
608.589	0.0177484
608.667	0.0178471
608.745	0.0179038
608.823	0.0180917
608.901	0.0178674
608.979	0.0179264
609.058	0.0179219
609.136	0.0180608
609.214	0.0179913
609.292	0.0178458
609.370	0.0180375
609.448	0.0180612
609.526	0.0178111
609.604	0.0179372
609.683	0.0179226
609.761	0.0179586
609.839	0.0180206
609.917	0.0179781
609.995	0.0179511
610.073	0.0179507
610.151	0.0179395
610.229	0.0179520
610.308	0.0179561
610.386	0.0179990
610.464	0.0179039
610.542	0.0179024
610.620	0.0179229
610.698	0.0178637
610.776	0.0180182
610.854	0.0180101
610.933	0.0179739
611.011	0.0179929
611.089	0.0178667
611.167	0.0179296
611.245	0.0178705
611.323	0.0179406
611.401	0.0178827
611.479	0.0178933
611.558	0.0178371
611.636	0.0179148
611.714	0.0178704
611.792	0.0180000
611.870	0.0179295
611.948	0.0178875
612.026	0.0180241
612.104	0.0180198
612.183	0.0179464
612.261	0.0180462
612.339	0.0180312
612.417	0.0179717
612.495	0.0178458
612.573	0.0180175
612.651	0.0178986
612.729	0.0179134
612.808	0.0179649
612.886	0.0179892
612.964	0.0179846
613.042	0.0179814
613.120	0.0179083
613.198	0.0180251
613.276	0.0180196
613.354	0.0179469
613.433	0.0179063
613.511	0.0179918
613.589	0.0179661
613.667	0.0179092
613.745	0.0178778
613.823	0.0178888
613.901	0.0179225
613.979	0.0180547
614.058	0.0179358
614.136	0.0179221
614.214	0.0180019
614.292	0.0180007
614.370	0.0178790
614.448	0.0178315
614.526	0.0180708
614.604	0.0179348
614.683	0.0178899
614.761	0.0178889
614.839	0.0180754
614.917	0.0179333
614.995	0.0179575
615.073	0.0180178
615.151	0.0178376
615.229	0.0179211
615.308	0.0179604
615.386	0.0178191
615.464	0.0179460
615.542	0.0179507
615.620	0.0178794
615.698	0.0179390
615.776	0.0179946
615.854	0.0180682
615.933	0.0180025
616.011	0.0179188
616.089	0.0179118
616.167	0.0180172
616.245	0.0178555
616.323	0.0179208
616.401	0.0179068
616.479	0.0179025
616.558	0.0179372
616.636	0.0180386
616.714	0.0178865
616.792	0.0180116
616.870	0.0178561
616.948	0.0178394
617.026	0.0181175
617.104	0.0179504
617.183	0.0178742
617.261	0.0179505
617.339	0.0179833
617.417	0.0179024
617.495	0.0178801
617.573	0.0178785
617.651	0.0179568
617.729	0.0179773
617.808	0.0179682
617.886	0.0179757
617.964	0.0179118
618.042	0.0179320
618.120	0.0179115
618.198	0.0179976
618.276	0.0178613
618.354	0.0179431
618.433	0.0180913
618.511	0.0179094
618.589	0.0179514
618.667	0.0178464
618.745	0.0180048
618.823	0.0179341
618.901	0.0178147
618.979	0.0179041
619.058	0.0179662
619.136	0.0179411
619.214	0.0178266
619.292	0.0180006
619.370	0.0179903
619.448	0.0179210
619.526	0.0179008
619.604	0.0178901
619.683	0.0178733
619.761	0.0177951
619.839	0.0179230
619.917	0.0179342
619.995	0.0177988
620.073	0.0180527
620.151	0.0180016
620.229	0.0178313
620.308	0.0180576
620.386	0.0180556
620.464	0.0178794
620.542	0.0181326
620.620	0.0179030
620.698	0.0179150
620.776	0.0179919
620.854	0.0179539
620.933	0.0178931
621.011	0.0179595
621.089	0.0179905
621.167	0.0179380
621.245	0.0180258
621.323	0.0179281
621.401	0.0179855
621.479	0.0180616
621.558	0.0179932
621.636	0.0180439
621.714	0.0178936
621.792	0.0180692
621.870	0.0180038
621.948	0.0179432
622.026	0.0180592
622.104	0.0179079
622.183	0.0179932
622.261	0.0179565
622.339	0.0178893
622.417	0.0179817
622.495	0.0180237
622.573	0.0180185
622.651	0.0178612
622.729	0.0179137
622.808	0.0179047
622.886	0.0179205
622.964	0.0179691
623.042	0.0179585
623.120	0.0178838
623.198	0.0179548
623.276	0.0179603
623.354	0.0180451
623.433	0.0178645
623.511	0.0178076
623.589	0.0179221
623.667	0.0178429
623.745	0.0180007
623.823	0.0178725
623.901	0.0180267
623.979	0.0180512
624.058	0.0179420
624.136	0.0180211
624.214	0.0178771
624.292	0.0179047
624.370	0.0179278
624.448	0.0179649
624.526	0.0179964
624.604	0.0179500
624.683	0.0180123
624.761	0.0180759
624.839	0.0179091
624.917	0.0179169
624.995	0.0180196
625.073	0.0179493
625.151	0.0179094
625.229	0.0179346
625.308	0.0178922
625.386	0.0180128
625.464	0.0179607
625.542	0.0179742
625.620	0.0179826
625.698	0.0179346
625.776	0.0180248
625.854	0.0179205
625.933	0.0179655
626.011	0.0177486
626.089	0.0178452
626.167	0.0179859
626.245	0.0178028
626.323	0.0180167
626.401	0.0179255
626.479	0.0179572
626.558	0.0178949
626.636	0.0180058
626.714	0.0179137
626.792	0.0177792
626.870	0.0178297
626.948	0.0180379
627.026	0.0178807
627.104	0.0178479
627.183	0.0178818
627.261	0.0178526
627.339	0.0178075
627.417	0.0178220
627.495	0.0179617
627.573	0.0178844
627.651	0.0178954
627.729	0.0179997
627.808	0.0178982
627.886	0.0179192
627.964	0.0180231
628.042	0.0179583
628.120	0.0177528
628.198	0.0179698
628.276	0.0180138
628.354	0.0180114
628.433	0.0178288
628.511	0.0179242
628.589	0.0178872
628.667	0.0180238
628.745	0.0180724
628.823	0.0179893
628.901	0.0177410
628.979	0.0179711
629.058	0.0179273
629.136	0.0179637
629.214	0.0179604
629.292	0.0179282
629.370	0.0179837
629.448	0.0179671
629.526	0.0179272
629.604	0.0179552
629.683	0.0180531
629.761	0.0180836
629.839	0.0178468
629.917	0.0179531
629.995	0.0180099
630.073	0.0179436
630.151	0.0179477
630.229	0.0177573
630.308	0.0179733
630.386	0.0180639
630.464	0.0179446
630.542	0.0179925
630.620	0.0179340
630.698	0.0179890
630.776	0.0178768
630.854	0.0179328
630.933	0.0180680
631.011	0.0180051
631.089	0.0180002
631.167	0.0180035
631.245	0.0181127
631.323	0.0179204
631.401	0.0178927
631.479	0.0179204
631.558	0.0181010
631.636	0.0181010
631.714	0.0178066
631.792	0.0178357
631.870	0.0178970
631.948	0.0179566
632.026	0.0179049
632.104	0.0179554
632.183	0.0178825
632.261	0.0179037
632.339	0.0178113
632.417	0.0178420
632.495	0.0178773
632.573	0.0179035
632.651	0.0179982
632.729	0.0179434
632.808	0.0179068
632.886	0.0179287
632.964	0.0178090
633.042	0.0177622
633.120	0.0179572
633.198	0.0179099
633.276	0.0180204
633.354	0.0179737
633.433	0.0178115
633.511	0.0178659
633.589	0.0178960
633.667	0.0179484
633.745	0.0179794
633.823	0.0180396
633.901	0.0181188
633.979	0.0179374
634.058	0.0179725
634.136	0.0180354
634.214	0.0178186
634.292	0.0179485
634.370	0.0180103
634.448	0.0179295
634.526	0.0179929
634.604	0.0179316
634.683	0.0179581
634.761	0.0180152
634.839	0.0180360
634.917	0.0180211
634.995	0.0179765
635.073	0.0179134
635.151	0.0179787
635.229	0.0179564
635.308	0.0180354
635.386	0.0179070
635.464	0.0178072
635.542	0.0180891
635.620	0.0179845
635.698	0.0179224
635.776	0.0179141
635.854	0.0179675
635.933	0.0180264
636.011	0.0180490
636.089	0.0178765
636.167	0.0178560
636.245	0.0179385
636.323	0.0180122
636.401	0.0179598
636.479	0.0177622
636.558	0.0180138
636.636	0.0179755
636.714	0.0180016
636.792	0.0179391
636.870	0.0179475
636.948	0.0179431
637.026	0.0178581
637.104	0.0178452
637.183	0.0180842
637.261	0.0178814
637.339	0.0179746
637.417	0.0180022
637.495	0.0179911
637.573	0.0179904
637.651	0.0177653
637.729	0.0179166
637.808	0.0178426
637.886	0.0179841
637.964	0.0179028
638.042	0.0179472
638.120	0.0179034
638.198	0.0179647
638.276	0.0178814
638.354	0.0178902
638.433	0.0178941
638.511	0.0179403
638.589	0.0179719
638.667	0.0179595
638.745	0.0178586
638.823	0.0179086
638.901	0.0178647
638.979	0.0179842
639.058	0.0179810
639.136	0.0180392
639.214	0.0179987
639.292	0.0179001
639.370	0.0178142
639.448	0.0180956
639.526	0.0179050
639.604	0.0178632
639.683	0.0179191
639.761	0.0179797
639.839	0.0179118
639.917	0.0177946
639.995	0.0179127
640.073	0.0179286
640.151	0.0179720
640.229	0.0179156
640.308	0.0178394
640.386	0.0178683
640.464	0.0178745
640.542	0.0179627
640.620	0.0178226
640.698	0.0178919
640.776	0.0179466
640.854	0.0179705
640.933	0.0178715
641.011	0.0179855
641.089	0.0180139
641.167	0.0178336
641.245	0.0178694
641.323	0.0178666
641.401	0.0179071
641.479	0.0180048
641.558	0.0179330
641.636	0.0180083
641.714	0.0178658
641.792	0.0179907
641.870	0.0178480
641.948	0.0178280
642.026	0.0179526
642.104	0.0178724
642.183	0.0179011
642.261	0.0178635
642.339	0.0179080
642.417	0.0179583
642.495	0.0177127
642.573	0.0179396
642.651	0.0179359
642.729	0.0179701
642.808	0.0179556
642.886	0.0179369
642.964	0.0180278
643.042	0.0179789
643.120	0.0178471
643.198	0.0178690
643.276	0.0178146
643.354	0.0178049
643.433	0.0179379
643.511	0.0180824
643.589	0.0179745
643.667	0.0179947
643.745	0.0178914
643.823	0.0179272
643.901	0.0179343
643.979	0.0179314
644.058	0.0180094
644.136	0.0180277
644.214	0.0178960
644.292	0.0179053
644.370	0.0178746
644.448	0.0179049
644.526	0.0180133
644.604	0.0178658
644.683	0.0178561
644.761	0.0178927
644.839	0.0179568
644.917	0.0179307
644.995	0.0179736
645.073	0.0179738
645.151	0.0178471
645.229	0.0180482
645.308	0.0179475
645.386	0.0177799
645.464	0.0179842
645.542	0.0178426
645.620	0.0178809
645.698	0.0180818
645.776	0.0179772
645.854	0.0178216
645.933	0.0178926
646.011	0.0178769
646.089	0.0179576
646.167	0.0179038
646.245	0.0179263
646.323	0.0178411
646.401	0.0178958
646.479	0.0178475
646.558	0.0178578
646.636	0.0179092
646.714	0.0179663
646.792	0.0178415
646.870	0.0180318
646.948	0.0178699
647.026	0.0179784
647.104	0.0179930
647.183	0.0179655
647.261	0.0179520
647.339	0.0178056
647.417	0.0180011
647.495	0.0179129
647.573	0.0179430
647.651	0.0178926
647.729	0.0179720
647.808	0.0178726
647.886	0.0179292
647.964	0.0179800
648.042	0.0179405
648.120	0.0178877
648.198	0.0180198
648.276	0.0180096
648.354	0.0180044
648.433	0.0179533
648.511	0.0179813
648.589	0.0178145
648.667	0.0180943
648.745	0.0179537
648.823	0.0178854
648.901	0.0178166
648.979	0.0180666
649.058	0.0182149
649.136	0.0178664
649.214	0.0178989
649.292	0.0179333
649.370	0.0178646
649.448	0.0177606
649.526	0.0179156
649.604	0.0179877
649.683	0.0179259
649.761	0.0179589
649.839	0.0179742
649.917	0.0180163
649.995	0.0178555
650.073	0.0178542
650.151	0.0178888
650.229	0.0179193
650.308	0.0178232
650.386	0.0178741
650.464	0.0178762
650.542	0.0179175
650.620	0.0178741
650.698	0.0177805
650.776	0.0177815
650.854	0.0180306
650.933	0.0179528
651.011	0.0179791
651.089	0.0178845
651.167	0.0180425
651.245	0.0178587
651.323	0.0178152
651.401	0.0177601
651.479	0.0178606
651.558	0.0179313
651.636	0.0179479
651.714	0.0178574
651.792	0.0178262
651.870	0.0179044
651.948	0.0179733
652.026	0.0177655
652.104	0.0179159
652.183	0.0177993
652.261	0.0178789
652.339	0.0179880
652.417	0.0180555
652.495	0.0178770
652.573	0.0178823
652.651	0.0179626
652.729	0.0178621
652.808	0.0178061
652.886	0.0179099
652.964	0.0180112
653.042	0.0179485
653.120	0.0180424
653.198	0.0178390
653.276	0.0178998
653.354	0.0178556
653.433	0.0177905
653.511	0.0179621
653.589	0.0178903
653.667	0.0178255
653.745	0.0179747
653.823	0.0179716
653.901	0.0178452
653.979	0.0179364
654.058	0.0178511
654.136	0.0178510
654.214	0.0179186
654.292	0.0178701
654.370	0.0179165
654.448	0.0178888
654.526	0.0178354
654.604	0.0178485
654.683	0.0179353
654.761	0.0179350
654.839	0.0177521
654.917	0.0177899
654.995	0.0178664
655.073	0.0179578
655.151	0.0179275
655.229	0.0179431
655.308	0.0179309
655.386	0.0178684
655.464	0.0178981
655.542	0.0179740
655.620	0.0177206
655.698	0.0178507
655.776	0.0180120
655.854	0.0179369
655.933	0.0179281
656.011	0.0178616
656.089	0.0177610
656.167	0.0178449
656.245	0.0179369
656.323	0.0179226
656.401	0.0179838
656.479	0.0179970
656.558	0.0179400
656.636	0.0179317
656.714	0.0179185
656.792	0.0178038
656.870	0.0179030
656.948	0.0178697
657.026	0.0178604
657.104	0.0179802
657.183	0.0179010
657.261	0.0179453
657.339	0.0179833
657.417	0.0180888
657.495	0.0178716
657.573	0.0180943
657.651	0.0179412
657.729	0.0177978
657.808	0.0180223
657.886	0.0179655
657.964	0.0180984
658.042	0.0178687
658.120	0.0179673
658.198	0.0180215
658.276	0.0178661
658.354	0.0179694
658.433	0.0179150
658.511	0.0179471
658.589	0.0177781
658.667	0.0178549
658.745	0.0178999
658.823	0.0178054
658.901	0.0179551
658.979	0.0178795
659.058	0.0179267
659.136	0.0178683
659.214	0.0179324
659.292	0.0179967
659.370	0.0179749
659.448	0.0178699
659.526	0.0180084
659.604	0.0178437
659.683	0.0179174
659.761	0.0180489
659.839	0.0179581
659.917	0.0178820
659.995	0.0179891
660.073	0.0177718
660.151	0.0178068
660.229	0.0179230
660.308	0.0178610
660.386	0.0179357
660.464	0.0179180
660.542	0.0178091
660.620	0.0178365
660.698	0.0179054
660.776	0.0178642
660.854	0.0179852
660.933	0.0179539
661.011	0.0178705
661.089	0.0179301
661.167	0.0178297
661.245	0.0179469
661.323	0.0179076
661.401	0.0178026
661.479	0.0179367
661.558	0.0178128
661.636	0.0178786
661.714	0.0178314
661.792	0.0178953
661.870	0.0178847
661.948	0.0177890
662.026	0.0178889
662.104	0.0178075
662.183	0.0178971
662.261	0.0179392
662.339	0.0179084
662.417	0.0178381
662.495	0.0178765
662.573	0.0179061
662.651	0.0178694
662.729	0.0179031
662.808	0.0178925
662.886	0.0177965
662.964	0.0178046
663.042	0.0178310
663.120	0.0178645
663.198	0.0179321
663.276	0.0178834
663.354	0.0178472
663.433	0.0179332
663.511	0.0179717
663.589	0.0178493
663.667	0.0177489
663.745	0.0179932
663.823	0.0178899
663.901	0.0178720
663.979	0.0178641
664.058	0.0178465
664.136	0.0177734
664.214	0.0178495
664.292	0.0179266
664.370	0.0179237
664.448	0.0178130
664.526	0.0178096
664.604	0.0178584
664.683	0.0179191
664.761	0.0179662
664.839	0.0177991
664.917	0.0178674
664.995	0.0179578
665.073	0.0178089
665.151	0.0178183
665.229	0.0179183
665.308	0.0178733
665.386	0.0178819
665.464	0.0178564
665.542	0.0179684
665.620	0.0178683
665.698	0.0178764
665.776	0.0178735
665.854	0.0178876
665.933	0.0179802
666.011	0.0178887
666.089	0.0179140
666.167	0.0178259
666.245	0.0179318
666.323	0.0178468
666.401	0.0179166
666.479	0.0179128
666.558	0.0179110
666.636	0.0179961
666.714	0.0179150
666.792	0.0178066
666.870	0.0178546
666.948	0.0179229
667.026	0.0177452
667.104	0.0179848
667.183	0.0179492
667.261	0.0177682
667.339	0.0178519
667.417	0.0180077
667.495	0.0178599
667.573	0.0178711
667.651	0.0179575
667.729	0.0180277
667.808	0.0178161
667.886	0.0178749
667.964	0.0179542
668.042	0.0178381
668.120	0.0179888
668.198	0.0180846
668.276	0.0178454
668.354	0.0177802
668.433	0.0178967
668.511	0.0179836
668.589	0.0179760
668.667	0.0178660
668.745	0.0177823
668.823	0.0180598
668.901	0.0179482
668.979	0.0178845
669.058	0.0179485
669.136	0.0179008
669.214	0.0180173
669.292	0.0179856
669.370	0.0178909
669.448	0.0180215
669.526	0.0179141
669.604	0.0178303
669.683	0.0179202
669.761	0.0179103
669.839	0.0178520
669.917	0.0178815
669.995	0.0179200
670.073	0.0178495
670.151	0.0178938
670.229	0.0178828
670.308	0.0178743
670.386	0.0179356
670.464	0.0178823
670.542	0.0178545
670.620	0.0179503
670.698	0.0178932
670.776	0.0178144
670.854	0.0178481
670.933	0.0178874
671.011	0.0177464
671.089	0.0180137
671.167	0.0179829
671.245	0.0179708
671.323	0.0179369
671.401	0.0179942
671.479	0.0178543
671.558	0.0178289
671.636	0.0179549
671.714	0.0178029
671.792	0.0178054
671.870	0.0180296
671.948	0.0178236
672.026	0.0179749
672.104	0.0178456
672.183	0.0178162
672.261	0.0178716
672.339	0.0179308
672.417	0.0180553
672.495	0.0178865
672.573	0.0179177
672.651	0.0179594
672.729	0.0178803
672.808	0.0179512
672.886	0.0180438
672.964	0.0179573
673.042	0.0179835
673.120	0.0180180
673.198	0.0178461
673.276	0.0179914
673.354	0.0179829
673.433	0.0178938
673.511	0.0179222
673.589	0.0179112
673.667	0.0179189
673.745	0.0180045
673.823	0.0179182
673.901	0.0179531
673.979	0.0179234
674.058	0.0180436
674.136	0.0179863
674.214	0.0179379
674.292	0.0179717
674.370	0.0180677
674.448	0.0179176
674.526	0.0179581
674.604	0.0179683
674.683	0.0179746
674.761	0.0178909
674.839	0.0178810
674.917	0.0179292
674.995	0.0179140
675.073	0.0179541
675.151	0.0179910
675.229	0.0179652
675.308	0.0177637
675.386	0.0178446
675.464	0.0179192
675.542	0.0179966
675.620	0.0178970
675.698	0.0178548
675.776	0.0179920
675.854	0.0178041
675.933	0.0178042
676.011	0.0180569
676.089	0.0179070
676.167	0.0180241
676.245	0.0179076
676.323	0.0178976
676.401	0.0178909
676.479	0.0179642
676.558	0.0179719
676.636	0.0179440
676.714	0.0179688
676.792	0.0179148
676.870	0.0180112
676.948	0.0178376
677.026	0.0178687
677.104	0.0179778
677.183	0.0178101
677.261	0.0179316
677.339	0.0179549
677.417	0.0180038
677.495	0.0179077
677.573	0.0178735
677.651	0.0180309
677.729	0.0179592
677.808	0.0178952
677.886	0.0179460
677.964	0.0179456
678.042	0.0179811
678.120	0.0179805
678.198	0.0179933
678.276	0.0178926
678.354	0.0179642
678.433	0.0179423
678.511	0.0180838
678.589	0.0179470
678.667	0.0178233
678.745	0.0178611
678.823	0.0178959
678.901	0.0180136
678.979	0.0179495
679.058	0.0178516
679.136	0.0180013
679.214	0.0179036
679.292	0.0178790
679.370	0.0180360
679.448	0.0180498
679.526	0.0179807
679.604	0.0179156
679.683	0.0179095
679.761	0.0179792
679.839	0.0180547
679.917	0.0179292
679.995	0.0179710
680.073	0.0179314
680.151	0.0180695
680.229	0.0179299
680.308	0.0178860
680.386	0.0178863
680.464	0.0180127
680.542	0.0177444
680.620	0.0178671
680.698	0.0180367
680.776	0.0178612
680.854	0.0179605
680.933	0.0180086
681.011	0.0179808
681.089	0.0179626
681.167	0.0178789
681.245	0.0179137
681.323	0.0180000
681.401	0.0179281
681.479	0.0179496
681.558	0.0179643
681.636	0.0180421
681.714	0.0179671
681.792	0.0178451
681.870	0.0178643
681.948	0.0179286
682.026	0.0179741
682.104	0.0178923
682.183	0.0179956
682.261	0.0179129
682.339	0.0180431
682.417	0.0179005
682.495	0.0179405
682.573	0.0178717
682.651	0.0178732
682.729	0.0177538
682.808	0.0180254
682.886	0.0179991
682.964	0.0179111
683.042	0.0179197
683.120	0.0179438
683.198	0.0179951
683.276	0.0178609
683.354	0.0178365
683.433	0.0180422
683.511	0.0179420
683.589	0.0179755
683.667	0.0179041
683.745	0.0177890
683.823	0.0177830
683.901	0.0178533
683.979	0.0178643
684.058	0.0179485
684.136	0.0178257
684.214	0.0178673
684.292	0.0180414
684.370	0.0178644
684.448	0.0178665
684.526	0.0181713
684.604	0.0180188
684.683	0.0180797
684.761	0.0179827
684.839	0.0180511
684.917	0.0180643
684.995	0.0181295
685.073	0.0181021
685.151	0.0179961
685.229	0.0178770
685.308	0.0176971
685.386	0.0176537
685.464	0.0175328
685.542	0.0176403
685.620	0.0175385
685.698	0.0175552
685.776	0.0176115
685.854	0.0177090
685.933	0.0178359
686.011	0.0180294
686.089	0.0181761
686.167	0.0181622
686.245	0.0182779
686.323	0.0183028
686.401	0.0183180
686.479	0.0182297
686.558	0.0182294
686.636	0.0182349
686.714	0.0179689
686.792	0.0179923
686.870	0.0180128
686.948	0.0178763
687.026	0.0177743
687.104	0.0176451
687.183	0.0175761
687.261	0.0174081
687.339	0.0173518
687.417	0.0172048
687.495	0.0172144
687.573	0.0173849
687.651	0.0174532
687.729	0.0174905
687.808	0.0178188
687.886	0.0180347
687.964	0.0181266
688.042	0.0182589
688.120	0.0184724
688.198	0.0183984
688.276	0.0185232
688.354	0.0186346
688.433	0.0185730
688.511	0.0183099
688.589	0.0181281
688.667	0.0181162
688.745	0.0178561
688.823	0.0176416
688.901	0.0174543
688.979	0.0173120
689.058	0.0173155
689.136	0.0172636
689.214	0.0172426
689.292	0.0172737
689.370	0.0172405
689.448	0.0172750
689.526	0.0172897
689.604	0.0175793
689.683	0.0177126
689.761	0.0180007
689.839	0.0182841
689.917	0.0184213
689.995	0.0185370
690.073	0.0185850
690.151	0.0187048
690.229	0.0187185
690.308	0.0186911
690.386	0.0185486
690.464	0.0185616
690.542	0.0184087
690.620	0.0181332
690.698	0.0179296
690.776	0.0176755
690.854	0.0174047
690.933	0.0173784
691.011	0.0171218
691.089	0.0170963
691.167	0.0170828
691.245	0.0173994
691.323	0.0174237
691.401	0.0175005
691.479	0.0177881
691.558	0.0179109
691.636	0.0181510
691.714	0.0181265
691.792	0.0181760
691.870	0.0183538
691.948	0.0183568
692.026	0.0182866
692.104	0.0181501
692.183	0.0179293
692.261	0.0178484
692.339	0.0177906
692.417	0.0178384
692.495	0.0176488
692.573	0.0177776
692.651	0.0177999
692.729	0.0177486
692.808	0.0177773
692.886	0.0177724
692.964	0.0175758
693.042	0.0176495
693.120	0.0175726
693.198	0.0175797
693.276	0.0178135
693.354	0.0181426
693.433	0.0181010
693.511	0.0183794
693.589	0.0186617
693.667	0.0187848
693.745	0.0190082
693.823	0.0190924
693.901	0.0191047
693.979	0.0192576
694.058	0.0189455
694.136	0.0187875
694.214	0.0184894
694.292	0.0183017
694.370	0.0180688
694.448	0.0176257
694.526	0.0175085
694.604	0.0170918
694.683	0.0167525
694.761	0.0166377
694.839	0.0165161
694.917	0.0165642
694.995	0.0165234
695.073	0.0163905
695.151	0.0165601
695.229	0.0166421
695.308	0.0166794
695.386	0.0169246
695.464	0.0172787
695.542	0.0175603
695.620	0.0178021
695.698	0.0180968
695.776	0.0182664
695.854	0.0185886
695.933	0.0187258
696.011	0.0189722
696.089	0.0188181
696.167	0.0190320
696.245	0.0189748
696.323	0.0190923
696.401	0.0185348
696.479	0.0186566
696.558	0.0184893
696.636	0.0185118
696.714	0.0183493
696.792	0.0183419
696.870	0.0184055
696.948	0.0184126
697.026	0.0185490
697.104	0.0188213
697.183	0.0188911
697.261	0.0190369
697.339	0.0193224
697.417	0.0192451
697.495	0.0192963
697.573	0.0192632
697.651	0.0191279
697.729	0.0190486
697.808	0.0188141
697.886	0.0185786
697.964	0.0182606
698.042	0.0181987
698.120	0.0178341
698.198	0.0174031
698.276	0.0169274
698.354	0.0166022
698.433	0.0159106
698.511	0.0156034
698.589	0.0152531
698.667	0.0148806
698.745	0.0145467
698.823	0.0143589
698.901	0.0141232
698.979	0.0143164
699.058	0.0146520
699.136	0.0150247
699.214	0.0154432
699.292	0.0159731
699.370	0.0166947
699.448	0.0172916
699.526	0.0180004
699.604	0.0185114
699.683	0.0190652
699.761	0.0195541
699.839	0.0198479
699.917	0.0202875
699.995	0.0205122
700.073	0.0207779
700.151	0.0210300
700.229	0.0209715
700.308	0.0211539
700.386	0.0211148
700.464	0.0209685
700.542	0.0206416
700.620	0.0204512
700.698	0.0200674
700.776	0.0200375
700.854	0.0197304
700.933	0.0193479
701.011	0.0191500
701.089	0.0190206
701.167	0.0187196
701.245	0.0184319
701.323	0.0183964
701.401	0.0182419
701.479	0.0180081
701.558	0.0178053
701.636	0.0178825
701.714	0.0177711
701.792	0.0175208
701.870	0.0175790
701.948	0.0173864
702.026	0.0172875
702.104	0.0172929
702.183	0.0169942
702.261	0.0168805
702.339	0.0166220
702.417	0.0163564
702.495	0.0160741
702.573	0.0156692
702.651	0.0153312
702.729	0.0151228
702.808	0.0149788
702.886	0.0145750
702.964	0.0144363
703.042	0.0142846
703.120	0.0141647
703.198	0.0139664
703.276	0.0140078
703.354	0.0141220
703.433	0.0146320
703.511	0.0150227
703.589	0.0154827
703.667	0.0162413
703.745	0.0169050
703.823	0.0176422
703.901	0.0184509
703.979	0.0193812
704.058	0.0200220
704.136	0.0206232
704.214	0.0211443
704.292	0.0216810
704.370	0.0218668
704.448	0.0222267
704.526	0.0223900
704.604	0.0224735
704.683	0.0223254
704.761	0.0222614
704.839	0.0220676
704.917	0.0217312
704.995	0.0214645
705.073	0.0211456
705.151	0.0207020
705.229	0.0202213
705.308	0.0198003
705.386	0.0195564
705.464	0.0192128
705.542	0.0189050
705.620	0.0188262
705.698	0.0186301
705.776	0.0183441
705.854	0.0181556
705.933	0.0179454
706.011	0.0176614
706.089	0.0173220
706.167	0.0171783
706.245	0.0167475
706.323	0.0163064
706.401	0.0159237
706.479	0.0157085
706.558	0.0153912
706.636	0.0151934
706.714	0.0150098
706.792	0.0149089
706.870	0.0150226
706.948	0.0150303
707.026	0.0149026
707.104	0.0150589
707.183	0.0152714
707.261	0.0155149
707.339	0.0155509
707.417	0.0157885
707.495	0.0159859
707.573	0.0159895
707.651	0.0162091
707.729	0.0162119
707.808	0.0161032
707.886	0.0161465
707.964	0.0164180
708.042	0.0163133
708.120	0.0164243
708.198	0.0166519
708.276	0.0167955
708.354	0.0172510
708.433	0.0175400
708.511	0.0178975
708.589	0.0182085
708.667	0.0184699
708.745	0.0188128
708.823	0.0189767
708.901	0.0190632
708.979	0.0191134
709.058	0.0192740
709.136	0.0193992
709.214	0.0194973
709.292	0.0196752
709.370	0.0200121
709.448	0.0203680
709.526	0.0207220
709.604	0.0211434
709.683	0.0213676
709.761	0.0217527
709.839	0.0220885
709.917	0.0223485
709.995	0.0225639
710.073	0.0226687
710.151	0.0225811
710.229	0.0224125
710.308	0.0222083
710.386	0.0218703
710.464	0.0213122
710.542	0.0208627
710.620	0.0204775
710.698	0.0200094
710.776	0.0193408
710.854	0.0187121
710.933	0.0181791
711.011	0.0176722
711.089	0.0170338
711.167	0.0165615
711.245	0.0160606
711.323	0.0154495
711.401	0.0148193
711.479	0.0143750
711.558	0.0138731
711.636	0.0133123
711.714	0.0129360
711.792	0.0124959
711.870	0.0120597
711.948	0.0117267
712.026	0.0114019
712.104	0.0113425
712.183	0.0111599
712.261	0.0112846
712.339	0.0116397
712.417	0.0117069
712.495	0.0121496
712.573	0.0128584
712.651	0.0131485
712.729	0.0139637
712.808	0.0147227
712.886	0.0155199
712.964	0.0161401
713.042	0.0170728
713.120	0.0177180
713.198	0.0186014
713.276	0.0194089
713.354	0.0200860
713.433	0.0209754
713.511	0.0217000
713.589	0.0225524
713.667	0.0232131
713.745	0.0239040
713.823	0.0243583
713.901	0.0249084
713.979	0.0252842
714.058	0.0256636
714.136	0.0257182
714.214	0.0255923
714.292	0.0253712
714.370	0.0249090
714.448	0.0244274
714.526	0.0239073
714.604	0.0232700
714.683	0.0224636
714.761	0.0216602
714.839	0.0209173
714.917	0.0201225
714.995	0.0195020
715.073	0.0187258
715.151	0.0178815
715.229	0.0171874
715.308	0.0168075
715.386	0.0161394
715.464	0.0156176
715.542	0.0150600
715.620	0.0144508
715.698	0.0141338
715.776	0.0136604
715.854	0.0131815
715.933	0.0126767
716.011	0.0125272
716.089	0.0121680
716.167	0.0119661
716.245	0.0117397
716.323	0.0117281
716.401	0.0118076
716.479	0.0117712
716.558	0.0119562
716.636	0.0122828
716.714	0.0124575
716.792	0.0128212
716.870	0.0134536
716.948	0.0140983
717.026	0.0146280
717.104	0.0152626
717.183	0.0162293
717.261	0.0168861
717.339	0.0175784
717.417	0.0182992
717.495	0.0189571
717.573	0.0198173
717.651	0.0204526
717.729	0.0210555
717.808	0.0215848
717.886	0.0219746
717.964	0.0225211
718.042	0.0226785
718.120	0.0228148
718.198	0.0231052
718.276	0.0229427
718.354	0.0228969
718.433	0.0228773
718.511	0.0226847
718.589	0.0225659
718.667	0.0224649
718.745	0.0223502
718.823	0.0221622
718.901	0.0219497
718.979	0.0217129
719.058	0.0212962
719.136	0.0207157
719.214	0.0203802
719.292	0.0198269
719.370	0.0191273
719.448	0.0187840
719.526	0.0182719
719.604	0.0177354
719.683	0.0171026
719.761	0.0167980
719.839	0.0162666
719.917	0.0160236
719.995	0.0156071
720.073	0.0153136
720.151	0.0147635
720.229	0.0145655
720.308	0.0142210
720.386	0.0137659
720.464	0.0135298
720.542	0.0135169
720.620	0.0132811
720.698	0.0132024
720.776	0.0133193
720.854	0.0134117
720.933	0.0137154
721.011	0.0139586
721.089	0.0142860
721.167	0.0148576
721.245	0.0153434
721.323	0.0157972
721.401	0.0162237
721.479	0.0167916
721.558	0.0174001
721.636	0.0176598
721.714	0.0180016
721.792	0.0183164
721.870	0.0186322
721.948	0.0189316
722.026	0.0191588
722.104	0.0194669
722.183	0.0194708
722.261	0.0197307
722.339	0.0198425
722.417	0.0200095
722.495	0.0202251
722.573	0.0203435
722.651	0.0205845
722.729	0.0207959
722.808	0.0210614
722.886	0.0211488
722.964	0.0215592
723.042	0.0218856
723.120	0.0222167
723.198	0.0222123
723.276	0.0222169
723.354	0.0221258
723.433	0.0218776
723.511	0.0214361
723.589	0.0210537
723.667	0.0205073
723.745	0.0197597
723.823	0.0192300
723.901	0.0186218
723.979	0.0178860
724.058	0.0171720
724.136	0.0166757
724.214	0.0161304
724.292	0.0155547
724.370	0.0153039
724.448	0.0149748
724.526	0.0147880
724.604	0.0146490
724.683	0.0145348
724.761	0.0145773
724.839	0.0146739
724.917	0.0146644
724.995	0.0146888
725.073	0.0148052
725.151	0.0150822
725.229	0.0153095
725.308	0.0154174
725.386	0.0156435
725.464	0.0158009
725.542	0.0160867
725.620	0.0161294
725.698	0.0163045
725.776	0.0166362
725.854	0.0166586
725.933	0.0169305
726.011	0.0172872
726.089	0.0175046
726.167	0.0178224
726.245	0.0178655
726.323	0.0182710
726.401	0.0186013
726.479	0.0188743
726.558	0.0190559
726.636	0.0193385
726.714	0.0196913
726.792	0.0198357
726.870	0.0198992
726.948	0.0201532
727.026	0.0201272
727.104	0.0203310
727.183	0.0204543
727.261	0.0203947
727.339	0.0203957
727.417	0.0203703
727.495	0.0204668
727.573	0.0204649
727.651	0.0204015
727.729	0.0202760
727.808	0.0199141
727.886	0.0198523
727.964	0.0196397
728.042	0.0193150
728.120	0.0190325
728.198	0.0186129
728.276	0.0183688
728.354	0.0179610
728.433	0.0176520
728.511	0.0175571
728.589	0.0172659
728.667	0.0171370
728.745	0.0170001
728.823	0.0170753
728.901	0.0168941
728.979	0.0167530
729.058	0.0168452
729.136	0.0168390
729.214	0.0168230
729.292	0.0168379
729.370	0.0167239
729.448	0.0166866
729.526	0.0165662
729.604	0.0164585
729.683	0.0163242
729.761	0.0163496
729.839	0.0162303
729.917	0.0161806
729.995	0.0161103
730.073	0.0161554
730.151	0.0162356
730.229	0.0162417
730.308	0.0164085
730.386	0.0164073
730.464	0.0166380
730.542	0.0167681
730.620	0.0170033
730.698	0.0172213
730.776	0.0174359
730.854	0.0176763
730.933	0.0178164
731.011	0.0181517
731.089	0.0181400
731.167	0.0184095
731.245	0.0186784
731.323	0.0189420
731.401	0.0189768
731.479	0.0190654
731.558	0.0193021
731.636	0.0192866
731.714	0.0192068
731.792	0.0193031
731.870	0.0191573
731.948	0.0193382
732.026	0.0193700
732.104	0.0194395
732.183	0.0195150
732.261	0.0196434
732.339	0.0195811
732.417	0.0194497
732.495	0.0195766
732.573	0.0195464
732.651	0.0193539
732.729	0.0193341
732.808	0.0191180
732.886	0.0189684
732.964	0.0188324
733.042	0.0186179
733.120	0.0183714
733.198	0.0181580
733.276	0.0179114
733.354	0.0177458
733.433	0.0174673
733.511	0.0174200
733.589	0.0173256
733.667	0.0171349
733.745	0.0167522
733.823	0.0168965
733.901	0.0168296
733.979	0.0168057
734.058	0.0165381
734.136	0.0165956
734.214	0.0164636
734.292	0.0165369
734.370	0.0163269
734.448	0.0166088
734.526	0.0165583
734.604	0.0165797
734.683	0.0166797
734.761	0.0165700
734.839	0.0166333
734.917	0.0166139
734.995	0.0167614
735.073	0.0166358
735.151	0.0166707
735.229	0.0169020
735.308	0.0171481
735.386	0.0172298
735.464	0.0172990
735.542	0.0174961
735.620	0.0177301
735.698	0.0178898
735.776	0.0181819
735.854	0.0184772
735.933	0.0185832
736.011	0.0187148
736.089	0.0188374
736.167	0.0190698
736.245	0.0191592
736.323	0.0192036
736.401	0.0193906
736.479	0.0193628
736.558	0.0194496
736.636	0.0194447
736.714	0.0195151
736.792	0.0194274
736.870	0.0195987
736.948	0.0195580
737.026	0.0195621
737.104	0.0193443
737.183	0.0192252
737.261	0.0191966
737.339	0.0189585
737.417	0.0188110
737.495	0.0185189
737.573	0.0185560
737.651	0.0182619
737.729	0.0180610
737.808	0.0179179
737.886	0.0177535
737.964	0.0176680
738.042	0.0174714
738.120	0.0174392
738.198	0.0174472
738.276	0.0170324
738.354	0.0170360
738.433	0.0170968
738.511	0.0167754
738.589	0.0167673
738.667	0.0166361
738.745	0.0166343
738.823	0.0167563
738.901	0.0165295
738.979	0.0166490
739.058	0.0167716
739.136	0.0169408
739.214	0.0168725
739.292	0.0170390
739.370	0.0171382
739.448	0.0171686
739.526	0.0172976
739.604	0.0174310
739.683	0.0175530
739.761	0.0176634
739.839	0.0177870
739.917	0.0180018
739.995	0.0179728
740.073	0.0181480
740.151	0.0182544
740.229	0.0182264
740.308	0.0182687
740.386	0.0182159
740.464	0.0183231
740.542	0.0181689
740.620	0.0181641
740.698	0.0181878
740.776	0.0181238
740.854	0.0179919
740.933	0.0181116
741.011	0.0180807
741.089	0.0180925
741.167	0.0180730
741.245	0.0181873
741.323	0.0183295
741.401	0.0184446
741.479	0.0184745
741.558	0.0187211
741.636	0.0187970
741.714	0.0190009
741.792	0.0190643
741.870	0.0190444
741.948	0.0191646
742.026	0.0191493
742.104	0.0190405
742.183	0.0189097
742.261	0.0188467
742.339	0.0187321
742.417	0.0186129
742.495	0.0184343
742.573	0.0182304
742.651	0.0179607
742.729	0.0177270
742.808	0.0174192
742.886	0.0173308
742.964	0.0172085
743.042	0.0169998
743.120	0.0168472
743.198	0.0168620
743.276	0.0166595
743.354	0.0166119
743.433	0.0167141
743.511	0.0167591
743.589	0.0167399
743.667	0.0167208
743.745	0.0169830
743.823	0.0170884
743.901	0.0171589
743.979	0.0172416
744.058	0.0174846
744.136	0.0176141
744.214	0.0177603
744.292	0.0178172
744.370	0.0179269
744.448	0.0179183
744.526	0.0181321
744.604	0.0180645
744.683	0.0181929
744.761	0.0183430
744.839	0.0181029
744.917	0.0182413
744.995	0.0182299
745.073	0.0182384
745.151	0.0183080
745.229	0.0184593
745.308	0.0181749
745.386	0.0182590
745.464	0.0182218
745.542	0.0181699
745.620	0.0182493
745.698	0.0180748
745.776	0.0180483
745.854	0.0180676
745.933	0.0182372
746.011	0.0182526
746.089	0.0181371
746.167	0.0181023
746.245	0.0182465
746.323	0.0184618
746.401	0.0185860
746.479	0.0185147
746.558	0.0184806
746.636	0.0186307
746.714	0.0185682
746.792	0.0184162
746.870	0.0183667
746.948	0.0183028
747.026	0.0181902
747.104	0.0177880
747.183	0.0177794
747.261	0.0176337
747.339	0.0174644
747.417	0.0174519
747.495	0.0173582
747.573	0.0171799
747.651	0.0172078
747.729	0.0172450
747.808	0.0171700
747.886	0.0172355
747.964	0.0172878
748.042	0.0172913
748.120	0.0172887
748.198	0.0171979
748.276	0.0174928
748.354	0.0174986
748.433	0.0175936
748.511	0.0176723
748.589	0.0178136
748.667	0.0178205
748.745	0.0179732
748.823	0.0179417
748.901	0.0181039
748.979	0.0182185
749.058	0.0182709
749.136	0.0182544
749.214	0.0184071
749.292	0.0185603
749.370	0.0184327
749.448	0.0185287
749.526	0.0184412
749.604	0.0184312
749.683	0.0184001
749.761	0.0184627
749.839	0.0185040
749.917	0.0184122
749.995	0.0184074
750.073	0.0185500
750.151	0.0185614
750.229	0.0184456
750.308	0.0185531
750.386	0.0185363
750.464	0.0185641
750.542	0.0185456
750.620	0.0185393
750.698	0.0185355
750.776	0.0186464
750.854	0.0185507
750.933	0.0184299
751.011	0.0182750
751.089	0.0181385
751.167	0.0178101
751.245	0.0179193
751.323	0.0176876
751.401	0.0175998
751.479	0.0173776
751.558	0.0173663
751.636	0.0170167
751.714	0.0169771
751.792	0.0169585
751.870	0.0167326
751.948	0.0167466
752.026	0.0167473
752.104	0.0166546
752.183	0.0165759
752.261	0.0168459
752.339	0.0168447
752.417	0.0168484
752.495	0.0168486
752.573	0.0170279
752.651	0.0172129
752.729	0.0172087
752.808	0.0173293
752.886	0.0174798
752.964	0.0176092
753.042	0.0177794
753.120	0.0179070
753.198	0.0179749
753.276	0.0179777
753.354	0.0182312
753.433	0.0182368
753.511	0.0181989
753.589	0.0183282
753.667	0.0185557
753.745	0.0186478
753.823	0.0186119
753.901	0.0185963
753.979	0.0187578
754.058	0.0187298
754.136	0.0188661
754.214	0.0188190
754.292	0.0189976
754.370	0.0188570
754.448	0.0189432
754.526	0.0188885
754.604	0.0187178
754.683	0.0188499
754.761	0.0186173
754.839	0.0185482
754.917	0.0186140
754.995	0.0186913
755.073	0.0186162
755.151	0.0183753
755.229	0.0183319
755.308	0.0184776
755.386	0.0180871
755.464	0.0179794
755.542	0.0178977
755.620	0.0175806
755.698	0.0175527
755.776	0.0174977
755.854	0.0173058
755.933	0.0170672
756.011	0.0169586
756.089	0.0167669
756.167	0.0167296
756.245	0.0166548
756.323	0.0165528
756.401	0.0166721
756.479	0.0167072
756.558	0.0167468
756.636	0.0168769
756.714	0.0169106
756.792	0.0171115
756.870	0.0171753
756.948	0.0173930
757.026	0.0175214
757.104	0.0176874
757.183	0.0177631
757.261	0.0178925
757.339	0.0179646
757.417	0.0181224
757.495	0.0181297
757.573	0.0183409
757.651	0.0183128
757.729	0.0184604
757.808	0.0184492
757.886	0.0186153
757.964	0.0186021
758.042	0.0186936
758.120	0.0188618
758.198	0.0188266
758.276	0.0187195
758.354	0.0189020
758.433	0.0189012
758.511	0.0190069
758.589	0.0190076
758.667	0.0189228
758.745	0.0188720
758.823	0.0188930
758.901	0.0188725
758.979	0.0186234
759.058	0.0185714
759.136	0.0183764
759.214	0.0183238
759.292	0.0182063
759.370	0.0180377
759.448	0.0176736
759.526	0.0177088
759.604	0.0176644
759.683	0.0174558
759.761	0.0174928
759.839	0.0174831
759.917	0.0174128
759.995	0.0173366
760.073	0.0171468
760.151	0.0171824
760.229	0.0171764
760.308	0.0170638
760.386	0.0171030
760.464	0.0170543
760.542	0.0170311
760.620	0.0171013
760.698	0.0171028
760.776	0.0171302
760.854	0.0171659
760.933	0.0171487
761.011	0.0173794
761.089	0.0173898
761.167	0.0175172
761.245	0.0175425
761.323	0.0177231
761.401	0.0178500
761.479	0.0178592
761.558	0.0179707
761.636	0.0182421
761.714	0.0182845
761.792	0.0183322
761.870	0.0184647
761.948	0.0185874
762.026	0.0188001
762.104	0.0187434
762.183	0.0188688
762.261	0.0188986
762.339	0.0189300
762.417	0.0190776
762.495	0.0190771
762.573	0.0191319
762.651	0.0191184
762.729	0.0190992
762.808	0.0191962
762.886	0.0190344
762.964	0.0188519
763.042	0.0186806
763.120	0.0185571
763.198	0.0185411
763.276	0.0182594
763.354	0.0181627
763.433	0.0179391
763.511	0.0178096
763.589	0.0177569
763.667	0.0175375
763.745	0.0174142
763.823	0.0172752
763.901	0.0171231
763.979	0.0169588
764.058	0.0168650
764.136	0.0170271
764.214	0.0169402
764.292	0.0168123
764.370	0.0169323
764.448	0.0170126
764.526	0.0170443
764.604	0.0171212
764.683	0.0170598
764.761	0.0172443
764.839	0.0172521
764.917	0.0175423
764.995	0.0176267
765.073	0.0175029
765.151	0.0175165
765.229	0.0175404
765.308	0.0176786
765.386	0.0178539
765.464	0.0178728
765.542	0.0178553
765.620	0.0179729
765.698	0.0179961
765.776	0.0181090
765.854	0.0182990
765.933	0.0183443
766.011	0.0182066
766.089	0.0182795
766.167	0.0183859
766.245	0.0185989
766.323	0.0185051
766.401	0.0184947
766.479	0.0186163
766.558	0.0186174
766.636	0.0185472
766.714	0.0185966
766.792	0.0186056
766.870	0.0185814
766.948	0.0186697
767.026	0.0184875
767.104	0.0184690
767.183	0.0184588
767.261	0.0184010
767.339	0.0183933
767.417	0.0182030
767.495	0.0180783
767.573	0.0181590
767.651	0.0180584
767.729	0.0179224
767.808	0.0177982
767.886	0.0177607
767.964	0.0176991
768.042	0.0174209
768.120	0.0176223
768.198	0.0173259
768.276	0.0171923
768.354	0.0171726
768.433	0.0170930
768.511	0.0172592
768.589	0.0172160
768.667	0.0170920
768.745	0.0172300
768.823	0.0172573
768.901	0.0173027
768.979	0.0173683
769.058	0.0176334
769.136	0.0176572
769.214	0.0178728
769.292	0.0179502
769.370	0.0179242
769.448	0.0180726
769.526	0.0181277
769.604	0.0182202
769.683	0.0182511
769.761	0.0183269
769.839	0.0181639
769.917	0.0182252
769.995	0.0182499
770.073	0.0182464
770.151	0.0182944
770.229	0.0182996
770.308	0.0183939
770.386	0.0183975
770.464	0.0185567
770.542	0.0183975
770.620	0.0184613
770.698	0.0185206
770.776	0.0184618
770.854	0.0184246
770.933	0.0184656
771.011	0.0183671
771.089	0.0184374
771.167	0.0181051
771.245	0.0183412
771.323	0.0181405
771.401	0.0180318
771.479	0.0179405
771.558	0.0179709
771.636	0.0177498
771.714	0.0177869
771.792	0.0178414
771.870	0.0177781
771.948	0.0175819
772.026	0.0174475
772.104	0.0172923
772.183	0.0175219
772.261	0.0172371
772.339	0.0173309
772.417	0.0174168
772.495	0.0171835
772.573	0.0170698
772.651	0.0172880
772.729	0.0172381
772.808	0.0172459
772.886	0.0172597
772.964	0.0174637
773.042	0.0174680
773.120	0.0174065
773.198	0.0173523
773.276	0.0174961
773.354	0.0173784
773.433	0.0176358
773.511	0.0175828
773.589	0.0176849
773.667	0.0178234
773.745	0.0178243
773.823	0.0179653
773.901	0.0179691
773.979	0.0181113
774.058	0.0180017
774.136	0.0180622
774.214	0.0182761
774.292	0.0182887
774.370	0.0183475
774.448	0.0182958
774.526	0.0184813
774.604	0.0184993
774.683	0.0184938
774.761	0.0184872
774.839	0.0185661
774.917	0.0186395
774.995	0.0184466
775.073	0.0186879
775.151	0.0186309
775.229	0.0183960
775.308	0.0185058
775.386	0.0183659
775.464	0.0183086
775.542	0.0182848
775.620	0.0181812
775.698	0.0179601
775.776	0.0179721
775.854	0.0177939
775.933	0.0177174
776.011	0.0176652
776.089	0.0175313
776.167	0.0173966
776.245	0.0173920
776.323	0.0173335
776.401	0.0173424
776.479	0.0173670
776.558	0.0172961
776.636	0.0172531
776.714	0.0173217
776.792	0.0173061
776.870	0.0172710
776.948	0.0174291
777.026	0.0175091
777.104	0.0174874
777.183	0.0174983
777.261	0.0176832
777.339	0.0176075
777.417	0.0176515
777.495	0.0178049
777.573	0.0177011
777.651	0.0176743
777.729	0.0177424
777.808	0.0178928
777.886	0.0179374
777.964	0.0179008
778.042	0.0178040
778.120	0.0179764
778.198	0.0180266
778.276	0.0180914
778.354	0.0179934
778.433	0.0179539
778.511	0.0179842
778.589	0.0182190
778.667	0.0182743
778.745	0.0182074
778.823	0.0182999
778.901	0.0183344
778.979	0.0183129
779.058	0.0181592
779.136	0.0183165
779.214	0.0182668
779.292	0.0184051
779.370	0.0185099
779.448	0.0184355
779.526	0.0183647
779.604	0.0182635
779.683	0.0182542
779.761	0.0183363
779.839	0.0183075
779.917	0.0180074
779.995	0.0180802
780.073	0.0177887
780.151	0.0179151
780.229	0.0179147
780.308	0.0177602
780.386	0.0177786
780.464	0.0176869
780.542	0.0175894
780.620	0.0173252
780.698	0.0173131
780.776	0.0172659
780.854	0.0174161
780.933	0.0174601
781.011	0.0173806
781.089	0.0175047
781.167	0.0174634
781.245	0.0173763
781.323	0.0174680
781.401	0.0175555
781.479	0.0175682
781.558	0.0176623
781.636	0.0176185
781.714	0.0176591
781.792	0.0178899
781.870	0.0179759
781.948	0.0179513
782.026	0.0179208
782.104	0.0180935
782.183	0.0180638
782.261	0.0179849
782.339	0.0181865
782.417	0.0181549
782.495	0.0184125
782.573	0.0182356
782.651	0.0181180
782.729	0.0181807
782.808	0.0181818
782.886	0.0181561
782.964	0.0182272
783.042	0.0181609
783.120	0.0181344
783.198	0.0182764
783.276	0.0182320
783.354	0.0182145
783.433	0.0182073
783.511	0.0180791
783.589	0.0181632
783.667	0.0181365
783.745	0.0180567
783.823	0.0179340
783.901	0.0181514
783.979	0.0179314
784.058	0.0179404
784.136	0.0178525
784.214	0.0177923
784.292	0.0178118
784.370	0.0177579
784.448	0.0176703
784.526	0.0174925
784.604	0.0174281
784.683	0.0175742
784.761	0.0175154
784.839	0.0175734
784.917	0.0175533
784.995	0.0174125
785.073	0.0175925
785.151	0.0175346
785.229	0.0175739
785.308	0.0177941
785.386	0.0177288
785.464	0.0177763
785.542	0.0179032
785.620	0.0178262
785.698	0.0178148
785.776	0.0178843
785.854	0.0180116
785.933	0.0182454
786.011	0.0180892
786.089	0.0180408
786.167	0.0181669
786.245	0.0180489
786.323	0.0182125
786.401	0.0181787
786.479	0.0180264
786.558	0.0181675
786.636	0.0182767
786.714	0.0181084
786.792	0.0179742
786.870	0.0182098
786.948	0.0182921
787.026	0.0181895
787.104	0.0181276
787.183	0.0181485
787.261	0.0181528
787.339	0.0182958
787.417	0.0181725
787.495	0.0181549
787.573	0.0182544
787.651	0.0182202
787.729	0.0181800
787.808	0.0180907
787.886	0.0180473
787.964	0.0179743
788.042	0.0180434
788.120	0.0178859
788.198	0.0178949
788.276	0.0178339
788.354	0.0177139
788.433	0.0175939
788.511	0.0177654
788.589	0.0176232
788.667	0.0176652
788.745	0.0176949
788.823	0.0174786
788.901	0.0175690
788.979	0.0176674
789.058	0.0177357
789.136	0.0177118
789.214	0.0176195
789.292	0.0177680
789.370	0.0177736
789.448	0.0178288
789.526	0.0179427
789.604	0.0178304
789.683	0.0179346
789.761	0.0178967
789.839	0.0179645
789.917	0.0179524
789.995	0.0180909
790.073	0.0180164
790.151	0.0181013
790.229	0.0181413
790.308	0.0179314
790.386	0.0180822
790.464	0.0179714
790.542	0.0180791
790.620	0.0181266
790.698	0.0179461
790.776	0.0179774
790.854	0.0178919
790.933	0.0179341
791.011	0.0181131
791.089	0.0178711
791.167	0.0179691
791.245	0.0180958
791.323	0.0180186
791.401	0.0180518
791.479	0.0179414
791.558	0.0182147
791.636	0.0181790
791.714	0.0182763
791.792	0.0181496
791.870	0.0181251
791.948	0.0180614
792.026	0.0181267
792.104	0.0181109
792.183	0.0179488
792.261	0.0180914
792.339	0.0180708
792.417	0.0179693
792.495	0.0180929
792.573	0.0179855
792.651	0.0179482
792.729	0.0180347
792.808	0.0180090
792.886	0.0178981
792.964	0.0179462
793.042	0.0179191
793.120	0.0179113
793.198	0.0177959
793.276	0.0179309
793.354	0.0179182
793.433	0.0178897
793.511	0.0177650
793.589	0.0179443
793.667	0.0179144
793.745	0.0179419
793.823	0.0178988
793.901	0.0177982
793.979	0.0180576
794.058	0.0178426
794.136	0.0178884
794.214	0.0177802
794.292	0.0177284
794.370	0.0177753
794.448	0.0176871
794.526	0.0176337
794.604	0.0177027
794.683	0.0176412
794.761	0.0175439
794.839	0.0176117
794.917	0.0175394
794.995	0.0176983
795.073	0.0175908
795.151	0.0175359
795.229	0.0176645
795.308	0.0177410
795.386	0.0176926
795.464	0.0175865
795.542	0.0176604
795.620	0.0177679
795.698	0.0177744
795.776	0.0179138
795.854	0.0180173
795.933	0.0179614
796.011	0.0180625
796.089	0.0180843
796.167	0.0181632
796.245	0.0181326
796.323	0.0182417
796.401	0.0181343
796.479	0.0182596
796.558	0.0181518
796.636	0.0181573
796.714	0.0182198
796.792	0.0181894
796.870	0.0181295
796.948	0.0182153
797.026	0.0179502
797.104	0.0180023
797.183	0.0180544
797.261	0.0179276
797.339	0.0179379
797.417	0.0179792
797.495	0.0179994
797.573	0.0178411
797.651	0.0178621
797.729	0.0178582
797.808	0.0178930
797.886	0.0180458
797.964	0.0178397
798.042	0.0178439
798.120	0.0179102
798.198	0.0179955
798.276	0.0181210
798.354	0.0177901
798.433	0.0179036
798.511	0.0177982
798.589	0.0178293
798.667	0.0178577
798.745	0.0176349
798.823	0.0174972
798.901	0.0176610
798.979	0.0176459
799.058	0.0175787
799.136	0.0175517
799.214	0.0174670
799.292	0.0175600
799.370	0.0175819
799.448	0.0173789
799.526	0.0175546
799.604	0.0175797
799.683	0.0177081
799.761	0.0175121
799.839	0.0176012
799.917	0.0177410
799.995	0.0178506
800.073	0.0178391
800.151	0.0177208
800.229	0.0178490
800.308	0.0178268
800.386	0.0181089
800.464	0.0181055
800.542	0.0181631
800.620	0.0181617
800.698	0.0183728
800.776	0.0181393
800.854	0.0182896
800.933	0.0182750
801.011	0.0182597
801.089	0.0182702
801.167	0.0181882
801.245	0.0182658
801.323	0.0182507
801.401	0.0181061
801.479	0.0182011
801.558	0.0179461
801.636	0.0180789
801.714	0.0180582
801.792	0.0179620
801.870	0.0179497
801.948	0.0180614
802.026	0.0178660
802.104	0.0178567
802.183	0.0179387
802.261	0.0179818
802.339	0.0178661
802.417	0.0179552
802.495	0.0178849
802.573	0.0177108
802.651	0.0179768
802.729	0.0178301
802.808	0.0177634
802.886	0.0178484
802.964	0.0178297
803.042	0.0175623
803.120	0.0178314
803.198	0.0177483
803.276	0.0177744
803.354	0.0177689
803.433	0.0179363
803.511	0.0178346
803.589	0.0177289
803.667	0.0178033
803.745	0.0177351
803.823	0.0176334
803.901	0.0178687
803.979	0.0177113
804.058	0.0176905
804.136	0.0176398
804.214	0.0178394
804.292	0.0176711
804.370	0.0177470
804.448	0.0178167
804.526	0.0178563
804.604	0.0179770
804.683	0.0178097
804.761	0.0179239
804.839	0.0177255
804.917	0.0178739
804.995	0.0179604
805.073	0.0179162
805.151	0.0178674
805.229	0.0178876
805.308	0.0179831
805.386	0.0178810
805.464	0.0177498
805.542	0.0178889
805.620	0.0180113
805.698	0.0179097
805.776	0.0180719
805.854	0.0180144
805.933	0.0179850
806.011	0.0180896
806.089	0.0181439
806.167	0.0179846
806.245	0.0180280
806.323	0.0180406
806.401	0.0180285
806.479	0.0182698
806.558	0.0180638
806.636	0.0180769
806.714	0.0181087
806.792	0.0181123
806.870	0.0180354
806.948	0.0182011
807.026	0.0181336
807.104	0.0183699
807.183	0.0182887
807.261	0.0183313
807.339	0.0183790
807.417	0.0182969
807.495	0.0182876
807.573	0.0182600
807.651	0.0181593
807.729	0.0180756
807.808	0.0180394
807.886	0.0180198
807.964	0.0178587
808.042	0.0178269
808.120	0.0177001
808.198	0.0177484
808.276	0.0176679
808.354	0.0175567
808.433	0.0175190
808.511	0.0174371
808.589	0.0173624
808.667	0.0171342
808.745	0.0171259
808.823	0.0171748
808.901	0.0173435
808.979	0.0172115
809.058	0.0173120
809.136	0.0173370
809.214	0.0174588
809.292	0.0176772
809.370	0.0175791
809.448	0.0176176
809.526	0.0176999
809.604	0.0178201
809.683	0.0179294
809.761	0.0180553
809.839	0.0180974
809.917	0.0181851
809.995	0.0182289
810.073	0.0183350
810.151	0.0184159
810.229	0.0182134
810.308	0.0183224
810.386	0.0183900
810.464	0.0184386
810.542	0.0183257
810.620	0.0183205
810.698	0.0184476
810.776	0.0184631
810.854	0.0184616
810.933	0.0185386
811.011	0.0185538
811.089	0.0184498
811.167	0.0184576
811.245	0.0185733
811.323	0.0185313
811.401	0.0185078
811.479	0.0185870
811.558	0.0185664
811.636	0.0184863
811.714	0.0184619
811.792	0.0186266
811.870	0.0184985
811.948	0.0181607
812.026	0.0181900
812.104	0.0180065
812.183	0.0180402
812.261	0.0177782
812.339	0.0177158
812.417	0.0176904
812.495	0.0176704
812.573	0.0175974
812.651	0.0173358
812.729	0.0173331
812.808	0.0173924
812.886	0.0172906
812.964	0.0172557
813.042	0.0174010
813.120	0.0173003
813.198	0.0173351
813.276	0.0174365
813.354	0.0173981
813.433	0.0174959
813.511	0.0175785
813.589	0.0175359
813.667	0.0174347
813.745	0.0176732
813.823	0.0176105
813.901	0.0178332
813.979	0.0178042
814.058	0.0176888
814.136	0.0177000
814.214	0.0178497
814.292	0.0179501
814.370	0.0178336
814.448	0.0180481
814.526	0.0179826
814.604	0.0180741
814.683	0.0180503
814.761	0.0181067
814.839	0.0181866
814.917	0.0180596
814.995	0.0182102
815.073	0.0182977
815.151	0.0183875
815.229	0.0183540
815.308	0.0184947
815.386	0.0185194
815.464	0.0184806
815.542	0.0186172
815.620	0.0185470
815.698	0.0185151
815.776	0.0185783
815.854	0.0186555
815.933	0.0186401
816.011	0.0185159
816.089	0.0186063
816.167	0.0185680
816.245	0.0184010
816.323	0.0184298
816.401	0.0184415
816.479	0.0183975
816.558	0.0181539
816.636	0.0181664
816.714	0.0180309
816.792	0.0178580
816.870	0.0178133
816.948	0.0177065
817.026	0.0175883
817.104	0.0175077
817.183	0.0174861
817.261	0.0173978
817.339	0.0173567
817.417	0.0173396
817.495	0.0173544
817.573	0.0173957
817.651	0.0172330
817.729	0.0173669
817.808	0.0174091
817.886	0.0174323
817.964	0.0175275
818.042	0.0174805
818.120	0.0174960
818.198	0.0176878
818.276	0.0177175
818.354	0.0177047
818.433	0.0177116
818.511	0.0177543
818.589	0.0177965
818.667	0.0177660
818.745	0.0177258
818.823	0.0177984
818.901	0.0178864
818.979	0.0179829
819.058	0.0179372
819.136	0.0179307
819.214	0.0180804
819.292	0.0181367
819.370	0.0181080
819.448	0.0180603
819.526	0.0181946
819.604	0.0183433
819.683	0.0181837
819.761	0.0183533
819.839	0.0182291
819.917	0.0183348
819.995	0.0182197
820.073	0.0183079
820.151	0.0182717
820.229	0.0182343
820.308	0.0183572
820.386	0.0182653
820.464	0.0182657
820.542	0.0183600
820.620	0.0181898
820.698	0.0181280
820.776	0.0181987
820.854	0.0182668
820.933	0.0181448
821.011	0.0180421
821.089	0.0180650
821.167	0.0180561
821.245	0.0179794
821.323	0.0180231
821.401	0.0178714
821.479	0.0178156
821.558	0.0177892
821.636	0.0178309
821.714	0.0177004
821.792	0.0177921
821.870	0.0176241
821.948	0.0176656
822.026	0.0175258
822.104	0.0176016
822.183	0.0176742
822.261	0.0176253
822.339	0.0177710
822.417	0.0175881
822.495	0.0176653
822.573	0.0176245
822.651	0.0177776
822.729	0.0176259
822.808	0.0177219
822.886	0.0177848
822.964	0.0177061
823.042	0.0178613
823.120	0.0180386
823.198	0.0180953
823.276	0.0179441
823.354	0.0180177
823.433	0.0181113
823.511	0.0181681
823.589	0.0181020
823.667	0.0179962
823.745	0.0182017
823.823	0.0181608
823.901	0.0179777
823.979	0.0180391
824.058	0.0180429
824.136	0.0180722
824.214	0.0181480
824.292	0.0180107
824.370	0.0180437
824.448	0.0180927
824.526	0.0180240
824.604	0.0181702
824.683	0.0181521
824.761	0.0181521
824.839	0.0181451
824.917	0.0181840
824.995	0.0180516
825.073	0.0181110
825.151	0.0181847
825.229	0.0179489
825.308	0.0180049
825.386	0.0182737
825.464	0.0181429
825.542	0.0181590
825.620	0.0180431
825.698	0.0180686
825.776	0.0180289
825.854	0.0178954
825.933	0.0179447
826.011	0.0179759
826.089	0.0177553
826.167	0.0176608
826.245	0.0179597
826.323	0.0177051
826.401	0.0175847
826.479	0.0178139
826.558	0.0178124
826.636	0.0176949
826.714	0.0177278
826.792	0.0177458
826.870	0.0177222
826.948	0.0178577
827.026	0.0178594
827.104	0.0177577
827.183	0.0179111
827.261	0.0178200
827.339	0.0179053
827.417	0.0179375
827.495	0.0180314
827.573	0.0179798
827.651	0.0180607
827.729	0.0180515
827.808	0.0180680
827.886	0.0182301
827.964	0.0182507
828.042	0.0180769
828.120	0.0180048
828.198	0.0180513
828.276	0.0180785
828.354	0.0179886
828.433	0.0179580
828.511	0.0179731
828.589	0.0179042
828.667	0.0179057
828.745	0.0179755
828.823	0.0179524
828.901	0.0179045
828.979	0.0180038
829.058	0.0177572
829.136	0.0180111
829.214	0.0180194
829.292	0.0180200
829.370	0.0179208
829.448	0.0180100
829.526	0.0180641
829.604	0.0180999
829.683	0.0178881
829.761	0.0180666
829.839	0.0179897
829.917	0.0179733
829.995	0.0179681
830.073	0.0179556
830.151	0.0179195
830.229	0.0178309
830.308	0.0179423
830.386	0.0178339
830.464	0.0179090
830.542	0.0177600
830.620	0.0177559
830.698	0.0177373
830.776	0.0177676
830.854	0.0176288
830.933	0.0178754
831.011	0.0178697
831.089	0.0177616
831.167	0.0177985
831.245	0.0178539
831.323	0.0179858
831.401	0.0180649
831.479	0.0179224
831.558	0.0180453
831.636	0.0181596
831.714	0.0181464
831.792	0.0182950
831.870	0.0182319
831.948	0.0183350
832.026	0.0183775
832.104	0.0184051
832.183	0.0181994
832.261	0.0182311
832.339	0.0182833
832.417	0.0181999
832.495	0.0180940
832.573	0.0180991
832.651	0.0181045
832.729	0.0180605
832.808	0.0180167
832.886	0.0178854
832.964	0.0178132
833.042	0.0178421
833.120	0.0178430
833.198	0.0177885
833.276	0.0176996
833.354	0.0177471
833.433	0.0177969
833.511	0.0177778
833.589	0.0178208
833.667	0.0177008
833.745	0.0177399
833.823	0.0176367
833.901	0.0177780
833.979	0.0179128
834.058	0.0178920
834.136	0.0178436
834.214	0.0178773
834.292	0.0179960
834.370	0.0178036
834.448	0.0178828
834.526	0.0177819
834.604	0.0176414
834.683	0.0178058
834.761	0.0179157
834.839	0.0178065
834.917	0.0177841
834.995	0.0179031
835.073	0.0178494
835.151	0.0179945
835.229	0.0179037
835.308	0.0180577
835.386	0.0181550
835.464	0.0182766
835.542	0.0183786
835.620	0.0181557
835.698	0.0182516
835.776	0.0182861
835.854	0.0183022
835.933	0.0182829
836.011	0.0183904
836.089	0.0181783
836.167	0.0181846
836.245	0.0182786
836.323	0.0182776
836.401	0.0181085
836.479	0.0180543
836.558	0.0180203
836.636	0.0180463
836.714	0.0179804
836.792	0.0180122
836.870	0.0177826
836.948	0.0177819
837.026	0.0179350
837.104	0.0178905
837.183	0.0178599
837.261	0.0177566
837.339	0.0178285
837.417	0.0178473
837.495	0.0177660
837.573	0.0178638
837.651	0.0178734
837.729	0.0178386
837.808	0.0179494
837.886	0.0178864
837.964	0.0179142
838.042	0.0178377
838.120	0.0179662
838.198	0.0180531
838.276	0.0179176
838.354	0.0178473
838.433	0.0179671
838.511	0.0178815
838.589	0.0178426
838.667	0.0180914
838.745	0.0178829
838.823	0.0176343
838.901	0.0178755
838.979	0.0179375
839.058	0.0178962
839.136	0.0179076
839.214	0.0179350
839.292	0.0178378
839.370	0.0178604
839.448	0.0180283
839.526	0.0179663
839.604	0.0180134
839.683	0.0180552
839.761	0.0180649
839.839	0.0180415
839.917	0.0181241
839.995	0.0182043
840.073	0.0181515
840.151	0.0183118
840.229	0.0182641
840.308	0.0181474
840.386	0.0182041
840.464	0.0181606
840.542	0.0180580
840.620	0.0183549
840.698	0.0180955
840.776	0.0180457
840.854	0.0180687
840.933	0.0179887
841.011	0.0180353
841.089	0.0179985
841.167	0.0177964
841.245	0.0178284
841.323	0.0177804
841.401	0.0177351
841.479	0.0177470
841.558	0.0177833
841.636	0.0175871
841.714	0.0176115
841.792	0.0177402
841.870	0.0176846
841.948	0.0176205
842.026	0.0176311
842.104	0.0175633
842.183	0.0177972
842.261	0.0177488
842.339	0.0176865
842.417	0.0177328
842.495	0.0178217
842.573	0.0180328
842.651	0.0177983
842.729	0.0180006
842.808	0.0179097
842.886	0.0179766
842.964	0.0179378
843.042	0.0179679
843.120	0.0177776
843.198	0.0180053
843.276	0.0180853
843.354	0.0180592
843.433	0.0180151
843.511	0.0180581
843.589	0.0180215
843.667	0.0179648
843.745	0.0180887
843.823	0.0180563
843.901	0.0180650
843.979	0.0179991
844.058	0.0179897
844.136	0.0181116
844.214	0.0180773
844.292	0.0181255
844.370	0.0180130
844.448	0.0180807
844.526	0.0179922
844.604	0.0180383
844.683	0.0181912
844.761	0.0180704
844.839	0.0180003
844.917	0.0179031
844.995	0.0177674
845.073	0.0179207
845.151	0.0178857
845.229	0.0177724
845.308	0.0177591
845.386	0.0175327
845.464	0.0176480
845.542	0.0175722
845.620	0.0177512
845.698	0.0175890
845.776	0.0176072
845.854	0.0175822
845.933	0.0175072
846.011	0.0176553
846.089	0.0174658
846.167	0.0175793
846.245	0.0177296
846.323	0.0176536
846.401	0.0178391
846.479	0.0177023
846.558	0.0177220
846.636	0.0178492
846.714	0.0177317
846.792	0.0179137
846.870	0.0179290
846.948	0.0180455
847.026	0.0178233
847.104	0.0180111
847.183	0.0180592
847.261	0.0179823
847.339	0.0180146
847.417	0.0181594
847.495	0.0180196
847.573	0.0181755
847.651	0.0182038
847.729	0.0183218
847.808	0.0181732
847.886	0.0182258
847.964	0.0182398
848.042	0.0181270
848.120	0.0182030
848.198	0.0182458
848.276	0.0181877
848.354	0.0182074
848.433	0.0182488
848.511	0.0181892
848.589	0.0182288
848.667	0.0181439
848.745	0.0180310
848.823	0.0180842
848.901	0.0179976
848.979	0.0180221
849.058	0.0180144
849.136	0.0176876
849.214	0.0178288
849.292	0.0178957
849.370	0.0177406
849.448	0.0176187
849.526	0.0177247
849.604	0.0177544
849.683	0.0175336
849.761	0.0175124
849.839	0.0176034
849.917	0.0174488
849.995	0.0174674
850.073	0.0172811
850.151	0.0173229
850.229	0.0173332
850.308	0.0175779
850.386	0.0174569
850.464	0.0174519
850.542	0.0174883
850.620	0.0175062
850.698	0.0176199
850.776	0.0175970
850.854	0.0179072
850.933	0.0178567
851.011	0.0177912
851.089	0.0179353
851.167	0.0180017
851.245	0.0181458
851.323	0.0180892
851.401	0.0181193
851.479	0.0180312
851.558	0.0181143
851.636	0.0180939
851.714	0.0182372
851.792	0.0181689
851.870	0.0182633
851.948	0.0182845
852.026	0.0182166
852.104	0.0182969
852.183	0.0182230
852.261	0.0182215
852.339	0.0183485
852.417	0.0183750
852.495	0.0183376
852.573	0.0183077
852.651	0.0183038
852.729	0.0183966
852.808	0.0183202
852.886	0.0183386
852.964	0.0182655
853.042	0.0181286
853.120	0.0182288
853.198	0.0181572
853.276	0.0181241
853.354	0.0180564
853.433	0.0179965
853.511	0.0179823
853.589	0.0178266
853.667	0.0178627
853.745	0.0176990
853.823	0.0177161
853.901	0.0176402
853.979	0.0175651
854.058	0.0175896
854.136	0.0174475
854.214	0.0174397
854.292	0.0174252
854.370	0.0174603
854.448	0.0174812
854.526	0.0174334
854.604	0.0174461
854.683	0.0175006
854.761	0.0175613
854.839	0.0175838
854.917	0.0175926
854.995	0.0175949
855.073	0.0176895
855.151	0.0178097
855.229	0.0178922
855.308	0.0179498
855.386	0.0179231
855.464	0.0179295
855.542	0.0181657
855.620	0.0182735
855.698	0.0181561
855.776	0.0182714
855.854	0.0183325
855.933	0.0183234
856.011	0.0182663
856.089	0.0182856
856.167	0.0182478
856.245	0.0183395
856.323	0.0183807
856.401	0.0182838
856.479	0.0182419
856.558	0.0183318
856.636	0.0183871
856.714	0.0183313
856.792	0.0182528
856.870	0.0181509
856.948	0.0181985
857.026	0.0181754
857.104	0.0181503
857.183	0.0180634
857.261	0.0181438
857.339	0.0181502
857.417	0.0180984
857.495	0.0179670
857.573	0.0179233
857.651	0.0178362
857.729	0.0176833
857.808	0.0178253
857.886	0.0176426
857.964	0.0175993
858.042	0.0176060
858.120	0.0176123
858.198	0.0174486
858.276	0.0173267
858.354	0.0174095
858.433	0.0174326
858.511	0.0177314
858.589	0.0174798
858.667	0.0176173
858.745	0.0173753
858.823	0.0175189
858.901	0.0175679
858.979	0.0177451
859.058	0.0176551
859.136	0.0176427
859.214	0.0177453
859.292	0.0178643
859.370	0.0177998
859.448	0.0178823
859.526	0.0177280
859.604	0.0178590
859.683	0.0179109
859.761	0.0180794
859.839	0.0179549
859.917	0.0181712
859.995	0.0181187
860.073	0.0180200
860.151	0.0181348
860.229	0.0181720
860.308	0.0181287
860.386	0.0181136
860.464	0.0181824
860.542	0.0182523
860.620	0.0182157
860.698	0.0183324
860.776	0.0182033
860.854	0.0182459
860.933	0.0182774
861.011	0.0182252
861.089	0.0182225
861.167	0.0184090
861.245	0.0182917
861.323	0.0183042
861.401	0.0181374
861.479	0.0182439
861.558	0.0180880
861.636	0.0180583
861.714	0.0180561
861.792	0.0181001
861.870	0.0179291
861.948	0.0178554
862.026	0.0178719
862.104	0.0179312
862.183	0.0177042
862.261	0.0176369
862.339	0.0175875
862.417	0.0176183
862.495	0.0174769
862.573	0.0175108
862.651	0.0175906
862.729	0.0174213
862.808	0.0176414
862.886	0.0177169
862.964	0.0174835
863.042	0.0175136
863.120	0.0177320
863.198	0.0176483
863.276	0.0175626
863.354	0.0176543
863.433	0.0175642
863.511	0.0175708
863.589	0.0177579
863.667	0.0178272
863.745	0.0177636
863.823	0.0177899
863.901	0.0178899
863.979	0.0180020
864.058	0.0178270
864.136	0.0180045
864.214	0.0179348
864.292	0.0178997
864.370	0.0180265
864.448	0.0179233
864.526	0.0180228
864.604	0.0179920
864.683	0.0180887
864.761	0.0182382
864.839	0.0182729
864.917	0.0180920
864.995	0.0182298
865.073	0.0183254
865.151	0.0183430
865.229	0.0183164
865.308	0.0181485
865.386	0.0181805
865.464	0.0182628
865.542	0.0180488
865.620	0.0180647
865.698	0.0181027
865.776	0.0181525
865.854	0.0181036
865.933	0.0178364
866.011	0.0178102
866.089	0.0178688
866.167	0.0177535
866.245	0.0176056
866.323	0.0176781
866.401	0.0175511
866.479	0.0176295
866.558	0.0176765
866.636	0.0176581
866.714	0.0175134
866.792	0.0174527
866.870	0.0175449
866.948	0.0177218
867.026	0.0175216
867.104	0.0176053
867.183	0.0175607
867.261	0.0174731
867.339	0.0178217
867.417	0.0177476
867.495	0.0178200
867.573	0.0177286
867.651	0.0177174
867.729	0.0176981
867.808	0.0178207
867.886	0.0176965
867.964	0.0178923
868.042	0.0179273
868.120	0.0177502
868.198	0.0179039
868.276	0.0177702
868.354	0.0177316
868.433	0.0178217
868.511	0.0180552
868.589	0.0181082
868.667	0.0180141
868.745	0.0179388
868.823	0.0181379
868.901	0.0181388
868.979	0.0180432
869.058	0.0182450
869.136	0.0182405
869.214	0.0183366
869.292	0.0182182
869.370	0.0181938
869.448	0.0182154
869.526	0.0182980
869.604	0.0182766
869.683	0.0181598
869.761	0.0182568
869.839	0.0181749
869.917	0.0181813
869.995	0.0180711
870.073	0.0179810
870.151	0.0179415
870.229	0.0178709
870.308	0.0178550
870.386	0.0177560
870.464	0.0176985
870.542	0.0175898
870.620	0.0176508
870.698	0.0176313
870.776	0.0175148
870.854	0.0174538
870.933	0.0173998
871.011	0.0175054
871.089	0.0175418
871.167	0.0175385
871.245	0.0174217
871.323	0.0174644
871.401	0.0176107
871.479	0.0176221
871.558	0.0175922
871.636	0.0176559
871.714	0.0178605
871.792	0.0177022
871.870	0.0177902
871.948	0.0179044
872.026	0.0177850
872.104	0.0180004
872.183	0.0180141
872.261	0.0180159
872.339	0.0182042
872.417	0.0181402
872.495	0.0180056
872.573	0.0180875
872.651	0.0182079
872.729	0.0181629
872.808	0.0181806
872.886	0.0180286
872.964	0.0180611
873.042	0.0180608
873.120	0.0181049
873.198	0.0181705
873.276	0.0180754
873.354	0.0181641
873.433	0.0182227
873.511	0.0181863
873.589	0.0182227
873.667	0.0181406
873.745	0.0180392
873.823	0.0181380
873.901	0.0181280
873.979	0.0181101
874.058	0.0180959
874.136	0.0179894
874.214	0.0180590
874.292	0.0179453
874.370	0.0178558
874.448	0.0178770
874.526	0.0178255
874.604	0.0176388
874.683	0.0176224
874.761	0.0175520
874.839	0.0174951
874.917	0.0174214
874.995	0.0174483
875.073	0.0173505
875.151	0.0174843
875.229	0.0173818
875.308	0.0175877
875.386	0.0175730
875.464	0.0174838
875.542	0.0174797
875.620	0.0175362
875.698	0.0177110
875.776	0.0176688
875.854	0.0177705
875.933	0.0178080
876.011	0.0177682
876.089	0.0179654
876.167	0.0180553
876.245	0.0179630
876.323	0.0179329
876.401	0.0180379
876.479	0.0181178
876.558	0.0181355
876.636	0.0182248
876.714	0.0180987
876.792	0.0181289
876.870	0.0182928
876.948	0.0181439
877.026	0.0181949
877.104	0.0183159
877.183	0.0182220
877.261	0.0181229
877.339	0.0181155
877.417	0.0182610
877.495	0.0182915
877.573	0.0182190
877.651	0.0181518
877.729	0.0182469
877.808	0.0182531
877.886	0.0181660
877.964	0.0181539
878.042	0.0182093
878.120	0.0182532
878.198	0.0181447
878.276	0.0181433
878.354	0.0180706
878.433	0.0179608
878.511	0.0178442
878.589	0.0178127
878.667	0.0178098
878.745	0.0177497
878.823	0.0177274
878.901	0.0175636
878.979	0.0175906
879.058	0.0174997
879.136	0.0174151
879.214	0.0175839
879.292	0.0175692
879.370	0.0173966
879.448	0.0174522
879.526	0.0174986
879.604	0.0174760
879.683	0.0175594
879.761	0.0177573
879.839	0.0176248
879.917	0.0176490
879.995	0.0179389
880.073	0.0178230
880.151	0.0178852
880.229	0.0178815
880.308	0.0180756
880.386	0.0179923
880.464	0.0180232
880.542	0.0179726
880.620	0.0181059
880.698	0.0181881
880.776	0.0181973
880.854	0.0180457
880.933	0.0182432
881.011	0.0179909
881.089	0.0182372
881.167	0.0183066
881.245	0.0182513
881.323	0.0182544
881.401	0.0182600
881.479	0.0181480
881.558	0.0183320
881.636	0.0182409
881.714	0.0181850
881.792	0.0182899
881.870	0.0180640
881.948	0.0180634
882.026	0.0182355
882.104	0.0181219
882.183	0.0181025
882.261	0.0178522
882.339	0.0179980
882.417	0.0179135
882.495	0.0180495
882.573	0.0179048
882.651	0.0178942
882.729	0.0176999
882.808	0.0176915
882.886	0.0177348
882.964	0.0177305
883.042	0.0177679
883.120	0.0177695
883.198	0.0176324
883.276	0.0175032
883.354	0.0175243
883.433	0.0175188
883.511	0.0175217
883.589	0.0175324
883.667	0.0175698
883.745	0.0174718
883.823	0.0174981
883.901	0.0176142
883.979	0.0177528
884.058	0.0177366
884.136	0.0177982
884.214	0.0179543
884.292	0.0178835
884.370	0.0179120
884.448	0.0180045
884.526	0.0180080
884.604	0.0179479
884.683	0.0180137
884.761	0.0181936
884.839	0.0182093
884.917	0.0181958
884.995	0.0182154
885.073	0.0181573
885.151	0.0181865
885.229	0.0183233
885.308	0.0183597
885.386	0.0183855
885.464	0.0183214
885.542	0.0182741
885.620	0.0183362
885.698	0.0182396
885.776	0.0183906
885.854	0.0183253
885.933	0.0183283
886.011	0.0181766
886.089	0.0183667
886.167	0.0181590
886.245	0.0181989
886.323	0.0182626
886.401	0.0181914
886.479	0.0180418
886.558	0.0181360
886.636	0.0180894
886.714	0.0179974
886.792	0.0179731
886.870	0.0178461
886.948	0.0178519
887.026	0.0177763
887.104	0.0176440
887.183	0.0176728
887.261	0.0175912
887.339	0.0174611
887.417	0.0176624
887.495	0.0174850
887.573	0.0173271
887.651	0.0174067
887.729	0.0173177
887.808	0.0173894
887.886	0.0173460
887.964	0.0175052
888.042	0.0175352
888.120	0.0174398
888.198	0.0175436
888.276	0.0176101
888.354	0.0177239
888.433	0.0177673
888.511	0.0179328
888.589	0.0177917
888.667	0.0181236
888.745	0.0181620
888.823	0.0180770
888.901	0.0179429
888.979	0.0182445
889.058	0.0183056
889.136	0.0181162
889.214	0.0181168
889.292	0.0183439
889.370	0.0182319
889.448	0.0181579
889.526	0.0182131
889.604	0.0182176
889.683	0.0182578
889.761	0.0182371
889.839	0.0180968
889.917	0.0180015
889.995	0.0181105
890.073	0.0181432
890.151	0.0181866
890.229	0.0180679
890.308	0.0179814
890.386	0.0179471
890.464	0.0178677
890.542	0.0179190
890.620	0.0178847
890.698	0.0178878
890.776	0.0179097
890.854	0.0178747
890.933	0.0178506
891.011	0.0178381
891.089	0.0178756
891.167	0.0178868
891.245	0.0178291
891.323	0.0178597
891.401	0.0178057
891.479	0.0178073
891.558	0.0177169
891.636	0.0178600
891.714	0.0177401
891.792	0.0177806
891.870	0.0178805
891.948	0.0177621
892.026	0.0176572
892.104	0.0176020
892.183	0.0177825
892.261	0.0178780
892.339	0.0179276
892.417	0.0177512
892.495	0.0178618
892.573	0.0179949
892.651	0.0180672
892.729	0.0179805
892.808	0.0180963
892.886	0.0179725
892.964	0.0180366
893.042	0.0182201
893.120	0.0180015
893.198	0.0180085
893.276	0.0180589
893.354	0.0179839
893.433	0.0180932
893.511	0.0180743
893.589	0.0180815
893.667	0.0183016
893.745	0.0182321
893.823	0.0180801
893.901	0.0183549
893.979	0.0182915
894.058	0.0180767
894.136	0.0182413
894.214	0.0180070
894.292	0.0181829
894.370	0.0181907
894.448	0.0180337
894.526	0.0180176
894.604	0.0180170
894.683	0.0178228
894.761	0.0177262
894.839	0.0176741
894.917	0.0176988
894.995	0.0176130
895.073	0.0175350
895.151	0.0174763
895.229	0.0175498
895.308	0.0175523
895.386	0.0175623
895.464	0.0176289
895.542	0.0176237
895.620	0.0176418
895.698	0.0176280
895.776	0.0177479
895.854	0.0177603
895.933	0.0177394
896.011	0.0179168
896.089	0.0178474
896.167	0.0180202
896.245	0.0179245
896.323	0.0180494
896.401	0.0180272
896.479	0.0180011
896.558	0.0179842
896.636	0.0179177
896.714	0.0179421
896.792	0.0179070
896.870	0.0178960
896.948	0.0179159
897.026	0.0180642
897.104	0.0180730
897.183	0.0179645
897.261	0.0180817
897.339	0.0180483
897.417	0.0179630
897.495	0.0180573
897.573	0.0180460
897.651	0.0181874
897.729	0.0181977
897.808	0.0181796
897.886	0.0180760
897.964	0.0179849
898.042	0.0180865
898.120	0.0182564
898.198	0.0182274
898.276	0.0180715
898.354	0.0180982
898.433	0.0180670
898.511	0.0181683
898.589	0.0181391
898.667	0.0180013
898.745	0.0180124
898.823	0.0181056
898.901	0.0179037
898.979	0.0180716
899.058	0.0179031
899.136	0.0178988
899.214	0.0178189
899.292	0.0178817
899.370	0.0178066
899.448	0.0176963
899.526	0.0176330
899.604	0.0175943
899.683	0.0176297
899.761	0.0175030
899.839	0.0175995
899.917	0.0174193
899.995	0.0175693
900.073	0.0175493
900.151	0.0176340
900.229	0.0177683
900.308	0.0177950
900.386	0.0177547
900.464	0.0177155
900.542	0.0178873
900.620	0.0178800
900.698	0.0179857
900.776	0.0179564
900.854	0.0179346
900.933	0.0181898
901.011	0.0181139
901.089	0.0180806
901.167	0.0182654
901.245	0.0183595
901.323	0.0184558
901.401	0.0183971
901.479	0.0184975
901.558	0.0184942
901.636	0.0184045
901.714	0.0183963
901.792	0.0185450
901.870	0.0184285
901.948	0.0182533
902.026	0.0182358
902.104	0.0184331
902.183	0.0183472
902.261	0.0181741
902.339	0.0182594
902.417	0.0182164
902.495	0.0180624
902.573	0.0181216
902.651	0.0181710
902.729	0.0180097
902.808	0.0177292
902.886	0.0177227
902.964	0.0176848
903.042	0.0176523
903.120	0.0177232
903.198	0.0176123
903.276	0.0175404
903.354	0.0174852
903.433	0.0174509
903.511	0.0174281
903.589	0.0175140
903.667	0.0174429
903.745	0.0173557
903.823	0.0174154
903.901	0.0175315
903.979	0.0176150
904.058	0.0175213
904.136	0.0175738
904.214	0.0175910
904.292	0.0175339
904.370	0.0176507
904.448	0.0178982
904.526	0.0178938
904.604	0.0178104
904.683	0.0180502
904.761	0.0180718
904.839	0.0180501
904.917	0.0181243
904.995	0.0182298
905.073	0.0182987
905.151	0.0185507
905.229	0.0185352
905.308	0.0183984
905.386	0.0185634
905.464	0.0186110
905.542	0.0184817
905.620	0.0187080
905.698	0.0185818
905.776	0.0184739
905.854	0.0183337
905.933	0.0183422
906.011	0.0182048
906.089	0.0182069
906.167	0.0182435
906.245	0.0181740
906.323	0.0179678
906.401	0.0180154
906.479	0.0180341
906.558	0.0179552
906.636	0.0181247
906.714	0.0179160
906.792	0.0179613
906.870	0.0179670
906.948	0.0178358
907.026	0.0180450
907.104	0.0178968
907.183	0.0177637
907.261	0.0177336
907.339	0.0177968
907.417	0.0175725
907.495	0.0176146
907.573	0.0175497
907.651	0.0175315
907.729	0.0175237
907.808	0.0174516
907.886	0.0173954
907.964	0.0174512
908.042	0.0174777
908.120	0.0175275
908.198	0.0174808
908.276	0.0176142
908.354	0.0177818
908.433	0.0177077
908.511	0.0177839
908.589	0.0178999
908.667	0.0179897
908.745	0.0181255
908.823	0.0181305
908.901	0.0182755
908.979	0.0181990
909.058	0.0183041
909.136	0.0182913
909.214	0.0184152
909.292	0.0183051
909.370	0.0185236
909.448	0.0184605
909.526	0.0184249
909.604	0.0183183
909.683	0.0183666
909.761	0.0183891
909.839	0.0182679
909.917	0.0182369
909.995	0.0183383
910.073	0.0182687
910.151	0.0181750
910.229	0.0181810
910.308	0.0181842
910.386	0.0180914
910.464	0.0181297
910.542	0.0181011
910.620	0.0179259
910.698	0.0180011
910.776	0.0180368
910.854	0.0179643
910.933	0.0179586
911.011	0.0180565
911.089	0.0179348
911.167	0.0180788
911.245	0.0178919
911.323	0.0178410
911.401	0.0178084
911.479	0.0177035
911.558	0.0175964
911.636	0.0177802
911.714	0.0177340
911.792	0.0177898
911.870	0.0176514
911.948	0.0176246
912.026	0.0177657
912.104	0.0177149
912.183	0.0176231
912.261	0.0176012
912.339	0.0177718
912.417	0.0178111
912.495	0.0178088
912.573	0.0177912
912.651	0.0177731
912.729	0.0177692
912.808	0.0178168
912.886	0.0179778
912.964	0.0180021
913.042	0.0179900
913.120	0.0181757
913.198	0.0181789
913.276	0.0181985
913.354	0.0182417
913.433	0.0182783
913.511	0.0182429
913.589	0.0182210
913.667	0.0181089
913.745	0.0181363
913.823	0.0180634
913.901	0.0181902
913.979	0.0181287
914.058	0.0181754
914.136	0.0180242
914.214	0.0182139
914.292	0.0180721
914.370	0.0180235
914.448	0.0180204
914.526	0.0180833
914.604	0.0180952
914.683	0.0180738
914.761	0.0183054
914.839	0.0181608
914.917	0.0181598
914.995	0.0182005
915.073	0.0181260
915.151	0.0182108
915.229	0.0183439
915.308	0.0182061
915.386	0.0181551
915.464	0.0182027
915.542	0.0181791
915.620	0.0180223
915.698	0.0180385
915.776	0.0178767
915.854	0.0180033
915.933	0.0179371
916.011	0.0178324
916.089	0.0177440
916.167	0.0177665
916.245	0.0177065
916.323	0.0177669
916.401	0.0177293
916.479	0.0177837
916.558	0.0176657
916.636	0.0178061
916.714	0.0178403
916.792	0.0177920
916.870	0.0177936
916.948	0.0178674
917.026	0.0178230
917.104	0.0177435
917.183	0.0175865
917.261	0.0178916
917.339	0.0179619
917.417	0.0177881
917.495	0.0177962
917.573	0.0177860
917.651	0.0178481
917.729	0.0179529
917.808	0.0178930
917.886	0.0179742
917.964	0.0179629
918.042	0.0179917
918.120	0.0180257
918.198	0.0180391
918.276	0.0181531
918.354	0.0181411
918.433	0.0180749
918.511	0.0180393
918.589	0.0180977
918.667	0.0181357
918.745	0.0181861
918.823	0.0183120
918.901	0.0180791
918.979	0.0182044
919.058	0.0181637
919.136	0.0181667
919.214	0.0183011
919.292	0.0182680
919.370	0.0182189
919.448	0.0180779
919.526	0.0182443
919.604	0.0182697
919.683	0.0182558
919.761	0.0180634
919.839	0.0182268
919.917	0.0181831
