06/03/2022	18:16:43	Ver.	4.1	UNKNOWN
Optical Delay	599.995081	Delta X		0.078125	Sweeps	1	Scan Rate	0/0
Coordinates	Axis 1	NaN	Axis 2	NaN	Axis 3	NaN	Axis 4	NaN	Axis 5	NaN	Axis 6	0.000000
TX Power	0.000000	RX Power	0.000000

599.995	0.0179270
600.073	0.0178878
600.151	0.0179448
600.229	0.0178648
600.308	0.0178649
600.386	0.0180468
600.464	0.0178674
600.542	0.0179153
600.620	0.0179696
600.698	0.0180133
600.776	0.0179828
600.854	0.0179033
600.933	0.0178967
601.011	0.0178912
601.089	0.0179463
601.167	0.0178262
601.245	0.0179260
601.323	0.0179367
601.401	0.0178657
601.479	0.0178162
601.558	0.0177589
601.636	0.0178567
601.714	0.0179039
601.792	0.0180287
601.870	0.0179839
601.948	0.0178856
602.026	0.0178867
602.104	0.0177248
602.183	0.0177807
602.261	0.0178705
602.339	0.0179171
602.417	0.0179698
602.495	0.0178974
602.573	0.0180264
602.651	0.0179581
602.729	0.0179125
602.808	0.0178147
602.886	0.0179840
602.964	0.0178754
603.042	0.0178707
603.120	0.0178252
603.198	0.0180173
603.276	0.0178515
603.354	0.0179053
603.433	0.0178819
603.511	0.0181532
603.589	0.0179111
603.667	0.0178033
603.745	0.0178439
603.823	0.0178078
603.901	0.0179443
603.979	0.0177814
604.058	0.0179108
604.136	0.0180117
604.214	0.0180650
604.292	0.0179921
604.370	0.0179086
604.448	0.0179621
604.526	0.0177894
604.604	0.0178032
604.683	0.0178857
604.761	0.0179197
604.839	0.0179103
604.917	0.0179684
604.995	0.0179869
605.073	0.0179817
605.151	0.0178608
605.229	0.0179865
605.308	0.0178519
605.386	0.0178289
605.464	0.0178609
605.542	0.0179240
605.620	0.0179850
605.698	0.0178169
605.776	0.0180087
605.854	0.0179256
605.933	0.0179234
606.011	0.0180577
606.089	0.0179232
606.167	0.0179110
606.245	0.0180127
606.323	0.0178777
606.401	0.0178573
606.479	0.0179152
606.558	0.0179924
606.636	0.0179668
606.714	0.0179116
606.792	0.0179321
606.870	0.0178696
606.948	0.0179974
607.026	0.0178783
607.104	0.0179167
607.183	0.0180323
607.261	0.0180510
607.339	0.0178059
607.417	0.0180486
607.495	0.0180049
607.573	0.0180286
607.651	0.0177672
607.729	0.0178186
607.808	0.0179203
607.886	0.0179311
607.964	0.0177940
608.042	0.0180125
608.120	0.0179781
608.198	0.0178848
608.276	0.0178688
608.354	0.0178538
608.433	0.0178333
608.511	0.0178462
608.589	0.0179039
608.667	0.0180528
608.745	0.0179720
608.823	0.0178558
608.901	0.0178641
608.979	0.0180274
609.058	0.0179455
609.136	0.0179499
609.214	0.0179298
609.292	0.0179737
609.370	0.0179356
609.448	0.0179951
609.526	0.0179843
609.604	0.0178246
609.683	0.0179044
609.761	0.0179005
609.839	0.0179232
609.917	0.0178990
609.995	0.0179092
610.073	0.0179465
610.151	0.0179998
610.229	0.0179398
610.308	0.0179465
610.386	0.0177774
610.464	0.0179039
610.542	0.0178429
610.620	0.0179305
610.698	0.0179501
610.776	0.0179318
610.854	0.0179498
610.933	0.0179111
611.011	0.0179498
611.089	0.0179047
611.167	0.0177985
611.245	0.0178282
611.323	0.0180320
611.401	0.0179800
611.479	0.0178725
611.558	0.0179399
611.636	0.0179701
611.714	0.0178860
611.792	0.0179812
611.870	0.0179156
611.948	0.0179399
612.026	0.0179363
612.104	0.0179727
612.183	0.0179225
612.261	0.0179380
612.339	0.0179302
612.417	0.0180225
612.495	0.0179077
612.573	0.0178545
612.651	0.0179572
612.729	0.0180096
612.808	0.0178826
612.886	0.0179265
612.964	0.0178727
613.042	0.0178150
613.120	0.0180217
613.198	0.0179155
613.276	0.0178226
613.354	0.0178912
613.433	0.0178732
613.511	0.0178954
613.589	0.0178191
613.667	0.0179843
613.745	0.0178415
613.823	0.0179424
613.901	0.0179691
613.979	0.0179153
614.058	0.0180167
614.136	0.0179844
614.214	0.0178358
614.292	0.0178493
614.370	0.0179558
614.448	0.0179776
614.526	0.0178728
614.604	0.0179679
614.683	0.0179115
614.761	0.0179472
614.839	0.0179622
614.917	0.0178391
614.995	0.0179301
615.073	0.0179453
615.151	0.0178122
615.229	0.0179712
615.308	0.0178874
615.386	0.0178812
615.464	0.0178527
615.542	0.0179685
615.620	0.0178413
615.698	0.0179618
615.776	0.0178773
615.854	0.0178194
615.933	0.0177866
616.011	0.0178452
616.089	0.0179922
616.167	0.0177714
616.245	0.0177818
616.323	0.0179848
616.401	0.0179066
616.479	0.0178089
616.558	0.0177608
616.636	0.0179316
616.714	0.0179372
616.792	0.0180059
616.870	0.0179201
616.948	0.0177972
617.026	0.0179864
617.104	0.0177892
617.183	0.0178590
617.261	0.0177578
617.339	0.0178300
617.417	0.0178484
617.495	0.0179011
617.573	0.0179569
617.651	0.0179958
617.729	0.0179089
617.808	0.0179332
617.886	0.0179468
617.964	0.0179753
618.042	0.0178455
618.120	0.0179272
618.198	0.0178772
618.276	0.0178621
618.354	0.0178923
618.433	0.0177377
618.511	0.0179262
618.589	0.0178486
618.667	0.0179300
618.745	0.0178896
618.823	0.0178225
618.901	0.0181018
618.979	0.0179485
619.058	0.0178286
619.136	0.0178767
619.214	0.0179751
619.292	0.0179251
619.370	0.0177567
619.448	0.0180576
619.526	0.0179272
619.604	0.0177712
619.683	0.0179007
619.761	0.0178835
619.839	0.0178258
619.917	0.0178181
619.995	0.0178510
620.073	0.0180639
620.151	0.0179209
620.229	0.0178722
620.308	0.0177775
620.386	0.0178741
620.464	0.0179355
620.542	0.0178242
620.620	0.0178609
620.698	0.0180265
620.776	0.0179179
620.854	0.0177966
620.933	0.0179559
621.011	0.0180303
621.089	0.0178966
621.167	0.0178368
621.245	0.0179292
621.323	0.0180601
621.401	0.0179235
621.479	0.0179056
621.558	0.0177724
621.636	0.0178661
621.714	0.0179317
621.792	0.0178399
621.870	0.0179107
621.948	0.0179768
622.026	0.0179080
622.104	0.0178149
622.183	0.0178304
622.261	0.0179681
622.339	0.0177256
622.417	0.0178255
622.495	0.0178778
622.573	0.0179932
622.651	0.0179196
622.729	0.0179174
622.808	0.0179281
622.886	0.0178951
622.964	0.0177983
623.042	0.0178332
623.120	0.0179346
623.198	0.0178927
623.276	0.0178694
623.354	0.0177944
623.433	0.0179661
623.511	0.0178258
623.589	0.0178151
623.667	0.0177951
623.745	0.0178105
623.823	0.0178452
623.901	0.0177975
623.979	0.0180494
624.058	0.0179828
624.136	0.0179501
624.214	0.0179870
624.292	0.0179371
624.370	0.0178534
624.448	0.0179587
624.526	0.0179610
624.604	0.0178008
624.683	0.0179013
624.761	0.0179165
624.839	0.0179874
624.917	0.0178777
624.995	0.0178294
625.073	0.0178534
625.151	0.0179537
625.229	0.0179467
625.308	0.0179002
625.386	0.0178720
625.464	0.0179446
625.542	0.0179556
625.620	0.0178019
625.698	0.0179102
625.776	0.0178785
625.854	0.0178752
625.933	0.0178594
626.011	0.0179275
626.089	0.0177700
626.167	0.0178719
626.245	0.0179086
626.323	0.0179617
626.401	0.0178728
626.479	0.0178965
626.558	0.0178539
626.636	0.0178679
626.714	0.0180672
626.792	0.0178495
626.870	0.0178547
626.948	0.0178468
627.026	0.0180486
627.104	0.0179071
627.183	0.0178725
627.261	0.0180017
627.339	0.0179254
627.417	0.0180109
627.495	0.0179268
627.573	0.0178057
627.651	0.0179963
627.729	0.0179993
627.808	0.0180300
627.886	0.0178838
627.964	0.0179472
628.042	0.0178679
628.120	0.0178667
628.198	0.0179264
628.276	0.0178879
628.354	0.0179184
628.433	0.0179352
628.511	0.0178885
628.589	0.0179221
628.667	0.0179530
628.745	0.0179563
628.823	0.0179168
628.901	0.0178358
628.979	0.0180596
629.058	0.0178613
629.136	0.0177694
629.214	0.0179097
629.292	0.0179180
629.370	0.0178693
629.448	0.0179591
629.526	0.0178341
629.604	0.0178815
629.683	0.0177782
629.761	0.0178631
629.839	0.0180288
629.917	0.0179071
629.995	0.0178455
630.073	0.0177597
630.151	0.0180354
630.229	0.0179339
630.308	0.0179058
630.386	0.0178635
630.464	0.0179501
630.542	0.0178378
630.620	0.0178246
630.698	0.0178840
630.776	0.0179297
630.854	0.0178601
630.933	0.0178691
631.011	0.0177750
631.089	0.0179408
631.167	0.0179041
631.245	0.0179572
631.323	0.0178864
631.401	0.0178254
631.479	0.0177602
631.558	0.0179347
631.636	0.0178988
631.714	0.0179160
631.792	0.0177957
631.870	0.0179333
631.948	0.0179559
632.026	0.0177505
632.104	0.0178237
632.183	0.0179976
632.261	0.0180871
632.339	0.0179961
632.417	0.0179201
632.495	0.0179720
632.573	0.0177795
632.651	0.0178825
632.729	0.0178265
632.808	0.0180068
632.886	0.0177712
632.964	0.0178301
633.042	0.0179993
633.120	0.0180573
633.198	0.0178431
633.276	0.0178732
633.354	0.0180952
633.433	0.0178757
633.511	0.0179070
633.589	0.0179660
633.667	0.0178836
633.745	0.0178324
633.823	0.0177915
633.901	0.0179279
633.979	0.0178902
634.058	0.0177789
634.136	0.0179421
634.214	0.0178487
634.292	0.0179450
634.370	0.0178780
634.448	0.0178365
634.526	0.0179834
634.604	0.0178172
634.683	0.0179059
634.761	0.0178426
634.839	0.0177814
634.917	0.0180473
634.995	0.0177718
635.073	0.0178528
635.151	0.0179244
635.229	0.0178172
635.308	0.0178208
635.386	0.0178843
635.464	0.0178431
635.542	0.0178648
635.620	0.0179113
635.698	0.0179373
635.776	0.0179634
635.854	0.0178925
635.933	0.0178353
636.011	0.0178984
636.089	0.0177991
636.167	0.0178995
636.245	0.0178838
636.323	0.0179259
636.401	0.0178140
636.479	0.0178473
636.558	0.0178900
636.636	0.0178259
636.714	0.0179061
636.792	0.0178191
636.870	0.0179701
636.948	0.0180357
637.026	0.0178316
637.104	0.0179368
637.183	0.0179073
637.261	0.0177440
637.339	0.0179163
637.417	0.0178609
637.495	0.0179305
637.573	0.0178709
637.651	0.0180755
637.729	0.0179995
637.808	0.0178980
637.886	0.0178979
637.964	0.0179115
638.042	0.0178958
638.120	0.0180422
638.198	0.0179987
638.276	0.0179402
638.354	0.0179666
638.433	0.0179446
638.511	0.0179726
638.589	0.0178424
638.667	0.0179163
638.745	0.0179188
638.823	0.0179092
638.901	0.0177666
638.979	0.0179218
639.058	0.0179483
639.136	0.0178627
639.214	0.0177807
639.292	0.0178962
639.370	0.0179573
639.448	0.0180866
639.526	0.0179555
639.604	0.0178679
639.683	0.0179208
639.761	0.0178857
639.839	0.0179334
639.917	0.0178918
639.995	0.0178593
640.073	0.0179755
640.151	0.0178846
640.229	0.0180291
640.308	0.0178928
640.386	0.0179113
640.464	0.0177698
640.542	0.0178680
640.620	0.0178979
640.698	0.0178852
640.776	0.0178844
640.854	0.0179137
640.933	0.0178939
641.011	0.0179550
641.089	0.0179185
641.167	0.0178947
641.245	0.0179076
641.323	0.0178844
641.401	0.0179172
641.479	0.0178661
641.558	0.0178798
641.636	0.0178577
641.714	0.0179147
641.792	0.0178803
641.870	0.0178400
641.948	0.0179013
642.026	0.0179103
642.104	0.0179259
642.183	0.0180132
642.261	0.0179278
642.339	0.0178938
642.417	0.0179212
642.495	0.0179032
642.573	0.0178412
642.651	0.0178823
642.729	0.0180158
642.808	0.0179085
642.886	0.0179245
642.964	0.0179522
643.042	0.0179160
643.120	0.0179919
643.198	0.0179064
643.276	0.0179717
643.354	0.0179423
643.433	0.0179945
643.511	0.0178619
643.589	0.0179597
643.667	0.0179865
643.745	0.0178565
643.823	0.0178571
643.901	0.0178922
643.979	0.0178374
644.058	0.0180000
644.136	0.0177884
644.214	0.0178780
644.292	0.0178596
644.370	0.0178638
644.448	0.0180050
644.526	0.0179729
644.604	0.0179800
644.683	0.0179314
644.761	0.0179156
644.839	0.0178128
644.917	0.0178491
644.995	0.0179121
645.073	0.0178091
645.151	0.0178406
645.229	0.0177898
645.308	0.0178349
645.386	0.0178940
645.464	0.0179064
645.542	0.0177952
645.620	0.0177806
645.698	0.0178371
645.776	0.0179220
645.854	0.0180026
645.933	0.0179058
646.011	0.0178935
646.089	0.0180328
646.167	0.0178654
646.245	0.0178258
646.323	0.0179038
646.401	0.0177849
646.479	0.0178674
646.558	0.0178043
646.636	0.0180229
646.714	0.0179298
646.792	0.0178583
646.870	0.0178217
646.948	0.0177848
647.026	0.0178796
647.104	0.0179469
647.183	0.0179428
647.261	0.0178663
647.339	0.0178231
647.417	0.0178644
647.495	0.0178764
647.573	0.0179526
647.651	0.0180713
647.729	0.0179123
647.808	0.0177758
647.886	0.0178387
647.964	0.0178175
648.042	0.0178990
648.120	0.0178556
648.198	0.0178125
648.276	0.0178637
648.354	0.0179053
648.433	0.0177528
648.511	0.0178797
648.589	0.0180113
648.667	0.0180137
648.745	0.0179440
648.823	0.0179851
648.901	0.0178651
648.979	0.0178113
649.058	0.0180091
649.136	0.0179452
649.214	0.0178246
649.292	0.0179369
649.370	0.0179955
649.448	0.0178497
649.526	0.0179518
649.604	0.0179400
649.683	0.0179108
649.761	0.0178881
649.839	0.0180064
649.917	0.0179009
649.995	0.0177974
650.073	0.0178922
650.151	0.0180797
650.229	0.0179431
650.308	0.0179122
650.386	0.0177930
650.464	0.0178964
650.542	0.0179792
650.620	0.0179622
650.698	0.0178162
650.776	0.0179279
650.854	0.0180026
650.933	0.0179957
651.011	0.0177975
651.089	0.0178807
651.167	0.0178387
651.245	0.0178005
651.323	0.0178529
651.401	0.0179070
651.479	0.0178625
651.558	0.0180063
651.636	0.0180170
651.714	0.0178922
651.792	0.0179498
651.870	0.0177483
651.948	0.0179919
652.026	0.0179201
652.104	0.0177960
652.183	0.0179617
652.261	0.0178194
652.339	0.0177912
652.417	0.0177331
652.495	0.0179272
652.573	0.0178900
652.651	0.0179356
652.729	0.0178050
652.808	0.0178110
652.886	0.0178956
652.964	0.0179451
653.042	0.0179333
653.120	0.0179413
653.198	0.0177947
653.276	0.0178488
653.354	0.0179015
653.433	0.0178438
653.511	0.0179039
653.589	0.0178677
653.667	0.0178752
653.745	0.0178867
653.823	0.0178665
653.901	0.0178480
653.979	0.0178259
654.058	0.0178207
654.136	0.0178046
654.214	0.0178482
654.292	0.0178971
654.370	0.0178897
654.448	0.0178300
654.526	0.0179928
654.604	0.0179259
654.683	0.0179289
654.761	0.0178611
654.839	0.0178392
654.917	0.0178859
654.995	0.0180735
655.073	0.0178849
655.151	0.0178136
655.229	0.0179779
655.308	0.0178461
655.386	0.0178349
655.464	0.0178711
655.542	0.0178700
655.620	0.0178072
655.698	0.0177969
655.776	0.0178560
655.854	0.0178444
655.933	0.0179019
656.011	0.0178805
656.089	0.0178610
656.167	0.0178358
656.245	0.0178290
656.323	0.0179324
656.401	0.0179312
656.479	0.0179833
656.558	0.0178387
656.636	0.0179190
656.714	0.0179211
656.792	0.0179448
656.870	0.0178450
656.948	0.0177880
657.026	0.0177853
657.104	0.0178319
657.183	0.0178750
657.261	0.0178492
657.339	0.0177272
657.417	0.0177867
657.495	0.0178020
657.573	0.0178302
657.651	0.0178712
657.729	0.0179639
657.808	0.0180154
657.886	0.0178850
657.964	0.0179059
658.042	0.0179832
658.120	0.0178551
658.198	0.0178982
658.276	0.0180095
658.354	0.0178488
658.433	0.0180943
658.511	0.0180559
658.589	0.0178544
658.667	0.0179100
658.745	0.0179983
658.823	0.0179178
658.901	0.0179822
658.979	0.0180199
659.058	0.0178207
659.136	0.0179718
659.214	0.0179312
659.292	0.0180247
659.370	0.0179114
659.448	0.0179573
659.526	0.0180531
659.604	0.0180146
659.683	0.0180169
659.761	0.0179317
659.839	0.0179500
659.917	0.0179307
659.995	0.0178788
660.073	0.0179673
660.151	0.0179330
660.229	0.0179250
660.308	0.0179185
660.386	0.0179285
660.464	0.0179539
660.542	0.0179214
660.620	0.0180842
660.698	0.0179470
660.776	0.0179430
660.854	0.0178909
660.933	0.0179276
661.011	0.0178086
661.089	0.0180150
661.167	0.0179614
661.245	0.0178778
661.323	0.0178574
661.401	0.0180109
661.479	0.0177892
661.558	0.0179634
661.636	0.0179762
661.714	0.0180623
661.792	0.0177603
661.870	0.0178039
661.948	0.0179072
662.026	0.0177962
662.104	0.0179066
662.183	0.0179487
662.261	0.0179343
662.339	0.0179210
662.417	0.0179274
662.495	0.0178253
662.573	0.0179082
662.651	0.0179453
662.729	0.0178785
662.808	0.0178356
662.886	0.0178695
662.964	0.0178447
663.042	0.0178349
663.120	0.0179619
663.198	0.0177771
663.276	0.0178542
663.354	0.0178860
663.433	0.0177361
663.511	0.0178713
663.589	0.0179080
663.667	0.0179073
663.745	0.0179846
663.823	0.0179409
663.901	0.0179816
663.979	0.0178529
664.058	0.0178780
664.136	0.0178481
664.214	0.0179243
664.292	0.0178792
664.370	0.0178345
664.448	0.0178052
664.526	0.0180294
664.604	0.0178761
664.683	0.0178413
664.761	0.0179337
664.839	0.0179675
664.917	0.0179337
664.995	0.0179136
665.073	0.0180303
665.151	0.0178966
665.229	0.0178504
665.308	0.0179163
665.386	0.0178963
665.464	0.0178928
665.542	0.0178929
665.620	0.0178873
665.698	0.0178889
665.776	0.0178249
665.854	0.0179053
665.933	0.0179798
666.011	0.0178159
666.089	0.0178730
666.167	0.0180236
666.245	0.0178448
666.323	0.0177839
666.401	0.0178278
666.479	0.0178594
666.558	0.0178155
666.636	0.0179903
666.714	0.0178168
666.792	0.0179288
666.870	0.0180853
666.948	0.0178913
667.026	0.0178184
667.104	0.0178903
667.183	0.0178540
667.261	0.0179762
667.339	0.0179191
667.417	0.0178937
667.495	0.0178516
667.573	0.0179096
667.651	0.0179153
667.729	0.0179306
667.808	0.0178587
667.886	0.0179518
667.964	0.0178925
668.042	0.0179278
668.120	0.0179549
668.198	0.0179670
668.276	0.0178320
668.354	0.0178746
668.433	0.0179016
668.511	0.0178876
668.589	0.0177174
668.667	0.0179255
668.745	0.0179153
668.823	0.0180350
668.901	0.0179465
668.979	0.0179870
669.058	0.0178568
669.136	0.0177789
669.214	0.0179832
669.292	0.0179598
669.370	0.0179076
669.448	0.0179805
669.526	0.0179868
669.604	0.0177805
669.683	0.0178346
669.761	0.0180299
669.839	0.0178696
669.917	0.0179987
669.995	0.0179643
670.073	0.0179868
670.151	0.0177925
670.229	0.0179527
670.308	0.0178967
670.386	0.0177942
670.464	0.0178852
670.542	0.0178959
670.620	0.0178871
670.698	0.0178526
670.776	0.0179034
670.854	0.0179418
670.933	0.0179083
671.011	0.0178775
671.089	0.0178821
671.167	0.0179617
671.245	0.0179403
671.323	0.0179710
671.401	0.0179242
671.479	0.0179406
671.558	0.0178696
671.636	0.0179149
671.714	0.0179295
671.792	0.0180733
671.870	0.0179498
671.948	0.0178487
672.026	0.0179564
672.104	0.0179663
672.183	0.0177871
672.261	0.0179032
672.339	0.0180157
672.417	0.0179453
672.495	0.0179992
672.573	0.0179171
672.651	0.0178270
672.729	0.0177492
672.808	0.0179193
672.886	0.0178993
672.964	0.0180919
673.042	0.0180798
673.120	0.0177935
673.198	0.0181086
673.276	0.0179570
673.354	0.0179386
673.433	0.0178320
673.511	0.0178732
673.589	0.0179278
673.667	0.0178696
673.745	0.0178645
673.823	0.0178461
673.901	0.0178704
673.979	0.0179173
674.058	0.0178143
674.136	0.0180409
674.214	0.0180381
674.292	0.0179450
674.370	0.0181990
674.448	0.0181140
674.526	0.0182075
674.604	0.0182034
674.683	0.0181929
674.761	0.0182202
674.839	0.0180804
674.917	0.0179998
674.995	0.0179984
675.073	0.0178806
675.151	0.0177720
675.229	0.0178989
675.308	0.0176250
675.386	0.0177274
675.464	0.0176661
675.542	0.0177079
675.620	0.0178609
675.698	0.0179478
675.776	0.0180220
675.854	0.0181601
675.933	0.0180518
676.011	0.0180977
676.089	0.0181508
676.167	0.0181811
676.245	0.0182288
676.323	0.0183971
676.401	0.0181974
676.479	0.0180886
676.558	0.0181857
676.636	0.0180406
676.714	0.0179707
676.792	0.0179485
676.870	0.0179523
676.948	0.0177755
677.026	0.0177154
677.104	0.0176658
677.183	0.0174505
677.261	0.0175507
677.339	0.0174397
677.417	0.0175638
677.495	0.0177084
677.573	0.0176853
677.651	0.0178723
677.729	0.0179913
677.808	0.0180488
677.886	0.0181953
677.964	0.0182417
678.042	0.0184414
678.120	0.0184409
678.198	0.0183720
678.276	0.0183955
678.354	0.0182220
678.433	0.0181963
678.511	0.0181415
678.589	0.0179849
678.667	0.0177499
678.745	0.0177764
678.823	0.0175092
678.901	0.0174940
678.979	0.0173944
679.058	0.0172562
679.136	0.0172604
679.214	0.0172343
679.292	0.0174765
679.370	0.0175014
679.448	0.0176646
679.526	0.0178407
679.604	0.0180386
679.683	0.0181102
679.761	0.0182091
679.839	0.0183733
679.917	0.0184979
679.995	0.0184606
680.073	0.0185245
680.151	0.0185760
680.229	0.0185223
680.308	0.0181671
680.386	0.0182555
680.464	0.0180415
680.542	0.0179361
680.620	0.0177523
680.698	0.0175470
680.776	0.0174486
680.854	0.0174516
680.933	0.0172886
681.011	0.0173367
681.089	0.0172467
681.167	0.0173833
681.245	0.0176582
681.323	0.0178083
681.401	0.0178249
681.479	0.0180427
681.558	0.0181977
681.636	0.0181714
681.714	0.0181585
681.792	0.0183443
681.870	0.0183376
681.948	0.0183256
682.026	0.0183775
682.104	0.0183471
682.183	0.0182358
682.261	0.0182965
682.339	0.0182256
682.417	0.0180400
682.495	0.0179641
682.573	0.0181078
682.651	0.0178378
682.729	0.0176936
682.808	0.0174511
682.886	0.0174525
682.964	0.0173988
683.042	0.0173683
683.120	0.0171799
683.198	0.0173043
683.276	0.0175119
683.354	0.0175294
683.433	0.0178759
683.511	0.0179799
683.589	0.0180682
683.667	0.0181733
683.745	0.0182802
683.823	0.0184186
683.901	0.0185315
683.979	0.0188509
684.058	0.0183936
684.136	0.0183556
684.214	0.0183727
684.292	0.0181039
684.370	0.0181617
684.448	0.0179211
684.526	0.0178007
684.604	0.0177502
684.683	0.0175463
684.761	0.0174970
684.839	0.0175596
684.917	0.0175787
684.995	0.0176220
685.073	0.0175568
685.151	0.0177213
685.229	0.0177532
685.308	0.0179221
685.386	0.0179041
685.464	0.0179542
685.542	0.0180589
685.620	0.0182657
685.698	0.0181269
685.776	0.0183363
685.854	0.0183263
685.933	0.0183475
686.011	0.0182713
686.089	0.0181869
686.167	0.0182466
686.245	0.0181843
686.323	0.0182021
686.401	0.0180082
686.479	0.0178574
686.558	0.0178409
686.636	0.0179168
686.714	0.0177724
686.792	0.0176759
686.870	0.0176782
686.948	0.0176520
687.026	0.0175000
687.104	0.0176007
687.183	0.0178954
687.261	0.0177329
687.339	0.0176608
687.417	0.0176920
687.495	0.0177670
687.573	0.0178500
687.651	0.0179424
687.729	0.0178405
687.808	0.0178246
687.886	0.0180429
687.964	0.0182468
688.042	0.0181608
688.120	0.0179691
688.198	0.0178458
688.276	0.0179147
688.354	0.0178944
688.433	0.0179278
688.511	0.0178848
688.589	0.0177906
688.667	0.0178148
688.745	0.0177402
688.823	0.0179556
688.901	0.0181544
688.979	0.0180344
689.058	0.0182786
689.136	0.0182886
689.214	0.0183820
689.292	0.0183231
689.370	0.0182642
689.448	0.0184384
689.526	0.0183051
689.604	0.0182819
689.683	0.0181758
689.761	0.0180685
689.839	0.0179082
689.917	0.0177063
689.995	0.0177654
690.073	0.0177814
690.151	0.0175291
690.229	0.0174568
690.308	0.0173121
690.386	0.0173933
690.464	0.0173169
690.542	0.0173316
690.620	0.0173146
690.698	0.0174645
690.776	0.0174826
690.854	0.0175719
690.933	0.0175484
691.011	0.0177601
691.089	0.0177694
691.167	0.0177348
691.245	0.0179678
691.323	0.0179900
691.401	0.0181208
691.479	0.0181644
691.558	0.0183681
691.636	0.0183779
691.714	0.0184116
691.792	0.0184950
691.870	0.0184619
691.948	0.0183926
692.026	0.0182910
692.104	0.0181983
692.183	0.0182046
692.261	0.0181047
692.339	0.0180177
692.417	0.0180180
692.495	0.0180080
692.573	0.0179324
692.651	0.0181001
692.729	0.0179787
692.808	0.0180442
692.886	0.0181031
692.964	0.0180315
693.042	0.0179470
693.120	0.0181093
693.198	0.0180978
693.276	0.0181693
693.354	0.0182296
693.433	0.0183799
693.511	0.0183116
693.589	0.0182826
693.667	0.0183797
693.745	0.0182182
693.823	0.0183624
693.901	0.0182119
693.979	0.0179088
694.058	0.0176808
694.136	0.0175443
694.214	0.0174397
694.292	0.0172034
694.370	0.0168187
694.448	0.0168233
694.526	0.0166232
694.604	0.0165952
694.683	0.0166740
694.761	0.0166669
694.839	0.0166263
694.917	0.0168995
694.995	0.0168964
695.073	0.0172643
695.151	0.0175576
695.229	0.0176753
695.308	0.0178481
695.386	0.0180273
695.464	0.0183360
695.542	0.0184893
695.620	0.0184961
695.698	0.0186478
695.776	0.0185710
695.854	0.0186284
695.933	0.0185700
696.011	0.0185249
696.089	0.0185728
696.167	0.0184239
696.245	0.0185989
696.323	0.0185678
696.401	0.0185049
696.479	0.0184625
696.558	0.0185175
696.636	0.0186272
696.714	0.0185992
696.792	0.0185149
696.870	0.0185310
696.948	0.0184558
697.026	0.0184008
697.104	0.0183759
697.183	0.0185570
697.261	0.0183553
697.339	0.0183241
697.417	0.0182483
697.495	0.0179534
697.573	0.0179105
697.651	0.0178926
697.729	0.0177761
697.808	0.0177588
697.886	0.0177936
697.964	0.0177956
698.042	0.0177657
698.120	0.0176237
698.198	0.0177219
698.276	0.0176862
698.354	0.0177272
698.433	0.0177448
698.511	0.0177254
698.589	0.0175927
698.667	0.0174094
698.745	0.0172581
698.823	0.0171982
698.901	0.0171397
698.979	0.0170815
699.058	0.0169340
699.136	0.0168091
699.214	0.0169781
699.292	0.0169228
699.370	0.0167427
699.448	0.0168181
699.526	0.0167939
699.604	0.0167671
699.683	0.0168139
699.761	0.0169305
699.839	0.0170302
699.917	0.0171168
699.995	0.0170918
700.073	0.0172281
700.151	0.0173988
700.229	0.0175507
700.308	0.0176449
700.386	0.0178407
700.464	0.0180701
700.542	0.0183358
700.620	0.0185608
700.698	0.0187032
700.776	0.0188844
700.854	0.0189388
700.933	0.0192604
701.011	0.0195866
701.089	0.0195184
701.167	0.0197445
701.245	0.0197843
701.323	0.0198961
701.401	0.0200115
701.479	0.0199755
701.558	0.0199516
701.636	0.0199785
701.714	0.0198039
701.792	0.0197953
701.870	0.0196423
701.948	0.0194236
702.026	0.0192761
702.104	0.0189893
702.183	0.0186737
702.261	0.0185970
702.339	0.0181193
702.417	0.0177981
702.495	0.0175386
702.573	0.0170869
702.651	0.0170183
702.729	0.0168775
702.808	0.0166223
702.886	0.0164905
702.964	0.0162511
703.042	0.0161932
703.120	0.0162563
703.198	0.0161398
703.276	0.0161863
703.354	0.0162605
703.433	0.0162486
703.511	0.0163380
703.589	0.0164709
703.667	0.0164086
703.745	0.0165562
703.823	0.0166139
703.901	0.0167239
703.979	0.0169176
704.058	0.0168452
704.136	0.0171902
704.214	0.0172296
704.292	0.0174733
704.370	0.0174638
704.448	0.0175101
704.526	0.0176694
704.604	0.0175727
704.683	0.0175137
704.761	0.0175326
704.839	0.0175970
704.917	0.0174158
704.995	0.0175446
705.073	0.0174634
705.151	0.0174710
705.229	0.0177721
705.308	0.0177629
705.386	0.0178569
705.464	0.0179749
705.542	0.0182169
705.620	0.0185210
705.698	0.0185484
705.776	0.0188535
705.854	0.0191215
705.933	0.0193460
706.011	0.0194839
706.089	0.0197578
706.167	0.0198372
706.245	0.0201031
706.323	0.0201247
706.401	0.0203781
706.479	0.0205202
706.558	0.0203954
706.636	0.0205415
706.714	0.0205149
706.792	0.0205307
706.870	0.0204386
706.948	0.0202064
707.026	0.0203117
707.104	0.0199773
707.183	0.0197134
707.261	0.0193955
707.339	0.0187835
707.417	0.0185208
707.495	0.0180664
707.573	0.0175889
707.651	0.0173754
707.729	0.0169252
707.808	0.0166021
707.886	0.0163940
707.964	0.0160152
708.042	0.0157638
708.120	0.0155687
708.198	0.0154057
708.276	0.0150895
708.354	0.0151077
708.433	0.0150191
708.511	0.0150172
708.589	0.0151463
708.667	0.0153164
708.745	0.0153310
708.823	0.0154596
708.901	0.0158312
708.979	0.0160954
709.058	0.0163019
709.136	0.0166648
709.214	0.0172044
709.292	0.0173293
709.370	0.0177056
709.448	0.0179778
709.526	0.0181561
709.604	0.0184261
709.683	0.0185078
709.761	0.0186498
709.839	0.0185285
709.917	0.0184222
709.995	0.0182758
710.073	0.0182069
710.151	0.0181649
710.229	0.0178158
710.308	0.0176025
710.386	0.0175976
710.464	0.0174651
710.542	0.0173748
710.620	0.0174955
710.698	0.0174449
710.776	0.0177250
710.854	0.0178985
710.933	0.0180740
711.011	0.0183909
711.089	0.0186534
711.167	0.0189828
711.245	0.0193997
711.323	0.0194660
711.401	0.0197845
711.479	0.0198782
711.558	0.0202164
711.636	0.0203577
711.714	0.0205326
711.792	0.0205651
711.870	0.0206660
711.948	0.0207496
712.026	0.0207565
712.104	0.0207178
712.183	0.0204398
712.261	0.0203362
712.339	0.0201708
712.417	0.0200182
712.495	0.0198425
712.573	0.0196915
712.651	0.0195250
712.729	0.0191420
712.808	0.0186243
712.886	0.0186838
712.964	0.0183011
713.042	0.0177792
713.120	0.0174618
713.198	0.0171392
713.276	0.0169147
713.354	0.0164160
713.433	0.0160262
713.511	0.0156633
713.589	0.0154929
713.667	0.0152098
713.745	0.0149889
713.823	0.0149788
713.901	0.0146637
713.979	0.0146577
714.058	0.0145245
714.136	0.0145589
714.214	0.0146075
714.292	0.0147251
714.370	0.0148167
714.448	0.0147358
714.526	0.0148466
714.604	0.0151831
714.683	0.0156286
714.761	0.0157946
714.839	0.0160545
714.917	0.0165795
714.995	0.0169297
715.073	0.0174950
715.151	0.0179971
715.229	0.0183353
715.308	0.0188513
715.386	0.0190871
715.464	0.0193929
715.542	0.0194736
715.620	0.0194614
715.698	0.0196793
715.776	0.0194795
715.854	0.0194565
715.933	0.0194148
716.011	0.0191784
716.089	0.0188728
716.167	0.0190018
716.245	0.0187991
716.323	0.0186694
716.401	0.0187505
716.479	0.0187213
716.558	0.0187029
716.636	0.0188400
716.714	0.0188854
716.792	0.0189513
716.870	0.0190916
716.948	0.0191515
717.026	0.0192651
717.104	0.0193686
717.183	0.0194073
717.261	0.0193017
717.339	0.0191575
717.417	0.0192205
717.495	0.0191289
717.573	0.0190662
717.651	0.0191519
717.729	0.0190257
717.808	0.0191039
717.886	0.0190874
717.964	0.0189165
718.042	0.0189031
718.120	0.0186172
718.198	0.0183727
718.276	0.0182283
718.354	0.0182833
718.433	0.0181296
718.511	0.0180489
718.589	0.0179285
718.667	0.0177995
718.745	0.0176670
718.823	0.0176596
718.901	0.0174591
718.979	0.0173690
719.058	0.0172422
719.136	0.0170950
719.214	0.0169445
719.292	0.0168725
719.370	0.0167116
719.448	0.0165199
719.526	0.0164368
719.604	0.0163758
719.683	0.0161841
719.761	0.0163036
719.839	0.0160919
719.917	0.0161025
719.995	0.0159021
720.073	0.0158772
720.151	0.0160031
720.229	0.0159722
720.308	0.0159106
720.386	0.0161143
720.464	0.0161628
720.542	0.0163097
720.620	0.0164840
720.698	0.0167455
720.776	0.0170147
720.854	0.0170571
720.933	0.0172195
721.011	0.0172484
721.089	0.0172686
721.167	0.0173459
721.245	0.0173087
721.323	0.0172646
721.401	0.0170240
721.479	0.0171122
721.558	0.0171576
721.636	0.0171642
721.714	0.0174922
721.792	0.0175085
721.870	0.0176507
721.948	0.0180018
722.026	0.0182790
722.104	0.0185854
722.183	0.0188970
722.261	0.0193427
722.339	0.0194769
722.417	0.0196973
722.495	0.0200848
722.573	0.0204052
722.651	0.0207247
722.729	0.0206782
722.808	0.0209088
722.886	0.0210287
722.964	0.0210676
723.042	0.0211174
723.120	0.0209669
723.198	0.0209975
723.276	0.0208267
723.354	0.0204242
723.433	0.0204369
723.511	0.0202083
723.589	0.0199204
723.667	0.0195829
723.745	0.0194703
723.823	0.0191535
723.901	0.0190518
723.979	0.0186265
724.058	0.0184009
724.136	0.0183558
724.214	0.0181400
724.292	0.0179612
724.370	0.0177005
724.448	0.0175004
724.526	0.0173009
724.604	0.0170827
724.683	0.0169171
724.761	0.0167311
724.839	0.0165577
724.917	0.0163804
724.995	0.0159878
725.073	0.0158798
725.151	0.0156528
725.229	0.0153911
725.308	0.0150813
725.386	0.0149284
725.464	0.0146909
725.542	0.0146162
725.620	0.0145289
725.698	0.0145631
725.776	0.0145899
725.854	0.0145359
725.933	0.0146659
726.011	0.0149849
726.089	0.0153297
726.167	0.0155412
726.245	0.0158611
726.323	0.0162115
726.401	0.0165683
726.479	0.0168715
726.558	0.0170560
726.636	0.0172402
726.714	0.0173466
726.792	0.0174535
726.870	0.0176445
726.948	0.0176263
727.026	0.0174992
727.104	0.0176893
727.183	0.0178161
727.261	0.0178548
727.339	0.0180428
727.417	0.0182499
727.495	0.0185191
727.573	0.0189078
727.651	0.0191048
727.729	0.0195238
727.808	0.0198558
727.886	0.0201991
727.964	0.0206908
728.042	0.0210279
728.120	0.0214606
728.198	0.0218070
728.276	0.0219799
728.354	0.0220581
728.433	0.0221034
728.511	0.0223179
728.589	0.0221243
728.667	0.0218180
728.745	0.0216133
728.823	0.0211760
728.901	0.0209715
728.979	0.0204594
729.058	0.0200182
729.136	0.0195945
729.214	0.0191387
729.292	0.0187947
729.370	0.0182478
729.448	0.0180048
729.526	0.0176853
729.604	0.0172596
729.683	0.0171870
729.761	0.0169521
729.839	0.0168407
729.917	0.0167573
729.995	0.0165363
730.073	0.0165408
730.151	0.0163321
730.229	0.0161289
730.308	0.0161717
730.386	0.0160213
730.464	0.0159480
730.542	0.0157884
730.620	0.0155940
730.698	0.0155382
730.776	0.0153918
730.854	0.0152026
730.933	0.0150488
731.011	0.0150829
731.089	0.0148602
731.167	0.0150610
731.245	0.0149261
731.323	0.0149541
731.401	0.0151422
731.479	0.0151408
731.558	0.0153201
731.636	0.0155740
731.714	0.0158679
731.792	0.0160077
731.870	0.0162479
731.948	0.0165405
732.026	0.0167598
732.104	0.0170318
732.183	0.0173894
732.261	0.0177330
732.339	0.0178757
732.417	0.0180936
732.495	0.0182924
732.573	0.0184518
732.651	0.0186417
732.729	0.0188658
732.808	0.0190262
732.886	0.0193079
732.964	0.0195328
733.042	0.0197327
733.120	0.0199387
733.198	0.0201186
733.276	0.0202075
733.354	0.0205423
733.433	0.0206799
733.511	0.0208868
733.589	0.0210645
733.667	0.0212315
733.745	0.0211931
733.823	0.0212874
733.901	0.0212524
733.979	0.0211398
734.058	0.0211926
734.136	0.0210525
734.214	0.0208669
734.292	0.0205844
734.370	0.0203640
734.448	0.0200687
734.526	0.0197738
734.604	0.0191639
734.683	0.0188174
734.761	0.0185608
734.839	0.0179997
734.917	0.0177855
734.995	0.0175529
735.073	0.0171445
735.151	0.0168385
735.229	0.0166228
735.308	0.0165962
735.386	0.0164597
735.464	0.0161627
735.542	0.0160446
735.620	0.0160764
735.698	0.0161214
735.776	0.0160100
735.854	0.0160421
735.933	0.0159306
736.011	0.0158619
736.089	0.0158506
736.167	0.0156644
736.245	0.0156726
736.323	0.0156239
736.401	0.0156848
736.479	0.0156315
736.558	0.0154909
736.636	0.0154549
736.714	0.0155282
736.792	0.0155475
736.870	0.0155588
736.948	0.0156339
737.026	0.0155666
737.104	0.0157294
737.183	0.0158369
737.261	0.0159327
737.339	0.0161671
737.417	0.0165311
737.495	0.0167864
737.573	0.0171128
737.651	0.0173383
737.729	0.0177026
737.808	0.0180278
737.886	0.0182887
737.964	0.0187118
738.042	0.0191104
738.120	0.0192754
738.198	0.0196558
738.276	0.0198069
738.354	0.0200654
738.433	0.0202892
738.511	0.0203506
738.589	0.0204293
738.667	0.0207256
738.745	0.0205898
738.823	0.0206347
738.901	0.0206274
738.979	0.0206335
739.058	0.0204288
739.136	0.0202711
739.214	0.0203153
739.292	0.0200214
739.370	0.0198978
739.448	0.0197092
739.526	0.0195851
739.604	0.0193253
739.683	0.0194328
739.761	0.0190064
739.839	0.0187266
739.917	0.0186699
739.995	0.0183549
740.073	0.0182314
740.151	0.0178300
740.229	0.0176503
740.308	0.0175551
740.386	0.0172748
740.464	0.0171575
740.542	0.0169884
740.620	0.0168982
740.698	0.0165572
740.776	0.0165584
740.854	0.0165529
740.933	0.0163912
741.011	0.0163777
741.089	0.0163243
741.167	0.0165052
741.245	0.0165346
741.323	0.0165344
741.401	0.0165516
741.479	0.0167406
741.558	0.0167847
741.636	0.0169061
741.714	0.0168513
741.792	0.0168401
741.870	0.0168626
741.948	0.0168593
742.026	0.0167736
742.104	0.0166624
742.183	0.0166051
742.261	0.0164646
742.339	0.0165597
742.417	0.0163409
742.495	0.0164025
742.573	0.0164277
742.651	0.0164571
742.729	0.0164754
742.808	0.0168216
742.886	0.0169267
742.964	0.0169537
743.042	0.0173146
743.120	0.0176028
743.198	0.0177072
743.276	0.0180201
743.354	0.0181963
743.433	0.0185847
743.511	0.0187554
743.589	0.0190755
743.667	0.0192651
743.745	0.0192979
743.823	0.0195438
743.901	0.0196064
743.979	0.0197162
744.058	0.0198887
744.136	0.0197268
744.214	0.0197337
744.292	0.0197443
744.370	0.0198708
744.448	0.0196606
744.526	0.0193540
744.604	0.0193500
744.683	0.0192038
744.761	0.0189591
744.839	0.0187958
744.917	0.0185822
744.995	0.0185223
745.073	0.0182763
745.151	0.0181078
745.229	0.0178973
745.308	0.0178291
745.386	0.0177372
745.464	0.0176271
745.542	0.0175398
745.620	0.0175948
745.698	0.0175893
745.776	0.0176848
745.854	0.0177213
745.933	0.0177417
746.011	0.0177837
746.089	0.0178410
746.167	0.0177246
746.245	0.0179258
746.323	0.0177697
746.401	0.0177135
746.479	0.0178863
746.558	0.0177382
746.636	0.0176953
746.714	0.0177666
746.792	0.0176568
746.870	0.0177154
746.948	0.0175163
747.026	0.0174655
747.104	0.0174303
747.183	0.0172908
747.261	0.0172153
747.339	0.0171221
747.417	0.0170825
747.495	0.0168558
747.573	0.0168668
747.651	0.0167297
747.729	0.0167130
747.808	0.0168008
747.886	0.0167020
747.964	0.0169508
748.042	0.0169508
748.120	0.0170901
748.198	0.0170944
748.276	0.0171374
748.354	0.0174069
748.433	0.0175196
748.511	0.0175933
748.589	0.0178512
748.667	0.0179601
748.745	0.0182038
748.823	0.0183059
748.901	0.0185210
748.979	0.0185319
749.058	0.0187968
749.136	0.0188694
749.214	0.0188700
749.292	0.0190356
749.370	0.0189275
749.448	0.0188980
749.526	0.0188802
749.604	0.0188245
749.683	0.0187279
749.761	0.0187432
749.839	0.0184364
749.917	0.0184901
749.995	0.0184245
750.073	0.0182589
750.151	0.0181406
750.229	0.0178851
750.308	0.0178642
750.386	0.0177530
750.464	0.0176628
750.542	0.0176726
750.620	0.0175942
750.698	0.0176034
750.776	0.0175362
750.854	0.0175056
750.933	0.0175696
751.011	0.0176093
751.089	0.0176736
751.167	0.0176634
751.245	0.0178471
751.323	0.0178378
751.401	0.0179765
751.479	0.0181240
751.558	0.0182806
751.636	0.0183534
751.714	0.0185378
751.792	0.0186505
751.870	0.0186633
751.948	0.0187016
752.026	0.0187869
752.104	0.0188239
752.183	0.0187495
752.261	0.0186986
752.339	0.0188078
752.417	0.0185680
752.495	0.0183823
752.573	0.0182239
752.651	0.0181253
752.729	0.0179961
752.808	0.0177425
752.886	0.0176687
752.964	0.0174877
753.042	0.0172430
753.120	0.0171527
753.198	0.0170785
753.276	0.0169906
753.354	0.0168018
753.433	0.0169122
753.511	0.0169189
753.589	0.0168895
753.667	0.0170076
753.745	0.0168718
753.823	0.0170653
753.901	0.0172227
753.979	0.0173012
754.058	0.0174393
754.136	0.0176398
754.214	0.0178055
754.292	0.0178411
754.370	0.0179784
754.448	0.0181959
754.526	0.0183863
754.604	0.0185405
754.683	0.0186427
754.761	0.0185559
754.839	0.0187170
754.917	0.0186515
754.995	0.0186624
755.073	0.0185284
755.151	0.0185690
755.229	0.0184824
755.308	0.0182386
755.386	0.0181429
755.464	0.0181671
755.542	0.0178704
755.620	0.0179021
755.698	0.0176460
755.776	0.0173816
755.854	0.0173781
755.933	0.0173327
756.011	0.0173605
756.089	0.0173251
756.167	0.0172443
756.245	0.0173157
756.323	0.0171310
756.401	0.0174212
756.479	0.0174979
756.558	0.0175624
756.636	0.0178305
756.714	0.0180959
756.792	0.0180807
756.870	0.0182565
756.948	0.0184330
757.026	0.0187086
757.104	0.0189079
757.183	0.0189726
757.261	0.0190855
757.339	0.0191994
757.417	0.0191430
757.495	0.0189881
757.573	0.0189452
757.651	0.0187574
757.729	0.0187202
757.808	0.0184986
757.886	0.0183920
757.964	0.0182102
758.042	0.0181011
758.120	0.0179688
758.198	0.0178037
758.276	0.0176706
758.354	0.0174993
758.433	0.0173538
758.511	0.0172756
758.589	0.0172247
758.667	0.0170760
758.745	0.0169987
758.823	0.0170704
758.901	0.0170532
758.979	0.0170765
759.058	0.0170237
759.136	0.0169672
759.214	0.0170998
759.292	0.0171896
759.370	0.0172937
759.448	0.0173601
759.526	0.0174181
759.604	0.0176057
759.683	0.0177526
759.761	0.0178702
759.839	0.0180123
759.917	0.0181805
759.995	0.0182719
760.073	0.0185217
760.151	0.0183984
760.229	0.0185464
760.308	0.0186857
760.386	0.0186705
760.464	0.0186314
760.542	0.0185057
760.620	0.0185694
760.698	0.0185160
760.776	0.0182458
760.854	0.0180595
760.933	0.0180273
761.011	0.0177946
761.089	0.0176783
761.167	0.0176792
761.245	0.0175184
761.323	0.0172589
761.401	0.0171251
761.479	0.0170377
761.558	0.0170592
761.636	0.0169582
761.714	0.0169695
761.792	0.0169314
761.870	0.0170568
761.948	0.0172532
762.026	0.0172134
762.104	0.0174901
762.183	0.0176950
762.261	0.0177341
762.339	0.0179935
762.417	0.0183640
762.495	0.0185458
762.573	0.0185925
762.651	0.0188517
762.729	0.0188727
762.808	0.0188622
762.886	0.0189585
762.964	0.0189934
763.042	0.0189351
763.120	0.0188711
763.198	0.0187057
763.276	0.0186372
763.354	0.0186001
763.433	0.0185610
763.511	0.0183591
763.589	0.0181934
763.667	0.0180146
763.745	0.0177663
763.823	0.0176672
763.901	0.0172746
763.979	0.0172092
764.058	0.0172734
764.136	0.0172124
764.214	0.0170585
764.292	0.0171860
764.370	0.0172202
764.448	0.0172278
764.526	0.0172622
764.604	0.0173001
764.683	0.0173999
764.761	0.0173617
764.839	0.0174029
764.917	0.0175957
764.995	0.0177458
765.073	0.0178268
765.151	0.0179493
765.229	0.0180351
765.308	0.0180682
765.386	0.0182646
765.464	0.0182193
765.542	0.0182445
765.620	0.0182753
765.698	0.0183676
765.776	0.0182388
765.854	0.0181880
765.933	0.0182572
766.011	0.0181234
766.089	0.0183132
766.167	0.0179741
766.245	0.0179212
766.323	0.0177505
766.401	0.0178223
766.479	0.0178287
766.558	0.0177647
766.636	0.0174538
766.714	0.0175790
766.792	0.0175114
766.870	0.0173540
766.948	0.0174834
767.026	0.0174751
767.104	0.0175710
767.183	0.0174783
767.261	0.0174301
767.339	0.0173963
767.417	0.0175843
767.495	0.0175401
767.573	0.0176669
767.651	0.0178003
767.729	0.0179433
767.808	0.0179518
767.886	0.0180997
767.964	0.0183179
768.042	0.0182486
768.120	0.0184101
768.198	0.0185108
768.276	0.0186217
768.354	0.0185788
768.433	0.0185725
768.511	0.0185695
768.589	0.0184586
768.667	0.0184389
768.745	0.0182814
768.823	0.0182398
768.901	0.0181673
768.979	0.0181484
769.058	0.0179420
769.136	0.0179848
769.214	0.0177547
769.292	0.0176500
769.370	0.0176155
769.448	0.0175551
769.526	0.0175207
769.604	0.0174179
769.683	0.0173688
769.761	0.0174696
769.839	0.0173399
769.917	0.0174374
769.995	0.0175257
770.073	0.0175399
770.151	0.0176961
770.229	0.0177356
770.308	0.0177792
770.386	0.0177309
770.464	0.0179322
770.542	0.0179130
770.620	0.0178548
770.698	0.0180327
770.776	0.0181298
770.854	0.0181237
770.933	0.0180636
771.011	0.0180857
771.089	0.0180787
771.167	0.0181290
771.245	0.0183037
771.323	0.0181953
771.401	0.0180216
771.479	0.0179874
771.558	0.0180341
771.636	0.0181612
771.714	0.0179481
771.792	0.0178429
771.870	0.0176646
771.948	0.0177801
772.026	0.0177467
772.104	0.0176538
772.183	0.0177169
772.261	0.0176681
772.339	0.0176372
772.417	0.0176923
772.495	0.0176678
772.573	0.0177692
772.651	0.0178729
772.729	0.0178512
772.808	0.0177723
772.886	0.0178069
772.964	0.0178858
773.042	0.0180710
773.120	0.0179591
773.198	0.0180149
773.276	0.0180111
773.354	0.0181332
773.433	0.0179681
773.511	0.0181324
773.589	0.0181435
773.667	0.0181629
773.745	0.0181828
773.823	0.0181084
773.901	0.0181515
773.979	0.0181406
774.058	0.0181255
774.136	0.0180740
774.214	0.0180217
774.292	0.0181231
774.370	0.0180116
774.448	0.0179310
774.526	0.0179375
774.604	0.0179092
774.683	0.0178376
774.761	0.0180260
774.839	0.0178480
774.917	0.0177039
774.995	0.0177088
775.073	0.0178268
775.151	0.0178517
775.229	0.0177568
775.308	0.0178100
775.386	0.0179540
775.464	0.0177398
775.542	0.0178974
775.620	0.0178697
775.698	0.0178711
775.776	0.0180589
775.854	0.0179929
775.933	0.0181367
776.011	0.0181480
776.089	0.0182056
776.167	0.0180919
776.245	0.0180798
776.323	0.0181702
776.401	0.0180816
776.479	0.0180637
776.558	0.0180466
776.636	0.0181203
776.714	0.0180596
776.792	0.0180673
776.870	0.0180535
776.948	0.0178644
777.026	0.0179837
777.104	0.0179463
777.183	0.0178293
777.261	0.0177674
777.339	0.0178388
777.417	0.0178336
777.495	0.0177563
777.573	0.0177560
777.651	0.0177117
777.729	0.0176884
777.808	0.0175549
777.886	0.0175232
777.964	0.0174751
778.042	0.0176751
778.120	0.0176015
778.198	0.0175105
778.276	0.0175127
778.354	0.0177100
778.433	0.0176041
778.511	0.0178082
778.589	0.0177111
778.667	0.0176994
778.745	0.0178113
778.823	0.0178991
778.901	0.0177801
778.979	0.0179884
779.058	0.0180894
779.136	0.0178590
779.214	0.0180663
779.292	0.0179766
779.370	0.0180805
779.448	0.0180981
779.526	0.0181142
779.604	0.0181888
779.683	0.0181973
779.761	0.0183085
779.839	0.0183820
779.917	0.0183887
779.995	0.0183351
780.073	0.0184673
780.151	0.0183683
780.229	0.0183471
780.308	0.0184252
780.386	0.0184190
780.464	0.0183037
780.542	0.0182764
780.620	0.0183518
780.698	0.0183197
780.776	0.0181484
780.854	0.0179370
780.933	0.0181714
781.011	0.0180240
781.089	0.0179788
781.167	0.0178711
781.245	0.0179192
781.323	0.0176679
781.401	0.0177689
781.479	0.0176396
781.558	0.0176687
781.636	0.0176127
781.714	0.0175254
781.792	0.0175797
781.870	0.0175098
781.948	0.0175507
782.026	0.0176750
782.104	0.0175314
782.183	0.0176083
782.261	0.0177195
782.339	0.0178654
782.417	0.0177718
782.495	0.0178616
782.573	0.0180106
782.651	0.0181072
782.729	0.0181240
782.808	0.0181274
782.886	0.0181984
782.964	0.0182035
783.042	0.0182635
783.120	0.0181902
783.198	0.0180679
783.276	0.0181891
783.354	0.0181309
783.433	0.0181313
783.511	0.0179860
783.589	0.0179172
783.667	0.0179727
783.745	0.0178534
783.823	0.0178893
783.901	0.0179128
783.979	0.0176704
784.058	0.0176718
784.136	0.0177127
784.214	0.0175768
784.292	0.0177665
784.370	0.0176419
784.448	0.0177419
784.526	0.0177132
784.604	0.0176874
784.683	0.0176978
784.761	0.0177890
784.839	0.0179283
784.917	0.0180161
784.995	0.0179885
785.073	0.0180608
785.151	0.0180703
785.229	0.0181062
785.308	0.0181614
785.386	0.0182088
785.464	0.0181799
785.542	0.0180791
785.620	0.0181937
785.698	0.0181426
785.776	0.0182570
785.854	0.0181934
785.933	0.0180933
786.011	0.0182748
786.089	0.0181977
786.167	0.0180181
786.245	0.0180276
786.323	0.0179032
786.401	0.0180501
786.479	0.0179374
786.558	0.0177051
786.636	0.0178390
786.714	0.0177437
786.792	0.0175787
786.870	0.0176087
786.948	0.0174999
787.026	0.0174821
787.104	0.0174936
787.183	0.0172988
787.261	0.0173667
787.339	0.0174632
787.417	0.0174495
787.495	0.0175036
787.573	0.0175879
787.651	0.0177420
787.729	0.0178941
787.808	0.0179199
787.886	0.0180745
787.964	0.0181358
788.042	0.0180851
788.120	0.0182838
788.198	0.0183083
788.276	0.0182173
788.354	0.0184293
788.433	0.0183882
788.511	0.0183962
788.589	0.0184548
788.667	0.0184885
788.745	0.0184123
788.823	0.0183124
788.901	0.0181638
788.979	0.0181551
789.058	0.0180655
789.136	0.0180598
789.214	0.0180156
789.292	0.0178701
789.370	0.0177905
789.448	0.0176775
789.526	0.0174372
789.604	0.0174473
789.683	0.0175139
789.761	0.0172057
789.839	0.0172759
789.917	0.0173272
789.995	0.0172335
790.073	0.0172105
790.151	0.0174920
790.229	0.0174902
790.308	0.0174364
790.386	0.0174757
790.464	0.0175748
790.542	0.0178127
790.620	0.0178183
790.698	0.0180218
790.776	0.0178695
790.854	0.0182518
790.933	0.0183696
791.011	0.0184697
791.089	0.0183978
791.167	0.0185002
791.245	0.0183833
791.323	0.0183588
791.401	0.0183556
791.479	0.0182821
791.558	0.0181623
791.636	0.0180713
791.714	0.0180956
791.792	0.0180033
791.870	0.0180219
791.948	0.0178864
792.026	0.0177702
792.104	0.0176405
792.183	0.0174082
792.261	0.0176389
792.339	0.0176063
792.417	0.0174783
792.495	0.0176004
792.573	0.0177635
792.651	0.0176528
792.729	0.0177440
792.808	0.0177258
792.886	0.0178006
792.964	0.0177812
793.042	0.0178997
793.120	0.0179453
793.198	0.0179813
793.276	0.0180552
793.354	0.0180882
793.433	0.0181755
793.511	0.0181755
793.589	0.0184341
793.667	0.0183099
793.745	0.0183140
793.823	0.0183753
793.901	0.0182690
793.979	0.0182120
794.058	0.0180824
794.136	0.0181767
794.214	0.0180260
794.292	0.0180228
794.370	0.0178624
794.448	0.0179412
794.526	0.0179022
794.604	0.0178306
794.683	0.0177815
794.761	0.0176416
794.839	0.0175674
794.917	0.0176227
794.995	0.0174822
795.073	0.0175031
795.151	0.0175595
795.229	0.0173668
795.308	0.0175651
795.386	0.0175175
795.464	0.0177343
795.542	0.0176928
795.620	0.0177306
795.698	0.0178173
795.776	0.0177988
795.854	0.0177231
795.933	0.0177905
796.011	0.0180006
796.089	0.0181272
796.167	0.0179769
796.245	0.0179440
796.323	0.0182147
796.401	0.0181693
796.479	0.0180830
796.558	0.0180923
796.636	0.0182640
796.714	0.0182057
796.792	0.0182387
796.870	0.0182684
796.948	0.0183082
797.026	0.0181832
797.104	0.0180521
797.183	0.0182552
797.261	0.0181259
797.339	0.0180934
797.417	0.0179926
797.495	0.0179821
797.573	0.0180215
797.651	0.0180553
797.729	0.0178952
797.808	0.0177946
797.886	0.0178391
797.964	0.0177382
798.042	0.0177528
798.120	0.0177799
798.198	0.0177802
798.276	0.0178699
798.354	0.0178456
798.433	0.0179243
798.511	0.0179072
798.589	0.0178783
798.667	0.0180097
798.745	0.0180172
798.823	0.0180578
798.901	0.0181689
798.979	0.0180466
799.058	0.0180123
799.136	0.0181857
799.214	0.0180934
799.292	0.0180551
799.370	0.0181645
799.448	0.0180524
799.526	0.0180457
799.604	0.0179865
799.683	0.0179478
799.761	0.0178479
799.839	0.0177957
799.917	0.0177466
799.995	0.0176914
800.073	0.0175520
800.151	0.0175838
800.229	0.0176492
800.308	0.0175031
800.386	0.0176019
800.464	0.0176603
800.542	0.0177906
800.620	0.0177372
800.698	0.0176639
800.776	0.0176968
800.854	0.0178581
800.933	0.0178297
801.011	0.0179568
801.089	0.0179796
801.167	0.0179858
801.245	0.0180299
801.323	0.0179550
801.401	0.0179781
801.479	0.0181341
801.558	0.0182109
801.636	0.0181477
801.714	0.0181889
801.792	0.0181459
801.870	0.0180727
801.948	0.0180015
802.026	0.0180665
802.104	0.0179665
802.183	0.0179956
802.261	0.0180146
802.339	0.0181179
802.417	0.0181351
802.495	0.0180958
802.573	0.0181985
802.651	0.0182174
802.729	0.0181847
802.808	0.0181895
802.886	0.0183185
802.964	0.0182224
803.042	0.0181445
803.120	0.0180901
803.198	0.0181458
803.276	0.0180139
803.354	0.0180068
803.433	0.0180609
803.511	0.0181918
803.589	0.0179696
803.667	0.0179695
803.745	0.0180524
803.823	0.0180153
803.901	0.0179447
803.979	0.0179037
804.058	0.0177634
804.136	0.0179178
804.214	0.0177592
804.292	0.0178627
804.370	0.0178143
804.448	0.0178574
804.526	0.0177615
804.604	0.0176260
804.683	0.0177863
804.761	0.0178641
804.839	0.0177962
804.917	0.0178564
804.995	0.0178290
805.073	0.0176611
805.151	0.0178040
805.229	0.0177334
805.308	0.0177670
805.386	0.0176791
805.464	0.0176658
805.542	0.0177506
805.620	0.0176191
805.698	0.0176419
805.776	0.0177858
805.854	0.0177676
805.933	0.0176591
806.011	0.0175851
806.089	0.0176549
806.167	0.0178287
806.245	0.0177150
806.323	0.0177622
806.401	0.0177121
806.479	0.0178092
806.558	0.0179266
806.636	0.0178692
806.714	0.0179433
806.792	0.0179397
806.870	0.0179543
806.948	0.0178388
807.026	0.0179583
807.104	0.0179227
807.183	0.0178178
807.261	0.0181047
807.339	0.0180649
807.417	0.0181768
807.495	0.0181156
807.573	0.0180009
807.651	0.0181754
807.729	0.0181353
807.808	0.0182619
807.886	0.0182536
807.964	0.0182796
808.042	0.0183533
808.120	0.0182288
808.198	0.0183272
808.276	0.0183955
808.354	0.0182941
808.433	0.0180975
808.511	0.0181595
808.589	0.0180780
808.667	0.0181710
808.745	0.0181850
808.823	0.0178661
808.901	0.0179890
808.979	0.0179205
809.058	0.0178725
809.136	0.0180309
809.214	0.0179015
809.292	0.0178115
809.370	0.0178012
809.448	0.0179061
809.526	0.0179021
809.604	0.0177738
809.683	0.0177994
809.761	0.0178256
809.839	0.0178318
809.917	0.0174985
809.995	0.0177523
810.073	0.0177578
810.151	0.0177985
810.229	0.0176942
810.308	0.0177666
810.386	0.0176540
810.464	0.0176025
810.542	0.0177554
810.620	0.0177425
810.698	0.0176838
810.776	0.0177142
810.854	0.0176629
810.933	0.0175733
811.011	0.0176759
811.089	0.0176933
811.167	0.0176019
811.245	0.0175886
811.323	0.0176441
811.401	0.0177783
811.479	0.0176870
811.558	0.0177072
811.636	0.0177979
811.714	0.0177045
811.792	0.0177122
811.870	0.0176276
811.948	0.0176357
812.026	0.0177769
812.104	0.0177619
812.183	0.0176484
812.261	0.0177269
812.339	0.0179198
812.417	0.0176591
812.495	0.0176911
812.573	0.0177838
812.651	0.0177809
812.729	0.0179503
812.808	0.0179700
812.886	0.0181426
812.964	0.0180560
813.042	0.0181103
813.120	0.0181114
813.198	0.0182109
813.276	0.0182016
813.354	0.0182497
813.433	0.0182729
813.511	0.0183624
813.589	0.0184478
813.667	0.0185220
813.745	0.0184004
813.823	0.0184885
813.901	0.0185458
813.979	0.0184146
814.058	0.0181554
814.136	0.0182661
814.214	0.0182567
814.292	0.0181362
814.370	0.0180976
814.448	0.0180878
814.526	0.0180399
814.604	0.0180949
814.683	0.0181051
814.761	0.0180803
814.839	0.0179705
814.917	0.0180367
814.995	0.0180359
815.073	0.0181427
815.151	0.0179737
815.229	0.0181261
815.308	0.0181118
815.386	0.0179726
815.464	0.0179391
815.542	0.0178999
815.620	0.0180139
815.698	0.0179950
815.776	0.0178477
815.854	0.0178297
815.933	0.0179715
816.011	0.0178344
816.089	0.0176919
816.167	0.0175869
816.245	0.0175063
816.323	0.0176929
816.401	0.0176299
816.479	0.0175988
816.558	0.0176049
816.636	0.0175871
816.714	0.0174767
816.792	0.0174453
816.870	0.0176188
816.948	0.0175838
817.026	0.0176269
817.104	0.0176138
817.183	0.0174586
817.261	0.0175628
817.339	0.0176070
817.417	0.0176742
817.495	0.0175994
817.573	0.0176401
817.651	0.0175800
817.729	0.0175966
817.808	0.0175448
817.886	0.0175199
817.964	0.0176302
818.042	0.0176570
818.120	0.0177800
818.198	0.0176599
818.276	0.0178304
818.354	0.0179160
818.433	0.0178230
818.511	0.0181266
818.589	0.0180737
818.667	0.0182073
818.745	0.0182423
818.823	0.0183899
818.901	0.0184354
818.979	0.0184546
819.058	0.0183972
819.136	0.0186175
819.214	0.0184442
819.292	0.0185431
819.370	0.0185508
819.448	0.0187532
819.526	0.0184715
819.604	0.0185481
819.683	0.0186469
819.761	0.0185355
819.839	0.0183896
819.917	0.0184877
819.995	0.0183936
820.073	0.0182870
820.151	0.0180895
820.229	0.0181316
820.308	0.0181867
820.386	0.0181467
820.464	0.0179022
820.542	0.0178506
820.620	0.0178678
820.698	0.0179370
820.776	0.0176896
820.854	0.0178264
820.933	0.0176776
821.011	0.0177827
821.089	0.0177192
821.167	0.0176925
821.245	0.0176887
821.323	0.0176139
821.401	0.0176501
821.479	0.0175514
821.558	0.0176194
821.636	0.0176721
821.714	0.0175493
821.792	0.0176165
821.870	0.0177553
821.948	0.0175778
822.026	0.0175321
822.104	0.0176690
822.183	0.0175810
822.261	0.0175581
822.339	0.0175221
822.417	0.0175969
822.495	0.0176049
822.573	0.0174634
822.651	0.0175954
822.729	0.0176455
822.808	0.0174992
822.886	0.0176633
822.964	0.0176503
823.042	0.0177164
823.120	0.0176776
823.198	0.0178629
823.276	0.0178767
823.354	0.0177171
823.433	0.0178747
823.511	0.0179693
823.589	0.0179795
823.667	0.0179387
823.745	0.0179732
823.823	0.0179990
823.901	0.0179950
823.979	0.0180885
824.058	0.0179499
824.136	0.0181044
824.214	0.0181332
824.292	0.0181925
824.370	0.0182838
824.448	0.0183269
824.526	0.0183172
824.604	0.0183339
824.683	0.0184561
824.761	0.0183366
824.839	0.0184977
824.917	0.0185475
824.995	0.0184385
825.073	0.0182917
825.151	0.0184511
825.229	0.0185108
825.308	0.0184782
825.386	0.0183163
825.464	0.0181365
825.542	0.0181943
825.620	0.0182827
825.698	0.0179804
825.776	0.0179554
825.854	0.0179710
825.933	0.0181345
826.011	0.0180072
826.089	0.0179469
826.167	0.0178150
826.245	0.0177454
826.323	0.0178002
826.401	0.0176471
826.479	0.0177612
826.558	0.0176745
826.636	0.0176022
826.714	0.0175153
826.792	0.0175963
826.870	0.0175510
826.948	0.0175639
827.026	0.0176437
827.104	0.0175082
827.183	0.0175384
827.261	0.0175198
827.339	0.0176135
827.417	0.0175552
827.495	0.0175819
827.573	0.0177300
827.651	0.0175785
827.729	0.0175979
827.808	0.0176360
827.886	0.0176330
827.964	0.0177155
828.042	0.0175155
828.120	0.0174995
828.198	0.0176515
828.276	0.0174689
828.354	0.0175342
828.433	0.0175617
828.511	0.0174650
828.589	0.0174609
828.667	0.0175573
828.745	0.0175912
828.823	0.0176889
828.901	0.0178104
828.979	0.0177323
829.058	0.0177702
829.136	0.0177663
829.214	0.0177479
829.292	0.0179371
829.370	0.0179442
829.448	0.0180095
829.526	0.0181945
829.604	0.0182259
829.683	0.0180785
829.761	0.0183288
829.839	0.0182973
829.917	0.0183930
829.995	0.0184168
830.073	0.0184395
830.151	0.0184484
830.229	0.0184669
830.308	0.0185820
830.386	0.0186512
830.464	0.0185532
830.542	0.0185622
830.620	0.0185365
830.698	0.0185336
830.776	0.0184345
830.854	0.0184007
830.933	0.0183260
831.011	0.0183204
831.089	0.0182912
831.167	0.0182500
831.245	0.0179846
831.323	0.0181116
831.401	0.0179672
831.479	0.0179081
831.558	0.0178906
831.636	0.0178705
831.714	0.0179255
831.792	0.0177487
831.870	0.0177206
831.948	0.0175462
832.026	0.0176090
832.104	0.0176900
832.183	0.0175948
832.261	0.0175141
832.339	0.0174245
832.417	0.0174516
832.495	0.0175964
832.573	0.0176031
832.651	0.0175797
832.729	0.0174953
832.808	0.0176053
832.886	0.0175194
832.964	0.0175045
833.042	0.0175160
833.120	0.0175353
833.198	0.0175603
833.276	0.0175803
833.354	0.0175852
833.433	0.0176118
833.511	0.0176904
833.589	0.0175909
833.667	0.0176383
833.745	0.0175819
833.823	0.0176714
833.901	0.0176949
833.979	0.0178126
834.058	0.0177456
834.136	0.0178579
834.214	0.0178060
834.292	0.0178447
834.370	0.0179819
834.448	0.0178378
834.526	0.0177692
834.604	0.0179149
834.683	0.0180299
834.761	0.0179659
834.839	0.0180289
834.917	0.0181908
834.995	0.0180246
835.073	0.0181819
835.151	0.0181808
835.229	0.0181773
835.308	0.0181826
835.386	0.0181597
835.464	0.0182661
835.542	0.0183338
835.620	0.0183246
835.698	0.0183037
835.776	0.0183185
835.854	0.0183744
835.933	0.0183329
836.011	0.0183187
836.089	0.0184555
836.167	0.0183464
836.245	0.0183479
836.323	0.0183215
836.401	0.0182497
836.479	0.0182034
836.558	0.0182347
836.636	0.0181182
836.714	0.0179205
836.792	0.0178502
836.870	0.0178684
836.948	0.0178500
837.026	0.0177589
837.104	0.0177507
837.183	0.0176298
837.261	0.0176424
837.339	0.0173962
837.417	0.0176117
837.495	0.0178018
837.573	0.0176662
837.651	0.0175519
837.729	0.0174780
837.808	0.0175272
837.886	0.0176591
837.964	0.0176107
838.042	0.0174209
838.120	0.0174850
838.198	0.0175211
838.276	0.0177259
838.354	0.0176384
838.433	0.0175336
838.511	0.0176376
838.589	0.0175421
838.667	0.0175679
838.745	0.0177205
838.823	0.0176223
838.901	0.0177025
838.979	0.0177789
839.058	0.0177030
839.136	0.0178357
839.214	0.0177058
839.292	0.0179333
839.370	0.0179067
839.448	0.0179212
839.526	0.0178881
839.604	0.0180197
839.683	0.0180702
839.761	0.0179755
839.839	0.0180038
839.917	0.0180967
839.995	0.0179137
840.073	0.0179392
840.151	0.0180190
840.229	0.0181809
840.308	0.0179198
840.386	0.0178397
840.464	0.0178616
840.542	0.0178970
840.620	0.0179735
840.698	0.0180322
840.776	0.0179874
840.854	0.0179223
840.933	0.0178013
841.011	0.0180141
841.089	0.0179666
841.167	0.0178887
841.245	0.0180676
841.323	0.0179676
841.401	0.0181005
841.479	0.0182266
841.558	0.0180364
841.636	0.0181789
841.714	0.0182049
841.792	0.0182147
841.870	0.0182509
841.948	0.0181421
842.026	0.0181474
842.104	0.0182626
842.183	0.0180302
842.261	0.0180293
842.339	0.0180459
842.417	0.0181074
842.495	0.0180282
842.573	0.0180054
842.651	0.0179121
842.729	0.0178601
842.808	0.0179027
842.886	0.0178022
842.964	0.0177042
843.042	0.0178621
843.120	0.0178745
843.198	0.0177216
843.276	0.0177287
843.354	0.0177119
843.433	0.0177876
843.511	0.0177239
843.589	0.0179087
843.667	0.0178951
843.745	0.0177953
843.823	0.0180126
843.901	0.0178063
843.979	0.0178358
844.058	0.0179066
844.136	0.0177598
844.214	0.0178091
844.292	0.0178184
844.370	0.0178914
844.448	0.0178790
844.526	0.0178425
844.604	0.0179472
844.683	0.0179039
844.761	0.0180357
844.839	0.0180561
844.917	0.0178988
844.995	0.0179146
845.073	0.0178684
845.151	0.0178103
845.229	0.0178998
845.308	0.0179832
845.386	0.0179326
845.464	0.0180296
845.542	0.0178164
845.620	0.0178723
845.698	0.0178870
845.776	0.0179476
845.854	0.0178312
845.933	0.0177995
846.011	0.0179261
846.089	0.0179214
846.167	0.0178181
846.245	0.0178712
846.323	0.0178869
846.401	0.0178582
846.479	0.0178557
846.558	0.0179533
846.636	0.0176480
846.714	0.0178078
846.792	0.0178680
846.870	0.0179341
846.948	0.0179948
847.026	0.0179457
847.104	0.0179133
847.183	0.0178928
847.261	0.0179092
847.339	0.0180302
847.417	0.0180500
847.495	0.0180823
847.573	0.0181447
847.651	0.0180170
847.729	0.0180777
847.808	0.0180741
847.886	0.0179815
847.964	0.0180298
848.042	0.0178622
848.120	0.0179654
848.198	0.0179147
848.276	0.0178208
848.354	0.0179002
848.433	0.0178439
848.511	0.0177504
848.589	0.0177674
848.667	0.0178026
848.745	0.0179138
848.823	0.0179833
848.901	0.0179824
848.979	0.0179906
849.058	0.0179471
849.136	0.0180885
849.214	0.0179777
849.292	0.0179668
849.370	0.0179099
849.448	0.0178777
849.526	0.0179367
849.604	0.0180068
849.683	0.0178658
849.761	0.0180186
849.839	0.0180599
849.917	0.0179196
849.995	0.0178647
850.073	0.0178864
850.151	0.0178724
850.229	0.0178217
850.308	0.0179157
850.386	0.0178747
850.464	0.0179019
850.542	0.0179032
850.620	0.0178794
850.698	0.0178350
850.776	0.0178712
850.854	0.0179022
850.933	0.0179119
851.011	0.0179224
851.089	0.0178108
851.167	0.0177817
851.245	0.0177709
851.323	0.0177809
851.401	0.0176922
851.479	0.0178900
851.558	0.0175967
851.636	0.0176489
851.714	0.0177710
851.792	0.0176488
851.870	0.0177102
851.948	0.0176300
852.026	0.0177010
852.104	0.0175796
852.183	0.0176466
852.261	0.0176580
852.339	0.0177121
852.417	0.0177403
852.495	0.0177471
852.573	0.0178710
852.651	0.0178980
852.729	0.0177565
852.808	0.0178426
852.886	0.0179279
852.964	0.0179206
853.042	0.0181065
853.120	0.0181522
853.198	0.0179311
853.276	0.0179517
853.354	0.0180614
853.433	0.0180446
853.511	0.0180933
853.589	0.0179349
853.667	0.0180943
853.745	0.0181190
853.823	0.0179851
853.901	0.0181080
853.979	0.0179675
854.058	0.0180260
854.136	0.0179182
854.214	0.0178638
854.292	0.0180148
854.370	0.0179742
854.448	0.0180439
854.526	0.0179179
854.604	0.0179170
854.683	0.0179151
854.761	0.0179715
854.839	0.0180923
854.917	0.0179684
854.995	0.0179182
855.073	0.0180436
855.151	0.0179272
855.229	0.0181382
855.308	0.0180807
855.386	0.0179700
855.464	0.0178862
855.542	0.0177889
855.620	0.0180627
855.698	0.0179887
855.776	0.0179639
855.854	0.0179151
855.933	0.0178693
856.011	0.0178417
856.089	0.0179617
856.167	0.0178288
856.245	0.0178563
856.323	0.0179069
856.401	0.0178164
856.479	0.0178770
856.558	0.0178699
856.636	0.0179807
856.714	0.0180280
856.792	0.0178615
856.870	0.0178410
856.948	0.0179675
857.026	0.0179276
857.104	0.0179565
857.183	0.0177386
857.261	0.0178934
857.339	0.0177932
857.417	0.0177560
857.495	0.0177290
857.573	0.0177370
857.651	0.0177921
857.729	0.0177759
857.808	0.0176959
857.886	0.0178313
857.964	0.0179039
858.042	0.0177456
858.120	0.0178347
858.198	0.0178419
858.276	0.0178532
858.354	0.0178802
858.433	0.0177576
858.511	0.0178341
858.589	0.0179451
858.667	0.0179118
858.745	0.0180126
858.823	0.0180168
858.901	0.0178899
858.979	0.0179061
859.058	0.0179024
859.136	0.0180044
859.214	0.0180984
859.292	0.0178696
859.370	0.0180019
859.448	0.0180273
859.526	0.0179250
859.604	0.0180203
859.683	0.0178613
859.761	0.0179715
859.839	0.0180441
859.917	0.0181192
859.995	0.0180319
860.073	0.0180672
860.151	0.0178673
860.229	0.0180168
860.308	0.0181817
860.386	0.0179951
860.464	0.0180645
860.542	0.0180044
860.620	0.0179592
860.698	0.0180492
860.776	0.0178692
860.854	0.0179862
860.933	0.0178782
861.011	0.0180548
861.089	0.0179938
861.167	0.0179919
861.245	0.0179195
861.323	0.0180080
861.401	0.0180410
861.479	0.0178661
861.558	0.0178592
861.636	0.0180251
861.714	0.0178910
861.792	0.0180042
861.870	0.0178598
861.948	0.0179066
862.026	0.0178150
862.104	0.0178944
862.183	0.0178907
862.261	0.0178912
862.339	0.0176963
862.417	0.0178429
862.495	0.0179989
862.573	0.0178109
862.651	0.0178191
862.729	0.0179075
862.808	0.0178603
862.886	0.0178059
862.964	0.0178887
863.042	0.0178172
863.120	0.0179943
863.198	0.0178445
863.276	0.0178353
863.354	0.0178977
863.433	0.0179792
863.511	0.0180116
863.589	0.0179160
863.667	0.0177486
863.745	0.0179966
863.823	0.0178288
863.901	0.0180027
863.979	0.0179752
864.058	0.0177659
864.136	0.0177554
864.214	0.0178992
864.292	0.0179691
864.370	0.0178985
864.448	0.0177621
864.526	0.0177835
864.604	0.0179082
864.683	0.0178136
864.761	0.0178747
864.839	0.0177680
864.917	0.0179052
864.995	0.0179843
865.073	0.0179821
865.151	0.0178564
865.229	0.0178883
865.308	0.0179709
865.386	0.0181102
865.464	0.0180428
865.542	0.0181497
865.620	0.0181538
865.698	0.0179828
865.776	0.0181667
865.854	0.0180682
865.933	0.0180964
866.011	0.0182268
866.089	0.0180659
866.167	0.0180177
866.245	0.0181078
866.323	0.0181265
866.401	0.0179825
866.479	0.0180621
866.558	0.0178729
866.636	0.0179162
866.714	0.0179123
866.792	0.0178539
866.870	0.0178922
866.948	0.0180070
867.026	0.0178300
867.104	0.0176978
867.183	0.0177916
867.261	0.0178186
867.339	0.0177969
867.417	0.0176794
867.495	0.0177211
867.573	0.0177452
867.651	0.0177694
867.729	0.0176273
867.808	0.0177943
867.886	0.0177666
867.964	0.0177761
868.042	0.0177469
868.120	0.0179018
868.198	0.0178887
868.276	0.0177573
868.354	0.0176453
868.433	0.0177343
868.511	0.0177869
868.589	0.0178148
868.667	0.0177899
868.745	0.0177791
868.823	0.0177647
868.901	0.0177242
868.979	0.0178319
869.058	0.0177999
869.136	0.0179037
869.214	0.0179991
869.292	0.0179436
869.370	0.0179147
869.448	0.0178428
869.526	0.0178699
869.604	0.0178168
869.683	0.0179427
869.761	0.0177966
869.839	0.0177874
869.917	0.0178053
869.995	0.0178587
870.073	0.0177120
870.151	0.0177137
870.229	0.0177782
870.308	0.0177863
870.386	0.0179449
870.464	0.0178366
870.542	0.0177215
870.620	0.0179261
870.698	0.0180173
870.776	0.0180723
870.854	0.0180607
870.933	0.0180855
871.011	0.0180657
871.089	0.0180801
871.167	0.0182060
871.245	0.0181950
871.323	0.0182549
871.401	0.0183079
871.479	0.0181808
871.558	0.0182291
871.636	0.0181463
871.714	0.0182178
871.792	0.0181829
871.870	0.0181956
871.948	0.0182616
872.026	0.0181036
872.104	0.0180089
872.183	0.0179634
872.261	0.0179293
872.339	0.0178384
872.417	0.0178059
872.495	0.0178661
872.573	0.0179485
872.651	0.0177096
872.729	0.0178109
872.808	0.0179611
872.886	0.0179155
872.964	0.0177750
873.042	0.0178441
873.120	0.0178915
873.198	0.0179259
873.276	0.0179240
873.354	0.0180006
873.433	0.0180024
873.511	0.0179107
873.589	0.0180104
873.667	0.0180158
873.745	0.0179755
873.823	0.0179625
873.901	0.0180343
873.979	0.0179660
874.058	0.0178325
874.136	0.0176872
874.214	0.0177753
874.292	0.0179089
874.370	0.0177653
874.448	0.0176224
874.526	0.0177366
874.604	0.0176244
874.683	0.0176079
874.761	0.0176271
874.839	0.0175870
874.917	0.0177126
874.995	0.0175448
875.073	0.0175578
875.151	0.0176527
875.229	0.0175421
875.308	0.0176874
875.386	0.0176815
875.464	0.0177260
875.542	0.0175293
875.620	0.0176033
875.698	0.0176624
875.776	0.0176723
875.854	0.0177988
875.933	0.0178859
876.011	0.0177002
876.089	0.0178615
876.167	0.0178584
876.245	0.0179861
876.323	0.0179502
876.401	0.0178497
876.479	0.0180837
876.558	0.0180633
876.636	0.0181532
876.714	0.0182043
876.792	0.0181681
876.870	0.0181007
876.948	0.0180455
877.026	0.0181554
877.104	0.0182137
877.183	0.0181819
877.261	0.0182008
877.339	0.0181701
877.417	0.0180491
877.495	0.0179266
877.573	0.0178384
877.651	0.0180894
877.729	0.0180116
877.808	0.0180592
877.886	0.0178485
877.964	0.0178891
878.042	0.0179235
878.120	0.0179962
878.198	0.0179324
878.276	0.0180228
878.354	0.0179105
878.433	0.0178651
878.511	0.0179053
878.589	0.0179503
878.667	0.0180894
878.745	0.0179824
878.823	0.0180588
878.901	0.0179729
878.979	0.0180109
879.058	0.0178498
879.136	0.0181686
879.214	0.0181223
879.292	0.0180637
879.370	0.0180253
879.448	0.0179773
879.526	0.0180125
879.604	0.0180431
879.683	0.0180938
879.761	0.0180414
879.839	0.0179981
879.917	0.0179988
879.995	0.0178115
880.073	0.0176966
880.151	0.0178396
880.229	0.0177438
880.308	0.0177990
880.386	0.0176910
880.464	0.0176190
880.542	0.0176895
880.620	0.0176202
880.698	0.0177013
880.776	0.0176608
880.854	0.0176556
880.933	0.0177020
881.011	0.0177863
881.089	0.0178606
881.167	0.0177319
881.245	0.0177866
881.323	0.0179440
881.401	0.0179625
881.479	0.0179769
881.558	0.0179830
881.636	0.0180038
881.714	0.0180122
881.792	0.0180538
881.870	0.0181744
881.948	0.0181127
882.026	0.0181676
882.104	0.0180515
882.183	0.0181998
882.261	0.0181388
882.339	0.0181174
882.417	0.0181293
882.495	0.0180887
882.573	0.0180519
882.651	0.0178780
882.729	0.0180502
882.808	0.0179105
882.886	0.0179416
882.964	0.0179426
883.042	0.0178524
883.120	0.0177490
883.198	0.0178246
883.276	0.0176339
883.354	0.0177216
883.433	0.0176448
883.511	0.0176602
883.589	0.0178302
883.667	0.0178685
883.745	0.0176606
883.823	0.0178196
883.901	0.0178835
883.979	0.0178147
884.058	0.0177821
884.136	0.0179610
884.214	0.0179041
884.292	0.0178564
884.370	0.0178945
884.448	0.0179301
884.526	0.0180215
884.604	0.0180680
884.683	0.0180020
884.761	0.0180716
884.839	0.0181446
884.917	0.0180379
884.995	0.0180033
885.073	0.0180602
885.151	0.0180045
885.229	0.0179800
885.308	0.0181645
885.386	0.0179484
885.464	0.0179896
885.542	0.0179209
885.620	0.0179386
885.698	0.0177556
885.776	0.0179262
885.854	0.0178812
885.933	0.0176769
886.011	0.0176339
886.089	0.0177179
886.167	0.0176871
886.245	0.0174975
886.323	0.0176551
886.401	0.0176797
886.479	0.0177335
886.558	0.0178905
886.636	0.0178890
886.714	0.0179029
886.792	0.0179464
886.870	0.0179330
886.948	0.0180615
887.026	0.0180092
887.104	0.0182128
887.183	0.0181950
887.261	0.0181960
887.339	0.0181844
887.417	0.0180837
887.495	0.0181803
887.573	0.0181763
887.651	0.0180975
887.729	0.0180876
887.808	0.0181873
887.886	0.0180962
887.964	0.0181060
888.042	0.0181042
888.120	0.0180382
888.198	0.0180349
888.276	0.0181285
888.354	0.0180916
888.433	0.0179475
888.511	0.0180027
888.589	0.0178539
888.667	0.0179431
888.745	0.0179507
888.823	0.0177611
888.901	0.0178233
888.979	0.0178356
889.058	0.0178687
889.136	0.0177701
889.214	0.0177316
889.292	0.0177679
889.370	0.0177531
889.448	0.0176806
889.526	0.0178455
889.604	0.0179815
889.683	0.0177889
889.761	0.0179610
889.839	0.0178869
889.917	0.0178320
889.995	0.0179198
890.073	0.0179141
890.151	0.0178819
890.229	0.0180113
890.308	0.0180515
890.386	0.0179840
890.464	0.0179362
890.542	0.0180306
890.620	0.0180707
890.698	0.0180566
890.776	0.0178097
890.854	0.0178764
890.933	0.0179306
891.011	0.0178891
891.089	0.0178849
891.167	0.0179607
891.245	0.0177882
891.323	0.0180007
891.401	0.0177814
891.479	0.0177596
891.558	0.0178283
891.636	0.0177970
891.714	0.0177347
891.792	0.0177220
891.870	0.0179206
891.948	0.0178269
892.026	0.0176343
892.104	0.0178796
892.183	0.0178083
892.261	0.0178359
892.339	0.0179903
892.417	0.0178767
892.495	0.0180608
892.573	0.0179572
892.651	0.0180055
892.729	0.0178976
892.808	0.0180299
892.886	0.0180854
892.964	0.0180688
893.042	0.0180981
893.120	0.0181395
893.198	0.0182539
893.276	0.0181047
893.354	0.0182488
893.433	0.0182551
893.511	0.0182648
893.589	0.0182667
893.667	0.0181415
893.745	0.0181796
893.823	0.0182260
893.901	0.0180973
893.979	0.0181512
894.058	0.0181239
894.136	0.0179487
894.214	0.0179816
894.292	0.0177388
894.370	0.0177686
894.448	0.0177924
894.526	0.0176634
894.604	0.0177338
894.683	0.0177032
894.761	0.0176075
894.839	0.0176996
894.917	0.0176255
894.995	0.0177554
895.073	0.0176214
895.151	0.0177925
895.229	0.0178333
895.308	0.0178146
895.386	0.0178454
895.464	0.0178519
895.542	0.0178648
895.620	0.0178923
895.698	0.0179958
895.776	0.0179633
895.854	0.0180085
895.933	0.0180949
896.011	0.0179822
896.089	0.0179781
896.167	0.0181325
896.245	0.0181279
896.323	0.0179489
896.401	0.0180830
896.479	0.0180430
896.558	0.0178329
896.636	0.0179692
896.714	0.0178877
896.792	0.0178196
896.870	0.0178004
896.948	0.0178957
897.026	0.0177607
897.104	0.0177514
897.183	0.0177378
897.261	0.0176392
897.339	0.0178063
897.417	0.0177999
897.495	0.0178384
897.573	0.0178315
897.651	0.0180028
897.729	0.0179384
897.808	0.0178875
897.886	0.0180042
897.964	0.0181040
898.042	0.0181238
898.120	0.0181724
898.198	0.0181918
898.276	0.0181045
898.354	0.0182276
898.433	0.0181715
898.511	0.0182655
898.589	0.0182185
898.667	0.0182818
898.745	0.0181969
898.823	0.0181690
898.901	0.0182534
898.979	0.0181859
899.058	0.0182396
899.136	0.0180072
899.214	0.0181535
899.292	0.0180549
899.370	0.0180935
899.448	0.0181194
899.526	0.0180756
899.604	0.0180846
899.683	0.0179250
899.761	0.0178535
899.839	0.0178242
899.917	0.0177445
899.995	0.0177271
900.073	0.0177512
900.151	0.0175543
900.229	0.0175851
900.308	0.0176182
900.386	0.0176702
900.464	0.0176409
900.542	0.0174506
900.620	0.0176917
900.698	0.0177301
900.776	0.0176827
900.854	0.0177626
900.933	0.0177669
901.011	0.0178609
901.089	0.0179464
901.167	0.0178928
901.245	0.0179416
901.323	0.0180077
901.401	0.0180479
901.479	0.0181100
901.558	0.0179261
901.636	0.0180878
901.714	0.0180667
901.792	0.0180206
901.870	0.0180440
901.948	0.0179301
902.026	0.0179623
902.104	0.0178729
902.183	0.0179642
902.261	0.0178020
902.339	0.0177657
902.417	0.0177258
902.495	0.0176778
902.573	0.0178580
902.651	0.0176981
902.729	0.0178710
902.808	0.0179048
902.886	0.0178441
902.964	0.0178245
903.042	0.0179755
903.120	0.0179037
903.198	0.0177946
903.276	0.0178123
903.354	0.0179714
903.433	0.0179550
903.511	0.0180275
903.589	0.0179762
903.667	0.0180337
903.745	0.0181475
903.823	0.0181096
903.901	0.0180966
903.979	0.0181409
904.058	0.0181779
904.136	0.0181976
904.214	0.0181796
904.292	0.0181030
904.370	0.0180496
904.448	0.0182093
904.526	0.0180779
904.604	0.0180271
904.683	0.0180074
904.761	0.0180209
904.839	0.0178334
904.917	0.0177267
904.995	0.0179678
905.073	0.0178155
905.151	0.0177219
905.229	0.0175394
905.308	0.0177105
905.386	0.0175997
905.464	0.0175481
905.542	0.0176159
905.620	0.0175124
905.698	0.0175650
905.776	0.0176659
905.854	0.0176167
905.933	0.0176527
906.011	0.0178294
906.089	0.0176592
906.167	0.0175674
906.245	0.0176879
906.323	0.0177865
906.401	0.0179643
906.479	0.0179469
906.558	0.0179601
906.636	0.0180947
906.714	0.0179992
906.792	0.0181478
906.870	0.0180064
906.948	0.0180118
907.026	0.0181609
907.104	0.0180970
907.183	0.0182036
907.261	0.0181334
907.339	0.0179857
907.417	0.0181638
907.495	0.0179932
907.573	0.0179790
907.651	0.0180932
907.729	0.0178727
907.808	0.0179862
907.886	0.0177573
907.964	0.0178854
908.042	0.0178633
908.120	0.0178659
908.198	0.0178984
908.276	0.0177548
908.354	0.0177789
908.433	0.0177782
908.511	0.0177884
908.589	0.0178494
908.667	0.0178773
908.745	0.0178199
908.823	0.0178537
908.901	0.0178526
908.979	0.0177793
909.058	0.0178891
909.136	0.0178265
909.214	0.0178319
909.292	0.0178300
909.370	0.0178831
909.448	0.0179376
909.526	0.0178205
909.604	0.0179458
909.683	0.0180200
909.761	0.0179315
909.839	0.0179464
909.917	0.0180397
909.995	0.0180576
910.073	0.0180839
910.151	0.0180395
910.229	0.0180743
910.308	0.0181157
910.386	0.0180766
910.464	0.0179764
910.542	0.0180325
910.620	0.0181400
910.698	0.0181072
910.776	0.0179535
910.854	0.0179681
910.933	0.0179226
911.011	0.0179559
911.089	0.0179082
911.167	0.0179059
911.245	0.0178527
911.323	0.0177396
911.401	0.0177033
911.479	0.0177324
911.558	0.0178340
911.636	0.0177419
911.714	0.0175656
911.792	0.0177560
911.870	0.0176316
911.948	0.0177422
912.026	0.0180170
912.104	0.0177106
912.183	0.0178676
912.261	0.0178395
912.339	0.0179694
912.417	0.0179696
912.495	0.0180159
912.573	0.0180815
912.651	0.0180952
912.729	0.0181898
912.808	0.0180880
912.886	0.0180224
912.964	0.0179227
913.042	0.0178204
913.120	0.0179028
913.198	0.0180151
913.276	0.0178736
913.354	0.0179607
913.433	0.0178767
913.511	0.0178571
913.589	0.0178197
913.667	0.0177428
913.745	0.0177496
913.823	0.0178979
913.901	0.0179195
913.979	0.0178717
914.058	0.0179799
914.136	0.0179048
914.214	0.0178411
914.292	0.0179011
914.370	0.0179677
914.448	0.0178381
914.526	0.0180501
914.604	0.0179935
914.683	0.0181496
914.761	0.0180483
914.839	0.0180514
914.917	0.0181502
914.995	0.0181743
915.073	0.0182517
915.151	0.0180978
915.229	0.0181438
915.308	0.0180833
915.386	0.0180367
915.464	0.0181574
915.542	0.0182211
915.620	0.0180342
915.698	0.0180488
915.776	0.0181486
915.854	0.0181136
915.933	0.0179736
916.011	0.0180566
916.089	0.0178035
916.167	0.0178578
916.245	0.0178249
916.323	0.0177132
916.401	0.0178104
916.479	0.0177475
916.558	0.0176794
916.636	0.0176848
916.714	0.0176177
916.792	0.0176628
916.870	0.0176649
916.948	0.0176546
917.026	0.0177235
917.104	0.0177026
917.183	0.0176281
917.261	0.0177319
917.339	0.0176902
917.417	0.0176463
917.495	0.0175414
917.573	0.0177364
917.651	0.0177802
917.729	0.0178368
917.808	0.0177364
917.886	0.0177311
917.964	0.0178997
918.042	0.0180058
918.120	0.0179388
918.198	0.0178855
918.276	0.0179940
918.354	0.0180234
918.433	0.0180511
918.511	0.0181061
918.589	0.0180160
918.667	0.0180750
918.745	0.0182378
918.823	0.0179819
918.901	0.0181025
918.979	0.0180417
919.058	0.0179564
919.136	0.0180557
919.214	0.0182133
919.292	0.0181645
919.370	0.0180506
919.448	0.0182803
919.526	0.0182301
919.604	0.0182022
919.683	0.0181368
919.761	0.0181863
919.839	0.0181370
919.917	0.0181582
