06/03/2022	18:19:23	Ver.	4.1	UNKNOWN
Optical Delay	599.995081	Delta X		0.078125	Sweeps	1	Scan Rate	0/0
Coordinates	Axis 1	NaN	Axis 2	NaN	Axis 3	NaN	Axis 4	NaN	Axis 5	NaN	Axis 6	0.000000
TX Power	0.000000	RX Power	0.000000

599.995	0.0183016
600.073	0.0183911
600.151	0.0184606
600.229	0.0183253
600.308	0.0182558
600.386	0.0182501
600.464	0.0184377
600.542	0.0182456
600.620	0.0182333
600.698	0.0182827
600.776	0.0182490
600.854	0.0183434
600.933	0.0183669
601.011	0.0183716
601.089	0.0182580
601.167	0.0183105
601.245	0.0183070
601.323	0.0182845
601.401	0.0183411
601.479	0.0182336
601.558	0.0183102
601.636	0.0183611
601.714	0.0182584
601.792	0.0183093
601.870	0.0183456
601.948	0.0182287
602.026	0.0182881
602.104	0.0183643
602.183	0.0183871
602.261	0.0183379
602.339	0.0182995
602.417	0.0183805
602.495	0.0184358
602.573	0.0183730
602.651	0.0183137
602.729	0.0182939
602.808	0.0182188
602.886	0.0183077
602.964	0.0183364
603.042	0.0184339
603.120	0.0183374
603.198	0.0183954
603.276	0.0183627
603.354	0.0182755
603.433	0.0182745
603.511	0.0183375
603.589	0.0182339
603.667	0.0182876
603.745	0.0185087
603.823	0.0183066
603.901	0.0182661
603.979	0.0182439
604.058	0.0182854
604.136	0.0183869
604.214	0.0183303
604.292	0.0183500
604.370	0.0183874
604.448	0.0182009
604.526	0.0183936
604.604	0.0184824
604.683	0.0182294
604.761	0.0183665
604.839	0.0183453
604.917	0.0183397
604.995	0.0183579
605.073	0.0183672
605.151	0.0182621
605.229	0.0183009
605.308	0.0183135
605.386	0.0183342
605.464	0.0182709
605.542	0.0184097
605.620	0.0183841
605.698	0.0182397
605.776	0.0183768
605.854	0.0184055
605.933	0.0181612
606.011	0.0181409
606.089	0.0183025
606.167	0.0183388
606.245	0.0182486
606.323	0.0182885
606.401	0.0183711
606.479	0.0183084
606.558	0.0183024
606.636	0.0183634
606.714	0.0183365
606.792	0.0182500
606.870	0.0182641
606.948	0.0181542
607.026	0.0183428
607.104	0.0182719
607.183	0.0182092
607.261	0.0184112
607.339	0.0184472
607.417	0.0182319
607.495	0.0182107
607.573	0.0181711
607.651	0.0183188
607.729	0.0183129
607.808	0.0183144
607.886	0.0183304
607.964	0.0181737
608.042	0.0182964
608.120	0.0183100
608.198	0.0183971
608.276	0.0182531
608.354	0.0184100
608.433	0.0182880
608.511	0.0182436
608.589	0.0181755
608.667	0.0182308
608.745	0.0182583
608.823	0.0184027
608.901	0.0183189
608.979	0.0181865
609.058	0.0182777
609.136	0.0182835
609.214	0.0183554
609.292	0.0182150
609.370	0.0182294
609.448	0.0184042
609.526	0.0183673
609.604	0.0182044
609.683	0.0182933
609.761	0.0184710
609.839	0.0182522
609.917	0.0182549
609.995	0.0182039
610.073	0.0182793
610.151	0.0182075
610.229	0.0181746
610.308	0.0182865
610.386	0.0182761
610.464	0.0183348
610.542	0.0182069
610.620	0.0182440
610.698	0.0181715
610.776	0.0182334
610.854	0.0182922
610.933	0.0182896
611.011	0.0183401
611.089	0.0182645
611.167	0.0182508
611.245	0.0182953
611.323	0.0183558
611.401	0.0181929
611.479	0.0183519
611.558	0.0182158
611.636	0.0182350
611.714	0.0182476
611.792	0.0183642
611.870	0.0183913
611.948	0.0181924
612.026	0.0184281
612.104	0.0182870
612.183	0.0182440
612.261	0.0183195
612.339	0.0183956
612.417	0.0182445
612.495	0.0182829
612.573	0.0182721
612.651	0.0182024
612.729	0.0182429
612.808	0.0182492
612.886	0.0184295
612.964	0.0182260
613.042	0.0183956
613.120	0.0182876
613.198	0.0183410
613.276	0.0182493
613.354	0.0182011
613.433	0.0182802
613.511	0.0180774
613.589	0.0182509
613.667	0.0182815
613.745	0.0183378
613.823	0.0183041
613.901	0.0181289
613.979	0.0182957
614.058	0.0182958
614.136	0.0183290
614.214	0.0183303
614.292	0.0182173
614.370	0.0182061
614.448	0.0182523
614.526	0.0182632
614.604	0.0181939
614.683	0.0182032
614.761	0.0183492
614.839	0.0182940
614.917	0.0182893
614.995	0.0183023
615.073	0.0182047
615.151	0.0181259
615.229	0.0182599
615.308	0.0182800
615.386	0.0182761
615.464	0.0182251
615.542	0.0182651
615.620	0.0183147
615.698	0.0182571
615.776	0.0183771
615.854	0.0182795
615.933	0.0182430
616.011	0.0183340
616.089	0.0181857
616.167	0.0183378
616.245	0.0182690
616.323	0.0183273
616.401	0.0182777
616.479	0.0182639
616.558	0.0182813
616.636	0.0183623
616.714	0.0182743
616.792	0.0182790
616.870	0.0183852
616.948	0.0183139
617.026	0.0182954
617.104	0.0183279
617.183	0.0181999
617.261	0.0183418
617.339	0.0183444
617.417	0.0184527
617.495	0.0183537
617.573	0.0184087
617.651	0.0183879
617.729	0.0183914
617.808	0.0182326
617.886	0.0184031
617.964	0.0183292
618.042	0.0183607
618.120	0.0185244
618.198	0.0182967
618.276	0.0182635
618.354	0.0182192
618.433	0.0184355
618.511	0.0183547
618.589	0.0181851
618.667	0.0182183
618.745	0.0183544
618.823	0.0181973
618.901	0.0183482
618.979	0.0182801
619.058	0.0184361
619.136	0.0183820
619.214	0.0182510
619.292	0.0182664
619.370	0.0183891
619.448	0.0184367
619.526	0.0182459
619.604	0.0183102
619.683	0.0183450
619.761	0.0183423
619.839	0.0183630
619.917	0.0183324
619.995	0.0182645
620.073	0.0182858
620.151	0.0183685
620.229	0.0183125
620.308	0.0183067
620.386	0.0184063
620.464	0.0183406
620.542	0.0182384
620.620	0.0182489
620.698	0.0184048
620.776	0.0184325
620.854	0.0182795
620.933	0.0183755
621.011	0.0183202
621.089	0.0183691
621.167	0.0182497
621.245	0.0182470
621.323	0.0183267
621.401	0.0181654
621.479	0.0184922
621.558	0.0184361
621.636	0.0182121
621.714	0.0184718
621.792	0.0184822
621.870	0.0181819
621.948	0.0182026
622.026	0.0182322
622.104	0.0182320
622.183	0.0183238
622.261	0.0182841
622.339	0.0183357
622.417	0.0184425
622.495	0.0183652
622.573	0.0184101
622.651	0.0184361
622.729	0.0182587
622.808	0.0183171
622.886	0.0183707
622.964	0.0182822
623.042	0.0182648
623.120	0.0182681
623.198	0.0184360
623.276	0.0183985
623.354	0.0182465
623.433	0.0181792
623.511	0.0181409
623.589	0.0182705
623.667	0.0183309
623.745	0.0182768
623.823	0.0183585
623.901	0.0182904
623.979	0.0182471
624.058	0.0182793
624.136	0.0184127
624.214	0.0182343
624.292	0.0183852
624.370	0.0183589
624.448	0.0183389
624.526	0.0183649
624.604	0.0184084
624.683	0.0181651
624.761	0.0182255
624.839	0.0184253
624.917	0.0183042
624.995	0.0183326
625.073	0.0182571
625.151	0.0181144
625.229	0.0182174
625.308	0.0183913
625.386	0.0182947
625.464	0.0182854
625.542	0.0183000
625.620	0.0182773
625.698	0.0182175
625.776	0.0182307
625.854	0.0181581
625.933	0.0183209
626.011	0.0183183
626.089	0.0183231
626.167	0.0184213
626.245	0.0183162
626.323	0.0182396
626.401	0.0182696
626.479	0.0182157
626.558	0.0184045
626.636	0.0183752
626.714	0.0182257
626.792	0.0182218
626.870	0.0183998
626.948	0.0183834
627.026	0.0182738
627.104	0.0181838
627.183	0.0182780
627.261	0.0182301
627.339	0.0181771
627.417	0.0181417
627.495	0.0182612
627.573	0.0184109
627.651	0.0183354
627.729	0.0183605
627.808	0.0184296
627.886	0.0183128
627.964	0.0182988
628.042	0.0183321
628.120	0.0183934
628.198	0.0183079
628.276	0.0183803
628.354	0.0184446
628.433	0.0183160
628.511	0.0182375
628.589	0.0182529
628.667	0.0182430
628.745	0.0182587
628.823	0.0182433
628.901	0.0183307
628.979	0.0182104
629.058	0.0182245
629.136	0.0183423
629.214	0.0181870
629.292	0.0182862
629.370	0.0183070
629.448	0.0181973
629.526	0.0183788
629.604	0.0183047
629.683	0.0182500
629.761	0.0182147
629.839	0.0184230
629.917	0.0183578
629.995	0.0183262
630.073	0.0183162
630.151	0.0184358
630.229	0.0182309
630.308	0.0182447
630.386	0.0183593
630.464	0.0183364
630.542	0.0184090
630.620	0.0183004
630.698	0.0181706
630.776	0.0182848
630.854	0.0183192
630.933	0.0182630
631.011	0.0182057
631.089	0.0182605
631.167	0.0183310
631.245	0.0182467
631.323	0.0183015
631.401	0.0182652
631.479	0.0183381
631.558	0.0183652
631.636	0.0182905
631.714	0.0183530
631.792	0.0184904
631.870	0.0183669
631.948	0.0181934
632.026	0.0182813
632.104	0.0183265
632.183	0.0182681
632.261	0.0182888
632.339	0.0182681
632.417	0.0182668
632.495	0.0182643
632.573	0.0182143
632.651	0.0182794
632.729	0.0182782
632.808	0.0183060
632.886	0.0182296
632.964	0.0183440
633.042	0.0181616
633.120	0.0184028
633.198	0.0183820
633.276	0.0182997
633.354	0.0183330
633.433	0.0181385
633.511	0.0182607
633.589	0.0181980
633.667	0.0181126
633.745	0.0183661
633.823	0.0184263
633.901	0.0183047
633.979	0.0182297
634.058	0.0183392
634.136	0.0181430
634.214	0.0183247
634.292	0.0182741
634.370	0.0182159
634.448	0.0182625
634.526	0.0182578
634.604	0.0182841
634.683	0.0181586
634.761	0.0182685
634.839	0.0183009
634.917	0.0181152
634.995	0.0182521
635.073	0.0182103
635.151	0.0182944
635.229	0.0183572
635.308	0.0181985
635.386	0.0180917
635.464	0.0182412
635.542	0.0184183
635.620	0.0182760
635.698	0.0182524
635.776	0.0182458
635.854	0.0182536
635.933	0.0181994
636.011	0.0182389
636.089	0.0182483
636.167	0.0183063
636.245	0.0183087
636.323	0.0182407
636.401	0.0182491
636.479	0.0181623
636.558	0.0181969
636.636	0.0182647
636.714	0.0181952
636.792	0.0183649
636.870	0.0183065
636.948	0.0183901
637.026	0.0183008
637.104	0.0182373
637.183	0.0183706
637.261	0.0182486
637.339	0.0181732
637.417	0.0182092
637.495	0.0183336
637.573	0.0182670
637.651	0.0184704
637.729	0.0181357
637.808	0.0183833
637.886	0.0184342
637.964	0.0183507
638.042	0.0183984
638.120	0.0183402
638.198	0.0182520
638.276	0.0182375
638.354	0.0182170
638.433	0.0182076
638.511	0.0182635
638.589	0.0182325
638.667	0.0183648
638.745	0.0183575
638.823	0.0182113
638.901	0.0182615
638.979	0.0182777
639.058	0.0183012
639.136	0.0181813
639.214	0.0182271
639.292	0.0182375
639.370	0.0184023
639.448	0.0182783
639.526	0.0181892
639.604	0.0181708
639.683	0.0183220
639.761	0.0181757
639.839	0.0181564
639.917	0.0183524
639.995	0.0182770
640.073	0.0182537
640.151	0.0181578
640.229	0.0182318
640.308	0.0183466
640.386	0.0182545
640.464	0.0182883
640.542	0.0183040
640.620	0.0182156
640.698	0.0182309
640.776	0.0182214
640.854	0.0183730
640.933	0.0181937
641.011	0.0181921
641.089	0.0183228
641.167	0.0182352
641.245	0.0183410
641.323	0.0183733
641.401	0.0182557
641.479	0.0183283
641.558	0.0182509
641.636	0.0183351
641.714	0.0184000
641.792	0.0182026
641.870	0.0182270
641.948	0.0183254
642.026	0.0182139
642.104	0.0183077
642.183	0.0183758
642.261	0.0182648
642.339	0.0182795
642.417	0.0182670
642.495	0.0181692
642.573	0.0182552
642.651	0.0182099
642.729	0.0183387
642.808	0.0181767
642.886	0.0181581
642.964	0.0182394
643.042	0.0182496
643.120	0.0183585
643.198	0.0181696
643.276	0.0181802
643.354	0.0181284
643.433	0.0182729
643.511	0.0182738
643.589	0.0182056
643.667	0.0183876
643.745	0.0182021
643.823	0.0182285
643.901	0.0182962
643.979	0.0182109
644.058	0.0182358
644.136	0.0183794
644.214	0.0183566
644.292	0.0181602
644.370	0.0182915
644.448	0.0182952
644.526	0.0182286
644.604	0.0183426
644.683	0.0183170
644.761	0.0182837
644.839	0.0182336
644.917	0.0183511
644.995	0.0184572
645.073	0.0182903
645.151	0.0183048
645.229	0.0183348
645.308	0.0183115
645.386	0.0183047
645.464	0.0183701
645.542	0.0182618
645.620	0.0182571
645.698	0.0183717
645.776	0.0183628
645.854	0.0183092
645.933	0.0183154
646.011	0.0182925
646.089	0.0182703
646.167	0.0183538
646.245	0.0182627
646.323	0.0183051
646.401	0.0182571
646.479	0.0182278
646.558	0.0182988
646.636	0.0183344
646.714	0.0183501
646.792	0.0183818
646.870	0.0181839
646.948	0.0183747
647.026	0.0184207
647.104	0.0184836
647.183	0.0182728
647.261	0.0183423
647.339	0.0184009
647.417	0.0182658
647.495	0.0184808
647.573	0.0185056
647.651	0.0182562
647.729	0.0184158
647.808	0.0183345
647.886	0.0183542
647.964	0.0182767
648.042	0.0182284
648.120	0.0182867
648.198	0.0183139
648.276	0.0181693
648.354	0.0184007
648.433	0.0183094
648.511	0.0182924
648.589	0.0182880
648.667	0.0182429
648.745	0.0183293
648.823	0.0183408
648.901	0.0182170
648.979	0.0183775
649.058	0.0183931
649.136	0.0184663
649.214	0.0183110
649.292	0.0183637
649.370	0.0183849
649.448	0.0182265
649.526	0.0184465
649.604	0.0182874
649.683	0.0183155
649.761	0.0181882
649.839	0.0184232
649.917	0.0182795
649.995	0.0182947
650.073	0.0183167
650.151	0.0183572
650.229	0.0182470
650.308	0.0181237
650.386	0.0182790
650.464	0.0182743
650.542	0.0182386
650.620	0.0182971
650.698	0.0183765
650.776	0.0183660
650.854	0.0182071
650.933	0.0183455
651.011	0.0182498
651.089	0.0184063
651.167	0.0182942
651.245	0.0182747
651.323	0.0183169
651.401	0.0182960
651.479	0.0182313
651.558	0.0183952
651.636	0.0182806
651.714	0.0182627
651.792	0.0183017
651.870	0.0183161
651.948	0.0184457
652.026	0.0183045
652.104	0.0182481
652.183	0.0183224
652.261	0.0183321
652.339	0.0182250
652.417	0.0182082
652.495	0.0182391
652.573	0.0183963
652.651	0.0183729
652.729	0.0182318
652.808	0.0183755
652.886	0.0183002
652.964	0.0183802
653.042	0.0181937
653.120	0.0184439
653.198	0.0183267
653.276	0.0182234
653.354	0.0183437
653.433	0.0183397
653.511	0.0181864
653.589	0.0182190
653.667	0.0182152
653.745	0.0183515
653.823	0.0181611
653.901	0.0182505
653.979	0.0184125
654.058	0.0183340
654.136	0.0184000
654.214	0.0183192
654.292	0.0182246
654.370	0.0182716
654.448	0.0182652
654.526	0.0183906
654.604	0.0184603
654.683	0.0184040
654.761	0.0182915
654.839	0.0183266
654.917	0.0182624
654.995	0.0183334
655.073	0.0182548
655.151	0.0184219
655.229	0.0182282
655.308	0.0183502
655.386	0.0181519
655.464	0.0182797
655.542	0.0182870
655.620	0.0181652
655.698	0.0182576
655.776	0.0182530
655.854	0.0182209
655.933	0.0180990
656.011	0.0182661
656.089	0.0184731
656.167	0.0183453
656.245	0.0182647
656.323	0.0182336
656.401	0.0182383
656.479	0.0182495
656.558	0.0181765
656.636	0.0183418
656.714	0.0184393
656.792	0.0183202
656.870	0.0180706
656.948	0.0183098
657.026	0.0182398
657.104	0.0182029
657.183	0.0182467
657.261	0.0183688
657.339	0.0183718
657.417	0.0182729
657.495	0.0181610
657.573	0.0183086
657.651	0.0182525
657.729	0.0182361
657.808	0.0183392
657.886	0.0183179
657.964	0.0182412
658.042	0.0182697
658.120	0.0182921
658.198	0.0183176
658.276	0.0182456
658.354	0.0183633
658.433	0.0183330
658.511	0.0183192
658.589	0.0182873
658.667	0.0183826
658.745	0.0183123
658.823	0.0183914
658.901	0.0183054
658.979	0.0182471
659.058	0.0182697
659.136	0.0182443
659.214	0.0182124
659.292	0.0182442
659.370	0.0184353
659.448	0.0182860
659.526	0.0182729
659.604	0.0183363
659.683	0.0183366
659.761	0.0182980
659.839	0.0182582
659.917	0.0182512
659.995	0.0182516
660.073	0.0183119
660.151	0.0182684
660.229	0.0182621
660.308	0.0182019
660.386	0.0182997
660.464	0.0181628
660.542	0.0181158
660.620	0.0182755
660.698	0.0183492
660.776	0.0182088
660.854	0.0181380
660.933	0.0182777
661.011	0.0183771
661.089	0.0183513
661.167	0.0182801
661.245	0.0182738
661.323	0.0183014
661.401	0.0183374
661.479	0.0184061
661.558	0.0181245
661.636	0.0182760
661.714	0.0183365
661.792	0.0181353
661.870	0.0181631
661.948	0.0183043
662.026	0.0182593
662.104	0.0181501
662.183	0.0181636
662.261	0.0181863
662.339	0.0182697
662.417	0.0181950
662.495	0.0182797
662.573	0.0183406
662.651	0.0183797
662.729	0.0184293
662.808	0.0184290
662.886	0.0184639
662.964	0.0184026
663.042	0.0182460
663.120	0.0183377
663.198	0.0182066
663.276	0.0182390
663.354	0.0180707
663.433	0.0180288
663.511	0.0180707
663.589	0.0180836
663.667	0.0180801
663.745	0.0180272
663.823	0.0182418
663.901	0.0181731
663.979	0.0183749
664.058	0.0182802
664.136	0.0186085
664.214	0.0186340
664.292	0.0185101
664.370	0.0185357
664.448	0.0184840
664.526	0.0184197
664.604	0.0184348
664.683	0.0184213
664.761	0.0183855
664.839	0.0182922
664.917	0.0181432
664.995	0.0183610
665.073	0.0181744
665.151	0.0180718
665.229	0.0180325
665.308	0.0180885
665.386	0.0180558
665.464	0.0180125
665.542	0.0180948
665.620	0.0181282
665.698	0.0180690
665.776	0.0181140
665.854	0.0181995
665.933	0.0182911
666.011	0.0184116
666.089	0.0185220
666.167	0.0185011
666.245	0.0186619
666.323	0.0185752
666.401	0.0186929
666.479	0.0185633
666.558	0.0185669
666.636	0.0185407
666.714	0.0183267
666.792	0.0182912
666.870	0.0183375
666.948	0.0181190
667.026	0.0179704
667.104	0.0179393
667.183	0.0179491
667.261	0.0178343
667.339	0.0179781
667.417	0.0179741
667.495	0.0178800
667.573	0.0181068
667.651	0.0181291
667.729	0.0181629
667.808	0.0183724
667.886	0.0184866
667.964	0.0186308
668.042	0.0185159
668.120	0.0184683
668.198	0.0186513
668.276	0.0186295
668.354	0.0185134
668.433	0.0183934
668.511	0.0184915
668.589	0.0183250
668.667	0.0183678
668.745	0.0184023
668.823	0.0181648
668.901	0.0182406
668.979	0.0181480
669.058	0.0180945
669.136	0.0179384
669.214	0.0178268
669.292	0.0180458
669.370	0.0180296
669.448	0.0181212
669.526	0.0180846
669.604	0.0182353
669.683	0.0183687
669.761	0.0184476
669.839	0.0184280
669.917	0.0184737
669.995	0.0185605
670.073	0.0184140
670.151	0.0184739
670.229	0.0186590
670.308	0.0185387
670.386	0.0186242
670.464	0.0184621
670.542	0.0185580
670.620	0.0185593
670.698	0.0185221
670.776	0.0183894
670.854	0.0182527
670.933	0.0182458
671.011	0.0181487
671.089	0.0181754
671.167	0.0178806
671.245	0.0178539
671.323	0.0177314
671.401	0.0179151
671.479	0.0179164
671.558	0.0178857
671.636	0.0179886
671.714	0.0182154
671.792	0.0183429
671.870	0.0185288
671.948	0.0184921
672.026	0.0186999
672.104	0.0188088
672.183	0.0189133
672.261	0.0188670
672.339	0.0188863
672.417	0.0186950
672.495	0.0185696
672.573	0.0184137
672.651	0.0183250
672.729	0.0181919
672.808	0.0181456
672.886	0.0179761
672.964	0.0179955
673.042	0.0180882
673.120	0.0179997
673.198	0.0181440
673.276	0.0181080
673.354	0.0181957
673.433	0.0183336
673.511	0.0182821
673.589	0.0182970
673.667	0.0183112
673.745	0.0183016
673.823	0.0183864
673.901	0.0183847
673.979	0.0184138
674.058	0.0184571
674.136	0.0185315
674.214	0.0185595
674.292	0.0186005
674.370	0.0186417
674.448	0.0185564
674.526	0.0185928
674.604	0.0185101
674.683	0.0184644
674.761	0.0183723
674.839	0.0184141
674.917	0.0182645
674.995	0.0181322
675.073	0.0181848
675.151	0.0181876
675.229	0.0181083
675.308	0.0180872
675.386	0.0181785
675.464	0.0180647
675.542	0.0181133
675.620	0.0183121
675.698	0.0183326
675.776	0.0182746
675.854	0.0183458
675.933	0.0184128
676.011	0.0184852
676.089	0.0185853
676.167	0.0184647
676.245	0.0186179
676.323	0.0184222
676.401	0.0185426
676.479	0.0183517
676.558	0.0182713
676.636	0.0183554
676.714	0.0183423
676.792	0.0181583
676.870	0.0182398
676.948	0.0181911
677.026	0.0180885
677.104	0.0181145
677.183	0.0181030
677.261	0.0180251
677.339	0.0181196
677.417	0.0180721
677.495	0.0181525
677.573	0.0182845
677.651	0.0182991
677.729	0.0183714
677.808	0.0184044
677.886	0.0184673
677.964	0.0183179
678.042	0.0184191
678.120	0.0184525
678.198	0.0184721
678.276	0.0183981
678.354	0.0182473
678.433	0.0183227
678.511	0.0183570
678.589	0.0183005
678.667	0.0182068
678.745	0.0180554
678.823	0.0180426
678.901	0.0181386
678.979	0.0181869
679.058	0.0181086
679.136	0.0181002
679.214	0.0181541
679.292	0.0180824
679.370	0.0180566
679.448	0.0181243
679.526	0.0183051
679.604	0.0182368
679.683	0.0181960
679.761	0.0182037
679.839	0.0183659
679.917	0.0183556
679.995	0.0185313
680.073	0.0186883
680.151	0.0186692
680.229	0.0185876
680.308	0.0184718
680.386	0.0184054
680.464	0.0184608
680.542	0.0183826
680.620	0.0182231
680.698	0.0182289
680.776	0.0182370
680.854	0.0180879
680.933	0.0180835
681.011	0.0181247
681.089	0.0180733
681.167	0.0180231
681.245	0.0181176
681.323	0.0181203
681.401	0.0180478
681.479	0.0182920
681.558	0.0182678
681.636	0.0183051
681.714	0.0184834
681.792	0.0184184
681.870	0.0183681
681.948	0.0184881
682.026	0.0185738
682.104	0.0185474
682.183	0.0183109
682.261	0.0184563
682.339	0.0183260
682.417	0.0183669
682.495	0.0181196
682.573	0.0182403
682.651	0.0182533
682.729	0.0181023
682.808	0.0182796
682.886	0.0182578
682.964	0.0182794
683.042	0.0182796
683.120	0.0183383
683.198	0.0184673
683.276	0.0185124
683.354	0.0183782
683.433	0.0185133
683.511	0.0185436
683.589	0.0183844
683.667	0.0184784
683.745	0.0185068
683.823	0.0183726
683.901	0.0183228
683.979	0.0182715
684.058	0.0182579
684.136	0.0181916
684.214	0.0182567
684.292	0.0182202
684.370	0.0182525
684.448	0.0181586
684.526	0.0183002
684.604	0.0180909
684.683	0.0182275
684.761	0.0181931
684.839	0.0182156
684.917	0.0182593
684.995	0.0183513
685.073	0.0181273
685.151	0.0182280
685.229	0.0180908
685.308	0.0181477
685.386	0.0182069
685.464	0.0181378
685.542	0.0181574
685.620	0.0182199
685.698	0.0182996
685.776	0.0183434
685.854	0.0182533
685.933	0.0183459
686.011	0.0183067
686.089	0.0184081
686.167	0.0184005
686.245	0.0185255
686.323	0.0184213
686.401	0.0186480
686.479	0.0183899
686.558	0.0185709
686.636	0.0185814
686.714	0.0185954
686.792	0.0186417
686.870	0.0187128
686.948	0.0186020
687.026	0.0184097
687.104	0.0184682
687.183	0.0184354
687.261	0.0183151
687.339	0.0184272
687.417	0.0184286
687.495	0.0182912
687.573	0.0183684
687.651	0.0182726
687.729	0.0183318
687.808	0.0181568
687.886	0.0181891
687.964	0.0181003
688.042	0.0182114
688.120	0.0181941
688.198	0.0180739
688.276	0.0180416
688.354	0.0181773
688.433	0.0181776
688.511	0.0178831
688.589	0.0181466
688.667	0.0179520
688.745	0.0178329
688.823	0.0179236
688.901	0.0179943
688.979	0.0179907
689.058	0.0179523
689.136	0.0180265
689.214	0.0180799
689.292	0.0180473
689.370	0.0180695
689.448	0.0180444
689.526	0.0182006
689.604	0.0182962
689.683	0.0180967
689.761	0.0183747
689.839	0.0183553
689.917	0.0184109
689.995	0.0184446
690.073	0.0184394
690.151	0.0184969
690.229	0.0185447
690.308	0.0185452
690.386	0.0186012
690.464	0.0184512
690.542	0.0185991
690.620	0.0186378
690.698	0.0185444
690.776	0.0184586
690.854	0.0185583
690.933	0.0184364
691.011	0.0185493
691.089	0.0184058
691.167	0.0185354
691.245	0.0184422
691.323	0.0184510
691.401	0.0183804
691.479	0.0182700
691.558	0.0182639
691.636	0.0184377
691.714	0.0184820
691.792	0.0184966
691.870	0.0185297
691.948	0.0184288
692.026	0.0184148
692.104	0.0185960
692.183	0.0185002
692.261	0.0185079
692.339	0.0184767
692.417	0.0184225
692.495	0.0185078
692.573	0.0183622
692.651	0.0181436
692.729	0.0179752
692.808	0.0180888
692.886	0.0180344
692.964	0.0177670
693.042	0.0177972
693.120	0.0175755
693.198	0.0175967
693.276	0.0176854
693.354	0.0177636
693.433	0.0178547
693.511	0.0178738
693.589	0.0178278
693.667	0.0178553
693.745	0.0180367
693.823	0.0179852
693.901	0.0179877
693.979	0.0180581
694.058	0.0181085
694.136	0.0181707
694.214	0.0182225
694.292	0.0180357
694.370	0.0181950
694.448	0.0181561
694.526	0.0180188
694.604	0.0180065
694.683	0.0181408
694.761	0.0181757
694.839	0.0182673
694.917	0.0182648
694.995	0.0183315
695.073	0.0183015
695.151	0.0187122
695.229	0.0188218
695.308	0.0187460
695.386	0.0188995
695.464	0.0189252
695.542	0.0189507
695.620	0.0188241
695.698	0.0188476
695.776	0.0188673
695.854	0.0188467
695.933	0.0185395
696.011	0.0185431
696.089	0.0186089
696.167	0.0185147
696.245	0.0184923
696.323	0.0184851
696.401	0.0184042
696.479	0.0182466
696.558	0.0183598
696.636	0.0182181
696.714	0.0180707
696.792	0.0181868
696.870	0.0181586
696.948	0.0183672
697.026	0.0182227
697.104	0.0182780
697.183	0.0183031
697.261	0.0182858
697.339	0.0183815
697.417	0.0184447
697.495	0.0182169
697.573	0.0183039
697.651	0.0182983
697.729	0.0184236
697.808	0.0182231
697.886	0.0181760
697.964	0.0183200
698.042	0.0182854
698.120	0.0182441
698.198	0.0183438
698.276	0.0181078
698.354	0.0180866
698.433	0.0180422
698.511	0.0180548
698.589	0.0180149
698.667	0.0180201
698.745	0.0178288
698.823	0.0178687
698.901	0.0177386
698.979	0.0176965
699.058	0.0177045
699.136	0.0176526
699.214	0.0174815
699.292	0.0174173
699.370	0.0176402
699.448	0.0177220
699.526	0.0177227
699.604	0.0178427
699.683	0.0179411
699.761	0.0179944
699.839	0.0182378
699.917	0.0182605
699.995	0.0183331
700.073	0.0183201
700.151	0.0183698
700.229	0.0183400
700.308	0.0184906
700.386	0.0185018
700.464	0.0183997
700.542	0.0183040
700.620	0.0183461
700.698	0.0183967
700.776	0.0184296
700.854	0.0184424
700.933	0.0185171
701.011	0.0186179
701.089	0.0188351
701.167	0.0189869
701.245	0.0190052
701.323	0.0193116
701.401	0.0192520
701.479	0.0193377
701.558	0.0195540
701.636	0.0196423
701.714	0.0197903
701.792	0.0196459
701.870	0.0196986
701.948	0.0193311
702.026	0.0193959
702.104	0.0192612
702.183	0.0191506
702.261	0.0189069
702.339	0.0186481
702.417	0.0184420
702.495	0.0182387
702.573	0.0180250
702.651	0.0177946
702.729	0.0177396
702.808	0.0176351
702.886	0.0175225
702.964	0.0173663
703.042	0.0173846
703.120	0.0173730
703.198	0.0173360
703.276	0.0172821
703.354	0.0174273
703.433	0.0175576
703.511	0.0174874
703.589	0.0174840
703.667	0.0174822
703.745	0.0175467
703.823	0.0176808
703.901	0.0177477
703.979	0.0176222
704.058	0.0178689
704.136	0.0178706
704.214	0.0179536
704.292	0.0180405
704.370	0.0181928
704.448	0.0180450
704.526	0.0181875
704.604	0.0181046
704.683	0.0180632
704.761	0.0181306
704.839	0.0180888
704.917	0.0180433
704.995	0.0178667
705.073	0.0177266
705.151	0.0178043
705.229	0.0176986
705.308	0.0177037
705.386	0.0177194
705.464	0.0176859
705.542	0.0177615
705.620	0.0178746
705.698	0.0181078
705.776	0.0182074
705.854	0.0184039
705.933	0.0183644
706.011	0.0186112
706.089	0.0186550
706.167	0.0187275
706.245	0.0188458
706.323	0.0189880
706.401	0.0188650
706.479	0.0190562
706.558	0.0191243
706.636	0.0191573
706.714	0.0192054
706.792	0.0193759
706.870	0.0193028
706.948	0.0194061
707.026	0.0197041
707.104	0.0197340
707.183	0.0196825
707.261	0.0197489
707.339	0.0198221
707.417	0.0199871
707.495	0.0197225
707.573	0.0195766
707.651	0.0195894
707.729	0.0193211
707.808	0.0191798
707.886	0.0190211
707.964	0.0189247
708.042	0.0187254
708.120	0.0185314
708.198	0.0183911
708.276	0.0181160
708.354	0.0181168
708.433	0.0178560
708.511	0.0177375
708.589	0.0174745
708.667	0.0173053
708.745	0.0169991
708.823	0.0169041
708.901	0.0166765
708.979	0.0167140
709.058	0.0166659
709.136	0.0165302
709.214	0.0166691
709.292	0.0168167
709.370	0.0167817
709.448	0.0168272
709.526	0.0170009
709.604	0.0172983
709.683	0.0174841
709.761	0.0176076
709.839	0.0177714
709.917	0.0180348
709.995	0.0180113
710.073	0.0182018
710.151	0.0183268
710.229	0.0183723
710.308	0.0182790
710.386	0.0181886
710.464	0.0184260
710.542	0.0184124
710.620	0.0183534
710.698	0.0182433
710.776	0.0182382
710.854	0.0182527
710.933	0.0183316
711.011	0.0182135
711.089	0.0182354
711.167	0.0182051
711.245	0.0184154
711.323	0.0183893
711.401	0.0184743
711.479	0.0184787
711.558	0.0187241
711.636	0.0188483
711.714	0.0191109
711.792	0.0190732
711.870	0.0193372
711.948	0.0192276
712.026	0.0194138
712.104	0.0195292
712.183	0.0195023
712.261	0.0193427
712.339	0.0192484
712.417	0.0191422
712.495	0.0188605
712.573	0.0186415
712.651	0.0184193
712.729	0.0181693
712.808	0.0181936
712.886	0.0179013
712.964	0.0178328
713.042	0.0177379
713.120	0.0177794
713.198	0.0181725
713.276	0.0181846
713.354	0.0183032
713.433	0.0185978
713.511	0.0187558
713.589	0.0189516
713.667	0.0191698
713.745	0.0193336
713.823	0.0193924
713.901	0.0195495
713.979	0.0197290
714.058	0.0195734
714.136	0.0196859
714.214	0.0197916
714.292	0.0196247
714.370	0.0193114
714.448	0.0189688
714.526	0.0189213
714.604	0.0187440
714.683	0.0185025
714.761	0.0183376
714.839	0.0180989
714.917	0.0175732
714.995	0.0173866
715.073	0.0171542
715.151	0.0168302
715.229	0.0168426
715.308	0.0166299
715.386	0.0164474
715.464	0.0165076
715.542	0.0165131
715.620	0.0165072
715.698	0.0165957
715.776	0.0165536
715.854	0.0165430
715.933	0.0165905
716.011	0.0167967
716.089	0.0167818
716.167	0.0168507
716.245	0.0166884
716.323	0.0169285
716.401	0.0169454
716.479	0.0170305
716.558	0.0173206
716.636	0.0175425
716.714	0.0178014
716.792	0.0179279
716.870	0.0181618
716.948	0.0184778
717.026	0.0188624
717.104	0.0190816
717.183	0.0195723
717.261	0.0197276
717.339	0.0196958
717.417	0.0200069
717.495	0.0200465
717.573	0.0197858
717.651	0.0197109
717.729	0.0197720
717.808	0.0195615
717.886	0.0193483
717.964	0.0194701
718.042	0.0194694
718.120	0.0194032
718.198	0.0193683
718.276	0.0193481
718.354	0.0193019
718.433	0.0194555
718.511	0.0192980
718.589	0.0192152
718.667	0.0190643
718.745	0.0189763
718.823	0.0188219
718.901	0.0184158
718.979	0.0183215
719.058	0.0180015
719.136	0.0177678
719.214	0.0174029
719.292	0.0172823
719.370	0.0173608
719.448	0.0171337
719.526	0.0169930
719.604	0.0171976
719.683	0.0172307
719.761	0.0174772
719.839	0.0176780
719.917	0.0178112
719.995	0.0182098
720.073	0.0184576
720.151	0.0184872
720.229	0.0187549
720.308	0.0190472
720.386	0.0191213
720.464	0.0192430
720.542	0.0192899
720.620	0.0194111
720.698	0.0194700
720.776	0.0193977
720.854	0.0195374
720.933	0.0195952
721.011	0.0193916
721.089	0.0193626
721.167	0.0192085
721.245	0.0189835
721.323	0.0188609
721.401	0.0184859
721.479	0.0183020
721.558	0.0179716
721.636	0.0176399
721.714	0.0173515
721.792	0.0171180
721.870	0.0170020
721.948	0.0169548
722.026	0.0168028
722.104	0.0167783
722.183	0.0170294
722.261	0.0169528
722.339	0.0168956
722.417	0.0170380
722.495	0.0172336
722.573	0.0172224
722.651	0.0172092
722.729	0.0173333
722.808	0.0173909
722.886	0.0174766
722.964	0.0175296
723.042	0.0174500
723.120	0.0174675
723.198	0.0176052
723.276	0.0177141
723.354	0.0176878
723.433	0.0178355
723.511	0.0178323
723.589	0.0179227
723.667	0.0179493
723.745	0.0181105
723.823	0.0183147
723.901	0.0182453
723.979	0.0183788
724.058	0.0186478
724.136	0.0188940
724.214	0.0189302
724.292	0.0191834
724.370	0.0194860
724.448	0.0195869
724.526	0.0197738
724.604	0.0199696
724.683	0.0200711
724.761	0.0200829
724.839	0.0200742
724.917	0.0202083
724.995	0.0200800
725.073	0.0199475
725.151	0.0197536
725.229	0.0196575
725.308	0.0194740
725.386	0.0193035
725.464	0.0190155
725.542	0.0188754
725.620	0.0188155
725.698	0.0186842
725.776	0.0185876
725.854	0.0186467
725.933	0.0185551
726.011	0.0184247
726.089	0.0185975
726.167	0.0183483
726.245	0.0185127
726.323	0.0185652
726.401	0.0183392
726.479	0.0183681
726.558	0.0183706
726.636	0.0183831
726.714	0.0183082
726.792	0.0183360
726.870	0.0183412
726.948	0.0183818
727.026	0.0184506
727.104	0.0183208
727.183	0.0181210
727.261	0.0181901
727.339	0.0180416
727.417	0.0179024
727.495	0.0178829
727.573	0.0173654
727.651	0.0172879
727.729	0.0172585
727.808	0.0168394
727.886	0.0168098
727.964	0.0166779
728.042	0.0164216
728.120	0.0163167
728.198	0.0164845
728.276	0.0163129
728.354	0.0162622
728.433	0.0163703
728.511	0.0166353
728.589	0.0165403
728.667	0.0167295
728.745	0.0169825
728.823	0.0172620
728.901	0.0174989
728.979	0.0177477
729.058	0.0179373
729.136	0.0181395
729.214	0.0183990
729.292	0.0186072
729.370	0.0189204
729.448	0.0189250
729.526	0.0190775
729.604	0.0191761
729.683	0.0191867
729.761	0.0192187
729.839	0.0192996
729.917	0.0192375
729.995	0.0192289
730.073	0.0193705
730.151	0.0192315
730.229	0.0192616
730.308	0.0191620
730.386	0.0192194
730.464	0.0191069
730.542	0.0190589
730.620	0.0190557
730.698	0.0192570
730.776	0.0191753
730.854	0.0192020
730.933	0.0192638
731.011	0.0194817
731.089	0.0194991
731.167	0.0196223
731.245	0.0193742
731.323	0.0194629
731.401	0.0193533
731.479	0.0191586
731.558	0.0190121
731.636	0.0188754
731.714	0.0187322
731.792	0.0183337
731.870	0.0180251
731.948	0.0181241
732.026	0.0178574
732.104	0.0177876
732.183	0.0175266
732.261	0.0177994
732.339	0.0177792
732.417	0.0177463
732.495	0.0180443
732.573	0.0180588
732.651	0.0182182
732.729	0.0185004
732.808	0.0184224
732.886	0.0184834
732.964	0.0184978
733.042	0.0185764
733.120	0.0184721
733.198	0.0184643
733.276	0.0184140
733.354	0.0184901
733.433	0.0181818
733.511	0.0181442
733.589	0.0180631
733.667	0.0179639
733.745	0.0178416
733.823	0.0177168
733.901	0.0176082
733.979	0.0177246
734.058	0.0175613
734.136	0.0173392
734.214	0.0173679
734.292	0.0172826
734.370	0.0173351
734.448	0.0171552
734.526	0.0172189
734.604	0.0172399
734.683	0.0173272
734.761	0.0174822
734.839	0.0173778
734.917	0.0174763
734.995	0.0175948
735.073	0.0177021
735.151	0.0178976
735.229	0.0178111
735.308	0.0178161
735.386	0.0181106
735.464	0.0180815
735.542	0.0182693
735.620	0.0182537
735.698	0.0183461
735.776	0.0185233
735.854	0.0184541
735.933	0.0186082
736.011	0.0185850
736.089	0.0186181
736.167	0.0186313
736.245	0.0187502
736.323	0.0185873
736.401	0.0187682
736.479	0.0187830
736.558	0.0189567
736.636	0.0188857
736.714	0.0189761
736.792	0.0190619
736.870	0.0190222
736.948	0.0191177
737.026	0.0190178
737.104	0.0190316
737.183	0.0189391
737.261	0.0188044
737.339	0.0188522
737.417	0.0187668
737.495	0.0185088
737.573	0.0186124
737.651	0.0185068
737.729	0.0185036
737.808	0.0184546
737.886	0.0183959
737.964	0.0185278
738.042	0.0184578
738.120	0.0184824
738.198	0.0184976
738.276	0.0185335
738.354	0.0184489
738.433	0.0186279
738.511	0.0185352
738.589	0.0185904
738.667	0.0186971
738.745	0.0185980
738.823	0.0186407
738.901	0.0187882
738.979	0.0185902
739.058	0.0186289
739.136	0.0187309
739.214	0.0187391
739.292	0.0186935
739.370	0.0187153
739.448	0.0187514
739.526	0.0186990
739.604	0.0187564
739.683	0.0185639
739.761	0.0185756
739.839	0.0186363
739.917	0.0185601
739.995	0.0183859
740.073	0.0182623
740.151	0.0181860
740.229	0.0181431
740.308	0.0179605
740.386	0.0178490
740.464	0.0179863
740.542	0.0176685
740.620	0.0175405
740.698	0.0176134
740.776	0.0172511
740.854	0.0172698
740.933	0.0172417
741.011	0.0173186
741.089	0.0173784
741.167	0.0172971
741.245	0.0173729
741.323	0.0174609
741.401	0.0174173
741.479	0.0174454
741.558	0.0173502
741.636	0.0176075
741.714	0.0177004
741.792	0.0176371
741.870	0.0175241
741.948	0.0176263
742.026	0.0176552
742.104	0.0176582
742.183	0.0175591
742.261	0.0176893
742.339	0.0177073
742.417	0.0179195
742.495	0.0180334
742.573	0.0181363
742.651	0.0181990
742.729	0.0184781
742.808	0.0186646
742.886	0.0188596
742.964	0.0191393
743.042	0.0191374
743.120	0.0194110
743.198	0.0195034
743.276	0.0195771
743.354	0.0197582
743.433	0.0196679
743.511	0.0196477
743.589	0.0194803
743.667	0.0194585
743.745	0.0194736
743.823	0.0194884
743.901	0.0192501
743.979	0.0192274
744.058	0.0191418
744.136	0.0191190
744.214	0.0190063
744.292	0.0189025
744.370	0.0189848
744.448	0.0191345
744.526	0.0190518
744.604	0.0188414
744.683	0.0189606
744.761	0.0188905
744.839	0.0190331
744.917	0.0189775
744.995	0.0187772
745.073	0.0188627
745.151	0.0187275
745.229	0.0187478
745.308	0.0186507
745.386	0.0185523
745.464	0.0185388
745.542	0.0183947
745.620	0.0184180
745.698	0.0183368
745.776	0.0182140
745.854	0.0181248
745.933	0.0180258
746.011	0.0180344
746.089	0.0180445
746.167	0.0178860
746.245	0.0178570
746.323	0.0177631
746.401	0.0176232
746.479	0.0174682
746.558	0.0174149
746.636	0.0175043
746.714	0.0175445
746.792	0.0173048
746.870	0.0172196
746.948	0.0172335
747.026	0.0172800
747.104	0.0172335
747.183	0.0171381
747.261	0.0173096
747.339	0.0173038
747.417	0.0172063
747.495	0.0174209
747.573	0.0173966
747.651	0.0173069
747.729	0.0172633
747.808	0.0174928
747.886	0.0175014
747.964	0.0175993
748.042	0.0175886
748.120	0.0175605
748.198	0.0176900
748.276	0.0177955
748.354	0.0178092
748.433	0.0179486
748.511	0.0179844
748.589	0.0182005
748.667	0.0183572
748.745	0.0184438
748.823	0.0185457
748.901	0.0185969
748.979	0.0189886
749.058	0.0189110
749.136	0.0190544
749.214	0.0192645
749.292	0.0194980
749.370	0.0193152
749.448	0.0194131
749.526	0.0195226
749.604	0.0194319
749.683	0.0194686
749.761	0.0196957
749.839	0.0195019
749.917	0.0196075
749.995	0.0194926
750.073	0.0193802
750.151	0.0193043
750.229	0.0194633
750.308	0.0192949
750.386	0.0192388
750.464	0.0192963
750.542	0.0192088
750.620	0.0190711
750.698	0.0190854
750.776	0.0190504
750.854	0.0190114
750.933	0.0191119
751.011	0.0187962
751.089	0.0187039
751.167	0.0187225
751.245	0.0185851
751.323	0.0185709
751.401	0.0183518
751.479	0.0183422
751.558	0.0183335
751.636	0.0182955
751.714	0.0182367
751.792	0.0181254
751.870	0.0179401
751.948	0.0180242
752.026	0.0178465
752.104	0.0177193
752.183	0.0177008
752.261	0.0175750
752.339	0.0174659
752.417	0.0174619
752.495	0.0174812
752.573	0.0172308
752.651	0.0171418
752.729	0.0170652
752.808	0.0171148
752.886	0.0170176
752.964	0.0168293
753.042	0.0171549
753.120	0.0171622
753.198	0.0170824
753.276	0.0172131
753.354	0.0172573
753.433	0.0174407
753.511	0.0176666
753.589	0.0178759
753.667	0.0177399
753.745	0.0178783
753.823	0.0182287
753.901	0.0182677
753.979	0.0181819
754.058	0.0182257
754.136	0.0180017
754.214	0.0181203
754.292	0.0179615
754.370	0.0181660
754.448	0.0181049
754.526	0.0180371
754.604	0.0180990
754.683	0.0180685
754.761	0.0181083
754.839	0.0181579
754.917	0.0183979
754.995	0.0184453
755.073	0.0186758
755.151	0.0186935
755.229	0.0188692
755.308	0.0190582
755.386	0.0191669
755.464	0.0192873
755.542	0.0193638
755.620	0.0195681
755.698	0.0193430
755.776	0.0194202
755.854	0.0195482
755.933	0.0194557
756.011	0.0194492
756.089	0.0194012
756.167	0.0194238
756.245	0.0191212
756.323	0.0190865
756.401	0.0189100
756.479	0.0189339
756.558	0.0188548
756.636	0.0188183
756.714	0.0185889
756.792	0.0186266
756.870	0.0185832
756.948	0.0186366
757.026	0.0185546
757.104	0.0185304
757.183	0.0186233
757.261	0.0186317
757.339	0.0185404
757.417	0.0187122
757.495	0.0187105
757.573	0.0186582
757.651	0.0184610
757.729	0.0184962
757.808	0.0184216
757.886	0.0182506
757.964	0.0182022
758.042	0.0180527
758.120	0.0178876
758.198	0.0179158
758.276	0.0177682
758.354	0.0176670
758.433	0.0175290
758.511	0.0174044
758.589	0.0173311
758.667	0.0172215
758.745	0.0172066
758.823	0.0173310
758.901	0.0172602
758.979	0.0172321
759.058	0.0172820
759.136	0.0172290
759.214	0.0173260
759.292	0.0174062
759.370	0.0175720
759.448	0.0175430
759.526	0.0175895
759.604	0.0178098
759.683	0.0179575
759.761	0.0179845
759.839	0.0180656
759.917	0.0181945
759.995	0.0182581
760.073	0.0184203
760.151	0.0184773
760.229	0.0183166
760.308	0.0183948
760.386	0.0183743
760.464	0.0182152
760.542	0.0182587
760.620	0.0181873
760.698	0.0181084
760.776	0.0181367
760.854	0.0181850
760.933	0.0183361
761.011	0.0184351
761.089	0.0184789
761.167	0.0184373
761.245	0.0185345
761.323	0.0188641
761.401	0.0189627
761.479	0.0191762
761.558	0.0191789
761.636	0.0192420
761.714	0.0192837
761.792	0.0192959
761.870	0.0193273
761.948	0.0193196
762.026	0.0193958
762.104	0.0194101
762.183	0.0193217
762.261	0.0191293
762.339	0.0190877
762.417	0.0189954
762.495	0.0188609
762.573	0.0186950
762.651	0.0186269
762.729	0.0184746
762.808	0.0182883
762.886	0.0182773
762.964	0.0183355
763.042	0.0182889
763.120	0.0184238
763.198	0.0183345
763.276	0.0182907
763.354	0.0183843
763.433	0.0182838
763.511	0.0184745
763.589	0.0184742
763.667	0.0184495
763.745	0.0183466
763.823	0.0183620
763.901	0.0182313
763.979	0.0181760
764.058	0.0179765
764.136	0.0179242
764.214	0.0178561
764.292	0.0177311
764.370	0.0177275
764.448	0.0176580
764.526	0.0175621
764.604	0.0174809
764.683	0.0176212
764.761	0.0176729
764.839	0.0177003
764.917	0.0179333
764.995	0.0180508
765.073	0.0180202
765.151	0.0181959
765.229	0.0181017
765.308	0.0182111
765.386	0.0182755
765.464	0.0184605
765.542	0.0185098
765.620	0.0187957
765.698	0.0188923
765.776	0.0190115
765.854	0.0188253
765.933	0.0188554
766.011	0.0188450
766.089	0.0188107
766.167	0.0188509
766.245	0.0186362
766.323	0.0184431
766.401	0.0184957
766.479	0.0182045
766.558	0.0179539
766.636	0.0179802
766.714	0.0178056
766.792	0.0176978
766.870	0.0177284
766.948	0.0175711
767.026	0.0174512
767.104	0.0174120
767.183	0.0175928
767.261	0.0176128
767.339	0.0175952
767.417	0.0177250
767.495	0.0178705
767.573	0.0180910
767.651	0.0182793
767.729	0.0184097
767.808	0.0184886
767.886	0.0187151
767.964	0.0188319
768.042	0.0188568
768.120	0.0189444
768.198	0.0189748
768.276	0.0190662
768.354	0.0190244
768.433	0.0188940
768.511	0.0189583
768.589	0.0186858
768.667	0.0185071
768.745	0.0185856
768.823	0.0184403
768.901	0.0184035
768.979	0.0184273
769.058	0.0184827
769.136	0.0185059
769.214	0.0185008
769.292	0.0184539
769.370	0.0184995
769.448	0.0185488
769.526	0.0184478
769.604	0.0184387
769.683	0.0186387
769.761	0.0185417
769.839	0.0186237
769.917	0.0184747
769.995	0.0183533
770.073	0.0182533
770.151	0.0182451
770.229	0.0182751
770.308	0.0181532
770.386	0.0181071
770.464	0.0181248
770.542	0.0179879
770.620	0.0180502
770.698	0.0180701
770.776	0.0180980
770.854	0.0182076
770.933	0.0180141
771.011	0.0181170
771.089	0.0181326
771.167	0.0182652
771.245	0.0182767
771.323	0.0184888
771.401	0.0184807
771.479	0.0186191
771.558	0.0186687
771.636	0.0187111
771.714	0.0189356
771.792	0.0189178
771.870	0.0189899
771.948	0.0188018
772.026	0.0188126
772.104	0.0187354
772.183	0.0187077
772.261	0.0184413
772.339	0.0181454
772.417	0.0179394
772.495	0.0179993
772.573	0.0177852
772.651	0.0176633
772.729	0.0174529
772.808	0.0172514
772.886	0.0173367
772.964	0.0171152
773.042	0.0171603
773.120	0.0170943
773.198	0.0171206
773.276	0.0172890
773.354	0.0172289
773.433	0.0175333
773.511	0.0177472
773.589	0.0178958
773.667	0.0180960
773.745	0.0182801
773.823	0.0185822
773.901	0.0188247
773.979	0.0190437
774.058	0.0191322
774.136	0.0193216
774.214	0.0193691
774.292	0.0193314
774.370	0.0192810
774.448	0.0191928
774.526	0.0190791
774.604	0.0190061
774.683	0.0187976
774.761	0.0187003
774.839	0.0185820
774.917	0.0184904
774.995	0.0183517
775.073	0.0183060
775.151	0.0181929
775.229	0.0182067
775.308	0.0181799
775.386	0.0181012
775.464	0.0180704
775.542	0.0181036
775.620	0.0179557
775.698	0.0180141
775.776	0.0181583
775.854	0.0180661
775.933	0.0180421
776.011	0.0179021
776.089	0.0182339
776.167	0.0181572
776.245	0.0180247
776.323	0.0181973
776.401	0.0183386
776.479	0.0184763
776.558	0.0183457
776.636	0.0183559
776.714	0.0184119
776.792	0.0185772
776.870	0.0185823
776.948	0.0186783
777.026	0.0186560
777.104	0.0186685
777.183	0.0187564
777.261	0.0187845
777.339	0.0188349
777.417	0.0189455
777.495	0.0188857
777.573	0.0191056
777.651	0.0190307
777.729	0.0190258
777.808	0.0189214
777.886	0.0189289
777.964	0.0188311
778.042	0.0186440
778.120	0.0184322
778.198	0.0183334
778.276	0.0183546
778.354	0.0181662
778.433	0.0181146
778.511	0.0178883
778.589	0.0180474
778.667	0.0178850
778.745	0.0178691
778.823	0.0177197
778.901	0.0176924
778.979	0.0175483
779.058	0.0173170
779.136	0.0174442
779.214	0.0173468
779.292	0.0172841
779.370	0.0173917
779.448	0.0172234
779.526	0.0173367
779.604	0.0175054
779.683	0.0176058
779.761	0.0178259
779.839	0.0181014
779.917	0.0180549
779.995	0.0182919
780.073	0.0185309
780.151	0.0186903
780.229	0.0187767
780.308	0.0188141
780.386	0.0187992
780.464	0.0189666
780.542	0.0189153
780.620	0.0191246
780.698	0.0189767
780.776	0.0188036
780.854	0.0186193
780.933	0.0187408
781.011	0.0186233
781.089	0.0183787
781.167	0.0183791
781.245	0.0183972
781.323	0.0182226
781.401	0.0182510
781.479	0.0181688
781.558	0.0182606
781.636	0.0182356
781.714	0.0182175
781.792	0.0182368
781.870	0.0180132
781.948	0.0181225
782.026	0.0182719
782.104	0.0184435
782.183	0.0184483
782.261	0.0182634
782.339	0.0183232
782.417	0.0185512
782.495	0.0185110
782.573	0.0186171
782.651	0.0186977
782.729	0.0185307
782.808	0.0186320
782.886	0.0185139
782.964	0.0184317
783.042	0.0185996
783.120	0.0186101
783.198	0.0184634
783.276	0.0184129
783.354	0.0184772
783.433	0.0185226
783.511	0.0184180
783.589	0.0184620
783.667	0.0184518
783.745	0.0185477
783.823	0.0184879
783.901	0.0185469
783.979	0.0184364
784.058	0.0184866
784.136	0.0184007
784.214	0.0183500
784.292	0.0182378
784.370	0.0183717
784.448	0.0183406
784.526	0.0182405
784.604	0.0182774
784.683	0.0182462
784.761	0.0181049
784.839	0.0180910
784.917	0.0179887
784.995	0.0179115
785.073	0.0177689
785.151	0.0177752
785.229	0.0175715
785.308	0.0176103
785.386	0.0174865
785.464	0.0175065
785.542	0.0174192
785.620	0.0174284
785.698	0.0175272
785.776	0.0175810
785.854	0.0178035
785.933	0.0179134
786.011	0.0180357
786.089	0.0183797
786.167	0.0184392
786.245	0.0187064
786.323	0.0188295
786.401	0.0188339
786.479	0.0190074
786.558	0.0189444
786.636	0.0190537
786.714	0.0188871
786.792	0.0188989
786.870	0.0188627
786.948	0.0187588
787.026	0.0186955
787.104	0.0185011
787.183	0.0183765
787.261	0.0182994
787.339	0.0182594
787.417	0.0180946
787.495	0.0181250
787.573	0.0182286
787.651	0.0182014
787.729	0.0181068
787.808	0.0182619
787.886	0.0182692
787.964	0.0181642
788.042	0.0180944
788.120	0.0183995
788.198	0.0183779
788.276	0.0183842
788.354	0.0183307
788.433	0.0182352
788.511	0.0183984
788.589	0.0183817
788.667	0.0183025
788.745	0.0182967
788.823	0.0184486
788.901	0.0183955
788.979	0.0183902
789.058	0.0184277
789.136	0.0185888
789.214	0.0186186
789.292	0.0185733
789.370	0.0186565
789.448	0.0186501
789.526	0.0187610
789.604	0.0186526
789.683	0.0187598
789.761	0.0186478
789.839	0.0186572
789.917	0.0185779
789.995	0.0186787
790.073	0.0184167
790.151	0.0184092
790.229	0.0184586
790.308	0.0183595
790.386	0.0183462
790.464	0.0181925
790.542	0.0184182
790.620	0.0182793
790.698	0.0181605
790.776	0.0182522
790.854	0.0180834
790.933	0.0181171
791.011	0.0179420
791.089	0.0179911
791.167	0.0178542
791.245	0.0178596
791.323	0.0176988
791.401	0.0175610
791.479	0.0175359
791.558	0.0177731
791.636	0.0176475
791.714	0.0173916
791.792	0.0174872
791.870	0.0175391
791.948	0.0176350
792.026	0.0177253
792.104	0.0178756
792.183	0.0180144
792.261	0.0179602
792.339	0.0181782
792.417	0.0183987
792.495	0.0186317
792.573	0.0185943
792.651	0.0186568
792.729	0.0187095
792.808	0.0186584
792.886	0.0188103
792.964	0.0187646
793.042	0.0186469
793.120	0.0185371
793.198	0.0187431
793.276	0.0186866
793.354	0.0185925
793.433	0.0185571
793.511	0.0185580
793.589	0.0184039
793.667	0.0185445
793.745	0.0184979
793.823	0.0184487
793.901	0.0184043
793.979	0.0184584
794.058	0.0184414
794.136	0.0182868
794.214	0.0183959
794.292	0.0183646
794.370	0.0184273
794.448	0.0184460
794.526	0.0182328
794.604	0.0180767
794.683	0.0182753
794.761	0.0183738
794.839	0.0180952
794.917	0.0181014
794.995	0.0182545
795.073	0.0183146
795.151	0.0183765
795.229	0.0182352
795.308	0.0183045
795.386	0.0182353
795.464	0.0184878
795.542	0.0183378
795.620	0.0183005
795.698	0.0183967
795.776	0.0185641
795.854	0.0183636
795.933	0.0184983
796.011	0.0183953
796.089	0.0185532
796.167	0.0186066
796.245	0.0186658
796.323	0.0185562
796.401	0.0185133
796.479	0.0185809
796.558	0.0186557
796.636	0.0185681
796.714	0.0186086
796.792	0.0183964
796.870	0.0185124
796.948	0.0184682
797.026	0.0181969
797.104	0.0183717
797.183	0.0183375
797.261	0.0182407
797.339	0.0180688
797.417	0.0180690
797.495	0.0180205
797.573	0.0181363
797.651	0.0179497
797.729	0.0178692
797.808	0.0179826
797.886	0.0180378
797.964	0.0180349
798.042	0.0179581
798.120	0.0178990
798.198	0.0179591
798.276	0.0179550
798.354	0.0180081
798.433	0.0181376
798.511	0.0180080
798.589	0.0180373
798.667	0.0182351
798.745	0.0182190
798.823	0.0182095
798.901	0.0181506
798.979	0.0182507
799.058	0.0183727
799.136	0.0183867
799.214	0.0183473
799.292	0.0184663
799.370	0.0183537
799.448	0.0184378
799.526	0.0183971
799.604	0.0184863
799.683	0.0186173
799.761	0.0185545
799.839	0.0185562
799.917	0.0184716
799.995	0.0183650
800.073	0.0184412
800.151	0.0184852
800.229	0.0184825
800.308	0.0184386
800.386	0.0183669
800.464	0.0184532
800.542	0.0182896
800.620	0.0182092
800.698	0.0182708
800.776	0.0182623
800.854	0.0182249
800.933	0.0179523
801.011	0.0180714
801.089	0.0181061
801.167	0.0182320
801.245	0.0182565
801.323	0.0182065
801.401	0.0183524
801.479	0.0183318
801.558	0.0185254
801.636	0.0184756
801.714	0.0183925
801.792	0.0187450
801.870	0.0185977
801.948	0.0186089
802.026	0.0186293
802.104	0.0188378
802.183	0.0186437
802.261	0.0187485
802.339	0.0184480
802.417	0.0185607
802.495	0.0185046
802.573	0.0183621
802.651	0.0184875
802.729	0.0182447
802.808	0.0180543
802.886	0.0178995
802.964	0.0180589
803.042	0.0181271
803.120	0.0179955
803.198	0.0179942
803.276	0.0181602
803.354	0.0180025
803.433	0.0181464
803.511	0.0182549
803.589	0.0181867
803.667	0.0182328
803.745	0.0183670
803.823	0.0182495
803.901	0.0182729
803.979	0.0182486
804.058	0.0182903
804.136	0.0181616
804.214	0.0182439
804.292	0.0181956
804.370	0.0182195
804.448	0.0182277
804.526	0.0183117
804.604	0.0181113
804.683	0.0181382
804.761	0.0181702
804.839	0.0181028
804.917	0.0180642
804.995	0.0180247
805.073	0.0181503
805.151	0.0182214
805.229	0.0181123
805.308	0.0182077
805.386	0.0183156
805.464	0.0183279
805.542	0.0183898
805.620	0.0183189
805.698	0.0184657
805.776	0.0183565
805.854	0.0183091
805.933	0.0183302
806.011	0.0184132
806.089	0.0184306
806.167	0.0183894
806.245	0.0182211
806.323	0.0183494
806.401	0.0183176
806.479	0.0183297
806.558	0.0184567
806.636	0.0184026
806.714	0.0182790
806.792	0.0182966
806.870	0.0181912
806.948	0.0182881
807.026	0.0181993
807.104	0.0180634
807.183	0.0184270
807.261	0.0182214
807.339	0.0183862
807.417	0.0183018
807.495	0.0183115
807.573	0.0182722
807.651	0.0184678
807.729	0.0185490
807.808	0.0185725
807.886	0.0186909
807.964	0.0185780
808.042	0.0185689
808.120	0.0184585
808.198	0.0186337
808.276	0.0187961
808.354	0.0186483
808.433	0.0185259
808.511	0.0185912
808.589	0.0185041
808.667	0.0184190
808.745	0.0182639
808.823	0.0182531
808.901	0.0183064
808.979	0.0180669
809.058	0.0180656
809.136	0.0181080
809.214	0.0180219
809.292	0.0180855
809.370	0.0179437
809.448	0.0180804
809.526	0.0181702
809.604	0.0182679
809.683	0.0183031
809.761	0.0181132
809.839	0.0183326
809.917	0.0183050
809.995	0.0183438
810.073	0.0183646
810.151	0.0183340
810.229	0.0184550
810.308	0.0184820
810.386	0.0183300
810.464	0.0183556
810.542	0.0183705
810.620	0.0182959
810.698	0.0182958
810.776	0.0182704
810.854	0.0183448
810.933	0.0183860
811.011	0.0181113
811.089	0.0182520
811.167	0.0183834
811.245	0.0182260
811.323	0.0181374
811.401	0.0181973
811.479	0.0181599
811.558	0.0182202
811.636	0.0181118
811.714	0.0180587
811.792	0.0182155
811.870	0.0181542
811.948	0.0181274
812.026	0.0182580
812.104	0.0182687
812.183	0.0182842
812.261	0.0183116
812.339	0.0182849
812.417	0.0182175
812.495	0.0184071
812.573	0.0183178
812.651	0.0182663
812.729	0.0182700
812.808	0.0182065
812.886	0.0183063
812.964	0.0182749
813.042	0.0182414
813.120	0.0183217
813.198	0.0182368
813.276	0.0182424
813.354	0.0182826
813.433	0.0182942
813.511	0.0181712
813.589	0.0182302
813.667	0.0182438
813.745	0.0182898
813.823	0.0182851
813.901	0.0184048
813.979	0.0184141
814.058	0.0184530
814.136	0.0185110
814.214	0.0185532
814.292	0.0183212
814.370	0.0182864
814.448	0.0182057
814.526	0.0184615
814.604	0.0184412
814.683	0.0184971
814.761	0.0183382
814.839	0.0182549
814.917	0.0184204
814.995	0.0183202
815.073	0.0182026
815.151	0.0181733
815.229	0.0182969
815.308	0.0182528
815.386	0.0181945
815.464	0.0182011
815.542	0.0182301
815.620	0.0181577
815.698	0.0183540
815.776	0.0182892
815.854	0.0182261
815.933	0.0182799
816.011	0.0183488
816.089	0.0184470
816.167	0.0184740
816.245	0.0184648
816.323	0.0184720
816.401	0.0184996
816.479	0.0184741
816.558	0.0183945
816.636	0.0184241
816.714	0.0183658
816.792	0.0183666
816.870	0.0183629
816.948	0.0184082
817.026	0.0182315
817.104	0.0182488
817.183	0.0181683
817.261	0.0181657
817.339	0.0183077
817.417	0.0182501
817.495	0.0181046
817.573	0.0181101
817.651	0.0182294
817.729	0.0181162
817.808	0.0180161
817.886	0.0181418
817.964	0.0180805
818.042	0.0181543
818.120	0.0181376
818.198	0.0182098
818.276	0.0181112
818.354	0.0181049
818.433	0.0182051
818.511	0.0184022
818.589	0.0183790
818.667	0.0183805
818.745	0.0184068
818.823	0.0184164
818.901	0.0184937
818.979	0.0184247
819.058	0.0181855
819.136	0.0183134
819.214	0.0184307
819.292	0.0182046
819.370	0.0180928
819.448	0.0180875
819.526	0.0181741
819.604	0.0181253
819.683	0.0180441
819.761	0.0181580
819.839	0.0180957
819.917	0.0180820
819.995	0.0180354
820.073	0.0180673
820.151	0.0180647
820.229	0.0181094
820.308	0.0181528
820.386	0.0182460
820.464	0.0182566
820.542	0.0183962
820.620	0.0183949
820.698	0.0183262
820.776	0.0183424
820.854	0.0184036
820.933	0.0184138
821.011	0.0184871
821.089	0.0185159
821.167	0.0185520
821.245	0.0184557
821.323	0.0184225
821.401	0.0185243
821.479	0.0183753
821.558	0.0186336
821.636	0.0185350
821.714	0.0184026
821.792	0.0185435
821.870	0.0185047
821.948	0.0185484
822.026	0.0184062
822.104	0.0185223
822.183	0.0184966
822.261	0.0185361
822.339	0.0185875
822.417	0.0184875
822.495	0.0185244
822.573	0.0186037
822.651	0.0186271
822.729	0.0185990
822.808	0.0184135
822.886	0.0184879
822.964	0.0184394
823.042	0.0184106
823.120	0.0182872
823.198	0.0183259
823.276	0.0184424
823.354	0.0181783
823.433	0.0180111
823.511	0.0180759
823.589	0.0180424
823.667	0.0181279
823.745	0.0180833
823.823	0.0181879
823.901	0.0180749
823.979	0.0181084
824.058	0.0181773
824.136	0.0183062
824.214	0.0182182
824.292	0.0180540
824.370	0.0182155
824.448	0.0182654
824.526	0.0183429
824.604	0.0182578
824.683	0.0181873
824.761	0.0182947
824.839	0.0182692
824.917	0.0182501
824.995	0.0181210
825.073	0.0183107
825.151	0.0181951
825.229	0.0181566
825.308	0.0181726
825.386	0.0180816
825.464	0.0180540
825.542	0.0181966
825.620	0.0180143
825.698	0.0181364
825.776	0.0181341
825.854	0.0182777
825.933	0.0180576
826.011	0.0179488
826.089	0.0181481
826.167	0.0181996
826.245	0.0179971
826.323	0.0181847
826.401	0.0181911
826.479	0.0181285
826.558	0.0183413
826.636	0.0181194
826.714	0.0182487
826.792	0.0182903
826.870	0.0183678
826.948	0.0184644
827.026	0.0185023
827.104	0.0185988
827.183	0.0186394
827.261	0.0186701
827.339	0.0186783
827.417	0.0186975
827.495	0.0185707
827.573	0.0186490
827.651	0.0187691
827.729	0.0186864
827.808	0.0185356
827.886	0.0186195
827.964	0.0186440
828.042	0.0185662
828.120	0.0185411
828.198	0.0185135
828.276	0.0185052
828.354	0.0184483
828.433	0.0185843
828.511	0.0185311
828.589	0.0184010
828.667	0.0184864
828.745	0.0183948
828.823	0.0183148
828.901	0.0183804
828.979	0.0182644
829.058	0.0183774
829.136	0.0184806
829.214	0.0182914
829.292	0.0181252
829.370	0.0181132
829.448	0.0182138
829.526	0.0181857
829.604	0.0180692
829.683	0.0181668
829.761	0.0181139
829.839	0.0181770
829.917	0.0182135
829.995	0.0180571
830.073	0.0181182
830.151	0.0181554
830.229	0.0181053
830.308	0.0181488
830.386	0.0180405
830.464	0.0181292
830.542	0.0182537
830.620	0.0182171
830.698	0.0181524
830.776	0.0182719
830.854	0.0180824
830.933	0.0181735
831.011	0.0182067
831.089	0.0181969
831.167	0.0182281
831.245	0.0182603
831.323	0.0181703
831.401	0.0182053
831.479	0.0181458
831.558	0.0181114
831.636	0.0181442
831.714	0.0182914
831.792	0.0182257
831.870	0.0181550
831.948	0.0181799
832.026	0.0182423
832.104	0.0184097
832.183	0.0183486
832.261	0.0182572
832.339	0.0183059
832.417	0.0183209
832.495	0.0183000
832.573	0.0182848
832.651	0.0183118
832.729	0.0182405
832.808	0.0182748
832.886	0.0184386
832.964	0.0183752
833.042	0.0183675
833.120	0.0185079
833.198	0.0185140
833.276	0.0184914
833.354	0.0185247
833.433	0.0185394
833.511	0.0185160
833.589	0.0185255
833.667	0.0185978
833.745	0.0186349
833.823	0.0184882
833.901	0.0185617
833.979	0.0185791
834.058	0.0186471
834.136	0.0185421
834.214	0.0186211
834.292	0.0186771
834.370	0.0184975
834.448	0.0185552
834.526	0.0185265
834.604	0.0182976
834.683	0.0182032
834.761	0.0181920
834.839	0.0183406
834.917	0.0183717
834.995	0.0184479
835.073	0.0184441
835.151	0.0183459
835.229	0.0183622
835.308	0.0184127
835.386	0.0185087
835.464	0.0182022
835.542	0.0184140
835.620	0.0184918
835.698	0.0185342
835.776	0.0183958
835.854	0.0185302
835.933	0.0184429
836.011	0.0184267
836.089	0.0184676
836.167	0.0183409
836.245	0.0184247
836.323	0.0183844
836.401	0.0183341
836.479	0.0183035
836.558	0.0183016
836.636	0.0183262
836.714	0.0182821
836.792	0.0182214
836.870	0.0181439
836.948	0.0180302
837.026	0.0181232
837.104	0.0181050
837.183	0.0180846
837.261	0.0180714
837.339	0.0181093
837.417	0.0179965
837.495	0.0180227
837.573	0.0180989
837.651	0.0180555
837.729	0.0180313
837.808	0.0181248
837.886	0.0180574
837.964	0.0181220
838.042	0.0181274
838.120	0.0181522
838.198	0.0181995
838.276	0.0181251
838.354	0.0180925
838.433	0.0182110
838.511	0.0181862
838.589	0.0182487
838.667	0.0181985
838.745	0.0181197
838.823	0.0182427
838.901	0.0182657
838.979	0.0182330
839.058	0.0183992
839.136	0.0182991
839.214	0.0183810
839.292	0.0184119
839.370	0.0184551
839.448	0.0185592
839.526	0.0184038
839.604	0.0184581
839.683	0.0185612
839.761	0.0185677
839.839	0.0187173
839.917	0.0186260
839.995	0.0186004
840.073	0.0185367
840.151	0.0184319
840.229	0.0184196
840.308	0.0185553
840.386	0.0184715
840.464	0.0185387
840.542	0.0185976
840.620	0.0185373
840.698	0.0185674
840.776	0.0184534
840.854	0.0185255
840.933	0.0184692
841.011	0.0185516
841.089	0.0183987
841.167	0.0183638
841.245	0.0183001
841.323	0.0184904
841.401	0.0183444
841.479	0.0183447
841.558	0.0184426
841.636	0.0184231
841.714	0.0182048
841.792	0.0184052
841.870	0.0184374
841.948	0.0182476
842.026	0.0183794
842.104	0.0183242
842.183	0.0182631
842.261	0.0182424
842.339	0.0181306
842.417	0.0181825
842.495	0.0181948
842.573	0.0181632
842.651	0.0181087
842.729	0.0181048
842.808	0.0181290
842.886	0.0180997
842.964	0.0181565
843.042	0.0180411
843.120	0.0180815
843.198	0.0180790
843.276	0.0180383
843.354	0.0180566
843.433	0.0180069
843.511	0.0179185
843.589	0.0180087
843.667	0.0180510
843.745	0.0181229
843.823	0.0182368
843.901	0.0180860
843.979	0.0180000
844.058	0.0180622
844.136	0.0181528
844.214	0.0182854
844.292	0.0181360
844.370	0.0182057
844.448	0.0182070
844.526	0.0182066
844.604	0.0183076
844.683	0.0181020
844.761	0.0181441
844.839	0.0182663
844.917	0.0183188
844.995	0.0183878
845.073	0.0184367
845.151	0.0184384
845.229	0.0183119
845.308	0.0182718
845.386	0.0183424
845.464	0.0184344
845.542	0.0184081
845.620	0.0185791
845.698	0.0184109
845.776	0.0185064
845.854	0.0184218
845.933	0.0184601
846.011	0.0185566
846.089	0.0184762
846.167	0.0184681
846.245	0.0186080
846.323	0.0185065
846.401	0.0184981
846.479	0.0185825
846.558	0.0184645
846.636	0.0185227
846.714	0.0185130
846.792	0.0185643
846.870	0.0184380
846.948	0.0182922
847.026	0.0184174
847.104	0.0183262
847.183	0.0184361
847.261	0.0184563
847.339	0.0183753
847.417	0.0185347
847.495	0.0184862
847.573	0.0184159
847.651	0.0184730
847.729	0.0183508
847.808	0.0185070
847.886	0.0185461
847.964	0.0184840
848.042	0.0184694
848.120	0.0182099
848.198	0.0183389
848.276	0.0182540
848.354	0.0181359
848.433	0.0180830
848.511	0.0181272
848.589	0.0181219
848.667	0.0181315
848.745	0.0180865
848.823	0.0180109
848.901	0.0181580
848.979	0.0179333
849.058	0.0181483
849.136	0.0180975
849.214	0.0181042
849.292	0.0179924
849.370	0.0181046
849.448	0.0179758
849.526	0.0181255
849.604	0.0181406
849.683	0.0181477
849.761	0.0180532
849.839	0.0181537
849.917	0.0181378
849.995	0.0181502
850.073	0.0180064
850.151	0.0180138
850.229	0.0180170
850.308	0.0182235
850.386	0.0182078
850.464	0.0183282
850.542	0.0182858
850.620	0.0181886
850.698	0.0182039
850.776	0.0181734
850.854	0.0183285
850.933	0.0183318
851.011	0.0183857
851.089	0.0185114
851.167	0.0184510
851.245	0.0183958
851.323	0.0183891
851.401	0.0184418
851.479	0.0185802
851.558	0.0184527
851.636	0.0182783
851.714	0.0185558
851.792	0.0184422
851.870	0.0185213
851.948	0.0184548
852.026	0.0183086
852.104	0.0182558
852.183	0.0184535
852.261	0.0183492
852.339	0.0186073
852.417	0.0185367
852.495	0.0185498
852.573	0.0184069
852.651	0.0185145
852.729	0.0185107
852.808	0.0183854
852.886	0.0183620
852.964	0.0184040
853.042	0.0184994
853.120	0.0184250
853.198	0.0184115
853.276	0.0184019
853.354	0.0184179
853.433	0.0182115
853.511	0.0182822
853.589	0.0183566
853.667	0.0183913
853.745	0.0182574
853.823	0.0183112
853.901	0.0183096
853.979	0.0182799
854.058	0.0182745
854.136	0.0182076
854.214	0.0182870
854.292	0.0181933
854.370	0.0182428
854.448	0.0184140
854.526	0.0181898
854.604	0.0181770
854.683	0.0182371
854.761	0.0181718
854.839	0.0181608
854.917	0.0181165
854.995	0.0181066
855.073	0.0181628
855.151	0.0183425
855.229	0.0181773
855.308	0.0181238
855.386	0.0181966
855.464	0.0181807
855.542	0.0181903
855.620	0.0181884
855.698	0.0182001
855.776	0.0182844
855.854	0.0183220
855.933	0.0182669
856.011	0.0182228
856.089	0.0183272
856.167	0.0181911
856.245	0.0182514
856.323	0.0182933
856.401	0.0181684
856.479	0.0182346
856.558	0.0182140
856.636	0.0182671
856.714	0.0182047
856.792	0.0181231
856.870	0.0181191
856.948	0.0182998
857.026	0.0181785
857.104	0.0182236
857.183	0.0182396
857.261	0.0182571
857.339	0.0182440
857.417	0.0183054
857.495	0.0183225
857.573	0.0183575
857.651	0.0183731
857.729	0.0183674
857.808	0.0183197
857.886	0.0182968
857.964	0.0183988
858.042	0.0185395
858.120	0.0184309
858.198	0.0184105
858.276	0.0183138
858.354	0.0184299
858.433	0.0183137
858.511	0.0183463
858.589	0.0185452
858.667	0.0183382
858.745	0.0183908
858.823	0.0184388
858.901	0.0184412
858.979	0.0185870
859.058	0.0184404
859.136	0.0184159
859.214	0.0185321
859.292	0.0184425
859.370	0.0184798
859.448	0.0184566
859.526	0.0184264
859.604	0.0185449
859.683	0.0184908
859.761	0.0185009
859.839	0.0183695
859.917	0.0184953
859.995	0.0183434
860.073	0.0182268
860.151	0.0183198
860.229	0.0182579
860.308	0.0182681
860.386	0.0182481
860.464	0.0183613
860.542	0.0182995
860.620	0.0183094
860.698	0.0181928
860.776	0.0183261
860.854	0.0181815
860.933	0.0181128
861.011	0.0182405
861.089	0.0182047
861.167	0.0182121
861.245	0.0181532
861.323	0.0182626
861.401	0.0181007
861.479	0.0180812
861.558	0.0182482
861.636	0.0182085
861.714	0.0182129
861.792	0.0182189
861.870	0.0183131
861.948	0.0183133
862.026	0.0182275
862.104	0.0184563
862.183	0.0183889
862.261	0.0182537
862.339	0.0183159
862.417	0.0183113
862.495	0.0182878
862.573	0.0182423
862.651	0.0181748
862.729	0.0182656
862.808	0.0182725
862.886	0.0182633
862.964	0.0183433
863.042	0.0182532
863.120	0.0183658
863.198	0.0182437
863.276	0.0183148
863.354	0.0182377
863.433	0.0181991
863.511	0.0183629
863.589	0.0183826
863.667	0.0183398
863.745	0.0182903
863.823	0.0182811
863.901	0.0184948
863.979	0.0182801
864.058	0.0183340
864.136	0.0182030
864.214	0.0183849
864.292	0.0182544
864.370	0.0183159
864.448	0.0184142
864.526	0.0183263
864.604	0.0182261
864.683	0.0184174
864.761	0.0183607
864.839	0.0183335
864.917	0.0183685
864.995	0.0183761
865.073	0.0184025
865.151	0.0184996
865.229	0.0184144
865.308	0.0182415
865.386	0.0182722
865.464	0.0182929
865.542	0.0182491
865.620	0.0183049
865.698	0.0183145
865.776	0.0183215
865.854	0.0183794
865.933	0.0183611
866.011	0.0182511
866.089	0.0182589
866.167	0.0183694
866.245	0.0183869
866.323	0.0181864
866.401	0.0181754
866.479	0.0182997
866.558	0.0181474
866.636	0.0182340
866.714	0.0181873
866.792	0.0181213
866.870	0.0181635
866.948	0.0180374
867.026	0.0181158
867.104	0.0181031
867.183	0.0181361
867.261	0.0182825
867.339	0.0182564
867.417	0.0183193
867.495	0.0183961
867.573	0.0183363
867.651	0.0181419
867.729	0.0183833
867.808	0.0185812
867.886	0.0184554
867.964	0.0184897
868.042	0.0184853
868.120	0.0184240
868.198	0.0184876
868.276	0.0185294
868.354	0.0185937
868.433	0.0184739
868.511	0.0183246
868.589	0.0185699
868.667	0.0183391
868.745	0.0182252
868.823	0.0182320
868.901	0.0182987
868.979	0.0182842
869.058	0.0180942
869.136	0.0181279
869.214	0.0181828
869.292	0.0181838
869.370	0.0183522
869.448	0.0181401
869.526	0.0184074
869.604	0.0183427
869.683	0.0182716
869.761	0.0183064
869.839	0.0183253
869.917	0.0182848
869.995	0.0183600
870.073	0.0182755
870.151	0.0183608
870.229	0.0182083
870.308	0.0182467
870.386	0.0181669
870.464	0.0182099
870.542	0.0182660
870.620	0.0184058
870.698	0.0183318
870.776	0.0182818
870.854	0.0183926
870.933	0.0183367
871.011	0.0182749
871.089	0.0183220
871.167	0.0182327
871.245	0.0181811
871.323	0.0184373
871.401	0.0183405
871.479	0.0183570
871.558	0.0183461
871.636	0.0183602
871.714	0.0182891
871.792	0.0183907
871.870	0.0182497
871.948	0.0182886
872.026	0.0184209
872.104	0.0183174
872.183	0.0184011
872.261	0.0183678
872.339	0.0182450
872.417	0.0182737
872.495	0.0181951
872.573	0.0183235
872.651	0.0181752
872.729	0.0180791
872.808	0.0180020
872.886	0.0179666
872.964	0.0181380
873.042	0.0182132
873.120	0.0180427
873.198	0.0180589
873.276	0.0181494
873.354	0.0182269
873.433	0.0181824
873.511	0.0181803
873.589	0.0182764
873.667	0.0183210
873.745	0.0183916
873.823	0.0183025
873.901	0.0182182
873.979	0.0184639
874.058	0.0183514
874.136	0.0183560
874.214	0.0182922
874.292	0.0182950
874.370	0.0184548
874.448	0.0183331
874.526	0.0182527
874.604	0.0183455
874.683	0.0183444
874.761	0.0182583
874.839	0.0182980
874.917	0.0184225
874.995	0.0183279
875.073	0.0183111
875.151	0.0183663
875.229	0.0183412
875.308	0.0184058
875.386	0.0184460
875.464	0.0184383
875.542	0.0183493
875.620	0.0183177
875.698	0.0183349
875.776	0.0184660
875.854	0.0183546
875.933	0.0182677
876.011	0.0183105
876.089	0.0185077
876.167	0.0183145
876.245	0.0184035
876.323	0.0183071
876.401	0.0181273
876.479	0.0182228
876.558	0.0183655
876.636	0.0182146
876.714	0.0183065
876.792	0.0181030
876.870	0.0180609
876.948	0.0181474
877.026	0.0181583
877.104	0.0182516
877.183	0.0181243
877.261	0.0182042
877.339	0.0182771
877.417	0.0183035
877.495	0.0181305
877.573	0.0182802
877.651	0.0184058
877.729	0.0182719
877.808	0.0183208
877.886	0.0184677
877.964	0.0183804
878.042	0.0183661
878.120	0.0184218
878.198	0.0183114
878.276	0.0183918
878.354	0.0182903
878.433	0.0183032
878.511	0.0182885
878.589	0.0182840
878.667	0.0182232
878.745	0.0181585
878.823	0.0182242
878.901	0.0181365
878.979	0.0181876
879.058	0.0182037
879.136	0.0182910
879.214	0.0182356
879.292	0.0180442
879.370	0.0182384
879.448	0.0184436
879.526	0.0183179
879.604	0.0182179
879.683	0.0183808
879.761	0.0183800
879.839	0.0184115
879.917	0.0183583
879.995	0.0184868
880.073	0.0183562
880.151	0.0183345
880.229	0.0183191
880.308	0.0183251
880.386	0.0183755
880.464	0.0182456
880.542	0.0181890
880.620	0.0182848
880.698	0.0183521
880.776	0.0181985
880.854	0.0184301
880.933	0.0183031
881.011	0.0184586
881.089	0.0184087
881.167	0.0182154
881.245	0.0183382
881.323	0.0183436
881.401	0.0183282
881.479	0.0184120
881.558	0.0182667
881.636	0.0182652
881.714	0.0183207
881.792	0.0182384
881.870	0.0181448
881.948	0.0182779
882.026	0.0182576
882.104	0.0182414
882.183	0.0183676
882.261	0.0182751
882.339	0.0183531
882.417	0.0183054
882.495	0.0182434
882.573	0.0182403
882.651	0.0183858
882.729	0.0183699
882.808	0.0182029
882.886	0.0182439
882.964	0.0182733
883.042	0.0183965
883.120	0.0184853
883.198	0.0184341
883.276	0.0184694
883.354	0.0183727
883.433	0.0183492
883.511	0.0183504
883.589	0.0184376
883.667	0.0183159
883.745	0.0182867
883.823	0.0181565
883.901	0.0183230
883.979	0.0183577
884.058	0.0182835
884.136	0.0183075
884.214	0.0182364
884.292	0.0183248
884.370	0.0183328
884.448	0.0183280
884.526	0.0182516
884.604	0.0182615
884.683	0.0182072
884.761	0.0182423
884.839	0.0181751
884.917	0.0181306
884.995	0.0182180
885.073	0.0181204
885.151	0.0182602
885.229	0.0181133
885.308	0.0181830
885.386	0.0181184
885.464	0.0182000
885.542	0.0182749
885.620	0.0182392
885.698	0.0181100
885.776	0.0182103
885.854	0.0182705
885.933	0.0182298
886.011	0.0183501
886.089	0.0181878
886.167	0.0183727
886.245	0.0183180
886.323	0.0182213
886.401	0.0182490
886.479	0.0182888
886.558	0.0183084
886.636	0.0183165
886.714	0.0183162
886.792	0.0183572
886.870	0.0182706
886.948	0.0182379
887.026	0.0183812
887.104	0.0183561
887.183	0.0183102
887.261	0.0183924
887.339	0.0183132
887.417	0.0184667
887.495	0.0184397
887.573	0.0183377
887.651	0.0182784
887.729	0.0183102
887.808	0.0183582
887.886	0.0183860
887.964	0.0184472
888.042	0.0184690
888.120	0.0183007
888.198	0.0182832
888.276	0.0184225
888.354	0.0183409
888.433	0.0183282
888.511	0.0183629
888.589	0.0182762
888.667	0.0183002
888.745	0.0183694
888.823	0.0183295
888.901	0.0182934
888.979	0.0182751
889.058	0.0184018
889.136	0.0183127
889.214	0.0182678
889.292	0.0183102
889.370	0.0182336
889.448	0.0183380
889.526	0.0182043
889.604	0.0182276
889.683	0.0183199
889.761	0.0183287
889.839	0.0183219
889.917	0.0181241
889.995	0.0182568
890.073	0.0181934
890.151	0.0181614
890.229	0.0182391
890.308	0.0182555
890.386	0.0181480
890.464	0.0182121
890.542	0.0182257
890.620	0.0181699
890.698	0.0181767
890.776	0.0181239
890.854	0.0180888
890.933	0.0181302
891.011	0.0181891
891.089	0.0179839
891.167	0.0179684
891.245	0.0181665
891.323	0.0181544
891.401	0.0179455
891.479	0.0180937
891.558	0.0182777
891.636	0.0182228
891.714	0.0183140
891.792	0.0181002
891.870	0.0182414
891.948	0.0183022
892.026	0.0182892
892.104	0.0184876
892.183	0.0183607
892.261	0.0182584
892.339	0.0182784
892.417	0.0183517
892.495	0.0184553
892.573	0.0185403
892.651	0.0182626
892.729	0.0183445
892.808	0.0184084
892.886	0.0182988
892.964	0.0184431
893.042	0.0185163
893.120	0.0184589
893.198	0.0183904
893.276	0.0184815
893.354	0.0183775
893.433	0.0183368
893.511	0.0185243
893.589	0.0184477
893.667	0.0183405
893.745	0.0184170
893.823	0.0183588
893.901	0.0182005
893.979	0.0183365
894.058	0.0182159
894.136	0.0183165
894.214	0.0183414
894.292	0.0181834
894.370	0.0181659
894.448	0.0181911
894.526	0.0181436
894.604	0.0181925
894.683	0.0181779
894.761	0.0180921
894.839	0.0181628
894.917	0.0182574
894.995	0.0182169
895.073	0.0181425
895.151	0.0183267
895.229	0.0182685
895.308	0.0182715
895.386	0.0182547
895.464	0.0182540
895.542	0.0183784
895.620	0.0182824
895.698	0.0182950
895.776	0.0182496
895.854	0.0181891
895.933	0.0183442
896.011	0.0182216
896.089	0.0182442
896.167	0.0182494
896.245	0.0184270
896.323	0.0182857
896.401	0.0182938
896.479	0.0181720
896.558	0.0182967
896.636	0.0181895
896.714	0.0181719
896.792	0.0182355
896.870	0.0182188
896.948	0.0181915
897.026	0.0182890
897.104	0.0182502
897.183	0.0183568
897.261	0.0184206
897.339	0.0183833
897.417	0.0181841
897.495	0.0183614
897.573	0.0183265
897.651	0.0183781
897.729	0.0184129
897.808	0.0183877
897.886	0.0183900
897.964	0.0183559
898.042	0.0183625
898.120	0.0183498
898.198	0.0182973
898.276	0.0183690
898.354	0.0183632
898.433	0.0183468
898.511	0.0182743
898.589	0.0184234
898.667	0.0183980
898.745	0.0183597
898.823	0.0184960
898.901	0.0184446
898.979	0.0184563
899.058	0.0183669
899.136	0.0183912
899.214	0.0183929
899.292	0.0183462
899.370	0.0183626
899.448	0.0182433
899.526	0.0183635
899.604	0.0184584
899.683	0.0184937
899.761	0.0184263
899.839	0.0182550
899.917	0.0181258
899.995	0.0181432
900.073	0.0182246
900.151	0.0181863
900.229	0.0181497
900.308	0.0182784
900.386	0.0181400
900.464	0.0182047
900.542	0.0182329
900.620	0.0182804
900.698	0.0183617
900.776	0.0181924
900.854	0.0183199
900.933	0.0183704
901.011	0.0183855
901.089	0.0183967
901.167	0.0181715
901.245	0.0182405
901.323	0.0183386
901.401	0.0183856
901.479	0.0183923
901.558	0.0184972
901.636	0.0183891
901.714	0.0183792
901.792	0.0183550
901.870	0.0183875
901.948	0.0182145
902.026	0.0182230
902.104	0.0181322
902.183	0.0181623
902.261	0.0180755
902.339	0.0181349
902.417	0.0182571
902.495	0.0182042
902.573	0.0182585
902.651	0.0182282
902.729	0.0183027
902.808	0.0182573
902.886	0.0181886
902.964	0.0181660
903.042	0.0182584
903.120	0.0183387
903.198	0.0182774
903.276	0.0182410
903.354	0.0182304
903.433	0.0181720
903.511	0.0181992
903.589	0.0184850
903.667	0.0183432
903.745	0.0183046
903.823	0.0183022
903.901	0.0183991
903.979	0.0184119
904.058	0.0182207
904.136	0.0183354
904.214	0.0182681
904.292	0.0183249
904.370	0.0182795
904.448	0.0183172
904.526	0.0183254
904.604	0.0182333
904.683	0.0183334
904.761	0.0183071
904.839	0.0183340
904.917	0.0182028
904.995	0.0183201
905.073	0.0184270
905.151	0.0184045
905.229	0.0185332
905.308	0.0184902
905.386	0.0184625
905.464	0.0184524
905.542	0.0183833
905.620	0.0184378
905.698	0.0186874
905.776	0.0184572
905.854	0.0184515
905.933	0.0183201
906.011	0.0183869
906.089	0.0184123
906.167	0.0183352
906.245	0.0182324
906.323	0.0182906
906.401	0.0181547
906.479	0.0181816
906.558	0.0182764
906.636	0.0182393
906.714	0.0181150
906.792	0.0181665
906.870	0.0180913
906.948	0.0180803
907.026	0.0181386
907.104	0.0183121
907.183	0.0181629
907.261	0.0182111
907.339	0.0183564
907.417	0.0184035
907.495	0.0183729
907.573	0.0183075
907.651	0.0181953
907.729	0.0181589
907.808	0.0183493
907.886	0.0181964
907.964	0.0183836
908.042	0.0182519
908.120	0.0181993
908.198	0.0181496
908.276	0.0182725
908.354	0.0182252
908.433	0.0182044
908.511	0.0183432
908.589	0.0184183
908.667	0.0184576
908.745	0.0184695
908.823	0.0184162
908.901	0.0186038
908.979	0.0185461
909.058	0.0185009
909.136	0.0184883
909.214	0.0187121
909.292	0.0183961
909.370	0.0184336
909.448	0.0185033
909.526	0.0183596
909.604	0.0182584
909.683	0.0182798
909.761	0.0181782
909.839	0.0181433
909.917	0.0182755
909.995	0.0180769
910.073	0.0181200
910.151	0.0181505
910.229	0.0182166
910.308	0.0181078
910.386	0.0180585
910.464	0.0181644
910.542	0.0183036
910.620	0.0181593
910.698	0.0180364
910.776	0.0181944
910.854	0.0181456
910.933	0.0181606
911.011	0.0181778
911.089	0.0181790
911.167	0.0182072
911.245	0.0181182
911.323	0.0182392
911.401	0.0182143
911.479	0.0180199
911.558	0.0183118
911.636	0.0183295
911.714	0.0182076
911.792	0.0183741
911.870	0.0184737
911.948	0.0183624
912.026	0.0181824
912.104	0.0182420
912.183	0.0184358
912.261	0.0183485
912.339	0.0183983
912.417	0.0185161
912.495	0.0185406
912.573	0.0183311
912.651	0.0183188
912.729	0.0183837
912.808	0.0183288
912.886	0.0182304
912.964	0.0182737
913.042	0.0182848
913.120	0.0182844
913.198	0.0183741
913.276	0.0183376
913.354	0.0181519
913.433	0.0181465
913.511	0.0181499
913.589	0.0181586
913.667	0.0181058
913.745	0.0182281
913.823	0.0181932
913.901	0.0180264
913.979	0.0181580
914.058	0.0183212
914.136	0.0183144
914.214	0.0183717
914.292	0.0183434
914.370	0.0183369
914.448	0.0184322
914.526	0.0182758
914.604	0.0184155
914.683	0.0184007
914.761	0.0184091
914.839	0.0184514
914.917	0.0183866
914.995	0.0182957
915.073	0.0182824
915.151	0.0182703
915.229	0.0182798
915.308	0.0181601
915.386	0.0183042
915.464	0.0182860
915.542	0.0183593
915.620	0.0183891
915.698	0.0183707
915.776	0.0183742
915.854	0.0183577
915.933	0.0183472
916.011	0.0184089
916.089	0.0184306
916.167	0.0184833
916.245	0.0185069
916.323	0.0184508
916.401	0.0184402
916.479	0.0184301
916.558	0.0184090
916.636	0.0184034
916.714	0.0182803
916.792	0.0182351
916.870	0.0183563
916.948	0.0182522
917.026	0.0180562
917.104	0.0181645
917.183	0.0181023
917.261	0.0180598
917.339	0.0180757
917.417	0.0180875
917.495	0.0180457
917.573	0.0181361
917.651	0.0180728
917.729	0.0181349
917.808	0.0182527
917.886	0.0181461
917.964	0.0182223
918.042	0.0181990
918.120	0.0182613
918.198	0.0183139
918.276	0.0182487
918.354	0.0182985
918.433	0.0182211
918.511	0.0184228
918.589	0.0185219
918.667	0.0183636
918.745	0.0183404
918.823	0.0183817
918.901	0.0182822
918.979	0.0183474
919.058	0.0183143
919.136	0.0182635
919.214	0.0183110
919.292	0.0182452
919.370	0.0183395
919.448	0.0182709
919.526	0.0183535
919.604	0.0183781
919.683	0.0183125
919.761	0.0183447
919.839	0.0183312
919.917	0.0183607
