06/03/2022	18:20:13	Ver.	4.1	UNKNOWN
Optical Delay	599.995081	Delta X		0.078125	Sweeps	1	Scan Rate	0/0
Coordinates	Axis 1	NaN	Axis 2	NaN	Axis 3	NaN	Axis 4	NaN	Axis 5	NaN	Axis 6	0.000000
TX Power	0.000000	RX Power	0.000000

599.995	0.0180751
600.073	0.0179852
600.151	0.0181339
600.229	0.0181371
600.308	0.0180344
600.386	0.0180885
600.464	0.0180735
600.542	0.0181784
600.620	0.0180923
600.698	0.0180463
600.776	0.0180943
600.854	0.0179076
600.933	0.0181934
601.011	0.0180746
601.089	0.0180814
601.167	0.0180258
601.245	0.0181335
601.323	0.0179868
601.401	0.0178646
601.479	0.0180872
601.558	0.0181104
601.636	0.0180495
601.714	0.0180951
601.792	0.0181059
601.870	0.0182005
601.948	0.0180719
602.026	0.0180692
602.104	0.0180387
602.183	0.0181081
602.261	0.0181319
602.339	0.0182621
602.417	0.0180370
602.495	0.0180256
602.573	0.0181351
602.651	0.0181192
602.729	0.0181679
602.808	0.0181126
602.886	0.0178984
602.964	0.0181632
603.042	0.0181899
603.120	0.0179411
603.198	0.0180663
603.276	0.0181234
603.354	0.0182173
603.433	0.0181147
603.511	0.0180768
603.589	0.0180480
603.667	0.0182159
603.745	0.0181757
603.823	0.0181866
603.901	0.0181256
603.979	0.0181611
604.058	0.0181385
604.136	0.0182470
604.214	0.0180935
604.292	0.0182193
604.370	0.0181696
604.448	0.0181693
604.526	0.0181898
604.604	0.0181573
604.683	0.0181686
604.761	0.0181479
604.839	0.0181529
604.917	0.0181132
604.995	0.0181528
605.073	0.0181184
605.151	0.0181113
605.229	0.0182161
605.308	0.0182323
605.386	0.0181919
605.464	0.0180733
605.542	0.0182309
605.620	0.0182114
605.698	0.0179451
605.776	0.0180894
605.854	0.0181207
605.933	0.0182832
606.011	0.0182755
606.089	0.0181703
606.167	0.0181377
606.245	0.0180222
606.323	0.0181771
606.401	0.0181710
606.479	0.0181240
606.558	0.0180885
606.636	0.0181219
606.714	0.0181447
606.792	0.0180229
606.870	0.0182089
606.948	0.0181910
607.026	0.0180114
607.104	0.0182364
607.183	0.0183615
607.261	0.0179910
607.339	0.0179187
607.417	0.0181119
607.495	0.0180763
607.573	0.0181166
607.651	0.0181284
607.729	0.0181417
607.808	0.0180516
607.886	0.0180396
607.964	0.0180512
608.042	0.0180470
608.120	0.0180688
608.198	0.0180481
608.276	0.0179969
608.354	0.0180431
608.433	0.0181774
608.511	0.0181948
608.589	0.0182445
608.667	0.0181731
608.745	0.0182457
608.823	0.0180202
608.901	0.0179739
608.979	0.0179752
609.058	0.0181078
609.136	0.0182939
609.214	0.0180355
609.292	0.0180371
609.370	0.0181049
609.448	0.0180946
609.526	0.0182723
609.604	0.0182312
609.683	0.0181608
609.761	0.0181924
609.839	0.0181026
609.917	0.0180209
609.995	0.0181776
610.073	0.0179900
610.151	0.0180868
610.229	0.0181906
610.308	0.0181095
610.386	0.0180650
610.464	0.0180364
610.542	0.0180268
610.620	0.0182272
610.698	0.0179551
610.776	0.0181562
610.854	0.0180287
610.933	0.0180293
611.011	0.0182475
611.089	0.0181410
611.167	0.0180862
611.245	0.0180286
611.323	0.0180840
611.401	0.0181439
611.479	0.0181585
611.558	0.0181335
611.636	0.0180040
611.714	0.0180461
611.792	0.0181102
611.870	0.0179803
611.948	0.0181594
612.026	0.0181441
612.104	0.0180611
612.183	0.0180775
612.261	0.0180908
612.339	0.0180109
612.417	0.0181662
612.495	0.0178873
612.573	0.0181091
612.651	0.0180799
612.729	0.0179967
612.808	0.0181441
612.886	0.0180182
612.964	0.0181149
613.042	0.0180898
613.120	0.0180831
613.198	0.0181861
613.276	0.0180633
613.354	0.0180832
613.433	0.0181108
613.511	0.0180257
613.589	0.0181882
613.667	0.0181209
613.745	0.0180912
613.823	0.0180696
613.901	0.0180354
613.979	0.0180890
614.058	0.0181832
614.136	0.0181056
614.214	0.0180537
614.292	0.0180074
614.370	0.0180449
614.448	0.0181583
614.526	0.0180320
614.604	0.0180265
614.683	0.0179477
614.761	0.0181027
614.839	0.0181181
614.917	0.0179831
614.995	0.0180714
615.073	0.0180797
615.151	0.0181988
615.229	0.0180906
615.308	0.0181414
615.386	0.0181348
615.464	0.0180818
615.542	0.0180312
615.620	0.0181847
615.698	0.0180686
615.776	0.0180641
615.854	0.0180616
615.933	0.0181609
616.011	0.0180682
616.089	0.0179983
616.167	0.0180098
616.245	0.0181327
616.323	0.0180242
616.401	0.0181200
616.479	0.0181035
616.558	0.0180080
616.636	0.0180785
616.714	0.0182139
616.792	0.0181410
616.870	0.0182188
616.948	0.0180844
617.026	0.0180136
617.104	0.0181141
617.183	0.0180312
617.261	0.0181292
617.339	0.0181212
617.417	0.0180937
617.495	0.0180923
617.573	0.0181772
617.651	0.0180812
617.729	0.0180436
617.808	0.0181161
617.886	0.0180476
617.964	0.0181140
618.042	0.0181169
618.120	0.0181051
618.198	0.0180203
618.276	0.0180206
618.354	0.0180432
618.433	0.0180463
618.511	0.0180820
618.589	0.0180338
618.667	0.0181326
618.745	0.0180180
618.823	0.0179789
618.901	0.0180834
618.979	0.0181913
619.058	0.0180583
619.136	0.0180159
619.214	0.0180523
619.292	0.0179984
619.370	0.0180537
619.448	0.0182662
619.526	0.0180447
619.604	0.0179781
619.683	0.0180933
619.761	0.0179049
619.839	0.0180722
619.917	0.0180419
619.995	0.0179729
620.073	0.0181489
620.151	0.0182041
620.229	0.0180843
620.308	0.0179733
620.386	0.0181055
620.464	0.0179550
620.542	0.0179803
620.620	0.0180214
620.698	0.0181966
620.776	0.0180959
620.854	0.0179959
620.933	0.0179947
621.011	0.0181740
621.089	0.0181284
621.167	0.0180094
621.245	0.0181133
621.323	0.0180376
621.401	0.0181268
621.479	0.0181232
621.558	0.0180958
621.636	0.0180602
621.714	0.0179774
621.792	0.0179633
621.870	0.0181494
621.948	0.0181662
622.026	0.0181109
622.104	0.0181047
622.183	0.0179348
622.261	0.0180741
622.339	0.0180024
622.417	0.0179864
622.495	0.0180946
622.573	0.0180128
622.651	0.0180832
622.729	0.0180785
622.808	0.0181117
622.886	0.0180656
622.964	0.0181012
623.042	0.0179710
623.120	0.0180396
623.198	0.0182500
623.276	0.0180412
623.354	0.0180479
623.433	0.0180272
623.511	0.0180315
623.589	0.0180614
623.667	0.0181435
623.745	0.0180468
623.823	0.0180347
623.901	0.0180401
623.979	0.0180510
624.058	0.0180838
624.136	0.0180589
624.214	0.0180640
624.292	0.0181083
624.370	0.0180473
624.448	0.0180719
624.526	0.0181609
624.604	0.0180970
624.683	0.0181599
624.761	0.0180360
624.839	0.0181089
624.917	0.0181450
624.995	0.0179631
625.073	0.0181033
625.151	0.0180090
625.229	0.0180616
625.308	0.0182185
625.386	0.0180889
625.464	0.0181234
625.542	0.0180251
625.620	0.0181969
625.698	0.0181286
625.776	0.0180872
625.854	0.0180127
625.933	0.0181345
626.011	0.0181606
626.089	0.0181503
626.167	0.0182221
626.245	0.0182253
626.323	0.0182706
626.401	0.0181303
626.479	0.0180575
626.558	0.0180808
626.636	0.0180022
626.714	0.0180206
626.792	0.0180811
626.870	0.0180166
626.948	0.0181712
627.026	0.0180856
627.104	0.0181203
627.183	0.0181371
627.261	0.0180100
627.339	0.0181731
627.417	0.0179684
627.495	0.0181077
627.573	0.0180061
627.651	0.0182117
627.729	0.0182441
627.808	0.0182280
627.886	0.0181388
627.964	0.0180680
628.042	0.0181695
628.120	0.0180800
628.198	0.0181409
628.276	0.0181252
628.354	0.0180983
628.433	0.0180926
628.511	0.0181030
628.589	0.0180286
628.667	0.0179607
628.745	0.0180146
628.823	0.0179890
628.901	0.0181546
628.979	0.0179784
629.058	0.0180531
629.136	0.0181117
629.214	0.0180232
629.292	0.0179917
629.370	0.0181658
629.448	0.0181645
629.526	0.0180627
629.604	0.0179913
629.683	0.0180367
629.761	0.0181933
629.839	0.0182443
629.917	0.0181062
629.995	0.0180733
630.073	0.0179911
630.151	0.0180112
630.229	0.0180202
630.308	0.0179989
630.386	0.0181530
630.464	0.0181525
630.542	0.0180226
630.620	0.0179996
630.698	0.0181947
630.776	0.0181905
630.854	0.0181647
630.933	0.0179968
631.011	0.0182034
631.089	0.0180581
631.167	0.0180023
631.245	0.0181159
631.323	0.0180501
631.401	0.0180951
631.479	0.0181308
631.558	0.0181255
631.636	0.0181656
631.714	0.0180837
631.792	0.0181789
631.870	0.0181352
631.948	0.0182258
632.026	0.0183063
632.104	0.0180220
632.183	0.0181385
632.261	0.0181490
632.339	0.0180534
632.417	0.0182626
632.495	0.0180414
632.573	0.0181370
632.651	0.0181897
632.729	0.0182185
632.808	0.0180489
632.886	0.0181872
632.964	0.0181129
633.042	0.0181106
633.120	0.0182097
633.198	0.0180805
633.276	0.0180566
633.354	0.0182285
633.433	0.0181228
633.511	0.0180341
633.589	0.0182134
633.667	0.0181461
633.745	0.0181145
633.823	0.0181427
633.901	0.0181297
633.979	0.0181746
634.058	0.0180594
634.136	0.0180575
634.214	0.0179804
634.292	0.0181996
634.370	0.0182182
634.448	0.0181245
634.526	0.0181570
634.604	0.0181059
634.683	0.0181276
634.761	0.0180253
634.839	0.0181834
634.917	0.0180817
634.995	0.0181637
635.073	0.0181889
635.151	0.0179724
635.229	0.0179813
635.308	0.0181459
635.386	0.0180688
635.464	0.0179803
635.542	0.0180120
635.620	0.0180476
635.698	0.0179835
635.776	0.0181468
635.854	0.0180391
635.933	0.0181633
636.011	0.0180711
636.089	0.0179652
636.167	0.0180527
636.245	0.0181122
636.323	0.0181297
636.401	0.0182057
636.479	0.0180106
636.558	0.0180087
636.636	0.0181569
636.714	0.0181927
636.792	0.0181061
636.870	0.0180296
636.948	0.0180949
637.026	0.0180937
637.104	0.0182023
637.183	0.0182188
637.261	0.0181918
637.339	0.0182137
637.417	0.0180419
637.495	0.0181274
637.573	0.0182471
637.651	0.0182232
637.729	0.0181129
637.808	0.0181483
637.886	0.0180639
637.964	0.0181214
638.042	0.0179903
638.120	0.0181746
638.198	0.0180927
638.276	0.0181055
638.354	0.0182015
638.433	0.0181881
638.511	0.0182333
638.589	0.0180542
638.667	0.0180563
638.745	0.0181163
638.823	0.0180927
638.901	0.0180906
638.979	0.0182557
639.058	0.0180840
639.136	0.0181853
639.214	0.0181252
639.292	0.0179846
639.370	0.0180804
639.448	0.0180447
639.526	0.0180136
639.604	0.0181069
639.683	0.0181519
639.761	0.0180217
639.839	0.0181336
639.917	0.0180512
639.995	0.0180729
640.073	0.0180396
640.151	0.0181043
640.229	0.0182449
640.308	0.0180226
640.386	0.0181657
640.464	0.0179044
640.542	0.0180815
640.620	0.0181928
640.698	0.0181101
640.776	0.0180824
640.854	0.0180749
640.933	0.0180155
641.011	0.0181239
641.089	0.0181094
641.167	0.0181564
641.245	0.0180962
641.323	0.0180841
641.401	0.0179705
641.479	0.0181241
641.558	0.0181448
641.636	0.0179939
641.714	0.0180654
641.792	0.0181184
641.870	0.0180704
641.948	0.0180239
642.026	0.0181229
642.104	0.0181910
642.183	0.0180573
642.261	0.0181050
642.339	0.0179695
642.417	0.0180126
642.495	0.0179744
642.573	0.0180701
642.651	0.0180688
642.729	0.0180317
642.808	0.0179982
642.886	0.0180405
642.964	0.0180693
643.042	0.0181187
643.120	0.0181905
643.198	0.0180927
643.276	0.0179899
643.354	0.0180245
643.433	0.0180978
643.511	0.0181526
643.589	0.0179969
643.667	0.0180151
643.745	0.0178416
643.823	0.0180009
643.901	0.0181732
643.979	0.0181066
644.058	0.0181003
644.136	0.0179283
644.214	0.0180101
644.292	0.0181077
644.370	0.0180676
644.448	0.0179514
644.526	0.0180053
644.604	0.0179823
644.683	0.0180446
644.761	0.0181822
644.839	0.0181646
644.917	0.0181866
644.995	0.0180978
645.073	0.0181027
645.151	0.0180572
645.229	0.0180967
645.308	0.0182117
645.386	0.0182746
645.464	0.0180828
645.542	0.0179634
645.620	0.0178783
645.698	0.0181194
645.776	0.0182325
645.854	0.0181433
645.933	0.0180369
646.011	0.0180525
646.089	0.0182659
646.167	0.0182303
646.245	0.0180816
646.323	0.0179382
646.401	0.0180181
646.479	0.0179355
646.558	0.0181535
646.636	0.0181226
646.714	0.0180819
646.792	0.0179684
646.870	0.0180155
646.948	0.0180865
647.026	0.0180815
647.104	0.0181046
647.183	0.0182293
647.261	0.0181921
647.339	0.0180675
647.417	0.0179969
647.495	0.0181783
647.573	0.0181564
647.651	0.0180716
647.729	0.0181634
647.808	0.0182401
647.886	0.0180683
647.964	0.0181662
648.042	0.0179767
648.120	0.0179888
648.198	0.0180853
648.276	0.0180529
648.354	0.0180826
648.433	0.0181128
648.511	0.0180469
648.589	0.0180483
648.667	0.0179298
648.745	0.0181552
648.823	0.0181155
648.901	0.0182188
648.979	0.0180024
649.058	0.0181390
649.136	0.0179709
649.214	0.0179491
649.292	0.0180762
649.370	0.0182314
649.448	0.0180949
649.526	0.0180402
649.604	0.0180701
649.683	0.0180784
649.761	0.0181041
649.839	0.0181461
649.917	0.0180027
649.995	0.0180810
650.073	0.0180970
650.151	0.0180730
650.229	0.0179852
650.308	0.0180109
650.386	0.0180752
650.464	0.0180873
650.542	0.0180685
650.620	0.0179916
650.698	0.0181113
650.776	0.0181859
650.854	0.0180702
650.933	0.0180237
651.011	0.0179200
651.089	0.0181294
651.167	0.0180611
651.245	0.0180532
651.323	0.0181903
651.401	0.0182087
651.479	0.0181287
651.558	0.0180817
651.636	0.0182452
651.714	0.0180959
651.792	0.0180418
651.870	0.0180416
651.948	0.0181721
652.026	0.0180258
652.104	0.0180706
652.183	0.0181793
652.261	0.0181060
652.339	0.0179436
652.417	0.0180836
652.495	0.0181874
652.573	0.0180315
652.651	0.0181467
652.729	0.0181864
652.808	0.0181227
652.886	0.0181482
652.964	0.0181810
653.042	0.0181089
653.120	0.0180418
653.198	0.0180308
653.276	0.0180961
653.354	0.0181123
653.433	0.0181671
653.511	0.0180193
653.589	0.0180792
653.667	0.0181435
653.745	0.0181454
653.823	0.0181561
653.901	0.0181056
653.979	0.0180757
654.058	0.0181424
654.136	0.0181760
654.214	0.0181731
654.292	0.0180676
654.370	0.0180115
654.448	0.0179578
654.526	0.0180808
654.604	0.0181953
654.683	0.0181544
654.761	0.0181284
654.839	0.0181748
654.917	0.0180989
654.995	0.0181181
655.073	0.0179191
655.151	0.0180719
655.229	0.0180827
655.308	0.0182088
655.386	0.0181228
655.464	0.0181638
655.542	0.0180698
655.620	0.0180154
655.698	0.0181329
655.776	0.0180859
655.854	0.0179715
655.933	0.0180621
656.011	0.0181552
656.089	0.0180874
656.167	0.0180064
656.245	0.0181740
656.323	0.0181342
656.401	0.0179749
656.479	0.0180296
656.558	0.0181495
656.636	0.0181468
656.714	0.0181651
656.792	0.0181232
656.870	0.0179945
656.948	0.0181065
657.026	0.0182346
657.104	0.0181343
657.183	0.0180020
657.261	0.0180347
657.339	0.0181190
657.417	0.0180753
657.495	0.0180544
657.573	0.0181177
657.651	0.0181284
657.729	0.0180159
657.808	0.0179786
657.886	0.0181380
657.964	0.0181191
658.042	0.0181422
658.120	0.0180187
658.198	0.0180203
658.276	0.0179867
658.354	0.0179292
658.433	0.0181108
658.511	0.0181594
658.589	0.0181014
658.667	0.0180213
658.745	0.0181182
658.823	0.0180624
658.901	0.0180599
658.979	0.0180980
659.058	0.0180276
659.136	0.0179684
659.214	0.0179385
659.292	0.0180234
659.370	0.0179973
659.448	0.0181049
659.526	0.0180490
659.604	0.0178689
659.683	0.0180402
659.761	0.0182553
659.839	0.0182266
659.917	0.0181998
659.995	0.0181059
660.073	0.0182693
660.151	0.0182866
660.229	0.0182339
660.308	0.0183127
660.386	0.0181349
660.464	0.0180270
660.542	0.0180891
660.620	0.0179787
660.698	0.0179133
660.776	0.0179328
660.854	0.0180541
660.933	0.0181311
661.011	0.0179131
661.089	0.0179740
661.167	0.0181458
661.245	0.0180449
661.323	0.0181026
661.401	0.0183076
661.479	0.0183752
661.558	0.0184800
661.636	0.0183674
661.714	0.0183175
661.792	0.0182655
661.870	0.0183093
661.948	0.0182472
662.026	0.0182209
662.104	0.0181438
662.183	0.0180772
662.261	0.0180989
662.339	0.0180919
662.417	0.0178873
662.495	0.0180247
662.573	0.0180807
662.651	0.0179498
662.729	0.0179029
662.808	0.0179993
662.886	0.0179028
662.964	0.0180386
663.042	0.0180541
663.120	0.0180008
663.198	0.0181013
663.276	0.0182109
663.354	0.0182838
663.433	0.0184239
663.511	0.0182932
663.589	0.0183472
663.667	0.0184309
663.745	0.0183608
663.823	0.0182022
663.901	0.0183077
663.979	0.0182554
664.058	0.0181694
664.136	0.0181355
664.214	0.0180119
664.292	0.0179053
664.370	0.0178578
664.448	0.0177702
664.526	0.0176958
664.604	0.0178163
664.683	0.0177338
664.761	0.0178795
664.839	0.0179523
664.917	0.0181808
664.995	0.0180975
665.073	0.0180814
665.151	0.0182837
665.229	0.0183007
665.308	0.0183347
665.386	0.0183058
665.464	0.0184288
665.542	0.0184288
665.620	0.0183165
665.698	0.0182748
665.776	0.0182079
665.854	0.0183089
665.933	0.0182903
666.011	0.0181722
666.089	0.0181698
666.167	0.0179755
666.245	0.0180098
666.323	0.0180154
666.401	0.0179367
666.479	0.0178568
666.558	0.0179810
666.636	0.0178970
666.714	0.0178715
666.792	0.0179680
666.870	0.0179178
666.948	0.0181366
667.026	0.0179869
667.104	0.0180614
667.183	0.0183301
667.261	0.0181342
667.339	0.0181994
667.417	0.0184599
667.495	0.0183963
667.573	0.0182513
667.651	0.0183598
667.729	0.0183750
667.808	0.0183344
667.886	0.0181547
667.964	0.0183480
668.042	0.0182018
668.120	0.0182655
668.198	0.0182057
668.276	0.0179479
668.354	0.0179324
668.433	0.0179095
668.511	0.0178259
668.589	0.0177989
668.667	0.0177365
668.745	0.0176633
668.823	0.0175819
668.901	0.0176658
668.979	0.0178757
669.058	0.0180859
669.136	0.0180730
669.214	0.0181340
669.292	0.0184913
669.370	0.0184495
669.448	0.0184180
669.526	0.0184694
669.604	0.0183635
669.683	0.0183756
669.761	0.0183333
669.839	0.0181133
669.917	0.0181803
669.995	0.0180434
670.073	0.0179078
670.151	0.0178616
670.229	0.0180458
670.308	0.0178378
670.386	0.0178970
670.464	0.0178887
670.542	0.0179057
670.620	0.0179888
670.698	0.0179023
670.776	0.0179252
670.854	0.0180698
670.933	0.0180447
671.011	0.0180978
671.089	0.0179491
671.167	0.0179959
671.245	0.0180597
671.323	0.0181982
671.401	0.0183230
671.479	0.0182309
671.558	0.0182244
671.636	0.0182018
671.714	0.0182884
671.792	0.0182372
671.870	0.0182641
671.948	0.0182839
672.026	0.0182485
672.104	0.0181302
672.183	0.0180483
672.261	0.0180384
672.339	0.0179179
672.417	0.0178851
672.495	0.0180069
672.573	0.0178269
672.651	0.0178329
672.729	0.0178724
672.808	0.0178992
672.886	0.0178181
672.964	0.0179917
673.042	0.0180055
673.120	0.0181291
673.198	0.0181398
673.276	0.0182771
673.354	0.0183044
673.433	0.0181501
673.511	0.0182331
673.589	0.0183105
673.667	0.0182043
673.745	0.0181670
673.823	0.0183122
673.901	0.0181761
673.979	0.0181501
674.058	0.0182267
674.136	0.0180374
674.214	0.0179321
674.292	0.0179350
674.370	0.0179521
674.448	0.0180040
674.526	0.0178719
674.604	0.0179222
674.683	0.0178291
674.761	0.0178973
674.839	0.0180124
674.917	0.0180732
674.995	0.0178947
675.073	0.0181575
675.151	0.0183651
675.229	0.0180622
675.308	0.0182593
675.386	0.0181780
675.464	0.0182491
675.542	0.0183038
675.620	0.0183238
675.698	0.0182868
675.776	0.0182394
675.854	0.0182018
675.933	0.0181741
676.011	0.0181393
676.089	0.0179284
676.167	0.0179334
676.245	0.0179734
676.323	0.0178336
676.401	0.0179487
676.479	0.0178327
676.558	0.0179189
676.636	0.0179065
676.714	0.0179395
676.792	0.0178604
676.870	0.0180772
676.948	0.0180834
677.026	0.0180199
677.104	0.0182536
677.183	0.0183598
677.261	0.0184090
677.339	0.0184274
677.417	0.0184782
677.495	0.0184456
677.573	0.0184745
677.651	0.0183865
677.729	0.0182635
677.808	0.0181625
677.886	0.0180424
677.964	0.0179810
678.042	0.0179697
678.120	0.0178669
678.198	0.0176505
678.276	0.0177921
678.354	0.0178829
678.433	0.0177328
678.511	0.0178714
678.589	0.0178803
678.667	0.0179599
678.745	0.0180850
678.823	0.0180817
678.901	0.0181684
678.979	0.0182883
679.058	0.0185114
679.136	0.0185432
679.214	0.0184391
679.292	0.0185964
679.370	0.0185404
679.448	0.0185374
679.526	0.0183168
679.604	0.0181245
679.683	0.0182018
679.761	0.0180494
679.839	0.0178664
679.917	0.0178656
679.995	0.0179781
680.073	0.0176363
680.151	0.0176559
680.229	0.0177406
680.308	0.0176668
680.386	0.0178310
680.464	0.0178552
680.542	0.0178533
680.620	0.0180621
680.698	0.0181307
680.776	0.0180614
680.854	0.0182955
680.933	0.0183902
681.011	0.0183207
681.089	0.0182588
681.167	0.0182803
681.245	0.0182262
681.323	0.0183253
681.401	0.0181432
681.479	0.0181157
681.558	0.0182584
681.636	0.0181543
681.714	0.0181602
681.792	0.0180346
681.870	0.0181908
681.948	0.0180627
682.026	0.0182030
682.104	0.0180494
682.183	0.0180553
682.261	0.0180251
682.339	0.0179030
682.417	0.0179066
682.495	0.0180940
682.573	0.0180546
682.651	0.0180254
682.729	0.0181036
682.808	0.0179838
682.886	0.0180837
682.964	0.0182253
683.042	0.0181154
683.120	0.0182089
683.198	0.0181384
683.276	0.0180407
683.354	0.0181101
683.433	0.0182052
683.511	0.0181672
683.589	0.0181284
683.667	0.0180890
683.745	0.0181087
683.823	0.0180759
683.901	0.0179409
683.979	0.0179239
684.058	0.0177530
684.136	0.0180115
684.214	0.0179011
684.292	0.0177838
684.370	0.0178997
684.448	0.0179683
684.526	0.0179173
684.604	0.0178758
684.683	0.0179441
684.761	0.0181521
684.839	0.0179663
684.917	0.0180901
684.995	0.0181588
685.073	0.0181026
685.151	0.0182816
685.229	0.0183069
685.308	0.0182381
685.386	0.0182549
685.464	0.0182824
685.542	0.0183040
685.620	0.0182931
685.698	0.0181799
685.776	0.0183775
685.854	0.0182893
685.933	0.0182312
686.011	0.0182574
686.089	0.0183005
686.167	0.0181625
686.245	0.0181860
686.323	0.0180884
686.401	0.0180800
686.479	0.0181253
686.558	0.0180067
686.636	0.0180739
686.714	0.0180234
686.792	0.0179755
686.870	0.0180288
686.948	0.0179259
687.026	0.0179554
687.104	0.0178730
687.183	0.0178245
687.261	0.0178867
687.339	0.0177231
687.417	0.0176706
687.495	0.0178640
687.573	0.0178185
687.651	0.0177518
687.729	0.0177743
687.808	0.0176721
687.886	0.0178191
687.964	0.0178172
688.042	0.0178254
688.120	0.0180370
688.198	0.0180341
688.276	0.0179615
688.354	0.0181538
688.433	0.0179992
688.511	0.0180974
688.589	0.0182539
688.667	0.0181937
688.745	0.0181702
688.823	0.0182693
688.901	0.0184641
688.979	0.0184587
689.058	0.0184068
689.136	0.0183916
689.214	0.0185831
689.292	0.0185252
689.370	0.0183907
689.448	0.0186221
689.526	0.0184015
689.604	0.0183815
689.683	0.0184108
689.761	0.0182687
689.839	0.0183573
689.917	0.0182502
689.995	0.0182121
690.073	0.0180822
690.151	0.0181651
690.229	0.0181504
690.308	0.0179699
690.386	0.0178757
690.464	0.0179763
690.542	0.0180902
690.620	0.0179596
690.698	0.0180587
690.776	0.0180866
690.854	0.0182409
690.933	0.0183136
691.011	0.0181204
691.089	0.0182604
691.167	0.0183049
691.245	0.0183532
691.323	0.0181750
691.401	0.0181759
691.479	0.0182420
691.558	0.0180828
691.636	0.0180209
691.714	0.0178614
691.792	0.0178741
691.870	0.0177807
691.948	0.0177078
692.026	0.0176796
692.104	0.0175391
692.183	0.0174374
692.261	0.0175961
692.339	0.0175639
692.417	0.0174237
692.495	0.0175655
692.573	0.0176358
692.651	0.0177025
692.729	0.0178333
692.808	0.0178645
692.886	0.0181028
692.964	0.0179644
693.042	0.0180729
693.120	0.0182049
693.198	0.0182452
693.276	0.0182648
693.354	0.0180804
693.433	0.0181897
693.511	0.0183010
693.589	0.0181777
693.667	0.0180869
693.745	0.0182693
693.823	0.0182055
693.901	0.0183508
693.979	0.0184358
694.058	0.0184119
694.136	0.0185024
694.214	0.0185005
694.292	0.0184279
694.370	0.0185558
694.448	0.0185938
694.526	0.0186513
694.604	0.0184852
694.683	0.0185431
694.761	0.0186677
694.839	0.0184959
694.917	0.0186220
694.995	0.0184672
695.073	0.0183215
695.151	0.0184689
695.229	0.0183008
695.308	0.0181723
695.386	0.0182112
695.464	0.0181694
695.542	0.0181603
695.620	0.0180718
695.698	0.0179779
695.776	0.0179797
695.854	0.0178886
695.933	0.0179028
696.011	0.0178826
696.089	0.0179662
696.167	0.0177719
696.245	0.0177774
696.323	0.0179149
696.401	0.0179012
696.479	0.0177604
696.558	0.0177801
696.636	0.0177567
696.714	0.0179012
696.792	0.0179138
696.870	0.0176772
696.948	0.0177969
697.026	0.0178603
697.104	0.0179162
697.183	0.0179527
697.261	0.0179730
697.339	0.0179613
697.417	0.0180794
697.495	0.0179798
697.573	0.0179308
697.651	0.0179720
697.729	0.0180196
697.808	0.0181194
697.886	0.0181391
697.964	0.0179679
698.042	0.0180217
698.120	0.0179934
698.198	0.0180907
698.276	0.0178096
698.354	0.0178948
698.433	0.0180096
698.511	0.0179761
698.589	0.0179736
698.667	0.0179969
698.745	0.0179202
698.823	0.0180775
698.901	0.0181460
698.979	0.0178405
699.058	0.0179555
699.136	0.0178317
699.214	0.0177164
699.292	0.0177821
699.370	0.0177846
699.448	0.0177138
699.526	0.0178008
699.604	0.0178950
699.683	0.0179440
699.761	0.0181546
699.839	0.0183429
699.917	0.0184555
699.995	0.0185196
700.073	0.0186173
700.151	0.0188470
700.229	0.0189393
700.308	0.0191392
700.386	0.0191071
700.464	0.0190896
700.542	0.0192028
700.620	0.0191161
700.698	0.0190276
700.776	0.0189674
700.854	0.0188871
700.933	0.0188121
701.011	0.0187121
701.089	0.0186478
701.167	0.0184870
701.245	0.0181979
701.323	0.0182059
701.401	0.0181142
701.479	0.0179626
701.558	0.0178180
701.636	0.0176464
701.714	0.0174609
701.792	0.0176595
701.870	0.0175512
701.948	0.0176582
702.026	0.0177325
702.104	0.0176175
702.183	0.0176730
702.261	0.0177601
702.339	0.0176173
702.417	0.0178162
702.495	0.0178040
702.573	0.0177996
702.651	0.0177713
702.729	0.0176589
702.808	0.0177013
702.886	0.0175919
702.964	0.0176498
703.042	0.0173821
703.120	0.0174304
703.198	0.0174908
703.276	0.0173768
703.354	0.0174718
703.433	0.0173835
703.511	0.0172038
703.589	0.0172559
703.667	0.0172751
703.745	0.0173224
703.823	0.0173050
703.901	0.0173708
703.979	0.0174071
704.058	0.0174667
704.136	0.0176881
704.214	0.0178245
704.292	0.0180676
704.370	0.0183453
704.448	0.0184933
704.526	0.0186837
704.604	0.0188686
704.683	0.0190634
704.761	0.0192711
704.839	0.0193985
704.917	0.0193114
704.995	0.0193584
705.073	0.0192878
705.151	0.0191088
705.229	0.0189714
705.308	0.0187682
705.386	0.0186037
705.464	0.0183471
705.542	0.0182910
705.620	0.0181065
705.698	0.0178849
705.776	0.0178717
705.854	0.0178343
705.933	0.0178699
706.011	0.0177402
706.089	0.0177473
706.167	0.0179065
706.245	0.0180337
706.323	0.0181047
706.401	0.0184921
706.479	0.0186691
706.558	0.0187439
706.636	0.0188265
706.714	0.0189880
706.792	0.0192388
706.870	0.0193037
706.948	0.0194122
707.026	0.0194035
707.104	0.0192661
707.183	0.0193065
707.261	0.0190615
707.339	0.0189468
707.417	0.0189702
707.495	0.0186328
707.573	0.0183557
707.651	0.0181580
707.729	0.0179152
707.808	0.0177370
707.886	0.0174687
707.964	0.0170748
708.042	0.0169200
708.120	0.0168524
708.198	0.0166089
708.276	0.0164545
708.354	0.0164713
708.433	0.0164370
708.511	0.0164227
708.589	0.0165292
708.667	0.0165166
708.745	0.0167325
708.823	0.0168936
708.901	0.0168761
708.979	0.0170659
709.058	0.0171522
709.136	0.0172814
709.214	0.0173199
709.292	0.0176108
709.370	0.0176604
709.448	0.0176335
709.526	0.0179111
709.604	0.0181664
709.683	0.0183262
709.761	0.0182868
709.839	0.0184075
709.917	0.0184315
709.995	0.0184121
710.073	0.0186509
710.151	0.0186097
710.229	0.0186782
710.308	0.0187981
710.386	0.0187411
710.464	0.0187175
710.542	0.0186117
710.620	0.0186913
710.698	0.0187949
710.776	0.0185635
710.854	0.0185870
710.933	0.0186077
711.011	0.0185919
711.089	0.0186584
711.167	0.0187394
711.245	0.0186233
711.323	0.0186967
711.401	0.0189649
711.479	0.0187657
711.558	0.0191092
711.636	0.0191213
711.714	0.0189575
711.792	0.0190529
711.870	0.0190146
711.948	0.0187869
712.026	0.0189606
712.104	0.0189286
712.183	0.0188324
712.261	0.0188274
712.339	0.0185625
712.417	0.0184599
712.495	0.0183138
712.573	0.0181122
712.651	0.0179002
712.729	0.0178994
712.808	0.0176334
712.886	0.0176136
712.964	0.0173415
713.042	0.0171905
713.120	0.0172540
713.198	0.0172196
713.276	0.0171631
713.354	0.0171338
713.433	0.0170218
713.511	0.0173132
713.589	0.0173802
713.667	0.0174689
713.745	0.0175895
713.823	0.0177264
713.901	0.0179884
713.979	0.0180808
714.058	0.0181630
714.136	0.0181118
714.214	0.0183152
714.292	0.0183472
714.370	0.0183692
714.448	0.0181604
714.526	0.0180531
714.604	0.0179169
714.683	0.0177239
714.761	0.0176634
714.839	0.0175848
714.917	0.0175409
714.995	0.0176847
715.073	0.0175545
715.151	0.0176269
715.229	0.0176949
715.308	0.0177944
715.386	0.0178893
715.464	0.0179720
715.542	0.0181042
715.620	0.0179969
715.698	0.0178701
715.776	0.0177963
715.854	0.0177072
715.933	0.0175813
716.011	0.0174054
716.089	0.0174265
716.167	0.0172868
716.245	0.0173071
716.323	0.0172048
716.401	0.0171466
716.479	0.0174255
716.558	0.0174280
716.636	0.0174261
716.714	0.0177081
716.792	0.0176929
716.870	0.0177979
716.948	0.0179945
717.026	0.0180548
717.104	0.0183656
717.183	0.0184743
717.261	0.0186655
717.339	0.0187798
717.417	0.0189923
717.495	0.0192733
717.573	0.0193845
717.651	0.0193881
717.729	0.0197630
717.808	0.0197541
717.886	0.0197037
717.964	0.0197308
718.042	0.0197321
718.120	0.0197667
718.198	0.0197488
718.276	0.0194103
718.354	0.0193179
718.433	0.0190164
718.511	0.0191411
718.589	0.0190028
718.667	0.0187770
718.745	0.0185673
718.823	0.0187426
718.901	0.0186922
718.979	0.0185725
719.058	0.0184341
719.136	0.0183266
719.214	0.0181684
719.292	0.0180573
719.370	0.0179494
719.448	0.0177990
719.526	0.0174636
719.604	0.0172025
719.683	0.0170548
719.761	0.0168557
719.839	0.0166318
719.917	0.0165881
719.995	0.0162665
720.073	0.0161639
720.151	0.0161475
720.229	0.0159216
720.308	0.0160357
720.386	0.0161059
720.464	0.0162933
720.542	0.0164190
720.620	0.0166976
720.698	0.0168883
720.776	0.0171721
720.854	0.0173470
720.933	0.0176882
721.011	0.0179132
721.089	0.0182074
721.167	0.0184588
721.245	0.0186002
721.323	0.0185641
721.401	0.0188123
721.479	0.0188239
721.558	0.0187842
721.636	0.0186966
721.714	0.0188566
721.792	0.0188026
721.870	0.0189478
721.948	0.0188748
722.026	0.0188210
722.104	0.0187052
722.183	0.0187088
722.261	0.0186483
722.339	0.0183936
722.417	0.0182552
722.495	0.0182136
722.573	0.0181081
722.651	0.0179794
722.729	0.0179303
722.808	0.0179006
722.886	0.0177650
722.964	0.0177845
723.042	0.0176320
723.120	0.0178296
723.198	0.0179529
723.276	0.0178065
723.354	0.0177655
723.433	0.0179762
723.511	0.0180838
723.589	0.0181047
723.667	0.0180431
723.745	0.0181081
723.823	0.0182050
723.901	0.0181768
723.979	0.0182288
724.058	0.0181710
724.136	0.0181927
724.214	0.0181531
724.292	0.0182383
724.370	0.0181603
724.448	0.0180482
724.526	0.0180894
724.604	0.0180612
724.683	0.0180965
724.761	0.0183432
724.839	0.0183369
724.917	0.0184582
724.995	0.0187386
725.073	0.0187554
725.151	0.0186241
725.229	0.0188708
725.308	0.0189835
725.386	0.0189627
725.464	0.0191817
725.542	0.0190676
725.620	0.0191403
725.698	0.0191613
725.776	0.0191321
725.854	0.0191975
725.933	0.0190569
726.011	0.0189957
726.089	0.0188307
726.167	0.0187051
726.245	0.0185481
726.323	0.0183875
726.401	0.0179900
726.479	0.0177120
726.558	0.0175477
726.636	0.0173186
726.714	0.0172769
726.792	0.0170388
726.870	0.0169071
726.948	0.0168986
727.026	0.0167737
727.104	0.0167574
727.183	0.0165034
727.261	0.0164043
727.339	0.0163774
727.417	0.0164559
727.495	0.0164778
727.573	0.0164049
727.651	0.0164236
727.729	0.0165981
727.808	0.0169130
727.886	0.0169607
727.964	0.0173626
728.042	0.0173012
728.120	0.0173853
728.198	0.0176013
728.276	0.0177843
728.354	0.0178259
728.433	0.0177817
728.511	0.0179484
728.589	0.0180856
728.667	0.0179085
728.745	0.0181145
728.823	0.0179829
728.901	0.0181789
728.979	0.0181318
729.058	0.0182513
729.136	0.0183733
729.214	0.0183875
729.292	0.0186949
729.370	0.0189048
729.448	0.0188981
729.526	0.0190923
729.604	0.0189647
729.683	0.0190479
729.761	0.0191890
729.839	0.0192097
729.917	0.0190836
729.995	0.0192852
730.073	0.0191782
730.151	0.0189082
730.229	0.0189571
730.308	0.0188810
730.386	0.0189661
730.464	0.0189181
730.542	0.0189749
730.620	0.0189267
730.698	0.0189192
730.776	0.0190472
730.854	0.0189953
730.933	0.0191489
731.011	0.0190610
731.089	0.0189779
731.167	0.0188822
731.245	0.0186868
731.323	0.0186836
731.401	0.0183884
731.479	0.0182726
731.558	0.0181801
731.636	0.0180576
731.714	0.0177889
731.792	0.0176857
731.870	0.0176568
731.948	0.0176636
732.026	0.0176269
732.104	0.0175456
732.183	0.0174681
732.261	0.0175784
732.339	0.0176597
732.417	0.0176799
732.495	0.0177564
732.573	0.0179213
732.651	0.0179805
732.729	0.0179438
732.808	0.0178674
732.886	0.0177383
732.964	0.0175883
733.042	0.0176522
733.120	0.0174056
733.198	0.0172591
733.276	0.0170604
733.354	0.0170004
733.433	0.0169060
733.511	0.0168601
733.589	0.0167162
733.667	0.0165756
733.745	0.0166670
733.823	0.0167899
733.901	0.0167643
733.979	0.0168754
734.058	0.0170020
734.136	0.0171848
734.214	0.0172124
734.292	0.0173680
734.370	0.0176724
734.448	0.0177262
734.526	0.0181416
734.604	0.0183359
734.683	0.0182424
734.761	0.0184653
734.839	0.0186415
734.917	0.0186954
734.995	0.0185439
735.073	0.0185762
735.151	0.0187152
735.229	0.0187860
735.308	0.0187391
735.386	0.0187091
735.464	0.0187540
735.542	0.0187238
735.620	0.0187922
735.698	0.0187686
735.776	0.0187817
735.854	0.0187213
735.933	0.0188618
736.011	0.0189040
736.089	0.0188238
736.167	0.0189021
736.245	0.0188486
736.323	0.0187891
736.401	0.0186540
736.479	0.0187402
736.558	0.0187176
736.636	0.0185169
736.714	0.0184392
736.792	0.0183548
736.870	0.0184531
736.948	0.0183356
737.026	0.0183835
737.104	0.0182252
737.183	0.0181976
737.261	0.0183559
737.339	0.0180930
737.417	0.0179814
737.495	0.0181139
737.573	0.0180144
737.651	0.0181009
737.729	0.0179898
737.808	0.0180459
737.886	0.0179208
737.964	0.0180118
738.042	0.0179823
738.120	0.0179630
738.198	0.0181022
738.276	0.0181789
738.354	0.0180458
738.433	0.0179146
738.511	0.0178755
738.589	0.0179266
738.667	0.0179223
738.745	0.0178574
738.823	0.0177744
738.901	0.0176624
738.979	0.0175727
739.058	0.0176129
739.136	0.0176923
739.214	0.0177442
739.292	0.0176629
739.370	0.0176588
739.448	0.0177137
739.526	0.0175907
739.604	0.0176109
739.683	0.0177643
739.761	0.0176342
739.839	0.0176505
739.917	0.0176742
739.995	0.0176459
740.073	0.0176536
740.151	0.0176751
740.229	0.0175743
740.308	0.0175928
740.386	0.0177360
740.464	0.0175639
740.542	0.0176433
740.620	0.0176842
740.698	0.0177058
740.776	0.0177673
740.854	0.0178713
740.933	0.0178653
741.011	0.0178465
741.089	0.0180130
741.167	0.0180602
741.245	0.0180015
741.323	0.0181361
741.401	0.0181612
741.479	0.0182217
741.558	0.0182690
741.636	0.0183269
741.714	0.0181563
741.792	0.0181093
741.870	0.0181352
741.948	0.0180779
742.026	0.0182108
742.104	0.0180527
742.183	0.0182042
742.261	0.0180795
742.339	0.0180155
742.417	0.0181224
742.495	0.0179890
742.573	0.0179658
742.651	0.0182549
742.729	0.0182786
742.808	0.0182010
742.886	0.0183733
742.964	0.0183990
743.042	0.0184679
743.120	0.0185702
743.198	0.0183698
743.276	0.0186013
743.354	0.0186629
743.433	0.0186772
743.511	0.0186492
743.589	0.0187284
743.667	0.0186780
743.745	0.0187576
743.823	0.0187857
743.901	0.0187148
743.979	0.0186373
744.058	0.0186523
744.136	0.0185719
744.214	0.0185490
744.292	0.0183704
744.370	0.0183923
744.448	0.0183145
744.526	0.0183662
744.604	0.0183196
744.683	0.0181650
744.761	0.0182745
744.839	0.0179716
744.917	0.0180857
744.995	0.0181137
745.073	0.0180833
745.151	0.0181095
745.229	0.0180680
745.308	0.0179724
745.386	0.0180231
745.464	0.0180816
745.542	0.0181568
745.620	0.0180276
745.698	0.0181248
745.776	0.0179976
745.854	0.0179465
745.933	0.0180265
746.011	0.0179288
746.089	0.0178764
746.167	0.0177335
746.245	0.0176748
746.323	0.0175816
746.401	0.0175929
746.479	0.0173329
746.558	0.0172800
746.636	0.0171915
746.714	0.0171407
746.792	0.0169378
746.870	0.0170169
746.948	0.0171713
747.026	0.0171559
747.104	0.0171082
747.183	0.0171488
747.261	0.0172200
747.339	0.0173796
747.417	0.0173626
747.495	0.0175066
747.573	0.0176346
747.651	0.0176601
747.729	0.0178304
747.808	0.0179432
747.886	0.0179913
747.964	0.0182975
748.042	0.0181614
748.120	0.0182283
748.198	0.0181441
748.276	0.0181938
748.354	0.0182987
748.433	0.0182476
748.511	0.0182684
748.589	0.0182698
748.667	0.0183276
748.745	0.0183624
748.823	0.0184863
748.901	0.0184079
748.979	0.0183804
749.058	0.0183201
749.136	0.0184418
749.214	0.0185505
749.292	0.0185997
749.370	0.0185854
749.448	0.0188100
749.526	0.0188132
749.604	0.0188445
749.683	0.0187527
749.761	0.0188821
749.839	0.0188950
749.917	0.0189455
749.995	0.0190532
750.073	0.0190055
750.151	0.0191348
750.229	0.0190112
750.308	0.0190218
750.386	0.0188573
750.464	0.0188373
750.542	0.0187360
750.620	0.0187553
750.698	0.0187144
750.776	0.0186785
750.854	0.0183882
750.933	0.0184988
751.011	0.0182111
751.089	0.0181353
751.167	0.0180683
751.245	0.0181126
751.323	0.0180090
751.401	0.0179711
751.479	0.0178623
751.558	0.0178415
751.636	0.0177613
751.714	0.0178477
751.792	0.0178233
751.870	0.0177445
751.948	0.0176592
752.026	0.0178498
752.104	0.0177487
752.183	0.0176156
752.261	0.0175613
752.339	0.0173925
752.417	0.0173710
752.495	0.0173598
752.573	0.0171722
752.651	0.0170835
752.729	0.0170557
752.808	0.0170115
752.886	0.0168655
752.964	0.0169269
753.042	0.0169285
753.120	0.0169703
753.198	0.0169376
753.276	0.0169546
753.354	0.0172169
753.433	0.0173237
753.511	0.0174754
753.589	0.0174088
753.667	0.0174270
753.745	0.0176472
753.823	0.0179465
753.901	0.0178061
753.979	0.0180538
754.058	0.0179026
754.136	0.0181541
754.214	0.0180976
754.292	0.0181476
754.370	0.0181660
754.448	0.0182098
754.526	0.0183702
754.604	0.0183419
754.683	0.0183708
754.761	0.0183295
754.839	0.0184355
754.917	0.0185266
754.995	0.0186670
755.073	0.0184329
755.151	0.0186133
755.229	0.0187737
755.308	0.0187218
755.386	0.0188203
755.464	0.0187832
755.542	0.0187327
755.620	0.0186084
755.698	0.0187354
755.776	0.0189352
755.854	0.0190067
755.933	0.0188848
756.011	0.0188718
756.089	0.0188567
756.167	0.0189179
756.245	0.0187630
756.323	0.0186987
756.401	0.0187674
756.479	0.0187725
756.558	0.0186895
756.636	0.0185866
756.714	0.0185435
756.792	0.0185333
756.870	0.0184036
756.948	0.0183305
757.026	0.0181782
757.104	0.0181004
757.183	0.0181284
757.261	0.0180136
757.339	0.0179768
757.417	0.0179179
757.495	0.0177917
757.573	0.0178571
757.651	0.0179247
757.729	0.0179533
757.808	0.0177431
757.886	0.0177460
757.964	0.0176112
758.042	0.0176881
758.120	0.0177242
758.198	0.0177218
758.276	0.0176807
758.354	0.0175565
758.433	0.0175079
758.511	0.0174954
758.589	0.0174106
758.667	0.0174641
758.745	0.0174123
758.823	0.0175029
758.901	0.0175225
758.979	0.0174190
759.058	0.0173856
759.136	0.0173364
759.214	0.0172720
759.292	0.0172542
759.370	0.0172535
759.448	0.0172929
759.526	0.0173333
759.604	0.0173757
759.683	0.0174210
759.761	0.0174500
759.839	0.0175997
759.917	0.0175713
759.995	0.0177473
760.073	0.0177131
760.151	0.0177798
760.229	0.0178120
760.308	0.0179874
760.386	0.0181518
760.464	0.0181029
760.542	0.0181690
760.620	0.0181976
760.698	0.0182203
760.776	0.0181238
760.854	0.0182883
760.933	0.0183087
761.011	0.0183712
761.089	0.0184397
761.167	0.0184933
761.245	0.0185853
761.323	0.0185125
761.401	0.0186493
761.479	0.0186064
761.558	0.0186333
761.636	0.0187122
761.714	0.0187202
761.792	0.0186710
761.870	0.0190118
761.948	0.0188762
762.026	0.0188424
762.104	0.0188770
762.183	0.0191319
762.261	0.0189800
762.339	0.0189042
762.417	0.0189803
762.495	0.0190174
762.573	0.0188573
762.651	0.0188114
762.729	0.0187986
762.808	0.0185479
762.886	0.0184467
762.964	0.0183450
763.042	0.0182168
763.120	0.0181432
763.198	0.0179539
763.276	0.0179814
763.354	0.0179337
763.433	0.0178977
763.511	0.0179656
763.589	0.0178796
763.667	0.0178817
763.745	0.0180264
763.823	0.0178438
763.901	0.0179877
763.979	0.0179819
764.058	0.0177883
764.136	0.0176893
764.214	0.0176747
764.292	0.0176205
764.370	0.0174965
764.448	0.0175353
764.526	0.0174948
764.604	0.0174081
764.683	0.0170043
764.761	0.0173117
764.839	0.0173430
764.917	0.0173619
764.995	0.0174815
765.073	0.0174825
765.151	0.0173979
765.229	0.0174807
765.308	0.0176344
765.386	0.0178156
765.464	0.0179259
765.542	0.0178860
765.620	0.0182063
765.698	0.0181558
765.776	0.0182529
765.854	0.0184241
765.933	0.0183077
766.011	0.0184996
766.089	0.0186553
766.167	0.0186184
766.245	0.0185976
766.323	0.0185025
766.401	0.0185581
766.479	0.0185605
766.558	0.0184143
766.636	0.0183486
766.714	0.0183847
766.792	0.0183028
766.870	0.0182250
766.948	0.0182071
767.026	0.0180959
767.104	0.0179846
767.183	0.0179509
767.261	0.0178209
767.339	0.0180345
767.417	0.0178905
767.495	0.0179183
767.573	0.0178535
767.651	0.0178867
767.729	0.0181383
767.808	0.0181371
767.886	0.0180849
767.964	0.0180191
768.042	0.0183527
768.120	0.0183823
768.198	0.0185045
768.276	0.0185319
768.354	0.0185768
768.433	0.0186064
768.511	0.0185720
768.589	0.0186264
768.667	0.0185936
768.745	0.0183759
768.823	0.0183165
768.901	0.0182440
768.979	0.0183000
769.058	0.0183778
769.136	0.0182058
769.214	0.0182129
769.292	0.0181621
769.370	0.0181135
769.448	0.0182136
769.526	0.0181729
769.604	0.0182325
769.683	0.0183819
769.761	0.0182894
769.839	0.0181074
769.917	0.0182901
769.995	0.0182198
770.073	0.0182433
770.151	0.0183233
770.229	0.0182255
770.308	0.0180949
770.386	0.0180481
770.464	0.0179868
770.542	0.0179054
770.620	0.0178503
770.698	0.0177682
770.776	0.0177702
770.854	0.0175767
770.933	0.0177168
771.011	0.0175456
771.089	0.0177025
771.167	0.0178366
771.245	0.0177530
771.323	0.0177548
771.401	0.0179082
771.479	0.0178782
771.558	0.0180524
771.636	0.0182328
771.714	0.0182770
771.792	0.0184060
771.870	0.0186449
771.948	0.0186520
772.026	0.0187624
772.104	0.0186617
772.183	0.0186440
772.261	0.0185673
772.339	0.0183335
772.417	0.0182826
772.495	0.0181094
772.573	0.0182434
772.651	0.0180273
772.729	0.0178796
772.808	0.0176946
772.886	0.0174802
772.964	0.0174810
773.042	0.0174379
773.120	0.0172569
773.198	0.0173742
773.276	0.0174081
773.354	0.0172842
773.433	0.0174813
773.511	0.0175077
773.589	0.0175961
773.667	0.0175781
773.745	0.0179078
773.823	0.0180466
773.901	0.0180521
773.979	0.0181480
774.058	0.0184817
774.136	0.0185201
774.214	0.0185606
774.292	0.0187016
774.370	0.0186037
774.448	0.0187572
774.526	0.0188383
774.604	0.0188670
774.683	0.0189344
774.761	0.0187284
774.839	0.0186357
774.917	0.0186299
774.995	0.0185552
775.073	0.0183131
775.151	0.0182401
775.229	0.0182101
775.308	0.0180861
775.386	0.0180067
775.464	0.0180848
775.542	0.0180556
775.620	0.0178989
775.698	0.0179057
775.776	0.0178785
775.854	0.0179604
775.933	0.0179061
776.011	0.0180605
776.089	0.0178896
776.167	0.0178229
776.245	0.0179431
776.323	0.0179960
776.401	0.0179706
776.479	0.0179800
776.558	0.0179965
776.636	0.0179818
776.714	0.0181226
776.792	0.0178410
776.870	0.0180000
776.948	0.0178722
777.026	0.0178856
777.104	0.0177608
777.183	0.0179089
777.261	0.0177856
777.339	0.0178059
777.417	0.0177488
777.495	0.0179771
777.573	0.0181274
777.651	0.0182198
777.729	0.0183579
777.808	0.0185666
777.886	0.0185767
777.964	0.0187244
778.042	0.0187713
778.120	0.0190155
778.198	0.0189902
778.276	0.0189449
778.354	0.0188887
778.433	0.0187923
778.511	0.0188390
778.589	0.0184637
778.667	0.0185034
778.745	0.0183722
778.823	0.0181599
778.901	0.0180589
778.979	0.0177985
779.058	0.0176620
779.136	0.0173313
779.214	0.0171150
779.292	0.0172132
779.370	0.0171077
779.448	0.0170745
779.526	0.0171068
779.604	0.0170575
779.683	0.0170377
779.761	0.0171026
779.839	0.0172771
779.917	0.0174635
779.995	0.0175005
780.073	0.0177122
780.151	0.0178048
780.229	0.0179870
780.308	0.0182960
780.386	0.0183628
780.464	0.0184202
780.542	0.0184341
780.620	0.0185590
780.698	0.0186890
780.776	0.0185818
780.854	0.0185213
780.933	0.0184476
781.011	0.0185197
781.089	0.0184005
781.167	0.0182535
781.245	0.0182000
781.323	0.0182943
781.401	0.0182084
781.479	0.0181704
781.558	0.0182407
781.636	0.0181938
781.714	0.0181725
781.792	0.0181946
781.870	0.0181058
781.948	0.0180920
782.026	0.0179961
782.104	0.0180459
782.183	0.0180761
782.261	0.0181100
782.339	0.0180474
782.417	0.0181762
782.495	0.0179797
782.573	0.0180904
782.651	0.0181882
782.729	0.0180920
782.808	0.0181904
782.886	0.0181733
782.964	0.0182520
783.042	0.0183363
783.120	0.0181327
783.198	0.0182698
783.276	0.0180636
783.354	0.0179950
783.433	0.0178219
783.511	0.0179433
783.589	0.0179419
783.667	0.0179745
783.745	0.0179803
783.823	0.0181454
783.901	0.0181497
783.979	0.0181415
784.058	0.0183131
784.136	0.0184427
784.214	0.0184333
784.292	0.0185672
784.370	0.0185480
784.448	0.0185338
784.526	0.0183592
784.604	0.0184006
784.683	0.0183611
784.761	0.0182583
784.839	0.0182856
784.917	0.0181961
784.995	0.0181062
785.073	0.0179465
785.151	0.0178513
785.229	0.0176909
785.308	0.0174823
785.386	0.0174788
785.464	0.0173489
785.542	0.0172654
785.620	0.0171399
785.698	0.0171528
785.776	0.0170397
785.854	0.0170669
785.933	0.0172238
786.011	0.0171009
786.089	0.0173399
786.167	0.0174578
786.245	0.0177382
786.323	0.0178513
786.401	0.0180669
786.479	0.0180466
786.558	0.0183093
786.636	0.0185554
786.714	0.0186533
786.792	0.0186639
786.870	0.0186436
786.948	0.0186564
787.026	0.0186687
787.104	0.0186674
787.183	0.0185536
787.261	0.0186533
787.339	0.0184919
787.417	0.0182101
787.495	0.0181361
787.573	0.0181508
787.651	0.0181985
787.729	0.0181557
787.808	0.0181113
787.886	0.0180817
787.964	0.0181142
788.042	0.0180830
788.120	0.0179475
788.198	0.0181570
788.276	0.0180583
788.354	0.0179270
788.433	0.0179492
788.511	0.0181026
788.589	0.0180657
788.667	0.0179737
788.745	0.0179092
788.823	0.0178962
788.901	0.0180169
788.979	0.0179391
789.058	0.0180006
789.136	0.0180022
789.214	0.0181004
789.292	0.0181162
789.370	0.0180995
789.448	0.0180164
789.526	0.0182034
789.604	0.0180597
789.683	0.0183254
789.761	0.0183330
789.839	0.0183061
789.917	0.0185638
789.995	0.0185902
790.073	0.0184385
790.151	0.0185662
790.229	0.0185369
790.308	0.0186167
790.386	0.0186346
790.464	0.0185506
790.542	0.0187810
790.620	0.0187096
790.698	0.0184725
790.776	0.0183371
790.854	0.0184264
790.933	0.0184587
791.011	0.0183912
791.089	0.0181797
791.167	0.0181710
791.245	0.0180122
791.323	0.0180138
791.401	0.0178906
791.479	0.0175462
791.558	0.0174930
791.636	0.0174104
791.714	0.0172378
791.792	0.0172061
791.870	0.0171596
791.948	0.0171347
792.026	0.0170684
792.104	0.0171143
792.183	0.0171131
792.261	0.0172278
792.339	0.0173724
792.417	0.0175500
792.495	0.0176206
792.573	0.0179101
792.651	0.0181573
792.729	0.0181158
792.808	0.0181889
792.886	0.0184692
792.964	0.0184940
793.042	0.0185390
793.120	0.0185559
793.198	0.0185439
793.276	0.0187383
793.354	0.0185387
793.433	0.0186327
793.511	0.0186173
793.589	0.0186067
793.667	0.0182902
793.745	0.0183730
793.823	0.0183800
793.901	0.0182956
793.979	0.0182780
794.058	0.0182734
794.136	0.0182429
794.214	0.0181184
794.292	0.0182466
794.370	0.0182879
794.448	0.0181805
794.526	0.0182181
794.604	0.0181712
794.683	0.0181705
794.761	0.0180330
794.839	0.0180547
794.917	0.0180827
794.995	0.0179987
795.073	0.0180281
795.151	0.0178605
795.229	0.0178763
795.308	0.0178004
795.386	0.0178022
795.464	0.0178754
795.542	0.0179209
795.620	0.0178571
795.698	0.0178635
795.776	0.0178972
795.854	0.0181294
795.933	0.0180032
796.011	0.0180614
796.089	0.0180814
796.167	0.0182100
796.245	0.0184000
796.323	0.0184099
796.401	0.0184217
796.479	0.0183456
796.558	0.0184991
796.636	0.0186218
796.714	0.0185525
796.792	0.0185879
796.870	0.0186117
796.948	0.0186469
797.026	0.0184840
797.104	0.0183089
797.183	0.0182695
797.261	0.0183121
797.339	0.0182900
797.417	0.0180381
797.495	0.0179731
797.573	0.0179644
797.651	0.0179013
797.729	0.0176139
797.808	0.0176954
797.886	0.0175444
797.964	0.0175293
798.042	0.0173320
798.120	0.0173368
798.198	0.0174005
798.276	0.0173215
798.354	0.0173855
798.433	0.0174101
798.511	0.0174536
798.589	0.0175290
798.667	0.0177676
798.745	0.0176493
798.823	0.0178374
798.901	0.0178089
798.979	0.0181097
799.058	0.0180802
799.136	0.0181857
799.214	0.0181784
799.292	0.0182805
799.370	0.0183123
799.448	0.0182114
799.526	0.0182479
799.604	0.0181851
799.683	0.0182468
799.761	0.0180943
799.839	0.0181216
799.917	0.0181487
799.995	0.0180922
800.073	0.0180048
800.151	0.0182191
800.229	0.0182792
800.308	0.0183015
800.386	0.0181126
800.464	0.0183034
800.542	0.0182651
800.620	0.0182614
800.698	0.0183057
800.776	0.0184064
800.854	0.0183659
800.933	0.0182711
801.011	0.0182520
801.089	0.0182201
801.167	0.0182764
801.245	0.0182166
801.323	0.0181575
801.401	0.0180758
801.479	0.0180621
801.558	0.0179417
801.636	0.0179258
801.714	0.0178827
801.792	0.0180753
801.870	0.0178732
801.948	0.0179453
802.026	0.0180586
802.104	0.0181112
802.183	0.0183089
802.261	0.0181395
802.339	0.0181806
802.417	0.0182912
802.495	0.0184722
802.573	0.0186778
802.651	0.0185634
802.729	0.0184555
802.808	0.0185841
802.886	0.0185745
802.964	0.0186713
803.042	0.0185176
803.120	0.0183912
803.198	0.0183920
803.276	0.0182284
803.354	0.0182762
803.433	0.0180389
803.511	0.0179757
803.589	0.0179572
803.667	0.0178679
803.745	0.0177451
803.823	0.0176528
803.901	0.0176228
803.979	0.0175120
804.058	0.0176170
804.136	0.0174599
804.214	0.0175085
804.292	0.0176804
804.370	0.0175941
804.448	0.0178116
804.526	0.0177644
804.604	0.0178265
804.683	0.0178978
804.761	0.0178869
804.839	0.0180382
804.917	0.0178900
804.995	0.0180495
805.073	0.0179925
805.151	0.0181333
805.229	0.0180849
805.308	0.0178963
805.386	0.0180843
805.464	0.0181949
805.542	0.0181042
805.620	0.0179577
805.698	0.0180544
805.776	0.0180989
805.854	0.0180062
805.933	0.0180599
806.011	0.0179176
806.089	0.0180145
806.167	0.0180018
806.245	0.0180034
806.323	0.0180717
806.401	0.0181627
806.479	0.0181342
806.558	0.0181586
806.636	0.0180653
806.714	0.0181788
806.792	0.0183508
806.870	0.0181205
806.948	0.0181109
807.026	0.0183439
807.104	0.0182336
807.183	0.0180824
807.261	0.0181355
807.339	0.0181909
807.417	0.0181734
807.495	0.0180378
807.573	0.0181287
807.651	0.0180750
807.729	0.0181040
807.808	0.0181100
807.886	0.0179972
807.964	0.0179568
808.042	0.0180556
808.120	0.0180678
808.198	0.0181293
808.276	0.0181734
808.354	0.0181898
808.433	0.0182703
808.511	0.0182751
808.589	0.0182034
808.667	0.0183643
808.745	0.0185652
808.823	0.0185072
808.901	0.0184289
808.979	0.0182983
809.058	0.0184432
809.136	0.0182302
809.214	0.0182085
809.292	0.0183001
809.370	0.0182687
809.448	0.0182079
809.526	0.0182121
809.604	0.0180694
809.683	0.0179487
809.761	0.0179670
809.839	0.0179601
809.917	0.0177990
809.995	0.0177835
810.073	0.0177307
810.151	0.0178127
810.229	0.0178249
810.308	0.0178214
810.386	0.0177117
810.464	0.0178053
810.542	0.0178162
810.620	0.0177697
810.698	0.0179547
810.776	0.0179079
810.854	0.0179590
810.933	0.0179967
811.011	0.0181451
811.089	0.0180998
811.167	0.0181227
811.245	0.0180552
811.323	0.0180289
811.401	0.0181422
811.479	0.0181047
811.558	0.0181292
811.636	0.0180644
811.714	0.0179886
811.792	0.0179993
811.870	0.0180204
811.948	0.0178815
812.026	0.0178256
812.104	0.0179372
812.183	0.0180259
812.261	0.0179368
812.339	0.0178155
812.417	0.0179214
812.495	0.0179035
812.573	0.0180914
812.651	0.0179552
812.729	0.0179762
812.808	0.0181011
812.886	0.0181300
812.964	0.0180659
813.042	0.0181505
813.120	0.0181872
813.198	0.0181801
813.276	0.0180869
813.354	0.0182197
813.433	0.0182505
813.511	0.0181044
813.589	0.0181342
813.667	0.0181353
813.745	0.0180537
813.823	0.0180245
813.901	0.0181934
813.979	0.0181116
814.058	0.0180482
814.136	0.0180436
814.214	0.0181744
814.292	0.0181183
814.370	0.0180364
814.448	0.0182424
814.526	0.0181662
814.604	0.0182102
814.683	0.0183432
814.761	0.0182085
814.839	0.0184289
814.917	0.0183744
814.995	0.0183111
815.073	0.0183354
815.151	0.0184507
815.229	0.0184106
815.308	0.0183694
815.386	0.0181955
815.464	0.0181781
815.542	0.0182470
815.620	0.0182392
815.698	0.0182253
815.776	0.0181200
815.854	0.0181281
815.933	0.0181254
816.011	0.0181042
816.089	0.0180573
816.167	0.0180298
816.245	0.0178984
816.323	0.0177472
816.401	0.0179129
816.479	0.0179009
816.558	0.0179297
816.636	0.0179745
816.714	0.0178389
816.792	0.0179879
816.870	0.0179004
816.948	0.0178918
817.026	0.0179234
817.104	0.0180509
817.183	0.0180214
817.261	0.0179661
817.339	0.0179630
817.417	0.0179613
817.495	0.0181434
817.573	0.0181296
817.651	0.0180717
817.729	0.0180964
817.808	0.0179472
817.886	0.0179574
817.964	0.0180732
818.042	0.0180648
818.120	0.0179967
818.198	0.0179417
818.276	0.0178443
818.354	0.0178349
818.433	0.0180856
818.511	0.0179496
818.589	0.0178985
818.667	0.0180281
818.745	0.0179491
818.823	0.0179419
818.901	0.0177976
818.979	0.0180209
819.058	0.0178744
819.136	0.0179925
819.214	0.0181777
819.292	0.0181892
819.370	0.0180360
819.448	0.0181590
819.526	0.0181018
819.604	0.0181551
819.683	0.0182018
819.761	0.0182294
819.839	0.0181322
819.917	0.0183195
819.995	0.0182214
820.073	0.0181297
820.151	0.0183348
820.229	0.0182784
820.308	0.0182450
820.386	0.0180710
820.464	0.0181624
820.542	0.0182964
820.620	0.0183388
820.698	0.0182803
820.776	0.0183094
820.854	0.0183736
820.933	0.0182664
821.011	0.0182898
821.089	0.0182417
821.167	0.0183135
821.245	0.0183179
821.323	0.0181645
821.401	0.0181254
821.479	0.0181593
821.558	0.0181064
821.636	0.0180808
821.714	0.0181640
821.792	0.0181525
821.870	0.0179192
821.948	0.0180728
822.026	0.0181598
822.104	0.0180624
822.183	0.0181626
822.261	0.0181123
822.339	0.0181361
822.417	0.0182228
822.495	0.0182063
822.573	0.0181046
822.651	0.0180091
822.729	0.0180584
822.808	0.0181078
822.886	0.0181137
822.964	0.0180154
823.042	0.0180318
823.120	0.0179124
823.198	0.0179880
823.276	0.0180006
823.354	0.0181538
823.433	0.0181832
823.511	0.0179658
823.589	0.0179276
823.667	0.0182143
823.745	0.0180878
823.823	0.0179322
823.901	0.0180237
823.979	0.0179029
824.058	0.0180539
824.136	0.0180930
824.214	0.0179911
824.292	0.0179808
824.370	0.0179204
824.448	0.0179578
824.526	0.0180399
824.604	0.0180312
824.683	0.0180211
824.761	0.0178897
824.839	0.0180000
824.917	0.0181026
824.995	0.0181094
825.073	0.0180582
825.151	0.0179137
825.229	0.0181065
825.308	0.0180541
825.386	0.0181041
825.464	0.0182027
825.542	0.0180489
825.620	0.0181071
825.698	0.0182666
825.776	0.0183044
825.854	0.0182040
825.933	0.0180789
826.011	0.0180309
826.089	0.0180212
826.167	0.0180595
826.245	0.0181313
826.323	0.0182836
826.401	0.0181555
826.479	0.0182030
826.558	0.0181266
826.636	0.0181969
826.714	0.0182647
826.792	0.0181853
826.870	0.0183366
826.948	0.0183393
827.026	0.0185206
827.104	0.0184072
827.183	0.0183279
827.261	0.0183895
827.339	0.0183694
827.417	0.0182681
827.495	0.0182199
827.573	0.0182635
827.651	0.0182880
827.729	0.0182397
827.808	0.0182285
827.886	0.0182332
827.964	0.0182223
828.042	0.0181537
828.120	0.0182014
828.198	0.0181385
828.276	0.0180861
828.354	0.0181723
828.433	0.0180003
828.511	0.0180835
828.589	0.0182177
828.667	0.0182545
828.745	0.0180515
828.823	0.0180613
828.901	0.0181417
828.979	0.0181944
829.058	0.0181324
829.136	0.0181387
829.214	0.0180897
829.292	0.0179111
829.370	0.0178498
829.448	0.0180047
829.526	0.0178990
829.604	0.0179396
829.683	0.0179099
829.761	0.0177699
829.839	0.0177486
829.917	0.0176936
829.995	0.0178100
830.073	0.0178339
830.151	0.0178138
830.229	0.0177232
830.308	0.0176969
830.386	0.0177670
830.464	0.0178598
830.542	0.0178483
830.620	0.0180007
830.698	0.0180037
830.776	0.0179066
830.854	0.0180868
830.933	0.0180724
831.011	0.0182088
831.089	0.0182056
831.167	0.0181263
831.245	0.0183157
831.323	0.0182027
831.401	0.0182885
831.479	0.0181993
831.558	0.0182995
831.636	0.0181178
831.714	0.0181730
831.792	0.0182040
831.870	0.0182496
831.948	0.0181607
832.026	0.0181095
832.104	0.0182706
832.183	0.0182050
832.261	0.0181085
832.339	0.0182031
832.417	0.0182616
832.495	0.0182256
832.573	0.0181570
832.651	0.0182037
832.729	0.0182166
832.808	0.0182507
832.886	0.0182799
832.964	0.0183379
833.042	0.0182657
833.120	0.0183876
833.198	0.0183237
833.276	0.0183041
833.354	0.0182146
833.433	0.0181539
833.511	0.0182821
833.589	0.0181435
833.667	0.0179930
833.745	0.0180214
833.823	0.0179234
833.901	0.0178683
833.979	0.0178477
834.058	0.0176905
834.136	0.0177307
834.214	0.0178329
834.292	0.0178090
834.370	0.0178703
834.448	0.0178940
834.526	0.0177229
834.604	0.0176704
834.683	0.0176642
834.761	0.0178425
834.839	0.0178691
834.917	0.0179161
834.995	0.0180356
835.073	0.0179482
835.151	0.0179388
835.229	0.0180316
835.308	0.0180404
835.386	0.0181728
835.464	0.0180472
835.542	0.0179522
835.620	0.0181503
835.698	0.0179939
835.776	0.0180717
835.854	0.0179974
835.933	0.0180480
836.011	0.0180286
836.089	0.0181017
836.167	0.0181298
836.245	0.0180099
836.323	0.0180550
836.401	0.0181405
836.479	0.0180081
836.558	0.0181299
836.636	0.0181563
836.714	0.0182653
836.792	0.0181293
836.870	0.0181742
836.948	0.0181004
837.026	0.0183885
837.104	0.0183404
837.183	0.0183717
837.261	0.0181924
837.339	0.0182397
837.417	0.0183650
837.495	0.0182097
837.573	0.0182997
837.651	0.0182333
837.729	0.0181973
837.808	0.0180952
837.886	0.0180296
837.964	0.0180773
838.042	0.0180389
838.120	0.0180798
838.198	0.0179865
838.276	0.0178577
838.354	0.0179261
838.433	0.0178942
838.511	0.0180621
838.589	0.0179536
838.667	0.0178584
838.745	0.0179037
838.823	0.0178912
838.901	0.0180523
838.979	0.0180801
839.058	0.0181120
839.136	0.0179949
839.214	0.0181055
839.292	0.0182805
839.370	0.0182053
839.448	0.0182584
839.526	0.0183498
839.604	0.0183752
839.683	0.0183274
839.761	0.0182446
839.839	0.0183616
839.917	0.0183065
839.995	0.0183015
840.073	0.0183220
840.151	0.0182662
840.229	0.0181898
840.308	0.0180032
840.386	0.0181316
840.464	0.0181624
840.542	0.0180128
840.620	0.0181049
840.698	0.0180975
840.776	0.0180418
840.854	0.0180125
840.933	0.0180476
841.011	0.0180154
841.089	0.0182072
841.167	0.0180022
841.245	0.0181149
841.323	0.0179543
841.401	0.0180617
841.479	0.0180498
841.558	0.0179337
841.636	0.0179759
841.714	0.0179347
841.792	0.0179716
841.870	0.0179651
841.948	0.0178339
842.026	0.0178605
842.104	0.0178957
842.183	0.0179308
842.261	0.0178331
842.339	0.0179074
842.417	0.0179565
842.495	0.0179210
842.573	0.0179521
842.651	0.0178533
842.729	0.0180792
842.808	0.0180552
842.886	0.0179987
842.964	0.0180781
843.042	0.0180608
843.120	0.0180198
843.198	0.0180305
843.276	0.0180336
843.354	0.0180862
843.433	0.0182471
843.511	0.0182825
843.589	0.0181790
843.667	0.0182796
843.745	0.0183665
843.823	0.0181697
843.901	0.0182562
843.979	0.0182268
844.058	0.0182063
844.136	0.0182172
844.214	0.0181706
844.292	0.0182210
844.370	0.0181824
844.448	0.0181956
844.526	0.0181940
844.604	0.0181287
844.683	0.0180299
844.761	0.0182123
844.839	0.0181850
844.917	0.0181860
844.995	0.0181995
845.073	0.0181989
845.151	0.0181419
845.229	0.0182184
845.308	0.0181516
845.386	0.0181706
845.464	0.0182130
845.542	0.0182320
845.620	0.0182535
845.698	0.0182243
845.776	0.0180763
845.854	0.0180949
845.933	0.0182478
846.011	0.0183920
846.089	0.0181740
846.167	0.0181802
846.245	0.0180817
846.323	0.0181314
846.401	0.0181863
846.479	0.0182324
846.558	0.0181821
846.636	0.0181544
846.714	0.0179872
846.792	0.0180784
846.870	0.0180364
846.948	0.0180540
847.026	0.0181547
847.104	0.0181522
847.183	0.0181833
847.261	0.0180770
847.339	0.0181185
847.417	0.0181561
847.495	0.0180831
847.573	0.0179302
847.651	0.0181089
847.729	0.0182535
847.808	0.0182058
847.886	0.0181394
847.964	0.0181351
848.042	0.0182270
848.120	0.0180646
848.198	0.0181965
848.276	0.0183526
848.354	0.0181819
848.433	0.0182539
848.511	0.0181786
848.589	0.0181009
848.667	0.0181647
848.745	0.0181494
848.823	0.0180884
848.901	0.0180976
848.979	0.0180255
849.058	0.0181127
849.136	0.0179067
849.214	0.0180628
849.292	0.0180732
849.370	0.0178998
849.448	0.0181026
849.526	0.0179684
849.604	0.0180205
849.683	0.0179963
849.761	0.0180611
849.839	0.0180450
849.917	0.0180386
849.995	0.0179239
850.073	0.0181738
850.151	0.0181158
850.229	0.0179995
850.308	0.0180261
850.386	0.0179700
850.464	0.0180570
850.542	0.0181844
850.620	0.0181243
850.698	0.0181567
850.776	0.0179938
850.854	0.0180302
850.933	0.0180415
851.011	0.0180342
851.089	0.0180032
851.167	0.0181425
851.245	0.0183125
851.323	0.0181907
851.401	0.0180952
851.479	0.0181774
851.558	0.0182181
851.636	0.0182368
851.714	0.0183247
851.792	0.0182043
851.870	0.0183479
851.948	0.0184286
852.026	0.0184612
852.104	0.0183273
852.183	0.0183702
852.261	0.0184138
852.339	0.0182838
852.417	0.0184700
852.495	0.0184090
852.573	0.0183802
852.651	0.0182531
852.729	0.0184327
852.808	0.0182124
852.886	0.0182381
852.964	0.0182110
853.042	0.0181308
853.120	0.0181959
853.198	0.0181126
853.276	0.0180399
853.354	0.0181564
853.433	0.0179848
853.511	0.0178474
853.589	0.0178045
853.667	0.0178787
853.745	0.0178097
853.823	0.0177468
853.901	0.0178677
853.979	0.0178708
854.058	0.0177644
854.136	0.0177438
854.214	0.0177339
854.292	0.0177673
854.370	0.0177392
854.448	0.0177710
854.526	0.0178600
854.604	0.0178223
854.683	0.0178610
854.761	0.0178263
854.839	0.0178070
854.917	0.0179472
854.995	0.0179452
855.073	0.0179499
855.151	0.0179998
855.229	0.0180006
855.308	0.0179334
855.386	0.0179422
855.464	0.0178631
855.542	0.0180372
855.620	0.0179481
855.698	0.0179886
855.776	0.0180428
855.854	0.0179485
855.933	0.0181077
856.011	0.0182388
856.089	0.0182018
856.167	0.0182093
856.245	0.0182925
856.323	0.0182421
856.401	0.0182794
856.479	0.0182269
856.558	0.0182271
856.636	0.0183867
856.714	0.0182630
856.792	0.0183773
856.870	0.0182472
856.948	0.0182801
857.026	0.0182484
857.104	0.0180534
857.183	0.0180573
857.261	0.0182278
857.339	0.0180910
857.417	0.0181281
857.495	0.0181208
857.573	0.0179976
857.651	0.0179536
857.729	0.0179949
857.808	0.0181985
857.886	0.0180433
857.964	0.0180239
858.042	0.0178768
858.120	0.0181540
858.198	0.0181410
858.276	0.0180580
858.354	0.0180838
858.433	0.0179904
858.511	0.0181110
858.589	0.0181950
858.667	0.0182028
858.745	0.0181886
858.823	0.0181452
858.901	0.0181342
858.979	0.0181895
859.058	0.0183000
859.136	0.0182083
859.214	0.0180823
859.292	0.0181869
859.370	0.0182141
859.448	0.0182748
859.526	0.0181579
859.604	0.0182365
859.683	0.0181717
859.761	0.0181412
859.839	0.0181617
859.917	0.0180783
859.995	0.0181481
860.073	0.0181655
860.151	0.0181519
860.229	0.0182472
860.308	0.0179697
860.386	0.0180195
860.464	0.0181339
860.542	0.0181882
860.620	0.0180702
860.698	0.0182603
860.776	0.0181967
860.854	0.0181580
860.933	0.0180568
861.011	0.0180117
861.089	0.0180726
861.167	0.0179760
861.245	0.0178944
861.323	0.0180372
861.401	0.0178757
861.479	0.0179367
861.558	0.0178153
861.636	0.0179288
861.714	0.0178050
861.792	0.0180316
861.870	0.0180289
861.948	0.0178968
862.026	0.0179000
862.104	0.0179918
862.183	0.0180980
862.261	0.0179508
862.339	0.0179002
862.417	0.0180241
862.495	0.0180169
862.573	0.0182088
862.651	0.0182236
862.729	0.0181911
862.808	0.0182047
862.886	0.0182451
862.964	0.0181611
863.042	0.0182009
863.120	0.0181139
863.198	0.0180431
863.276	0.0182034
863.354	0.0182867
863.433	0.0180762
863.511	0.0182243
863.589	0.0181762
863.667	0.0181618
863.745	0.0181885
863.823	0.0180663
863.901	0.0180853
863.979	0.0179185
864.058	0.0179853
864.136	0.0181731
864.214	0.0179856
864.292	0.0179417
864.370	0.0180643
864.448	0.0181269
864.526	0.0181231
864.604	0.0182281
864.683	0.0182442
864.761	0.0181744
864.839	0.0182140
864.917	0.0182875
864.995	0.0183375
865.073	0.0183070
865.151	0.0183581
865.229	0.0183920
865.308	0.0181701
865.386	0.0181728
865.464	0.0181123
865.542	0.0180818
865.620	0.0181321
865.698	0.0180446
865.776	0.0180598
865.854	0.0181039
865.933	0.0179675
866.011	0.0179589
866.089	0.0180560
866.167	0.0180476
866.245	0.0180896
866.323	0.0178709
866.401	0.0180927
866.479	0.0181937
866.558	0.0180877
866.636	0.0180733
866.714	0.0181287
866.792	0.0180856
866.870	0.0180549
866.948	0.0180385
867.026	0.0180978
867.104	0.0180058
867.183	0.0181234
867.261	0.0180429
867.339	0.0180956
867.417	0.0180455
867.495	0.0178970
867.573	0.0179688
867.651	0.0180617
867.729	0.0180796
867.808	0.0181899
867.886	0.0181356
867.964	0.0181738
868.042	0.0180700
868.120	0.0182325
868.198	0.0181376
868.276	0.0181355
868.354	0.0182316
868.433	0.0183582
868.511	0.0182858
868.589	0.0183540
868.667	0.0183473
868.745	0.0183128
868.823	0.0182238
868.901	0.0183681
868.979	0.0183181
869.058	0.0180891
869.136	0.0181247
869.214	0.0181264
869.292	0.0181221
869.370	0.0181351
869.448	0.0179919
869.526	0.0180951
869.604	0.0179787
869.683	0.0179627
869.761	0.0179839
869.839	0.0179902
869.917	0.0180504
869.995	0.0179052
870.073	0.0178618
870.151	0.0179634
870.229	0.0179895
870.308	0.0179100
870.386	0.0179404
870.464	0.0179719
870.542	0.0180648
870.620	0.0180454
870.698	0.0179946
870.776	0.0180637
870.854	0.0181528
870.933	0.0180675
871.011	0.0181512
871.089	0.0181957
871.167	0.0180902
871.245	0.0180650
871.323	0.0184099
871.401	0.0181906
871.479	0.0181168
871.558	0.0181379
871.636	0.0180564
871.714	0.0181007
871.792	0.0181734
871.870	0.0180479
871.948	0.0180666
872.026	0.0180102
872.104	0.0181847
872.183	0.0181039
872.261	0.0181763
872.339	0.0182667
872.417	0.0182417
872.495	0.0183401
872.573	0.0182412
872.651	0.0181754
872.729	0.0183506
872.808	0.0180854
872.886	0.0182727
872.964	0.0183088
873.042	0.0183053
873.120	0.0182813
873.198	0.0180280
873.276	0.0181226
873.354	0.0182198
873.433	0.0182750
873.511	0.0181770
873.589	0.0181387
873.667	0.0181982
873.745	0.0180742
873.823	0.0180318
873.901	0.0179598
873.979	0.0180139
874.058	0.0179819
874.136	0.0180042
874.214	0.0180246
874.292	0.0181409
874.370	0.0179808
874.448	0.0181855
874.526	0.0181113
874.604	0.0180264
874.683	0.0182069
874.761	0.0182281
874.839	0.0182480
874.917	0.0182124
874.995	0.0182676
875.073	0.0181112
875.151	0.0181850
875.229	0.0181480
875.308	0.0180566
875.386	0.0180208
875.464	0.0180871
875.542	0.0180933
875.620	0.0181018
875.698	0.0179507
875.776	0.0178473
875.854	0.0178861
875.933	0.0178218
876.011	0.0179932
876.089	0.0179331
876.167	0.0178802
876.245	0.0179134
876.323	0.0180169
876.401	0.0178461
876.479	0.0179468
876.558	0.0180301
876.636	0.0179430
876.714	0.0180470
876.792	0.0180223
876.870	0.0180470
876.948	0.0180593
877.026	0.0180951
877.104	0.0181322
877.183	0.0181294
877.261	0.0181584
877.339	0.0182825
877.417	0.0181426
877.495	0.0179955
877.573	0.0181580
877.651	0.0181532
877.729	0.0180432
877.808	0.0181933
877.886	0.0182091
877.964	0.0180410
878.042	0.0180392
878.120	0.0179343
878.198	0.0180878
878.276	0.0181603
878.354	0.0180540
878.433	0.0180344
878.511	0.0179330
878.589	0.0181078
878.667	0.0180683
878.745	0.0180823
878.823	0.0178930
878.901	0.0179338
878.979	0.0180542
879.058	0.0180001
879.136	0.0178719
879.214	0.0180794
879.292	0.0180358
879.370	0.0179672
879.448	0.0179099
879.526	0.0181332
879.604	0.0179855
879.683	0.0181548
879.761	0.0181078
879.839	0.0181006
879.917	0.0182264
879.995	0.0181123
880.073	0.0180357
880.151	0.0180078
880.229	0.0178674
880.308	0.0180103
880.386	0.0181015
880.464	0.0180328
880.542	0.0181452
880.620	0.0181389
880.698	0.0179936
880.776	0.0181071
880.854	0.0181794
880.933	0.0181395
881.011	0.0182667
881.089	0.0180991
881.167	0.0180124
881.245	0.0181353
881.323	0.0181002
881.401	0.0181904
881.479	0.0181100
881.558	0.0181236
881.636	0.0181071
881.714	0.0180995
881.792	0.0180176
881.870	0.0180223
881.948	0.0179433
882.026	0.0178272
882.104	0.0179124
882.183	0.0178582
882.261	0.0178451
882.339	0.0177633
882.417	0.0178550
882.495	0.0177538
882.573	0.0178586
882.651	0.0178770
882.729	0.0179149
882.808	0.0181741
882.886	0.0180490
882.964	0.0180823
883.042	0.0180151
883.120	0.0182583
883.198	0.0180997
883.276	0.0180797
883.354	0.0180492
883.433	0.0181212
883.511	0.0181532
883.589	0.0180757
883.667	0.0181142
883.745	0.0182500
883.823	0.0181163
883.901	0.0180270
883.979	0.0181319
884.058	0.0180959
884.136	0.0181161
884.214	0.0180853
884.292	0.0180789
884.370	0.0180201
884.448	0.0181328
884.526	0.0180791
884.604	0.0179971
884.683	0.0180489
884.761	0.0179771
884.839	0.0181181
884.917	0.0180196
884.995	0.0179726
885.073	0.0180702
885.151	0.0181590
885.229	0.0182632
885.308	0.0181612
885.386	0.0180898
885.464	0.0181927
885.542	0.0181473
885.620	0.0182029
885.698	0.0181216
885.776	0.0181503
885.854	0.0180952
885.933	0.0183482
886.011	0.0181157
886.089	0.0179907
886.167	0.0180381
886.245	0.0180334
886.323	0.0182084
886.401	0.0181384
886.479	0.0181459
886.558	0.0181622
886.636	0.0180515
886.714	0.0180208
886.792	0.0181838
886.870	0.0180785
886.948	0.0181984
887.026	0.0182333
887.104	0.0181403
887.183	0.0182452
887.261	0.0181321
887.339	0.0182099
887.417	0.0182106
887.495	0.0181242
887.573	0.0181834
887.651	0.0181371
887.729	0.0181120
887.808	0.0181941
887.886	0.0181255
887.964	0.0180367
888.042	0.0181329
888.120	0.0180436
888.198	0.0180534
888.276	0.0181536
888.354	0.0180171
888.433	0.0180669
888.511	0.0180141
888.589	0.0179702
888.667	0.0180643
888.745	0.0180938
888.823	0.0180082
888.901	0.0179805
888.979	0.0180936
889.058	0.0181069
889.136	0.0181097
889.214	0.0183275
889.292	0.0180752
889.370	0.0180544
889.448	0.0181753
889.526	0.0180110
889.604	0.0183732
889.683	0.0182108
889.761	0.0181385
889.839	0.0180848
889.917	0.0181382
889.995	0.0181129
890.073	0.0182494
890.151	0.0180730
890.229	0.0180826
890.308	0.0180826
890.386	0.0181042
890.464	0.0180092
890.542	0.0181757
890.620	0.0181296
890.698	0.0179424
890.776	0.0180767
890.854	0.0179717
890.933	0.0179968
891.011	0.0179609
891.089	0.0180460
891.167	0.0181348
891.245	0.0180977
891.323	0.0180724
891.401	0.0181186
891.479	0.0181109
891.558	0.0180814
891.636	0.0180683
891.714	0.0182519
891.792	0.0181794
891.870	0.0182608
891.948	0.0181335
892.026	0.0181687
892.104	0.0181498
892.183	0.0181968
892.261	0.0182318
892.339	0.0181720
892.417	0.0181651
892.495	0.0184370
892.573	0.0184127
892.651	0.0182698
892.729	0.0181364
892.808	0.0182813
892.886	0.0182183
892.964	0.0182241
893.042	0.0181113
893.120	0.0183335
893.198	0.0182125
893.276	0.0182526
893.354	0.0181824
893.433	0.0181837
893.511	0.0182489
893.589	0.0182758
893.667	0.0182008
893.745	0.0182995
893.823	0.0183970
893.901	0.0183256
893.979	0.0182800
894.058	0.0181188
894.136	0.0182138
894.214	0.0182606
894.292	0.0181656
894.370	0.0180253
894.448	0.0180878
894.526	0.0180673
894.604	0.0180193
894.683	0.0179031
894.761	0.0179123
894.839	0.0179825
894.917	0.0179377
894.995	0.0178165
895.073	0.0180187
895.151	0.0179716
895.229	0.0180761
895.308	0.0180091
895.386	0.0180582
895.464	0.0182271
895.542	0.0180230
895.620	0.0181458
895.698	0.0181612
895.776	0.0181608
895.854	0.0182845
895.933	0.0181990
896.011	0.0182471
896.089	0.0182156
896.167	0.0182064
896.245	0.0182825
896.323	0.0181924
896.401	0.0182708
896.479	0.0182438
896.558	0.0182027
896.636	0.0181175
896.714	0.0182121
896.792	0.0182219
896.870	0.0178727
896.948	0.0180303
897.026	0.0180482
897.104	0.0178847
897.183	0.0180018
897.261	0.0180038
897.339	0.0179153
897.417	0.0177566
897.495	0.0179638
897.573	0.0180806
897.651	0.0180236
897.729	0.0179669
897.808	0.0179980
897.886	0.0180188
897.964	0.0181218
898.042	0.0180117
898.120	0.0181728
898.198	0.0181783
898.276	0.0181728
898.354	0.0181607
898.433	0.0183310
898.511	0.0183515
898.589	0.0182589
898.667	0.0183640
898.745	0.0183581
898.823	0.0183765
898.901	0.0183620
898.979	0.0181646
899.058	0.0183598
899.136	0.0183727
899.214	0.0182199
899.292	0.0182138
899.370	0.0180916
899.448	0.0180923
899.526	0.0181078
899.604	0.0180374
899.683	0.0180415
899.761	0.0179003
899.839	0.0180550
899.917	0.0179593
899.995	0.0179311
900.073	0.0179388
900.151	0.0179195
900.229	0.0179201
900.308	0.0179056
900.386	0.0179498
900.464	0.0180315
900.542	0.0179814
900.620	0.0179218
900.698	0.0179430
900.776	0.0181293
900.854	0.0180746
900.933	0.0182127
901.011	0.0181505
901.089	0.0181587
901.167	0.0181560
901.245	0.0181237
901.323	0.0182564
901.401	0.0181520
901.479	0.0181077
901.558	0.0181042
901.636	0.0181440
901.714	0.0180965
901.792	0.0182101
901.870	0.0183304
901.948	0.0182297
902.026	0.0182095
902.104	0.0181904
902.183	0.0181119
902.261	0.0182853
902.339	0.0182133
902.417	0.0182207
902.495	0.0181010
902.573	0.0181973
902.651	0.0182810
902.729	0.0181451
902.808	0.0180436
902.886	0.0181369
902.964	0.0179931
903.042	0.0180342
903.120	0.0179724
903.198	0.0179416
903.276	0.0178078
903.354	0.0179960
903.433	0.0179890
903.511	0.0178311
903.589	0.0180303
903.667	0.0178930
903.745	0.0179713
903.823	0.0179687
903.901	0.0179578
903.979	0.0179440
904.058	0.0180500
904.136	0.0180737
904.214	0.0180727
904.292	0.0180180
904.370	0.0180283
904.448	0.0180550
904.526	0.0180527
904.604	0.0181249
904.683	0.0181224
904.761	0.0182024
904.839	0.0180612
904.917	0.0181108
904.995	0.0181638
905.073	0.0180295
905.151	0.0181155
905.229	0.0180994
905.308	0.0181255
905.386	0.0180357
905.464	0.0180115
905.542	0.0181091
905.620	0.0182599
905.698	0.0182634
905.776	0.0181496
905.854	0.0180730
905.933	0.0181264
906.011	0.0180597
906.089	0.0181041
906.167	0.0181373
906.245	0.0180272
906.323	0.0182738
906.401	0.0180941
906.479	0.0181809
906.558	0.0180074
906.636	0.0181325
906.714	0.0179143
906.792	0.0179076
906.870	0.0177688
906.948	0.0180229
907.026	0.0179147
907.104	0.0179500
907.183	0.0178312
907.261	0.0178816
907.339	0.0178656
907.417	0.0179777
907.495	0.0179415
907.573	0.0179418
907.651	0.0178606
907.729	0.0179784
907.808	0.0180168
907.886	0.0180073
907.964	0.0179497
908.042	0.0179850
908.120	0.0180079
908.198	0.0181201
908.276	0.0181489
908.354	0.0181544
908.433	0.0182087
908.511	0.0182365
908.589	0.0182528
908.667	0.0181139
908.745	0.0182022
908.823	0.0181685
908.901	0.0181046
908.979	0.0182700
909.058	0.0182581
909.136	0.0183131
909.214	0.0181472
909.292	0.0181533
909.370	0.0182978
909.448	0.0183418
909.526	0.0183280
909.604	0.0181870
909.683	0.0181067
909.761	0.0180372
909.839	0.0181036
909.917	0.0181969
909.995	0.0181065
910.073	0.0181650
910.151	0.0179607
910.229	0.0180405
910.308	0.0180459
910.386	0.0179706
910.464	0.0180170
910.542	0.0182624
910.620	0.0181210
910.698	0.0179947
910.776	0.0180611
910.854	0.0181995
910.933	0.0180914
911.011	0.0181996
911.089	0.0181574
911.167	0.0180725
911.245	0.0180261
911.323	0.0180752
911.401	0.0180357
911.479	0.0181848
911.558	0.0179221
911.636	0.0181218
911.714	0.0180389
911.792	0.0180524
911.870	0.0180367
911.948	0.0178593
912.026	0.0180306
912.104	0.0180833
912.183	0.0180511
912.261	0.0180759
912.339	0.0181338
912.417	0.0180681
912.495	0.0182495
912.573	0.0180497
912.651	0.0181910
912.729	0.0181135
912.808	0.0180662
912.886	0.0179347
912.964	0.0181186
913.042	0.0180971
913.120	0.0182630
913.198	0.0181830
913.276	0.0179754
913.354	0.0180061
913.433	0.0180865
913.511	0.0180887
913.589	0.0180284
913.667	0.0179646
913.745	0.0180767
913.823	0.0179688
913.901	0.0180812
913.979	0.0180527
914.058	0.0179928
914.136	0.0180580
914.214	0.0180539
914.292	0.0179491
914.370	0.0179642
914.448	0.0181545
914.526	0.0179343
914.604	0.0180131
914.683	0.0180360
914.761	0.0179484
914.839	0.0181238
914.917	0.0180389
914.995	0.0179900
915.073	0.0181199
915.151	0.0182624
915.229	0.0182420
915.308	0.0180384
915.386	0.0181813
915.464	0.0181030
915.542	0.0181964
915.620	0.0181376
915.698	0.0181759
915.776	0.0181136
915.854	0.0180504
915.933	0.0181876
916.011	0.0181343
916.089	0.0181109
916.167	0.0180277
916.245	0.0180617
916.323	0.0182755
916.401	0.0181229
916.479	0.0181995
916.558	0.0182524
916.636	0.0181897
916.714	0.0182598
916.792	0.0182127
916.870	0.0182148
916.948	0.0183347
917.026	0.0181778
917.104	0.0181882
917.183	0.0182633
917.261	0.0182764
917.339	0.0181283
917.417	0.0182903
917.495	0.0181604
917.573	0.0181935
917.651	0.0181184
917.729	0.0181195
917.808	0.0180140
917.886	0.0181072
917.964	0.0182554
918.042	0.0181353
918.120	0.0178934
918.198	0.0179228
918.276	0.0180281
918.354	0.0180926
918.433	0.0178127
918.511	0.0179490
918.589	0.0182359
918.667	0.0179571
918.745	0.0180438
918.823	0.0181814
918.901	0.0181354
918.979	0.0180256
919.058	0.0181083
919.136	0.0180679
919.214	0.0181281
919.292	0.0180742
919.370	0.0180260
919.448	0.0181937
919.526	0.0182201
919.604	0.0181568
919.683	0.0181380
919.761	0.0181453
919.839	0.0182175
919.917	0.0184240
