06/03/2022	18:04:42	Ver.	4.1	UNKNOWN
Optical Delay	599.995081	Delta X		0.078125	Sweeps	1	Scan Rate	0/0
Coordinates	Axis 1	NaN	Axis 2	NaN	Axis 3	NaN	Axis 4	NaN	Axis 5	NaN	Axis 6	0.000000
TX Power	0.000000	RX Power	0.000000

599.995	0.0179494
600.073	0.0180169
600.151	0.0179209
600.229	0.0179233
600.308	0.0178835
600.386	0.0180548
600.464	0.0179784
600.542	0.0179123
600.620	0.0179302
600.698	0.0179653
600.776	0.0179590
600.854	0.0176574
600.933	0.0179908
601.011	0.0179738
601.089	0.0179054
601.167	0.0178619
601.245	0.0179060
601.323	0.0180856
601.401	0.0178305
601.479	0.0179198
601.558	0.0180965
601.636	0.0178853
601.714	0.0179336
601.792	0.0178966
601.870	0.0179211
601.948	0.0178342
602.026	0.0178073
602.104	0.0179339
602.183	0.0179914
602.261	0.0179244
602.339	0.0179507
602.417	0.0179109
602.495	0.0178773
602.573	0.0179769
602.651	0.0179753
602.729	0.0180231
602.808	0.0178328
602.886	0.0179585
602.964	0.0180142
603.042	0.0179892
603.120	0.0180614
603.198	0.0179611
603.276	0.0178215
603.354	0.0179903
603.433	0.0179732
603.511	0.0178717
603.589	0.0179453
603.667	0.0180454
603.745	0.0179984
603.823	0.0179424
603.901	0.0178739
603.979	0.0180730
604.058	0.0178739
604.136	0.0179823
604.214	0.0179321
604.292	0.0179258
604.370	0.0178979
604.448	0.0180007
604.526	0.0178380
604.604	0.0180468
604.683	0.0181572
604.761	0.0179772
604.839	0.0179327
604.917	0.0180329
604.995	0.0180141
605.073	0.0180653
605.151	0.0179956
605.229	0.0179028
605.308	0.0179621
605.386	0.0178057
605.464	0.0179422
605.542	0.0179681
605.620	0.0179411
605.698	0.0179229
605.776	0.0178931
605.854	0.0180076
605.933	0.0179690
606.011	0.0180159
606.089	0.0179770
606.167	0.0180103
606.245	0.0179893
606.323	0.0179214
606.401	0.0179160
606.479	0.0179491
606.558	0.0179121
606.636	0.0179556
606.714	0.0180151
606.792	0.0179629
606.870	0.0180608
606.948	0.0178611
607.026	0.0178946
607.104	0.0178899
607.183	0.0181744
607.261	0.0180766
607.339	0.0180228
607.417	0.0179279
607.495	0.0180605
607.573	0.0179200
607.651	0.0179482
607.729	0.0179858
607.808	0.0181094
607.886	0.0179274
607.964	0.0179763
608.042	0.0179176
608.120	0.0180407
608.198	0.0180950
608.276	0.0179738
608.354	0.0179620
608.433	0.0179988
608.511	0.0178997
608.589	0.0179523
608.667	0.0180275
608.745	0.0179162
608.823	0.0179438
608.901	0.0179729
608.979	0.0178228
609.058	0.0177840
609.136	0.0179679
609.214	0.0178947
609.292	0.0179480
609.370	0.0179153
609.448	0.0179388
609.526	0.0178705
609.604	0.0178419
609.683	0.0179429
609.761	0.0180048
609.839	0.0179440
609.917	0.0178753
609.995	0.0179551
610.073	0.0179089
610.151	0.0178640
610.229	0.0179627
610.308	0.0178926
610.386	0.0180126
610.464	0.0179010
610.542	0.0178897
610.620	0.0178400
610.698	0.0178545
610.776	0.0178699
610.854	0.0180372
610.933	0.0180605
611.011	0.0180289
611.089	0.0179045
611.167	0.0179188
611.245	0.0180145
611.323	0.0179091
611.401	0.0179354
611.479	0.0178745
611.558	0.0179668
611.636	0.0181082
611.714	0.0180090
611.792	0.0179171
611.870	0.0178699
611.948	0.0179056
612.026	0.0179541
612.104	0.0179918
612.183	0.0180601
612.261	0.0179059
612.339	0.0179121
612.417	0.0178650
612.495	0.0178972
612.573	0.0179366
612.651	0.0179243
612.729	0.0179372
612.808	0.0180899
612.886	0.0179273
612.964	0.0178255
613.042	0.0180860
613.120	0.0180604
613.198	0.0179794
613.276	0.0179224
613.354	0.0180161
613.433	0.0180535
613.511	0.0179998
613.589	0.0179014
613.667	0.0178905
613.745	0.0179389
613.823	0.0179883
613.901	0.0179951
613.979	0.0180090
614.058	0.0178684
614.136	0.0179510
614.214	0.0180969
614.292	0.0179785
614.370	0.0179004
614.448	0.0179198
614.526	0.0180156
614.604	0.0180596
614.683	0.0180436
614.761	0.0178098
614.839	0.0178105
614.917	0.0178769
614.995	0.0180280
615.073	0.0179610
615.151	0.0178693
615.229	0.0179889
615.308	0.0179718
615.386	0.0179353
615.464	0.0180209
615.542	0.0179484
615.620	0.0180318
615.698	0.0180407
615.776	0.0179921
615.854	0.0179264
615.933	0.0180272
616.011	0.0180695
616.089	0.0178024
616.167	0.0178213
616.245	0.0179526
616.323	0.0179829
616.401	0.0180732
616.479	0.0179919
616.558	0.0178852
616.636	0.0178764
616.714	0.0178646
616.792	0.0179810
616.870	0.0179670
616.948	0.0179230
617.026	0.0180573
617.104	0.0179286
617.183	0.0178477
617.261	0.0180944
617.339	0.0178922
617.417	0.0179335
617.495	0.0180058
617.573	0.0180186
617.651	0.0177925
617.729	0.0179918
617.808	0.0179848
617.886	0.0180006
617.964	0.0179689
618.042	0.0180299
618.120	0.0179245
618.198	0.0178465
618.276	0.0179734
618.354	0.0179461
618.433	0.0179123
618.511	0.0179096
618.589	0.0178770
618.667	0.0178899
618.745	0.0178870
618.823	0.0179844
618.901	0.0179456
618.979	0.0179948
619.058	0.0180326
619.136	0.0179620
619.214	0.0179154
619.292	0.0178003
619.370	0.0179372
619.448	0.0180114
619.526	0.0179853
619.604	0.0180053
619.683	0.0179238
619.761	0.0179825
619.839	0.0179281
619.917	0.0178551
619.995	0.0179515
620.073	0.0179976
620.151	0.0179198
620.229	0.0180091
620.308	0.0179418
620.386	0.0179922
620.464	0.0180417
620.542	0.0179781
620.620	0.0179789
620.698	0.0178661
620.776	0.0179833
620.854	0.0180665
620.933	0.0179588
621.011	0.0178955
621.089	0.0179285
621.167	0.0179086
621.245	0.0180258
621.323	0.0179374
621.401	0.0180472
621.479	0.0180280
621.558	0.0177957
621.636	0.0179473
621.714	0.0180268
621.792	0.0178584
621.870	0.0179446
621.948	0.0179240
622.026	0.0179372
622.104	0.0179364
622.183	0.0179294
622.261	0.0179922
622.339	0.0179298
622.417	0.0180203
622.495	0.0180183
622.573	0.0179344
622.651	0.0179264
622.729	0.0180252
622.808	0.0179977
622.886	0.0178925
622.964	0.0180016
623.042	0.0180563
623.120	0.0179554
623.198	0.0179125
623.276	0.0179427
623.354	0.0180024
623.433	0.0178918
623.511	0.0178232
623.589	0.0179748
623.667	0.0179133
623.745	0.0179524
623.823	0.0179583
623.901	0.0179095
623.979	0.0178992
624.058	0.0179485
624.136	0.0179491
624.214	0.0178980
624.292	0.0179084
624.370	0.0178712
624.448	0.0178982
624.526	0.0180782
624.604	0.0178365
624.683	0.0178729
624.761	0.0180614
624.839	0.0179678
624.917	0.0179813
624.995	0.0180093
625.073	0.0179547
625.151	0.0180514
625.229	0.0179908
625.308	0.0179275
625.386	0.0179710
625.464	0.0180233
625.542	0.0178910
625.620	0.0179195
625.698	0.0180058
625.776	0.0180238
625.854	0.0179092
625.933	0.0179620
626.011	0.0178957
626.089	0.0178249
626.167	0.0178332
626.245	0.0179398
626.323	0.0179623
626.401	0.0179256
626.479	0.0179245
626.558	0.0179151
626.636	0.0178770
626.714	0.0180814
626.792	0.0179109
626.870	0.0178963
626.948	0.0178328
627.026	0.0178712
627.104	0.0177903
627.183	0.0179929
627.261	0.0179740
627.339	0.0178495
627.417	0.0178988
627.495	0.0178676
627.573	0.0180303
627.651	0.0178642
627.729	0.0178048
627.808	0.0179078
627.886	0.0179953
627.964	0.0179816
628.042	0.0178094
628.120	0.0178643
628.198	0.0179300
628.276	0.0179554
628.354	0.0179535
628.433	0.0179140
628.511	0.0180368
628.589	0.0178394
628.667	0.0178603
628.745	0.0180729
628.823	0.0177896
628.901	0.0179571
628.979	0.0180588
629.058	0.0179490
629.136	0.0179326
629.214	0.0178077
629.292	0.0179240
629.370	0.0179978
629.448	0.0179584
629.526	0.0179377
629.604	0.0178268
629.683	0.0179031
629.761	0.0178889
629.839	0.0178713
629.917	0.0178294
629.995	0.0178111
630.073	0.0179903
630.151	0.0178738
630.229	0.0178752
630.308	0.0180090
630.386	0.0179656
630.464	0.0178870
630.542	0.0179710
630.620	0.0178500
630.698	0.0179418
630.776	0.0179118
630.854	0.0180560
630.933	0.0178560
631.011	0.0177877
631.089	0.0178188
631.167	0.0178237
631.245	0.0180267
631.323	0.0177792
631.401	0.0178960
631.479	0.0179193
631.558	0.0180362
631.636	0.0179905
631.714	0.0179961
631.792	0.0178461
631.870	0.0178404
631.948	0.0178501
632.026	0.0178999
632.104	0.0176965
632.183	0.0178463
632.261	0.0179623
632.339	0.0178785
632.417	0.0179738
632.495	0.0179432
632.573	0.0179459
632.651	0.0179755
632.729	0.0180637
632.808	0.0180017
632.886	0.0178924
632.964	0.0179066
633.042	0.0179498
633.120	0.0179199
633.198	0.0178526
633.276	0.0179624
633.354	0.0179931
633.433	0.0179163
633.511	0.0179510
633.589	0.0178830
633.667	0.0178384
633.745	0.0178505
633.823	0.0179264
633.901	0.0179240
633.979	0.0180143
634.058	0.0179980
634.136	0.0179200
634.214	0.0179363
634.292	0.0179212
634.370	0.0179198
634.448	0.0179114
634.526	0.0179594
634.604	0.0179270
634.683	0.0178778
634.761	0.0177863
634.839	0.0177897
634.917	0.0178824
634.995	0.0180086
635.073	0.0179525
635.151	0.0180265
635.229	0.0180230
635.308	0.0178753
635.386	0.0180202
635.464	0.0180350
635.542	0.0178613
635.620	0.0178586
635.698	0.0180331
635.776	0.0179040
635.854	0.0178479
635.933	0.0178986
636.011	0.0179972
636.089	0.0179280
636.167	0.0180186
636.245	0.0180193
636.323	0.0178362
636.401	0.0179458
636.479	0.0179578
636.558	0.0180902
636.636	0.0179228
636.714	0.0180324
636.792	0.0178656
636.870	0.0178648
636.948	0.0179318
637.026	0.0179733
637.104	0.0180485
637.183	0.0179389
637.261	0.0178191
637.339	0.0179456
637.417	0.0181401
637.495	0.0179333
637.573	0.0180199
637.651	0.0180171
637.729	0.0178823
637.808	0.0178790
637.886	0.0181333
637.964	0.0180665
638.042	0.0179523
638.120	0.0179244
638.198	0.0178150
638.276	0.0180073
638.354	0.0178677
638.433	0.0180125
638.511	0.0178835
638.589	0.0178526
638.667	0.0179729
638.745	0.0177568
638.823	0.0178056
638.901	0.0178930
638.979	0.0179155
639.058	0.0180022
639.136	0.0179693
639.214	0.0179979
639.292	0.0178606
639.370	0.0179015
639.448	0.0179998
639.526	0.0178112
639.604	0.0179105
639.683	0.0179179
639.761	0.0180127
639.839	0.0179539
639.917	0.0179461
639.995	0.0178109
640.073	0.0178924
640.151	0.0180122
640.229	0.0180451
640.308	0.0180276
640.386	0.0179140
640.464	0.0177695
640.542	0.0179182
640.620	0.0180210
640.698	0.0179182
640.776	0.0179074
640.854	0.0179150
640.933	0.0178530
641.011	0.0179134
641.089	0.0179767
641.167	0.0178358
641.245	0.0179758
641.323	0.0179813
641.401	0.0179759
641.479	0.0179068
641.558	0.0179893
641.636	0.0177522
641.714	0.0180682
641.792	0.0179910
641.870	0.0179037
641.948	0.0179645
642.026	0.0178358
642.104	0.0177400
642.183	0.0180164
642.261	0.0181013
642.339	0.0179298
642.417	0.0179928
642.495	0.0180392
642.573	0.0179583
642.651	0.0179243
642.729	0.0180432
642.808	0.0179277
642.886	0.0180180
642.964	0.0178766
643.042	0.0179546
643.120	0.0178932
643.198	0.0178551
643.276	0.0180920
643.354	0.0178978
643.433	0.0180154
643.511	0.0180107
643.589	0.0178175
643.667	0.0179147
643.745	0.0178339
643.823	0.0179718
643.901	0.0178529
643.979	0.0179111
644.058	0.0180220
644.136	0.0179587
644.214	0.0178958
644.292	0.0179829
644.370	0.0179166
644.448	0.0179803
644.526	0.0178822
644.604	0.0179305
644.683	0.0178157
644.761	0.0177160
644.839	0.0180081
644.917	0.0179692
644.995	0.0178505
645.073	0.0179749
645.151	0.0178889
645.229	0.0179906
645.308	0.0179690
645.386	0.0179539
645.464	0.0179399
645.542	0.0180099
645.620	0.0180252
645.698	0.0179874
645.776	0.0180669
645.854	0.0178905
645.933	0.0178146
646.011	0.0179111
646.089	0.0178008
646.167	0.0178804
646.245	0.0179877
646.323	0.0178132
646.401	0.0179530
646.479	0.0180095
646.558	0.0178741
646.636	0.0180458
646.714	0.0179340
646.792	0.0179520
646.870	0.0179248
646.948	0.0180159
647.026	0.0178310
647.104	0.0178877
647.183	0.0179675
647.261	0.0179053
647.339	0.0178524
647.417	0.0180112
647.495	0.0179923
647.573	0.0178092
647.651	0.0179656
647.729	0.0179381
647.808	0.0178921
647.886	0.0179802
647.964	0.0179440
648.042	0.0178432
648.120	0.0179769
648.198	0.0180341
648.276	0.0179335
648.354	0.0179277
648.433	0.0179314
648.511	0.0178823
648.589	0.0180453
648.667	0.0179763
648.745	0.0179073
648.823	0.0177890
648.901	0.0178313
648.979	0.0179161
649.058	0.0180932
649.136	0.0179935
649.214	0.0179133
649.292	0.0179007
649.370	0.0179568
649.448	0.0178671
649.526	0.0177610
649.604	0.0179982
649.683	0.0178657
649.761	0.0179196
649.839	0.0179317
649.917	0.0179580
649.995	0.0179748
650.073	0.0180023
650.151	0.0179230
650.229	0.0178948
650.308	0.0179453
650.386	0.0179795
650.464	0.0178545
650.542	0.0180700
650.620	0.0178658
650.698	0.0179919
650.776	0.0180044
650.854	0.0179482
650.933	0.0178594
651.011	0.0178183
651.089	0.0179339
651.167	0.0178361
651.245	0.0180983
651.323	0.0180542
651.401	0.0179400
651.479	0.0178898
651.558	0.0179201
651.636	0.0179541
651.714	0.0179102
651.792	0.0179231
651.870	0.0179059
651.948	0.0178771
652.026	0.0178931
652.104	0.0178039
652.183	0.0179406
652.261	0.0178493
652.339	0.0178789
652.417	0.0179037
652.495	0.0179727
652.573	0.0179575
652.651	0.0178508
652.729	0.0178666
652.808	0.0179655
652.886	0.0177900
652.964	0.0177615
653.042	0.0179655
653.120	0.0180138
653.198	0.0177787
653.276	0.0177776
653.354	0.0178519
653.433	0.0178580
653.511	0.0179352
653.589	0.0179693
653.667	0.0180444
653.745	0.0178612
653.823	0.0178233
653.901	0.0178748
653.979	0.0178284
654.058	0.0178965
654.136	0.0179195
654.214	0.0179453
654.292	0.0179068
654.370	0.0178973
654.448	0.0179161
654.526	0.0179044
654.604	0.0179336
654.683	0.0180183
654.761	0.0179253
654.839	0.0178149
654.917	0.0178523
654.995	0.0178996
655.073	0.0178777
655.151	0.0179636
655.229	0.0178445
655.308	0.0177276
655.386	0.0178514
655.464	0.0180119
655.542	0.0179192
655.620	0.0177482
655.698	0.0178783
655.776	0.0178300
655.854	0.0177650
655.933	0.0178685
656.011	0.0178828
656.089	0.0179085
656.167	0.0177859
656.245	0.0178600
656.323	0.0180363
656.401	0.0179413
656.479	0.0178733
656.558	0.0178961
656.636	0.0179608
656.714	0.0179506
656.792	0.0179766
656.870	0.0178277
656.948	0.0178950
657.026	0.0177942
657.104	0.0179131
657.183	0.0178431
657.261	0.0180770
657.339	0.0178773
657.417	0.0179361
657.495	0.0178355
657.573	0.0179424
657.651	0.0178802
657.729	0.0179663
657.808	0.0180158
657.886	0.0179233
657.964	0.0179227
658.042	0.0178555
658.120	0.0180479
658.198	0.0178635
658.276	0.0179947
658.354	0.0178235
658.433	0.0177824
658.511	0.0180237
658.589	0.0178233
658.667	0.0179216
658.745	0.0179661
658.823	0.0179929
658.901	0.0178086
658.979	0.0180231
659.058	0.0178750
659.136	0.0180019
659.214	0.0179807
659.292	0.0179243
659.370	0.0177972
659.448	0.0179360
659.526	0.0179099
659.604	0.0180573
659.683	0.0179834
659.761	0.0178429
659.839	0.0177305
659.917	0.0179311
659.995	0.0178250
660.073	0.0178591
660.151	0.0178179
660.229	0.0178003
660.308	0.0179309
660.386	0.0179934
660.464	0.0178468
660.542	0.0178601
660.620	0.0179233
660.698	0.0177450
660.776	0.0179961
660.854	0.0179305
660.933	0.0178146
661.011	0.0178259
661.089	0.0177499
661.167	0.0178893
661.245	0.0178829
661.323	0.0179555
661.401	0.0179124
661.479	0.0177847
661.558	0.0178071
661.636	0.0178470
661.714	0.0178479
661.792	0.0178693
661.870	0.0178411
661.948	0.0178918
662.026	0.0179704
662.104	0.0178521
662.183	0.0179807
662.261	0.0178479
662.339	0.0179506
662.417	0.0178839
662.495	0.0178511
662.573	0.0179348
662.651	0.0177676
662.729	0.0178242
662.808	0.0179328
662.886	0.0180322
662.964	0.0178714
663.042	0.0178903
663.120	0.0178903
663.198	0.0178271
663.276	0.0179080
663.354	0.0179740
663.433	0.0179015
663.511	0.0177946
663.589	0.0179696
663.667	0.0178606
663.745	0.0179234
663.823	0.0178805
663.901	0.0178560
663.979	0.0178963
664.058	0.0179105
664.136	0.0180262
664.214	0.0179024
664.292	0.0180134
664.370	0.0179266
664.448	0.0178874
664.526	0.0179457
664.604	0.0178183
664.683	0.0179768
664.761	0.0178960
664.839	0.0178834
664.917	0.0179633
664.995	0.0180525
665.073	0.0178624
665.151	0.0179266
665.229	0.0179297
665.308	0.0177638
665.386	0.0178713
665.464	0.0180146
665.542	0.0180040
665.620	0.0178350
665.698	0.0177372
665.776	0.0178488
665.854	0.0179790
665.933	0.0178605
666.011	0.0180110
666.089	0.0179821
666.167	0.0179457
666.245	0.0179791
666.323	0.0179700
666.401	0.0179686
666.479	0.0180603
666.558	0.0179258
666.636	0.0179648
666.714	0.0178010
666.792	0.0179021
666.870	0.0178746
666.948	0.0180151
667.026	0.0179465
667.104	0.0178595
667.183	0.0179787
667.261	0.0178631
667.339	0.0178196
667.417	0.0180306
667.495	0.0180298
667.573	0.0179079
667.651	0.0179469
667.729	0.0180386
667.808	0.0179546
667.886	0.0180227
667.964	0.0181039
668.042	0.0179566
668.120	0.0178449
668.198	0.0179213
668.276	0.0179551
668.354	0.0179852
668.433	0.0179736
668.511	0.0179768
668.589	0.0179757
668.667	0.0179354
668.745	0.0180128
668.823	0.0179950
668.901	0.0178564
668.979	0.0179182
669.058	0.0179079
669.136	0.0179457
669.214	0.0178571
669.292	0.0179149
669.370	0.0179224
669.448	0.0179179
669.526	0.0178664
669.604	0.0179736
669.683	0.0180428
669.761	0.0179813
669.839	0.0179679
669.917	0.0180903
669.995	0.0178952
670.073	0.0178001
670.151	0.0179204
670.229	0.0179935
670.308	0.0178587
670.386	0.0178642
670.464	0.0179498
670.542	0.0180324
670.620	0.0179099
670.698	0.0179281
670.776	0.0178513
670.854	0.0179110
670.933	0.0179890
671.011	0.0179076
671.089	0.0180099
671.167	0.0180399
671.245	0.0179148
671.323	0.0179078
671.401	0.0178252
671.479	0.0178168
671.558	0.0179121
671.636	0.0178713
671.714	0.0181041
671.792	0.0179390
671.870	0.0178888
671.948	0.0180209
672.026	0.0178594
672.104	0.0178216
672.183	0.0179086
672.261	0.0178711
672.339	0.0179106
672.417	0.0177909
672.495	0.0179637
672.573	0.0180171
672.651	0.0179398
672.729	0.0178803
672.808	0.0178684
672.886	0.0179124
672.964	0.0179892
673.042	0.0178854
673.120	0.0179754
673.198	0.0178793
673.276	0.0178227
673.354	0.0178449
673.433	0.0178989
673.511	0.0179732
673.589	0.0179299
673.667	0.0178917
673.745	0.0179898
673.823	0.0179676
673.901	0.0179385
673.979	0.0178943
674.058	0.0179451
674.136	0.0179568
674.214	0.0180357
674.292	0.0179559
674.370	0.0179299
674.448	0.0179717
674.526	0.0178408
674.604	0.0179105
674.683	0.0179057
674.761	0.0180138
674.839	0.0180151
674.917	0.0180387
674.995	0.0179225
675.073	0.0178664
675.151	0.0178720
675.229	0.0179231
675.308	0.0179386
675.386	0.0179842
675.464	0.0178693
675.542	0.0179341
675.620	0.0178413
675.698	0.0179684
675.776	0.0179394
675.854	0.0178826
675.933	0.0178964
676.011	0.0178440
676.089	0.0179214
676.167	0.0179276
676.245	0.0179646
676.323	0.0181101
676.401	0.0179160
676.479	0.0178884
676.558	0.0180054
676.636	0.0180083
676.714	0.0180307
676.792	0.0180202
676.870	0.0179460
676.948	0.0179176
677.026	0.0180016
677.104	0.0179974
677.183	0.0180286
677.261	0.0180654
677.339	0.0179402
677.417	0.0178500
677.495	0.0179215
677.573	0.0179603
677.651	0.0180060
677.729	0.0179813
677.808	0.0178758
677.886	0.0179723
677.964	0.0180447
678.042	0.0178657
678.120	0.0180214
678.198	0.0179253
678.276	0.0179466
678.354	0.0179593
678.433	0.0179379
678.511	0.0179479
678.589	0.0179053
678.667	0.0179636
678.745	0.0179357
678.823	0.0179745
678.901	0.0178643
678.979	0.0178728
679.058	0.0178642
679.136	0.0177177
679.214	0.0179695
679.292	0.0179661
679.370	0.0178999
679.448	0.0179835
679.526	0.0179005
679.604	0.0179569
679.683	0.0177532
679.761	0.0179256
679.839	0.0178923
679.917	0.0178304
679.995	0.0178873
680.073	0.0179926
680.151	0.0179804
680.229	0.0179730
680.308	0.0178995
680.386	0.0178500
680.464	0.0179617
680.542	0.0180293
680.620	0.0178844
680.698	0.0179614
680.776	0.0179914
680.854	0.0178691
680.933	0.0177665
681.011	0.0180027
681.089	0.0178910
681.167	0.0178886
681.245	0.0178586
681.323	0.0180029
681.401	0.0179368
681.479	0.0179322
681.558	0.0178925
681.636	0.0180191
681.714	0.0178897
681.792	0.0178171
681.870	0.0179004
681.948	0.0178642
682.026	0.0180087
682.104	0.0178826
682.183	0.0180584
682.261	0.0179034
682.339	0.0178348
682.417	0.0178561
682.495	0.0180186
682.573	0.0179215
682.651	0.0178728
682.729	0.0178755
682.808	0.0177171
682.886	0.0178441
682.964	0.0179382
683.042	0.0179390
683.120	0.0179762
683.198	0.0180081
683.276	0.0180444
683.354	0.0178111
683.433	0.0179198
683.511	0.0179521
683.589	0.0179541
683.667	0.0178986
683.745	0.0177999
683.823	0.0178012
683.901	0.0179259
683.979	0.0177926
684.058	0.0178250
684.136	0.0178854
684.214	0.0179050
684.292	0.0179830
684.370	0.0179306
684.448	0.0179433
684.526	0.0180148
684.604	0.0178780
684.683	0.0179291
684.761	0.0179582
684.839	0.0178653
684.917	0.0178568
684.995	0.0178614
685.073	0.0178262
685.151	0.0179587
685.229	0.0180074
685.308	0.0178723
685.386	0.0178521
685.464	0.0179130
685.542	0.0180573
685.620	0.0179839
685.698	0.0179861
685.776	0.0178520
685.854	0.0180035
685.933	0.0179251
686.011	0.0178439
686.089	0.0180552
686.167	0.0179319
686.245	0.0180243
686.323	0.0178709
686.401	0.0179678
686.479	0.0178557
686.558	0.0179008
686.636	0.0179719
686.714	0.0179349
686.792	0.0179266
686.870	0.0179971
686.948	0.0178918
687.026	0.0179517
687.104	0.0179655
687.183	0.0178690
687.261	0.0179198
687.339	0.0179016
687.417	0.0179397
687.495	0.0178373
687.573	0.0178993
687.651	0.0179404
687.729	0.0179003
687.808	0.0179660
687.886	0.0179293
687.964	0.0180257
688.042	0.0180736
688.120	0.0179253
688.198	0.0180330
688.276	0.0180704
688.354	0.0180106
688.433	0.0179739
688.511	0.0180522
688.589	0.0180066
688.667	0.0179063
688.745	0.0179316
688.823	0.0179302
688.901	0.0179991
688.979	0.0177753
689.058	0.0179567
689.136	0.0180497
689.214	0.0178645
689.292	0.0180481
689.370	0.0179578
689.448	0.0178874
689.526	0.0179769
689.604	0.0179933
689.683	0.0179322
689.761	0.0178500
689.839	0.0179276
689.917	0.0178762
689.995	0.0179307
690.073	0.0179704
690.151	0.0178900
690.229	0.0179734
690.308	0.0179207
690.386	0.0178697
690.464	0.0179170
690.542	0.0179133
690.620	0.0177681
690.698	0.0178442
690.776	0.0178802
690.854	0.0178273
690.933	0.0178434
691.011	0.0179363
691.089	0.0178721
691.167	0.0179040
691.245	0.0178479
691.323	0.0179302
691.401	0.0178158
691.479	0.0177953
691.558	0.0178606
691.636	0.0179256
691.714	0.0178664
691.792	0.0178881
691.870	0.0179333
691.948	0.0179014
692.026	0.0178899
692.104	0.0178877
692.183	0.0178941
692.261	0.0177831
692.339	0.0178567
692.417	0.0178357
692.495	0.0177920
692.573	0.0178658
692.651	0.0179554
692.729	0.0178640
692.808	0.0178617
692.886	0.0178790
692.964	0.0179826
693.042	0.0179310
693.120	0.0177561
693.198	0.0178135
693.276	0.0177456
693.354	0.0178575
693.433	0.0178959
693.511	0.0177949
693.589	0.0178568
693.667	0.0178738
693.745	0.0177995
693.823	0.0178189
693.901	0.0177896
693.979	0.0177572
694.058	0.0178761
694.136	0.0179759
694.214	0.0177801
694.292	0.0178716
694.370	0.0178333
694.448	0.0177794
694.526	0.0178408
694.604	0.0177486
694.683	0.0178029
694.761	0.0176681
694.839	0.0178481
694.917	0.0178237
694.995	0.0177940
695.073	0.0178932
695.151	0.0177141
695.229	0.0178952
695.308	0.0177780
695.386	0.0177551
695.464	0.0179138
695.542	0.0179138
695.620	0.0178928
695.698	0.0179718
695.776	0.0179412
695.854	0.0178654
695.933	0.0178288
696.011	0.0177987
696.089	0.0179717
696.167	0.0178296
696.245	0.0179463
696.323	0.0178663
696.401	0.0178758
696.479	0.0178258
696.558	0.0177532
696.636	0.0178274
696.714	0.0178055
696.792	0.0177735
696.870	0.0178407
696.948	0.0178681
697.026	0.0179469
697.104	0.0180858
697.183	0.0180421
697.261	0.0180605
697.339	0.0179879
697.417	0.0181288
697.495	0.0180415
697.573	0.0180045
697.651	0.0180190
697.729	0.0180647
697.808	0.0178125
697.886	0.0177818
697.964	0.0178512
698.042	0.0178904
698.120	0.0177889
698.198	0.0177232
698.276	0.0175091
698.354	0.0175960
698.433	0.0175847
698.511	0.0175095
698.589	0.0174680
698.667	0.0174150
698.745	0.0173446
698.823	0.0174725
698.901	0.0175563
698.979	0.0176141
699.058	0.0177203
699.136	0.0177655
699.214	0.0179797
699.292	0.0181413
699.370	0.0183144
699.448	0.0182887
699.526	0.0184632
699.604	0.0186991
699.683	0.0186758
699.761	0.0187023
699.839	0.0184459
699.917	0.0185872
699.995	0.0185313
700.073	0.0184788
700.151	0.0182968
700.229	0.0182470
700.308	0.0181202
700.386	0.0181103
700.464	0.0179370
700.542	0.0177071
700.620	0.0175326
700.698	0.0174250
700.776	0.0173253
700.854	0.0173370
700.933	0.0173130
701.011	0.0171567
701.089	0.0173090
701.167	0.0170795
701.245	0.0171555
701.323	0.0172005
701.401	0.0172932
701.479	0.0172462
701.558	0.0174300
701.636	0.0176061
701.714	0.0176567
701.792	0.0177795
701.870	0.0179926
701.948	0.0181618
702.026	0.0183137
702.104	0.0184476
702.183	0.0186040
702.261	0.0188094
702.339	0.0188812
702.417	0.0191814
702.495	0.0192130
702.573	0.0192451
702.651	0.0189945
702.729	0.0190075
702.808	0.0189175
702.886	0.0186674
702.964	0.0186473
703.042	0.0183640
703.120	0.0179594
703.198	0.0177205
703.276	0.0172910
703.354	0.0171653
703.433	0.0170376
703.511	0.0167597
703.589	0.0166315
703.667	0.0166114
703.745	0.0166085
703.823	0.0166492
703.901	0.0167506
703.979	0.0169538
704.058	0.0170217
704.136	0.0172040
704.214	0.0174076
704.292	0.0177175
704.370	0.0178125
704.448	0.0180423
704.526	0.0180894
704.604	0.0183388
704.683	0.0181826
704.761	0.0183498
704.839	0.0182867
704.917	0.0183110
704.995	0.0184189
705.073	0.0184399
705.151	0.0184864
705.229	0.0183400
705.308	0.0184082
705.386	0.0184698
705.464	0.0184661
705.542	0.0184784
705.620	0.0183345
705.698	0.0184179
705.776	0.0182992
705.854	0.0181539
705.933	0.0178913
706.011	0.0177898
706.089	0.0178635
706.167	0.0176894
706.245	0.0175794
706.323	0.0173899
706.401	0.0173935
706.479	0.0172961
706.558	0.0173630
706.636	0.0173174
706.714	0.0174444
706.792	0.0172765
706.870	0.0172894
706.948	0.0173261
707.026	0.0175340
707.104	0.0176542
707.183	0.0177828
707.261	0.0180342
707.339	0.0180702
707.417	0.0182294
707.495	0.0184605
707.573	0.0185864
707.651	0.0186632
707.729	0.0187571
707.808	0.0188501
707.886	0.0185388
707.964	0.0186259
708.042	0.0186471
708.120	0.0183772
708.198	0.0180388
708.276	0.0180241
708.354	0.0178174
708.433	0.0176385
708.511	0.0175191
708.589	0.0173687
708.667	0.0173996
708.745	0.0173861
708.823	0.0172314
708.901	0.0173029
708.979	0.0173412
709.058	0.0173691
709.136	0.0174491
709.214	0.0175121
709.292	0.0177534
709.370	0.0177701
709.448	0.0178360
709.526	0.0180568
709.604	0.0181811
709.683	0.0182053
709.761	0.0183287
709.839	0.0184702
709.917	0.0183586
709.995	0.0184473
710.073	0.0182903
710.151	0.0182703
710.229	0.0181532
710.308	0.0180759
710.386	0.0179474
710.464	0.0176872
710.542	0.0177290
710.620	0.0175990
710.698	0.0175664
710.776	0.0176163
710.854	0.0175520
710.933	0.0174915
711.011	0.0176987
711.089	0.0177517
711.167	0.0181055
711.245	0.0180439
711.323	0.0181519
711.401	0.0182179
711.479	0.0181169
711.558	0.0183434
711.636	0.0181893
711.714	0.0182309
711.792	0.0183228
711.870	0.0182135
711.948	0.0180008
712.026	0.0180142
712.104	0.0180079
712.183	0.0179244
712.261	0.0178606
712.339	0.0177825
712.417	0.0177530
712.495	0.0176161
712.573	0.0175866
712.651	0.0174637
712.729	0.0175572
712.808	0.0175387
712.886	0.0175459
712.964	0.0176894
713.042	0.0176300
713.120	0.0176093
713.198	0.0176888
713.276	0.0178614
713.354	0.0178596
713.433	0.0179636
713.511	0.0178918
713.589	0.0181219
713.667	0.0180811
713.745	0.0180505
713.823	0.0180881
713.901	0.0180170
713.979	0.0180516
714.058	0.0180602
714.136	0.0179586
714.214	0.0179147
714.292	0.0180986
714.370	0.0179285
714.448	0.0181836
714.526	0.0179575
714.604	0.0181592
714.683	0.0180564
714.761	0.0181003
714.839	0.0182019
714.917	0.0182750
714.995	0.0182581
715.073	0.0181969
715.151	0.0180013
715.229	0.0181712
715.308	0.0182018
715.386	0.0179528
715.464	0.0179312
715.542	0.0178787
715.620	0.0177266
715.698	0.0178947
715.776	0.0179868
715.854	0.0179810
715.933	0.0178543
716.011	0.0180210
716.089	0.0180072
716.167	0.0180311
716.245	0.0181462
716.323	0.0178855
716.401	0.0179761
716.479	0.0183012
716.558	0.0182203
716.636	0.0181349
716.714	0.0181178
716.792	0.0182532
716.870	0.0180993
716.948	0.0180307
717.026	0.0181228
717.104	0.0179816
717.183	0.0180014
717.261	0.0179305
717.339	0.0178632
717.417	0.0177172
717.495	0.0176692
717.573	0.0176945
717.651	0.0176785
717.729	0.0176407
717.808	0.0176023
717.886	0.0177524
717.964	0.0176868
718.042	0.0176671
718.120	0.0177426
718.198	0.0178280
718.276	0.0178729
718.354	0.0177885
718.433	0.0178204
718.511	0.0178836
718.589	0.0177992
718.667	0.0178645
718.745	0.0178537
718.823	0.0177428
718.901	0.0178570
718.979	0.0178142
719.058	0.0178802
719.136	0.0178711
719.214	0.0178226
719.292	0.0177947
719.370	0.0178832
719.448	0.0179879
719.526	0.0178587
719.604	0.0177775
719.683	0.0179017
719.761	0.0178864
719.839	0.0178641
719.917	0.0177966
719.995	0.0179163
720.073	0.0179244
720.151	0.0179423
720.229	0.0177194
720.308	0.0178905
720.386	0.0178896
720.464	0.0178374
720.542	0.0180907
720.620	0.0178627
720.698	0.0178316
720.776	0.0178381
720.854	0.0179372
720.933	0.0179868
721.011	0.0180241
721.089	0.0179527
721.167	0.0179453
721.245	0.0180682
721.323	0.0179766
721.401	0.0181330
721.479	0.0182578
721.558	0.0181145
721.636	0.0180350
721.714	0.0181379
721.792	0.0181007
721.870	0.0179470
721.948	0.0179816
722.026	0.0179998
722.104	0.0178110
722.183	0.0177251
722.261	0.0176697
722.339	0.0175465
722.417	0.0175738
722.495	0.0175275
722.573	0.0175687
722.651	0.0175576
722.729	0.0175494
722.808	0.0176860
722.886	0.0178089
722.964	0.0178081
723.042	0.0177975
723.120	0.0179591
723.198	0.0180556
723.276	0.0180892
723.354	0.0180524
723.433	0.0181512
723.511	0.0181292
723.589	0.0180967
723.667	0.0180966
723.745	0.0179983
723.823	0.0179572
723.901	0.0181683
723.979	0.0178223
724.058	0.0178500
724.136	0.0178139
724.214	0.0176989
724.292	0.0177732
724.370	0.0175708
724.448	0.0176438
724.526	0.0177354
724.604	0.0176012
724.683	0.0177044
724.761	0.0176772
724.839	0.0176555
724.917	0.0178875
724.995	0.0178802
725.073	0.0179344
725.151	0.0178360
725.229	0.0180186
725.308	0.0180909
725.386	0.0181638
725.464	0.0182056
725.542	0.0180881
725.620	0.0181335
725.698	0.0182280
725.776	0.0181727
725.854	0.0180352
725.933	0.0181136
726.011	0.0179952
726.089	0.0179703
726.167	0.0180698
726.245	0.0178681
726.323	0.0177769
726.401	0.0179505
726.479	0.0178788
726.558	0.0178387
726.636	0.0177589
726.714	0.0177921
726.792	0.0179316
726.870	0.0178590
726.948	0.0179436
727.026	0.0180914
727.104	0.0180688
727.183	0.0180043
727.261	0.0180950
727.339	0.0179585
727.417	0.0180399
727.495	0.0181413
727.573	0.0180773
727.651	0.0179871
727.729	0.0180468
727.808	0.0178931
727.886	0.0178078
727.964	0.0178952
728.042	0.0177657
728.120	0.0176569
728.198	0.0178415
728.276	0.0178593
728.354	0.0176563
728.433	0.0177670
728.511	0.0176682
728.589	0.0175748
728.667	0.0176944
728.745	0.0177938
728.823	0.0177547
728.901	0.0176788
728.979	0.0176967
729.058	0.0177176
729.136	0.0177240
729.214	0.0176839
729.292	0.0178215
729.370	0.0178536
729.448	0.0179590
729.526	0.0177776
729.604	0.0179167
729.683	0.0178975
729.761	0.0177713
729.839	0.0179060
729.917	0.0178796
729.995	0.0178139
730.073	0.0178664
730.151	0.0179011
730.229	0.0179018
730.308	0.0179019
730.386	0.0180117
730.464	0.0179574
730.542	0.0179708
730.620	0.0179117
730.698	0.0178242
730.776	0.0179781
730.854	0.0180531
730.933	0.0178680
731.011	0.0179670
731.089	0.0179737
731.167	0.0179833
731.245	0.0180395
731.323	0.0180300
731.401	0.0180489
731.479	0.0181577
731.558	0.0181338
731.636	0.0181345
731.714	0.0182147
731.792	0.0181740
731.870	0.0181837
731.948	0.0181425
732.026	0.0181165
732.104	0.0181209
732.183	0.0179497
732.261	0.0178836
732.339	0.0178706
732.417	0.0180662
732.495	0.0179086
732.573	0.0178741
732.651	0.0177412
732.729	0.0176918
732.808	0.0177547
732.886	0.0175915
732.964	0.0179343
733.042	0.0178304
733.120	0.0177669
733.198	0.0178407
733.276	0.0179591
733.354	0.0178044
733.433	0.0178120
733.511	0.0178735
733.589	0.0179092
733.667	0.0179377
733.745	0.0180159
733.823	0.0177964
733.901	0.0180779
733.979	0.0178958
734.058	0.0178613
734.136	0.0180090
734.214	0.0180489
734.292	0.0179443
734.370	0.0179519
734.448	0.0179598
734.526	0.0179070
734.604	0.0178195
734.683	0.0178849
734.761	0.0180196
734.839	0.0179051
734.917	0.0178371
734.995	0.0179726
735.073	0.0179218
735.151	0.0178668
735.229	0.0180658
735.308	0.0179514
735.386	0.0180639
735.464	0.0180363
735.542	0.0178968
735.620	0.0181009
735.698	0.0180956
735.776	0.0180148
735.854	0.0180728
735.933	0.0180639
736.011	0.0181191
736.089	0.0180927
736.167	0.0180401
736.245	0.0179044
736.323	0.0179835
736.401	0.0179610
736.479	0.0179808
736.558	0.0178879
736.636	0.0179759
736.714	0.0179913
736.792	0.0179581
736.870	0.0180376
736.948	0.0179709
737.026	0.0180318
737.104	0.0180658
737.183	0.0177477
737.261	0.0180013
737.339	0.0179602
737.417	0.0179792
737.495	0.0179140
737.573	0.0178816
737.651	0.0178667
737.729	0.0177407
737.808	0.0178158
737.886	0.0178694
737.964	0.0178136
738.042	0.0177016
738.120	0.0177748
738.198	0.0176571
738.276	0.0176787
738.354	0.0177483
738.433	0.0178185
738.511	0.0177211
738.589	0.0177516
738.667	0.0177203
738.745	0.0177608
738.823	0.0178867
738.901	0.0178128
738.979	0.0178118
739.058	0.0179112
739.136	0.0179356
739.214	0.0179945
739.292	0.0180616
739.370	0.0180132
739.448	0.0179457
739.526	0.0179248
739.604	0.0180032
739.683	0.0180722
739.761	0.0180147
739.839	0.0179293
739.917	0.0179085
739.995	0.0179147
740.073	0.0180422
740.151	0.0180289
740.229	0.0179005
740.308	0.0180377
740.386	0.0180920
740.464	0.0180205
740.542	0.0181525
740.620	0.0181186
740.698	0.0181966
740.776	0.0182258
740.854	0.0180164
740.933	0.0181359
741.011	0.0179967
741.089	0.0180775
741.167	0.0181084
741.245	0.0180028
741.323	0.0181557
741.401	0.0179249
741.479	0.0178964
741.558	0.0179446
741.636	0.0177460
741.714	0.0180030
741.792	0.0178047
741.870	0.0178070
741.948	0.0177344
742.026	0.0177567
742.104	0.0177362
742.183	0.0178413
742.261	0.0179020
742.339	0.0179832
742.417	0.0179078
742.495	0.0180428
742.573	0.0180194
742.651	0.0179054
742.729	0.0178110
742.808	0.0179392
742.886	0.0180592
742.964	0.0179327
743.042	0.0177989
743.120	0.0178422
743.198	0.0179623
743.276	0.0178900
743.354	0.0178645
743.433	0.0179047
743.511	0.0177908
743.589	0.0178736
743.667	0.0178074
743.745	0.0179435
743.823	0.0178493
743.901	0.0179662
743.979	0.0179148
744.058	0.0178174
744.136	0.0178635
744.214	0.0179484
744.292	0.0179344
744.370	0.0179331
744.448	0.0180482
744.526	0.0179639
744.604	0.0179011
744.683	0.0178471
744.761	0.0179498
744.839	0.0179132
744.917	0.0180641
744.995	0.0179578
745.073	0.0177892
745.151	0.0178452
745.229	0.0179266
745.308	0.0179111
745.386	0.0178793
745.464	0.0177963
745.542	0.0177316
745.620	0.0178886
745.698	0.0180113
745.776	0.0179898
745.854	0.0178582
745.933	0.0178454
746.011	0.0179023
746.089	0.0178047
746.167	0.0178994
746.245	0.0179443
746.323	0.0179296
746.401	0.0180223
746.479	0.0179723
746.558	0.0179996
746.636	0.0179146
746.714	0.0179613
746.792	0.0178511
746.870	0.0180266
746.948	0.0180094
747.026	0.0179145
747.104	0.0180058
747.183	0.0178997
747.261	0.0178358
747.339	0.0179726
747.417	0.0180920
747.495	0.0179924
747.573	0.0178929
747.651	0.0179937
747.729	0.0180155
747.808	0.0179646
747.886	0.0178159
747.964	0.0178151
748.042	0.0179736
748.120	0.0179198
748.198	0.0178391
748.276	0.0177371
748.354	0.0178475
748.433	0.0178619
748.511	0.0178760
748.589	0.0179317
748.667	0.0177177
748.745	0.0178094
748.823	0.0177000
748.901	0.0178751
748.979	0.0180447
749.058	0.0179956
749.136	0.0179565
749.214	0.0178939
749.292	0.0180719
749.370	0.0179431
749.448	0.0182031
749.526	0.0178426
749.604	0.0180386
749.683	0.0179841
749.761	0.0180314
749.839	0.0180280
749.917	0.0180663
749.995	0.0179360
750.073	0.0178856
750.151	0.0179357
750.229	0.0178026
750.308	0.0179100
750.386	0.0177790
750.464	0.0178689
750.542	0.0178433
750.620	0.0176876
750.698	0.0178542
750.776	0.0178191
750.854	0.0177024
750.933	0.0178242
751.011	0.0178292
751.089	0.0175939
751.167	0.0177736
751.245	0.0178728
751.323	0.0177374
751.401	0.0178210
751.479	0.0177018
751.558	0.0179477
751.636	0.0179210
751.714	0.0177995
751.792	0.0177922
751.870	0.0178101
751.948	0.0177508
752.026	0.0176764
752.104	0.0177676
752.183	0.0178512
752.261	0.0176935
752.339	0.0176898
752.417	0.0178033
752.495	0.0178600
752.573	0.0178763
752.651	0.0179249
752.729	0.0178375
752.808	0.0178284
752.886	0.0179352
752.964	0.0177755
753.042	0.0179494
753.120	0.0180491
753.198	0.0177730
753.276	0.0179589
753.354	0.0179995
753.433	0.0180032
753.511	0.0179685
753.589	0.0179038
753.667	0.0179967
753.745	0.0180419
753.823	0.0181440
753.901	0.0181449
753.979	0.0180827
754.058	0.0180928
754.136	0.0180926
754.214	0.0180032
754.292	0.0180801
754.370	0.0180325
754.448	0.0181182
754.526	0.0181140
754.604	0.0180186
754.683	0.0180748
754.761	0.0180209
754.839	0.0180553
754.917	0.0180147
754.995	0.0178754
755.073	0.0179150
755.151	0.0179121
755.229	0.0178061
755.308	0.0178728
755.386	0.0179176
755.464	0.0178819
755.542	0.0178905
755.620	0.0178516
755.698	0.0178400
755.776	0.0178832
755.854	0.0176366
755.933	0.0178002
756.011	0.0180553
756.089	0.0178542
756.167	0.0176733
756.245	0.0179101
756.323	0.0179029
756.401	0.0179345
756.479	0.0176932
756.558	0.0179310
756.636	0.0178886
756.714	0.0178583
756.792	0.0179409
756.870	0.0179900
756.948	0.0178456
757.026	0.0179182
757.104	0.0178391
757.183	0.0176830
757.261	0.0177834
757.339	0.0179050
757.417	0.0177682
757.495	0.0177421
757.573	0.0177734
757.651	0.0177163
757.729	0.0177693
757.808	0.0176690
757.886	0.0176615
757.964	0.0178889
758.042	0.0176984
758.120	0.0178481
758.198	0.0178331
758.276	0.0178782
758.354	0.0178736
758.433	0.0178857
758.511	0.0177459
758.589	0.0178339
758.667	0.0177684
758.745	0.0178166
758.823	0.0179851
758.901	0.0179435
758.979	0.0179418
759.058	0.0177947
759.136	0.0179498
759.214	0.0177839
759.292	0.0177180
759.370	0.0178598
759.448	0.0178417
759.526	0.0179535
759.604	0.0179079
759.683	0.0177990
759.761	0.0178392
759.839	0.0178663
759.917	0.0178973
759.995	0.0178279
760.073	0.0178970
760.151	0.0178725
760.229	0.0179395
760.308	0.0180225
760.386	0.0179251
760.464	0.0180543
760.542	0.0179707
760.620	0.0180255
760.698	0.0179211
760.776	0.0179802
760.854	0.0179606
760.933	0.0178787
761.011	0.0181039
761.089	0.0180847
761.167	0.0178391
761.245	0.0179357
761.323	0.0178966
761.401	0.0179897
761.479	0.0179137
761.558	0.0178554
761.636	0.0179060
761.714	0.0180046
761.792	0.0179140
761.870	0.0178601
761.948	0.0179485
762.026	0.0179549
762.104	0.0179182
762.183	0.0180038
762.261	0.0180128
762.339	0.0181345
762.417	0.0180870
762.495	0.0180329
762.573	0.0179360
762.651	0.0179491
762.729	0.0179443
762.808	0.0180031
762.886	0.0179636
762.964	0.0180447
763.042	0.0179331
763.120	0.0178825
763.198	0.0179079
763.276	0.0178970
763.354	0.0178452
763.433	0.0179194
763.511	0.0179498
763.589	0.0178607
763.667	0.0179040
763.745	0.0179073
763.823	0.0179409
763.901	0.0179511
763.979	0.0180479
764.058	0.0179938
764.136	0.0180196
764.214	0.0180037
764.292	0.0180476
764.370	0.0180817
764.448	0.0179829
764.526	0.0180098
764.604	0.0180826
764.683	0.0179378
764.761	0.0179333
764.839	0.0179841
764.917	0.0179549
764.995	0.0178632
765.073	0.0178445
765.151	0.0178434
765.229	0.0178718
765.308	0.0178201
765.386	0.0178774
765.464	0.0177472
765.542	0.0177236
765.620	0.0178159
765.698	0.0178761
765.776	0.0177320
765.854	0.0177763
765.933	0.0179185
766.011	0.0180673
766.089	0.0178506
766.167	0.0179149
766.245	0.0178726
766.323	0.0179836
766.401	0.0180067
766.479	0.0181471
766.558	0.0179702
766.636	0.0181017
766.714	0.0179716
766.792	0.0180557
766.870	0.0180623
766.948	0.0180396
767.026	0.0179079
767.104	0.0180508
767.183	0.0180614
767.261	0.0179088
767.339	0.0180561
767.417	0.0178982
767.495	0.0179472
767.573	0.0178458
767.651	0.0179045
767.729	0.0178887
767.808	0.0180170
767.886	0.0178730
767.964	0.0181013
768.042	0.0180597
768.120	0.0178392
768.198	0.0179583
768.276	0.0179967
768.354	0.0179488
768.433	0.0179558
768.511	0.0179735
768.589	0.0179739
768.667	0.0179361
768.745	0.0177897
768.823	0.0178676
768.901	0.0180503
768.979	0.0179287
769.058	0.0178335
769.136	0.0179413
769.214	0.0180307
769.292	0.0179305
769.370	0.0180360
769.448	0.0178651
769.526	0.0179681
769.604	0.0180522
769.683	0.0179368
769.761	0.0178857
769.839	0.0181049
769.917	0.0180019
769.995	0.0180374
770.073	0.0179327
770.151	0.0180642
770.229	0.0178721
770.308	0.0178707
770.386	0.0180120
770.464	0.0178881
770.542	0.0179023
770.620	0.0179530
770.698	0.0179604
770.776	0.0178503
770.854	0.0179308
770.933	0.0178390
771.011	0.0177715
771.089	0.0178120
771.167	0.0179144
771.245	0.0179058
771.323	0.0178289
771.401	0.0179292
771.479	0.0179893
771.558	0.0179717
771.636	0.0179803
771.714	0.0180215
771.792	0.0178517
771.870	0.0178840
771.948	0.0179481
772.026	0.0179749
772.104	0.0179525
772.183	0.0179666
772.261	0.0177590
772.339	0.0178011
772.417	0.0179051
772.495	0.0179457
772.573	0.0178938
772.651	0.0179428
772.729	0.0177325
772.808	0.0177653
772.886	0.0179268
772.964	0.0177831
773.042	0.0178951
773.120	0.0178728
773.198	0.0177309
773.276	0.0178210
773.354	0.0178461
773.433	0.0179020
773.511	0.0178207
773.589	0.0178735
773.667	0.0178983
773.745	0.0177693
773.823	0.0178886
773.901	0.0178880
773.979	0.0179304
774.058	0.0178814
774.136	0.0179332
774.214	0.0180055
774.292	0.0179465
774.370	0.0179416
774.448	0.0178597
774.526	0.0178931
774.604	0.0179609
774.683	0.0179201
774.761	0.0179964
774.839	0.0178511
774.917	0.0178526
774.995	0.0178716
775.073	0.0178520
775.151	0.0179182
775.229	0.0178774
775.308	0.0178327
775.386	0.0177276
775.464	0.0176532
775.542	0.0176993
775.620	0.0177380
775.698	0.0179033
775.776	0.0178490
775.854	0.0177773
775.933	0.0179240
776.011	0.0178268
776.089	0.0179453
776.167	0.0181171
776.245	0.0180128
776.323	0.0180567
776.401	0.0181001
776.479	0.0181281
776.558	0.0181036
776.636	0.0180483
776.714	0.0180722
776.792	0.0181367
776.870	0.0181693
776.948	0.0181393
777.026	0.0179211
777.104	0.0179657
777.183	0.0179758
777.261	0.0180127
777.339	0.0179649
777.417	0.0179422
777.495	0.0178149
777.573	0.0179333
777.651	0.0177907
777.729	0.0177219
777.808	0.0178232
777.886	0.0178888
777.964	0.0177985
778.042	0.0178705
778.120	0.0177335
778.198	0.0178989
778.276	0.0178166
778.354	0.0179747
778.433	0.0178355
778.511	0.0179036
778.589	0.0179642
778.667	0.0180830
778.745	0.0179966
778.823	0.0179163
778.901	0.0179713
778.979	0.0178915
779.058	0.0179813
779.136	0.0179933
779.214	0.0179642
779.292	0.0180697
779.370	0.0179516
779.448	0.0179635
779.526	0.0179168
779.604	0.0178234
779.683	0.0178604
779.761	0.0178400
779.839	0.0177383
779.917	0.0179320
779.995	0.0179501
780.073	0.0178934
780.151	0.0178598
780.229	0.0180200
780.308	0.0179333
780.386	0.0178255
780.464	0.0179771
780.542	0.0179238
780.620	0.0178403
780.698	0.0178026
780.776	0.0178942
780.854	0.0179363
780.933	0.0179152
781.011	0.0179496
781.089	0.0179160
781.167	0.0178522
781.245	0.0179121
781.323	0.0179670
781.401	0.0179176
781.479	0.0178922
781.558	0.0178843
781.636	0.0178144
781.714	0.0179223
781.792	0.0178393
781.870	0.0177432
781.948	0.0177632
782.026	0.0178355
782.104	0.0177921
782.183	0.0178064
782.261	0.0178109
782.339	0.0178358
782.417	0.0177949
782.495	0.0178187
782.573	0.0178139
782.651	0.0178532
782.729	0.0178267
782.808	0.0177735
782.886	0.0178638
782.964	0.0180363
783.042	0.0180330
783.120	0.0178786
783.198	0.0178957
783.276	0.0178707
783.354	0.0180094
783.433	0.0180167
783.511	0.0179244
783.589	0.0179204
783.667	0.0180396
783.745	0.0179478
783.823	0.0178130
783.901	0.0178762
783.979	0.0180405
784.058	0.0179247
784.136	0.0179204
784.214	0.0180317
784.292	0.0178717
784.370	0.0179633
784.448	0.0179353
784.526	0.0179263
784.604	0.0179004
784.683	0.0179352
784.761	0.0178991
784.839	0.0179215
784.917	0.0179208
784.995	0.0179613
785.073	0.0179888
785.151	0.0179477
785.229	0.0179660
785.308	0.0179514
785.386	0.0179888
785.464	0.0178472
785.542	0.0177861
785.620	0.0179701
785.698	0.0178335
785.776	0.0178929
785.854	0.0179659
785.933	0.0180161
786.011	0.0179091
786.089	0.0178110
786.167	0.0179743
786.245	0.0180085
786.323	0.0179508
786.401	0.0178402
786.479	0.0179530
786.558	0.0179065
786.636	0.0179745
786.714	0.0178324
786.792	0.0179318
786.870	0.0178419
786.948	0.0178733
787.026	0.0178455
787.104	0.0178967
787.183	0.0179874
787.261	0.0180264
787.339	0.0179780
787.417	0.0180438
787.495	0.0179218
787.573	0.0178559
787.651	0.0180094
787.729	0.0181140
787.808	0.0178833
787.886	0.0179950
787.964	0.0180487
788.042	0.0178329
788.120	0.0179166
788.198	0.0179549
788.276	0.0178500
788.354	0.0178706
788.433	0.0179067
788.511	0.0178055
788.589	0.0178057
788.667	0.0177802
788.745	0.0178783
788.823	0.0179665
788.901	0.0177808
788.979	0.0177097
789.058	0.0178558
789.136	0.0179037
789.214	0.0179786
789.292	0.0178367
789.370	0.0179968
789.448	0.0179681
789.526	0.0179768
789.604	0.0180514
789.683	0.0180569
789.761	0.0179852
789.839	0.0180141
789.917	0.0180099
789.995	0.0177872
790.073	0.0180108
790.151	0.0179112
790.229	0.0178804
790.308	0.0179320
790.386	0.0178287
790.464	0.0179239
790.542	0.0177402
790.620	0.0176878
790.698	0.0178780
790.776	0.0179198
790.854	0.0177517
790.933	0.0178748
791.011	0.0178278
791.089	0.0179505
791.167	0.0180282
791.245	0.0178957
791.323	0.0179401
791.401	0.0180996
791.479	0.0180894
791.558	0.0178893
791.636	0.0179934
791.714	0.0179896
791.792	0.0180572
791.870	0.0180024
791.948	0.0179405
792.026	0.0180458
792.104	0.0179930
792.183	0.0180101
792.261	0.0180472
792.339	0.0180459
792.417	0.0179336
792.495	0.0178981
792.573	0.0178346
792.651	0.0179222
792.729	0.0179864
792.808	0.0178809
792.886	0.0177063
792.964	0.0178607
793.042	0.0177923
793.120	0.0180836
793.198	0.0180025
793.276	0.0179544
793.354	0.0179085
793.433	0.0179473
793.511	0.0178806
793.589	0.0177979
793.667	0.0179104
793.745	0.0177854
793.823	0.0178743
793.901	0.0177753
793.979	0.0178527
794.058	0.0178334
794.136	0.0178555
794.214	0.0179708
794.292	0.0179317
794.370	0.0178643
794.448	0.0180126
794.526	0.0179330
794.604	0.0178474
794.683	0.0179285
794.761	0.0179680
794.839	0.0178728
794.917	0.0180196
794.995	0.0179046
795.073	0.0178175
795.151	0.0180295
795.229	0.0179620
795.308	0.0180661
795.386	0.0178834
795.464	0.0178999
795.542	0.0179349
795.620	0.0178263
795.698	0.0179741
795.776	0.0178272
795.854	0.0179813
795.933	0.0180320
796.011	0.0179460
796.089	0.0178448
796.167	0.0179005
796.245	0.0179858
796.323	0.0179953
796.401	0.0181050
796.479	0.0179639
796.558	0.0180003
796.636	0.0179932
796.714	0.0180383
796.792	0.0180025
796.870	0.0179904
796.948	0.0180111
797.026	0.0179664
797.104	0.0180644
797.183	0.0180396
797.261	0.0179639
797.339	0.0180532
797.417	0.0179206
797.495	0.0177615
797.573	0.0178281
797.651	0.0178732
797.729	0.0178339
797.808	0.0177631
797.886	0.0179654
797.964	0.0178786
798.042	0.0178175
798.120	0.0179437
798.198	0.0178873
798.276	0.0178793
798.354	0.0178907
798.433	0.0179742
798.511	0.0180980
798.589	0.0180984
798.667	0.0179897
798.745	0.0179752
798.823	0.0179770
798.901	0.0180883
798.979	0.0181157
799.058	0.0180495
799.136	0.0180161
799.214	0.0180643
799.292	0.0179615
799.370	0.0179491
799.448	0.0181243
799.526	0.0179182
799.604	0.0178671
799.683	0.0178328
799.761	0.0178226
799.839	0.0178534
799.917	0.0177798
799.995	0.0178290
800.073	0.0177168
800.151	0.0177779
800.229	0.0177039
800.308	0.0177369
800.386	0.0179085
800.464	0.0178593
800.542	0.0177611
800.620	0.0177374
800.698	0.0178245
800.776	0.0178071
800.854	0.0179053
800.933	0.0178997
801.011	0.0179288
801.089	0.0178842
801.167	0.0178883
801.245	0.0179066
801.323	0.0179099
801.401	0.0179104
801.479	0.0179768
801.558	0.0180382
801.636	0.0179322
801.714	0.0179099
801.792	0.0180614
801.870	0.0179434
801.948	0.0180708
802.026	0.0179524
802.104	0.0179499
802.183	0.0179374
802.261	0.0180511
802.339	0.0177668
802.417	0.0178378
802.495	0.0177888
802.573	0.0179035
802.651	0.0178162
802.729	0.0178918
802.808	0.0179908
802.886	0.0178150
802.964	0.0179057
803.042	0.0178112
803.120	0.0178912
803.198	0.0178738
803.276	0.0178755
803.354	0.0178167
803.433	0.0178398
803.511	0.0178302
803.589	0.0179100
803.667	0.0178226
803.745	0.0177998
803.823	0.0177253
803.901	0.0177145
803.979	0.0177811
804.058	0.0178324
804.136	0.0178059
804.214	0.0178709
804.292	0.0177644
804.370	0.0178353
804.448	0.0176901
804.526	0.0178143
804.604	0.0178684
804.683	0.0177433
804.761	0.0177018
804.839	0.0179910
804.917	0.0178996
804.995	0.0179105
805.073	0.0178662
805.151	0.0178836
805.229	0.0179732
805.308	0.0180222
805.386	0.0179601
805.464	0.0178583
805.542	0.0179474
805.620	0.0179013
805.698	0.0179064
805.776	0.0176852
805.854	0.0178522
805.933	0.0179222
806.011	0.0179623
806.089	0.0179100
806.167	0.0179938
806.245	0.0179129
806.323	0.0179032
806.401	0.0179130
806.479	0.0178940
806.558	0.0178034
806.636	0.0179613
806.714	0.0179018
806.792	0.0177020
806.870	0.0179586
806.948	0.0179314
807.026	0.0178945
807.104	0.0177811
807.183	0.0178531
807.261	0.0179643
807.339	0.0179665
807.417	0.0179787
807.495	0.0178258
807.573	0.0179253
807.651	0.0178307
807.729	0.0179559
807.808	0.0180318
807.886	0.0180427
807.964	0.0178960
808.042	0.0179976
808.120	0.0180550
808.198	0.0179702
808.276	0.0180674
808.354	0.0182162
808.433	0.0180400
808.511	0.0180524
808.589	0.0180756
808.667	0.0180524
808.745	0.0179992
808.823	0.0179314
808.901	0.0180305
808.979	0.0180366
809.058	0.0179934
809.136	0.0180421
809.214	0.0180733
809.292	0.0179729
809.370	0.0179764
809.448	0.0179295
809.526	0.0181141
809.604	0.0180367
809.683	0.0179158
809.761	0.0178767
809.839	0.0179543
809.917	0.0179511
809.995	0.0178997
810.073	0.0177549
810.151	0.0177762
810.229	0.0177722
810.308	0.0179797
810.386	0.0178214
810.464	0.0177128
810.542	0.0177805
810.620	0.0177876
810.698	0.0180005
810.776	0.0179446
810.854	0.0179762
810.933	0.0179774
811.011	0.0179127
811.089	0.0178870
811.167	0.0180534
811.245	0.0180823
811.323	0.0180080
811.401	0.0180952
811.479	0.0179795
811.558	0.0180039
811.636	0.0178970
811.714	0.0178897
811.792	0.0178156
811.870	0.0178179
811.948	0.0178545
812.026	0.0178718
812.104	0.0178490
812.183	0.0179436
812.261	0.0178364
812.339	0.0178207
812.417	0.0177384
812.495	0.0177894
812.573	0.0177252
812.651	0.0178566
812.729	0.0179533
812.808	0.0179163
812.886	0.0178177
812.964	0.0178769
813.042	0.0180329
813.120	0.0179042
813.198	0.0178630
813.276	0.0178725
813.354	0.0178146
813.433	0.0179617
813.511	0.0178441
813.589	0.0179865
813.667	0.0179960
813.745	0.0179635
813.823	0.0178352
813.901	0.0176644
813.979	0.0178448
814.058	0.0178092
814.136	0.0178155
814.214	0.0178995
814.292	0.0178658
814.370	0.0177813
814.448	0.0178866
814.526	0.0179382
814.604	0.0179079
814.683	0.0178305
814.761	0.0179668
814.839	0.0180732
814.917	0.0181003
814.995	0.0180885
815.073	0.0179784
815.151	0.0179098
815.229	0.0181745
815.308	0.0181856
815.386	0.0181258
815.464	0.0181799
815.542	0.0180325
815.620	0.0179597
815.698	0.0180198
815.776	0.0178965
815.854	0.0178390
815.933	0.0181144
816.011	0.0179308
816.089	0.0178247
816.167	0.0179096
816.245	0.0178559
816.323	0.0177744
816.401	0.0178236
816.479	0.0178619
816.558	0.0178329
816.636	0.0178825
816.714	0.0179278
816.792	0.0179515
816.870	0.0177849
816.948	0.0178834
817.026	0.0177837
817.104	0.0178954
817.183	0.0178141
817.261	0.0178874
817.339	0.0178793
817.417	0.0178371
817.495	0.0180441
817.573	0.0180215
817.651	0.0179335
817.729	0.0179810
817.808	0.0179051
817.886	0.0180018
817.964	0.0179125
818.042	0.0180362
818.120	0.0180785
818.198	0.0179432
818.276	0.0179124
818.354	0.0176547
818.433	0.0179584
818.511	0.0180046
818.589	0.0178941
818.667	0.0177856
818.745	0.0179958
818.823	0.0178602
818.901	0.0179012
818.979	0.0180151
819.058	0.0179650
819.136	0.0178318
819.214	0.0179211
819.292	0.0179711
819.370	0.0180210
819.448	0.0179359
819.526	0.0180221
819.604	0.0179816
819.683	0.0179131
819.761	0.0179230
819.839	0.0181619
819.917	0.0179310
819.995	0.0180105
820.073	0.0179142
820.151	0.0179191
820.229	0.0181001
820.308	0.0180078
820.386	0.0180402
820.464	0.0181531
820.542	0.0180328
820.620	0.0179806
820.698	0.0180453
820.776	0.0180640
820.854	0.0179272
820.933	0.0180283
821.011	0.0180236
821.089	0.0177210
821.167	0.0180273
821.245	0.0180126
821.323	0.0179619
821.401	0.0179338
821.479	0.0178688
821.558	0.0179660
821.636	0.0179147
821.714	0.0179053
821.792	0.0179727
821.870	0.0179189
821.948	0.0179993
822.026	0.0180152
822.104	0.0180577
822.183	0.0179230
822.261	0.0179749
822.339	0.0179888
822.417	0.0179241
822.495	0.0178854
822.573	0.0180552
822.651	0.0180619
822.729	0.0180695
822.808	0.0178729
822.886	0.0178891
822.964	0.0179876
823.042	0.0182031
823.120	0.0180366
823.198	0.0179674
823.276	0.0179771
823.354	0.0179319
823.433	0.0179389
823.511	0.0179302
823.589	0.0179710
823.667	0.0180656
823.745	0.0179472
823.823	0.0178226
823.901	0.0178825
823.979	0.0179716
824.058	0.0179588
824.136	0.0179060
824.214	0.0178330
824.292	0.0179905
824.370	0.0179080
824.448	0.0179959
824.526	0.0179191
824.604	0.0177911
824.683	0.0178510
824.761	0.0178807
824.839	0.0177665
824.917	0.0177946
824.995	0.0178931
825.073	0.0177685
825.151	0.0179860
825.229	0.0178325
825.308	0.0179034
825.386	0.0180250
825.464	0.0178600
825.542	0.0178137
825.620	0.0178606
825.698	0.0179596
825.776	0.0178918
825.854	0.0179124
825.933	0.0178470
826.011	0.0179746
826.089	0.0178559
826.167	0.0177403
826.245	0.0178103
826.323	0.0178959
826.401	0.0180590
826.479	0.0178504
826.558	0.0178753
826.636	0.0176769
826.714	0.0178135
826.792	0.0179581
826.870	0.0178040
826.948	0.0178886
827.026	0.0178873
827.104	0.0178810
827.183	0.0178336
827.261	0.0179295
827.339	0.0179466
827.417	0.0179746
827.495	0.0179989
827.573	0.0179659
827.651	0.0179064
827.729	0.0179327
827.808	0.0180914
827.886	0.0179713
827.964	0.0179930
828.042	0.0180501
828.120	0.0180822
828.198	0.0180084
828.276	0.0178979
828.354	0.0180032
828.433	0.0179642
828.511	0.0178727
828.589	0.0177892
828.667	0.0179441
828.745	0.0179178
828.823	0.0177173
828.901	0.0177568
828.979	0.0178346
829.058	0.0179021
829.136	0.0179320
829.214	0.0177896
829.292	0.0178825
829.370	0.0179321
829.448	0.0178069
829.526	0.0178098
829.604	0.0179786
829.683	0.0179403
829.761	0.0179020
829.839	0.0178922
829.917	0.0180516
829.995	0.0180466
830.073	0.0179109
830.151	0.0181121
830.229	0.0179729
830.308	0.0178852
830.386	0.0179719
830.464	0.0179862
830.542	0.0179474
830.620	0.0179189
830.698	0.0178616
830.776	0.0180222
830.854	0.0178165
830.933	0.0178093
831.011	0.0178955
831.089	0.0178964
831.167	0.0177625
831.245	0.0177467
831.323	0.0177122
831.401	0.0177832
831.479	0.0178320
831.558	0.0178443
831.636	0.0179105
831.714	0.0178937
831.792	0.0178479
831.870	0.0178914
831.948	0.0178843
832.026	0.0177300
832.104	0.0179539
832.183	0.0179974
832.261	0.0179910
832.339	0.0179496
832.417	0.0179157
832.495	0.0179432
832.573	0.0180414
832.651	0.0179880
832.729	0.0177668
832.808	0.0180244
832.886	0.0179096
832.964	0.0179894
833.042	0.0179913
833.120	0.0180345
833.198	0.0177732
833.276	0.0179964
833.354	0.0178089
833.433	0.0178768
833.511	0.0177659
833.589	0.0179024
833.667	0.0178651
833.745	0.0177503
833.823	0.0179868
833.901	0.0178476
833.979	0.0178253
834.058	0.0177719
834.136	0.0178957
834.214	0.0178231
834.292	0.0179597
834.370	0.0179166
834.448	0.0180079
834.526	0.0178912
834.604	0.0179653
834.683	0.0179241
834.761	0.0179237
834.839	0.0179001
834.917	0.0179251
834.995	0.0179397
835.073	0.0180875
835.151	0.0179935
835.229	0.0179966
835.308	0.0180228
835.386	0.0179725
835.464	0.0179668
835.542	0.0179546
835.620	0.0180470
835.698	0.0179719
835.776	0.0178675
835.854	0.0179961
835.933	0.0179621
836.011	0.0178051
836.089	0.0178526
836.167	0.0179778
836.245	0.0178739
836.323	0.0177464
836.401	0.0178804
836.479	0.0179346
836.558	0.0177340
836.636	0.0179060
836.714	0.0179641
836.792	0.0179240
836.870	0.0179337
836.948	0.0179411
837.026	0.0179810
837.104	0.0177169
837.183	0.0179262
837.261	0.0179018
837.339	0.0178835
837.417	0.0181037
837.495	0.0179640
837.573	0.0178535
837.651	0.0180398
837.729	0.0179150
837.808	0.0179196
837.886	0.0179971
837.964	0.0178712
838.042	0.0179270
838.120	0.0179687
838.198	0.0178907
838.276	0.0180068
838.354	0.0179747
838.433	0.0177300
838.511	0.0179936
838.589	0.0179882
838.667	0.0179925
838.745	0.0178198
838.823	0.0178890
838.901	0.0179472
838.979	0.0178702
839.058	0.0178902
839.136	0.0180521
839.214	0.0177355
839.292	0.0178760
839.370	0.0178934
839.448	0.0180532
839.526	0.0177686
839.604	0.0178926
839.683	0.0178731
839.761	0.0179336
839.839	0.0177556
839.917	0.0179537
839.995	0.0180561
840.073	0.0179646
840.151	0.0179783
840.229	0.0178260
840.308	0.0178899
840.386	0.0178880
840.464	0.0179916
840.542	0.0178504
840.620	0.0178888
840.698	0.0180255
840.776	0.0178566
840.854	0.0178931
840.933	0.0180019
841.011	0.0178864
841.089	0.0178184
841.167	0.0180145
841.245	0.0179094
841.323	0.0179858
841.401	0.0179549
841.479	0.0179952
841.558	0.0180025
841.636	0.0179986
841.714	0.0180329
841.792	0.0179028
841.870	0.0178880
841.948	0.0179951
842.026	0.0180423
842.104	0.0178591
842.183	0.0179517
842.261	0.0179269
842.339	0.0179066
842.417	0.0179723
842.495	0.0178486
842.573	0.0178983
842.651	0.0180584
842.729	0.0178731
842.808	0.0177735
842.886	0.0178997
842.964	0.0178413
843.042	0.0178201
843.120	0.0179985
843.198	0.0179170
843.276	0.0178925
843.354	0.0177224
843.433	0.0178526
843.511	0.0179426
843.589	0.0178423
843.667	0.0179155
843.745	0.0178275
843.823	0.0178642
843.901	0.0179166
843.979	0.0178548
844.058	0.0179250
844.136	0.0179199
844.214	0.0179479
844.292	0.0179964
844.370	0.0180531
844.448	0.0178918
844.526	0.0178725
844.604	0.0178684
844.683	0.0179974
844.761	0.0180138
844.839	0.0179812
844.917	0.0180717
844.995	0.0178734
845.073	0.0179423
845.151	0.0180205
845.229	0.0179587
845.308	0.0179776
845.386	0.0179958
845.464	0.0180353
845.542	0.0179970
845.620	0.0176534
845.698	0.0179637
845.776	0.0179768
845.854	0.0177579
845.933	0.0177992
846.011	0.0179880
846.089	0.0179966
846.167	0.0179076
846.245	0.0178503
846.323	0.0178831
846.401	0.0178107
846.479	0.0178069
846.558	0.0178233
846.636	0.0178275
846.714	0.0178764
846.792	0.0179288
846.870	0.0178374
846.948	0.0179340
847.026	0.0178751
847.104	0.0179384
847.183	0.0178819
847.261	0.0179016
847.339	0.0178754
847.417	0.0179184
847.495	0.0179872
847.573	0.0178119
847.651	0.0178690
847.729	0.0178333
847.808	0.0179385
847.886	0.0178091
847.964	0.0179546
848.042	0.0179406
848.120	0.0179012
848.198	0.0179111
848.276	0.0179412
848.354	0.0179669
848.433	0.0179343
848.511	0.0177637
848.589	0.0181059
848.667	0.0182089
848.745	0.0179230
848.823	0.0179911
848.901	0.0179516
848.979	0.0179749
849.058	0.0179708
849.136	0.0179758
849.214	0.0181046
849.292	0.0178989
849.370	0.0178983
849.448	0.0179523
849.526	0.0179018
849.604	0.0179167
849.683	0.0178055
849.761	0.0178458
849.839	0.0180227
849.917	0.0177502
849.995	0.0178734
850.073	0.0179446
850.151	0.0178690
850.229	0.0178761
850.308	0.0178492
850.386	0.0178077
850.464	0.0178609
850.542	0.0179480
850.620	0.0179422
850.698	0.0178649
850.776	0.0179831
850.854	0.0178034
850.933	0.0179700
851.011	0.0178657
851.089	0.0177956
851.167	0.0178700
851.245	0.0178561
851.323	0.0179218
851.401	0.0178365
851.479	0.0179610
851.558	0.0178234
851.636	0.0179032
851.714	0.0179057
851.792	0.0178943
851.870	0.0179829
851.948	0.0179395
852.026	0.0179425
852.104	0.0178995
852.183	0.0179652
852.261	0.0180580
852.339	0.0179718
852.417	0.0180544
852.495	0.0180081
852.573	0.0178963
852.651	0.0179423
852.729	0.0178807
852.808	0.0180527
852.886	0.0180608
852.964	0.0180341
853.042	0.0180089
853.120	0.0178964
853.198	0.0180267
853.276	0.0180713
853.354	0.0178214
853.433	0.0179729
853.511	0.0179301
853.589	0.0179128
853.667	0.0178017
853.745	0.0177269
853.823	0.0179241
853.901	0.0178854
853.979	0.0178204
854.058	0.0178471
854.136	0.0178461
854.214	0.0179472
854.292	0.0178095
854.370	0.0177182
854.448	0.0178751
854.526	0.0178621
854.604	0.0178727
854.683	0.0177599
854.761	0.0176891
854.839	0.0178011
854.917	0.0178040
854.995	0.0176490
855.073	0.0177578
855.151	0.0176939
855.229	0.0177512
855.308	0.0178599
855.386	0.0178446
855.464	0.0178044
855.542	0.0179723
855.620	0.0178758
855.698	0.0179591
855.776	0.0178209
855.854	0.0179946
855.933	0.0179079
856.011	0.0179130
856.089	0.0179324
856.167	0.0180514
856.245	0.0180287
856.323	0.0179626
856.401	0.0179018
856.479	0.0180640
856.558	0.0179507
856.636	0.0179146
856.714	0.0179312
856.792	0.0179034
856.870	0.0179192
856.948	0.0179325
857.026	0.0180159
857.104	0.0178912
857.183	0.0179636
857.261	0.0179381
857.339	0.0178516
857.417	0.0179053
857.495	0.0180573
857.573	0.0179253
857.651	0.0180148
857.729	0.0180354
857.808	0.0180042
857.886	0.0180209
857.964	0.0180905
858.042	0.0179565
858.120	0.0179563
858.198	0.0179205
858.276	0.0179563
858.354	0.0180590
858.433	0.0179225
858.511	0.0178933
858.589	0.0181154
858.667	0.0178220
858.745	0.0179291
858.823	0.0179274
858.901	0.0179302
858.979	0.0179604
859.058	0.0178477
859.136	0.0178998
859.214	0.0179808
859.292	0.0178267
859.370	0.0178898
859.448	0.0180201
859.526	0.0180585
859.604	0.0179752
859.683	0.0178468
859.761	0.0179742
859.839	0.0178472
859.917	0.0178969
859.995	0.0180485
860.073	0.0180293
860.151	0.0178677
860.229	0.0178886
860.308	0.0179911
860.386	0.0179205
860.464	0.0178876
860.542	0.0180154
860.620	0.0180597
860.698	0.0178399
860.776	0.0178508
860.854	0.0178922
860.933	0.0179169
861.011	0.0178201
861.089	0.0178133
861.167	0.0180310
861.245	0.0179298
861.323	0.0179475
861.401	0.0179218
861.479	0.0178856
861.558	0.0177681
861.636	0.0178674
861.714	0.0180374
861.792	0.0180000
861.870	0.0176931
861.948	0.0178377
862.026	0.0180524
862.104	0.0179855
862.183	0.0179597
862.261	0.0180296
862.339	0.0179855
862.417	0.0179733
862.495	0.0177966
862.573	0.0178697
862.651	0.0178314
862.729	0.0179265
862.808	0.0178426
862.886	0.0177219
862.964	0.0177308
863.042	0.0178516
863.120	0.0177822
863.198	0.0178223
863.276	0.0177425
863.354	0.0177648
863.433	0.0179308
863.511	0.0178510
863.589	0.0179094
863.667	0.0178070
863.745	0.0178528
863.823	0.0178991
863.901	0.0179795
863.979	0.0179145
864.058	0.0178670
864.136	0.0180296
864.214	0.0180489
864.292	0.0178924
864.370	0.0178587
864.448	0.0179304
864.526	0.0180920
864.604	0.0178513
864.683	0.0178861
864.761	0.0179641
864.839	0.0178726
864.917	0.0179228
864.995	0.0179509
865.073	0.0179124
865.151	0.0179012
865.229	0.0179446
865.308	0.0179442
865.386	0.0179827
865.464	0.0180030
865.542	0.0179276
865.620	0.0177600
865.698	0.0179111
865.776	0.0180082
865.854	0.0179624
865.933	0.0179655
866.011	0.0179820
866.089	0.0179295
866.167	0.0178355
866.245	0.0178920
866.323	0.0179830
866.401	0.0178888
866.479	0.0178786
866.558	0.0179594
866.636	0.0178191
866.714	0.0178860
866.792	0.0179102
866.870	0.0178490
866.948	0.0178635
867.026	0.0179843
867.104	0.0179247
867.183	0.0177760
867.261	0.0179818
867.339	0.0179106
867.417	0.0180006
867.495	0.0179485
867.573	0.0178400
867.651	0.0178313
867.729	0.0177853
867.808	0.0179005
867.886	0.0178777
867.964	0.0178973
868.042	0.0178961
868.120	0.0179424
868.198	0.0178267
868.276	0.0179058
868.354	0.0180135
868.433	0.0179705
868.511	0.0178754
868.589	0.0180391
868.667	0.0178954
868.745	0.0180010
868.823	0.0179115
868.901	0.0179504
868.979	0.0179073
869.058	0.0178809
869.136	0.0178403
869.214	0.0178886
869.292	0.0179482
869.370	0.0178358
869.448	0.0178796
869.526	0.0179135
869.604	0.0180101
869.683	0.0178915
869.761	0.0178480
869.839	0.0178139
869.917	0.0180745
869.995	0.0180881
870.073	0.0181223
870.151	0.0179481
870.229	0.0180352
870.308	0.0180505
870.386	0.0179321
870.464	0.0179674
870.542	0.0180209
870.620	0.0179942
870.698	0.0179940
870.776	0.0179485
870.854	0.0179923
870.933	0.0179854
871.011	0.0179238
871.089	0.0178921
871.167	0.0177980
871.245	0.0178466
871.323	0.0179882
871.401	0.0179487
871.479	0.0178519
871.558	0.0178727
871.636	0.0178502
871.714	0.0178680
871.792	0.0178973
871.870	0.0177683
871.948	0.0177611
872.026	0.0178590
872.104	0.0178041
872.183	0.0178911
872.261	0.0180388
872.339	0.0177938
872.417	0.0180458
872.495	0.0179156
872.573	0.0179507
872.651	0.0178725
872.729	0.0179330
872.808	0.0179066
872.886	0.0180796
872.964	0.0179382
873.042	0.0180422
873.120	0.0180609
873.198	0.0178851
873.276	0.0180030
873.354	0.0179988
873.433	0.0179398
873.511	0.0179332
873.589	0.0178852
873.667	0.0178096
873.745	0.0178606
873.823	0.0179430
873.901	0.0178555
873.979	0.0179154
874.058	0.0178624
874.136	0.0179266
874.214	0.0178911
874.292	0.0179160
874.370	0.0179139
874.448	0.0178096
874.526	0.0179494
874.604	0.0179979
874.683	0.0179648
874.761	0.0179028
874.839	0.0178752
874.917	0.0181239
874.995	0.0180701
875.073	0.0179658
875.151	0.0180586
875.229	0.0179782
875.308	0.0179687
875.386	0.0180659
875.464	0.0179444
875.542	0.0178822
875.620	0.0180061
875.698	0.0178978
875.776	0.0179256
875.854	0.0180544
875.933	0.0178712
876.011	0.0178986
876.089	0.0177774
876.167	0.0177564
876.245	0.0177993
876.323	0.0178206
876.401	0.0177795
876.479	0.0178280
876.558	0.0178070
876.636	0.0177649
876.714	0.0178230
876.792	0.0177502
876.870	0.0178932
876.948	0.0178078
877.026	0.0179192
877.104	0.0178809
877.183	0.0179616
877.261	0.0177991
877.339	0.0178490
877.417	0.0179494
877.495	0.0179010
877.573	0.0179311
877.651	0.0178019
877.729	0.0179026
877.808	0.0178035
877.886	0.0179121
877.964	0.0178684
878.042	0.0179380
878.120	0.0178495
878.198	0.0180582
878.276	0.0178902
878.354	0.0178987
878.433	0.0178682
878.511	0.0179177
878.589	0.0179906
878.667	0.0178841
878.745	0.0178036
878.823	0.0178790
878.901	0.0179529
878.979	0.0179648
879.058	0.0178284
879.136	0.0178464
879.214	0.0178652
879.292	0.0176847
879.370	0.0177653
879.448	0.0177760
879.526	0.0178755
879.604	0.0177976
879.683	0.0177319
879.761	0.0179019
879.839	0.0178256
879.917	0.0178697
879.995	0.0177618
880.073	0.0177624
880.151	0.0179883
880.229	0.0179024
880.308	0.0178249
880.386	0.0178904
880.464	0.0180014
880.542	0.0179185
880.620	0.0179508
880.698	0.0180136
880.776	0.0179144
880.854	0.0178606
880.933	0.0179601
881.011	0.0180811
881.089	0.0178307
881.167	0.0179214
881.245	0.0178362
881.323	0.0180004
881.401	0.0179526
881.479	0.0178680
881.558	0.0180281
881.636	0.0181316
881.714	0.0179951
881.792	0.0178150
881.870	0.0179069
881.948	0.0179156
882.026	0.0179053
882.104	0.0180226
882.183	0.0178706
882.261	0.0179192
882.339	0.0180129
882.417	0.0179860
882.495	0.0179687
882.573	0.0177922
882.651	0.0178703
882.729	0.0178859
882.808	0.0179840
882.886	0.0179184
882.964	0.0178835
883.042	0.0179295
883.120	0.0178513
883.198	0.0179591
883.276	0.0179539
883.354	0.0178622
883.433	0.0179065
883.511	0.0180643
883.589	0.0178885
883.667	0.0178994
883.745	0.0179520
883.823	0.0179126
883.901	0.0178454
883.979	0.0180031
884.058	0.0179690
884.136	0.0180133
884.214	0.0177960
884.292	0.0179036
884.370	0.0180019
884.448	0.0178545
884.526	0.0180318
884.604	0.0178316
884.683	0.0178004
884.761	0.0178718
884.839	0.0179166
884.917	0.0179237
884.995	0.0179569
885.073	0.0179285
885.151	0.0178704
885.229	0.0178146
885.308	0.0179404
885.386	0.0178057
885.464	0.0178017
885.542	0.0180363
885.620	0.0179692
885.698	0.0179699
885.776	0.0177595
885.854	0.0179829
885.933	0.0180612
886.011	0.0180096
886.089	0.0179874
886.167	0.0178403
886.245	0.0180594
886.323	0.0180154
886.401	0.0178580
886.479	0.0179652
886.558	0.0179101
886.636	0.0178226
886.714	0.0178992
886.792	0.0179648
886.870	0.0179762
886.948	0.0179382
887.026	0.0178552
887.104	0.0178388
887.183	0.0179259
887.261	0.0177551
887.339	0.0178740
887.417	0.0178814
887.495	0.0178958
887.573	0.0179276
887.651	0.0179037
887.729	0.0179485
887.808	0.0179742
887.886	0.0178699
887.964	0.0178968
888.042	0.0180141
888.120	0.0180452
888.198	0.0178478
888.276	0.0178233
888.354	0.0178935
888.433	0.0180263
888.511	0.0179116
888.589	0.0179390
888.667	0.0178241
888.745	0.0178602
888.823	0.0179378
888.901	0.0179500
888.979	0.0179939
889.058	0.0180025
889.136	0.0178315
889.214	0.0178114
889.292	0.0177815
889.370	0.0177541
889.448	0.0178567
889.526	0.0179900
889.604	0.0177825
889.683	0.0177910
889.761	0.0178809
889.839	0.0178015
889.917	0.0178112
889.995	0.0177782
890.073	0.0179528
890.151	0.0178912
890.229	0.0178893
890.308	0.0178446
890.386	0.0178191
890.464	0.0179211
890.542	0.0178331
890.620	0.0177748
890.698	0.0178339
890.776	0.0179709
890.854	0.0178711
890.933	0.0178441
891.011	0.0177789
891.089	0.0180276
891.167	0.0180376
891.245	0.0178883
891.323	0.0179862
891.401	0.0179843
891.479	0.0180181
891.558	0.0178964
891.636	0.0177852
891.714	0.0179729
891.792	0.0178531
891.870	0.0178815
891.948	0.0178609
892.026	0.0178381
892.104	0.0179496
892.183	0.0177911
892.261	0.0177205
892.339	0.0179039
892.417	0.0177279
892.495	0.0177898
892.573	0.0175838
892.651	0.0177155
892.729	0.0178015
892.808	0.0177144
892.886	0.0178322
892.964	0.0177515
893.042	0.0178777
893.120	0.0178448
893.198	0.0179118
893.276	0.0178654
893.354	0.0178394
893.433	0.0180008
893.511	0.0178379
893.589	0.0179698
893.667	0.0178746
893.745	0.0179399
893.823	0.0178996
893.901	0.0179037
893.979	0.0180431
894.058	0.0182204
894.136	0.0180076
894.214	0.0179974
894.292	0.0180750
894.370	0.0180490
894.448	0.0180453
894.526	0.0179942
894.604	0.0179063
894.683	0.0179286
894.761	0.0179973
894.839	0.0178858
894.917	0.0179994
894.995	0.0178560
895.073	0.0178287
895.151	0.0178596
895.229	0.0178072
895.308	0.0178542
895.386	0.0179009
895.464	0.0177630
895.542	0.0178380
895.620	0.0179147
895.698	0.0178458
895.776	0.0178448
895.854	0.0178629
895.933	0.0178214
896.011	0.0178849
896.089	0.0180247
896.167	0.0178211
896.245	0.0179238
896.323	0.0179827
896.401	0.0179628
896.479	0.0180139
896.558	0.0180070
896.636	0.0181109
896.714	0.0180228
896.792	0.0178954
896.870	0.0181318
896.948	0.0179144
897.026	0.0180123
897.104	0.0180436
897.183	0.0179855
897.261	0.0179401
897.339	0.0178893
897.417	0.0179103
897.495	0.0178479
897.573	0.0178529
897.651	0.0178514
897.729	0.0176868
897.808	0.0178509
897.886	0.0177734
897.964	0.0178680
898.042	0.0178954
898.120	0.0177480
898.198	0.0178095
898.276	0.0178505
898.354	0.0178777
898.433	0.0178190
898.511	0.0179213
898.589	0.0178806
898.667	0.0180592
898.745	0.0178791
898.823	0.0178776
898.901	0.0179602
898.979	0.0180496
899.058	0.0177792
899.136	0.0181374
899.214	0.0179047
899.292	0.0178833
899.370	0.0180542
899.448	0.0179927
899.526	0.0180248
899.604	0.0179933
899.683	0.0179484
899.761	0.0180206
899.839	0.0178886
899.917	0.0177869
899.995	0.0179050
900.073	0.0179325
900.151	0.0179586
900.229	0.0178295
900.308	0.0178470
900.386	0.0179790
900.464	0.0179361
900.542	0.0178361
900.620	0.0178840
900.698	0.0179070
900.776	0.0179658
900.854	0.0178336
900.933	0.0178932
901.011	0.0180530
901.089	0.0178210
901.167	0.0177926
901.245	0.0179672
901.323	0.0179881
901.401	0.0177762
901.479	0.0179395
901.558	0.0179402
901.636	0.0178970
901.714	0.0178971
901.792	0.0178742
901.870	0.0179206
901.948	0.0178746
902.026	0.0179086
902.104	0.0178965
902.183	0.0178851
902.261	0.0179609
902.339	0.0178774
902.417	0.0179581
902.495	0.0179432
902.573	0.0179237
902.651	0.0179417
902.729	0.0179294
902.808	0.0179129
902.886	0.0178488
902.964	0.0180373
903.042	0.0180070
903.120	0.0178985
903.198	0.0179491
903.276	0.0178353
903.354	0.0178916
903.433	0.0179420
903.511	0.0179312
903.589	0.0178201
903.667	0.0178147
903.745	0.0179614
903.823	0.0179228
903.901	0.0178564
903.979	0.0178642
904.058	0.0177757
904.136	0.0178516
904.214	0.0178324
904.292	0.0178476
904.370	0.0178705
904.448	0.0178727
904.526	0.0178392
904.604	0.0178490
904.683	0.0178934
904.761	0.0179842
904.839	0.0180105
904.917	0.0179350
904.995	0.0179166
905.073	0.0179234
905.151	0.0179980
905.229	0.0180383
905.308	0.0178690
905.386	0.0180369
905.464	0.0178927
905.542	0.0178533
905.620	0.0179367
905.698	0.0180840
905.776	0.0177989
905.854	0.0178835
905.933	0.0179566
906.011	0.0180003
906.089	0.0179263
906.167	0.0178516
906.245	0.0181154
906.323	0.0179654
906.401	0.0179464
906.479	0.0180322
906.558	0.0180165
906.636	0.0180336
906.714	0.0180838
906.792	0.0180192
906.870	0.0179884
906.948	0.0179743
907.026	0.0178858
907.104	0.0177747
907.183	0.0178359
907.261	0.0179018
907.339	0.0177352
907.417	0.0179970
907.495	0.0178664
907.573	0.0177058
907.651	0.0178210
907.729	0.0179172
907.808	0.0178925
907.886	0.0179075
907.964	0.0178307
908.042	0.0178348
908.120	0.0177222
908.198	0.0178170
908.276	0.0177671
908.354	0.0178062
908.433	0.0178424
908.511	0.0177926
908.589	0.0179029
908.667	0.0177895
908.745	0.0178132
908.823	0.0179124
908.901	0.0178801
908.979	0.0177895
909.058	0.0179115
909.136	0.0180087
909.214	0.0179436
909.292	0.0179291
909.370	0.0178098
909.448	0.0178830
909.526	0.0179414
909.604	0.0178001
909.683	0.0179424
909.761	0.0178388
909.839	0.0177964
909.917	0.0178886
909.995	0.0181225
910.073	0.0179092
910.151	0.0178606
910.229	0.0181393
910.308	0.0179644
910.386	0.0179469
910.464	0.0180743
910.542	0.0178693
910.620	0.0179046
910.698	0.0178669
910.776	0.0178144
910.854	0.0179435
910.933	0.0178123
911.011	0.0178221
911.089	0.0177842
911.167	0.0177607
911.245	0.0179227
911.323	0.0178532
911.401	0.0179180
911.479	0.0179340
911.558	0.0179412
911.636	0.0178497
911.714	0.0177733
911.792	0.0179855
911.870	0.0179637
911.948	0.0178929
912.026	0.0180318
912.104	0.0178886
912.183	0.0178677
912.261	0.0180167
912.339	0.0179034
912.417	0.0180148
912.495	0.0180001
912.573	0.0180405
912.651	0.0180428
912.729	0.0178825
912.808	0.0178105
912.886	0.0179935
912.964	0.0178723
913.042	0.0179730
913.120	0.0178665
913.198	0.0178260
913.276	0.0178247
913.354	0.0179042
913.433	0.0179192
913.511	0.0179527
913.589	0.0177850
913.667	0.0179386
913.745	0.0179970
913.823	0.0178760
913.901	0.0177848
913.979	0.0178741
914.058	0.0178764
914.136	0.0180075
914.214	0.0178179
914.292	0.0177345
914.370	0.0179258
914.448	0.0178230
914.526	0.0179475
914.604	0.0180241
914.683	0.0179103
914.761	0.0178687
914.839	0.0181474
914.917	0.0178300
914.995	0.0179321
915.073	0.0178689
915.151	0.0180209
915.229	0.0180115
915.308	0.0178932
915.386	0.0178258
915.464	0.0178416
915.542	0.0178642
915.620	0.0179646
915.698	0.0179955
915.776	0.0179385
915.854	0.0179031
915.933	0.0178405
916.011	0.0178967
916.089	0.0179130
916.167	0.0178015
916.245	0.0178539
916.323	0.0178465
916.401	0.0179147
916.479	0.0179115
916.558	0.0179861
916.636	0.0178707
916.714	0.0178195
916.792	0.0180302
916.870	0.0179721
916.948	0.0179738
917.026	0.0179032
917.104	0.0180572
917.183	0.0179604
917.261	0.0179980
917.339	0.0178164
917.417	0.0180077
917.495	0.0179551
917.573	0.0179520
917.651	0.0179024
917.729	0.0179391
917.808	0.0178269
917.886	0.0179556
917.964	0.0179609
918.042	0.0180286
918.120	0.0179720
918.198	0.0179939
918.276	0.0178536
918.354	0.0179314
918.433	0.0179050
918.511	0.0178839
918.589	0.0179011
918.667	0.0178226
918.745	0.0179494
918.823	0.0179184
918.901	0.0180224
918.979	0.0179544
919.058	0.0178881
919.136	0.0179594
919.214	0.0178808
919.292	0.0180270
919.370	0.0178406
919.448	0.0179274
919.526	0.0180032
919.604	0.0179977
919.683	0.0178864
919.761	0.0179836
919.839	0.0178571
919.917	0.0177754
