06/03/2022	18:21:18	Ver.	4.1	UNKNOWN
Optical Delay	599.995081	Delta X		0.078125	Sweeps	1	Scan Rate	0/0
Coordinates	Axis 1	NaN	Axis 2	NaN	Axis 3	NaN	Axis 4	NaN	Axis 5	NaN	Axis 6	0.000000
TX Power	0.000000	RX Power	0.000000

599.995	0.0176343
600.073	0.0175821
600.151	0.0176746
600.229	0.0176423
600.308	0.0177048
600.386	0.0176283
600.464	0.0175613
600.542	0.0176945
600.620	0.0177163
600.698	0.0175238
600.776	0.0176543
600.854	0.0176224
600.933	0.0176196
601.011	0.0176152
601.089	0.0177306
601.167	0.0176375
601.245	0.0176403
601.323	0.0175279
601.401	0.0176099
601.479	0.0177515
601.558	0.0175282
601.636	0.0175527
601.714	0.0175684
601.792	0.0174751
601.870	0.0175415
601.948	0.0175632
602.026	0.0176966
602.104	0.0175256
602.183	0.0175823
602.261	0.0174750
602.339	0.0175356
602.417	0.0174960
602.495	0.0175921
602.573	0.0177261
602.651	0.0176629
602.729	0.0175856
602.808	0.0176869
602.886	0.0175156
602.964	0.0175878
603.042	0.0175470
603.120	0.0175281
603.198	0.0175685
603.276	0.0175862
603.354	0.0176493
603.433	0.0176684
603.511	0.0175378
603.589	0.0176154
603.667	0.0175669
603.745	0.0174448
603.823	0.0174652
603.901	0.0176390
603.979	0.0176280
604.058	0.0176794
604.136	0.0174664
604.214	0.0174361
604.292	0.0175165
604.370	0.0175185
604.448	0.0176931
604.526	0.0176897
604.604	0.0176997
604.683	0.0176447
604.761	0.0176637
604.839	0.0177963
604.917	0.0175764
604.995	0.0175768
605.073	0.0177397
605.151	0.0177188
605.229	0.0175674
605.308	0.0175732
605.386	0.0177493
605.464	0.0176479
605.542	0.0177312
605.620	0.0176079
605.698	0.0175827
605.776	0.0176401
605.854	0.0177176
605.933	0.0176839
606.011	0.0176858
606.089	0.0176234
606.167	0.0176838
606.245	0.0175696
606.323	0.0175087
606.401	0.0176292
606.479	0.0177357
606.558	0.0174936
606.636	0.0176929
606.714	0.0176324
606.792	0.0176677
606.870	0.0176159
606.948	0.0178252
607.026	0.0176820
607.104	0.0176036
607.183	0.0177390
607.261	0.0177042
607.339	0.0177207
607.417	0.0176681
607.495	0.0177240
607.573	0.0175861
607.651	0.0177570
607.729	0.0178001
607.808	0.0176476
607.886	0.0177462
607.964	0.0177613
608.042	0.0175988
608.120	0.0177298
608.198	0.0177510
608.276	0.0175770
608.354	0.0175720
608.433	0.0176409
608.511	0.0177959
608.589	0.0176390
608.667	0.0177056
608.745	0.0175736
608.823	0.0175189
608.901	0.0176888
608.979	0.0175974
609.058	0.0176503
609.136	0.0176966
609.214	0.0175368
609.292	0.0176369
609.370	0.0176721
609.448	0.0176062
609.526	0.0175162
609.604	0.0175518
609.683	0.0176003
609.761	0.0175880
609.839	0.0176729
609.917	0.0176635
609.995	0.0176127
610.073	0.0174814
610.151	0.0175964
610.229	0.0177733
610.308	0.0175417
610.386	0.0176855
610.464	0.0176009
610.542	0.0176228
610.620	0.0175449
610.698	0.0175218
610.776	0.0176574
610.854	0.0176835
610.933	0.0177060
611.011	0.0175945
611.089	0.0176781
611.167	0.0176846
611.245	0.0175761
611.323	0.0175372
611.401	0.0177487
611.479	0.0177016
611.558	0.0176627
611.636	0.0175372
611.714	0.0176942
611.792	0.0175870
611.870	0.0175619
611.948	0.0176924
612.026	0.0175957
612.104	0.0176881
612.183	0.0175806
612.261	0.0175177
612.339	0.0177699
612.417	0.0174934
612.495	0.0176756
612.573	0.0175501
612.651	0.0176295
612.729	0.0175713
612.808	0.0176952
612.886	0.0175880
612.964	0.0176087
613.042	0.0177675
613.120	0.0176681
613.198	0.0176157
613.276	0.0176197
613.354	0.0176789
613.433	0.0176441
613.511	0.0176902
613.589	0.0176678
613.667	0.0176987
613.745	0.0177142
613.823	0.0177567
613.901	0.0175346
613.979	0.0176430
614.058	0.0177132
614.136	0.0176913
614.214	0.0178065
614.292	0.0176302
614.370	0.0176915
614.448	0.0176982
614.526	0.0176381
614.604	0.0175688
614.683	0.0177077
614.761	0.0176054
614.839	0.0177663
614.917	0.0177594
614.995	0.0177309
615.073	0.0177207
615.151	0.0177770
615.229	0.0176684
615.308	0.0175935
615.386	0.0176869
615.464	0.0176941
615.542	0.0176460
615.620	0.0174771
615.698	0.0177054
615.776	0.0176407
615.854	0.0176708
615.933	0.0177364
616.011	0.0175806
616.089	0.0177258
616.167	0.0176355
616.245	0.0176427
616.323	0.0177375
616.401	0.0176842
616.479	0.0175596
616.558	0.0176285
616.636	0.0177113
616.714	0.0176576
616.792	0.0175462
616.870	0.0176139
616.948	0.0176430
617.026	0.0176968
617.104	0.0175906
617.183	0.0175662
617.261	0.0177160
617.339	0.0176558
617.417	0.0176457
617.495	0.0175629
617.573	0.0176949
617.651	0.0177637
617.729	0.0176659
617.808	0.0176031
617.886	0.0176550
617.964	0.0174137
618.042	0.0174760
618.120	0.0176203
618.198	0.0174521
618.276	0.0177024
618.354	0.0174942
618.433	0.0175951
618.511	0.0175536
618.589	0.0174883
618.667	0.0176066
618.745	0.0176570
618.823	0.0176244
618.901	0.0175471
618.979	0.0176656
619.058	0.0176866
619.136	0.0174648
619.214	0.0176086
619.292	0.0178259
619.370	0.0175971
619.448	0.0174551
619.526	0.0177910
619.604	0.0176578
619.683	0.0176752
619.761	0.0177550
619.839	0.0176637
619.917	0.0176683
619.995	0.0176601
620.073	0.0176731
620.151	0.0176678
620.229	0.0177416
620.308	0.0176981
620.386	0.0176585
620.464	0.0176143
620.542	0.0176180
620.620	0.0176149
620.698	0.0175668
620.776	0.0175755
620.854	0.0176355
620.933	0.0175536
621.011	0.0176080
621.089	0.0176569
621.167	0.0175494
621.245	0.0176228
621.323	0.0177802
621.401	0.0176459
621.479	0.0175895
621.558	0.0176503
621.636	0.0176386
621.714	0.0176533
621.792	0.0176936
621.870	0.0177774
621.948	0.0176637
622.026	0.0176342
622.104	0.0176012
622.183	0.0176941
622.261	0.0176006
622.339	0.0176088
622.417	0.0175617
622.495	0.0177054
622.573	0.0177084
622.651	0.0175085
622.729	0.0175022
622.808	0.0177416
622.886	0.0175584
622.964	0.0175603
623.042	0.0177106
623.120	0.0177233
623.198	0.0176769
623.276	0.0175878
623.354	0.0175359
623.433	0.0174943
623.511	0.0176158
623.589	0.0175790
623.667	0.0176936
623.745	0.0176348
623.823	0.0176364
623.901	0.0176357
623.979	0.0177533
624.058	0.0175747
624.136	0.0175570
624.214	0.0175689
624.292	0.0177271
624.370	0.0177309
624.448	0.0176828
624.526	0.0176180
624.604	0.0175462
624.683	0.0175650
624.761	0.0175941
624.839	0.0177251
624.917	0.0176907
624.995	0.0176539
625.073	0.0176266
625.151	0.0175825
625.229	0.0176235
625.308	0.0176984
625.386	0.0177328
625.464	0.0176286
625.542	0.0175961
625.620	0.0176505
625.698	0.0177348
625.776	0.0177232
625.854	0.0176831
625.933	0.0178020
626.011	0.0176395
626.089	0.0175767
626.167	0.0176813
626.245	0.0176594
626.323	0.0176572
626.401	0.0176877
626.479	0.0177651
626.558	0.0178233
626.636	0.0176769
626.714	0.0177832
626.792	0.0177415
626.870	0.0177154
626.948	0.0176182
627.026	0.0175890
627.104	0.0175520
627.183	0.0176109
627.261	0.0177279
627.339	0.0176871
627.417	0.0177697
627.495	0.0177778
627.573	0.0176360
627.651	0.0176353
627.729	0.0176292
627.808	0.0176202
627.886	0.0176236
627.964	0.0176172
628.042	0.0176160
628.120	0.0175922
628.198	0.0175323
628.276	0.0176543
628.354	0.0176743
628.433	0.0176302
628.511	0.0177323
628.589	0.0177476
628.667	0.0176689
628.745	0.0176351
628.823	0.0174985
628.901	0.0176738
628.979	0.0176434
629.058	0.0175518
629.136	0.0177139
629.214	0.0176840
629.292	0.0175101
629.370	0.0174839
629.448	0.0177408
629.526	0.0178094
629.604	0.0174713
629.683	0.0176347
629.761	0.0177161
629.839	0.0176816
629.917	0.0176431
629.995	0.0177161
630.073	0.0178146
630.151	0.0175780
630.229	0.0175316
630.308	0.0175128
630.386	0.0176844
630.464	0.0176398
630.542	0.0176281
630.620	0.0176897
630.698	0.0175772
630.776	0.0176756
630.854	0.0175693
630.933	0.0176180
631.011	0.0175496
631.089	0.0176791
631.167	0.0174728
631.245	0.0175794
631.323	0.0176580
631.401	0.0175894
631.479	0.0175076
631.558	0.0176257
631.636	0.0175497
631.714	0.0176324
631.792	0.0176863
631.870	0.0177087
631.948	0.0175588
632.026	0.0176043
632.104	0.0176298
632.183	0.0176974
632.261	0.0177343
632.339	0.0176628
632.417	0.0176966
632.495	0.0176783
632.573	0.0175291
632.651	0.0176066
632.729	0.0178020
632.808	0.0176695
632.886	0.0175824
632.964	0.0175676
633.042	0.0176063
633.120	0.0176295
633.198	0.0177101
633.276	0.0175057
633.354	0.0175934
633.433	0.0176952
633.511	0.0177345
633.589	0.0175631
633.667	0.0176431
633.745	0.0176984
633.823	0.0176111
633.901	0.0176032
633.979	0.0176569
634.058	0.0176687
634.136	0.0175149
634.214	0.0175727
634.292	0.0175571
634.370	0.0176301
634.448	0.0175093
634.526	0.0177906
634.604	0.0176574
634.683	0.0175861
634.761	0.0177226
634.839	0.0177795
634.917	0.0176402
634.995	0.0176033
635.073	0.0176434
635.151	0.0176564
635.229	0.0176848
635.308	0.0175953
635.386	0.0176698
635.464	0.0177142
635.542	0.0175901
635.620	0.0176281
635.698	0.0176376
635.776	0.0176511
635.854	0.0176130
635.933	0.0176669
636.011	0.0175336
636.089	0.0175113
636.167	0.0176572
636.245	0.0176748
636.323	0.0176495
636.401	0.0175459
636.479	0.0176867
636.558	0.0176836
636.636	0.0176276
636.714	0.0175803
636.792	0.0175387
636.870	0.0175573
636.948	0.0176210
637.026	0.0177132
637.104	0.0176106
637.183	0.0176757
637.261	0.0176151
637.339	0.0176303
637.417	0.0175904
637.495	0.0175347
637.573	0.0176108
637.651	0.0176846
637.729	0.0176654
637.808	0.0176631
637.886	0.0177020
637.964	0.0177018
638.042	0.0176022
638.120	0.0175836
638.198	0.0175894
638.276	0.0175810
638.354	0.0175059
638.433	0.0175097
638.511	0.0175701
638.589	0.0175515
638.667	0.0177343
638.745	0.0176520
638.823	0.0175623
638.901	0.0176147
638.979	0.0175368
639.058	0.0176595
639.136	0.0176302
639.214	0.0176952
639.292	0.0177059
639.370	0.0175389
639.448	0.0175736
639.526	0.0176584
639.604	0.0175151
639.683	0.0175849
639.761	0.0176420
639.839	0.0175831
639.917	0.0176054
639.995	0.0175069
640.073	0.0175709
640.151	0.0174926
640.229	0.0174756
640.308	0.0175427
640.386	0.0176530
640.464	0.0175922
640.542	0.0175984
640.620	0.0177082
640.698	0.0176427
640.776	0.0175422
640.854	0.0176746
640.933	0.0177489
641.011	0.0175309
641.089	0.0176754
641.167	0.0175710
641.245	0.0174644
641.323	0.0175090
641.401	0.0175369
641.479	0.0174700
641.558	0.0176106
641.636	0.0176853
641.714	0.0175723
641.792	0.0176014
641.870	0.0176729
641.948	0.0175422
642.026	0.0176006
642.104	0.0175858
642.183	0.0176989
642.261	0.0175384
642.339	0.0175634
642.417	0.0176801
642.495	0.0175492
642.573	0.0174310
642.651	0.0176455
642.729	0.0176740
642.808	0.0176105
642.886	0.0176682
642.964	0.0176366
643.042	0.0175598
643.120	0.0175349
643.198	0.0175754
643.276	0.0177137
643.354	0.0176700
643.433	0.0176414
643.511	0.0176497
643.589	0.0175513
643.667	0.0175676
643.745	0.0175275
643.823	0.0176588
643.901	0.0177332
643.979	0.0177400
644.058	0.0176902
644.136	0.0175913
644.214	0.0177166
644.292	0.0176388
644.370	0.0175194
644.448	0.0175923
644.526	0.0175947
644.604	0.0177069
644.683	0.0176684
644.761	0.0175491
644.839	0.0176403
644.917	0.0176324
644.995	0.0176537
645.073	0.0177003
645.151	0.0175681
645.229	0.0175998
645.308	0.0176851
645.386	0.0177455
645.464	0.0176081
645.542	0.0176785
645.620	0.0176427
645.698	0.0177084
645.776	0.0176343
645.854	0.0176744
645.933	0.0176485
646.011	0.0176175
646.089	0.0178239
646.167	0.0176666
646.245	0.0176500
646.323	0.0176390
646.401	0.0176588
646.479	0.0176844
646.558	0.0176736
646.636	0.0177061
646.714	0.0176770
646.792	0.0178378
646.870	0.0176951
646.948	0.0176309
647.026	0.0176803
647.104	0.0178041
647.183	0.0178257
647.261	0.0176910
647.339	0.0177024
647.417	0.0177587
647.495	0.0176273
647.573	0.0177388
647.651	0.0177296
647.729	0.0176253
647.808	0.0176241
647.886	0.0176913
647.964	0.0176113
648.042	0.0178133
648.120	0.0176870
648.198	0.0176278
648.276	0.0176072
648.354	0.0176250
648.433	0.0176616
648.511	0.0176291
648.589	0.0176288
648.667	0.0177110
648.745	0.0175203
648.823	0.0176653
648.901	0.0177720
648.979	0.0176892
649.058	0.0175626
649.136	0.0175737
649.214	0.0176398
649.292	0.0177289
649.370	0.0177437
649.448	0.0176677
649.526	0.0177905
649.604	0.0178434
649.683	0.0178190
649.761	0.0175658
649.839	0.0176692
649.917	0.0176218
649.995	0.0176022
650.073	0.0177407
650.151	0.0177744
650.229	0.0176085
650.308	0.0176473
650.386	0.0178131
650.464	0.0177335
650.542	0.0176627
650.620	0.0177003
650.698	0.0178513
650.776	0.0178428
650.854	0.0175394
650.933	0.0175444
651.011	0.0177598
651.089	0.0176626
651.167	0.0176069
651.245	0.0177533
651.323	0.0177123
651.401	0.0176060
651.479	0.0177499
651.558	0.0177478
651.636	0.0178536
651.714	0.0177249
651.792	0.0176662
651.870	0.0176501
651.948	0.0177746
652.026	0.0175123
652.104	0.0175698
652.183	0.0177638
652.261	0.0176228
652.339	0.0176093
652.417	0.0176218
652.495	0.0177040
652.573	0.0177022
652.651	0.0177042
652.729	0.0176921
652.808	0.0178404
652.886	0.0177223
652.964	0.0176497
653.042	0.0176137
653.120	0.0175822
653.198	0.0176821
653.276	0.0176069
653.354	0.0176109
653.433	0.0176225
653.511	0.0175919
653.589	0.0177077
653.667	0.0175927
653.745	0.0178313
653.823	0.0176108
653.901	0.0176949
653.979	0.0176693
654.058	0.0176011
654.136	0.0176158
654.214	0.0176932
654.292	0.0176941
654.370	0.0176477
654.448	0.0176243
654.526	0.0176276
654.604	0.0176877
654.683	0.0176122
654.761	0.0177105
654.839	0.0176633
654.917	0.0176577
654.995	0.0177130
655.073	0.0176156
655.151	0.0175737
655.229	0.0177304
655.308	0.0177493
655.386	0.0177642
655.464	0.0177585
655.542	0.0175528
655.620	0.0177463
655.698	0.0177110
655.776	0.0176701
655.854	0.0176476
655.933	0.0176727
656.011	0.0177135
656.089	0.0176443
656.167	0.0175573
656.245	0.0174275
656.323	0.0175325
656.401	0.0174158
656.479	0.0175195
656.558	0.0175406
656.636	0.0175342
656.714	0.0174977
656.792	0.0175286
656.870	0.0174648
656.948	0.0176971
657.026	0.0177518
657.104	0.0179016
657.183	0.0177850
657.261	0.0178621
657.339	0.0177319
657.417	0.0177791
657.495	0.0178165
657.573	0.0176447
657.651	0.0176556
657.729	0.0176381
657.808	0.0176670
657.886	0.0175777
657.964	0.0176710
658.042	0.0174644
658.120	0.0174651
658.198	0.0174388
658.276	0.0174941
658.354	0.0174832
658.433	0.0174911
658.511	0.0175420
658.589	0.0175018
658.667	0.0174620
658.745	0.0175625
658.823	0.0176672
658.901	0.0176328
658.979	0.0175783
659.058	0.0178780
659.136	0.0176879
659.214	0.0178210
659.292	0.0178511
659.370	0.0176479
659.448	0.0176476
659.526	0.0177368
659.604	0.0176563
659.683	0.0175832
659.761	0.0175167
659.839	0.0174090
659.917	0.0173713
659.995	0.0172823
660.073	0.0174251
660.151	0.0173351
660.229	0.0172849
660.308	0.0174946
660.386	0.0175919
660.464	0.0175767
660.542	0.0176016
660.620	0.0176991
660.698	0.0176857
660.776	0.0176923
660.854	0.0176041
660.933	0.0176014
661.011	0.0178560
661.089	0.0176862
661.167	0.0177325
661.245	0.0177175
661.323	0.0175938
661.401	0.0178891
661.479	0.0176914
661.558	0.0175832
661.636	0.0175654
661.714	0.0176012
661.792	0.0176093
661.870	0.0173825
661.948	0.0176003
662.026	0.0174723
662.104	0.0174218
662.183	0.0175234
662.261	0.0174406
662.339	0.0175311
662.417	0.0175667
662.495	0.0175159
662.573	0.0175687
662.651	0.0177080
662.729	0.0177704
662.808	0.0176969
662.886	0.0177582
662.964	0.0178320
663.042	0.0177195
663.120	0.0177707
663.198	0.0177757
663.276	0.0177847
663.354	0.0178907
663.433	0.0176604
663.511	0.0176823
663.589	0.0176856
663.667	0.0177328
663.745	0.0176431
663.823	0.0175143
663.901	0.0176550
663.979	0.0174944
664.058	0.0174564
664.136	0.0173962
664.214	0.0173469
664.292	0.0173478
664.370	0.0174069
664.448	0.0174126
664.526	0.0174978
664.604	0.0175683
664.683	0.0177009
664.761	0.0176125
664.839	0.0177811
664.917	0.0178630
664.995	0.0178926
665.073	0.0179483
665.151	0.0178954
665.229	0.0178824
665.308	0.0178029
665.386	0.0177036
665.464	0.0175397
665.542	0.0175542
665.620	0.0175610
665.698	0.0175545
665.776	0.0175127
665.854	0.0175517
665.933	0.0175984
666.011	0.0175094
666.089	0.0175618
666.167	0.0175381
666.245	0.0174483
666.323	0.0174360
666.401	0.0176279
666.479	0.0175780
666.558	0.0175963
666.636	0.0177406
666.714	0.0175211
666.792	0.0176562
666.870	0.0176333
666.948	0.0177762
667.026	0.0177735
667.104	0.0178313
667.183	0.0177483
667.261	0.0179047
667.339	0.0177627
667.417	0.0178841
667.495	0.0179148
667.573	0.0178730
667.651	0.0178224
667.729	0.0177245
667.808	0.0177571
667.886	0.0176948
667.964	0.0175691
668.042	0.0175709
668.120	0.0177109
668.198	0.0176344
668.276	0.0176147
668.354	0.0175423
668.433	0.0176514
668.511	0.0176531
668.589	0.0176414
668.667	0.0176553
668.745	0.0176697
668.823	0.0176714
668.901	0.0176270
668.979	0.0176829
669.058	0.0178941
669.136	0.0177734
669.214	0.0178031
669.292	0.0176809
669.370	0.0177388
669.448	0.0177639
669.526	0.0176886
669.604	0.0176704
669.683	0.0178337
669.761	0.0175818
669.839	0.0177248
669.917	0.0176596
669.995	0.0175724
670.073	0.0176211
670.151	0.0176127
670.229	0.0177197
670.308	0.0176409
670.386	0.0175949
670.464	0.0175101
670.542	0.0176093
670.620	0.0176950
670.698	0.0175495
670.776	0.0177067
670.854	0.0176863
670.933	0.0176279
671.011	0.0176026
671.089	0.0179070
671.167	0.0178598
671.245	0.0179035
671.323	0.0179729
671.401	0.0178411
671.479	0.0177924
671.558	0.0178387
671.636	0.0177768
671.714	0.0176746
671.792	0.0177510
671.870	0.0177224
671.948	0.0176267
672.026	0.0174743
672.104	0.0174405
672.183	0.0173383
672.261	0.0175322
672.339	0.0174371
672.417	0.0174815
672.495	0.0174879
672.573	0.0175160
672.651	0.0176380
672.729	0.0177381
672.808	0.0177608
672.886	0.0178054
672.964	0.0180109
673.042	0.0179601
673.120	0.0179600
673.198	0.0179553
673.276	0.0179942
673.354	0.0178432
673.433	0.0180408
673.511	0.0178840
673.589	0.0177189
673.667	0.0178577
673.745	0.0175980
673.823	0.0173528
673.901	0.0174514
673.979	0.0173766
674.058	0.0173741
674.136	0.0174153
674.214	0.0173003
674.292	0.0173858
674.370	0.0173222
674.448	0.0175746
674.526	0.0176971
674.604	0.0175359
674.683	0.0178991
674.761	0.0178399
674.839	0.0178580
674.917	0.0179774
674.995	0.0179316
675.073	0.0181088
675.151	0.0180672
675.229	0.0180614
675.308	0.0180074
675.386	0.0179226
675.464	0.0176896
675.542	0.0175521
675.620	0.0175076
675.698	0.0175319
675.776	0.0174078
675.854	0.0172828
675.933	0.0173112
676.011	0.0173196
676.089	0.0173284
676.167	0.0173199
676.245	0.0173537
676.323	0.0175147
676.401	0.0174313
676.479	0.0175771
676.558	0.0177676
676.636	0.0176202
676.714	0.0178160
676.792	0.0179218
676.870	0.0179576
676.948	0.0181033
677.026	0.0179381
677.104	0.0179267
677.183	0.0179741
677.261	0.0178867
677.339	0.0178027
677.417	0.0176954
677.495	0.0177544
677.573	0.0175914
677.651	0.0176785
677.729	0.0173662
677.808	0.0173664
677.886	0.0172733
677.964	0.0173291
678.042	0.0174148
678.120	0.0172568
678.198	0.0172807
678.276	0.0172000
678.354	0.0175028
678.433	0.0174631
678.511	0.0175195
678.589	0.0177129
678.667	0.0177001
678.745	0.0176691
678.823	0.0177562
678.901	0.0179390
678.979	0.0180035
679.058	0.0177795
679.136	0.0179163
679.214	0.0179443
679.292	0.0180809
679.370	0.0178695
679.448	0.0177985
679.526	0.0177207
679.604	0.0176082
679.683	0.0176101
679.761	0.0176176
679.839	0.0174922
679.917	0.0174564
679.995	0.0173695
680.073	0.0173206
680.151	0.0174966
680.229	0.0174916
680.308	0.0173888
680.386	0.0174849
680.464	0.0174119
680.542	0.0176688
680.620	0.0175657
680.698	0.0175962
680.776	0.0177857
680.854	0.0178916
680.933	0.0178806
681.011	0.0177647
681.089	0.0177545
681.167	0.0178019
681.245	0.0177799
681.323	0.0178579
681.401	0.0175639
681.479	0.0175788
681.558	0.0175737
681.636	0.0175213
681.714	0.0174645
681.792	0.0175312
681.870	0.0175348
681.948	0.0174149
682.026	0.0173667
682.104	0.0174488
682.183	0.0176152
682.261	0.0175337
682.339	0.0176189
682.417	0.0175677
682.495	0.0177068
682.573	0.0176061
682.651	0.0176469
682.729	0.0176638
682.808	0.0177412
682.886	0.0176936
682.964	0.0176318
683.042	0.0177408
683.120	0.0177058
683.198	0.0178944
683.276	0.0178899
683.354	0.0178286
683.433	0.0179076
683.511	0.0178355
683.589	0.0178395
683.667	0.0178535
683.745	0.0177760
683.823	0.0178979
683.901	0.0178709
683.979	0.0177768
684.058	0.0177792
684.136	0.0176591
684.214	0.0178193
684.292	0.0177235
684.370	0.0176220
684.448	0.0178031
684.526	0.0175830
684.604	0.0175631
684.683	0.0177560
684.761	0.0175584
684.839	0.0176532
684.917	0.0175566
684.995	0.0176242
685.073	0.0174261
685.151	0.0175474
685.229	0.0175739
685.308	0.0175853
685.386	0.0174834
685.464	0.0173728
685.542	0.0172744
685.620	0.0173212
685.698	0.0173461
685.776	0.0173670
685.854	0.0173595
685.933	0.0173515
686.011	0.0173769
686.089	0.0175314
686.167	0.0174076
686.245	0.0175021
686.323	0.0176681
686.401	0.0176704
686.479	0.0178069
686.558	0.0177839
686.636	0.0178708
686.714	0.0179789
686.792	0.0179628
686.870	0.0180016
686.948	0.0180059
687.026	0.0180433
687.104	0.0180819
687.183	0.0178605
687.261	0.0179702
687.339	0.0180663
687.417	0.0178365
687.495	0.0178209
687.573	0.0178171
687.651	0.0178812
687.729	0.0176293
687.808	0.0177875
687.886	0.0176655
687.964	0.0175226
688.042	0.0177177
688.120	0.0176501
688.198	0.0176767
688.276	0.0176789
688.354	0.0176727
688.433	0.0176345
688.511	0.0176190
688.589	0.0176343
688.667	0.0175294
688.745	0.0175103
688.823	0.0177082
688.901	0.0175164
688.979	0.0175526
689.058	0.0175729
689.136	0.0175245
689.214	0.0174806
689.292	0.0175263
689.370	0.0175542
689.448	0.0174471
689.526	0.0173557
689.604	0.0175612
689.683	0.0175250
689.761	0.0174211
689.839	0.0172945
689.917	0.0174006
689.995	0.0174047
690.073	0.0171991
690.151	0.0173526
690.229	0.0174368
690.308	0.0173868
690.386	0.0174574
690.464	0.0172611
690.542	0.0174471
690.620	0.0176656
690.698	0.0174651
690.776	0.0175471
690.854	0.0176581
690.933	0.0177078
691.011	0.0176706
691.089	0.0176149
691.167	0.0176158
691.245	0.0177346
691.323	0.0177840
691.401	0.0176623
691.479	0.0175911
691.558	0.0176136
691.636	0.0177350
691.714	0.0176786
691.792	0.0178000
691.870	0.0179572
691.948	0.0179250
692.026	0.0179025
692.104	0.0177895
692.183	0.0180395
692.261	0.0180426
692.339	0.0180708
692.417	0.0178370
692.495	0.0180604
692.573	0.0179964
692.651	0.0179871
692.729	0.0179745
692.808	0.0179449
692.886	0.0178748
692.964	0.0179472
693.042	0.0177853
693.120	0.0177251
693.198	0.0177652
693.276	0.0176765
693.354	0.0177407
693.433	0.0176770
693.511	0.0175648
693.589	0.0175842
693.667	0.0177220
693.745	0.0176884
693.823	0.0176472
693.901	0.0175830
693.979	0.0175862
694.058	0.0175331
694.136	0.0174692
694.214	0.0175505
694.292	0.0175835
694.370	0.0175000
694.448	0.0175198
694.526	0.0174337
694.604	0.0174477
694.683	0.0174728
694.761	0.0173108
694.839	0.0174386
694.917	0.0174433
694.995	0.0173291
695.073	0.0173122
695.151	0.0174650
695.229	0.0174251
695.308	0.0174010
695.386	0.0174090
695.464	0.0175640
695.542	0.0173412
695.620	0.0174588
695.698	0.0176379
695.776	0.0175442
695.854	0.0176411
695.933	0.0176053
696.011	0.0176019
696.089	0.0175938
696.167	0.0178297
696.245	0.0177578
696.323	0.0177695
696.401	0.0176579
696.479	0.0175975
696.558	0.0177016
696.636	0.0177608
696.714	0.0177485
696.792	0.0176906
696.870	0.0177679
696.948	0.0177962
697.026	0.0176712
697.104	0.0177245
697.183	0.0177451
697.261	0.0177684
697.339	0.0178467
697.417	0.0176211
697.495	0.0176460
697.573	0.0176647
697.651	0.0176505
697.729	0.0177432
697.808	0.0176232
697.886	0.0176621
697.964	0.0177781
698.042	0.0177650
698.120	0.0176202
698.198	0.0177755
698.276	0.0178558
698.354	0.0179221
698.433	0.0179398
698.511	0.0177938
698.589	0.0178835
698.667	0.0178992
698.745	0.0179298
698.823	0.0178753
698.901	0.0178548
698.979	0.0179846
699.058	0.0179886
699.136	0.0179340
699.214	0.0178187
699.292	0.0176877
699.370	0.0177819
699.448	0.0177048
699.526	0.0175898
699.604	0.0175261
699.683	0.0176942
699.761	0.0176830
699.839	0.0175879
699.917	0.0175251
699.995	0.0177164
700.073	0.0176910
700.151	0.0177347
700.229	0.0176205
700.308	0.0175867
700.386	0.0175905
700.464	0.0175433
700.542	0.0174892
700.620	0.0173544
700.698	0.0174249
700.776	0.0174477
700.854	0.0171425
700.933	0.0172117
701.011	0.0171290
701.089	0.0171165
701.167	0.0169968
701.245	0.0168766
701.323	0.0169044
701.401	0.0168481
701.479	0.0169434
701.558	0.0169171
701.636	0.0169873
701.714	0.0170384
701.792	0.0171750
701.870	0.0172411
701.948	0.0174035
702.026	0.0176038
702.104	0.0175256
702.183	0.0176694
702.261	0.0178212
702.339	0.0178719
702.417	0.0180936
702.495	0.0181199
702.573	0.0180373
702.651	0.0181322
702.729	0.0181017
702.808	0.0181142
702.886	0.0181162
702.964	0.0180029
703.042	0.0178754
703.120	0.0179005
703.198	0.0178186
703.276	0.0177004
703.354	0.0175209
703.433	0.0176658
703.511	0.0175803
703.589	0.0175453
703.667	0.0174810
703.745	0.0175571
703.823	0.0177790
703.901	0.0177766
703.979	0.0179423
704.058	0.0179544
704.136	0.0181786
704.214	0.0183208
704.292	0.0184052
704.370	0.0185361
704.448	0.0185533
704.526	0.0186954
704.604	0.0189455
704.683	0.0187826
704.761	0.0188506
704.839	0.0187440
704.917	0.0185278
704.995	0.0184846
705.073	0.0183643
705.151	0.0179423
705.229	0.0177589
705.308	0.0174758
705.386	0.0172608
705.464	0.0171174
705.542	0.0171041
705.620	0.0168617
705.698	0.0167371
705.776	0.0166824
705.854	0.0165334
705.933	0.0164396
706.011	0.0165540
706.089	0.0165881
706.167	0.0165035
706.245	0.0165723
706.323	0.0165539
706.401	0.0165847
706.479	0.0166428
706.558	0.0167520
706.636	0.0170500
706.714	0.0171033
706.792	0.0172421
706.870	0.0173839
706.948	0.0175143
707.026	0.0175977
707.104	0.0177798
707.183	0.0178194
707.261	0.0179648
707.339	0.0180317
707.417	0.0179318
707.495	0.0179054
707.573	0.0179459
707.651	0.0178902
707.729	0.0178260
707.808	0.0177882
707.886	0.0177145
707.964	0.0176818
708.042	0.0177161
708.120	0.0175438
708.198	0.0176077
708.276	0.0175770
708.354	0.0175832
708.433	0.0177322
708.511	0.0177484
708.589	0.0174863
708.667	0.0176501
708.745	0.0175163
708.823	0.0176573
708.901	0.0175412
708.979	0.0174645
709.058	0.0174212
709.136	0.0173974
709.214	0.0174673
709.292	0.0174724
709.370	0.0175313
709.448	0.0177191
709.526	0.0178493
709.604	0.0179503
709.683	0.0181908
709.761	0.0182025
709.839	0.0184245
709.917	0.0186509
709.995	0.0185950
710.073	0.0187759
710.151	0.0189261
710.229	0.0187196
710.308	0.0187534
710.386	0.0187100
710.464	0.0185607
710.542	0.0183062
710.620	0.0183475
710.698	0.0181367
710.776	0.0179457
710.854	0.0179102
710.933	0.0177764
711.011	0.0176585
711.089	0.0176294
711.167	0.0174761
711.245	0.0175096
711.323	0.0173810
711.401	0.0173627
711.479	0.0172365
711.558	0.0173383
711.636	0.0173341
711.714	0.0173861
711.792	0.0174358
711.870	0.0174052
711.948	0.0175057
712.026	0.0174258
712.104	0.0175198
712.183	0.0175171
712.261	0.0175569
712.339	0.0173173
712.417	0.0170679
712.495	0.0169727
712.573	0.0169962
712.651	0.0168861
712.729	0.0165742
712.808	0.0165765
712.886	0.0164961
712.964	0.0164618
713.042	0.0163431
713.120	0.0164645
713.198	0.0165292
713.276	0.0166650
713.354	0.0166061
713.433	0.0169298
713.511	0.0169969
713.589	0.0170924
713.667	0.0173119
713.745	0.0174341
713.823	0.0175645
713.901	0.0176871
713.979	0.0177098
714.058	0.0176339
714.136	0.0176504
714.214	0.0179036
714.292	0.0179697
714.370	0.0180232
714.448	0.0179959
714.526	0.0180844
714.604	0.0181562
714.683	0.0182243
714.761	0.0185423
714.839	0.0183138
714.917	0.0185226
714.995	0.0186141
715.073	0.0188155
715.151	0.0189249
715.229	0.0188383
715.308	0.0187996
715.386	0.0188148
715.464	0.0187206
715.542	0.0187198
715.620	0.0185772
715.698	0.0185183
715.776	0.0184626
715.854	0.0182510
715.933	0.0182215
716.011	0.0179794
716.089	0.0178437
716.167	0.0177581
716.245	0.0175817
716.323	0.0173544
716.401	0.0171861
716.479	0.0169264
716.558	0.0169995
716.636	0.0167448
716.714	0.0166228
716.792	0.0164135
716.870	0.0164425
716.948	0.0164650
717.026	0.0163620
717.104	0.0165318
717.183	0.0167062
717.261	0.0168570
717.339	0.0169625
717.417	0.0171117
717.495	0.0176144
717.573	0.0177106
717.651	0.0180779
717.729	0.0183612
717.808	0.0183980
717.886	0.0187289
717.964	0.0189362
718.042	0.0187907
718.120	0.0188136
718.198	0.0188268
718.276	0.0185950
718.354	0.0184737
718.433	0.0182894
718.511	0.0181763
718.589	0.0178922
718.667	0.0177483
718.745	0.0175861
718.823	0.0175529
718.901	0.0174023
718.979	0.0174117
719.058	0.0173112
719.136	0.0172174
719.214	0.0173139
719.292	0.0171861
719.370	0.0170061
719.448	0.0170947
719.526	0.0169700
719.604	0.0168144
719.683	0.0167630
719.761	0.0165828
719.839	0.0163725
719.917	0.0166232
719.995	0.0163118
720.073	0.0162659
720.151	0.0163233
720.229	0.0163512
720.308	0.0164284
720.386	0.0165524
720.464	0.0167916
720.542	0.0167757
720.620	0.0170409
720.698	0.0171120
720.776	0.0170427
720.854	0.0171697
720.933	0.0173873
721.011	0.0175952
721.089	0.0176758
721.167	0.0177388
721.245	0.0178352
721.323	0.0179422
721.401	0.0180487
721.479	0.0182909
721.558	0.0184632
721.636	0.0186520
721.714	0.0187431
721.792	0.0187410
721.870	0.0187979
721.948	0.0189788
722.026	0.0188902
722.104	0.0190104
722.183	0.0190135
722.261	0.0191304
722.339	0.0190351
722.417	0.0188089
722.495	0.0187282
722.573	0.0187569
722.651	0.0187220
722.729	0.0184601
722.808	0.0182665
722.886	0.0182934
722.964	0.0181042
723.042	0.0178966
723.120	0.0179259
723.198	0.0179502
723.276	0.0178718
723.354	0.0177935
723.433	0.0177776
723.511	0.0176447
723.589	0.0176403
723.667	0.0174352
723.745	0.0175031
723.823	0.0175795
723.901	0.0173844
723.979	0.0171526
724.058	0.0172080
724.136	0.0171008
724.214	0.0168341
724.292	0.0167193
724.370	0.0166207
724.448	0.0164513
724.526	0.0163881
724.604	0.0165139
724.683	0.0164816
724.761	0.0162794
724.839	0.0164615
724.917	0.0166262
724.995	0.0166001
725.073	0.0167352
725.151	0.0167997
725.229	0.0169544
725.308	0.0171603
725.386	0.0172873
725.464	0.0174613
725.542	0.0175489
725.620	0.0176085
725.698	0.0176463
725.776	0.0178087
725.854	0.0179002
725.933	0.0179366
726.011	0.0179618
726.089	0.0179765
726.167	0.0178964
726.245	0.0180877
726.323	0.0180863
726.401	0.0180565
726.479	0.0181562
726.558	0.0181213
726.636	0.0180025
726.714	0.0180004
726.792	0.0178551
726.870	0.0179665
726.948	0.0177692
727.026	0.0177316
727.104	0.0175419
727.183	0.0175810
727.261	0.0175801
727.339	0.0175082
727.417	0.0174549
727.495	0.0174316
727.573	0.0175436
727.651	0.0176591
727.729	0.0177202
727.808	0.0178619
727.886	0.0177074
727.964	0.0179063
728.042	0.0179172
728.120	0.0179631
728.198	0.0179700
728.276	0.0180405
728.354	0.0181902
728.433	0.0181252
728.511	0.0178393
728.589	0.0179174
728.667	0.0178118
728.745	0.0178237
728.823	0.0176549
728.901	0.0175845
728.979	0.0175658
729.058	0.0175655
729.136	0.0174331
729.214	0.0175274
729.292	0.0174866
729.370	0.0177139
729.448	0.0175140
729.526	0.0175949
729.604	0.0176612
729.683	0.0177480
729.761	0.0177809
729.839	0.0179490
729.917	0.0180127
729.995	0.0180199
730.073	0.0181253
730.151	0.0181867
730.229	0.0182315
730.308	0.0181122
730.386	0.0182005
730.464	0.0182353
730.542	0.0181127
730.620	0.0181867
730.698	0.0181374
730.776	0.0182934
730.854	0.0180070
730.933	0.0178970
731.011	0.0178289
731.089	0.0178096
731.167	0.0178300
731.245	0.0177663
731.323	0.0175365
731.401	0.0174648
731.479	0.0173914
731.558	0.0172745
731.636	0.0171443
731.714	0.0171116
731.792	0.0171466
731.870	0.0170022
731.948	0.0169212
732.026	0.0169637
732.104	0.0168241
732.183	0.0168417
732.261	0.0168062
732.339	0.0168388
732.417	0.0168597
732.495	0.0169524
732.573	0.0168911
732.651	0.0169374
732.729	0.0170317
732.808	0.0169689
732.886	0.0170255
732.964	0.0172207
733.042	0.0172018
733.120	0.0172170
733.198	0.0171780
733.276	0.0172594
733.354	0.0172455
733.433	0.0171719
733.511	0.0170269
733.589	0.0170921
733.667	0.0171133
733.745	0.0170889
733.823	0.0171172
733.901	0.0170957
733.979	0.0172940
734.058	0.0174255
734.136	0.0174567
734.214	0.0177732
734.292	0.0179067
734.370	0.0180310
734.448	0.0181811
734.526	0.0182867
734.604	0.0185303
734.683	0.0185129
734.761	0.0185198
734.839	0.0185535
734.917	0.0186264
734.995	0.0186393
735.073	0.0186126
735.151	0.0183766
735.229	0.0184636
735.308	0.0185060
735.386	0.0183663
735.464	0.0185439
735.542	0.0184740
735.620	0.0183841
735.698	0.0184513
735.776	0.0185207
735.854	0.0185295
735.933	0.0184695
736.011	0.0185853
736.089	0.0183647
736.167	0.0183860
736.245	0.0182468
736.323	0.0181902
736.401	0.0181868
736.479	0.0181240
736.558	0.0179324
736.636	0.0177912
736.714	0.0175278
736.792	0.0174741
736.870	0.0176172
736.948	0.0173225
737.026	0.0172689
737.104	0.0171568
737.183	0.0170667
737.261	0.0170771
737.339	0.0170805
737.417	0.0172009
737.495	0.0170148
737.573	0.0171493
737.651	0.0171298
737.729	0.0169939
737.808	0.0170235
737.886	0.0169423
737.964	0.0170298
738.042	0.0167545
738.120	0.0168993
738.198	0.0168510
738.276	0.0167904
738.354	0.0166193
738.433	0.0166809
738.511	0.0167071
738.589	0.0167744
738.667	0.0166454
738.745	0.0167097
738.823	0.0166949
738.901	0.0168713
738.979	0.0169021
739.058	0.0169276
739.136	0.0169759
739.214	0.0170538
739.292	0.0172369
739.370	0.0172865
739.448	0.0173695
739.526	0.0176582
739.604	0.0178158
739.683	0.0180775
739.761	0.0182145
739.839	0.0182870
739.917	0.0183276
739.995	0.0183174
740.073	0.0184739
740.151	0.0183107
740.229	0.0183973
740.308	0.0184232
740.386	0.0183646
740.464	0.0181966
740.542	0.0179492
740.620	0.0181493
740.698	0.0181332
740.776	0.0180225
740.854	0.0180088
740.933	0.0180648
741.011	0.0181657
741.089	0.0181855
741.167	0.0182565
741.245	0.0182887
741.323	0.0182746
741.401	0.0183760
741.479	0.0183468
741.558	0.0182640
741.636	0.0185234
741.714	0.0183075
741.792	0.0182018
741.870	0.0180528
741.948	0.0180585
742.026	0.0179809
742.104	0.0179959
742.183	0.0177639
742.261	0.0177314
742.339	0.0177357
742.417	0.0174409
742.495	0.0175169
742.573	0.0172729
742.651	0.0173024
742.729	0.0173979
742.808	0.0173490
742.886	0.0173077
742.964	0.0174471
743.042	0.0174995
743.120	0.0174374
743.198	0.0174049
743.276	0.0174474
743.354	0.0174518
743.433	0.0173729
743.511	0.0174966
743.589	0.0176601
743.667	0.0175291
743.745	0.0177167
743.823	0.0177838
743.901	0.0175016
743.979	0.0176022
744.058	0.0176884
744.136	0.0177180
744.214	0.0176352
744.292	0.0175698
744.370	0.0175639
744.448	0.0174711
744.526	0.0175026
744.604	0.0175163
744.683	0.0173256
744.761	0.0171561
744.839	0.0170956
744.917	0.0172366
744.995	0.0171088
745.073	0.0170850
745.151	0.0170313
745.229	0.0171233
745.308	0.0172221
745.386	0.0171759
745.464	0.0172498
745.542	0.0172054
745.620	0.0173927
745.698	0.0173392
745.776	0.0175323
745.854	0.0176099
745.933	0.0176650
746.011	0.0176271
746.089	0.0178118
746.167	0.0178370
746.245	0.0179749
746.323	0.0178560
746.401	0.0181004
746.479	0.0179804
746.558	0.0180331
746.636	0.0179568
746.714	0.0178667
746.792	0.0179182
746.870	0.0179292
746.948	0.0179501
747.026	0.0178921
747.104	0.0180155
747.183	0.0180251
747.261	0.0177362
747.339	0.0176888
747.417	0.0178672
747.495	0.0178526
747.573	0.0177612
747.651	0.0177609
747.729	0.0176309
747.808	0.0176859
747.886	0.0177154
747.964	0.0176141
748.042	0.0177396
748.120	0.0179060
748.198	0.0177373
748.276	0.0178513
748.354	0.0177797
748.433	0.0179095
748.511	0.0179350
748.589	0.0178003
748.667	0.0178950
748.745	0.0178737
748.823	0.0177698
748.901	0.0178144
748.979	0.0177884
749.058	0.0177386
749.136	0.0177538
749.214	0.0176823
749.292	0.0177808
749.370	0.0177528
749.448	0.0174995
749.526	0.0176231
749.604	0.0177502
749.683	0.0177081
749.761	0.0178257
749.839	0.0176775
749.917	0.0176402
749.995	0.0178173
750.073	0.0179593
750.151	0.0177865
750.229	0.0176995
750.308	0.0177957
750.386	0.0177470
750.464	0.0177100
750.542	0.0177647
750.620	0.0177657
750.698	0.0177850
750.776	0.0175661
750.854	0.0177863
750.933	0.0175332
751.011	0.0175626
751.089	0.0176582
751.167	0.0175437
751.245	0.0174432
751.323	0.0175340
751.401	0.0175602
751.479	0.0174954
751.558	0.0175568
751.636	0.0173533
751.714	0.0174036
751.792	0.0173573
751.870	0.0172497
751.948	0.0172701
752.026	0.0172648
752.104	0.0172590
752.183	0.0171109
752.261	0.0170598
752.339	0.0170670
752.417	0.0171124
752.495	0.0170681
752.573	0.0168853
752.651	0.0169908
752.729	0.0170335
752.808	0.0170489
752.886	0.0170777
752.964	0.0173527
753.042	0.0173804
753.120	0.0173074
753.198	0.0175226
753.276	0.0174925
753.354	0.0174628
753.433	0.0175758
753.511	0.0175493
753.589	0.0176134
753.667	0.0177986
753.745	0.0177333
753.823	0.0177431
753.901	0.0178453
753.979	0.0179116
754.058	0.0178924
754.136	0.0178886
754.214	0.0179229
754.292	0.0180684
754.370	0.0180611
754.448	0.0182201
754.526	0.0181570
754.604	0.0181391
754.683	0.0183731
754.761	0.0183539
754.839	0.0183755
754.917	0.0183006
754.995	0.0184483
755.073	0.0183671
755.151	0.0184190
755.229	0.0184319
755.308	0.0183267
755.386	0.0182226
755.464	0.0181380
755.542	0.0180044
755.620	0.0178647
755.698	0.0178568
755.776	0.0178595
755.854	0.0177946
755.933	0.0177429
756.011	0.0177312
756.089	0.0176166
756.167	0.0176509
756.245	0.0177656
756.323	0.0177917
756.401	0.0176974
756.479	0.0177258
756.558	0.0177148
756.636	0.0177098
756.714	0.0177397
756.792	0.0176305
756.870	0.0178538
756.948	0.0175114
757.026	0.0174131
757.104	0.0175246
757.183	0.0173443
757.261	0.0174488
757.339	0.0172403
757.417	0.0172777
757.495	0.0172469
757.573	0.0172559
757.651	0.0171401
757.729	0.0170128
757.808	0.0170307
757.886	0.0171417
757.964	0.0172798
758.042	0.0170390
758.120	0.0171477
758.198	0.0171436
758.276	0.0172062
758.354	0.0172839
758.433	0.0172630
758.511	0.0172272
758.589	0.0174227
758.667	0.0173419
758.745	0.0171941
758.823	0.0172369
758.901	0.0173121
758.979	0.0173592
759.058	0.0173965
759.136	0.0174851
759.214	0.0175247
759.292	0.0176197
759.370	0.0175738
759.448	0.0176073
759.526	0.0176839
759.604	0.0177121
759.683	0.0175810
759.761	0.0176691
759.839	0.0177534
759.917	0.0176756
759.995	0.0177451
760.073	0.0178448
760.151	0.0178204
760.229	0.0176384
760.308	0.0176772
760.386	0.0176646
760.464	0.0178452
760.542	0.0175365
760.620	0.0177451
760.698	0.0177262
760.776	0.0178346
760.854	0.0179857
760.933	0.0178557
761.011	0.0178148
761.089	0.0180429
761.167	0.0179987
761.245	0.0181500
761.323	0.0180694
761.401	0.0180725
761.479	0.0181191
761.558	0.0181992
761.636	0.0181827
761.714	0.0182412
761.792	0.0180407
761.870	0.0182822
761.948	0.0182606
762.026	0.0179513
762.104	0.0181598
762.183	0.0181406
762.261	0.0180991
762.339	0.0181440
762.417	0.0181042
762.495	0.0183030
762.573	0.0180635
762.651	0.0180944
762.729	0.0179423
762.808	0.0179552
762.886	0.0180551
762.964	0.0178904
763.042	0.0177605
763.120	0.0177180
763.198	0.0176160
763.276	0.0175900
763.354	0.0175719
763.433	0.0174219
763.511	0.0174349
763.589	0.0173566
763.667	0.0173840
763.745	0.0172614
763.823	0.0172194
763.901	0.0171655
763.979	0.0171853
764.058	0.0172179
764.136	0.0171711
764.214	0.0170988
764.292	0.0171841
764.370	0.0171831
764.448	0.0170570
764.526	0.0172634
764.604	0.0169850
764.683	0.0170979
764.761	0.0171323
764.839	0.0171467
764.917	0.0170572
764.995	0.0171249
765.073	0.0170206
765.151	0.0170819
765.229	0.0169730
765.308	0.0171388
765.386	0.0170995
765.464	0.0171106
765.542	0.0171825
765.620	0.0171435
765.698	0.0172898
765.776	0.0175188
765.854	0.0175983
765.933	0.0176943
766.011	0.0178587
766.089	0.0177557
766.167	0.0179251
766.245	0.0178618
766.323	0.0180582
766.401	0.0180506
766.479	0.0181600
766.558	0.0180357
766.636	0.0180988
766.714	0.0181054
766.792	0.0181602
766.870	0.0180479
766.948	0.0178799
767.026	0.0179906
767.104	0.0182040
767.183	0.0181723
767.261	0.0180887
767.339	0.0181572
767.417	0.0179707
767.495	0.0180735
767.573	0.0181758
767.651	0.0182565
767.729	0.0181840
767.808	0.0181632
767.886	0.0182675
767.964	0.0182046
768.042	0.0181657
768.120	0.0183005
768.198	0.0181870
768.276	0.0181167
768.354	0.0179266
768.433	0.0180048
768.511	0.0178315
768.589	0.0176556
768.667	0.0178167
768.745	0.0176654
768.823	0.0176022
768.901	0.0174310
768.979	0.0173028
769.058	0.0173539
769.136	0.0172372
769.214	0.0171510
769.292	0.0170523
769.370	0.0171075
769.448	0.0171873
769.526	0.0170180
769.604	0.0170885
769.683	0.0172890
769.761	0.0173735
769.839	0.0174773
769.917	0.0175100
769.995	0.0175989
770.073	0.0175546
770.151	0.0178343
770.229	0.0176778
770.308	0.0177013
770.386	0.0177699
770.464	0.0177401
770.542	0.0178011
770.620	0.0178730
770.698	0.0175732
770.776	0.0176315
770.854	0.0175500
770.933	0.0174029
771.011	0.0175786
771.089	0.0176530
771.167	0.0173539
771.245	0.0174475
771.323	0.0173750
771.401	0.0174851
771.479	0.0174413
771.558	0.0176073
771.636	0.0176171
771.714	0.0176112
771.792	0.0176641
771.870	0.0176752
771.948	0.0178120
772.026	0.0177025
772.104	0.0175963
772.183	0.0177691
772.261	0.0179086
772.339	0.0177405
772.417	0.0177685
772.495	0.0177568
772.573	0.0177393
772.651	0.0178656
772.729	0.0177178
772.808	0.0176152
772.886	0.0175372
772.964	0.0175604
773.042	0.0175786
773.120	0.0174557
773.198	0.0172340
773.276	0.0173907
773.354	0.0173722
773.433	0.0174046
773.511	0.0173693
773.589	0.0174162
773.667	0.0174910
773.745	0.0177187
773.823	0.0175919
773.901	0.0177239
773.979	0.0178032
774.058	0.0179882
774.136	0.0180414
774.214	0.0181689
774.292	0.0181084
774.370	0.0183440
774.448	0.0181792
774.526	0.0182273
774.604	0.0182161
774.683	0.0182364
774.761	0.0183164
774.839	0.0182137
774.917	0.0182541
774.995	0.0180844
775.073	0.0181434
775.151	0.0179000
775.229	0.0178593
775.308	0.0177975
775.386	0.0177010
775.464	0.0176348
775.542	0.0176324
775.620	0.0177452
775.698	0.0175953
775.776	0.0176665
775.854	0.0175489
775.933	0.0174921
776.011	0.0176074
776.089	0.0175333
776.167	0.0174938
776.245	0.0176177
776.323	0.0175758
776.401	0.0174368
776.479	0.0173902
776.558	0.0174952
776.636	0.0173063
776.714	0.0174443
776.792	0.0172299
776.870	0.0171542
776.948	0.0171583
777.026	0.0171799
777.104	0.0172084
777.183	0.0171281
777.261	0.0170668
777.339	0.0172565
777.417	0.0173122
777.495	0.0172690
777.573	0.0175152
777.651	0.0175262
777.729	0.0176767
777.808	0.0175987
777.886	0.0177222
777.964	0.0177415
778.042	0.0179096
778.120	0.0180383
778.198	0.0181137
778.276	0.0181210
778.354	0.0180967
778.433	0.0180759
778.511	0.0182098
778.589	0.0181689
778.667	0.0180361
778.745	0.0180908
778.823	0.0180587
778.901	0.0179277
778.979	0.0179483
779.058	0.0179183
779.136	0.0178273
779.214	0.0177541
779.292	0.0176675
779.370	0.0175942
779.448	0.0175586
779.526	0.0177065
779.604	0.0175286
779.683	0.0173873
779.761	0.0172769
779.839	0.0173151
779.917	0.0173191
779.995	0.0172840
780.073	0.0172682
780.151	0.0173016
780.229	0.0172353
780.308	0.0173986
780.386	0.0174252
780.464	0.0175130
780.542	0.0176547
780.620	0.0177613
780.698	0.0178034
780.776	0.0179963
780.854	0.0178710
780.933	0.0180544
781.011	0.0181535
781.089	0.0179642
781.167	0.0178497
781.245	0.0179398
781.323	0.0178186
781.401	0.0177213
781.479	0.0176659
781.558	0.0176060
781.636	0.0176003
781.714	0.0173641
781.792	0.0173611
781.870	0.0173548
781.948	0.0174148
782.026	0.0172419
782.104	0.0174295
782.183	0.0173512
782.261	0.0174739
782.339	0.0175604
782.417	0.0175510
782.495	0.0176097
782.573	0.0178317
782.651	0.0178374
782.729	0.0178970
782.808	0.0178870
782.886	0.0178321
782.964	0.0179617
783.042	0.0179222
783.120	0.0179105
783.198	0.0179362
783.276	0.0177093
783.354	0.0178013
783.433	0.0177071
783.511	0.0175780
783.589	0.0176658
783.667	0.0177593
783.745	0.0176192
783.823	0.0176942
783.901	0.0176164
783.979	0.0176533
784.058	0.0177239
784.136	0.0178005
784.214	0.0177384
784.292	0.0176419
784.370	0.0178585
784.448	0.0177060
784.526	0.0178926
784.604	0.0178487
784.683	0.0178610
784.761	0.0178914
784.839	0.0179726
784.917	0.0178304
784.995	0.0179256
785.073	0.0179139
785.151	0.0179077
785.229	0.0178136
785.308	0.0178117
785.386	0.0177663
785.464	0.0178440
785.542	0.0176353
785.620	0.0175511
785.698	0.0174725
785.776	0.0173251
785.854	0.0172316
785.933	0.0170332
786.011	0.0169581
786.089	0.0168901
786.167	0.0169351
786.245	0.0169896
786.323	0.0169520
786.401	0.0169819
786.479	0.0171484
786.558	0.0172166
786.636	0.0172552
786.714	0.0174502
786.792	0.0176064
786.870	0.0176732
786.948	0.0178835
787.026	0.0180885
787.104	0.0179387
787.183	0.0180304
787.261	0.0182958
787.339	0.0182452
787.417	0.0182736
787.495	0.0182265
787.573	0.0181995
787.651	0.0182047
787.729	0.0180710
787.808	0.0180392
787.886	0.0178972
787.964	0.0179038
788.042	0.0177936
788.120	0.0176626
788.198	0.0176072
788.276	0.0175418
788.354	0.0175919
788.433	0.0175249
788.511	0.0174490
788.589	0.0175521
788.667	0.0175227
788.745	0.0174772
788.823	0.0174207
788.901	0.0174841
788.979	0.0176596
789.058	0.0175278
789.136	0.0176143
789.214	0.0177162
789.292	0.0177082
789.370	0.0177129
789.448	0.0175681
789.526	0.0174744
789.604	0.0174773
789.683	0.0175149
789.761	0.0174159
789.839	0.0175652
789.917	0.0174647
789.995	0.0175136
790.073	0.0175852
790.151	0.0176712
790.229	0.0178790
790.308	0.0178999
790.386	0.0178403
790.464	0.0180488
790.542	0.0181520
790.620	0.0181361
790.698	0.0181474
790.776	0.0182716
790.854	0.0181966
790.933	0.0184044
791.011	0.0183772
791.089	0.0183402
791.167	0.0181281
791.245	0.0182296
791.323	0.0182141
791.401	0.0180692
791.479	0.0179247
791.558	0.0179810
791.636	0.0178902
791.714	0.0177616
791.792	0.0175996
791.870	0.0174149
791.948	0.0172341
792.026	0.0172354
792.104	0.0169809
792.183	0.0169223
792.261	0.0168101
792.339	0.0167188
792.417	0.0165416
792.495	0.0165505
792.573	0.0165707
792.651	0.0166506
792.729	0.0166734
792.808	0.0168118
792.886	0.0168743
792.964	0.0171481
793.042	0.0172241
793.120	0.0171446
793.198	0.0175760
793.276	0.0176920
793.354	0.0177876
793.433	0.0180695
793.511	0.0180519
793.589	0.0181155
793.667	0.0182055
793.745	0.0182235
793.823	0.0182911
793.901	0.0182363
793.979	0.0183247
794.058	0.0183553
794.136	0.0182570
794.214	0.0181966
794.292	0.0180949
794.370	0.0180116
794.448	0.0179286
794.526	0.0176349
794.604	0.0177145
794.683	0.0176082
794.761	0.0173730
794.839	0.0174551
794.917	0.0173756
794.995	0.0173309
795.073	0.0173781
795.151	0.0174943
795.229	0.0174709
795.308	0.0174766
795.386	0.0173687
795.464	0.0172688
795.542	0.0174319
795.620	0.0173765
795.698	0.0175530
795.776	0.0176746
795.854	0.0174435
795.933	0.0175033
796.011	0.0176478
796.089	0.0176712
796.167	0.0175651
796.245	0.0177246
796.323	0.0175849
796.401	0.0176192
796.479	0.0177067
796.558	0.0178080
796.636	0.0179160
796.714	0.0179591
796.792	0.0178180
796.870	0.0178783
796.948	0.0180901
797.026	0.0180119
797.104	0.0179221
797.183	0.0178477
797.261	0.0180188
797.339	0.0180011
797.417	0.0179948
797.495	0.0179263
797.573	0.0178875
797.651	0.0181293
797.729	0.0178786
797.808	0.0178738
797.886	0.0179305
797.964	0.0177059
798.042	0.0177434
798.120	0.0175792
798.198	0.0174580
798.276	0.0173383
798.354	0.0174883
798.433	0.0172517
798.511	0.0170248
798.589	0.0170399
798.667	0.0170119
798.745	0.0169440
798.823	0.0169748
798.901	0.0169659
798.979	0.0170547
799.058	0.0171049
799.136	0.0171793
799.214	0.0172591
799.292	0.0173841
799.370	0.0174909
799.448	0.0175914
799.526	0.0175465
799.604	0.0176642
799.683	0.0178054
799.761	0.0176888
799.839	0.0179110
799.917	0.0180036
799.995	0.0179298
800.073	0.0180649
800.151	0.0181077
800.229	0.0181364
800.308	0.0181552
800.386	0.0181067
800.464	0.0181501
800.542	0.0181648
800.620	0.0180898
800.698	0.0179695
800.776	0.0180077
800.854	0.0178779
800.933	0.0179488
801.011	0.0178615
801.089	0.0175747
801.167	0.0177793
801.245	0.0175141
801.323	0.0176292
801.401	0.0174641
801.479	0.0174252
801.558	0.0174112
801.636	0.0173968
801.714	0.0174281
801.792	0.0174664
801.870	0.0172687
801.948	0.0174274
802.026	0.0175774
802.104	0.0176176
802.183	0.0175920
802.261	0.0176671
802.339	0.0177023
802.417	0.0175825
802.495	0.0176057
802.573	0.0177934
802.651	0.0176381
802.729	0.0176599
802.808	0.0178103
802.886	0.0178298
802.964	0.0179571
803.042	0.0178082
803.120	0.0178506
803.198	0.0179987
803.276	0.0179746
803.354	0.0179092
803.433	0.0180534
803.511	0.0179997
803.589	0.0180241
803.667	0.0179873
803.745	0.0179635
803.823	0.0178780
803.901	0.0179585
803.979	0.0179888
804.058	0.0178694
804.136	0.0177821
804.214	0.0178965
804.292	0.0177557
804.370	0.0176041
804.448	0.0176547
804.526	0.0175115
804.604	0.0173711
804.683	0.0174192
804.761	0.0173501
804.839	0.0172746
804.917	0.0173852
804.995	0.0171459
805.073	0.0171529
805.151	0.0172865
805.229	0.0173843
805.308	0.0172207
805.386	0.0173063
805.464	0.0175804
805.542	0.0174806
805.620	0.0174492
805.698	0.0176130
805.776	0.0177024
805.854	0.0176469
805.933	0.0176514
806.011	0.0176721
806.089	0.0176979
806.167	0.0177742
806.245	0.0176992
806.323	0.0178752
806.401	0.0177956
806.479	0.0177898
806.558	0.0178001
806.636	0.0179845
806.714	0.0178613
806.792	0.0180478
806.870	0.0179851
806.948	0.0179085
807.026	0.0180210
807.104	0.0180007
807.183	0.0179730
807.261	0.0178600
807.339	0.0178943
807.417	0.0176657
807.495	0.0177203
807.573	0.0176418
807.651	0.0174979
807.729	0.0174698
807.808	0.0175359
807.886	0.0173303
807.964	0.0173710
808.042	0.0174844
808.120	0.0174255
808.198	0.0173215
808.276	0.0175139
808.354	0.0174568
808.433	0.0176052
808.511	0.0174934
808.589	0.0175961
808.667	0.0176857
808.745	0.0178318
808.823	0.0176931
808.901	0.0179020
808.979	0.0178826
809.058	0.0179013
809.136	0.0179980
809.214	0.0178788
809.292	0.0179904
809.370	0.0179124
809.448	0.0177900
809.526	0.0179822
809.604	0.0180140
809.683	0.0179282
809.761	0.0178606
809.839	0.0178643
809.917	0.0178925
809.995	0.0177704
810.073	0.0179060
810.151	0.0179395
810.229	0.0177471
810.308	0.0176907
810.386	0.0177956
810.464	0.0177797
810.542	0.0176811
810.620	0.0177225
810.698	0.0177058
810.776	0.0174800
810.854	0.0174628
810.933	0.0176164
811.011	0.0174433
811.089	0.0174187
811.167	0.0173935
811.245	0.0173898
811.323	0.0173289
811.401	0.0172507
811.479	0.0172659
811.558	0.0172862
811.636	0.0172807
811.714	0.0173165
811.792	0.0174335
811.870	0.0175352
811.948	0.0174075
812.026	0.0173529
812.104	0.0174904
812.183	0.0175443
812.261	0.0175432
812.339	0.0175075
812.417	0.0175964
812.495	0.0177347
812.573	0.0176060
812.651	0.0176528
812.729	0.0176186
812.808	0.0175592
812.886	0.0177917
812.964	0.0176425
813.042	0.0176346
813.120	0.0177311
813.198	0.0177026
813.276	0.0177901
813.354	0.0176968
813.433	0.0179015
813.511	0.0178148
813.589	0.0176581
813.667	0.0177875
813.745	0.0177755
813.823	0.0176926
813.901	0.0176679
813.979	0.0178117
814.058	0.0174884
814.136	0.0175146
814.214	0.0176420
814.292	0.0176339
814.370	0.0174545
814.448	0.0173255
814.526	0.0174301
814.604	0.0175275
814.683	0.0176536
814.761	0.0175896
814.839	0.0175838
814.917	0.0175310
814.995	0.0174796
815.073	0.0175746
815.151	0.0177052
815.229	0.0177013
815.308	0.0177007
815.386	0.0176101
815.464	0.0177402
815.542	0.0178188
815.620	0.0177819
815.698	0.0176974
815.776	0.0176772
815.854	0.0177484
815.933	0.0176402
816.011	0.0176063
816.089	0.0178004
816.167	0.0175977
816.245	0.0176489
816.323	0.0176504
816.401	0.0175925
816.479	0.0176844
816.558	0.0176145
816.636	0.0175579
816.714	0.0176082
816.792	0.0175601
816.870	0.0176170
816.948	0.0176549
817.026	0.0176572
817.104	0.0176810
817.183	0.0176080
817.261	0.0175525
817.339	0.0174399
817.417	0.0174651
817.495	0.0176247
817.573	0.0174294
817.651	0.0173621
817.729	0.0174097
817.808	0.0175151
817.886	0.0175196
817.964	0.0175623
818.042	0.0176064
818.120	0.0175417
818.198	0.0176611
818.276	0.0174981
818.354	0.0175431
818.433	0.0176086
818.511	0.0176343
818.589	0.0176472
818.667	0.0176041
818.745	0.0176080
818.823	0.0176882
818.901	0.0176717
818.979	0.0177006
819.058	0.0177889
819.136	0.0177408
819.214	0.0176051
819.292	0.0175927
819.370	0.0175748
819.448	0.0177061
819.526	0.0177573
819.604	0.0176351
819.683	0.0176875
819.761	0.0177630
819.839	0.0176777
819.917	0.0174722
819.995	0.0174936
820.073	0.0175923
820.151	0.0176361
820.229	0.0175441
820.308	0.0175371
820.386	0.0176983
820.464	0.0174725
820.542	0.0175104
820.620	0.0176270
820.698	0.0176538
820.776	0.0177166
820.854	0.0175916
820.933	0.0176131
821.011	0.0175404
821.089	0.0177432
821.167	0.0175813
821.245	0.0176643
821.323	0.0176519
821.401	0.0176199
821.479	0.0175954
821.558	0.0175841
821.636	0.0174744
821.714	0.0175683
821.792	0.0176612
821.870	0.0174932
821.948	0.0174117
822.026	0.0175275
822.104	0.0175285
822.183	0.0173803
822.261	0.0174970
822.339	0.0174021
822.417	0.0174228
822.495	0.0174978
822.573	0.0174200
822.651	0.0174728
822.729	0.0175679
822.808	0.0175757
822.886	0.0176077
822.964	0.0176373
823.042	0.0175918
823.120	0.0175517
823.198	0.0177267
823.276	0.0178965
823.354	0.0177691
823.433	0.0179430
823.511	0.0178006
823.589	0.0177690
823.667	0.0177858
823.745	0.0176648
823.823	0.0175665
823.901	0.0176423
823.979	0.0176601
824.058	0.0176050
824.136	0.0176523
824.214	0.0175632
824.292	0.0176047
824.370	0.0173712
824.448	0.0175877
824.526	0.0176561
824.604	0.0176053
824.683	0.0176703
824.761	0.0176640
824.839	0.0175208
824.917	0.0176811
824.995	0.0176844
825.073	0.0177823
825.151	0.0176974
825.229	0.0176710
825.308	0.0176003
825.386	0.0175890
825.464	0.0177184
825.542	0.0176473
825.620	0.0176479
825.698	0.0176456
825.776	0.0176228
825.854	0.0175417
825.933	0.0175723
826.011	0.0175562
826.089	0.0175134
826.167	0.0175095
826.245	0.0174003
826.323	0.0173756
826.401	0.0175836
826.479	0.0175782
826.558	0.0175967
826.636	0.0175211
826.714	0.0175509
826.792	0.0175043
826.870	0.0175253
826.948	0.0176166
827.026	0.0175595
827.104	0.0176779
827.183	0.0177567
827.261	0.0176493
827.339	0.0176762
827.417	0.0175961
827.495	0.0176912
827.573	0.0177106
827.651	0.0177593
827.729	0.0177679
827.808	0.0177456
827.886	0.0176349
827.964	0.0175401
828.042	0.0175430
828.120	0.0175175
828.198	0.0175112
828.276	0.0174442
828.354	0.0175356
828.433	0.0174294
828.511	0.0173670
828.589	0.0175014
828.667	0.0174606
828.745	0.0174220
828.823	0.0174146
828.901	0.0173647
828.979	0.0175153
829.058	0.0174136
829.136	0.0174937
829.214	0.0176350
829.292	0.0176261
829.370	0.0177065
829.448	0.0176701
829.526	0.0176039
829.604	0.0177429
829.683	0.0176878
829.761	0.0177246
829.839	0.0176936
829.917	0.0177155
829.995	0.0176781
830.073	0.0174603
830.151	0.0176796
830.229	0.0177403
830.308	0.0175517
830.386	0.0175996
830.464	0.0176034
830.542	0.0176964
830.620	0.0176608
830.698	0.0174826
830.776	0.0175308
830.854	0.0177143
830.933	0.0177390
831.011	0.0177367
831.089	0.0176978
831.167	0.0177625
831.245	0.0177531
831.323	0.0177588
831.401	0.0178527
831.479	0.0177505
831.558	0.0178175
831.636	0.0177917
831.714	0.0177556
831.792	0.0176546
831.870	0.0176888
831.948	0.0178108
832.026	0.0179556
832.104	0.0176611
832.183	0.0176514
832.261	0.0178429
832.339	0.0177973
832.417	0.0176231
832.495	0.0176717
832.573	0.0178010
832.651	0.0176270
832.729	0.0177711
832.808	0.0176845
832.886	0.0177445
832.964	0.0176584
833.042	0.0177364
833.120	0.0176874
833.198	0.0176318
833.276	0.0177148
833.354	0.0177061
833.433	0.0176703
833.511	0.0176582
833.589	0.0176947
833.667	0.0177296
833.745	0.0178487
833.823	0.0177312
833.901	0.0176566
833.979	0.0177016
834.058	0.0176270
834.136	0.0175552
834.214	0.0175510
834.292	0.0175716
834.370	0.0174394
834.448	0.0174208
834.526	0.0173446
834.604	0.0173397
834.683	0.0173362
834.761	0.0171392
834.839	0.0171421
834.917	0.0172538
834.995	0.0170300
835.073	0.0171278
835.151	0.0171447
835.229	0.0171522
835.308	0.0171356
835.386	0.0172738
835.464	0.0173652
835.542	0.0174059
835.620	0.0175378
835.698	0.0174289
835.776	0.0175003
835.854	0.0176648
835.933	0.0176510
836.011	0.0176313
836.089	0.0178667
836.167	0.0178139
836.245	0.0177193
836.323	0.0178918
836.401	0.0178674
836.479	0.0177319
836.558	0.0178107
836.636	0.0178773
836.714	0.0177109
836.792	0.0177468
836.870	0.0179183
836.948	0.0177943
837.026	0.0178452
837.104	0.0176753
837.183	0.0179073
837.261	0.0179106
837.339	0.0178440
837.417	0.0178304
837.495	0.0178164
837.573	0.0177981
837.651	0.0176836
837.729	0.0177352
837.808	0.0177243
837.886	0.0177732
837.964	0.0178638
838.042	0.0176961
838.120	0.0176819
838.198	0.0176977
838.276	0.0175632
838.354	0.0176279
838.433	0.0175894
838.511	0.0175536
838.589	0.0175480
838.667	0.0174399
838.745	0.0174889
838.823	0.0173711
838.901	0.0175031
838.979	0.0174423
839.058	0.0173346
839.136	0.0173809
839.214	0.0172485
839.292	0.0174783
839.370	0.0174656
839.448	0.0176202
839.526	0.0175941
839.604	0.0174674
839.683	0.0175092
839.761	0.0174881
839.839	0.0175264
839.917	0.0175289
839.995	0.0175735
840.073	0.0177225
840.151	0.0177379
840.229	0.0176093
840.308	0.0176483
840.386	0.0175737
840.464	0.0177399
840.542	0.0176429
840.620	0.0177116
840.698	0.0176457
840.776	0.0175262
840.854	0.0176662
840.933	0.0174245
841.011	0.0174481
841.089	0.0174318
841.167	0.0175256
841.245	0.0174079
841.323	0.0172915
841.401	0.0174292
841.479	0.0174364
841.558	0.0173568
841.636	0.0174094
841.714	0.0174281
841.792	0.0175983
841.870	0.0174837
841.948	0.0175620
842.026	0.0176143
842.104	0.0176033
842.183	0.0176158
842.261	0.0176441
842.339	0.0178069
842.417	0.0177441
842.495	0.0176237
842.573	0.0176948
842.651	0.0175568
842.729	0.0176904
842.808	0.0176767
842.886	0.0176605
842.964	0.0176708
843.042	0.0176575
843.120	0.0175894
843.198	0.0175848
843.276	0.0175858
843.354	0.0175838
843.433	0.0175282
843.511	0.0176024
843.589	0.0175589
843.667	0.0176157
843.745	0.0176710
843.823	0.0177103
843.901	0.0176736
843.979	0.0177228
844.058	0.0178191
844.136	0.0178543
844.214	0.0176488
844.292	0.0177525
844.370	0.0179130
844.448	0.0178556
844.526	0.0178055
844.604	0.0178903
844.683	0.0177663
844.761	0.0177479
844.839	0.0177328
844.917	0.0176994
844.995	0.0176809
845.073	0.0176136
845.151	0.0176189
845.229	0.0176283
845.308	0.0177515
845.386	0.0176949
845.464	0.0176244
845.542	0.0175269
845.620	0.0176366
845.698	0.0177166
845.776	0.0176995
845.854	0.0177163
845.933	0.0175926
846.011	0.0177656
846.089	0.0178344
846.167	0.0175501
846.245	0.0175170
846.323	0.0178541
846.401	0.0177668
846.479	0.0175794
846.558	0.0175548
846.636	0.0176218
846.714	0.0176251
846.792	0.0174944
846.870	0.0176587
846.948	0.0175547
847.026	0.0176248
847.104	0.0175117
847.183	0.0176485
847.261	0.0176460
847.339	0.0175135
847.417	0.0176516
847.495	0.0175466
847.573	0.0174990
847.651	0.0175335
847.729	0.0176104
847.808	0.0177052
847.886	0.0176891
847.964	0.0177521
848.042	0.0177117
848.120	0.0176328
848.198	0.0177444
848.276	0.0176078
848.354	0.0176162
848.433	0.0176604
848.511	0.0178168
848.589	0.0179749
848.667	0.0176109
848.745	0.0176178
848.823	0.0177078
848.901	0.0177753
848.979	0.0177185
849.058	0.0176917
849.136	0.0176173
849.214	0.0176357
849.292	0.0177374
849.370	0.0176084
849.448	0.0174924
849.526	0.0176182
849.604	0.0175427
849.683	0.0176342
849.761	0.0175891
849.839	0.0176123
849.917	0.0177213
849.995	0.0176367
850.073	0.0176505
850.151	0.0175167
850.229	0.0177486
850.308	0.0176801
850.386	0.0177375
850.464	0.0177015
850.542	0.0176309
850.620	0.0178580
850.698	0.0177320
850.776	0.0177328
850.854	0.0177608
850.933	0.0176215
851.011	0.0175732
851.089	0.0176300
851.167	0.0177017
851.245	0.0177621
851.323	0.0177435
851.401	0.0176295
851.479	0.0176434
851.558	0.0175546
851.636	0.0177157
851.714	0.0177032
851.792	0.0176910
851.870	0.0177271
851.948	0.0176877
852.026	0.0178517
852.104	0.0178664
852.183	0.0178612
852.261	0.0178114
852.339	0.0179577
852.417	0.0177610
852.495	0.0177966
852.573	0.0178402
852.651	0.0178226
852.729	0.0178082
852.808	0.0178197
852.886	0.0177850
852.964	0.0177268
853.042	0.0176359
853.120	0.0176312
853.198	0.0176389
853.276	0.0175629
853.354	0.0176001
853.433	0.0175145
853.511	0.0175835
853.589	0.0175088
853.667	0.0175804
853.745	0.0174348
853.823	0.0174321
853.901	0.0174444
853.979	0.0173498
854.058	0.0172873
854.136	0.0173117
854.214	0.0174582
854.292	0.0174358
854.370	0.0174614
854.448	0.0174029
854.526	0.0174564
854.604	0.0174656
854.683	0.0174539
854.761	0.0175434
854.839	0.0175761
854.917	0.0175582
854.995	0.0175996
855.073	0.0175632
855.151	0.0176965
855.229	0.0174677
855.308	0.0174638
855.386	0.0175327
855.464	0.0176434
855.542	0.0175733
855.620	0.0174963
855.698	0.0175199
855.776	0.0175722
855.854	0.0175475
855.933	0.0177084
856.011	0.0177057
856.089	0.0176257
856.167	0.0178284
856.245	0.0177925
856.323	0.0177625
856.401	0.0177381
856.479	0.0178301
856.558	0.0180165
856.636	0.0179602
856.714	0.0178679
856.792	0.0179694
856.870	0.0180101
856.948	0.0179763
857.026	0.0177340
857.104	0.0178411
857.183	0.0177904
857.261	0.0177666
857.339	0.0178615
857.417	0.0176688
857.495	0.0177163
857.573	0.0176074
857.651	0.0177200
857.729	0.0176830
857.808	0.0177130
857.886	0.0175474
857.964	0.0174641
858.042	0.0177386
858.120	0.0177925
858.198	0.0177187
858.276	0.0175273
858.354	0.0176802
858.433	0.0176511
858.511	0.0176966
858.589	0.0177582
858.667	0.0176500
858.745	0.0176518
858.823	0.0177936
858.901	0.0177273
858.979	0.0177009
859.058	0.0175928
859.136	0.0176298
859.214	0.0175277
859.292	0.0176610
859.370	0.0175008
859.448	0.0175005
859.526	0.0177110
859.604	0.0174908
859.683	0.0174256
859.761	0.0172810
859.839	0.0174363
859.917	0.0174646
859.995	0.0174084
860.073	0.0174629
860.151	0.0174982
860.229	0.0175142
860.308	0.0173993
860.386	0.0175544
860.464	0.0175105
860.542	0.0173804
860.620	0.0176200
860.698	0.0176022
860.776	0.0175839
860.854	0.0176545
860.933	0.0176965
861.011	0.0175796
861.089	0.0175488
861.167	0.0176952
861.245	0.0176620
861.323	0.0176625
861.401	0.0175883
861.479	0.0176085
861.558	0.0175056
861.636	0.0175146
861.714	0.0176458
861.792	0.0175564
861.870	0.0175215
861.948	0.0175732
862.026	0.0177055
862.104	0.0175652
862.183	0.0176698
862.261	0.0177920
862.339	0.0177035
862.417	0.0176988
862.495	0.0177309
862.573	0.0177231
862.651	0.0178936
862.729	0.0177914
862.808	0.0177857
862.886	0.0177303
862.964	0.0177505
863.042	0.0177415
863.120	0.0177430
863.198	0.0178634
863.276	0.0177329
863.354	0.0176945
863.433	0.0176933
863.511	0.0178495
863.589	0.0176592
863.667	0.0177143
863.745	0.0177334
863.823	0.0177706
863.901	0.0177390
863.979	0.0176691
864.058	0.0178201
864.136	0.0176859
864.214	0.0177575
864.292	0.0177763
864.370	0.0176753
864.448	0.0177461
864.526	0.0177456
864.604	0.0177402
864.683	0.0177587
864.761	0.0177386
864.839	0.0177635
864.917	0.0178314
864.995	0.0177361
865.073	0.0177701
865.151	0.0177552
865.229	0.0177234
865.308	0.0176598
865.386	0.0177764
865.464	0.0175474
865.542	0.0175436
865.620	0.0175964
865.698	0.0176029
865.776	0.0175116
865.854	0.0174646
865.933	0.0174869
866.011	0.0173975
866.089	0.0174622
866.167	0.0173992
866.245	0.0174557
866.323	0.0173969
866.401	0.0174110
866.479	0.0174315
866.558	0.0175293
866.636	0.0174670
866.714	0.0173004
866.792	0.0173867
866.870	0.0174416
866.948	0.0176012
867.026	0.0175085
867.104	0.0174400
867.183	0.0174515
867.261	0.0174770
867.339	0.0175008
867.417	0.0176164
867.495	0.0175508
867.573	0.0176216
867.651	0.0176624
867.729	0.0177601
867.808	0.0174959
867.886	0.0176836
867.964	0.0176791
868.042	0.0177618
868.120	0.0179215
868.198	0.0178690
868.276	0.0179762
868.354	0.0178195
868.433	0.0178447
868.511	0.0178855
868.589	0.0179470
868.667	0.0179228
868.745	0.0177538
868.823	0.0180113
868.901	0.0179410
868.979	0.0177427
869.058	0.0178008
869.136	0.0178712
869.214	0.0178658
869.292	0.0178957
869.370	0.0176685
869.448	0.0177716
869.526	0.0177161
869.604	0.0176620
869.683	0.0177056
869.761	0.0176142
869.839	0.0177035
869.917	0.0176971
869.995	0.0176006
870.073	0.0176492
870.151	0.0175295
870.229	0.0176567
870.308	0.0176679
870.386	0.0175185
870.464	0.0175526
870.542	0.0176020
870.620	0.0176244
870.698	0.0176602
870.776	0.0176635
870.854	0.0176088
870.933	0.0175735
871.011	0.0175433
871.089	0.0175872
871.167	0.0174179
871.245	0.0176256
871.323	0.0176286
871.401	0.0175754
871.479	0.0176295
871.558	0.0175596
871.636	0.0174195
871.714	0.0175854
871.792	0.0177035
871.870	0.0175528
871.948	0.0176360
872.026	0.0175468
872.104	0.0176024
872.183	0.0176673
872.261	0.0177495
872.339	0.0176409
872.417	0.0177589
872.495	0.0176906
872.573	0.0175651
872.651	0.0177332
872.729	0.0175936
872.808	0.0176624
872.886	0.0177440
872.964	0.0176688
873.042	0.0176860
873.120	0.0175677
873.198	0.0177136
873.276	0.0176224
873.354	0.0177237
873.433	0.0177308
873.511	0.0176159
873.589	0.0175543
873.667	0.0177505
873.745	0.0177154
873.823	0.0175787
873.901	0.0176224
873.979	0.0177288
874.058	0.0177852
874.136	0.0177437
874.214	0.0177953
874.292	0.0178018
874.370	0.0177198
874.448	0.0177402
874.526	0.0177289
874.604	0.0177699
874.683	0.0177145
874.761	0.0177489
874.839	0.0177200
874.917	0.0178490
874.995	0.0176936
875.073	0.0177740
875.151	0.0177978
875.229	0.0177662
875.308	0.0177299
875.386	0.0178334
875.464	0.0177702
875.542	0.0177447
875.620	0.0177502
875.698	0.0175436
875.776	0.0175602
875.854	0.0175783
875.933	0.0175330
876.011	0.0176711
876.089	0.0175185
876.167	0.0175288
876.245	0.0175725
876.323	0.0175507
876.401	0.0175430
876.479	0.0176298
876.558	0.0175487
876.636	0.0175373
876.714	0.0175443
876.792	0.0174204
876.870	0.0176049
876.948	0.0175523
877.026	0.0175515
877.104	0.0174982
877.183	0.0175832
877.261	0.0176685
877.339	0.0176276
877.417	0.0176101
877.495	0.0176102
877.573	0.0174884
877.651	0.0176469
877.729	0.0175697
877.808	0.0175366
877.886	0.0174545
877.964	0.0175517
878.042	0.0175188
878.120	0.0176844
878.198	0.0175333
878.276	0.0174870
878.354	0.0175005
878.433	0.0175384
878.511	0.0174534
878.589	0.0175552
878.667	0.0176562
878.745	0.0178151
878.823	0.0175790
878.901	0.0176567
878.979	0.0175701
879.058	0.0177295
879.136	0.0176814
879.214	0.0176102
879.292	0.0176993
879.370	0.0178273
879.448	0.0176884
879.526	0.0177531
879.604	0.0177108
879.683	0.0178281
879.761	0.0176038
879.839	0.0175743
879.917	0.0177604
879.995	0.0175599
880.073	0.0176121
880.151	0.0177084
880.229	0.0177850
880.308	0.0175018
880.386	0.0176825
880.464	0.0177726
880.542	0.0176353
880.620	0.0177496
880.698	0.0177917
880.776	0.0176726
880.854	0.0177571
880.933	0.0177648
881.011	0.0176467
881.089	0.0177528
881.167	0.0176478
881.245	0.0177689
881.323	0.0178059
881.401	0.0178681
881.479	0.0177178
881.558	0.0177035
881.636	0.0178368
881.714	0.0178841
881.792	0.0176679
881.870	0.0175375
881.948	0.0175179
882.026	0.0176440
882.104	0.0174783
882.183	0.0175615
882.261	0.0175465
882.339	0.0175603
882.417	0.0174825
882.495	0.0174606
882.573	0.0175280
882.651	0.0175388
882.729	0.0173940
882.808	0.0175139
882.886	0.0175310
882.964	0.0175749
883.042	0.0173938
883.120	0.0174522
883.198	0.0176217
883.276	0.0175149
883.354	0.0174871
883.433	0.0174481
883.511	0.0174122
883.589	0.0174958
883.667	0.0175538
883.745	0.0175449
883.823	0.0174556
883.901	0.0174488
883.979	0.0175037
884.058	0.0175539
884.136	0.0175509
884.214	0.0175928
884.292	0.0176009
884.370	0.0174464
884.448	0.0174904
884.526	0.0176038
884.604	0.0176582
884.683	0.0176147
884.761	0.0175539
884.839	0.0176617
884.917	0.0175803
884.995	0.0175055
885.073	0.0175655
885.151	0.0174832
885.229	0.0175243
885.308	0.0175735
885.386	0.0175631
885.464	0.0176535
885.542	0.0177007
885.620	0.0176619
885.698	0.0176136
885.776	0.0176058
885.854	0.0176566
885.933	0.0177987
886.011	0.0177842
886.089	0.0176145
886.167	0.0177888
886.245	0.0176483
886.323	0.0176194
886.401	0.0176248
886.479	0.0177290
886.558	0.0175864
886.636	0.0175576
886.714	0.0176028
886.792	0.0175771
886.870	0.0175603
886.948	0.0177678
887.026	0.0176418
887.104	0.0176015
887.183	0.0175369
887.261	0.0176796
887.339	0.0175815
887.417	0.0174291
887.495	0.0177482
887.573	0.0177617
887.651	0.0176727
887.729	0.0176953
887.808	0.0176301
887.886	0.0177312
887.964	0.0175412
888.042	0.0176278
888.120	0.0176014
888.198	0.0176623
888.276	0.0177180
888.354	0.0177378
888.433	0.0175857
888.511	0.0175713
888.589	0.0175567
888.667	0.0175168
888.745	0.0176657
888.823	0.0176414
888.901	0.0174731
888.979	0.0175716
889.058	0.0175053
889.136	0.0176581
889.214	0.0177634
889.292	0.0175854
889.370	0.0176208
889.448	0.0176569
889.526	0.0176820
889.604	0.0176675
889.683	0.0177100
889.761	0.0176991
889.839	0.0177150
889.917	0.0176149
889.995	0.0175660
890.073	0.0176200
890.151	0.0177337
890.229	0.0175910
890.308	0.0177512
890.386	0.0176561
890.464	0.0177477
890.542	0.0175655
890.620	0.0176371
890.698	0.0175685
890.776	0.0175610
890.854	0.0176395
890.933	0.0175057
891.011	0.0174982
891.089	0.0175157
891.167	0.0173782
891.245	0.0174957
891.323	0.0174286
891.401	0.0176580
891.479	0.0175706
891.558	0.0175824
891.636	0.0175592
891.714	0.0176668
891.792	0.0176419
891.870	0.0175516
891.948	0.0175954
892.026	0.0176498
892.104	0.0176189
892.183	0.0177539
892.261	0.0174767
892.339	0.0175499
892.417	0.0175638
892.495	0.0175058
892.573	0.0174966
892.651	0.0175014
892.729	0.0175453
892.808	0.0175266
892.886	0.0175934
892.964	0.0176775
893.042	0.0177832
893.120	0.0176864
893.198	0.0176861
893.276	0.0178243
893.354	0.0176974
893.433	0.0177950
893.511	0.0177939
893.589	0.0177383
893.667	0.0178638
893.745	0.0178112
893.823	0.0179948
893.901	0.0179524
893.979	0.0177904
894.058	0.0178109
894.136	0.0178603
894.214	0.0177390
894.292	0.0178843
894.370	0.0177480
894.448	0.0177518
894.526	0.0175586
894.604	0.0176870
894.683	0.0175021
894.761	0.0175484
894.839	0.0175129
894.917	0.0175326
894.995	0.0175302
895.073	0.0173820
895.151	0.0173338
895.229	0.0174574
895.308	0.0175262
895.386	0.0175690
895.464	0.0176041
895.542	0.0176411
895.620	0.0177364
895.698	0.0174990
895.776	0.0176782
895.854	0.0177473
895.933	0.0177319
896.011	0.0175697
896.089	0.0177170
896.167	0.0176965
896.245	0.0178380
896.323	0.0177193
896.401	0.0176856
896.479	0.0177290
896.558	0.0177231
896.636	0.0178521
896.714	0.0175497
896.792	0.0176023
896.870	0.0175671
896.948	0.0176162
897.026	0.0176002
897.104	0.0174925
897.183	0.0174571
897.261	0.0175976
897.339	0.0174590
897.417	0.0174893
897.495	0.0174619
897.573	0.0175421
897.651	0.0175327
897.729	0.0175650
897.808	0.0176062
897.886	0.0176806
897.964	0.0176273
898.042	0.0177470
898.120	0.0175838
898.198	0.0177148
898.276	0.0177388
898.354	0.0177081
898.433	0.0175884
898.511	0.0176511
898.589	0.0177461
898.667	0.0176219
898.745	0.0175923
898.823	0.0176940
898.901	0.0174986
898.979	0.0176763
899.058	0.0177256
899.136	0.0176154
899.214	0.0176699
899.292	0.0176824
899.370	0.0176910
899.448	0.0177171
899.526	0.0176651
899.604	0.0177573
899.683	0.0176879
899.761	0.0177843
899.839	0.0177474
899.917	0.0176559
899.995	0.0177008
900.073	0.0176093
900.151	0.0175782
900.229	0.0177441
900.308	0.0177792
900.386	0.0177045
900.464	0.0176875
900.542	0.0176163
900.620	0.0176314
900.698	0.0175574
900.776	0.0175664
900.854	0.0175850
900.933	0.0176291
901.011	0.0175835
901.089	0.0176002
901.167	0.0175490
901.245	0.0174931
901.323	0.0175906
901.401	0.0175632
901.479	0.0175996
901.558	0.0176673
901.636	0.0175614
901.714	0.0177568
901.792	0.0177496
901.870	0.0176714
901.948	0.0176270
902.026	0.0177772
902.104	0.0178740
902.183	0.0176781
902.261	0.0178141
902.339	0.0178328
902.417	0.0176336
902.495	0.0177323
902.573	0.0176140
902.651	0.0177585
902.729	0.0176466
902.808	0.0175008
902.886	0.0177827
902.964	0.0175787
903.042	0.0174570
903.120	0.0176994
903.198	0.0175607
903.276	0.0176193
903.354	0.0174969
903.433	0.0175468
903.511	0.0176389
903.589	0.0176234
903.667	0.0175375
903.745	0.0177077
903.823	0.0176633
903.901	0.0176110
903.979	0.0176157
904.058	0.0176994
904.136	0.0176012
904.214	0.0176550
904.292	0.0176533
904.370	0.0175632
904.448	0.0175298
904.526	0.0176004
904.604	0.0175391
904.683	0.0175357
904.761	0.0174410
904.839	0.0175626
904.917	0.0176059
904.995	0.0175799
905.073	0.0176579
905.151	0.0174850
905.229	0.0176364
905.308	0.0176294
905.386	0.0176152
905.464	0.0176182
905.542	0.0176246
905.620	0.0177538
905.698	0.0178036
905.776	0.0176852
905.854	0.0178219
905.933	0.0178638
906.011	0.0177555
906.089	0.0177393
906.167	0.0178838
906.245	0.0179962
906.323	0.0178294
906.401	0.0178625
906.479	0.0178962
906.558	0.0178461
906.636	0.0178792
906.714	0.0178765
906.792	0.0178166
906.870	0.0176563
906.948	0.0178157
907.026	0.0177510
907.104	0.0177419
907.183	0.0176342
907.261	0.0176032
907.339	0.0176247
907.417	0.0174528
907.495	0.0174876
907.573	0.0176549
907.651	0.0175557
907.729	0.0174163
907.808	0.0174241
907.886	0.0173728
907.964	0.0172071
908.042	0.0175246
908.120	0.0174037
908.198	0.0173589
908.276	0.0173804
908.354	0.0174497
908.433	0.0174190
908.511	0.0174707
908.589	0.0175571
908.667	0.0174124
908.745	0.0174536
908.823	0.0175909
908.901	0.0175910
908.979	0.0176482
909.058	0.0176154
909.136	0.0175978
909.214	0.0175695
909.292	0.0177909
909.370	0.0177382
909.448	0.0177305
909.526	0.0178530
909.604	0.0177219
909.683	0.0177538
909.761	0.0178546
909.839	0.0177724
909.917	0.0179034
909.995	0.0177109
910.073	0.0177063
910.151	0.0179203
910.229	0.0177248
910.308	0.0177174
910.386	0.0176939
910.464	0.0176011
910.542	0.0176579
910.620	0.0176946
910.698	0.0177193
910.776	0.0176241
910.854	0.0175373
910.933	0.0175894
911.011	0.0176072
911.089	0.0174888
911.167	0.0175870
911.245	0.0175143
911.323	0.0174842
911.401	0.0176347
911.479	0.0175183
911.558	0.0173327
911.636	0.0174723
911.714	0.0175570
911.792	0.0175753
911.870	0.0174892
911.948	0.0175587
912.026	0.0176027
912.104	0.0176161
912.183	0.0177476
912.261	0.0174877
912.339	0.0176590
912.417	0.0177721
912.495	0.0177023
912.573	0.0177757
912.651	0.0177518
912.729	0.0176962
912.808	0.0176533
912.886	0.0177224
912.964	0.0176218
913.042	0.0176457
913.120	0.0177084
913.198	0.0176680
913.276	0.0175946
913.354	0.0176983
913.433	0.0176381
913.511	0.0176202
913.589	0.0176620
913.667	0.0176746
913.745	0.0174789
913.823	0.0176604
913.901	0.0175851
913.979	0.0175880
914.058	0.0175811
914.136	0.0175979
914.214	0.0175935
914.292	0.0175099
914.370	0.0175278
914.448	0.0175223
914.526	0.0175716
914.604	0.0175320
914.683	0.0176353
914.761	0.0175506
914.839	0.0175061
914.917	0.0176501
914.995	0.0176475
915.073	0.0174599
915.151	0.0173881
915.229	0.0177456
915.308	0.0176704
915.386	0.0175867
915.464	0.0175931
915.542	0.0176658
915.620	0.0176511
915.698	0.0176077
915.776	0.0177032
915.854	0.0176906
915.933	0.0176729
916.011	0.0175993
916.089	0.0175370
916.167	0.0176204
916.245	0.0176080
916.323	0.0176270
916.401	0.0176327
916.479	0.0176106
916.558	0.0177877
916.636	0.0176460
916.714	0.0175675
916.792	0.0175563
916.870	0.0177375
916.948	0.0177567
917.026	0.0177018
917.104	0.0177592
917.183	0.0176546
917.261	0.0176299
917.339	0.0178479
917.417	0.0176808
917.495	0.0177034
917.573	0.0177651
917.651	0.0178634
917.729	0.0178911
917.808	0.0177414
917.886	0.0177052
917.964	0.0177568
918.042	0.0176927
918.120	0.0176935
918.198	0.0177963
918.276	0.0176166
918.354	0.0176290
918.433	0.0177856
918.511	0.0176368
918.589	0.0177032
918.667	0.0175789
918.745	0.0176909
918.823	0.0177283
918.901	0.0175427
918.979	0.0177301
919.058	0.0176337
919.136	0.0176996
919.214	0.0175199
919.292	0.0176462
919.370	0.0176370
919.448	0.0175466
919.526	0.0176368
919.604	0.0177861
919.683	0.0176515
919.761	0.0176170
919.839	0.0176151
919.917	0.0175245
