06/03/2022	18:22:38	Ver.	4.1	UNKNOWN
Optical Delay	599.995081	Delta X		0.078125	Sweeps	1	Scan Rate	0/0
Coordinates	Axis 1	NaN	Axis 2	NaN	Axis 3	NaN	Axis 4	NaN	Axis 5	NaN	Axis 6	0.000000
TX Power	0.000000	RX Power	0.000000

599.995	0.0179646
600.073	0.0178909
600.151	0.0180154
600.229	0.0180759
600.308	0.0179640
600.386	0.0180467
600.464	0.0179664
600.542	0.0180379
600.620	0.0179168
600.698	0.0179440
600.776	0.0181409
600.854	0.0181027
600.933	0.0179550
601.011	0.0180215
601.089	0.0180387
601.167	0.0180021
601.245	0.0179716
601.323	0.0178757
601.401	0.0180028
601.479	0.0181036
601.558	0.0180072
601.636	0.0181985
601.714	0.0180637
601.792	0.0179910
601.870	0.0179084
601.948	0.0179710
602.026	0.0179021
602.104	0.0180574
602.183	0.0180127
602.261	0.0180848
602.339	0.0180394
602.417	0.0180490
602.495	0.0180133
602.573	0.0179831
602.651	0.0180123
602.729	0.0180465
602.808	0.0180869
602.886	0.0181602
602.964	0.0179481
603.042	0.0179832
603.120	0.0179694
603.198	0.0179993
603.276	0.0181158
603.354	0.0180247
603.433	0.0180334
603.511	0.0180848
603.589	0.0179961
603.667	0.0179830
603.745	0.0180187
603.823	0.0180554
603.901	0.0181513
603.979	0.0180112
604.058	0.0180904
604.136	0.0180033
604.214	0.0179482
604.292	0.0181940
604.370	0.0181165
604.448	0.0180124
604.526	0.0179864
604.604	0.0180558
604.683	0.0179247
604.761	0.0179193
604.839	0.0180651
604.917	0.0181551
604.995	0.0179796
605.073	0.0180501
605.151	0.0180949
605.229	0.0180824
605.308	0.0180979
605.386	0.0180915
605.464	0.0180569
605.542	0.0179458
605.620	0.0181834
605.698	0.0180664
605.776	0.0180383
605.854	0.0180214
605.933	0.0180560
606.011	0.0179482
606.089	0.0181304
606.167	0.0181573
606.245	0.0180776
606.323	0.0180132
606.401	0.0178445
606.479	0.0180431
606.558	0.0180752
606.636	0.0180637
606.714	0.0180534
606.792	0.0181059
606.870	0.0180583
606.948	0.0181563
607.026	0.0180814
607.104	0.0179861
607.183	0.0180286
607.261	0.0181156
607.339	0.0180533
607.417	0.0180431
607.495	0.0179128
607.573	0.0180157
607.651	0.0180738
607.729	0.0179327
607.808	0.0181385
607.886	0.0180424
607.964	0.0179804
608.042	0.0179192
608.120	0.0180137
608.198	0.0179388
608.276	0.0180933
608.354	0.0180061
608.433	0.0181496
608.511	0.0179984
608.589	0.0178423
608.667	0.0180425
608.745	0.0180527
608.823	0.0180891
608.901	0.0180072
608.979	0.0181213
609.058	0.0181020
609.136	0.0179959
609.214	0.0180226
609.292	0.0180745
609.370	0.0180225
609.448	0.0180177
609.526	0.0180605
609.604	0.0180862
609.683	0.0180635
609.761	0.0180624
609.839	0.0180785
609.917	0.0181216
609.995	0.0180554
610.073	0.0180864
610.151	0.0180144
610.229	0.0180041
610.308	0.0180811
610.386	0.0180979
610.464	0.0179407
610.542	0.0180181
610.620	0.0181262
610.698	0.0179932
610.776	0.0179474
610.854	0.0179702
610.933	0.0179894
611.011	0.0179978
611.089	0.0178961
611.167	0.0180977
611.245	0.0180965
611.323	0.0179531
611.401	0.0178922
611.479	0.0179185
611.558	0.0179568
611.636	0.0180355
611.714	0.0178897
611.792	0.0180101
611.870	0.0178909
611.948	0.0179852
612.026	0.0180250
612.104	0.0179074
612.183	0.0181242
612.261	0.0180801
612.339	0.0178908
612.417	0.0177949
612.495	0.0180801
612.573	0.0179871
612.651	0.0180459
612.729	0.0180238
612.808	0.0180420
612.886	0.0179898
612.964	0.0179202
613.042	0.0179909
613.120	0.0179491
613.198	0.0181607
613.276	0.0178960
613.354	0.0179484
613.433	0.0178631
613.511	0.0179826
613.589	0.0179601
613.667	0.0179265
613.745	0.0180003
613.823	0.0180207
613.901	0.0179324
613.979	0.0179335
614.058	0.0179664
614.136	0.0181474
614.214	0.0180712
614.292	0.0178497
614.370	0.0179346
614.448	0.0178113
614.526	0.0179927
614.604	0.0180179
614.683	0.0180173
614.761	0.0179987
614.839	0.0180291
614.917	0.0179527
614.995	0.0180418
615.073	0.0179916
615.151	0.0180563
615.229	0.0179981
615.308	0.0180350
615.386	0.0179827
615.464	0.0180236
615.542	0.0179199
615.620	0.0178936
615.698	0.0180184
615.776	0.0179702
615.854	0.0179638
615.933	0.0180909
616.011	0.0179893
616.089	0.0180730
616.167	0.0180257
616.245	0.0179992
616.323	0.0179523
616.401	0.0179288
616.479	0.0180676
616.558	0.0180699
616.636	0.0178700
616.714	0.0180366
616.792	0.0180383
616.870	0.0179802
616.948	0.0179089
617.026	0.0179480
617.104	0.0178892
617.183	0.0179266
617.261	0.0180501
617.339	0.0180222
617.417	0.0179276
617.495	0.0180111
617.573	0.0181099
617.651	0.0181194
617.729	0.0179351
617.808	0.0178566
617.886	0.0178784
617.964	0.0180843
618.042	0.0180260
618.120	0.0179070
618.198	0.0178833
618.276	0.0180169
618.354	0.0179384
618.433	0.0179966
618.511	0.0181387
618.589	0.0181409
618.667	0.0181451
618.745	0.0179501
618.823	0.0179707
618.901	0.0180524
618.979	0.0179813
619.058	0.0179824
619.136	0.0180849
619.214	0.0181180
619.292	0.0180643
619.370	0.0178865
619.448	0.0180704
619.526	0.0180837
619.604	0.0179308
619.683	0.0180274
619.761	0.0181183
619.839	0.0180206
619.917	0.0180366
619.995	0.0179694
620.073	0.0180356
620.151	0.0180254
620.229	0.0178696
620.308	0.0180036
620.386	0.0180919
620.464	0.0180311
620.542	0.0180021
620.620	0.0179195
620.698	0.0180139
620.776	0.0179869
620.854	0.0179527
620.933	0.0179388
621.011	0.0179591
621.089	0.0180134
621.167	0.0179971
621.245	0.0178960
621.323	0.0180008
621.401	0.0179212
621.479	0.0180586
621.558	0.0180298
621.636	0.0180336
621.714	0.0180756
621.792	0.0178956
621.870	0.0179353
621.948	0.0178986
622.026	0.0180412
622.104	0.0179610
622.183	0.0179815
622.261	0.0179546
622.339	0.0179974
622.417	0.0178624
622.495	0.0179861
622.573	0.0180177
622.651	0.0180772
622.729	0.0180956
622.808	0.0179668
622.886	0.0180287
622.964	0.0178779
623.042	0.0180131
623.120	0.0179257
623.198	0.0179641
623.276	0.0180518
623.354	0.0179279
623.433	0.0179640
623.511	0.0180324
623.589	0.0179966
623.667	0.0179175
623.745	0.0179525
623.823	0.0179469
623.901	0.0180163
623.979	0.0180027
624.058	0.0179771
624.136	0.0179489
624.214	0.0180087
624.292	0.0180343
624.370	0.0179937
624.448	0.0180607
624.526	0.0180293
624.604	0.0180287
624.683	0.0180079
624.761	0.0180973
624.839	0.0180893
624.917	0.0180360
624.995	0.0180061
625.073	0.0180988
625.151	0.0179781
625.229	0.0180388
625.308	0.0179501
625.386	0.0178966
625.464	0.0180684
625.542	0.0179852
625.620	0.0179319
625.698	0.0181077
625.776	0.0179662
625.854	0.0180099
625.933	0.0181656
626.011	0.0179897
626.089	0.0180257
626.167	0.0179646
626.245	0.0181280
626.323	0.0179848
626.401	0.0179920
626.479	0.0181545
626.558	0.0180395
626.636	0.0179594
626.714	0.0180038
626.792	0.0180263
626.870	0.0180621
626.948	0.0180228
627.026	0.0180888
627.104	0.0180817
627.183	0.0179319
627.261	0.0180139
627.339	0.0180297
627.417	0.0179869
627.495	0.0179090
627.573	0.0180145
627.651	0.0179681
627.729	0.0179540
627.808	0.0179254
627.886	0.0180329
627.964	0.0180744
628.042	0.0180697
628.120	0.0180866
628.198	0.0179478
628.276	0.0180212
628.354	0.0179913
628.433	0.0179466
628.511	0.0179815
628.589	0.0180150
628.667	0.0180096
628.745	0.0179932
628.823	0.0179066
628.901	0.0179662
628.979	0.0180885
629.058	0.0179425
629.136	0.0179774
629.214	0.0180060
629.292	0.0179842
629.370	0.0181345
629.448	0.0181239
629.526	0.0180678
629.604	0.0180132
629.683	0.0180243
629.761	0.0179513
629.839	0.0179375
629.917	0.0179828
629.995	0.0180071
630.073	0.0181033
630.151	0.0181145
630.229	0.0179772
630.308	0.0180750
630.386	0.0180010
630.464	0.0178951
630.542	0.0180635
630.620	0.0182095
630.698	0.0181511
630.776	0.0180309
630.854	0.0179624
630.933	0.0180891
631.011	0.0180957
631.089	0.0179958
631.167	0.0179972
631.245	0.0179601
631.323	0.0181161
631.401	0.0181300
631.479	0.0180975
631.558	0.0179298
631.636	0.0180013
631.714	0.0180040
631.792	0.0180296
631.870	0.0180487
631.948	0.0180419
632.026	0.0180525
632.104	0.0180425
632.183	0.0181367
632.261	0.0180129
632.339	0.0180825
632.417	0.0180833
632.495	0.0179907
632.573	0.0180192
632.651	0.0180446
632.729	0.0179505
632.808	0.0181298
632.886	0.0180354
632.964	0.0180621
633.042	0.0179346
633.120	0.0180638
633.198	0.0180952
633.276	0.0180251
633.354	0.0179501
633.433	0.0179914
633.511	0.0179996
633.589	0.0179942
633.667	0.0179865
633.745	0.0181425
633.823	0.0181379
633.901	0.0180117
633.979	0.0179971
634.058	0.0179960
634.136	0.0180656
634.214	0.0179440
634.292	0.0180086
634.370	0.0180333
634.448	0.0181577
634.526	0.0179701
634.604	0.0179603
634.683	0.0180502
634.761	0.0179658
634.839	0.0181042
634.917	0.0179890
634.995	0.0179282
635.073	0.0180016
635.151	0.0180389
635.229	0.0180807
635.308	0.0180456
635.386	0.0179659
635.464	0.0180164
635.542	0.0180432
635.620	0.0179602
635.698	0.0179833
635.776	0.0179198
635.854	0.0180206
635.933	0.0180035
636.011	0.0179359
636.089	0.0179825
636.167	0.0180077
636.245	0.0180734
636.323	0.0179344
636.401	0.0180100
636.479	0.0181271
636.558	0.0180038
636.636	0.0180817
636.714	0.0180747
636.792	0.0179847
636.870	0.0180984
636.948	0.0179210
637.026	0.0179395
637.104	0.0178493
637.183	0.0179716
637.261	0.0180678
637.339	0.0179815
637.417	0.0180309
637.495	0.0179598
637.573	0.0179269
637.651	0.0179936
637.729	0.0180073
637.808	0.0180655
637.886	0.0181531
637.964	0.0178526
638.042	0.0179345
638.120	0.0179198
638.198	0.0179843
638.276	0.0180333
638.354	0.0179597
638.433	0.0178854
638.511	0.0180206
638.589	0.0179515
638.667	0.0179577
638.745	0.0179549
638.823	0.0178923
638.901	0.0180581
638.979	0.0180075
639.058	0.0179977
639.136	0.0179344
639.214	0.0179831
639.292	0.0179836
639.370	0.0180029
639.448	0.0180072
639.526	0.0178779
639.604	0.0180009
639.683	0.0180202
639.761	0.0179840
639.839	0.0179536
639.917	0.0180127
639.995	0.0179716
640.073	0.0178958
640.151	0.0182049
640.229	0.0180353
640.308	0.0178925
640.386	0.0180506
640.464	0.0180334
640.542	0.0180006
640.620	0.0179422
640.698	0.0180149
640.776	0.0181126
640.854	0.0179124
640.933	0.0178891
641.011	0.0179431
641.089	0.0181875
641.167	0.0180363
641.245	0.0179354
641.323	0.0179427
641.401	0.0179163
641.479	0.0180276
641.558	0.0179595
641.636	0.0181335
641.714	0.0180261
641.792	0.0180337
641.870	0.0179623
641.948	0.0179781
642.026	0.0180566
642.104	0.0179591
642.183	0.0180261
642.261	0.0179794
642.339	0.0179897
642.417	0.0180193
642.495	0.0179563
642.573	0.0179925
642.651	0.0180907
642.729	0.0179556
642.808	0.0180073
642.886	0.0179942
642.964	0.0179647
643.042	0.0180518
643.120	0.0180194
643.198	0.0179605
643.276	0.0180727
643.354	0.0180249
643.433	0.0180740
643.511	0.0179563
643.589	0.0180430
643.667	0.0179871
643.745	0.0180714
643.823	0.0179868
643.901	0.0181142
643.979	0.0178817
644.058	0.0179801
644.136	0.0180939
644.214	0.0180812
644.292	0.0180067
644.370	0.0180333
644.448	0.0180762
644.526	0.0179552
644.604	0.0179639
644.683	0.0180132
644.761	0.0180402
644.839	0.0180589
644.917	0.0180599
644.995	0.0178271
645.073	0.0180350
645.151	0.0179734
645.229	0.0178915
645.308	0.0178887
645.386	0.0180879
645.464	0.0179929
645.542	0.0179562
645.620	0.0181432
645.698	0.0179729
645.776	0.0180051
645.854	0.0180333
645.933	0.0178487
646.011	0.0180556
646.089	0.0180682
646.167	0.0180428
646.245	0.0180556
646.323	0.0179952
646.401	0.0178925
646.479	0.0180589
646.558	0.0179609
646.636	0.0180862
646.714	0.0179138
646.792	0.0179606
646.870	0.0180133
646.948	0.0179899
647.026	0.0179164
647.104	0.0179368
647.183	0.0180817
647.261	0.0180180
647.339	0.0180558
647.417	0.0180714
647.495	0.0179992
647.573	0.0180042
647.651	0.0179675
647.729	0.0180861
647.808	0.0179554
647.886	0.0180589
647.964	0.0179396
648.042	0.0178813
648.120	0.0180274
648.198	0.0180590
648.276	0.0180434
648.354	0.0180591
648.433	0.0181149
648.511	0.0180632
648.589	0.0181207
648.667	0.0180314
648.745	0.0179449
648.823	0.0178851
648.901	0.0179768
648.979	0.0180480
649.058	0.0180254
649.136	0.0180328
649.214	0.0179764
649.292	0.0178954
649.370	0.0179352
649.448	0.0179446
649.526	0.0179827
649.604	0.0180727
649.683	0.0181057
649.761	0.0180808
649.839	0.0180652
649.917	0.0180437
649.995	0.0182296
650.073	0.0180782
650.151	0.0180726
650.229	0.0179143
650.308	0.0180687
650.386	0.0180178
650.464	0.0180537
650.542	0.0178419
650.620	0.0179635
650.698	0.0179512
650.776	0.0179231
650.854	0.0178978
650.933	0.0180133
651.011	0.0180258
651.089	0.0180669
651.167	0.0180091
651.245	0.0180865
651.323	0.0181535
651.401	0.0180186
651.479	0.0180070
651.558	0.0180402
651.636	0.0181187
651.714	0.0179365
651.792	0.0179353
651.870	0.0180772
651.948	0.0179930
652.026	0.0180662
652.104	0.0180156
652.183	0.0179459
652.261	0.0180383
652.339	0.0179209
652.417	0.0179299
652.495	0.0178968
652.573	0.0179012
652.651	0.0179723
652.729	0.0179536
652.808	0.0179343
652.886	0.0178752
652.964	0.0180277
653.042	0.0180443
653.120	0.0179170
653.198	0.0181689
653.276	0.0180832
653.354	0.0180849
653.433	0.0179893
653.511	0.0181282
653.589	0.0180956
653.667	0.0180837
653.745	0.0180729
653.823	0.0180410
653.901	0.0180194
653.979	0.0180676
654.058	0.0179952
654.136	0.0178451
654.214	0.0179539
654.292	0.0178854
654.370	0.0177081
654.448	0.0179276
654.526	0.0179101
654.604	0.0179589
654.683	0.0178732
654.761	0.0179547
654.839	0.0181068
654.917	0.0180145
654.995	0.0180849
655.073	0.0180205
655.151	0.0179859
655.229	0.0181360
655.308	0.0181033
655.386	0.0181212
655.464	0.0181319
655.542	0.0181494
655.620	0.0179479
655.698	0.0180123
655.776	0.0180132
655.854	0.0181929
655.933	0.0180137
656.011	0.0180091
656.089	0.0180636
656.167	0.0179069
656.245	0.0178793
656.323	0.0180379
656.401	0.0179137
656.479	0.0179094
656.558	0.0180271
656.636	0.0180382
656.714	0.0178883
656.792	0.0179973
656.870	0.0180333
656.948	0.0179298
657.026	0.0181100
657.104	0.0181676
657.183	0.0180116
657.261	0.0179725
657.339	0.0181104
657.417	0.0182463
657.495	0.0181507
657.573	0.0180920
657.651	0.0182246
657.729	0.0180260
657.808	0.0181935
657.886	0.0181245
657.964	0.0180751
658.042	0.0181792
658.120	0.0180983
658.198	0.0178843
658.276	0.0179820
658.354	0.0178630
658.433	0.0178408
658.511	0.0178708
658.589	0.0177671
658.667	0.0178345
658.745	0.0179543
658.823	0.0179743
658.901	0.0179980
658.979	0.0180235
659.058	0.0180176
659.136	0.0179975
659.214	0.0181636
659.292	0.0181531
659.370	0.0180798
659.448	0.0179762
659.526	0.0181810
659.604	0.0181345
659.683	0.0181991
659.761	0.0182526
659.839	0.0180513
659.917	0.0179515
659.995	0.0180430
660.073	0.0179528
660.151	0.0180419
660.229	0.0179509
660.308	0.0180770
660.386	0.0180322
660.464	0.0179578
660.542	0.0179211
660.620	0.0179787
660.698	0.0181475
660.776	0.0179301
660.854	0.0180540
660.933	0.0179774
661.011	0.0180297
661.089	0.0180723
661.167	0.0180031
661.245	0.0180792
661.323	0.0180943
661.401	0.0181315
661.479	0.0181515
661.558	0.0180610
661.636	0.0180442
661.714	0.0180505
661.792	0.0181909
661.870	0.0181101
661.948	0.0180415
662.026	0.0179771
662.104	0.0179629
662.183	0.0179767
662.261	0.0177995
662.339	0.0178512
662.417	0.0179855
662.495	0.0178986
662.573	0.0178726
662.651	0.0179575
662.729	0.0179922
662.808	0.0178885
662.886	0.0180536
662.964	0.0179402
663.042	0.0179596
663.120	0.0180463
663.198	0.0181078
663.276	0.0181269
663.354	0.0180833
663.433	0.0179975
663.511	0.0181113
663.589	0.0182269
663.667	0.0180431
663.745	0.0180168
663.823	0.0180998
663.901	0.0178521
663.979	0.0179792
664.058	0.0180727
664.136	0.0179442
664.214	0.0178999
664.292	0.0180045
664.370	0.0180624
664.448	0.0179181
664.526	0.0179002
664.604	0.0178759
664.683	0.0179416
664.761	0.0179292
664.839	0.0179026
664.917	0.0179034
664.995	0.0179546
665.073	0.0179690
665.151	0.0178609
665.229	0.0179581
665.308	0.0181255
665.386	0.0179794
665.464	0.0179363
665.542	0.0180192
665.620	0.0182654
665.698	0.0180512
665.776	0.0179586
665.854	0.0180451
665.933	0.0181441
666.011	0.0181344
666.089	0.0180312
666.167	0.0180221
666.245	0.0180099
666.323	0.0179319
666.401	0.0179758
666.479	0.0178973
666.558	0.0180029
666.636	0.0178500
666.714	0.0178532
666.792	0.0177544
666.870	0.0178101
666.948	0.0178973
667.026	0.0178688
667.104	0.0179732
667.183	0.0180852
667.261	0.0180177
667.339	0.0179735
667.417	0.0180156
667.495	0.0181438
667.573	0.0182418
667.651	0.0182253
667.729	0.0181394
667.808	0.0181426
667.886	0.0182207
667.964	0.0181959
668.042	0.0179414
668.120	0.0180311
668.198	0.0179881
668.276	0.0179396
668.354	0.0179105
668.433	0.0178733
668.511	0.0178085
668.589	0.0177606
668.667	0.0176749
668.745	0.0176781
668.823	0.0177806
668.901	0.0179305
668.979	0.0179616
669.058	0.0179821
669.136	0.0181202
669.214	0.0182361
669.292	0.0182150
669.370	0.0182288
669.448	0.0182816
669.526	0.0183191
669.604	0.0183453
669.683	0.0181818
669.761	0.0181712
669.839	0.0181274
669.917	0.0181108
669.995	0.0180461
670.073	0.0180206
670.151	0.0180341
670.229	0.0179500
670.308	0.0176794
670.386	0.0178664
670.464	0.0177862
670.542	0.0177699
670.620	0.0176374
670.698	0.0177425
670.776	0.0176937
670.854	0.0178091
670.933	0.0179436
671.011	0.0179617
671.089	0.0178917
671.167	0.0180125
671.245	0.0182072
671.323	0.0181152
671.401	0.0182950
671.479	0.0182962
671.558	0.0181575
671.636	0.0180794
671.714	0.0182196
671.792	0.0182098
671.870	0.0180289
671.948	0.0182091
672.026	0.0180720
672.104	0.0178386
672.183	0.0177419
672.261	0.0178175
672.339	0.0178229
672.417	0.0176913
672.495	0.0176460
672.573	0.0176910
672.651	0.0175847
672.729	0.0177431
672.808	0.0177899
672.886	0.0178776
672.964	0.0180293
673.042	0.0179969
673.120	0.0179598
673.198	0.0180501
673.276	0.0181180
673.354	0.0182034
673.433	0.0181169
673.511	0.0182552
673.589	0.0182420
673.667	0.0183337
673.745	0.0182153
673.823	0.0182143
673.901	0.0182420
673.979	0.0180540
674.058	0.0180216
674.136	0.0179805
674.214	0.0178985
674.292	0.0179138
674.370	0.0179150
674.448	0.0178051
674.526	0.0178222
674.604	0.0178021
674.683	0.0177802
674.761	0.0178340
674.839	0.0177382
674.917	0.0179066
674.995	0.0180968
675.073	0.0180282
675.151	0.0179830
675.229	0.0181530
675.308	0.0182797
675.386	0.0182530
675.464	0.0182729
675.542	0.0181964
675.620	0.0182463
675.698	0.0182702
675.776	0.0183611
675.854	0.0181817
675.933	0.0180987
676.011	0.0180404
676.089	0.0179539
676.167	0.0179762
676.245	0.0179067
676.323	0.0180312
676.401	0.0179513
676.479	0.0178695
676.558	0.0179208
676.636	0.0180982
676.714	0.0180618
676.792	0.0179672
676.870	0.0179754
676.948	0.0178970
677.026	0.0180363
677.104	0.0180829
677.183	0.0181177
677.261	0.0180820
677.339	0.0181269
677.417	0.0180824
677.495	0.0181322
677.573	0.0181042
677.651	0.0180847
677.729	0.0180589
677.808	0.0182085
677.886	0.0180130
677.964	0.0179355
678.042	0.0180108
678.120	0.0179077
678.198	0.0179593
678.276	0.0179199
678.354	0.0179585
678.433	0.0177077
678.511	0.0179400
678.589	0.0180254
678.667	0.0178969
678.745	0.0178462
678.823	0.0179612
678.901	0.0178958
678.979	0.0180460
679.058	0.0180108
679.136	0.0179366
679.214	0.0180760
679.292	0.0182269
679.370	0.0181952
679.448	0.0180988
679.526	0.0181613
679.604	0.0181627
679.683	0.0182587
679.761	0.0181148
679.839	0.0181570
679.917	0.0181330
679.995	0.0179006
680.073	0.0181157
680.151	0.0181371
680.229	0.0180878
680.308	0.0179906
680.386	0.0180940
680.464	0.0179863
680.542	0.0179021
680.620	0.0181614
680.698	0.0181049
680.776	0.0179698
680.854	0.0180751
680.933	0.0182095
681.011	0.0179769
681.089	0.0181532
681.167	0.0183289
681.245	0.0182575
681.323	0.0181580
681.401	0.0181329
681.479	0.0181521
681.558	0.0181479
681.636	0.0181890
681.714	0.0181786
681.792	0.0179851
681.870	0.0180625
681.948	0.0180202
682.026	0.0180393
682.104	0.0179114
682.183	0.0179173
682.261	0.0178758
682.339	0.0177440
682.417	0.0177384
682.495	0.0177908
682.573	0.0177237
682.651	0.0176984
682.729	0.0176255
682.808	0.0178134
682.886	0.0176339
682.964	0.0175987
683.042	0.0177739
683.120	0.0178233
683.198	0.0178503
683.276	0.0178654
683.354	0.0179605
683.433	0.0179972
683.511	0.0181580
683.589	0.0181450
683.667	0.0183296
683.745	0.0182174
683.823	0.0181738
683.901	0.0183115
683.979	0.0182928
684.058	0.0180517
684.136	0.0182570
684.214	0.0183009
684.292	0.0182903
684.370	0.0182507
684.448	0.0181158
684.526	0.0181376
684.604	0.0182036
684.683	0.0181231
684.761	0.0181120
684.839	0.0182123
684.917	0.0182041
684.995	0.0182745
685.073	0.0181815
685.151	0.0181282
685.229	0.0182938
685.308	0.0182804
685.386	0.0183537
685.464	0.0183526
685.542	0.0183313
685.620	0.0183494
685.698	0.0181125
685.776	0.0179853
685.854	0.0180733
685.933	0.0180205
686.011	0.0178309
686.089	0.0177918
686.167	0.0176818
686.245	0.0177052
686.323	0.0178336
686.401	0.0177274
686.479	0.0177064
686.558	0.0178355
686.636	0.0177999
686.714	0.0178013
686.792	0.0177840
686.870	0.0177247
686.948	0.0178969
687.026	0.0178532
687.104	0.0178841
687.183	0.0179243
687.261	0.0178524
687.339	0.0178718
687.417	0.0179363
687.495	0.0179765
687.573	0.0179863
687.651	0.0179937
687.729	0.0179832
687.808	0.0179102
687.886	0.0179742
687.964	0.0178894
688.042	0.0179202
688.120	0.0181030
688.198	0.0179008
688.276	0.0179678
688.354	0.0179499
688.433	0.0179250
688.511	0.0180328
688.589	0.0181092
688.667	0.0179816
688.745	0.0181955
688.823	0.0183064
688.901	0.0182301
688.979	0.0182608
689.058	0.0185332
689.136	0.0184792
689.214	0.0183051
689.292	0.0183729
689.370	0.0183248
689.448	0.0184607
689.526	0.0184550
689.604	0.0183715
689.683	0.0182484
689.761	0.0182027
689.839	0.0181207
689.917	0.0179975
689.995	0.0180128
690.073	0.0181046
690.151	0.0180016
690.229	0.0178100
690.308	0.0178779
690.386	0.0177924
690.464	0.0175858
690.542	0.0176760
690.620	0.0177619
690.698	0.0177401
690.776	0.0177579
690.854	0.0179594
690.933	0.0179234
691.011	0.0178041
691.089	0.0179613
691.167	0.0179853
691.245	0.0179453
691.323	0.0179514
691.401	0.0180118
691.479	0.0180029
691.558	0.0180043
691.636	0.0179050
691.714	0.0178732
691.792	0.0178455
691.870	0.0178576
691.948	0.0177429
692.026	0.0178040
692.104	0.0178011
692.183	0.0176907
692.261	0.0177262
692.339	0.0178716
692.417	0.0176914
692.495	0.0176592
692.573	0.0176293
692.651	0.0177436
692.729	0.0177598
692.808	0.0178451
692.886	0.0179834
692.964	0.0178314
693.042	0.0179785
693.120	0.0181377
693.198	0.0182001
693.276	0.0180359
693.354	0.0181615
693.433	0.0181535
693.511	0.0182821
693.589	0.0182095
693.667	0.0180025
693.745	0.0181173
693.823	0.0180290
693.901	0.0181733
693.979	0.0181557
694.058	0.0180530
694.136	0.0180280
694.214	0.0179259
694.292	0.0179000
694.370	0.0180491
694.448	0.0179823
694.526	0.0179900
694.604	0.0179160
694.683	0.0180898
694.761	0.0180868
694.839	0.0179900
694.917	0.0180274
694.995	0.0182004
695.073	0.0183154
695.151	0.0183269
695.229	0.0184468
695.308	0.0183688
695.386	0.0183456
695.464	0.0183817
695.542	0.0184527
695.620	0.0184109
695.698	0.0182333
695.776	0.0182288
695.854	0.0182143
695.933	0.0181694
696.011	0.0180949
696.089	0.0180037
696.167	0.0180077
696.245	0.0179774
696.323	0.0178798
696.401	0.0177568
696.479	0.0178796
696.558	0.0176730
696.636	0.0177720
696.714	0.0178352
696.792	0.0177512
696.870	0.0178637
696.948	0.0176318
697.026	0.0177631
697.104	0.0177869
697.183	0.0178251
697.261	0.0179414
697.339	0.0178796
697.417	0.0179072
697.495	0.0180492
697.573	0.0180507
697.651	0.0179543
697.729	0.0178479
697.808	0.0177135
697.886	0.0178911
697.964	0.0178723
698.042	0.0178281
698.120	0.0179078
698.198	0.0177329
698.276	0.0178193
698.354	0.0179834
698.433	0.0179191
698.511	0.0180096
698.589	0.0180455
698.667	0.0180920
698.745	0.0181480
698.823	0.0182053
698.901	0.0182928
698.979	0.0181545
699.058	0.0182564
699.136	0.0181810
699.214	0.0182294
699.292	0.0182722
699.370	0.0181732
699.448	0.0182484
699.526	0.0182021
699.604	0.0181295
699.683	0.0180432
699.761	0.0180082
699.839	0.0180547
699.917	0.0179041
699.995	0.0178488
700.073	0.0177060
700.151	0.0178946
700.229	0.0178433
700.308	0.0178635
700.386	0.0177996
700.464	0.0177301
700.542	0.0176827
700.620	0.0178757
700.698	0.0179018
700.776	0.0180025
700.854	0.0178314
700.933	0.0178774
701.011	0.0179734
701.089	0.0180910
701.167	0.0182395
701.245	0.0182926
701.323	0.0181483
701.401	0.0183709
701.479	0.0183871
701.558	0.0186243
701.636	0.0185101
701.714	0.0186851
701.792	0.0187389
701.870	0.0187103
701.948	0.0187862
702.026	0.0187795
702.104	0.0187167
702.183	0.0187292
702.261	0.0187433
702.339	0.0184807
702.417	0.0187263
702.495	0.0184728
702.573	0.0183383
702.651	0.0182546
702.729	0.0180772
702.808	0.0179317
702.886	0.0178370
702.964	0.0179779
703.042	0.0178400
703.120	0.0177489
703.198	0.0177008
703.276	0.0175209
703.354	0.0174014
703.433	0.0173898
703.511	0.0174265
703.589	0.0173086
703.667	0.0173970
703.745	0.0173343
703.823	0.0173831
703.901	0.0174655
703.979	0.0175770
704.058	0.0174961
704.136	0.0177582
704.214	0.0178284
704.292	0.0179149
704.370	0.0180584
704.448	0.0179961
704.526	0.0182747
704.604	0.0183282
704.683	0.0183171
704.761	0.0182712
704.839	0.0181930
704.917	0.0182361
704.995	0.0181001
705.073	0.0181351
705.151	0.0180116
705.229	0.0179222
705.308	0.0177139
705.386	0.0176590
705.464	0.0176740
705.542	0.0176891
705.620	0.0175933
705.698	0.0176356
705.776	0.0175668
705.854	0.0175466
705.933	0.0175307
706.011	0.0175579
706.089	0.0177376
706.167	0.0176800
706.245	0.0176900
706.323	0.0178270
706.401	0.0179464
706.479	0.0180222
706.558	0.0180651
706.636	0.0181296
706.714	0.0182948
706.792	0.0183551
706.870	0.0183979
706.948	0.0185594
707.026	0.0187196
707.104	0.0187424
707.183	0.0189400
707.261	0.0189633
707.339	0.0190546
707.417	0.0191122
707.495	0.0191118
707.573	0.0190409
707.651	0.0192204
707.729	0.0191095
707.808	0.0189308
707.886	0.0189157
707.964	0.0187814
708.042	0.0186840
708.120	0.0185837
708.198	0.0183459
708.276	0.0181179
708.354	0.0180837
708.433	0.0178403
708.511	0.0177145
708.589	0.0175439
708.667	0.0173487
708.745	0.0173222
708.823	0.0172279
708.901	0.0171601
708.979	0.0169324
709.058	0.0167941
709.136	0.0167342
709.214	0.0166933
709.292	0.0167451
709.370	0.0166676
709.448	0.0166826
709.526	0.0168969
709.604	0.0170193
709.683	0.0170874
709.761	0.0173402
709.839	0.0175777
709.917	0.0177611
709.995	0.0179375
710.073	0.0181424
710.151	0.0181231
710.229	0.0183331
710.308	0.0185715
710.386	0.0185995
710.464	0.0184293
710.542	0.0185702
710.620	0.0184835
710.698	0.0184286
710.776	0.0184039
710.854	0.0183225
710.933	0.0182365
711.011	0.0180727
711.089	0.0181535
711.167	0.0179250
711.245	0.0180355
711.323	0.0179305
711.401	0.0178795
711.479	0.0177276
711.558	0.0177306
711.636	0.0177972
711.714	0.0176765
711.792	0.0177601
711.870	0.0177701
711.948	0.0177477
712.026	0.0177444
712.104	0.0176952
712.183	0.0177573
712.261	0.0177366
712.339	0.0178943
712.417	0.0178828
712.495	0.0180467
712.573	0.0179980
712.651	0.0180254
712.729	0.0180697
712.808	0.0179332
712.886	0.0182710
712.964	0.0183265
713.042	0.0182260
713.120	0.0184090
713.198	0.0183904
713.276	0.0185213
713.354	0.0183744
713.433	0.0185323
713.511	0.0185694
713.589	0.0187500
713.667	0.0185575
713.745	0.0185172
713.823	0.0186136
713.901	0.0183733
713.979	0.0184222
714.058	0.0185286
714.136	0.0182449
714.214	0.0182596
714.292	0.0182093
714.370	0.0181878
714.448	0.0182615
714.526	0.0181384
714.604	0.0181913
714.683	0.0180859
714.761	0.0180724
714.839	0.0180014
714.917	0.0180269
714.995	0.0179209
715.073	0.0180167
715.151	0.0179970
715.229	0.0180769
715.308	0.0182140
715.386	0.0180572
715.464	0.0180824
715.542	0.0180194
715.620	0.0181313
715.698	0.0181466
715.776	0.0183039
715.854	0.0182761
715.933	0.0182406
716.011	0.0180564
716.089	0.0179124
716.167	0.0179015
716.245	0.0177148
716.323	0.0176881
716.401	0.0174179
716.479	0.0172976
716.558	0.0171291
716.636	0.0171318
716.714	0.0171680
716.792	0.0170457
716.870	0.0171748
716.948	0.0171027
717.026	0.0170985
717.104	0.0172768
717.183	0.0173479
717.261	0.0173179
717.339	0.0174371
717.417	0.0176225
717.495	0.0175063
717.573	0.0176231
717.651	0.0176109
717.729	0.0178197
717.808	0.0179071
717.886	0.0178051
717.964	0.0180313
718.042	0.0180399
718.120	0.0182619
718.198	0.0184270
718.276	0.0184687
718.354	0.0187001
718.433	0.0186545
718.511	0.0189949
718.589	0.0191872
718.667	0.0192123
718.745	0.0192252
718.823	0.0190669
718.901	0.0191833
718.979	0.0191411
719.058	0.0189661
719.136	0.0187302
719.214	0.0185995
719.292	0.0185946
719.370	0.0185222
719.448	0.0182335
719.526	0.0182256
719.604	0.0182331
719.683	0.0181638
719.761	0.0180479
719.839	0.0179523
719.917	0.0179544
719.995	0.0178996
720.073	0.0178669
720.151	0.0178181
720.229	0.0176928
720.308	0.0176762
720.386	0.0174915
720.464	0.0176315
720.542	0.0174281
720.620	0.0175911
720.698	0.0175029
720.776	0.0175043
720.854	0.0175359
720.933	0.0176965
721.011	0.0175854
721.089	0.0178367
721.167	0.0179836
721.245	0.0180917
721.323	0.0180441
721.401	0.0180424
721.479	0.0181508
721.558	0.0181004
721.636	0.0181431
721.714	0.0181245
721.792	0.0181133
721.870	0.0181461
721.948	0.0180814
722.026	0.0181325
722.104	0.0180954
722.183	0.0180659
722.261	0.0179680
722.339	0.0180591
722.417	0.0181079
722.495	0.0182153
722.573	0.0180899
722.651	0.0179865
722.729	0.0182725
722.808	0.0183009
722.886	0.0183518
722.964	0.0185508
723.042	0.0185014
723.120	0.0185571
723.198	0.0183932
723.276	0.0182912
723.354	0.0183261
723.433	0.0183810
723.511	0.0181422
723.589	0.0179624
723.667	0.0178560
723.745	0.0177119
723.823	0.0176257
723.901	0.0174481
723.979	0.0172707
724.058	0.0172590
724.136	0.0171584
724.214	0.0171084
724.292	0.0169341
724.370	0.0170180
724.448	0.0170640
724.526	0.0170950
724.604	0.0172617
724.683	0.0174134
724.761	0.0173693
724.839	0.0175593
724.917	0.0178494
724.995	0.0178526
725.073	0.0181591
725.151	0.0180565
725.229	0.0182220
725.308	0.0181088
725.386	0.0182658
725.464	0.0182807
725.542	0.0183791
725.620	0.0183315
725.698	0.0183094
725.776	0.0181517
725.854	0.0181805
725.933	0.0183206
726.011	0.0182087
726.089	0.0181315
726.167	0.0181560
726.245	0.0182751
726.323	0.0180873
726.401	0.0182246
726.479	0.0182594
726.558	0.0183654
726.636	0.0184348
726.714	0.0185902
726.792	0.0186537
726.870	0.0187873
726.948	0.0186900
727.026	0.0186515
727.104	0.0187984
727.183	0.0188873
727.261	0.0189610
727.339	0.0188802
727.417	0.0188159
727.495	0.0188747
727.573	0.0187140
727.651	0.0186938
727.729	0.0187997
727.808	0.0187653
727.886	0.0186551
727.964	0.0187457
728.042	0.0184827
728.120	0.0184836
728.198	0.0184448
728.276	0.0184217
728.354	0.0181915
728.433	0.0180737
728.511	0.0179879
728.589	0.0179381
728.667	0.0177380
728.745	0.0175732
728.823	0.0174469
728.901	0.0173504
728.979	0.0170561
729.058	0.0171058
729.136	0.0170424
729.214	0.0169263
729.292	0.0167911
729.370	0.0167345
729.448	0.0167415
729.526	0.0167036
729.604	0.0166969
729.683	0.0164664
729.761	0.0168092
729.839	0.0168713
729.917	0.0168692
729.995	0.0170657
730.073	0.0172270
730.151	0.0173093
730.229	0.0174249
730.308	0.0176235
730.386	0.0177578
730.464	0.0178430
730.542	0.0181225
730.620	0.0181284
730.698	0.0182330
730.776	0.0182722
730.854	0.0183190
730.933	0.0184177
731.011	0.0184889
731.089	0.0185702
731.167	0.0183141
731.245	0.0184222
731.323	0.0184251
731.401	0.0183308
731.479	0.0184832
731.558	0.0182733
731.636	0.0184315
731.714	0.0183923
731.792	0.0185452
731.870	0.0184534
731.948	0.0186426
732.026	0.0185961
732.104	0.0183887
732.183	0.0185897
732.261	0.0186169
732.339	0.0184531
732.417	0.0184662
732.495	0.0185061
732.573	0.0185049
732.651	0.0183549
732.729	0.0182997
732.808	0.0182299
732.886	0.0181371
732.964	0.0180347
733.042	0.0180257
733.120	0.0179492
733.198	0.0179423
733.276	0.0180872
733.354	0.0180581
733.433	0.0180819
733.511	0.0181217
733.589	0.0181863
733.667	0.0182095
733.745	0.0182219
733.823	0.0181242
733.901	0.0180584
733.979	0.0179528
734.058	0.0179828
734.136	0.0179594
734.214	0.0178894
734.292	0.0178399
734.370	0.0177045
734.448	0.0175572
734.526	0.0176170
734.604	0.0177500
734.683	0.0177944
734.761	0.0177538
734.839	0.0177094
734.917	0.0179333
734.995	0.0178419
735.073	0.0177415
735.151	0.0177189
735.229	0.0177882
735.308	0.0180132
735.386	0.0177283
735.464	0.0176772
735.542	0.0177027
735.620	0.0177232
735.698	0.0175467
735.776	0.0177058
735.854	0.0177076
735.933	0.0176035
736.011	0.0178014
736.089	0.0177745
736.167	0.0177186
736.245	0.0177663
736.323	0.0180743
736.401	0.0181723
736.479	0.0182769
736.558	0.0183017
736.636	0.0184381
736.714	0.0184778
736.792	0.0185324
736.870	0.0184909
736.948	0.0186452
737.026	0.0184255
737.104	0.0183624
737.183	0.0182455
737.261	0.0181106
737.339	0.0180147
737.417	0.0179169
737.495	0.0178490
737.573	0.0179244
737.651	0.0178296
737.729	0.0176190
737.808	0.0175011
737.886	0.0174739
737.964	0.0177074
738.042	0.0175687
738.120	0.0175158
738.198	0.0176496
738.276	0.0176169
738.354	0.0175372
738.433	0.0176001
738.511	0.0177312
738.589	0.0178530
738.667	0.0178132
738.745	0.0178579
738.823	0.0178726
738.901	0.0180193
738.979	0.0179044
739.058	0.0178357
739.136	0.0179466
739.214	0.0179156
739.292	0.0179265
739.370	0.0180229
739.448	0.0178514
739.526	0.0180601
739.604	0.0179786
739.683	0.0182247
739.761	0.0182811
739.839	0.0182772
739.917	0.0183012
739.995	0.0184048
740.073	0.0186055
740.151	0.0185253
740.229	0.0185623
740.308	0.0186214
740.386	0.0185807
740.464	0.0186912
740.542	0.0186298
740.620	0.0186350
740.698	0.0185324
740.776	0.0186621
740.854	0.0184870
740.933	0.0184731
741.011	0.0184032
741.089	0.0184577
741.167	0.0184924
741.245	0.0183932
741.323	0.0184641
741.401	0.0184830
741.479	0.0183049
741.558	0.0182192
741.636	0.0182361
741.714	0.0183425
741.792	0.0182835
741.870	0.0182940
741.948	0.0181712
742.026	0.0182648
742.104	0.0182623
742.183	0.0180089
742.261	0.0181135
742.339	0.0180571
742.417	0.0179168
742.495	0.0177824
742.573	0.0176817
742.651	0.0174487
742.729	0.0175442
742.808	0.0175043
742.886	0.0174373
742.964	0.0173525
743.042	0.0170790
743.120	0.0173002
743.198	0.0171616
743.276	0.0173438
743.354	0.0172279
743.433	0.0171597
743.511	0.0173556
743.589	0.0172716
743.667	0.0174238
743.745	0.0172877
743.823	0.0172659
743.901	0.0174035
743.979	0.0175348
744.058	0.0175736
744.136	0.0176122
744.214	0.0175294
744.292	0.0175350
744.370	0.0176914
744.448	0.0176977
744.526	0.0178552
744.604	0.0178460
744.683	0.0178161
744.761	0.0178397
744.839	0.0179285
744.917	0.0179823
744.995	0.0180287
745.073	0.0181484
745.151	0.0183578
745.229	0.0182692
745.308	0.0183446
745.386	0.0184368
745.464	0.0184492
745.542	0.0185534
745.620	0.0185544
745.698	0.0186518
745.776	0.0186657
745.854	0.0186446
745.933	0.0188419
746.011	0.0186379
746.089	0.0186633
746.167	0.0188440
746.245	0.0187710
746.323	0.0188882
746.401	0.0188591
746.479	0.0187341
746.558	0.0188247
746.636	0.0187793
746.714	0.0187875
746.792	0.0187395
746.870	0.0187235
746.948	0.0186282
747.026	0.0186124
747.104	0.0185248
747.183	0.0183828
747.261	0.0182883
747.339	0.0182243
747.417	0.0181941
747.495	0.0181438
747.573	0.0179868
747.651	0.0180465
747.729	0.0178802
747.808	0.0178541
747.886	0.0177604
747.964	0.0176480
748.042	0.0177504
748.120	0.0176648
748.198	0.0174164
748.276	0.0174583
748.354	0.0175355
748.433	0.0173410
748.511	0.0172256
748.589	0.0173288
748.667	0.0173700
748.745	0.0173795
748.823	0.0174262
748.901	0.0173594
748.979	0.0173264
749.058	0.0175732
749.136	0.0175910
749.214	0.0174730
749.292	0.0174361
749.370	0.0175592
749.448	0.0174454
749.526	0.0175408
749.604	0.0176440
749.683	0.0177087
749.761	0.0176176
749.839	0.0177393
749.917	0.0177946
749.995	0.0178542
750.073	0.0178241
750.151	0.0180247
750.229	0.0180571
750.308	0.0179110
750.386	0.0181062
750.464	0.0181935
750.542	0.0182378
750.620	0.0181634
750.698	0.0183025
750.776	0.0182009
750.854	0.0183311
750.933	0.0184657
751.011	0.0183721
751.089	0.0182820
751.167	0.0181170
751.245	0.0184045
751.323	0.0184214
751.401	0.0183059
751.479	0.0183113
751.558	0.0183810
751.636	0.0184406
751.714	0.0182753
751.792	0.0182959
751.870	0.0184023
751.948	0.0182980
752.026	0.0182687
752.104	0.0182941
752.183	0.0182948
752.261	0.0182380
752.339	0.0182557
752.417	0.0181673
752.495	0.0181593
752.573	0.0181088
752.651	0.0180870
752.729	0.0181236
752.808	0.0181074
752.886	0.0180657
752.964	0.0180344
753.042	0.0180338
753.120	0.0180428
753.198	0.0179144
753.276	0.0180836
753.354	0.0180288
753.433	0.0177956
753.511	0.0177748
753.589	0.0177583
753.667	0.0178676
753.745	0.0177291
753.823	0.0178712
753.901	0.0177165
753.979	0.0176904
754.058	0.0177385
754.136	0.0178732
754.214	0.0178109
754.292	0.0177748
754.370	0.0180167
754.448	0.0179454
754.526	0.0181849
754.604	0.0182182
754.683	0.0181001
754.761	0.0180473
754.839	0.0183617
754.917	0.0182896
754.995	0.0183501
755.073	0.0183553
755.151	0.0181540
755.229	0.0181417
755.308	0.0181621
755.386	0.0182535
755.464	0.0181683
755.542	0.0182155
755.620	0.0181035
755.698	0.0180043
755.776	0.0178064
755.854	0.0178630
755.933	0.0177741
756.011	0.0177145
756.089	0.0176783
756.167	0.0176944
756.245	0.0176624
756.323	0.0176193
756.401	0.0174205
756.479	0.0175058
756.558	0.0176088
756.636	0.0176768
756.714	0.0175594
756.792	0.0174957
756.870	0.0177695
756.948	0.0177220
757.026	0.0177151
757.104	0.0177935
757.183	0.0178284
757.261	0.0179135
757.339	0.0179201
757.417	0.0179321
757.495	0.0180159
757.573	0.0180807
757.651	0.0181911
757.729	0.0180496
757.808	0.0182012
757.886	0.0180611
757.964	0.0180019
758.042	0.0181408
758.120	0.0180395
758.198	0.0181874
758.276	0.0182653
758.354	0.0181039
758.433	0.0181686
758.511	0.0181641
758.589	0.0181843
758.667	0.0182114
758.745	0.0181185
758.823	0.0182537
758.901	0.0183468
758.979	0.0181834
759.058	0.0181799
759.136	0.0182142
759.214	0.0182700
759.292	0.0183132
759.370	0.0183237
759.448	0.0181802
759.526	0.0181505
759.604	0.0182069
759.683	0.0183109
759.761	0.0183445
759.839	0.0182254
759.917	0.0181604
759.995	0.0182467
760.073	0.0181815
760.151	0.0181104
760.229	0.0180164
760.308	0.0179877
760.386	0.0180778
760.464	0.0181297
760.542	0.0179671
760.620	0.0179753
760.698	0.0178874
760.776	0.0179707
760.854	0.0180437
760.933	0.0179846
761.011	0.0179305
761.089	0.0177797
761.167	0.0179472
761.245	0.0180565
761.323	0.0180196
761.401	0.0179906
761.479	0.0181027
761.558	0.0180314
761.636	0.0179960
761.714	0.0180337
761.792	0.0180460
761.870	0.0181781
761.948	0.0180908
762.026	0.0179408
762.104	0.0179449
762.183	0.0180782
762.261	0.0180988
762.339	0.0181497
762.417	0.0180270
762.495	0.0179931
762.573	0.0179984
762.651	0.0179417
762.729	0.0180220
762.808	0.0177145
762.886	0.0179298
762.964	0.0179987
763.042	0.0180656
763.120	0.0181393
763.198	0.0181455
763.276	0.0180933
763.354	0.0180836
763.433	0.0182140
763.511	0.0179977
763.589	0.0182440
763.667	0.0180042
763.745	0.0179555
763.823	0.0177372
763.901	0.0177616
763.979	0.0178290
764.058	0.0177936
764.136	0.0177370
764.214	0.0175932
764.292	0.0176456
764.370	0.0176497
764.448	0.0175558
764.526	0.0175331
764.604	0.0176752
764.683	0.0176928
764.761	0.0177501
764.839	0.0177558
764.917	0.0176543
764.995	0.0177861
765.073	0.0176697
765.151	0.0177547
765.229	0.0178614
765.308	0.0178399
765.386	0.0178267
765.464	0.0180407
765.542	0.0178121
765.620	0.0178111
765.698	0.0179865
765.776	0.0180015
765.854	0.0179633
765.933	0.0181050
766.011	0.0182798
766.089	0.0181327
766.167	0.0180156
766.245	0.0182529
766.323	0.0183427
766.401	0.0184468
766.479	0.0183989
766.558	0.0183658
766.636	0.0184167
766.714	0.0184364
766.792	0.0184605
766.870	0.0185258
766.948	0.0185443
767.026	0.0184746
767.104	0.0185567
767.183	0.0185972
767.261	0.0185323
767.339	0.0184060
767.417	0.0183835
767.495	0.0183333
767.573	0.0184055
767.651	0.0182224
767.729	0.0183784
767.808	0.0182294
767.886	0.0182236
767.964	0.0182562
768.042	0.0182836
768.120	0.0181851
768.198	0.0181401
768.276	0.0182275
768.354	0.0181896
768.433	0.0179298
768.511	0.0180335
768.589	0.0179890
768.667	0.0179374
768.745	0.0178103
768.823	0.0176458
768.901	0.0175638
768.979	0.0175552
769.058	0.0175348
769.136	0.0175565
769.214	0.0176266
769.292	0.0173660
769.370	0.0172987
769.448	0.0174252
769.526	0.0174935
769.604	0.0174384
769.683	0.0174580
769.761	0.0176044
769.839	0.0175149
769.917	0.0175687
769.995	0.0177023
770.073	0.0176630
770.151	0.0177225
770.229	0.0178309
770.308	0.0178498
770.386	0.0178967
770.464	0.0180286
770.542	0.0179851
770.620	0.0180441
770.698	0.0180816
770.776	0.0178882
770.854	0.0179990
770.933	0.0178921
771.011	0.0178127
771.089	0.0178432
771.167	0.0178883
771.245	0.0176824
771.323	0.0179052
771.401	0.0180489
771.479	0.0178096
771.558	0.0179560
771.636	0.0180366
771.714	0.0180415
771.792	0.0181129
771.870	0.0182344
771.948	0.0182196
772.026	0.0183834
772.104	0.0183703
772.183	0.0184408
772.261	0.0184997
772.339	0.0184469
772.417	0.0185042
772.495	0.0183633
772.573	0.0184387
772.651	0.0184388
772.729	0.0184474
772.808	0.0183881
772.886	0.0183283
772.964	0.0184143
773.042	0.0183858
773.120	0.0182867
773.198	0.0182353
773.276	0.0182366
773.354	0.0183152
773.433	0.0182858
773.511	0.0182124
773.589	0.0180253
773.667	0.0181647
773.745	0.0179547
773.823	0.0179355
773.901	0.0180051
773.979	0.0179826
774.058	0.0179757
774.136	0.0179920
774.214	0.0180171
774.292	0.0179836
774.370	0.0179211
774.448	0.0180145
774.526	0.0179595
774.604	0.0181065
774.683	0.0180442
774.761	0.0179208
774.839	0.0181139
774.917	0.0182678
774.995	0.0181931
775.073	0.0179472
775.151	0.0180999
775.229	0.0180737
775.308	0.0180064
775.386	0.0180431
775.464	0.0178954
775.542	0.0179918
775.620	0.0178445
775.698	0.0177175
775.776	0.0177079
775.854	0.0179343
775.933	0.0177984
776.011	0.0175838
776.089	0.0176147
776.167	0.0176533
776.245	0.0177001
776.323	0.0179392
776.401	0.0179475
776.479	0.0179003
776.558	0.0179304
776.636	0.0180623
776.714	0.0180009
776.792	0.0179480
776.870	0.0178688
776.948	0.0178881
777.026	0.0178542
777.104	0.0178108
777.183	0.0177094
777.261	0.0176514
777.339	0.0175726
777.417	0.0176380
777.495	0.0174718
777.573	0.0174702
777.651	0.0176546
777.729	0.0176504
777.808	0.0176694
777.886	0.0177357
777.964	0.0178742
778.042	0.0179343
778.120	0.0180913
778.198	0.0180808
778.276	0.0182721
778.354	0.0184614
778.433	0.0183135
778.511	0.0183572
778.589	0.0184981
778.667	0.0185198
778.745	0.0185810
778.823	0.0186680
778.901	0.0184369
778.979	0.0184349
779.058	0.0184373
779.136	0.0183511
779.214	0.0182030
779.292	0.0182208
779.370	0.0181373
779.448	0.0182797
779.526	0.0180940
779.604	0.0180078
779.683	0.0181008
779.761	0.0180849
779.839	0.0180225
779.917	0.0179979
779.995	0.0180325
780.073	0.0181014
780.151	0.0180129
780.229	0.0180016
780.308	0.0180701
780.386	0.0181268
780.464	0.0181450
780.542	0.0182373
780.620	0.0180457
780.698	0.0181241
780.776	0.0180055
780.854	0.0180978
780.933	0.0180779
781.011	0.0180560
781.089	0.0181054
781.167	0.0180488
781.245	0.0180386
781.323	0.0181339
781.401	0.0179707
781.479	0.0178406
781.558	0.0179696
781.636	0.0179412
781.714	0.0179269
781.792	0.0179453
781.870	0.0177784
781.948	0.0178031
782.026	0.0178463
782.104	0.0176688
782.183	0.0178288
782.261	0.0178030
782.339	0.0177321
782.417	0.0177795
782.495	0.0178639
782.573	0.0178298
782.651	0.0179691
782.729	0.0178903
782.808	0.0179112
782.886	0.0179573
782.964	0.0182553
783.042	0.0180091
783.120	0.0181510
783.198	0.0182739
783.276	0.0181837
783.354	0.0181725
783.433	0.0182397
783.511	0.0181467
783.589	0.0181837
783.667	0.0180961
783.745	0.0181451
783.823	0.0180859
783.901	0.0179749
783.979	0.0177599
784.058	0.0178083
784.136	0.0179779
784.214	0.0179597
784.292	0.0178835
784.370	0.0177728
784.448	0.0178330
784.526	0.0179628
784.604	0.0180186
784.683	0.0180991
784.761	0.0181627
784.839	0.0182630
784.917	0.0183958
784.995	0.0183691
785.073	0.0183976
785.151	0.0184789
785.229	0.0183575
785.308	0.0183969
785.386	0.0183270
785.464	0.0182745
785.542	0.0181944
785.620	0.0179744
785.698	0.0180761
785.776	0.0179419
785.854	0.0178557
785.933	0.0179449
786.011	0.0177946
786.089	0.0177565
786.167	0.0177630
786.245	0.0178021
786.323	0.0176953
786.401	0.0176699
786.479	0.0177303
786.558	0.0179623
786.636	0.0177865
786.714	0.0178541
786.792	0.0178194
786.870	0.0177850
786.948	0.0178690
787.026	0.0179495
787.104	0.0179016
787.183	0.0180887
787.261	0.0181574
787.339	0.0181205
787.417	0.0180294
787.495	0.0180504
787.573	0.0181020
787.651	0.0180770
787.729	0.0181448
787.808	0.0180560
787.886	0.0180373
787.964	0.0180858
788.042	0.0178875
788.120	0.0180042
788.198	0.0179886
788.276	0.0179499
788.354	0.0178748
788.433	0.0178043
788.511	0.0177503
788.589	0.0177473
788.667	0.0178216
788.745	0.0176671
788.823	0.0176066
788.901	0.0178030
788.979	0.0178168
789.058	0.0180013
789.136	0.0178644
789.214	0.0178817
789.292	0.0178668
789.370	0.0181084
789.448	0.0180690
789.526	0.0180951
789.604	0.0181044
789.683	0.0182089
789.761	0.0181140
789.839	0.0181824
789.917	0.0182504
789.995	0.0182246
790.073	0.0182458
790.151	0.0181316
790.229	0.0180688
790.308	0.0180792
790.386	0.0181587
790.464	0.0180871
790.542	0.0180977
790.620	0.0180341
790.698	0.0179537
790.776	0.0178423
790.854	0.0178443
790.933	0.0179559
791.011	0.0182129
791.089	0.0182046
791.167	0.0182116
791.245	0.0181991
791.323	0.0182670
791.401	0.0183475
791.479	0.0184975
791.558	0.0183569
791.636	0.0183628
791.714	0.0184064
791.792	0.0183528
791.870	0.0182626
791.948	0.0182990
792.026	0.0181409
792.104	0.0180405
792.183	0.0178756
792.261	0.0179400
792.339	0.0176902
792.417	0.0177562
792.495	0.0176534
792.573	0.0175187
792.651	0.0175233
792.729	0.0173907
792.808	0.0174925
792.886	0.0175839
792.964	0.0175327
793.042	0.0174957
793.120	0.0174386
793.198	0.0178325
793.276	0.0178956
793.354	0.0179385
793.433	0.0179921
793.511	0.0181241
793.589	0.0182817
793.667	0.0181922
793.745	0.0182813
793.823	0.0184154
793.901	0.0183611
793.979	0.0183415
794.058	0.0182841
794.136	0.0184126
794.214	0.0183202
794.292	0.0181550
794.370	0.0181445
794.448	0.0180347
794.526	0.0181532
794.604	0.0181944
794.683	0.0180170
794.761	0.0179935
794.839	0.0180438
794.917	0.0181089
794.995	0.0180091
795.073	0.0178706
795.151	0.0181329
795.229	0.0180551
795.308	0.0179992
795.386	0.0179988
795.464	0.0179429
795.542	0.0179874
795.620	0.0179936
795.698	0.0180907
795.776	0.0180925
795.854	0.0179317
795.933	0.0180615
796.011	0.0180027
796.089	0.0181361
796.167	0.0180157
796.245	0.0181297
796.323	0.0179934
796.401	0.0179925
796.479	0.0179201
796.558	0.0181439
796.636	0.0181397
796.714	0.0180607
796.792	0.0178765
796.870	0.0180562
796.948	0.0180129
797.026	0.0181295
797.104	0.0180708
797.183	0.0182282
797.261	0.0182414
797.339	0.0182828
797.417	0.0183891
797.495	0.0183553
797.573	0.0182555
797.651	0.0183963
797.729	0.0184307
797.808	0.0185191
797.886	0.0185482
797.964	0.0184978
798.042	0.0184161
798.120	0.0184444
798.198	0.0184520
798.276	0.0183223
798.354	0.0183220
798.433	0.0182744
798.511	0.0180101
798.589	0.0178388
798.667	0.0178356
798.745	0.0176737
798.823	0.0175089
798.901	0.0175813
798.979	0.0175414
799.058	0.0174464
799.136	0.0173318
799.214	0.0173865
799.292	0.0175567
799.370	0.0174841
799.448	0.0175111
799.526	0.0177738
799.604	0.0176754
799.683	0.0177493
799.761	0.0177405
799.839	0.0179528
799.917	0.0179873
799.995	0.0181336
800.073	0.0181064
800.151	0.0183125
800.229	0.0182018
800.308	0.0183755
800.386	0.0182422
800.464	0.0183634
800.542	0.0182693
800.620	0.0183139
800.698	0.0183669
800.776	0.0182468
800.854	0.0182287
800.933	0.0183137
801.011	0.0182800
801.089	0.0182162
801.167	0.0182697
801.245	0.0180699
801.323	0.0180602
801.401	0.0179794
801.479	0.0180305
801.558	0.0178619
801.636	0.0178692
801.714	0.0179711
801.792	0.0178277
801.870	0.0178847
801.948	0.0177322
802.026	0.0177956
802.104	0.0177201
802.183	0.0176612
802.261	0.0177771
802.339	0.0178208
802.417	0.0178609
802.495	0.0178044
802.573	0.0177922
802.651	0.0178996
802.729	0.0180479
802.808	0.0181451
802.886	0.0181344
802.964	0.0181482
803.042	0.0181828
803.120	0.0182515
803.198	0.0181901
803.276	0.0181712
803.354	0.0180759
803.433	0.0182004
803.511	0.0182377
803.589	0.0180662
803.667	0.0180875
803.745	0.0181289
803.823	0.0182255
803.901	0.0182678
803.979	0.0182464
804.058	0.0184261
804.136	0.0183115
804.214	0.0182151
804.292	0.0183154
804.370	0.0183997
804.448	0.0183228
804.526	0.0182492
804.604	0.0183439
804.683	0.0181692
804.761	0.0182661
804.839	0.0181398
804.917	0.0179495
804.995	0.0178828
805.073	0.0178676
805.151	0.0178046
805.229	0.0176038
805.308	0.0176012
805.386	0.0176720
805.464	0.0174934
805.542	0.0175182
805.620	0.0173869
805.698	0.0174982
805.776	0.0175809
805.854	0.0175223
805.933	0.0176032
806.011	0.0175971
806.089	0.0175468
806.167	0.0178345
806.245	0.0180119
806.323	0.0180295
806.401	0.0180738
806.479	0.0180859
806.558	0.0182240
806.636	0.0181297
806.714	0.0183473
806.792	0.0183307
806.870	0.0182666
806.948	0.0183266
807.026	0.0181721
807.104	0.0182961
807.183	0.0182971
807.261	0.0182537
807.339	0.0183676
807.417	0.0182719
807.495	0.0182842
807.573	0.0183273
807.651	0.0182432
807.729	0.0181234
807.808	0.0180060
807.886	0.0181190
807.964	0.0179388
808.042	0.0179134
808.120	0.0178077
808.198	0.0177570
808.276	0.0177970
808.354	0.0176968
808.433	0.0176223
808.511	0.0176099
808.589	0.0174761
808.667	0.0176154
808.745	0.0177092
808.823	0.0176623
808.901	0.0177190
808.979	0.0176842
809.058	0.0178274
809.136	0.0179070
809.214	0.0178829
809.292	0.0179345
809.370	0.0180777
809.448	0.0182557
809.526	0.0181534
809.604	0.0181234
809.683	0.0182738
809.761	0.0182027
809.839	0.0182718
809.917	0.0182085
809.995	0.0182399
810.073	0.0181721
810.151	0.0180325
810.229	0.0181580
810.308	0.0180786
810.386	0.0181245
810.464	0.0181894
810.542	0.0183469
810.620	0.0181876
810.698	0.0181088
810.776	0.0181630
810.854	0.0182969
810.933	0.0183264
811.011	0.0182256
811.089	0.0182887
811.167	0.0181648
811.245	0.0181160
811.323	0.0181404
811.401	0.0180546
811.479	0.0181193
811.558	0.0178001
811.636	0.0176390
811.714	0.0177579
811.792	0.0175910
811.870	0.0174903
811.948	0.0176123
812.026	0.0176184
812.104	0.0175448
812.183	0.0175101
812.261	0.0174249
812.339	0.0174906
812.417	0.0175877
812.495	0.0174744
812.573	0.0176844
812.651	0.0176339
812.729	0.0177734
812.808	0.0178654
812.886	0.0179230
812.964	0.0178366
813.042	0.0179097
813.120	0.0179887
813.198	0.0181506
813.276	0.0180094
813.354	0.0181061
813.433	0.0180185
813.511	0.0180958
813.589	0.0181934
813.667	0.0183028
813.745	0.0181375
813.823	0.0181989
813.901	0.0181413
813.979	0.0182522
814.058	0.0182203
814.136	0.0182240
814.214	0.0180338
814.292	0.0181019
814.370	0.0181394
814.448	0.0181104
814.526	0.0180247
814.604	0.0179709
814.683	0.0179040
814.761	0.0178806
814.839	0.0177718
814.917	0.0178020
814.995	0.0178229
815.073	0.0176852
815.151	0.0178431
815.229	0.0177986
815.308	0.0179572
815.386	0.0178441
815.464	0.0177949
815.542	0.0179768
815.620	0.0179431
815.698	0.0179976
815.776	0.0179736
815.854	0.0179762
815.933	0.0180710
816.011	0.0181086
816.089	0.0180234
816.167	0.0182819
816.245	0.0182064
816.323	0.0182197
816.401	0.0181284
816.479	0.0181057
816.558	0.0182681
816.636	0.0183995
816.714	0.0182111
816.792	0.0180994
816.870	0.0182065
816.948	0.0182319
817.026	0.0182132
817.104	0.0183318
817.183	0.0183521
817.261	0.0183752
817.339	0.0183558
817.417	0.0181873
817.495	0.0182343
817.573	0.0182996
817.651	0.0180808
817.729	0.0181156
817.808	0.0182105
817.886	0.0181171
817.964	0.0180530
818.042	0.0180689
818.120	0.0178850
818.198	0.0177884
818.276	0.0176477
818.354	0.0176994
818.433	0.0176602
818.511	0.0176572
818.589	0.0176653
818.667	0.0176724
818.745	0.0176023
818.823	0.0174525
818.901	0.0177130
818.979	0.0178059
819.058	0.0177968
819.136	0.0177615
819.214	0.0176958
819.292	0.0178085
819.370	0.0177667
819.448	0.0179202
819.526	0.0179540
819.604	0.0180172
819.683	0.0179201
819.761	0.0179684
819.839	0.0181203
819.917	0.0181432
819.995	0.0181431
820.073	0.0180270
820.151	0.0181664
820.229	0.0181896
820.308	0.0180753
820.386	0.0182294
820.464	0.0181355
820.542	0.0182040
820.620	0.0181650
820.698	0.0180320
820.776	0.0180508
820.854	0.0180453
820.933	0.0180134
821.011	0.0179472
821.089	0.0179791
821.167	0.0180950
821.245	0.0180446
821.323	0.0179169
821.401	0.0179624
821.479	0.0178873
821.558	0.0178960
821.636	0.0178502
821.714	0.0178338
821.792	0.0179609
821.870	0.0179311
821.948	0.0178503
822.026	0.0178609
822.104	0.0178672
822.183	0.0179686
822.261	0.0179183
822.339	0.0180192
822.417	0.0179449
822.495	0.0179858
822.573	0.0180233
822.651	0.0180370
822.729	0.0181126
822.808	0.0181089
822.886	0.0182066
822.964	0.0182502
823.042	0.0182158
823.120	0.0182454
823.198	0.0182647
823.276	0.0183921
823.354	0.0183379
823.433	0.0183961
823.511	0.0183129
823.589	0.0184310
823.667	0.0182526
823.745	0.0183377
823.823	0.0183454
823.901	0.0182673
823.979	0.0183198
824.058	0.0183321
824.136	0.0182664
824.214	0.0181700
824.292	0.0183025
824.370	0.0182055
824.448	0.0181265
824.526	0.0180636
824.604	0.0180676
824.683	0.0180289
824.761	0.0179561
824.839	0.0178904
824.917	0.0178580
824.995	0.0177467
825.073	0.0178052
825.151	0.0178690
825.229	0.0179214
825.308	0.0177667
825.386	0.0178671
825.464	0.0176946
825.542	0.0176766
825.620	0.0176350
825.698	0.0179068
825.776	0.0178120
825.854	0.0178575
825.933	0.0177901
826.011	0.0177753
826.089	0.0178701
826.167	0.0177913
826.245	0.0178769
826.323	0.0179174
826.401	0.0178223
826.479	0.0178785
826.558	0.0179166
826.636	0.0179276
826.714	0.0178651
826.792	0.0179756
826.870	0.0179224
826.948	0.0177901
827.026	0.0178821
827.104	0.0178357
827.183	0.0179136
827.261	0.0179124
827.339	0.0180736
827.417	0.0179156
827.495	0.0180427
827.573	0.0181023
827.651	0.0181187
827.729	0.0181937
827.808	0.0180650
827.886	0.0180574
827.964	0.0181580
828.042	0.0183217
828.120	0.0183355
828.198	0.0182759
828.276	0.0181784
828.354	0.0183017
828.433	0.0181219
828.511	0.0181460
828.589	0.0181731
828.667	0.0182053
828.745	0.0180707
828.823	0.0181143
828.901	0.0180534
828.979	0.0179936
829.058	0.0179632
829.136	0.0179811
829.214	0.0179668
829.292	0.0178605
829.370	0.0180338
829.448	0.0179742
829.526	0.0178785
829.604	0.0181389
829.683	0.0180888
829.761	0.0180328
829.839	0.0182575
829.917	0.0181795
829.995	0.0180996
830.073	0.0180714
830.151	0.0180286
830.229	0.0181042
830.308	0.0181152
830.386	0.0179699
830.464	0.0181384
830.542	0.0181165
830.620	0.0181155
830.698	0.0179584
830.776	0.0179830
830.854	0.0179420
830.933	0.0180457
831.011	0.0180851
831.089	0.0179857
831.167	0.0178100
831.245	0.0180539
831.323	0.0178615
831.401	0.0178790
831.479	0.0177924
831.558	0.0178974
831.636	0.0178336
831.714	0.0179314
831.792	0.0177411
831.870	0.0177589
831.948	0.0177936
832.026	0.0178022
832.104	0.0177276
832.183	0.0179659
832.261	0.0179440
832.339	0.0178909
832.417	0.0178240
832.495	0.0177897
832.573	0.0178852
832.651	0.0179506
832.729	0.0179378
832.808	0.0178192
832.886	0.0178618
832.964	0.0178763
833.042	0.0177799
833.120	0.0179875
833.198	0.0179748
833.276	0.0179572
833.354	0.0179591
833.433	0.0179473
833.511	0.0179705
833.589	0.0180112
833.667	0.0180074
833.745	0.0179163
833.823	0.0180772
833.901	0.0181624
833.979	0.0180590
834.058	0.0181231
834.136	0.0180276
834.214	0.0180473
834.292	0.0180604
834.370	0.0181079
834.448	0.0182520
834.526	0.0181271
834.604	0.0180875
834.683	0.0179517
834.761	0.0178929
834.839	0.0179697
834.917	0.0179238
834.995	0.0178468
835.073	0.0179302
835.151	0.0177829
835.229	0.0179933
835.308	0.0177441
835.386	0.0176993
835.464	0.0177790
835.542	0.0175979
835.620	0.0177048
835.698	0.0178324
835.776	0.0177792
835.854	0.0176513
835.933	0.0178030
836.011	0.0179070
836.089	0.0179440
836.167	0.0178844
836.245	0.0179575
836.323	0.0180563
836.401	0.0181802
836.479	0.0181188
836.558	0.0181462
836.636	0.0181056
836.714	0.0181310
836.792	0.0181561
836.870	0.0182272
836.948	0.0182287
837.026	0.0181820
837.104	0.0181713
837.183	0.0181854
837.261	0.0181119
837.339	0.0182449
837.417	0.0181642
837.495	0.0181230
837.573	0.0181765
837.651	0.0181441
837.729	0.0180771
837.808	0.0179989
837.886	0.0179910
837.964	0.0179479
838.042	0.0180895
838.120	0.0180106
838.198	0.0179520
838.276	0.0179154
838.354	0.0179404
838.433	0.0178521
838.511	0.0179311
838.589	0.0179275
838.667	0.0178416
838.745	0.0177661
838.823	0.0179388
838.901	0.0177628
838.979	0.0178214
839.058	0.0176875
839.136	0.0178193
839.214	0.0177711
839.292	0.0178887
839.370	0.0177525
839.448	0.0178385
839.526	0.0178162
839.604	0.0177406
839.683	0.0178741
839.761	0.0179189
839.839	0.0178635
839.917	0.0179692
839.995	0.0179476
840.073	0.0179211
840.151	0.0179771
840.229	0.0181305
840.308	0.0180106
840.386	0.0180397
840.464	0.0179774
840.542	0.0181180
840.620	0.0179942
840.698	0.0181813
840.776	0.0182046
840.854	0.0182772
840.933	0.0182297
841.011	0.0182550
841.089	0.0182405
841.167	0.0182376
841.245	0.0182964
841.323	0.0183981
841.401	0.0183076
841.479	0.0180473
841.558	0.0182506
841.636	0.0181441
841.714	0.0181152
841.792	0.0180865
841.870	0.0180762
841.948	0.0181339
842.026	0.0180362
842.104	0.0179412
842.183	0.0180485
842.261	0.0179205
842.339	0.0180849
842.417	0.0179958
842.495	0.0179072
842.573	0.0179058
842.651	0.0180605
842.729	0.0180193
842.808	0.0180116
842.886	0.0179377
842.964	0.0180801
843.042	0.0181184
843.120	0.0181046
843.198	0.0180899
843.276	0.0181511
843.354	0.0182293
843.433	0.0182129
843.511	0.0180336
843.589	0.0181729
843.667	0.0181621
843.745	0.0180537
843.823	0.0180501
843.901	0.0180153
843.979	0.0180517
844.058	0.0180550
844.136	0.0180666
844.214	0.0180142
844.292	0.0179912
844.370	0.0180474
844.448	0.0179684
844.526	0.0180392
844.604	0.0180922
844.683	0.0179822
844.761	0.0181040
844.839	0.0180519
844.917	0.0182179
844.995	0.0181013
845.073	0.0180557
845.151	0.0179858
845.229	0.0181076
845.308	0.0180945
845.386	0.0179661
845.464	0.0179239
845.542	0.0180711
845.620	0.0179821
845.698	0.0178639
845.776	0.0178663
845.854	0.0179340
845.933	0.0178876
846.011	0.0180001
846.089	0.0179599
846.167	0.0178964
846.245	0.0179135
846.323	0.0179126
846.401	0.0179473
846.479	0.0178905
846.558	0.0180138
846.636	0.0180433
846.714	0.0180402
846.792	0.0180801
846.870	0.0179970
846.948	0.0181529
847.026	0.0179543
847.104	0.0180236
847.183	0.0181394
847.261	0.0180366
847.339	0.0181305
847.417	0.0181216
847.495	0.0181223
847.573	0.0180817
847.651	0.0180508
847.729	0.0180242
847.808	0.0181295
847.886	0.0180634
847.964	0.0181577
848.042	0.0181965
848.120	0.0180915
848.198	0.0179321
848.276	0.0182008
848.354	0.0182310
848.433	0.0182227
848.511	0.0180649
848.589	0.0181698
848.667	0.0181606
848.745	0.0181712
848.823	0.0180928
848.901	0.0182154
848.979	0.0181271
849.058	0.0181887
849.136	0.0182249
849.214	0.0182294
849.292	0.0181609
849.370	0.0181520
849.448	0.0181241
849.526	0.0180500
849.604	0.0180116
849.683	0.0179867
849.761	0.0179546
849.839	0.0178777
849.917	0.0180185
849.995	0.0178867
850.073	0.0178817
850.151	0.0176911
850.229	0.0177319
850.308	0.0177640
850.386	0.0177895
850.464	0.0177895
850.542	0.0177123
850.620	0.0176772
850.698	0.0178602
850.776	0.0177988
850.854	0.0178905
850.933	0.0178634
851.011	0.0178858
851.089	0.0179858
851.167	0.0179230
851.245	0.0178656
851.323	0.0179746
851.401	0.0180630
851.479	0.0179195
851.558	0.0180698
851.636	0.0179488
851.714	0.0178775
851.792	0.0178703
851.870	0.0178596
851.948	0.0178545
852.026	0.0178717
852.104	0.0178603
852.183	0.0177926
852.261	0.0178778
852.339	0.0179509
852.417	0.0179166
852.495	0.0180463
852.573	0.0180397
852.651	0.0179658
852.729	0.0178222
852.808	0.0178718
852.886	0.0179324
852.964	0.0180653
853.042	0.0181105
853.120	0.0181132
853.198	0.0180791
853.276	0.0181130
853.354	0.0180695
853.433	0.0181244
853.511	0.0181130
853.589	0.0181217
853.667	0.0181845
853.745	0.0181585
853.823	0.0181731
853.901	0.0180672
853.979	0.0180333
854.058	0.0180354
854.136	0.0180331
854.214	0.0181158
854.292	0.0180228
854.370	0.0179038
854.448	0.0179309
854.526	0.0180345
854.604	0.0180264
854.683	0.0179925
854.761	0.0179266
854.839	0.0179488
854.917	0.0180499
854.995	0.0180695
855.073	0.0180312
855.151	0.0179239
855.229	0.0178999
855.308	0.0179893
855.386	0.0178818
855.464	0.0180643
855.542	0.0180092
855.620	0.0180182
855.698	0.0179997
855.776	0.0179298
855.854	0.0179826
855.933	0.0179031
856.011	0.0179020
856.089	0.0180159
856.167	0.0179972
856.245	0.0178334
856.323	0.0178546
856.401	0.0179016
856.479	0.0178677
856.558	0.0179393
856.636	0.0179108
856.714	0.0178713
856.792	0.0180017
856.870	0.0179115
856.948	0.0180133
857.026	0.0178842
857.104	0.0179277
857.183	0.0179066
857.261	0.0179393
857.339	0.0179616
857.417	0.0179488
857.495	0.0181159
857.573	0.0179165
857.651	0.0179388
857.729	0.0179582
857.808	0.0181409
857.886	0.0181899
857.964	0.0180494
858.042	0.0179665
858.120	0.0179108
858.198	0.0179933
858.276	0.0179218
858.354	0.0179678
858.433	0.0178602
858.511	0.0178664
858.589	0.0177870
858.667	0.0178905
858.745	0.0178609
858.823	0.0179646
858.901	0.0178342
858.979	0.0178085
859.058	0.0178997
859.136	0.0180454
859.214	0.0180053
859.292	0.0178327
859.370	0.0180119
859.448	0.0180692
859.526	0.0179046
859.604	0.0179257
859.683	0.0179981
859.761	0.0181085
859.839	0.0179332
859.917	0.0178342
859.995	0.0178333
860.073	0.0179960
860.151	0.0180157
860.229	0.0179712
860.308	0.0179880
860.386	0.0179346
860.464	0.0178738
860.542	0.0180199
860.620	0.0181160
860.698	0.0180656
860.776	0.0181108
860.854	0.0179941
860.933	0.0180269
861.011	0.0181863
861.089	0.0180816
861.167	0.0180367
861.245	0.0180982
861.323	0.0181177
861.401	0.0180924
861.479	0.0180131
861.558	0.0180349
861.636	0.0181405
861.714	0.0180974
861.792	0.0180544
861.870	0.0181713
861.948	0.0182103
862.026	0.0180990
862.104	0.0180905
862.183	0.0180838
862.261	0.0180624
862.339	0.0181692
862.417	0.0179913
862.495	0.0182228
862.573	0.0181222
862.651	0.0179488
862.729	0.0180427
862.808	0.0178407
862.886	0.0180323
862.964	0.0178631
863.042	0.0178809
863.120	0.0179105
863.198	0.0179177
863.276	0.0179330
863.354	0.0178245
863.433	0.0178757
863.511	0.0179144
863.589	0.0178256
863.667	0.0178587
863.745	0.0178486
863.823	0.0177971
863.901	0.0179090
863.979	0.0179299
864.058	0.0180262
864.136	0.0179069
864.214	0.0180232
864.292	0.0179894
864.370	0.0180578
864.448	0.0180349
864.526	0.0180685
864.604	0.0181983
864.683	0.0180887
864.761	0.0181289
864.839	0.0180492
864.917	0.0180421
864.995	0.0179246
865.073	0.0179532
865.151	0.0179715
865.229	0.0179182
865.308	0.0180581
865.386	0.0181027
865.464	0.0180489
865.542	0.0180052
865.620	0.0179613
865.698	0.0180767
865.776	0.0179126
865.854	0.0178342
865.933	0.0180318
866.011	0.0179588
866.089	0.0180312
866.167	0.0180289
866.245	0.0179710
866.323	0.0180309
866.401	0.0180379
866.479	0.0180585
866.558	0.0179547
866.636	0.0180966
866.714	0.0180103
866.792	0.0180242
866.870	0.0180028
866.948	0.0178522
867.026	0.0179758
867.104	0.0180289
867.183	0.0179909
867.261	0.0178308
867.339	0.0178737
867.417	0.0179374
867.495	0.0179429
867.573	0.0179085
867.651	0.0179775
867.729	0.0177270
867.808	0.0180431
867.886	0.0178932
867.964	0.0178277
868.042	0.0180139
868.120	0.0180554
868.198	0.0179916
868.276	0.0178854
868.354	0.0181635
868.433	0.0179518
868.511	0.0181718
868.589	0.0180865
868.667	0.0181345
868.745	0.0181142
868.823	0.0182287
868.901	0.0181605
868.979	0.0181435
869.058	0.0179223
869.136	0.0180772
869.214	0.0180977
869.292	0.0179752
869.370	0.0180562
869.448	0.0181349
869.526	0.0180183
869.604	0.0180968
869.683	0.0180265
869.761	0.0180540
869.839	0.0179807
869.917	0.0182603
869.995	0.0181406
870.073	0.0180502
870.151	0.0181927
870.229	0.0181194
870.308	0.0180638
870.386	0.0181014
870.464	0.0180366
870.542	0.0179843
870.620	0.0181068
870.698	0.0180735
870.776	0.0180264
870.854	0.0179691
870.933	0.0179475
871.011	0.0180453
871.089	0.0179221
871.167	0.0179574
871.245	0.0179513
871.323	0.0178127
871.401	0.0178480
871.479	0.0180922
871.558	0.0179472
871.636	0.0179366
871.714	0.0178967
871.792	0.0178724
871.870	0.0179634
871.948	0.0178375
872.026	0.0178807
872.104	0.0179549
872.183	0.0179559
872.261	0.0179455
872.339	0.0179178
872.417	0.0180389
872.495	0.0179441
872.573	0.0180302
872.651	0.0179925
872.729	0.0180959
872.808	0.0181006
872.886	0.0179954
872.964	0.0181322
873.042	0.0180383
873.120	0.0180722
873.198	0.0180862
873.276	0.0179538
873.354	0.0181071
873.433	0.0181157
873.511	0.0181521
873.589	0.0179844
873.667	0.0181235
873.745	0.0180153
873.823	0.0181259
873.901	0.0181472
873.979	0.0181317
874.058	0.0179865
874.136	0.0181786
874.214	0.0181327
874.292	0.0180096
874.370	0.0179815
874.448	0.0180289
874.526	0.0180177
874.604	0.0179575
874.683	0.0179854
874.761	0.0181529
874.839	0.0180717
874.917	0.0180911
874.995	0.0180867
875.073	0.0180451
875.151	0.0179569
875.229	0.0179494
875.308	0.0180247
875.386	0.0179457
875.464	0.0179424
875.542	0.0179697
875.620	0.0178770
875.698	0.0178072
875.776	0.0179890
875.854	0.0179438
875.933	0.0179067
876.011	0.0179279
876.089	0.0180078
876.167	0.0179659
876.245	0.0180003
876.323	0.0179884
876.401	0.0180836
876.479	0.0179951
876.558	0.0180305
876.636	0.0180313
876.714	0.0179682
876.792	0.0179341
876.870	0.0180511
876.948	0.0179588
877.026	0.0181367
877.104	0.0179823
877.183	0.0181266
877.261	0.0181241
877.339	0.0180617
877.417	0.0179714
877.495	0.0179927
877.573	0.0180370
877.651	0.0180928
877.729	0.0180579
877.808	0.0179996
877.886	0.0178568
877.964	0.0179545
878.042	0.0180328
878.120	0.0179797
878.198	0.0180682
878.276	0.0180812
878.354	0.0180045
878.433	0.0179641
878.511	0.0179070
878.589	0.0179793
878.667	0.0179144
878.745	0.0181182
878.823	0.0180079
878.901	0.0179759
878.979	0.0178909
879.058	0.0180006
879.136	0.0179436
879.214	0.0178986
879.292	0.0179575
879.370	0.0178661
879.448	0.0179512
879.526	0.0179076
879.604	0.0178912
879.683	0.0179757
879.761	0.0179966
879.839	0.0178797
879.917	0.0178985
879.995	0.0180064
880.073	0.0179473
880.151	0.0178621
880.229	0.0178146
880.308	0.0179521
880.386	0.0179942
880.464	0.0180369
880.542	0.0179934
880.620	0.0178857
880.698	0.0179351
880.776	0.0180586
880.854	0.0180043
880.933	0.0180430
881.011	0.0179356
881.089	0.0181226
881.167	0.0179842
881.245	0.0178952
881.323	0.0180367
881.401	0.0180115
881.479	0.0179981
881.558	0.0178679
881.636	0.0179076
881.714	0.0180009
881.792	0.0180008
881.870	0.0179259
881.948	0.0180926
882.026	0.0180682
882.104	0.0181445
882.183	0.0181480
882.261	0.0180077
882.339	0.0179771
882.417	0.0181124
882.495	0.0180287
882.573	0.0179663
882.651	0.0179705
882.729	0.0179584
882.808	0.0180849
882.886	0.0181311
882.964	0.0179182
883.042	0.0180054
883.120	0.0180643
883.198	0.0179253
883.276	0.0180251
883.354	0.0178846
883.433	0.0179985
883.511	0.0180330
883.589	0.0179247
883.667	0.0179744
883.745	0.0179239
883.823	0.0177552
883.901	0.0178632
883.979	0.0177802
884.058	0.0179185
884.136	0.0178681
884.214	0.0177287
884.292	0.0179424
884.370	0.0178900
884.448	0.0177865
884.526	0.0180069
884.604	0.0179462
884.683	0.0178951
884.761	0.0179586
884.839	0.0178071
884.917	0.0178588
884.995	0.0179815
885.073	0.0179636
885.151	0.0179030
885.229	0.0178588
885.308	0.0179807
885.386	0.0178979
885.464	0.0179457
885.542	0.0179036
885.620	0.0178437
885.698	0.0177360
885.776	0.0178899
885.854	0.0179974
885.933	0.0177859
886.011	0.0178848
886.089	0.0180191
886.167	0.0179946
886.245	0.0179865
886.323	0.0180363
886.401	0.0179758
886.479	0.0179891
886.558	0.0179517
886.636	0.0180170
886.714	0.0179887
886.792	0.0179079
886.870	0.0179771
886.948	0.0179691
887.026	0.0179698
887.104	0.0179840
887.183	0.0178394
887.261	0.0179740
887.339	0.0179953
887.417	0.0179895
887.495	0.0178110
887.573	0.0178385
887.651	0.0178879
887.729	0.0179755
887.808	0.0180594
887.886	0.0178497
887.964	0.0178946
888.042	0.0178568
888.120	0.0178299
888.198	0.0178021
888.276	0.0179830
888.354	0.0179027
888.433	0.0179311
888.511	0.0179292
888.589	0.0179598
888.667	0.0181498
888.745	0.0179478
888.823	0.0178976
888.901	0.0179186
888.979	0.0179688
889.058	0.0179852
889.136	0.0180222
889.214	0.0180004
889.292	0.0180511
889.370	0.0180930
889.448	0.0180103
889.526	0.0180017
889.604	0.0180573
889.683	0.0179129
889.761	0.0179382
889.839	0.0180518
889.917	0.0180899
889.995	0.0181114
890.073	0.0180333
890.151	0.0181068
890.229	0.0179951
890.308	0.0180589
890.386	0.0181236
890.464	0.0181132
890.542	0.0181689
890.620	0.0180820
890.698	0.0180999
890.776	0.0182112
890.854	0.0182438
890.933	0.0180684
891.011	0.0182771
891.089	0.0183612
891.167	0.0181537
891.245	0.0180810
891.323	0.0182077
891.401	0.0179881
891.479	0.0179152
891.558	0.0180588
891.636	0.0179712
891.714	0.0178674
891.792	0.0179108
891.870	0.0178767
891.948	0.0178722
892.026	0.0178667
892.104	0.0176400
892.183	0.0178698
892.261	0.0177721
892.339	0.0175865
892.417	0.0177583
892.495	0.0177962
892.573	0.0177202
892.651	0.0176637
892.729	0.0177433
892.808	0.0178092
892.886	0.0177443
892.964	0.0177930
893.042	0.0179311
893.120	0.0178573
893.198	0.0178387
893.276	0.0180779
893.354	0.0180225
893.433	0.0180579
893.511	0.0180408
893.589	0.0181002
893.667	0.0182756
893.745	0.0181550
893.823	0.0181238
893.901	0.0179317
893.979	0.0180572
894.058	0.0182215
894.136	0.0181418
894.214	0.0181438
894.292	0.0180527
894.370	0.0179696
894.448	0.0179607
894.526	0.0181182
894.604	0.0179874
894.683	0.0180834
894.761	0.0180276
894.839	0.0179752
894.917	0.0179897
894.995	0.0180892
895.073	0.0179695
895.151	0.0180737
895.229	0.0181613
895.308	0.0181010
895.386	0.0181505
895.464	0.0181351
895.542	0.0181033
895.620	0.0182254
895.698	0.0181660
895.776	0.0180822
895.854	0.0182243
895.933	0.0181156
896.011	0.0180884
896.089	0.0181876
896.167	0.0181215
896.245	0.0181079
896.323	0.0179767
896.401	0.0181416
896.479	0.0181004
896.558	0.0180709
896.636	0.0181498
896.714	0.0180247
896.792	0.0179795
896.870	0.0181353
896.948	0.0181694
897.026	0.0180139
897.104	0.0180151
897.183	0.0179355
897.261	0.0180083
897.339	0.0179997
897.417	0.0179613
897.495	0.0180707
897.573	0.0180064
897.651	0.0179393
897.729	0.0180261
897.808	0.0180687
897.886	0.0179333
897.964	0.0180534
898.042	0.0177679
898.120	0.0180047
898.198	0.0180065
898.276	0.0179533
898.354	0.0180199
898.433	0.0179215
898.511	0.0177744
898.589	0.0179140
898.667	0.0180983
898.745	0.0179761
898.823	0.0180408
898.901	0.0179381
898.979	0.0179198
899.058	0.0179715
899.136	0.0179517
899.214	0.0178912
899.292	0.0179187
899.370	0.0180240
899.448	0.0179295
899.526	0.0180013
899.604	0.0180476
899.683	0.0178861
899.761	0.0180039
899.839	0.0179684
899.917	0.0179305
899.995	0.0179265
900.073	0.0179610
900.151	0.0179231
900.229	0.0178712
900.308	0.0179410
900.386	0.0178555
900.464	0.0177495
900.542	0.0177087
900.620	0.0177390
900.698	0.0178625
900.776	0.0179192
900.854	0.0178181
900.933	0.0177615
901.011	0.0177922
901.089	0.0178804
901.167	0.0179095
901.245	0.0179465
901.323	0.0179234
901.401	0.0179604
901.479	0.0178844
901.558	0.0179580
901.636	0.0181439
901.714	0.0180991
901.792	0.0180941
901.870	0.0181171
901.948	0.0179439
902.026	0.0180356
902.104	0.0181122
902.183	0.0180591
902.261	0.0180690
902.339	0.0181309
902.417	0.0181412
902.495	0.0180318
902.573	0.0180605
902.651	0.0178241
902.729	0.0180099
902.808	0.0180746
902.886	0.0180822
902.964	0.0179672
903.042	0.0179958
903.120	0.0180427
903.198	0.0181198
903.276	0.0180517
903.354	0.0180382
903.433	0.0178901
903.511	0.0180804
903.589	0.0181915
903.667	0.0180626
903.745	0.0180539
903.823	0.0180867
903.901	0.0181420
903.979	0.0180933
904.058	0.0179637
904.136	0.0180854
904.214	0.0182650
904.292	0.0181037
904.370	0.0180341
904.448	0.0180662
904.526	0.0180291
904.604	0.0179534
904.683	0.0180081
904.761	0.0180994
904.839	0.0181008
904.917	0.0180585
904.995	0.0179044
905.073	0.0178352
905.151	0.0179665
905.229	0.0179181
905.308	0.0179706
905.386	0.0180455
905.464	0.0180898
905.542	0.0179871
905.620	0.0178072
905.698	0.0177822
905.776	0.0180029
905.854	0.0177882
905.933	0.0178007
906.011	0.0179037
906.089	0.0181253
906.167	0.0179753
906.245	0.0178165
906.323	0.0178675
906.401	0.0180013
906.479	0.0178744
906.558	0.0179789
906.636	0.0180535
906.714	0.0179666
906.792	0.0178908
906.870	0.0178446
906.948	0.0178985
907.026	0.0179161
907.104	0.0180031
907.183	0.0178774
907.261	0.0179622
907.339	0.0180276
907.417	0.0179888
907.495	0.0180016
907.573	0.0179800
907.651	0.0181077
907.729	0.0179198
907.808	0.0179665
907.886	0.0179034
907.964	0.0179910
908.042	0.0178945
908.120	0.0180154
908.198	0.0178490
908.276	0.0179140
908.354	0.0178257
908.433	0.0178648
908.511	0.0178487
908.589	0.0177079
908.667	0.0179055
908.745	0.0179457
908.823	0.0177849
908.901	0.0177969
908.979	0.0178231
909.058	0.0179746
909.136	0.0180288
909.214	0.0178972
909.292	0.0179507
909.370	0.0180079
909.448	0.0180458
909.526	0.0180131
909.604	0.0179739
909.683	0.0180555
909.761	0.0180395
909.839	0.0182468
909.917	0.0182443
909.995	0.0181635
910.073	0.0182845
910.151	0.0183578
910.229	0.0184655
910.308	0.0182053
910.386	0.0183184
910.464	0.0183548
910.542	0.0181928
910.620	0.0182426
910.698	0.0181934
910.776	0.0180734
910.854	0.0180582
910.933	0.0180691
911.011	0.0179268
911.089	0.0178909
911.167	0.0179807
911.245	0.0179753
911.323	0.0178596
911.401	0.0178205
911.479	0.0179150
911.558	0.0179568
911.636	0.0177847
911.714	0.0177713
911.792	0.0177970
911.870	0.0178294
911.948	0.0178782
912.026	0.0177303
912.104	0.0178523
912.183	0.0176865
912.261	0.0177577
912.339	0.0178038
912.417	0.0177748
912.495	0.0177742
912.573	0.0177295
912.651	0.0176810
912.729	0.0177998
912.808	0.0177641
912.886	0.0177829
912.964	0.0177114
913.042	0.0178143
913.120	0.0179872
913.198	0.0179179
913.276	0.0179079
913.354	0.0178655
913.433	0.0179350
913.511	0.0178464
913.589	0.0177750
913.667	0.0177954
913.745	0.0179928
913.823	0.0179296
913.901	0.0179069
913.979	0.0178627
914.058	0.0177463
914.136	0.0178872
914.214	0.0178202
914.292	0.0178558
914.370	0.0177872
914.448	0.0179589
914.526	0.0179466
914.604	0.0178847
914.683	0.0178578
914.761	0.0179791
914.839	0.0180369
914.917	0.0178985
914.995	0.0179579
915.073	0.0179964
915.151	0.0179647
915.229	0.0179134
915.308	0.0179585
915.386	0.0180343
915.464	0.0179692
915.542	0.0181296
915.620	0.0180927
915.698	0.0178820
915.776	0.0180607
915.854	0.0180928
915.933	0.0180730
916.011	0.0180737
916.089	0.0181521
916.167	0.0182088
916.245	0.0181976
916.323	0.0179323
916.401	0.0180608
916.479	0.0181189
916.558	0.0180694
916.636	0.0181157
916.714	0.0181186
916.792	0.0179733
916.870	0.0179836
916.948	0.0180731
917.026	0.0181254
917.104	0.0180138
917.183	0.0179771
917.261	0.0179840
917.339	0.0181332
917.417	0.0181315
917.495	0.0178738
917.573	0.0179668
917.651	0.0179389
917.729	0.0179639
917.808	0.0180659
917.886	0.0179153
917.964	0.0178252
918.042	0.0179800
918.120	0.0179358
918.198	0.0179630
918.276	0.0179251
918.354	0.0179555
918.433	0.0180095
918.511	0.0179642
918.589	0.0179561
918.667	0.0179696
918.745	0.0179043
918.823	0.0179279
918.901	0.0180394
918.979	0.0179283
919.058	0.0179839
919.136	0.0180007
919.214	0.0180553
919.292	0.0180044
919.370	0.0180151
919.448	0.0179507
919.526	0.0178372
919.604	0.0180942
919.683	0.0180167
919.761	0.0180976
919.839	0.0179739
919.917	0.0179425
