06/03/2022	18:23:13	Ver.	4.1	UNKNOWN
Optical Delay	599.995081	Delta X		0.078125	Sweeps	1	Scan Rate	0/0
Coordinates	Axis 1	NaN	Axis 2	NaN	Axis 3	NaN	Axis 4	NaN	Axis 5	NaN	Axis 6	0.000000
TX Power	0.000000	RX Power	0.000000

599.995	0.0181236
600.073	0.0181165
600.151	0.0180331
600.229	0.0181630
600.308	0.0180954
600.386	0.0181498
600.464	0.0180411
600.542	0.0179384
600.620	0.0180748
600.698	0.0182959
600.776	0.0179694
600.854	0.0181365
600.933	0.0181232
601.011	0.0180616
601.089	0.0181325
601.167	0.0181044
601.245	0.0181471
601.323	0.0180549
601.401	0.0181371
601.479	0.0180001
601.558	0.0180350
601.636	0.0181767
601.714	0.0180838
601.792	0.0179916
601.870	0.0180596
601.948	0.0181267
602.026	0.0180025
602.104	0.0180337
602.183	0.0181333
602.261	0.0180733
602.339	0.0179248
602.417	0.0179832
602.495	0.0180158
602.573	0.0180945
602.651	0.0180363
602.729	0.0179726
602.808	0.0179635
602.886	0.0179947
602.964	0.0180293
603.042	0.0180537
603.120	0.0179707
603.198	0.0180819
603.276	0.0181573
603.354	0.0180318
603.433	0.0182170
603.511	0.0180585
603.589	0.0179910
603.667	0.0179765
603.745	0.0180584
603.823	0.0181588
603.901	0.0180804
603.979	0.0180367
604.058	0.0182551
604.136	0.0180437
604.214	0.0181059
604.292	0.0180672
604.370	0.0180442
604.448	0.0181725
604.526	0.0181013
604.604	0.0180059
604.683	0.0180550
604.761	0.0178838
604.839	0.0179923
604.917	0.0180313
604.995	0.0180903
605.073	0.0181885
605.151	0.0180750
605.229	0.0180515
605.308	0.0181254
605.386	0.0180630
605.464	0.0181464
605.542	0.0180988
605.620	0.0181329
605.698	0.0181406
605.776	0.0182103
605.854	0.0181052
605.933	0.0182101
606.011	0.0181503
606.089	0.0181011
606.167	0.0181033
606.245	0.0180855
606.323	0.0181279
606.401	0.0179858
606.479	0.0180063
606.558	0.0180862
606.636	0.0180531
606.714	0.0180507
606.792	0.0181693
606.870	0.0180251
606.948	0.0180029
607.026	0.0181815
607.104	0.0181307
607.183	0.0179467
607.261	0.0181514
607.339	0.0180734
607.417	0.0180806
607.495	0.0181097
607.573	0.0180157
607.651	0.0180991
607.729	0.0180854
607.808	0.0179128
607.886	0.0180929
607.964	0.0181006
608.042	0.0180353
608.120	0.0181367
608.198	0.0182005
608.276	0.0180836
608.354	0.0180566
608.433	0.0181732
608.511	0.0178538
608.589	0.0181100
608.667	0.0180922
608.745	0.0181638
608.823	0.0180910
608.901	0.0180159
608.979	0.0180051
609.058	0.0180707
609.136	0.0180805
609.214	0.0181451
609.292	0.0181300
609.370	0.0181267
609.448	0.0181548
609.526	0.0179710
609.604	0.0181318
609.683	0.0180996
609.761	0.0181396
609.839	0.0181125
609.917	0.0181102
609.995	0.0181146
610.073	0.0180439
610.151	0.0180343
610.229	0.0181592
610.308	0.0181020
610.386	0.0181650
610.464	0.0181036
610.542	0.0180937
610.620	0.0180890
610.698	0.0180092
610.776	0.0180182
610.854	0.0181775
610.933	0.0180537
611.011	0.0180275
611.089	0.0178679
611.167	0.0181786
611.245	0.0181146
611.323	0.0181253
611.401	0.0180672
611.479	0.0181555
611.558	0.0180814
611.636	0.0180368
611.714	0.0180756
611.792	0.0180322
611.870	0.0180895
611.948	0.0181154
612.026	0.0181981
612.104	0.0181221
612.183	0.0180019
612.261	0.0180525
612.339	0.0181279
612.417	0.0181319
612.495	0.0180925
612.573	0.0180724
612.651	0.0181457
612.729	0.0181280
612.808	0.0180809
612.886	0.0180693
612.964	0.0181327
613.042	0.0180996
613.120	0.0179620
613.198	0.0180342
613.276	0.0181763
613.354	0.0181287
613.433	0.0179900
613.511	0.0181294
613.589	0.0180277
613.667	0.0179631
613.745	0.0182141
613.823	0.0180791
613.901	0.0181870
613.979	0.0181410
614.058	0.0180609
614.136	0.0181944
614.214	0.0180602
614.292	0.0182143
614.370	0.0181158
614.448	0.0181624
614.526	0.0180708
614.604	0.0181203
614.683	0.0181349
614.761	0.0180424
614.839	0.0181994
614.917	0.0181407
614.995	0.0180341
615.073	0.0181474
615.151	0.0180185
615.229	0.0179853
615.308	0.0182172
615.386	0.0180830
615.464	0.0180792
615.542	0.0180555
615.620	0.0180886
615.698	0.0180042
615.776	0.0181183
615.854	0.0180640
615.933	0.0181124
616.011	0.0180177
616.089	0.0180312
616.167	0.0181111
616.245	0.0181152
616.323	0.0180392
616.401	0.0180497
616.479	0.0180227
616.558	0.0181304
616.636	0.0181185
616.714	0.0180915
616.792	0.0180931
616.870	0.0180949
616.948	0.0180166
617.026	0.0181137
617.104	0.0181136
617.183	0.0181577
617.261	0.0180922
617.339	0.0181821
617.417	0.0180927
617.495	0.0181393
617.573	0.0183170
617.651	0.0181210
617.729	0.0181301
617.808	0.0180481
617.886	0.0181043
617.964	0.0179605
618.042	0.0180204
618.120	0.0180458
618.198	0.0178847
618.276	0.0180102
618.354	0.0181312
618.433	0.0180753
618.511	0.0180583
618.589	0.0180099
618.667	0.0179539
618.745	0.0180761
618.823	0.0179245
618.901	0.0180417
618.979	0.0180824
619.058	0.0179065
619.136	0.0179779
619.214	0.0180178
619.292	0.0180590
619.370	0.0180752
619.448	0.0179804
619.526	0.0180410
619.604	0.0181625
619.683	0.0180219
619.761	0.0181538
619.839	0.0181433
619.917	0.0181712
619.995	0.0180045
620.073	0.0179121
620.151	0.0181277
620.229	0.0179455
620.308	0.0179650
620.386	0.0180882
620.464	0.0180521
620.542	0.0180127
620.620	0.0181644
620.698	0.0180664
620.776	0.0180267
620.854	0.0180603
620.933	0.0180908
621.011	0.0181266
621.089	0.0179901
621.167	0.0179807
621.245	0.0180025
621.323	0.0179327
621.401	0.0180337
621.479	0.0181859
621.558	0.0181779
621.636	0.0181642
621.714	0.0180140
621.792	0.0180579
621.870	0.0181685
621.948	0.0179599
622.026	0.0180530
622.104	0.0180829
622.183	0.0181788
622.261	0.0180408
622.339	0.0181376
622.417	0.0178956
622.495	0.0179414
622.573	0.0181504
622.651	0.0181256
622.729	0.0180280
622.808	0.0179881
622.886	0.0180755
622.964	0.0180882
623.042	0.0180409
623.120	0.0180312
623.198	0.0180332
623.276	0.0180458
623.354	0.0181528
623.433	0.0180339
623.511	0.0180950
623.589	0.0180950
623.667	0.0180245
623.745	0.0180904
623.823	0.0179566
623.901	0.0179948
623.979	0.0181314
624.058	0.0182540
624.136	0.0180755
624.214	0.0181970
624.292	0.0179469
624.370	0.0178677
624.448	0.0180830
624.526	0.0182338
624.604	0.0181669
624.683	0.0180547
624.761	0.0180872
624.839	0.0181630
624.917	0.0180531
624.995	0.0178165
625.073	0.0180634
625.151	0.0181199
625.229	0.0180691
625.308	0.0181121
625.386	0.0180867
625.464	0.0181789
625.542	0.0182267
625.620	0.0181489
625.698	0.0181434
625.776	0.0180524
625.854	0.0180025
625.933	0.0181514
626.011	0.0180713
626.089	0.0181451
626.167	0.0181076
626.245	0.0180630
626.323	0.0181176
626.401	0.0181882
626.479	0.0182419
626.558	0.0181388
626.636	0.0182374
626.714	0.0181122
626.792	0.0180690
626.870	0.0180485
626.948	0.0181374
627.026	0.0181152
627.104	0.0181240
627.183	0.0180544
627.261	0.0180505
627.339	0.0180679
627.417	0.0181669
627.495	0.0181863
627.573	0.0181367
627.651	0.0181519
627.729	0.0179090
627.808	0.0180957
627.886	0.0181483
627.964	0.0180817
628.042	0.0181351
628.120	0.0182148
628.198	0.0179913
628.276	0.0180595
628.354	0.0181673
628.433	0.0179691
628.511	0.0180981
628.589	0.0181835
628.667	0.0181350
628.745	0.0181058
628.823	0.0181605
628.901	0.0181331
628.979	0.0181510
629.058	0.0180447
629.136	0.0180212
629.214	0.0180971
629.292	0.0181356
629.370	0.0180447
629.448	0.0179818
629.526	0.0181492
629.604	0.0181520
629.683	0.0180433
629.761	0.0180961
629.839	0.0180387
629.917	0.0180956
629.995	0.0178969
630.073	0.0180170
630.151	0.0179998
630.229	0.0180566
630.308	0.0180685
630.386	0.0180090
630.464	0.0180626
630.542	0.0182496
630.620	0.0181118
630.698	0.0180035
630.776	0.0180167
630.854	0.0180936
630.933	0.0182309
631.011	0.0180363
631.089	0.0181662
631.167	0.0181663
631.245	0.0181308
631.323	0.0182008
631.401	0.0180114
631.479	0.0180763
631.558	0.0181016
631.636	0.0181350
631.714	0.0181948
631.792	0.0180994
631.870	0.0181970
631.948	0.0181190
632.026	0.0180748
632.104	0.0181108
632.183	0.0182041
632.261	0.0181674
632.339	0.0182941
632.417	0.0182170
632.495	0.0179755
632.573	0.0180515
632.651	0.0182014
632.729	0.0181434
632.808	0.0181291
632.886	0.0181995
632.964	0.0182105
633.042	0.0181921
633.120	0.0180900
633.198	0.0181019
633.276	0.0180627
633.354	0.0180457
633.433	0.0181583
633.511	0.0180415
633.589	0.0181242
633.667	0.0181151
633.745	0.0181219
633.823	0.0180581
633.901	0.0180186
633.979	0.0180653
634.058	0.0180476
634.136	0.0180752
634.214	0.0181410
634.292	0.0181352
634.370	0.0181062
634.448	0.0181080
634.526	0.0183257
634.604	0.0181597
634.683	0.0181591
634.761	0.0180635
634.839	0.0181588
634.917	0.0182130
634.995	0.0180027
635.073	0.0180763
635.151	0.0180786
635.229	0.0182061
635.308	0.0180727
635.386	0.0182277
635.464	0.0181526
635.542	0.0181818
635.620	0.0181557
635.698	0.0180951
635.776	0.0181803
635.854	0.0182175
635.933	0.0181653
636.011	0.0180290
636.089	0.0180552
636.167	0.0181295
636.245	0.0181115
636.323	0.0180631
636.401	0.0181907
636.479	0.0181760
636.558	0.0180542
636.636	0.0181455
636.714	0.0180770
636.792	0.0181886
636.870	0.0180389
636.948	0.0181078
637.026	0.0181677
637.104	0.0179947
637.183	0.0180141
637.261	0.0180425
637.339	0.0181361
637.417	0.0181239
637.495	0.0180082
637.573	0.0179309
637.651	0.0180762
637.729	0.0181071
637.808	0.0179679
637.886	0.0180097
637.964	0.0180830
638.042	0.0181499
638.120	0.0180360
638.198	0.0179650
638.276	0.0181452
638.354	0.0181184
638.433	0.0181061
638.511	0.0180377
638.589	0.0179706
638.667	0.0180497
638.745	0.0181023
638.823	0.0180121
638.901	0.0180756
638.979	0.0180320
639.058	0.0179881
639.136	0.0181173
639.214	0.0181956
639.292	0.0180394
639.370	0.0180493
639.448	0.0181551
639.526	0.0181309
639.604	0.0181091
639.683	0.0180447
639.761	0.0180833
639.839	0.0181577
639.917	0.0180347
639.995	0.0180786
640.073	0.0180286
640.151	0.0180195
640.229	0.0181826
640.308	0.0180724
640.386	0.0180834
640.464	0.0181751
640.542	0.0179873
640.620	0.0180759
640.698	0.0181590
640.776	0.0180201
640.854	0.0181937
640.933	0.0181920
641.011	0.0180573
641.089	0.0180221
641.167	0.0180977
641.245	0.0179996
641.323	0.0180643
641.401	0.0180363
641.479	0.0179729
641.558	0.0180193
641.636	0.0181060
641.714	0.0180711
641.792	0.0181343
641.870	0.0180838
641.948	0.0179681
642.026	0.0180743
642.104	0.0181029
642.183	0.0180546
642.261	0.0181595
642.339	0.0180885
642.417	0.0181063
642.495	0.0181033
642.573	0.0180554
642.651	0.0183207
642.729	0.0180412
642.808	0.0180960
642.886	0.0180302
642.964	0.0180920
643.042	0.0181565
643.120	0.0181430
643.198	0.0180472
643.276	0.0181104
643.354	0.0181078
643.433	0.0181799
643.511	0.0181708
643.589	0.0179544
643.667	0.0179790
643.745	0.0181617
643.823	0.0182517
643.901	0.0180780
643.979	0.0181721
644.058	0.0181345
644.136	0.0180225
644.214	0.0180662
644.292	0.0180967
644.370	0.0180877
644.448	0.0181134
644.526	0.0180478
644.604	0.0179670
644.683	0.0182092
644.761	0.0181310
644.839	0.0181892
644.917	0.0181260
644.995	0.0179990
645.073	0.0179716
645.151	0.0180474
645.229	0.0180192
645.308	0.0180869
645.386	0.0182150
645.464	0.0181660
645.542	0.0181203
645.620	0.0181118
645.698	0.0181737
645.776	0.0182336
645.854	0.0181509
645.933	0.0179733
646.011	0.0180832
646.089	0.0181538
646.167	0.0180857
646.245	0.0182293
646.323	0.0182426
646.401	0.0180338
646.479	0.0181367
646.558	0.0181372
646.636	0.0181367
646.714	0.0180293
646.792	0.0181362
646.870	0.0181219
646.948	0.0179213
647.026	0.0181062
647.104	0.0181813
647.183	0.0180754
647.261	0.0180505
647.339	0.0181521
647.417	0.0180405
647.495	0.0181184
647.573	0.0182434
647.651	0.0179502
647.729	0.0180993
647.808	0.0182542
647.886	0.0181622
647.964	0.0180493
648.042	0.0179389
648.120	0.0181348
648.198	0.0181892
648.276	0.0181175
648.354	0.0180987
648.433	0.0181400
648.511	0.0179891
648.589	0.0179048
648.667	0.0179002
648.745	0.0180150
648.823	0.0181368
648.901	0.0179375
648.979	0.0181313
649.058	0.0181075
649.136	0.0181860
649.214	0.0183106
649.292	0.0181670
649.370	0.0180186
649.448	0.0180938
649.526	0.0183216
649.604	0.0182957
649.683	0.0180878
649.761	0.0181832
649.839	0.0180746
649.917	0.0180771
649.995	0.0180916
650.073	0.0180602
650.151	0.0179183
650.229	0.0180383
650.308	0.0180313
650.386	0.0179759
650.464	0.0181035
650.542	0.0180494
650.620	0.0179496
650.698	0.0180630
650.776	0.0180684
650.854	0.0180377
650.933	0.0180985
651.011	0.0179407
651.089	0.0180727
651.167	0.0181775
651.245	0.0181940
651.323	0.0181138
651.401	0.0181708
651.479	0.0181917
651.558	0.0183263
651.636	0.0181898
651.714	0.0181309
651.792	0.0181270
651.870	0.0181498
651.948	0.0181700
652.026	0.0180844
652.104	0.0179893
652.183	0.0179949
652.261	0.0180704
652.339	0.0180207
652.417	0.0179201
652.495	0.0179927
652.573	0.0180708
652.651	0.0180229
652.729	0.0179550
652.808	0.0179699
652.886	0.0180412
652.964	0.0181896
653.042	0.0181438
653.120	0.0180325
653.198	0.0181101
653.276	0.0182715
653.354	0.0181203
653.433	0.0180282
653.511	0.0181956
653.589	0.0180836
653.667	0.0181425
653.745	0.0179541
653.823	0.0180306
653.901	0.0180844
653.979	0.0180222
654.058	0.0180349
654.136	0.0180825
654.214	0.0180033
654.292	0.0179755
654.370	0.0180036
654.448	0.0180694
654.526	0.0179953
654.604	0.0179155
654.683	0.0180862
654.761	0.0181548
654.839	0.0180553
654.917	0.0180436
654.995	0.0180176
655.073	0.0181012
655.151	0.0181136
655.229	0.0180274
655.308	0.0181345
655.386	0.0181363
655.464	0.0180243
655.542	0.0179797
655.620	0.0182568
655.698	0.0182304
655.776	0.0182376
655.854	0.0179929
655.933	0.0180671
656.011	0.0181387
656.089	0.0178519
656.167	0.0180266
656.245	0.0178831
656.323	0.0178896
656.401	0.0178979
656.479	0.0178352
656.558	0.0179194
656.636	0.0179589
656.714	0.0178969
656.792	0.0180513
656.870	0.0180069
656.948	0.0179934
657.026	0.0178669
657.104	0.0180428
657.183	0.0182245
657.261	0.0180450
657.339	0.0181154
657.417	0.0180022
657.495	0.0181142
657.573	0.0181923
657.651	0.0182019
657.729	0.0181773
657.808	0.0179710
657.886	0.0179863
657.964	0.0179828
658.042	0.0179117
658.120	0.0180933
658.198	0.0179581
658.276	0.0178863
658.354	0.0180807
658.433	0.0178835
658.511	0.0179755
658.589	0.0180077
658.667	0.0179470
658.745	0.0179368
658.823	0.0181097
658.901	0.0180174
658.979	0.0179475
659.058	0.0180864
659.136	0.0180747
659.214	0.0181239
659.292	0.0181132
659.370	0.0180219
659.448	0.0180273
659.526	0.0181203
659.604	0.0180714
659.683	0.0181297
659.761	0.0183054
659.839	0.0182009
659.917	0.0181502
659.995	0.0180367
660.073	0.0181081
660.151	0.0181930
660.229	0.0180178
660.308	0.0181177
660.386	0.0179655
660.464	0.0180445
660.542	0.0178912
660.620	0.0179265
660.698	0.0180487
660.776	0.0180518
660.854	0.0179510
660.933	0.0180550
661.011	0.0181021
661.089	0.0179769
661.167	0.0181442
661.245	0.0180727
661.323	0.0180521
661.401	0.0182301
661.479	0.0181297
661.558	0.0180447
661.636	0.0180532
661.714	0.0180399
661.792	0.0179964
661.870	0.0181013
661.948	0.0180054
662.026	0.0180069
662.104	0.0182356
662.183	0.0182351
662.261	0.0180938
662.339	0.0179684
662.417	0.0179947
662.495	0.0180608
662.573	0.0180595
662.651	0.0179544
662.729	0.0180636
662.808	0.0180303
662.886	0.0178415
662.964	0.0180229
663.042	0.0180595
663.120	0.0180911
663.198	0.0180659
663.276	0.0181630
663.354	0.0181416
663.433	0.0182086
663.511	0.0181055
663.589	0.0181372
663.667	0.0181592
663.745	0.0181652
663.823	0.0180373
663.901	0.0181657
663.979	0.0181956
664.058	0.0181019
664.136	0.0179535
664.214	0.0180239
664.292	0.0180706
664.370	0.0179789
664.448	0.0180367
664.526	0.0179713
664.604	0.0180059
664.683	0.0180506
664.761	0.0179356
664.839	0.0178514
664.917	0.0179775
664.995	0.0179099
665.073	0.0180390
665.151	0.0180970
665.229	0.0181380
665.308	0.0180962
665.386	0.0180165
665.464	0.0180606
665.542	0.0182873
665.620	0.0182696
665.698	0.0182642
665.776	0.0183803
665.854	0.0182605
665.933	0.0183064
666.011	0.0183300
666.089	0.0182551
666.167	0.0180470
666.245	0.0182171
666.323	0.0181167
666.401	0.0178990
666.479	0.0178332
666.558	0.0178975
666.636	0.0179846
666.714	0.0179492
666.792	0.0179718
666.870	0.0180289
666.948	0.0181276
667.026	0.0180575
667.104	0.0181081
667.183	0.0182191
667.261	0.0181992
667.339	0.0181804
667.417	0.0182842
667.495	0.0183192
667.573	0.0181691
667.651	0.0182458
667.729	0.0183874
667.808	0.0182285
667.886	0.0181994
667.964	0.0180679
668.042	0.0180820
668.120	0.0179790
668.198	0.0179362
668.276	0.0180356
668.354	0.0178419
668.433	0.0178174
668.511	0.0178422
668.589	0.0177120
668.667	0.0178143
668.745	0.0179057
668.823	0.0179324
668.901	0.0177576
668.979	0.0179032
669.058	0.0181899
669.136	0.0182138
669.214	0.0180170
669.292	0.0181363
669.370	0.0183836
669.448	0.0181838
669.526	0.0183615
669.604	0.0183532
669.683	0.0183183
669.761	0.0184274
669.839	0.0181223
669.917	0.0182137
669.995	0.0183018
670.073	0.0182157
670.151	0.0179720
670.229	0.0179395
670.308	0.0179756
670.386	0.0179309
670.464	0.0177467
670.542	0.0177764
670.620	0.0179263
670.698	0.0180354
670.776	0.0179138
670.854	0.0178111
670.933	0.0179381
671.011	0.0181065
671.089	0.0181483
671.167	0.0181367
671.245	0.0181249
671.323	0.0183664
671.401	0.0184588
671.479	0.0183252
671.558	0.0180634
671.636	0.0183468
671.714	0.0183968
671.792	0.0182870
671.870	0.0183505
671.948	0.0182703
672.026	0.0180992
672.104	0.0181478
672.183	0.0181087
672.261	0.0181681
672.339	0.0180167
672.417	0.0179318
672.495	0.0179290
672.573	0.0177943
672.651	0.0179516
672.729	0.0179343
672.808	0.0179362
672.886	0.0178773
672.964	0.0180441
673.042	0.0181205
673.120	0.0181005
673.198	0.0180929
673.276	0.0182751
673.354	0.0182368
673.433	0.0180808
673.511	0.0183687
673.589	0.0183074
673.667	0.0181603
673.745	0.0182759
673.823	0.0183414
673.901	0.0182098
673.979	0.0181709
674.058	0.0182716
674.136	0.0181487
674.214	0.0179420
674.292	0.0179311
674.370	0.0179290
674.448	0.0179645
674.526	0.0179732
674.604	0.0180025
674.683	0.0180035
674.761	0.0181531
674.839	0.0181270
674.917	0.0181023
674.995	0.0181086
675.073	0.0181644
675.151	0.0181276
675.229	0.0183615
675.308	0.0182446
675.386	0.0181636
675.464	0.0183146
675.542	0.0183069
675.620	0.0182629
675.698	0.0182736
675.776	0.0183269
675.854	0.0181300
675.933	0.0182713
676.011	0.0182692
676.089	0.0180898
676.167	0.0180495
676.245	0.0182072
676.323	0.0181377
676.401	0.0180201
676.479	0.0179839
676.558	0.0180671
676.636	0.0179369
676.714	0.0181516
676.792	0.0179897
676.870	0.0178960
676.948	0.0181036
677.026	0.0180840
677.104	0.0181502
677.183	0.0181075
677.261	0.0181612
677.339	0.0180794
677.417	0.0181290
677.495	0.0182329
677.573	0.0181320
677.651	0.0181979
677.729	0.0180539
677.808	0.0180519
677.886	0.0180969
677.964	0.0180392
678.042	0.0181079
678.120	0.0180093
678.198	0.0180047
678.276	0.0180270
678.354	0.0181482
678.433	0.0179887
678.511	0.0179952
678.589	0.0180139
678.667	0.0179961
678.745	0.0181213
678.823	0.0181199
678.901	0.0179813
678.979	0.0179972
679.058	0.0181651
679.136	0.0182117
679.214	0.0181107
679.292	0.0182720
679.370	0.0181120
679.448	0.0182518
679.526	0.0180872
679.604	0.0180524
679.683	0.0180717
679.761	0.0179501
679.839	0.0180633
679.917	0.0182572
679.995	0.0179736
680.073	0.0180934
680.151	0.0180388
680.229	0.0179256
680.308	0.0180465
680.386	0.0181098
680.464	0.0181929
680.542	0.0179990
680.620	0.0179755
680.698	0.0179884
680.776	0.0181250
680.854	0.0179710
680.933	0.0179752
681.011	0.0180410
681.089	0.0180951
681.167	0.0180877
681.245	0.0180437
681.323	0.0179742
681.401	0.0180077
681.479	0.0180956
681.558	0.0180059
681.636	0.0178818
681.714	0.0179855
681.792	0.0180005
681.870	0.0180877
681.948	0.0179073
682.026	0.0177985
682.104	0.0177935
682.183	0.0178178
682.261	0.0177882
682.339	0.0178395
682.417	0.0177224
682.495	0.0177977
682.573	0.0176942
682.651	0.0179703
682.729	0.0180614
682.808	0.0181062
682.886	0.0180785
682.964	0.0182590
683.042	0.0182069
683.120	0.0181407
683.198	0.0181920
683.276	0.0182796
683.354	0.0184544
683.433	0.0183090
683.511	0.0184033
683.589	0.0184083
683.667	0.0184793
683.745	0.0184216
683.823	0.0184145
683.901	0.0184086
683.979	0.0183875
684.058	0.0182740
684.136	0.0182161
684.214	0.0183268
684.292	0.0182211
684.370	0.0181901
684.448	0.0181990
684.526	0.0180301
684.604	0.0180414
684.683	0.0180154
684.761	0.0180338
684.839	0.0179447
684.917	0.0181113
684.995	0.0181227
685.073	0.0180698
685.151	0.0180392
685.229	0.0179446
685.308	0.0179196
685.386	0.0179838
685.464	0.0177885
685.542	0.0178605
685.620	0.0178923
685.698	0.0179648
685.776	0.0179213
685.854	0.0179626
685.933	0.0179616
686.011	0.0178238
686.089	0.0177804
686.167	0.0177517
686.245	0.0179239
686.323	0.0179821
686.401	0.0178366
686.479	0.0179088
686.558	0.0179608
686.636	0.0178692
686.714	0.0178984
686.792	0.0180561
686.870	0.0179723
686.948	0.0180124
687.026	0.0180006
687.104	0.0179375
687.183	0.0179428
687.261	0.0180603
687.339	0.0181162
687.417	0.0180095
687.495	0.0182371
687.573	0.0181284
687.651	0.0181627
687.729	0.0182972
687.808	0.0181846
687.886	0.0183075
687.964	0.0184319
688.042	0.0185036
688.120	0.0183829
688.198	0.0185785
688.276	0.0185331
688.354	0.0184816
688.433	0.0185529
688.511	0.0184590
688.589	0.0184348
688.667	0.0183525
688.745	0.0184457
688.823	0.0183492
688.901	0.0182448
688.979	0.0181419
689.058	0.0180909
689.136	0.0180184
689.214	0.0179641
689.292	0.0180503
689.370	0.0179004
689.448	0.0179496
689.526	0.0179128
689.604	0.0178227
689.683	0.0177924
689.761	0.0178019
689.839	0.0177367
689.917	0.0179911
689.995	0.0179974
690.073	0.0179941
690.151	0.0180251
690.229	0.0179592
690.308	0.0179931
690.386	0.0181509
690.464	0.0180988
690.542	0.0179426
690.620	0.0179482
690.698	0.0180817
690.776	0.0181667
690.854	0.0181340
690.933	0.0179230
691.011	0.0180581
691.089	0.0178735
691.167	0.0181388
691.245	0.0179925
691.323	0.0179520
691.401	0.0180608
691.479	0.0180896
691.558	0.0180692
691.636	0.0179538
691.714	0.0180563
691.792	0.0181731
691.870	0.0180271
691.948	0.0179180
692.026	0.0180925
692.104	0.0181044
692.183	0.0180447
692.261	0.0181783
692.339	0.0181554
692.417	0.0182331
692.495	0.0182870
692.573	0.0181921
692.651	0.0182760
692.729	0.0182397
692.808	0.0181664
692.886	0.0183057
692.964	0.0182197
693.042	0.0181337
693.120	0.0181289
693.198	0.0182480
693.276	0.0180487
693.354	0.0181473
693.433	0.0180794
693.511	0.0180694
693.589	0.0181841
693.667	0.0181756
693.745	0.0180769
693.823	0.0182373
693.901	0.0180998
693.979	0.0181218
694.058	0.0182632
694.136	0.0182005
694.214	0.0181931
694.292	0.0182997
694.370	0.0182112
694.448	0.0182832
694.526	0.0183055
694.604	0.0184148
694.683	0.0182743
694.761	0.0181763
694.839	0.0181358
694.917	0.0184154
694.995	0.0184027
695.073	0.0183675
695.151	0.0183148
695.229	0.0182530
695.308	0.0181557
695.386	0.0179782
695.464	0.0181353
695.542	0.0181306
695.620	0.0178008
695.698	0.0179220
695.776	0.0179478
695.854	0.0180381
695.933	0.0178773
696.011	0.0178469
696.089	0.0177284
696.167	0.0177514
696.245	0.0178747
696.323	0.0178405
696.401	0.0179401
696.479	0.0180078
696.558	0.0179292
696.636	0.0179807
696.714	0.0179821
696.792	0.0180443
696.870	0.0180325
696.948	0.0179175
697.026	0.0179662
697.104	0.0179713
697.183	0.0179417
697.261	0.0179836
697.339	0.0179268
697.417	0.0179585
697.495	0.0178732
697.573	0.0178320
697.651	0.0177962
697.729	0.0177361
697.808	0.0178037
697.886	0.0179519
697.964	0.0180766
698.042	0.0179954
698.120	0.0180441
698.198	0.0182365
698.276	0.0181315
698.354	0.0181982
698.433	0.0183255
698.511	0.0183984
698.589	0.0184768
698.667	0.0185030
698.745	0.0185578
698.823	0.0184539
698.901	0.0183775
698.979	0.0184628
699.058	0.0183964
699.136	0.0184622
699.214	0.0180946
699.292	0.0181496
699.370	0.0179723
699.448	0.0178796
699.526	0.0178030
699.604	0.0178143
699.683	0.0177438
699.761	0.0175896
699.839	0.0176333
699.917	0.0176051
699.995	0.0177828
700.073	0.0177606
700.151	0.0177534
700.229	0.0177145
700.308	0.0178545
700.386	0.0180620
700.464	0.0179086
700.542	0.0180679
700.620	0.0182668
700.698	0.0181561
700.776	0.0184327
700.854	0.0184398
700.933	0.0182391
701.011	0.0182675
701.089	0.0182437
701.167	0.0181924
701.245	0.0183306
701.323	0.0183483
701.401	0.0183045
701.479	0.0183199
701.558	0.0182617
701.636	0.0182698
701.714	0.0182823
701.792	0.0183009
701.870	0.0182961
701.948	0.0184287
702.026	0.0183263
702.104	0.0184717
702.183	0.0183945
702.261	0.0183812
702.339	0.0184870
702.417	0.0184543
702.495	0.0183369
702.573	0.0181707
702.651	0.0182227
702.729	0.0180670
702.808	0.0179376
702.886	0.0178996
702.964	0.0177397
703.042	0.0175616
703.120	0.0175770
703.198	0.0176775
703.276	0.0175568
703.354	0.0175924
703.433	0.0174524
703.511	0.0173198
703.589	0.0174149
703.667	0.0173414
703.745	0.0173990
703.823	0.0174245
703.901	0.0175355
703.979	0.0175542
704.058	0.0175160
704.136	0.0176923
704.214	0.0178239
704.292	0.0178648
704.370	0.0179600
704.448	0.0180283
704.526	0.0181556
704.604	0.0182368
704.683	0.0183484
704.761	0.0183177
704.839	0.0184003
704.917	0.0186968
704.995	0.0185413
705.073	0.0183971
705.151	0.0185085
705.229	0.0184639
705.308	0.0184058
705.386	0.0184898
705.464	0.0184617
705.542	0.0183093
705.620	0.0182169
705.698	0.0182314
705.776	0.0179861
705.854	0.0180597
705.933	0.0179250
706.011	0.0179388
706.089	0.0178915
706.167	0.0179299
706.245	0.0178690
706.323	0.0178365
706.401	0.0178357
706.479	0.0179494
706.558	0.0179608
706.636	0.0178709
706.714	0.0182207
706.792	0.0182684
706.870	0.0183605
706.948	0.0185556
707.026	0.0185390
707.104	0.0187781
707.183	0.0189021
707.261	0.0188899
707.339	0.0190517
707.417	0.0191841
707.495	0.0191431
707.573	0.0191250
707.651	0.0191096
707.729	0.0191938
707.808	0.0189891
707.886	0.0188828
707.964	0.0186959
708.042	0.0186281
708.120	0.0182637
708.198	0.0182123
708.276	0.0180754
708.354	0.0179128
708.433	0.0175643
708.511	0.0174526
708.589	0.0174910
708.667	0.0173370
708.745	0.0172843
708.823	0.0171910
708.901	0.0171056
708.979	0.0169585
709.058	0.0170126
709.136	0.0168967
709.214	0.0169607
709.292	0.0169206
709.370	0.0170992
709.448	0.0170645
709.526	0.0172721
709.604	0.0172150
709.683	0.0174321
709.761	0.0175478
709.839	0.0178651
709.917	0.0179785
709.995	0.0180657
710.073	0.0183623
710.151	0.0184204
710.229	0.0184560
710.308	0.0186072
710.386	0.0186198
710.464	0.0188502
710.542	0.0186039
710.620	0.0186080
710.698	0.0186138
710.776	0.0184526
710.854	0.0184370
710.933	0.0184357
711.011	0.0183641
711.089	0.0184624
711.167	0.0184933
711.245	0.0183031
711.323	0.0183729
711.401	0.0183728
711.479	0.0185887
711.558	0.0184106
711.636	0.0185313
711.714	0.0185494
711.792	0.0186374
711.870	0.0186486
711.948	0.0184582
712.026	0.0185262
712.104	0.0184289
712.183	0.0183490
712.261	0.0183032
712.339	0.0183759
712.417	0.0181858
712.495	0.0181918
712.573	0.0180695
712.651	0.0180282
712.729	0.0178853
712.808	0.0178436
712.886	0.0177104
712.964	0.0178120
713.042	0.0176427
713.120	0.0176968
713.198	0.0176999
713.276	0.0178655
713.354	0.0179895
713.433	0.0180357
713.511	0.0181910
713.589	0.0181948
713.667	0.0184180
713.745	0.0185453
713.823	0.0186526
713.901	0.0186926
713.979	0.0186602
714.058	0.0185912
714.136	0.0185100
714.214	0.0184661
714.292	0.0183663
714.370	0.0184099
714.448	0.0182494
714.526	0.0181567
714.604	0.0180882
714.683	0.0179700
714.761	0.0178416
714.839	0.0178215
714.917	0.0177447
714.995	0.0176191
715.073	0.0176746
715.151	0.0176678
715.229	0.0176981
715.308	0.0176364
715.386	0.0177235
715.464	0.0177032
715.542	0.0177905
715.620	0.0177509
715.698	0.0178206
715.776	0.0178899
715.854	0.0179958
715.933	0.0180389
716.011	0.0182423
716.089	0.0182275
716.167	0.0182560
716.245	0.0182588
716.323	0.0182323
716.401	0.0182666
716.479	0.0182582
716.558	0.0180824
716.636	0.0181512
716.714	0.0180167
716.792	0.0178311
716.870	0.0176562
716.948	0.0175587
717.026	0.0174150
717.104	0.0174243
717.183	0.0172836
717.261	0.0173751
717.339	0.0173832
717.417	0.0173446
717.495	0.0174960
717.573	0.0176850
717.651	0.0177827
717.729	0.0180329
717.808	0.0180088
717.886	0.0181074
717.964	0.0179810
718.042	0.0181858
718.120	0.0183305
718.198	0.0183402
718.276	0.0184225
718.354	0.0183871
718.433	0.0185252
718.511	0.0185509
718.589	0.0186585
718.667	0.0186879
718.745	0.0187016
718.823	0.0187700
718.901	0.0189239
718.979	0.0190450
719.058	0.0189938
719.136	0.0191241
719.214	0.0191187
719.292	0.0190602
719.370	0.0189885
719.448	0.0188890
719.526	0.0187433
719.604	0.0187565
719.683	0.0186115
719.761	0.0184524
719.839	0.0184057
719.917	0.0182427
719.995	0.0181725
720.073	0.0181752
720.151	0.0179773
720.229	0.0178949
720.308	0.0179279
720.386	0.0179152
720.464	0.0177716
720.542	0.0177412
720.620	0.0178135
720.698	0.0177293
720.776	0.0175875
720.854	0.0174706
720.933	0.0173653
721.011	0.0172593
721.089	0.0173107
721.167	0.0173532
721.245	0.0172890
721.323	0.0171662
721.401	0.0171084
721.479	0.0171626
721.558	0.0170476
721.636	0.0173196
721.714	0.0172323
721.792	0.0173344
721.870	0.0174893
721.948	0.0176398
722.026	0.0177803
722.104	0.0178921
722.183	0.0180358
722.261	0.0180239
722.339	0.0181490
722.417	0.0183925
722.495	0.0182648
722.573	0.0182846
722.651	0.0182992
722.729	0.0183922
722.808	0.0184010
722.886	0.0184892
722.964	0.0185636
723.042	0.0184888
723.120	0.0184836
723.198	0.0186478
723.276	0.0184791
723.354	0.0186546
723.433	0.0188104
723.511	0.0188593
723.589	0.0185959
723.667	0.0187827
723.745	0.0186799
723.823	0.0186324
723.901	0.0184796
723.979	0.0183236
724.058	0.0184248
724.136	0.0182854
724.214	0.0179917
724.292	0.0177843
724.370	0.0178548
724.448	0.0175065
724.526	0.0173819
724.604	0.0173113
724.683	0.0172685
724.761	0.0172460
724.839	0.0172542
724.917	0.0172133
724.995	0.0172229
725.073	0.0173800
725.151	0.0174735
725.229	0.0175563
725.308	0.0177143
725.386	0.0177209
725.464	0.0179361
725.542	0.0180537
725.620	0.0180920
725.698	0.0183006
725.776	0.0183991
725.854	0.0184864
725.933	0.0185998
726.011	0.0186251
726.089	0.0186899
726.167	0.0186681
726.245	0.0187904
726.323	0.0186976
726.401	0.0186308
726.479	0.0186515
726.558	0.0185801
726.636	0.0184129
726.714	0.0183868
726.792	0.0183583
726.870	0.0183600
726.948	0.0181319
727.026	0.0181661
727.104	0.0181960
727.183	0.0183047
727.261	0.0182964
727.339	0.0181841
727.417	0.0183319
727.495	0.0184421
727.573	0.0185526
727.651	0.0185312
727.729	0.0185719
727.808	0.0186607
727.886	0.0184690
727.964	0.0185490
728.042	0.0184819
728.120	0.0182884
728.198	0.0182840
728.276	0.0182987
728.354	0.0182607
728.433	0.0180362
728.511	0.0180666
728.589	0.0181238
728.667	0.0179494
728.745	0.0179122
728.823	0.0178708
728.901	0.0178481
728.979	0.0177191
729.058	0.0175938
729.136	0.0176740
729.214	0.0175695
729.292	0.0173753
729.370	0.0173038
729.448	0.0173273
729.526	0.0171944
729.604	0.0168721
729.683	0.0168401
729.761	0.0169312
729.839	0.0168297
729.917	0.0169173
729.995	0.0169170
730.073	0.0169506
730.151	0.0171104
730.229	0.0172947
730.308	0.0174380
730.386	0.0176145
730.464	0.0176051
730.542	0.0177462
730.620	0.0180196
730.698	0.0179043
730.776	0.0182873
730.854	0.0183970
730.933	0.0184680
731.011	0.0183006
731.089	0.0184345
731.167	0.0186626
731.245	0.0185801
731.323	0.0187335
731.401	0.0187034
731.479	0.0188548
731.558	0.0189758
731.636	0.0189015
731.714	0.0188876
731.792	0.0188503
731.870	0.0188813
731.948	0.0189945
732.026	0.0188588
732.104	0.0188346
732.183	0.0189350
732.261	0.0187771
732.339	0.0189011
732.417	0.0186960
732.495	0.0188303
732.573	0.0187511
732.651	0.0187039
732.729	0.0186532
732.808	0.0187305
732.886	0.0185554
732.964	0.0185596
733.042	0.0184518
733.120	0.0185077
733.198	0.0185254
733.276	0.0183635
733.354	0.0182636
733.433	0.0182267
733.511	0.0182384
733.589	0.0181261
733.667	0.0179816
733.745	0.0178615
733.823	0.0178028
733.901	0.0177190
733.979	0.0176271
734.058	0.0174925
734.136	0.0174369
734.214	0.0173915
734.292	0.0174009
734.370	0.0173690
734.448	0.0171937
734.526	0.0175076
734.604	0.0174768
734.683	0.0174748
734.761	0.0173857
734.839	0.0174413
734.917	0.0173175
734.995	0.0175185
735.073	0.0173835
735.151	0.0175833
735.229	0.0176597
735.308	0.0176081
735.386	0.0176549
735.464	0.0177404
735.542	0.0176623
735.620	0.0177885
735.698	0.0179435
735.776	0.0179406
735.854	0.0179297
735.933	0.0179016
736.011	0.0178827
736.089	0.0178898
736.167	0.0180122
736.245	0.0180775
736.323	0.0181747
736.401	0.0180305
736.479	0.0180526
736.558	0.0182603
736.636	0.0182169
736.714	0.0181979
736.792	0.0183865
736.870	0.0184104
736.948	0.0184238
737.026	0.0184788
737.104	0.0185630
737.183	0.0186549
737.261	0.0186098
737.339	0.0186545
737.417	0.0187289
737.495	0.0186682
737.573	0.0187458
737.651	0.0187706
737.729	0.0187492
737.808	0.0187515
737.886	0.0185893
737.964	0.0185965
738.042	0.0183556
738.120	0.0183918
738.198	0.0182433
738.276	0.0179655
738.354	0.0180761
738.433	0.0179575
738.511	0.0178163
738.589	0.0178164
738.667	0.0179871
738.745	0.0178872
738.823	0.0179446
738.901	0.0180538
738.979	0.0181511
739.058	0.0179690
739.136	0.0181458
739.214	0.0182343
739.292	0.0182092
739.370	0.0181671
739.448	0.0181465
739.526	0.0180475
739.604	0.0182951
739.683	0.0181958
739.761	0.0179752
739.839	0.0182014
739.917	0.0180584
739.995	0.0180060
740.073	0.0179859
740.151	0.0178308
740.229	0.0180031
740.308	0.0178773
740.386	0.0178096
740.464	0.0177160
740.542	0.0179261
740.620	0.0179226
740.698	0.0180691
740.776	0.0180840
740.854	0.0180755
740.933	0.0180737
741.011	0.0182060
741.089	0.0182493
741.167	0.0182001
741.245	0.0183068
741.323	0.0182936
741.401	0.0184368
741.479	0.0184921
741.558	0.0184126
741.636	0.0184662
741.714	0.0184109
741.792	0.0183420
741.870	0.0184142
741.948	0.0183948
742.026	0.0183944
742.104	0.0183019
742.183	0.0183184
742.261	0.0182571
742.339	0.0183139
742.417	0.0183012
742.495	0.0182389
742.573	0.0180931
742.651	0.0179469
742.729	0.0179863
742.808	0.0178338
742.886	0.0177203
742.964	0.0177973
743.042	0.0176633
743.120	0.0176976
743.198	0.0176445
743.276	0.0174724
743.354	0.0174978
743.433	0.0174368
743.511	0.0174516
743.589	0.0174785
743.667	0.0173881
743.745	0.0173611
743.823	0.0174081
743.901	0.0175968
743.979	0.0175397
744.058	0.0175475
744.136	0.0175153
744.214	0.0175176
744.292	0.0176971
744.370	0.0178012
744.448	0.0178384
744.526	0.0178967
744.604	0.0179935
744.683	0.0180508
744.761	0.0181738
744.839	0.0181079
744.917	0.0181903
744.995	0.0182148
745.073	0.0182440
745.151	0.0183076
745.229	0.0181911
745.308	0.0183104
745.386	0.0184477
745.464	0.0183586
745.542	0.0183228
745.620	0.0183768
745.698	0.0184607
745.776	0.0185003
745.854	0.0185258
745.933	0.0186197
746.011	0.0187107
746.089	0.0187671
746.167	0.0187874
746.245	0.0188344
746.323	0.0188067
746.401	0.0187307
746.479	0.0189021
746.558	0.0188037
746.636	0.0188738
746.714	0.0186521
746.792	0.0186313
746.870	0.0187270
746.948	0.0185846
747.026	0.0185985
747.104	0.0184420
747.183	0.0183630
747.261	0.0185280
747.339	0.0185324
747.417	0.0183643
747.495	0.0183215
747.573	0.0181663
747.651	0.0182575
747.729	0.0181414
747.808	0.0182692
747.886	0.0182606
747.964	0.0179811
748.042	0.0178001
748.120	0.0176878
748.198	0.0174090
748.276	0.0175179
748.354	0.0174423
748.433	0.0172798
748.511	0.0172830
748.589	0.0172061
748.667	0.0170980
748.745	0.0170084
748.823	0.0169836
748.901	0.0170013
748.979	0.0169690
749.058	0.0170768
749.136	0.0171122
749.214	0.0173550
749.292	0.0172321
749.370	0.0172530
749.448	0.0174902
749.526	0.0174324
749.604	0.0176273
749.683	0.0178418
749.761	0.0177527
749.839	0.0178223
749.917	0.0177943
749.995	0.0179222
750.073	0.0179025
750.151	0.0180576
750.229	0.0180790
750.308	0.0181556
750.386	0.0183209
750.464	0.0184449
750.542	0.0183692
750.620	0.0184023
750.698	0.0184777
750.776	0.0184242
750.854	0.0185886
750.933	0.0186747
751.011	0.0186598
751.089	0.0185160
751.167	0.0186063
751.245	0.0186684
751.323	0.0186395
751.401	0.0186411
751.479	0.0187009
751.558	0.0186362
751.636	0.0186151
751.714	0.0187585
751.792	0.0186080
751.870	0.0185801
751.948	0.0185906
752.026	0.0187128
752.104	0.0187460
752.183	0.0186317
752.261	0.0185890
752.339	0.0185799
752.417	0.0185178
752.495	0.0184872
752.573	0.0183857
752.651	0.0183649
752.729	0.0182960
752.808	0.0181646
752.886	0.0182085
752.964	0.0181576
753.042	0.0180892
753.120	0.0179920
753.198	0.0180296
753.276	0.0179514
753.354	0.0177592
753.433	0.0177495
753.511	0.0177589
753.589	0.0177438
753.667	0.0178433
753.745	0.0177648
753.823	0.0176852
753.901	0.0176419
753.979	0.0175623
754.058	0.0177498
754.136	0.0176464
754.214	0.0178674
754.292	0.0177430
754.370	0.0177422
754.448	0.0178775
754.526	0.0179221
754.604	0.0178710
754.683	0.0179356
754.761	0.0180905
754.839	0.0181210
754.917	0.0180405
754.995	0.0180426
755.073	0.0180532
755.151	0.0180489
755.229	0.0181023
755.308	0.0180854
755.386	0.0179831
755.464	0.0179907
755.542	0.0178050
755.620	0.0178468
755.698	0.0180065
755.776	0.0179041
755.854	0.0179029
755.933	0.0180080
756.011	0.0180025
756.089	0.0178933
756.167	0.0178808
756.245	0.0179303
756.323	0.0178415
756.401	0.0178024
756.479	0.0179778
756.558	0.0178653
756.636	0.0179603
756.714	0.0180502
756.792	0.0178712
756.870	0.0180318
756.948	0.0179987
757.026	0.0179900
757.104	0.0180338
757.183	0.0180066
757.261	0.0181530
757.339	0.0179934
757.417	0.0180772
757.495	0.0182489
757.573	0.0182404
757.651	0.0182465
757.729	0.0183572
757.808	0.0182330
757.886	0.0183158
757.964	0.0183553
758.042	0.0183359
758.120	0.0181963
758.198	0.0184194
758.276	0.0182913
758.354	0.0182204
758.433	0.0183418
758.511	0.0182701
758.589	0.0182830
758.667	0.0182151
758.745	0.0181814
758.823	0.0182877
758.901	0.0183241
758.979	0.0182594
759.058	0.0182590
759.136	0.0181982
759.214	0.0180643
759.292	0.0181933
759.370	0.0182693
759.448	0.0182867
759.526	0.0182909
759.604	0.0182610
759.683	0.0181625
759.761	0.0182050
759.839	0.0182283
759.917	0.0182143
759.995	0.0180669
760.073	0.0181807
760.151	0.0180090
760.229	0.0178316
760.308	0.0180572
760.386	0.0179343
760.464	0.0180029
760.542	0.0178625
760.620	0.0178569
760.698	0.0179243
760.776	0.0180041
760.854	0.0180717
760.933	0.0180215
761.011	0.0180270
761.089	0.0180500
761.167	0.0180612
761.245	0.0181489
761.323	0.0179301
761.401	0.0180357
761.479	0.0180199
761.558	0.0179562
761.636	0.0177914
761.714	0.0178253
761.792	0.0177837
761.870	0.0177279
761.948	0.0176910
762.026	0.0175686
762.104	0.0177712
762.183	0.0177541
762.261	0.0177766
762.339	0.0178513
762.417	0.0178864
762.495	0.0180487
762.573	0.0180099
762.651	0.0180171
762.729	0.0181138
762.808	0.0181960
762.886	0.0182716
762.964	0.0182846
763.042	0.0182465
763.120	0.0183172
763.198	0.0181557
763.276	0.0182620
763.354	0.0182279
763.433	0.0182753
763.511	0.0183086
763.589	0.0183150
763.667	0.0183289
763.745	0.0182296
763.823	0.0181619
763.901	0.0182004
763.979	0.0181747
764.058	0.0180750
764.136	0.0182253
764.214	0.0181269
764.292	0.0180844
764.370	0.0181477
764.448	0.0180022
764.526	0.0179922
764.604	0.0180859
764.683	0.0181913
764.761	0.0180846
764.839	0.0181430
764.917	0.0181561
764.995	0.0182585
765.073	0.0180164
765.151	0.0182138
765.229	0.0181625
765.308	0.0180188
765.386	0.0179824
765.464	0.0180195
765.542	0.0179697
765.620	0.0179785
765.698	0.0180682
765.776	0.0180381
765.854	0.0179188
765.933	0.0179678
766.011	0.0179516
766.089	0.0180778
766.167	0.0179908
766.245	0.0179443
766.323	0.0179417
766.401	0.0180249
766.479	0.0180162
766.558	0.0180807
766.636	0.0180818
766.714	0.0181299
766.792	0.0181324
766.870	0.0182124
766.948	0.0183118
767.026	0.0184055
767.104	0.0184859
767.183	0.0185251
767.261	0.0185239
767.339	0.0186266
767.417	0.0187148
767.495	0.0188248
767.573	0.0186350
767.651	0.0188250
767.729	0.0187682
767.808	0.0187622
767.886	0.0186826
767.964	0.0183896
768.042	0.0183896
768.120	0.0183639
768.198	0.0183054
768.276	0.0181987
768.354	0.0180354
768.433	0.0180659
768.511	0.0176769
768.589	0.0177753
768.667	0.0175745
768.745	0.0176720
768.823	0.0176016
768.901	0.0175005
768.979	0.0175660
769.058	0.0175797
769.136	0.0174926
769.214	0.0176205
769.292	0.0178264
769.370	0.0177802
769.448	0.0178961
769.526	0.0178414
769.604	0.0177751
769.683	0.0178563
769.761	0.0179266
769.839	0.0178741
769.917	0.0180018
769.995	0.0179022
770.073	0.0178363
770.151	0.0177758
770.229	0.0178479
770.308	0.0178905
770.386	0.0178515
770.464	0.0179185
770.542	0.0179556
770.620	0.0179581
770.698	0.0179949
770.776	0.0179438
770.854	0.0181976
770.933	0.0181693
771.011	0.0181450
771.089	0.0181902
771.167	0.0181065
771.245	0.0181229
771.323	0.0180770
771.401	0.0182579
771.479	0.0182589
771.558	0.0182303
771.636	0.0182568
771.714	0.0184435
771.792	0.0182559
771.870	0.0183627
771.948	0.0183682
772.026	0.0184998
772.104	0.0184524
772.183	0.0184441
772.261	0.0184222
772.339	0.0184996
772.417	0.0184776
772.495	0.0183482
772.573	0.0183594
772.651	0.0183898
772.729	0.0182721
772.808	0.0183472
772.886	0.0183583
772.964	0.0183679
773.042	0.0183315
773.120	0.0183335
773.198	0.0183406
773.276	0.0181590
773.354	0.0182600
773.433	0.0181267
773.511	0.0181793
773.589	0.0181690
773.667	0.0181891
773.745	0.0182231
773.823	0.0181921
773.901	0.0181948
773.979	0.0180779
774.058	0.0181135
774.136	0.0180365
774.214	0.0181100
774.292	0.0180457
774.370	0.0179570
774.448	0.0179569
774.526	0.0180302
774.604	0.0180735
774.683	0.0180553
774.761	0.0179755
774.839	0.0178509
774.917	0.0178501
774.995	0.0178245
775.073	0.0178345
775.151	0.0178432
775.229	0.0178397
775.308	0.0177979
775.386	0.0177480
775.464	0.0177733
775.542	0.0177058
775.620	0.0177983
775.698	0.0179025
775.776	0.0177566
775.854	0.0177431
775.933	0.0178725
776.011	0.0179792
776.089	0.0178819
776.167	0.0178828
776.245	0.0179198
776.323	0.0179398
776.401	0.0178397
776.479	0.0179833
776.558	0.0178721
776.636	0.0179637
776.714	0.0179420
776.792	0.0178201
776.870	0.0177930
776.948	0.0178355
777.026	0.0178608
777.104	0.0178354
777.183	0.0178346
777.261	0.0177682
777.339	0.0177014
777.417	0.0176904
777.495	0.0176992
777.573	0.0177133
777.651	0.0179493
777.729	0.0178329
777.808	0.0180747
777.886	0.0179054
777.964	0.0180060
778.042	0.0181743
778.120	0.0182414
778.198	0.0181502
778.276	0.0183940
778.354	0.0184783
778.433	0.0184334
778.511	0.0184589
778.589	0.0185145
778.667	0.0185880
778.745	0.0187711
778.823	0.0185568
778.901	0.0186053
778.979	0.0184697
779.058	0.0184887
779.136	0.0185769
779.214	0.0185160
779.292	0.0184933
779.370	0.0184900
779.448	0.0183057
779.526	0.0182204
779.604	0.0182969
779.683	0.0182488
779.761	0.0181327
779.839	0.0180616
779.917	0.0180371
779.995	0.0180418
780.073	0.0180055
780.151	0.0180301
780.229	0.0180398
780.308	0.0180355
780.386	0.0180024
780.464	0.0180668
780.542	0.0181764
780.620	0.0182251
780.698	0.0183028
780.776	0.0181861
780.854	0.0180848
780.933	0.0182585
781.011	0.0181924
781.089	0.0181485
781.167	0.0181362
781.245	0.0179709
781.323	0.0181200
781.401	0.0181931
781.479	0.0179826
781.558	0.0178609
781.636	0.0179575
781.714	0.0178131
781.792	0.0177232
781.870	0.0177240
781.948	0.0177453
782.026	0.0177155
782.104	0.0178394
782.183	0.0178391
782.261	0.0176762
782.339	0.0176531
782.417	0.0177225
782.495	0.0178565
782.573	0.0177748
782.651	0.0178530
782.729	0.0181084
782.808	0.0180890
782.886	0.0181043
782.964	0.0181509
783.042	0.0181589
783.120	0.0181094
783.198	0.0181332
783.276	0.0181152
783.354	0.0180441
783.433	0.0182076
783.511	0.0181189
783.589	0.0179859
783.667	0.0180461
783.745	0.0181740
783.823	0.0180674
783.901	0.0181086
783.979	0.0181862
784.058	0.0180553
784.136	0.0181489
784.214	0.0181191
784.292	0.0180770
784.370	0.0180179
784.448	0.0181300
784.526	0.0181159
784.604	0.0181900
784.683	0.0182899
784.761	0.0183395
784.839	0.0183334
784.917	0.0183041
784.995	0.0182643
785.073	0.0183399
785.151	0.0182795
785.229	0.0183294
785.308	0.0184504
785.386	0.0183150
785.464	0.0183314
785.542	0.0181862
785.620	0.0182823
785.698	0.0182691
785.776	0.0180371
785.854	0.0181467
785.933	0.0181345
786.011	0.0180203
786.089	0.0179607
786.167	0.0180512
786.245	0.0180077
786.323	0.0180788
786.401	0.0180297
786.479	0.0181677
786.558	0.0181451
786.636	0.0180063
786.714	0.0180766
786.792	0.0180898
786.870	0.0180189
786.948	0.0181250
787.026	0.0180634
787.104	0.0180118
787.183	0.0181438
787.261	0.0181092
787.339	0.0180716
787.417	0.0181733
787.495	0.0181529
787.573	0.0181898
787.651	0.0181943
787.729	0.0183322
787.808	0.0182908
787.886	0.0182269
787.964	0.0181376
788.042	0.0181946
788.120	0.0180727
788.198	0.0181853
788.276	0.0181386
788.354	0.0181395
788.433	0.0181957
788.511	0.0180425
788.589	0.0180886
788.667	0.0180028
788.745	0.0179584
788.823	0.0180543
788.901	0.0179827
788.979	0.0179144
789.058	0.0180106
789.136	0.0179688
789.214	0.0180218
789.292	0.0180942
789.370	0.0181812
789.448	0.0180646
789.526	0.0182365
789.604	0.0183257
789.683	0.0183176
789.761	0.0182419
789.839	0.0184282
789.917	0.0184536
789.995	0.0183472
790.073	0.0184428
790.151	0.0182854
790.229	0.0183102
790.308	0.0184122
790.386	0.0182722
790.464	0.0181636
790.542	0.0181834
790.620	0.0181295
790.698	0.0180028
790.776	0.0180964
790.854	0.0180824
790.933	0.0180685
791.011	0.0180399
791.089	0.0181632
791.167	0.0181565
791.245	0.0180865
791.323	0.0182989
791.401	0.0183692
791.479	0.0183538
791.558	0.0184203
791.636	0.0183739
791.714	0.0185548
791.792	0.0182890
791.870	0.0182085
791.948	0.0183899
792.026	0.0182001
792.104	0.0182616
792.183	0.0180853
792.261	0.0181268
792.339	0.0179446
792.417	0.0179610
792.495	0.0178752
792.573	0.0179546
792.651	0.0177677
792.729	0.0176663
792.808	0.0176980
792.886	0.0177838
792.964	0.0178101
793.042	0.0177266
793.120	0.0177655
793.198	0.0177355
793.276	0.0178323
793.354	0.0179144
793.433	0.0178302
793.511	0.0179120
793.589	0.0180522
793.667	0.0181382
793.745	0.0181100
793.823	0.0180755
793.901	0.0181947
793.979	0.0182661
794.058	0.0183319
794.136	0.0182954
794.214	0.0183249
794.292	0.0183096
794.370	0.0181747
794.448	0.0182940
794.526	0.0182385
794.604	0.0181990
794.683	0.0181910
794.761	0.0181189
794.839	0.0180829
794.917	0.0180309
794.995	0.0180783
795.073	0.0180424
795.151	0.0182021
795.229	0.0181631
795.308	0.0181112
795.386	0.0180239
795.464	0.0181232
795.542	0.0181167
795.620	0.0179483
795.698	0.0182066
795.776	0.0181606
795.854	0.0182224
795.933	0.0179886
796.011	0.0180711
796.089	0.0181931
796.167	0.0183231
796.245	0.0182870
796.323	0.0182026
796.401	0.0181798
796.479	0.0182303
796.558	0.0182761
796.636	0.0182211
796.714	0.0180183
796.792	0.0182053
796.870	0.0181609
796.948	0.0180019
797.026	0.0180002
797.104	0.0180418
797.183	0.0181766
797.261	0.0180990
797.339	0.0178888
797.417	0.0181760
797.495	0.0181045
797.573	0.0181014
797.651	0.0181594
797.729	0.0183374
797.808	0.0184102
797.886	0.0183491
797.964	0.0183059
798.042	0.0183709
798.120	0.0182222
798.198	0.0183012
798.276	0.0183127
798.354	0.0181272
798.433	0.0181239
798.511	0.0181169
798.589	0.0180873
798.667	0.0179440
798.745	0.0176945
798.823	0.0176759
798.901	0.0177014
798.979	0.0175581
799.058	0.0175651
799.136	0.0176199
799.214	0.0175800
799.292	0.0175660
799.370	0.0175629
799.448	0.0176205
799.526	0.0175592
799.604	0.0176460
799.683	0.0175542
799.761	0.0177592
799.839	0.0178055
799.917	0.0179350
799.995	0.0181215
800.073	0.0180725
800.151	0.0180583
800.229	0.0181379
800.308	0.0182323
800.386	0.0181477
800.464	0.0181928
800.542	0.0182877
800.620	0.0183054
800.698	0.0183382
800.776	0.0183394
800.854	0.0183071
800.933	0.0183270
801.011	0.0182285
801.089	0.0182635
801.167	0.0182755
801.245	0.0182424
801.323	0.0181866
801.401	0.0180979
801.479	0.0181973
801.558	0.0180825
801.636	0.0180445
801.714	0.0179268
801.792	0.0178627
801.870	0.0179117
801.948	0.0178050
802.026	0.0178430
802.104	0.0178434
802.183	0.0179591
802.261	0.0179016
802.339	0.0178257
802.417	0.0179044
802.495	0.0177937
802.573	0.0178776
802.651	0.0179767
802.729	0.0180618
802.808	0.0181540
802.886	0.0180618
802.964	0.0181311
803.042	0.0182255
803.120	0.0183241
803.198	0.0182679
803.276	0.0183391
803.354	0.0183886
803.433	0.0183518
803.511	0.0182585
803.589	0.0182977
803.667	0.0181817
803.745	0.0182417
803.823	0.0182588
803.901	0.0182941
803.979	0.0182819
804.058	0.0182157
804.136	0.0182088
804.214	0.0182597
804.292	0.0182495
804.370	0.0181553
804.448	0.0182654
804.526	0.0182128
804.604	0.0181941
804.683	0.0183075
804.761	0.0181628
804.839	0.0182104
804.917	0.0180203
804.995	0.0179611
805.073	0.0178960
805.151	0.0179665
805.229	0.0179070
805.308	0.0177758
805.386	0.0176690
805.464	0.0177235
805.542	0.0178608
805.620	0.0175565
805.698	0.0176555
805.776	0.0176859
805.854	0.0176918
805.933	0.0177076
806.011	0.0176366
806.089	0.0178639
806.167	0.0177910
806.245	0.0178510
806.323	0.0180444
806.401	0.0181243
806.479	0.0180285
806.558	0.0182160
806.636	0.0182975
806.714	0.0182606
806.792	0.0182652
806.870	0.0185439
806.948	0.0183684
807.026	0.0184026
807.104	0.0185099
807.183	0.0184531
807.261	0.0185294
807.339	0.0185290
807.417	0.0182794
807.495	0.0182984
807.573	0.0184245
807.651	0.0184436
807.729	0.0183098
807.808	0.0181520
807.886	0.0182024
807.964	0.0182446
808.042	0.0181139
808.120	0.0179964
808.198	0.0179883
808.276	0.0178345
808.354	0.0178640
808.433	0.0179420
808.511	0.0177819
808.589	0.0177384
808.667	0.0178638
808.745	0.0178779
808.823	0.0178797
808.901	0.0178670
808.979	0.0178980
809.058	0.0179777
809.136	0.0180048
809.214	0.0178511
809.292	0.0181616
809.370	0.0181819
809.448	0.0181773
809.526	0.0182510
809.604	0.0182280
809.683	0.0182494
809.761	0.0181129
809.839	0.0183416
809.917	0.0184439
809.995	0.0182944
810.073	0.0184103
810.151	0.0183038
810.229	0.0182265
810.308	0.0182700
810.386	0.0182722
810.464	0.0181603
810.542	0.0182948
810.620	0.0182374
810.698	0.0182413
810.776	0.0182755
810.854	0.0181931
810.933	0.0181065
811.011	0.0182513
811.089	0.0182381
811.167	0.0182959
811.245	0.0183672
811.323	0.0180925
811.401	0.0180118
811.479	0.0181820
811.558	0.0181651
811.636	0.0180817
811.714	0.0180922
811.792	0.0179107
811.870	0.0180461
811.948	0.0179939
812.026	0.0178201
812.104	0.0177805
812.183	0.0176416
812.261	0.0177022
812.339	0.0177391
812.417	0.0176898
812.495	0.0176671
812.573	0.0178061
812.651	0.0177375
812.729	0.0176942
812.808	0.0179066
812.886	0.0178170
812.964	0.0178925
813.042	0.0178301
813.120	0.0180370
813.198	0.0181410
813.276	0.0181401
813.354	0.0181202
813.433	0.0183295
813.511	0.0182363
813.589	0.0181731
813.667	0.0181784
813.745	0.0181709
813.823	0.0183266
813.901	0.0183105
813.979	0.0182256
814.058	0.0183649
814.136	0.0183383
814.214	0.0183967
814.292	0.0183354
814.370	0.0183376
814.448	0.0180856
814.526	0.0181638
814.604	0.0180883
814.683	0.0181051
814.761	0.0180301
814.839	0.0180028
814.917	0.0178996
814.995	0.0179361
815.073	0.0180094
815.151	0.0179711
815.229	0.0180304
815.308	0.0179786
815.386	0.0179584
815.464	0.0181478
815.542	0.0181647
815.620	0.0180491
815.698	0.0180712
815.776	0.0180700
815.854	0.0181252
815.933	0.0181808
816.011	0.0182826
816.089	0.0180669
816.167	0.0183236
816.245	0.0182165
816.323	0.0182036
816.401	0.0181223
816.479	0.0181133
816.558	0.0182777
816.636	0.0183539
816.714	0.0182415
816.792	0.0182075
816.870	0.0182252
816.948	0.0182490
817.026	0.0183171
817.104	0.0182720
817.183	0.0184377
817.261	0.0183462
817.339	0.0182162
817.417	0.0182113
817.495	0.0182078
817.573	0.0181480
817.651	0.0182880
817.729	0.0181029
817.808	0.0180695
817.886	0.0180393
817.964	0.0179964
818.042	0.0179726
818.120	0.0179651
818.198	0.0178498
818.276	0.0178760
818.354	0.0178519
818.433	0.0177080
818.511	0.0178848
818.589	0.0178378
818.667	0.0177956
818.745	0.0176387
818.823	0.0174642
818.901	0.0176292
818.979	0.0177948
819.058	0.0176531
819.136	0.0176173
819.214	0.0177232
819.292	0.0176871
819.370	0.0177223
819.448	0.0178468
819.526	0.0178574
819.604	0.0178545
819.683	0.0178102
819.761	0.0180326
819.839	0.0181731
819.917	0.0181303
819.995	0.0182133
820.073	0.0182850
820.151	0.0182763
820.229	0.0183245
820.308	0.0182804
820.386	0.0183418
820.464	0.0182578
820.542	0.0183133
820.620	0.0183366
820.698	0.0183298
820.776	0.0182464
820.854	0.0182903
820.933	0.0182598
821.011	0.0182702
821.089	0.0181734
821.167	0.0181786
821.245	0.0180750
821.323	0.0180738
821.401	0.0181468
821.479	0.0181192
821.558	0.0178806
821.636	0.0178490
821.714	0.0178149
821.792	0.0179500
821.870	0.0179285
821.948	0.0178814
822.026	0.0179141
822.104	0.0178233
822.183	0.0178425
822.261	0.0178770
822.339	0.0180026
822.417	0.0180487
822.495	0.0179272
822.573	0.0180363
822.651	0.0179240
822.729	0.0179314
822.808	0.0180878
822.886	0.0180781
822.964	0.0181499
823.042	0.0179967
823.120	0.0181736
823.198	0.0181668
823.276	0.0181546
823.354	0.0181673
823.433	0.0182491
823.511	0.0181958
823.589	0.0182790
823.667	0.0183040
823.745	0.0181958
823.823	0.0183034
823.901	0.0183306
823.979	0.0181856
824.058	0.0182694
824.136	0.0182422
824.214	0.0181419
824.292	0.0181615
824.370	0.0182006
824.448	0.0181126
824.526	0.0180186
824.604	0.0180569
824.683	0.0178830
824.761	0.0179028
824.839	0.0178696
824.917	0.0177964
824.995	0.0178259
825.073	0.0177832
825.151	0.0177121
825.229	0.0176733
825.308	0.0177567
825.386	0.0177286
825.464	0.0177296
825.542	0.0176997
825.620	0.0176276
825.698	0.0177325
825.776	0.0177644
825.854	0.0178022
825.933	0.0176779
826.011	0.0179020
826.089	0.0178949
826.167	0.0177537
826.245	0.0179067
826.323	0.0179834
826.401	0.0180344
826.479	0.0181850
826.558	0.0181895
826.636	0.0182159
826.714	0.0181970
826.792	0.0181885
826.870	0.0182623
826.948	0.0182002
827.026	0.0182812
827.104	0.0181971
827.183	0.0182549
827.261	0.0182748
827.339	0.0181940
827.417	0.0181156
827.495	0.0179833
827.573	0.0181707
827.651	0.0180036
827.729	0.0180445
827.808	0.0180614
827.886	0.0180355
827.964	0.0181669
828.042	0.0181998
828.120	0.0181037
828.198	0.0181016
828.276	0.0180213
828.354	0.0181345
828.433	0.0182568
828.511	0.0183125
828.589	0.0182233
828.667	0.0182709
828.745	0.0182236
828.823	0.0182555
828.901	0.0182481
828.979	0.0181688
829.058	0.0182471
829.136	0.0181132
829.214	0.0182816
829.292	0.0181013
829.370	0.0180199
829.448	0.0180467
829.526	0.0179193
829.604	0.0180804
829.683	0.0182086
829.761	0.0182153
829.839	0.0180168
829.917	0.0182639
829.995	0.0182622
830.073	0.0181049
830.151	0.0183602
830.229	0.0183125
830.308	0.0182270
830.386	0.0181860
830.464	0.0181369
830.542	0.0182282
830.620	0.0182069
830.698	0.0181476
830.776	0.0181363
830.854	0.0181876
830.933	0.0181036
831.011	0.0179408
831.089	0.0180592
831.167	0.0179146
831.245	0.0179514
831.323	0.0179063
831.401	0.0178996
831.479	0.0179315
831.558	0.0178877
831.636	0.0180295
831.714	0.0178490
831.792	0.0178316
831.870	0.0179739
831.948	0.0177691
832.026	0.0179243
832.104	0.0180676
832.183	0.0178412
832.261	0.0178534
832.339	0.0178701
832.417	0.0179651
832.495	0.0178864
832.573	0.0179265
832.651	0.0180067
832.729	0.0178999
832.808	0.0178760
832.886	0.0179923
832.964	0.0181917
833.042	0.0180412
833.120	0.0180658
833.198	0.0182350
833.276	0.0181539
833.354	0.0180506
833.433	0.0182202
833.511	0.0183118
833.589	0.0181586
833.667	0.0182990
833.745	0.0182819
833.823	0.0183337
833.901	0.0182220
833.979	0.0182185
834.058	0.0182608
834.136	0.0184676
834.214	0.0183192
834.292	0.0183008
834.370	0.0183650
834.448	0.0182721
834.526	0.0182759
834.604	0.0183799
834.683	0.0182451
834.761	0.0181868
834.839	0.0184224
834.917	0.0182272
834.995	0.0180837
835.073	0.0181873
835.151	0.0181902
835.229	0.0180542
835.308	0.0181390
835.386	0.0179870
835.464	0.0178304
835.542	0.0179517
835.620	0.0179516
835.698	0.0179575
835.776	0.0179400
835.854	0.0177862
835.933	0.0178294
836.011	0.0178048
836.089	0.0178604
836.167	0.0177850
836.245	0.0179826
836.323	0.0179801
836.401	0.0179915
836.479	0.0181322
836.558	0.0180982
836.636	0.0181378
836.714	0.0181725
836.792	0.0184282
836.870	0.0182543
836.948	0.0182713
837.026	0.0184264
837.104	0.0184303
837.183	0.0182480
837.261	0.0182722
837.339	0.0184600
837.417	0.0182906
837.495	0.0183773
837.573	0.0183964
837.651	0.0183702
837.729	0.0182749
837.808	0.0182064
837.886	0.0181629
837.964	0.0182394
838.042	0.0181239
838.120	0.0182970
838.198	0.0183641
838.276	0.0180569
838.354	0.0180515
838.433	0.0181368
838.511	0.0180994
838.589	0.0181096
838.667	0.0179159
838.745	0.0181261
838.823	0.0180066
838.901	0.0178973
838.979	0.0178628
839.058	0.0178930
839.136	0.0178178
839.214	0.0177605
839.292	0.0177755
839.370	0.0178662
839.448	0.0178647
839.526	0.0178794
839.604	0.0178442
839.683	0.0180109
839.761	0.0180357
839.839	0.0179954
839.917	0.0179688
839.995	0.0179752
840.073	0.0181274
840.151	0.0181030
840.229	0.0180286
840.308	0.0180443
840.386	0.0180478
840.464	0.0181995
840.542	0.0180972
840.620	0.0181018
840.698	0.0181130
840.776	0.0180050
840.854	0.0181319
840.933	0.0182216
841.011	0.0180044
841.089	0.0181059
841.167	0.0180002
841.245	0.0181461
841.323	0.0181065
841.401	0.0182861
841.479	0.0182089
841.558	0.0180463
841.636	0.0180647
841.714	0.0181752
841.792	0.0181547
841.870	0.0180900
841.948	0.0179665
842.026	0.0179687
842.104	0.0180384
842.183	0.0179398
842.261	0.0179232
842.339	0.0178876
842.417	0.0180408
842.495	0.0179791
842.573	0.0180255
842.651	0.0180349
842.729	0.0179565
842.808	0.0179783
842.886	0.0180402
842.964	0.0181876
843.042	0.0181801
843.120	0.0180812
843.198	0.0180762
843.276	0.0180917
843.354	0.0181355
843.433	0.0181305
843.511	0.0181059
843.589	0.0181872
843.667	0.0181071
843.745	0.0179897
843.823	0.0180768
843.901	0.0181042
843.979	0.0178970
844.058	0.0180317
844.136	0.0181302
844.214	0.0179662
844.292	0.0179551
844.370	0.0179958
844.448	0.0180682
844.526	0.0179662
844.604	0.0180197
844.683	0.0180888
844.761	0.0180059
844.839	0.0179535
844.917	0.0181570
844.995	0.0179472
845.073	0.0180119
845.151	0.0178436
845.229	0.0179887
845.308	0.0179822
845.386	0.0179475
845.464	0.0178766
845.542	0.0179408
845.620	0.0179133
845.698	0.0180060
845.776	0.0179005
845.854	0.0178455
845.933	0.0178375
846.011	0.0178388
846.089	0.0176957
846.167	0.0179362
846.245	0.0179140
846.323	0.0178915
846.401	0.0179351
846.479	0.0179652
846.558	0.0180901
846.636	0.0181631
846.714	0.0181382
846.792	0.0180433
846.870	0.0181101
846.948	0.0181174
847.026	0.0181769
847.104	0.0182200
847.183	0.0181332
847.261	0.0180774
847.339	0.0180993
847.417	0.0180735
847.495	0.0181418
847.573	0.0180268
847.651	0.0180862
847.729	0.0181043
847.808	0.0179813
847.886	0.0180907
847.964	0.0181553
848.042	0.0181065
848.120	0.0182097
848.198	0.0183164
848.276	0.0182468
848.354	0.0182429
848.433	0.0181586
848.511	0.0182166
848.589	0.0182372
848.667	0.0182642
848.745	0.0182277
848.823	0.0182515
848.901	0.0182609
848.979	0.0181709
849.058	0.0182738
849.136	0.0182486
849.214	0.0181196
849.292	0.0181506
849.370	0.0181068
849.448	0.0181256
849.526	0.0180142
849.604	0.0179642
849.683	0.0179795
849.761	0.0181260
849.839	0.0180065
849.917	0.0179587
849.995	0.0179349
850.073	0.0178805
850.151	0.0178395
850.229	0.0178930
850.308	0.0179723
850.386	0.0179294
850.464	0.0180597
850.542	0.0179269
850.620	0.0177949
850.698	0.0178284
850.776	0.0179599
850.854	0.0178047
850.933	0.0178762
851.011	0.0178864
851.089	0.0179259
851.167	0.0179769
851.245	0.0180858
851.323	0.0180431
851.401	0.0179153
851.479	0.0179882
851.558	0.0180601
851.636	0.0180705
851.714	0.0180426
851.792	0.0180382
851.870	0.0179482
851.948	0.0180265
852.026	0.0179784
852.104	0.0179832
852.183	0.0180186
852.261	0.0179915
852.339	0.0180009
852.417	0.0180668
852.495	0.0180779
852.573	0.0179582
852.651	0.0181229
852.729	0.0180505
852.808	0.0181745
852.886	0.0182626
852.964	0.0183417
853.042	0.0181908
853.120	0.0182647
853.198	0.0182960
853.276	0.0182732
853.354	0.0183084
853.433	0.0183337
853.511	0.0182917
853.589	0.0182793
853.667	0.0182181
853.745	0.0183276
853.823	0.0183116
853.901	0.0184113
853.979	0.0183037
854.058	0.0182587
854.136	0.0182231
854.214	0.0182423
854.292	0.0183159
854.370	0.0181988
854.448	0.0181160
854.526	0.0182791
854.604	0.0181445
854.683	0.0181901
854.761	0.0182340
854.839	0.0182404
854.917	0.0182018
854.995	0.0182320
855.073	0.0182092
855.151	0.0182005
855.229	0.0183324
855.308	0.0182872
855.386	0.0181657
855.464	0.0180476
855.542	0.0180592
855.620	0.0180537
855.698	0.0181037
855.776	0.0180430
855.854	0.0180753
855.933	0.0180305
856.011	0.0179934
856.089	0.0180585
856.167	0.0180133
856.245	0.0180350
856.323	0.0178577
856.401	0.0179494
856.479	0.0179928
856.558	0.0180221
856.636	0.0179702
856.714	0.0181398
856.792	0.0180647
856.870	0.0179728
856.948	0.0181619
857.026	0.0181300
857.104	0.0182195
857.183	0.0179060
857.261	0.0180687
857.339	0.0180285
857.417	0.0181645
857.495	0.0182359
857.573	0.0181174
857.651	0.0180202
857.729	0.0180750
857.808	0.0181229
857.886	0.0182644
857.964	0.0181301
858.042	0.0181011
858.120	0.0180603
858.198	0.0180853
858.276	0.0181238
858.354	0.0181232
858.433	0.0180654
858.511	0.0181021
858.589	0.0181145
858.667	0.0180519
858.745	0.0180923
858.823	0.0180401
858.901	0.0179774
858.979	0.0179797
859.058	0.0180885
859.136	0.0179993
859.214	0.0178467
859.292	0.0180328
859.370	0.0179739
859.448	0.0179971
859.526	0.0180087
859.604	0.0181963
859.683	0.0181580
859.761	0.0180665
859.839	0.0179270
859.917	0.0181241
859.995	0.0181912
860.073	0.0182747
860.151	0.0181923
860.229	0.0182920
860.308	0.0182116
860.386	0.0181939
860.464	0.0183038
860.542	0.0182287
860.620	0.0183060
860.698	0.0180798
860.776	0.0182200
860.854	0.0182606
860.933	0.0182256
861.011	0.0183923
861.089	0.0181876
861.167	0.0181146
861.245	0.0182642
861.323	0.0182648
861.401	0.0181701
861.479	0.0181969
861.558	0.0183282
861.636	0.0181810
861.714	0.0182999
861.792	0.0183844
861.870	0.0182871
861.948	0.0182789
862.026	0.0183169
862.104	0.0181918
862.183	0.0181903
862.261	0.0182629
862.339	0.0180177
862.417	0.0181750
862.495	0.0180722
862.573	0.0182624
862.651	0.0181030
862.729	0.0180242
862.808	0.0179999
862.886	0.0181064
862.964	0.0179516
863.042	0.0178470
863.120	0.0179436
863.198	0.0178839
863.276	0.0180049
863.354	0.0179607
863.433	0.0177962
863.511	0.0179643
863.589	0.0179922
863.667	0.0178625
863.745	0.0178279
863.823	0.0178939
863.901	0.0179051
863.979	0.0180238
864.058	0.0180124
864.136	0.0180708
864.214	0.0180475
864.292	0.0180428
864.370	0.0180505
864.448	0.0180677
864.526	0.0182420
864.604	0.0181663
864.683	0.0179986
864.761	0.0182604
864.839	0.0182765
864.917	0.0181768
864.995	0.0181506
865.073	0.0182059
865.151	0.0181837
865.229	0.0183012
865.308	0.0181768
865.386	0.0182132
865.464	0.0180000
865.542	0.0181942
865.620	0.0182988
865.698	0.0181892
865.776	0.0180992
865.854	0.0181569
865.933	0.0181625
866.011	0.0181134
866.089	0.0180744
866.167	0.0181035
866.245	0.0180846
866.323	0.0180620
866.401	0.0180632
866.479	0.0181513
866.558	0.0180875
866.636	0.0181149
866.714	0.0180365
866.792	0.0181025
866.870	0.0181987
866.948	0.0182310
867.026	0.0181560
867.104	0.0181815
867.183	0.0181454
867.261	0.0181123
867.339	0.0181046
867.417	0.0182018
867.495	0.0180804
867.573	0.0181138
867.651	0.0180293
867.729	0.0180898
867.808	0.0181221
867.886	0.0179496
867.964	0.0179825
868.042	0.0180050
868.120	0.0181486
868.198	0.0182783
868.276	0.0182342
868.354	0.0181570
868.433	0.0181454
868.511	0.0181803
868.589	0.0180371
868.667	0.0181836
868.745	0.0182595
868.823	0.0183138
868.901	0.0182583
868.979	0.0181326
869.058	0.0182750
869.136	0.0181535
869.214	0.0181532
869.292	0.0181819
869.370	0.0180260
869.448	0.0180053
869.526	0.0181065
869.604	0.0180807
869.683	0.0181654
869.761	0.0180368
869.839	0.0180551
869.917	0.0180939
869.995	0.0179882
870.073	0.0180672
870.151	0.0180907
870.229	0.0179648
870.308	0.0179179
870.386	0.0180318
870.464	0.0179881
870.542	0.0180638
870.620	0.0179974
870.698	0.0179650
870.776	0.0181271
870.854	0.0179140
870.933	0.0181657
871.011	0.0180533
871.089	0.0180440
871.167	0.0178953
871.245	0.0178638
871.323	0.0181113
871.401	0.0180835
871.479	0.0178751
871.558	0.0179875
871.636	0.0180295
871.714	0.0180513
871.792	0.0182234
871.870	0.0180703
871.948	0.0179430
872.026	0.0180289
872.104	0.0181175
872.183	0.0181172
872.261	0.0180006
872.339	0.0179921
872.417	0.0180580
872.495	0.0179147
872.573	0.0181937
872.651	0.0180934
872.729	0.0180362
872.808	0.0179771
872.886	0.0181538
872.964	0.0180209
873.042	0.0180704
873.120	0.0179718
873.198	0.0182606
873.276	0.0180941
873.354	0.0180351
873.433	0.0180872
873.511	0.0182365
873.589	0.0181881
873.667	0.0181129
873.745	0.0182622
873.823	0.0182861
873.901	0.0181836
873.979	0.0182391
874.058	0.0182137
874.136	0.0180538
874.214	0.0182520
874.292	0.0180901
874.370	0.0181712
874.448	0.0181758
874.526	0.0180315
874.604	0.0182323
874.683	0.0181425
874.761	0.0181138
874.839	0.0181297
874.917	0.0181145
874.995	0.0181344
875.073	0.0182121
875.151	0.0181354
875.229	0.0181798
875.308	0.0181633
875.386	0.0181631
875.464	0.0181653
875.542	0.0179478
875.620	0.0180157
875.698	0.0180485
875.776	0.0180345
875.854	0.0181697
875.933	0.0180663
876.011	0.0178393
876.089	0.0179030
876.167	0.0180885
876.245	0.0180791
876.323	0.0179295
876.401	0.0179102
876.479	0.0179768
876.558	0.0179321
876.636	0.0180373
876.714	0.0179871
876.792	0.0179047
876.870	0.0180207
876.948	0.0179913
877.026	0.0180332
877.104	0.0179221
877.183	0.0179288
877.261	0.0179414
877.339	0.0179256
877.417	0.0180851
877.495	0.0179710
877.573	0.0181062
877.651	0.0179695
877.729	0.0180209
877.808	0.0179623
877.886	0.0180540
877.964	0.0180724
878.042	0.0181585
878.120	0.0180723
878.198	0.0179974
878.276	0.0178775
878.354	0.0179970
878.433	0.0179691
878.511	0.0180240
878.589	0.0180777
878.667	0.0180540
878.745	0.0181014
878.823	0.0180804
878.901	0.0180962
878.979	0.0178808
879.058	0.0179898
879.136	0.0179326
879.214	0.0181271
879.292	0.0180729
879.370	0.0181470
879.448	0.0181110
879.526	0.0181036
879.604	0.0179858
879.683	0.0180215
879.761	0.0181260
879.839	0.0181046
879.917	0.0180033
879.995	0.0181157
880.073	0.0180810
880.151	0.0181240
880.229	0.0181696
880.308	0.0181026
880.386	0.0180086
880.464	0.0180825
880.542	0.0180470
880.620	0.0181353
880.698	0.0180502
880.776	0.0180671
880.854	0.0180656
880.933	0.0180011
881.011	0.0180927
881.089	0.0181911
881.167	0.0180924
881.245	0.0180797
881.323	0.0180617
881.401	0.0180972
881.479	0.0181827
881.558	0.0182132
881.636	0.0182162
881.714	0.0181234
881.792	0.0182047
881.870	0.0182767
881.948	0.0181831
882.026	0.0182119
882.104	0.0182406
882.183	0.0181507
882.261	0.0183686
882.339	0.0182327
882.417	0.0181276
882.495	0.0182580
882.573	0.0181972
882.651	0.0180853
882.729	0.0180323
882.808	0.0181557
882.886	0.0179392
882.964	0.0180210
883.042	0.0179688
883.120	0.0180026
883.198	0.0179420
883.276	0.0180421
883.354	0.0180537
883.433	0.0180663
883.511	0.0181003
883.589	0.0180719
883.667	0.0180736
883.745	0.0181735
883.823	0.0179552
883.901	0.0179796
883.979	0.0180712
884.058	0.0181437
884.136	0.0181207
884.214	0.0179937
884.292	0.0180356
884.370	0.0180914
884.448	0.0181408
884.526	0.0180241
884.604	0.0179840
884.683	0.0181159
884.761	0.0180658
884.839	0.0180331
884.917	0.0180166
884.995	0.0180573
885.073	0.0178905
885.151	0.0179561
885.229	0.0178885
885.308	0.0179663
885.386	0.0179796
885.464	0.0180817
885.542	0.0180065
885.620	0.0181732
885.698	0.0181921
885.776	0.0181461
885.854	0.0180777
885.933	0.0180804
886.011	0.0181156
886.089	0.0181584
886.167	0.0180673
886.245	0.0180685
886.323	0.0180663
886.401	0.0181920
886.479	0.0182687
886.558	0.0180267
886.636	0.0181194
886.714	0.0180324
886.792	0.0180163
886.870	0.0180531
886.948	0.0181599
887.026	0.0180170
887.104	0.0180576
887.183	0.0180932
887.261	0.0180438
887.339	0.0180910
887.417	0.0180165
887.495	0.0180720
887.573	0.0180045
887.651	0.0181316
887.729	0.0182178
887.808	0.0179603
887.886	0.0180319
887.964	0.0181496
888.042	0.0183181
888.120	0.0181848
888.198	0.0181597
888.276	0.0181430
888.354	0.0182264
888.433	0.0182095
888.511	0.0180653
888.589	0.0179858
888.667	0.0182500
888.745	0.0182315
888.823	0.0182946
888.901	0.0181201
888.979	0.0181244
889.058	0.0181348
889.136	0.0180954
889.214	0.0181728
889.292	0.0181483
889.370	0.0180770
889.448	0.0181062
889.526	0.0182297
889.604	0.0182038
889.683	0.0181817
889.761	0.0182590
889.839	0.0182568
889.917	0.0181935
889.995	0.0182301
890.073	0.0182477
890.151	0.0182588
890.229	0.0182632
890.308	0.0183724
890.386	0.0181033
890.464	0.0181824
890.542	0.0182178
890.620	0.0183329
890.698	0.0183229
890.776	0.0181916
890.854	0.0179768
890.933	0.0181492
891.011	0.0180820
891.089	0.0180173
891.167	0.0181364
891.245	0.0180700
891.323	0.0180763
891.401	0.0181506
891.479	0.0179790
891.558	0.0180198
891.636	0.0181876
891.714	0.0181413
891.792	0.0179074
891.870	0.0180052
891.948	0.0179906
892.026	0.0180332
892.104	0.0180176
892.183	0.0180377
892.261	0.0179852
892.339	0.0180867
892.417	0.0179925
892.495	0.0179644
892.573	0.0178677
892.651	0.0180502
892.729	0.0179039
892.808	0.0179149
892.886	0.0179211
892.964	0.0179071
893.042	0.0181258
893.120	0.0180332
893.198	0.0180341
893.276	0.0179801
893.354	0.0180754
893.433	0.0180875
893.511	0.0181078
893.589	0.0180824
893.667	0.0178994
893.745	0.0181139
893.823	0.0181995
893.901	0.0182155
893.979	0.0181725
894.058	0.0183543
894.136	0.0183750
894.214	0.0182217
894.292	0.0180483
894.370	0.0182906
894.448	0.0182183
894.526	0.0181269
894.604	0.0181776
894.683	0.0180901
894.761	0.0181409
894.839	0.0183045
894.917	0.0181384
894.995	0.0180287
895.073	0.0181127
895.151	0.0181201
895.229	0.0182584
895.308	0.0180875
895.386	0.0181651
895.464	0.0181052
895.542	0.0182249
895.620	0.0182384
895.698	0.0181419
895.776	0.0181960
895.854	0.0182986
895.933	0.0182046
896.011	0.0182301
896.089	0.0182983
896.167	0.0182358
896.245	0.0181781
896.323	0.0182760
896.401	0.0182404
896.479	0.0182260
896.558	0.0182501
896.636	0.0181390
896.714	0.0182807
896.792	0.0181403
896.870	0.0181986
896.948	0.0181126
897.026	0.0181348
897.104	0.0180730
897.183	0.0181216
897.261	0.0179600
897.339	0.0181207
897.417	0.0182962
897.495	0.0180977
897.573	0.0181704
897.651	0.0180924
897.729	0.0181236
897.808	0.0179177
897.886	0.0179851
897.964	0.0180138
898.042	0.0180161
898.120	0.0180121
898.198	0.0180196
898.276	0.0180783
898.354	0.0180518
898.433	0.0180254
898.511	0.0182501
898.589	0.0180782
898.667	0.0182124
898.745	0.0182523
898.823	0.0180489
898.901	0.0181724
898.979	0.0181438
899.058	0.0180652
899.136	0.0181489
899.214	0.0181039
899.292	0.0181427
899.370	0.0179771
899.448	0.0180000
899.526	0.0181461
899.604	0.0181131
899.683	0.0179991
899.761	0.0181411
899.839	0.0180839
899.917	0.0179717
899.995	0.0179217
900.073	0.0179390
900.151	0.0180620
900.229	0.0180230
900.308	0.0179803
900.386	0.0177567
900.464	0.0177935
900.542	0.0179015
900.620	0.0178680
900.698	0.0177485
900.776	0.0179306
900.854	0.0180106
900.933	0.0179073
901.011	0.0179128
901.089	0.0180168
901.167	0.0179240
901.245	0.0178783
901.323	0.0179618
901.401	0.0180083
901.479	0.0180383
901.558	0.0179230
901.636	0.0181249
901.714	0.0180668
901.792	0.0180761
901.870	0.0181706
901.948	0.0181700
902.026	0.0180846
902.104	0.0180985
902.183	0.0180392
902.261	0.0181520
902.339	0.0181538
902.417	0.0182453
902.495	0.0180756
902.573	0.0181419
902.651	0.0181156
902.729	0.0180329
902.808	0.0180781
902.886	0.0182248
902.964	0.0181060
903.042	0.0180764
903.120	0.0180627
903.198	0.0179539
903.276	0.0180109
903.354	0.0181407
903.433	0.0180605
903.511	0.0178600
903.589	0.0179411
903.667	0.0181651
903.745	0.0180005
903.823	0.0180190
903.901	0.0180455
903.979	0.0180135
904.058	0.0180671
904.136	0.0178902
904.214	0.0179960
904.292	0.0180775
904.370	0.0180073
904.448	0.0178945
904.526	0.0180187
904.604	0.0179727
904.683	0.0179922
904.761	0.0180112
904.839	0.0180544
904.917	0.0179041
904.995	0.0180264
905.073	0.0181684
905.151	0.0180396
905.229	0.0178597
905.308	0.0180563
905.386	0.0181230
905.464	0.0181089
905.542	0.0181593
905.620	0.0181990
905.698	0.0180236
905.776	0.0179607
905.854	0.0180712
905.933	0.0180776
906.011	0.0181061
906.089	0.0179604
906.167	0.0178835
906.245	0.0180457
906.323	0.0178674
906.401	0.0179436
906.479	0.0179076
906.558	0.0178879
906.636	0.0179514
906.714	0.0178979
906.792	0.0180113
906.870	0.0179302
906.948	0.0181367
907.026	0.0180370
907.104	0.0180021
907.183	0.0180433
907.261	0.0180421
907.339	0.0180649
907.417	0.0178841
907.495	0.0180487
907.573	0.0180880
907.651	0.0179430
907.729	0.0179309
907.808	0.0179075
907.886	0.0180810
907.964	0.0180104
908.042	0.0180919
908.120	0.0179900
908.198	0.0180038
908.276	0.0180856
908.354	0.0180748
908.433	0.0181397
908.511	0.0182042
908.589	0.0181149
908.667	0.0180093
908.745	0.0180789
908.823	0.0181037
908.901	0.0181166
908.979	0.0181069
909.058	0.0180694
909.136	0.0181104
909.214	0.0181294
909.292	0.0180467
909.370	0.0181875
909.448	0.0182016
909.526	0.0182295
909.604	0.0181348
909.683	0.0182890
909.761	0.0182508
909.839	0.0182412
909.917	0.0183324
909.995	0.0182744
910.073	0.0182194
910.151	0.0182374
910.229	0.0183343
910.308	0.0182008
910.386	0.0182574
910.464	0.0182747
910.542	0.0183054
910.620	0.0183659
910.698	0.0183427
910.776	0.0181625
910.854	0.0183252
910.933	0.0181373
911.011	0.0183129
911.089	0.0183468
911.167	0.0182288
911.245	0.0181742
911.323	0.0181824
911.401	0.0181631
911.479	0.0181621
911.558	0.0180122
911.636	0.0181269
911.714	0.0182048
911.792	0.0180338
911.870	0.0180595
911.948	0.0179428
912.026	0.0179396
912.104	0.0179857
912.183	0.0180984
912.261	0.0179049
912.339	0.0179391
912.417	0.0179654
912.495	0.0179381
912.573	0.0178264
912.651	0.0180289
912.729	0.0178545
912.808	0.0179567
912.886	0.0179238
912.964	0.0180222
913.042	0.0181089
913.120	0.0179535
913.198	0.0179739
913.276	0.0179996
913.354	0.0180916
913.433	0.0180112
913.511	0.0180743
913.589	0.0181252
913.667	0.0182496
913.745	0.0182600
913.823	0.0182115
913.901	0.0182861
913.979	0.0181730
914.058	0.0181117
914.136	0.0182870
914.214	0.0181760
914.292	0.0181359
914.370	0.0182565
914.448	0.0182574
914.526	0.0182799
914.604	0.0182522
914.683	0.0180993
914.761	0.0180127
914.839	0.0180956
914.917	0.0181960
914.995	0.0180607
915.073	0.0181624
915.151	0.0182444
915.229	0.0182023
915.308	0.0183186
915.386	0.0182859
915.464	0.0182205
915.542	0.0182720
915.620	0.0183584
915.698	0.0182229
915.776	0.0182156
915.854	0.0182479
915.933	0.0181342
916.011	0.0182213
916.089	0.0182138
916.167	0.0182420
916.245	0.0182281
916.323	0.0183217
916.401	0.0182977
916.479	0.0181285
916.558	0.0181991
916.636	0.0183591
916.714	0.0181970
916.792	0.0182880
916.870	0.0182200
916.948	0.0182150
917.026	0.0181303
917.104	0.0182256
917.183	0.0182927
917.261	0.0184916
917.339	0.0183005
917.417	0.0182591
917.495	0.0182932
917.573	0.0181271
917.651	0.0181707
917.729	0.0182693
917.808	0.0181607
917.886	0.0179560
917.964	0.0182198
918.042	0.0181008
918.120	0.0179958
918.198	0.0179969
918.276	0.0180746
918.354	0.0180395
918.433	0.0180014
918.511	0.0180737
918.589	0.0177986
918.667	0.0180062
918.745	0.0180506
918.823	0.0180080
918.901	0.0180022
918.979	0.0180592
919.058	0.0181989
919.136	0.0180748
919.214	0.0181181
919.292	0.0180834
919.370	0.0180562
919.448	0.0181126
919.526	0.0181505
919.604	0.0180664
919.683	0.0180470
919.761	0.0180417
919.839	0.0180711
919.917	0.0180219
