06/03/2022	18:23:23	Ver.	4.1	UNKNOWN
Optical Delay	599.995081	Delta X		0.078125	Sweeps	1	Scan Rate	0/0
Coordinates	Axis 1	NaN	Axis 2	NaN	Axis 3	NaN	Axis 4	NaN	Axis 5	NaN	Axis 6	0.000000
TX Power	0.000000	RX Power	0.000000

599.995	0.0179387
600.073	0.0179704
600.151	0.0179486
600.229	0.0179227
600.308	0.0180512
600.386	0.0180067
600.464	0.0179871
600.542	0.0179702
600.620	0.0179230
600.698	0.0179671
600.776	0.0180305
600.854	0.0178885
600.933	0.0179110
601.011	0.0178671
601.089	0.0179596
601.167	0.0179788
601.245	0.0178676
601.323	0.0179806
601.401	0.0180138
601.479	0.0179974
601.558	0.0177483
601.636	0.0179567
601.714	0.0180538
601.792	0.0179620
601.870	0.0180132
601.948	0.0178680
602.026	0.0180152
602.104	0.0178853
602.183	0.0180509
602.261	0.0177551
602.339	0.0179785
602.417	0.0178521
602.495	0.0179632
602.573	0.0179604
602.651	0.0180517
602.729	0.0179635
602.808	0.0179065
602.886	0.0180098
602.964	0.0180027
603.042	0.0180205
603.120	0.0180152
603.198	0.0179894
603.276	0.0179044
603.354	0.0179495
603.433	0.0180008
603.511	0.0178298
603.589	0.0179879
603.667	0.0180085
603.745	0.0179309
603.823	0.0179844
603.901	0.0179287
603.979	0.0179718
604.058	0.0179843
604.136	0.0179488
604.214	0.0179839
604.292	0.0178600
604.370	0.0179840
604.448	0.0179168
604.526	0.0179031
604.604	0.0179752
604.683	0.0180325
604.761	0.0179520
604.839	0.0179671
604.917	0.0181020
604.995	0.0179797
605.073	0.0179311
605.151	0.0178907
605.229	0.0179567
605.308	0.0178737
605.386	0.0179256
605.464	0.0178865
605.542	0.0179355
605.620	0.0180743
605.698	0.0180807
605.776	0.0179276
605.854	0.0178828
605.933	0.0179345
606.011	0.0179690
606.089	0.0179618
606.167	0.0179121
606.245	0.0180148
606.323	0.0180455
606.401	0.0181792
606.479	0.0177563
606.558	0.0180306
606.636	0.0180743
606.714	0.0178852
606.792	0.0179520
606.870	0.0177703
606.948	0.0178777
607.026	0.0178723
607.104	0.0178714
607.183	0.0180286
607.261	0.0179307
607.339	0.0179079
607.417	0.0179073
607.495	0.0179929
607.573	0.0180245
607.651	0.0179635
607.729	0.0179306
607.808	0.0179240
607.886	0.0178743
607.964	0.0179450
608.042	0.0179108
608.120	0.0179556
608.198	0.0180126
608.276	0.0179601
608.354	0.0179921
608.433	0.0179732
608.511	0.0179115
608.589	0.0178085
608.667	0.0180651
608.745	0.0180183
608.823	0.0179117
608.901	0.0178806
608.979	0.0180004
609.058	0.0179558
609.136	0.0179485
609.214	0.0179485
609.292	0.0178948
609.370	0.0179300
609.448	0.0180377
609.526	0.0179545
609.604	0.0179557
609.683	0.0177654
609.761	0.0179956
609.839	0.0179570
609.917	0.0180095
609.995	0.0178819
610.073	0.0179182
610.151	0.0179832
610.229	0.0179064
610.308	0.0179674
610.386	0.0178989
610.464	0.0178932
610.542	0.0178397
610.620	0.0178888
610.698	0.0179410
610.776	0.0179885
610.854	0.0178387
610.933	0.0178988
611.011	0.0179423
611.089	0.0179140
611.167	0.0179746
611.245	0.0179116
611.323	0.0179103
611.401	0.0179044
611.479	0.0179573
611.558	0.0178894
611.636	0.0180109
611.714	0.0179845
611.792	0.0179210
611.870	0.0181062
611.948	0.0178363
612.026	0.0178359
612.104	0.0179411
612.183	0.0178926
612.261	0.0179079
612.339	0.0180040
612.417	0.0178863
612.495	0.0179817
612.573	0.0179691
612.651	0.0179298
612.729	0.0179444
612.808	0.0179710
612.886	0.0179381
612.964	0.0179897
613.042	0.0180761
613.120	0.0178114
613.198	0.0178378
613.276	0.0179501
613.354	0.0179283
613.433	0.0178883
613.511	0.0179810
613.589	0.0179314
613.667	0.0178345
613.745	0.0177932
613.823	0.0179952
613.901	0.0178722
613.979	0.0178767
614.058	0.0179546
614.136	0.0180296
614.214	0.0179831
614.292	0.0179585
614.370	0.0179359
614.448	0.0178374
614.526	0.0177842
614.604	0.0179443
614.683	0.0179021
614.761	0.0180173
614.839	0.0180293
614.917	0.0180122
614.995	0.0178455
615.073	0.0179700
615.151	0.0179794
615.229	0.0179472
615.308	0.0178874
615.386	0.0178648
615.464	0.0180359
615.542	0.0179179
615.620	0.0178023
615.698	0.0177545
615.776	0.0178381
615.854	0.0177699
615.933	0.0179010
616.011	0.0179852
616.089	0.0181155
616.167	0.0180022
616.245	0.0180155
616.323	0.0178750
616.401	0.0178993
616.479	0.0178000
616.558	0.0179278
616.636	0.0180129
616.714	0.0179062
616.792	0.0178007
616.870	0.0177977
616.948	0.0180606
617.026	0.0178503
617.104	0.0179620
617.183	0.0179728
617.261	0.0179401
617.339	0.0179177
617.417	0.0179350
617.495	0.0180369
617.573	0.0178270
617.651	0.0178083
617.729	0.0179488
617.808	0.0179536
617.886	0.0180775
617.964	0.0178876
618.042	0.0177636
618.120	0.0177531
618.198	0.0179774
618.276	0.0180044
618.354	0.0178151
618.433	0.0178731
618.511	0.0179027
618.589	0.0180029
618.667	0.0179145
618.745	0.0178258
618.823	0.0179254
618.901	0.0180490
618.979	0.0180830
619.058	0.0179491
619.136	0.0181089
619.214	0.0179469
619.292	0.0178960
619.370	0.0178721
619.448	0.0179348
619.526	0.0179910
619.604	0.0179428
619.683	0.0180284
619.761	0.0180036
619.839	0.0178500
619.917	0.0178576
619.995	0.0179823
620.073	0.0179158
620.151	0.0179702
620.229	0.0179180
620.308	0.0178402
620.386	0.0181156
620.464	0.0180061
620.542	0.0178839
620.620	0.0179442
620.698	0.0179180
620.776	0.0179736
620.854	0.0180079
620.933	0.0179160
621.011	0.0178802
621.089	0.0179963
621.167	0.0179527
621.245	0.0178976
621.323	0.0180409
621.401	0.0179263
621.479	0.0180228
621.558	0.0179570
621.636	0.0179314
621.714	0.0180173
621.792	0.0179404
621.870	0.0178562
621.948	0.0179559
622.026	0.0180594
622.104	0.0181485
622.183	0.0178965
622.261	0.0179296
622.339	0.0180869
622.417	0.0179685
622.495	0.0180295
622.573	0.0181229
622.651	0.0178487
622.729	0.0180191
622.808	0.0180215
622.886	0.0180531
622.964	0.0180767
623.042	0.0179406
623.120	0.0179967
623.198	0.0180824
623.276	0.0180319
623.354	0.0180127
623.433	0.0180347
623.511	0.0178812
623.589	0.0179793
623.667	0.0180419
623.745	0.0178731
623.823	0.0179022
623.901	0.0179540
623.979	0.0180230
624.058	0.0179887
624.136	0.0180598
624.214	0.0179964
624.292	0.0179828
624.370	0.0179712
624.448	0.0180546
624.526	0.0180165
624.604	0.0181049
624.683	0.0180886
624.761	0.0180072
624.839	0.0179824
624.917	0.0179890
624.995	0.0180228
625.073	0.0179335
625.151	0.0179969
625.229	0.0179320
625.308	0.0179737
625.386	0.0179986
625.464	0.0179910
625.542	0.0179243
625.620	0.0179324
625.698	0.0180877
625.776	0.0179758
625.854	0.0179080
625.933	0.0179926
626.011	0.0179222
626.089	0.0179920
626.167	0.0180081
626.245	0.0180514
626.323	0.0179025
626.401	0.0180780
626.479	0.0180486
626.558	0.0179892
626.636	0.0180452
626.714	0.0179705
626.792	0.0178295
626.870	0.0179996
626.948	0.0181101
627.026	0.0178684
627.104	0.0180225
627.183	0.0179736
627.261	0.0180196
627.339	0.0180299
627.417	0.0180188
627.495	0.0180477
627.573	0.0180131
627.651	0.0179964
627.729	0.0180340
627.808	0.0180302
627.886	0.0179591
627.964	0.0179012
628.042	0.0178868
628.120	0.0179838
628.198	0.0179290
628.276	0.0178983
628.354	0.0180489
628.433	0.0179340
628.511	0.0180283
628.589	0.0178857
628.667	0.0180213
628.745	0.0181114
628.823	0.0179313
628.901	0.0179049
628.979	0.0179117
629.058	0.0179926
629.136	0.0179836
629.214	0.0178936
629.292	0.0178892
629.370	0.0178539
629.448	0.0178700
629.526	0.0179903
629.604	0.0179885
629.683	0.0179584
629.761	0.0177988
629.839	0.0181184
629.917	0.0179480
629.995	0.0179669
630.073	0.0181494
630.151	0.0179652
630.229	0.0178115
630.308	0.0179833
630.386	0.0179981
630.464	0.0179982
630.542	0.0179936
630.620	0.0180090
630.698	0.0179128
630.776	0.0178934
630.854	0.0180155
630.933	0.0179908
631.011	0.0179396
631.089	0.0179094
631.167	0.0179675
631.245	0.0178499
631.323	0.0179828
631.401	0.0178958
631.479	0.0178547
631.558	0.0180306
631.636	0.0179618
631.714	0.0180121
631.792	0.0179861
631.870	0.0179627
631.948	0.0178602
632.026	0.0179231
632.104	0.0180084
632.183	0.0180581
632.261	0.0181144
632.339	0.0179831
632.417	0.0178968
632.495	0.0179623
632.573	0.0178703
632.651	0.0179562
632.729	0.0178928
632.808	0.0178703
632.886	0.0179012
632.964	0.0179380
633.042	0.0180088
633.120	0.0178133
633.198	0.0179130
633.276	0.0179428
633.354	0.0178111
633.433	0.0179205
633.511	0.0178229
633.589	0.0178721
633.667	0.0179132
633.745	0.0178053
633.823	0.0179845
633.901	0.0179018
633.979	0.0179336
634.058	0.0178950
634.136	0.0178538
634.214	0.0178987
634.292	0.0179321
634.370	0.0178307
634.448	0.0178368
634.526	0.0179573
634.604	0.0179742
634.683	0.0179261
634.761	0.0180044
634.839	0.0179600
634.917	0.0179648
634.995	0.0179597
635.073	0.0178677
635.151	0.0180375
635.229	0.0180314
635.308	0.0179331
635.386	0.0180009
635.464	0.0179158
635.542	0.0179539
635.620	0.0181068
635.698	0.0179900
635.776	0.0179799
635.854	0.0181323
635.933	0.0178088
636.011	0.0178674
636.089	0.0178245
636.167	0.0179242
636.245	0.0179218
636.323	0.0177983
636.401	0.0177945
636.479	0.0178928
636.558	0.0178801
636.636	0.0178913
636.714	0.0179105
636.792	0.0180985
636.870	0.0179269
636.948	0.0177734
637.026	0.0178830
637.104	0.0179769
637.183	0.0178222
637.261	0.0178952
637.339	0.0179354
637.417	0.0179247
637.495	0.0177918
637.573	0.0178870
637.651	0.0178483
637.729	0.0178954
637.808	0.0178580
637.886	0.0178674
637.964	0.0178111
638.042	0.0178683
638.120	0.0180448
638.198	0.0178891
638.276	0.0179312
638.354	0.0178983
638.433	0.0180097
638.511	0.0179099
638.589	0.0180166
638.667	0.0178537
638.745	0.0178793
638.823	0.0178191
638.901	0.0179034
638.979	0.0179618
639.058	0.0180073
639.136	0.0179144
639.214	0.0178951
639.292	0.0179404
639.370	0.0178591
639.448	0.0180045
639.526	0.0179932
639.604	0.0179416
639.683	0.0179385
639.761	0.0179990
639.839	0.0180125
639.917	0.0178757
639.995	0.0178681
640.073	0.0179946
640.151	0.0180339
640.229	0.0179907
640.308	0.0180048
640.386	0.0181155
640.464	0.0178969
640.542	0.0179118
640.620	0.0178229
640.698	0.0179747
640.776	0.0179707
640.854	0.0180550
640.933	0.0178258
641.011	0.0180230
641.089	0.0178866
641.167	0.0179975
641.245	0.0179883
641.323	0.0179296
641.401	0.0178565
641.479	0.0179223
641.558	0.0179124
641.636	0.0180468
641.714	0.0180070
641.792	0.0180761
641.870	0.0180290
641.948	0.0179811
642.026	0.0178683
642.104	0.0178822
642.183	0.0179850
642.261	0.0179292
642.339	0.0179451
642.417	0.0179441
642.495	0.0179092
642.573	0.0178975
642.651	0.0178873
642.729	0.0180035
642.808	0.0178912
642.886	0.0180422
642.964	0.0180044
643.042	0.0179301
643.120	0.0178775
643.198	0.0178644
643.276	0.0179143
643.354	0.0179466
643.433	0.0179634
643.511	0.0180255
643.589	0.0180079
643.667	0.0179669
643.745	0.0178054
643.823	0.0179543
643.901	0.0179079
643.979	0.0178822
644.058	0.0178728
644.136	0.0179124
644.214	0.0179124
644.292	0.0179842
644.370	0.0179411
644.448	0.0178796
644.526	0.0180119
644.604	0.0179440
644.683	0.0180125
644.761	0.0178192
644.839	0.0180974
644.917	0.0180119
644.995	0.0179178
645.073	0.0178947
645.151	0.0180279
645.229	0.0178628
645.308	0.0179192
645.386	0.0178756
645.464	0.0180276
645.542	0.0178638
645.620	0.0178833
645.698	0.0178068
645.776	0.0179025
645.854	0.0178663
645.933	0.0179574
646.011	0.0179057
646.089	0.0179494
646.167	0.0179506
646.245	0.0179150
646.323	0.0179478
646.401	0.0179785
646.479	0.0179623
646.558	0.0179037
646.636	0.0179905
646.714	0.0179544
646.792	0.0179250
646.870	0.0178901
646.948	0.0178717
647.026	0.0178640
647.104	0.0178815
647.183	0.0179521
647.261	0.0179259
647.339	0.0179049
647.417	0.0179094
647.495	0.0178737
647.573	0.0178664
647.651	0.0178240
647.729	0.0179768
647.808	0.0180025
647.886	0.0181464
647.964	0.0180589
648.042	0.0181161
648.120	0.0180663
648.198	0.0179897
648.276	0.0179565
648.354	0.0180477
648.433	0.0178589
648.511	0.0178616
648.589	0.0179990
648.667	0.0179227
648.745	0.0179288
648.823	0.0178870
648.901	0.0179634
648.979	0.0179446
649.058	0.0179557
649.136	0.0178712
649.214	0.0179415
649.292	0.0179137
649.370	0.0177734
649.448	0.0178581
649.526	0.0178939
649.604	0.0178596
649.683	0.0179153
649.761	0.0180138
649.839	0.0177806
649.917	0.0181215
649.995	0.0180629
650.073	0.0179369
650.151	0.0178062
650.229	0.0177819
650.308	0.0178673
650.386	0.0178124
650.464	0.0179810
650.542	0.0179037
650.620	0.0177122
650.698	0.0179456
650.776	0.0178123
650.854	0.0178033
650.933	0.0177744
651.011	0.0178635
651.089	0.0179597
651.167	0.0178941
651.245	0.0178952
651.323	0.0178290
651.401	0.0178652
651.479	0.0178506
651.558	0.0179561
651.636	0.0179603
651.714	0.0179166
651.792	0.0177991
651.870	0.0179268
651.948	0.0179674
652.026	0.0179224
652.104	0.0179236
652.183	0.0180475
652.261	0.0179583
652.339	0.0179618
652.417	0.0180370
652.495	0.0179731
652.573	0.0176663
652.651	0.0177917
652.729	0.0178489
652.808	0.0178395
652.886	0.0178614
652.964	0.0178344
653.042	0.0178397
653.120	0.0179035
653.198	0.0178209
653.276	0.0177848
653.354	0.0179142
653.433	0.0178729
653.511	0.0179671
653.589	0.0180041
653.667	0.0178363
653.745	0.0179098
653.823	0.0180175
653.901	0.0179120
653.979	0.0178455
654.058	0.0179254
654.136	0.0179143
654.214	0.0180097
654.292	0.0179697
654.370	0.0179262
654.448	0.0178860
654.526	0.0179628
654.604	0.0179196
654.683	0.0179042
654.761	0.0180356
654.839	0.0179187
654.917	0.0178767
654.995	0.0178555
655.073	0.0179009
655.151	0.0177541
655.229	0.0178401
655.308	0.0179324
655.386	0.0179578
655.464	0.0179216
655.542	0.0176393
655.620	0.0178736
655.698	0.0179752
655.776	0.0180025
655.854	0.0179319
655.933	0.0179890
656.011	0.0178745
656.089	0.0178909
656.167	0.0180755
656.245	0.0180075
656.323	0.0178481
656.401	0.0179457
656.479	0.0178042
656.558	0.0178373
656.636	0.0178355
656.714	0.0179465
656.792	0.0178329
656.870	0.0178815
656.948	0.0178386
657.026	0.0178412
657.104	0.0179453
657.183	0.0178980
657.261	0.0178875
657.339	0.0179076
657.417	0.0179011
657.495	0.0179082
657.573	0.0178733
657.651	0.0179555
657.729	0.0179210
657.808	0.0179559
657.886	0.0179951
657.964	0.0178825
658.042	0.0180011
658.120	0.0179722
658.198	0.0178871
658.276	0.0180186
658.354	0.0179620
658.433	0.0178416
658.511	0.0180540
658.589	0.0179731
658.667	0.0179084
658.745	0.0178587
658.823	0.0178609
658.901	0.0178036
658.979	0.0177603
659.058	0.0177393
659.136	0.0178429
659.214	0.0178832
659.292	0.0178826
659.370	0.0178864
659.448	0.0180171
659.526	0.0180035
659.604	0.0179231
659.683	0.0179128
659.761	0.0179210
659.839	0.0178471
659.917	0.0178635
659.995	0.0180131
660.073	0.0181199
660.151	0.0178723
660.229	0.0179354
660.308	0.0179887
660.386	0.0180293
660.464	0.0177660
660.542	0.0180019
660.620	0.0179175
660.698	0.0178529
660.776	0.0180015
660.854	0.0179674
660.933	0.0178926
661.011	0.0178396
661.089	0.0178626
661.167	0.0178067
661.245	0.0179595
661.323	0.0179121
661.401	0.0178621
661.479	0.0179147
661.558	0.0177579
661.636	0.0179597
661.714	0.0179234
661.792	0.0178280
661.870	0.0179587
661.948	0.0179736
662.026	0.0178851
662.104	0.0180156
662.183	0.0178804
662.261	0.0179118
662.339	0.0179400
662.417	0.0180428
662.495	0.0179118
662.573	0.0178584
662.651	0.0179110
662.729	0.0179063
662.808	0.0178149
662.886	0.0178724
662.964	0.0179280
663.042	0.0180099
663.120	0.0178745
663.198	0.0178992
663.276	0.0179204
663.354	0.0178854
663.433	0.0178891
663.511	0.0178119
663.589	0.0179646
663.667	0.0178654
663.745	0.0178480
663.823	0.0178693
663.901	0.0178251
663.979	0.0180013
664.058	0.0180014
664.136	0.0179038
664.214	0.0179391
664.292	0.0180295
664.370	0.0181088
664.448	0.0179169
664.526	0.0180128
664.604	0.0180024
664.683	0.0179662
664.761	0.0178693
664.839	0.0178741
664.917	0.0178196
664.995	0.0178396
665.073	0.0177844
665.151	0.0178279
665.229	0.0178265
665.308	0.0178554
665.386	0.0176682
665.464	0.0179756
665.542	0.0177559
665.620	0.0178001
665.698	0.0179679
665.776	0.0178773
665.854	0.0178529
665.933	0.0178468
666.011	0.0180334
666.089	0.0180022
666.167	0.0180228
666.245	0.0180604
666.323	0.0179661
666.401	0.0180024
666.479	0.0178928
666.558	0.0179948
666.636	0.0179237
666.714	0.0178848
666.792	0.0177493
666.870	0.0178266
666.948	0.0178437
667.026	0.0177039
667.104	0.0176861
667.183	0.0176831
667.261	0.0177866
667.339	0.0178048
667.417	0.0178905
667.495	0.0177778
667.573	0.0179156
667.651	0.0179484
667.729	0.0179406
667.808	0.0179305
667.886	0.0178876
667.964	0.0180718
668.042	0.0180340
668.120	0.0180650
668.198	0.0181330
668.276	0.0180353
668.354	0.0180656
668.433	0.0180573
668.511	0.0179642
668.589	0.0180313
668.667	0.0180661
668.745	0.0178134
668.823	0.0177327
668.901	0.0178458
668.979	0.0176460
669.058	0.0179003
669.136	0.0178255
669.214	0.0178985
669.292	0.0177507
669.370	0.0176170
669.448	0.0177656
669.526	0.0179911
669.604	0.0180520
669.683	0.0180048
669.761	0.0179108
669.839	0.0178809
669.917	0.0178732
669.995	0.0180543
670.073	0.0180865
670.151	0.0180234
670.229	0.0182043
670.308	0.0181928
670.386	0.0180269
670.464	0.0178455
670.542	0.0178703
670.620	0.0179148
670.698	0.0179409
670.776	0.0177893
670.854	0.0178880
670.933	0.0177744
671.011	0.0179396
671.089	0.0178970
671.167	0.0178761
671.245	0.0177750
671.323	0.0178594
671.401	0.0178461
671.479	0.0177743
671.558	0.0178328
671.636	0.0178627
671.714	0.0178541
671.792	0.0178790
671.870	0.0178815
671.948	0.0180430
672.026	0.0179585
672.104	0.0180366
672.183	0.0181734
672.261	0.0179951
672.339	0.0180483
672.417	0.0180296
672.495	0.0179488
672.573	0.0180491
672.651	0.0180574
672.729	0.0178468
672.808	0.0179277
672.886	0.0178893
672.964	0.0177020
673.042	0.0178619
673.120	0.0178502
673.198	0.0177203
673.276	0.0177460
673.354	0.0177691
673.433	0.0177860
673.511	0.0178671
673.589	0.0179119
673.667	0.0178476
673.745	0.0180170
673.823	0.0180682
673.901	0.0178252
673.979	0.0181367
674.058	0.0179408
674.136	0.0180378
674.214	0.0178993
674.292	0.0179460
674.370	0.0179176
674.448	0.0178938
674.526	0.0178477
674.604	0.0178620
674.683	0.0178117
674.761	0.0179427
674.839	0.0178020
674.917	0.0177983
674.995	0.0178395
675.073	0.0177821
675.151	0.0178521
675.229	0.0178740
675.308	0.0178504
675.386	0.0178948
675.464	0.0178713
675.542	0.0176554
675.620	0.0177795
675.698	0.0180006
675.776	0.0178881
675.854	0.0180341
675.933	0.0179414
676.011	0.0179516
676.089	0.0180615
676.167	0.0180304
676.245	0.0178384
676.323	0.0178598
676.401	0.0178493
676.479	0.0178410
676.558	0.0178967
676.636	0.0179045
676.714	0.0177658
676.792	0.0177286
676.870	0.0179335
676.948	0.0178407
677.026	0.0179179
677.104	0.0178581
677.183	0.0178447
677.261	0.0177611
677.339	0.0177851
677.417	0.0177729
677.495	0.0177721
677.573	0.0178712
677.651	0.0179524
677.729	0.0179025
677.808	0.0178830
677.886	0.0179443
677.964	0.0179118
678.042	0.0177699
678.120	0.0178912
678.198	0.0179896
678.276	0.0179248
678.354	0.0179139
678.433	0.0179401
678.511	0.0179704
678.589	0.0178616
678.667	0.0177734
678.745	0.0180830
678.823	0.0179391
678.901	0.0177959
678.979	0.0178169
679.058	0.0178454
679.136	0.0181052
679.214	0.0179989
679.292	0.0179138
679.370	0.0177836
679.448	0.0178452
679.526	0.0179092
679.604	0.0178522
679.683	0.0178931
679.761	0.0178410
679.839	0.0177818
679.917	0.0178691
679.995	0.0178411
680.073	0.0180280
680.151	0.0179492
680.229	0.0179909
680.308	0.0181233
680.386	0.0180185
680.464	0.0180112
680.542	0.0179697
680.620	0.0178991
680.698	0.0179479
680.776	0.0178837
680.854	0.0179406
680.933	0.0177847
681.011	0.0177187
681.089	0.0177360
681.167	0.0175127
681.245	0.0178223
681.323	0.0177477
681.401	0.0176261
681.479	0.0177168
681.558	0.0177878
681.636	0.0177359
681.714	0.0177476
681.792	0.0177351
681.870	0.0178446
681.948	0.0179859
682.026	0.0179084
682.104	0.0179227
682.183	0.0180073
682.261	0.0179651
682.339	0.0179771
682.417	0.0181470
682.495	0.0180534
682.573	0.0180237
682.651	0.0181078
682.729	0.0182187
682.808	0.0180557
682.886	0.0180816
682.964	0.0180762
683.042	0.0180605
683.120	0.0180234
683.198	0.0181213
683.276	0.0182092
683.354	0.0180885
683.433	0.0180959
683.511	0.0181161
683.589	0.0182022
683.667	0.0180698
683.745	0.0180223
683.823	0.0183121
683.901	0.0182008
683.979	0.0181512
684.058	0.0181985
684.136	0.0179468
684.214	0.0178584
684.292	0.0180228
684.370	0.0178627
684.448	0.0178461
684.526	0.0179631
684.604	0.0178732
684.683	0.0178863
684.761	0.0177474
684.839	0.0177593
684.917	0.0178111
684.995	0.0176788
685.073	0.0177579
685.151	0.0177399
685.229	0.0177065
685.308	0.0178296
685.386	0.0176654
685.464	0.0177119
685.542	0.0178571
685.620	0.0176802
685.698	0.0177197
685.776	0.0178609
685.854	0.0178388
685.933	0.0177506
686.011	0.0178170
686.089	0.0178608
686.167	0.0179449
686.245	0.0178716
686.323	0.0180033
686.401	0.0179906
686.479	0.0178751
686.558	0.0178262
686.636	0.0179600
686.714	0.0180591
686.792	0.0180946
686.870	0.0179884
686.948	0.0179460
687.026	0.0179213
687.104	0.0179649
687.183	0.0179601
687.261	0.0180173
687.339	0.0180396
687.417	0.0181849
687.495	0.0181196
687.573	0.0181033
687.651	0.0182039
687.729	0.0182612
687.808	0.0182351
687.886	0.0182148
687.964	0.0182869
688.042	0.0183239
688.120	0.0183395
688.198	0.0182874
688.276	0.0181998
688.354	0.0181181
688.433	0.0181004
688.511	0.0180237
688.589	0.0179211
688.667	0.0180405
688.745	0.0178645
688.823	0.0178660
688.901	0.0179633
688.979	0.0177504
689.058	0.0177458
689.136	0.0177337
689.214	0.0176913
689.292	0.0176884
689.370	0.0177429
689.448	0.0177650
689.526	0.0176846
689.604	0.0176581
689.683	0.0179084
689.761	0.0178167
689.839	0.0179122
689.917	0.0177456
689.995	0.0178766
690.073	0.0178864
690.151	0.0178161
690.229	0.0178224
690.308	0.0178175
690.386	0.0180115
690.464	0.0178490
690.542	0.0179121
690.620	0.0178567
690.698	0.0179820
690.776	0.0178674
690.854	0.0179637
690.933	0.0177712
691.011	0.0179930
691.089	0.0179129
691.167	0.0178343
691.245	0.0177869
691.323	0.0179417
691.401	0.0179274
691.479	0.0179212
691.558	0.0178159
691.636	0.0178580
691.714	0.0178356
691.792	0.0179388
691.870	0.0179330
691.948	0.0179607
692.026	0.0179203
692.104	0.0179185
692.183	0.0179822
692.261	0.0180560
692.339	0.0180791
692.417	0.0181083
692.495	0.0180937
692.573	0.0179000
692.651	0.0180567
692.729	0.0180267
692.808	0.0179577
692.886	0.0179470
692.964	0.0179567
693.042	0.0179621
693.120	0.0179623
693.198	0.0179676
693.276	0.0179853
693.354	0.0179723
693.433	0.0179709
693.511	0.0179763
693.589	0.0180939
693.667	0.0181113
693.745	0.0180543
693.823	0.0181216
693.901	0.0182133
693.979	0.0181876
694.058	0.0180676
694.136	0.0181826
694.214	0.0182305
694.292	0.0181223
694.370	0.0181642
694.448	0.0181693
694.526	0.0179649
694.604	0.0179217
694.683	0.0178224
694.761	0.0179421
694.839	0.0179417
694.917	0.0179398
694.995	0.0179427
695.073	0.0179016
695.151	0.0179034
695.229	0.0178949
695.308	0.0179181
695.386	0.0178383
695.464	0.0179443
695.542	0.0179865
695.620	0.0178553
695.698	0.0179414
695.776	0.0178823
695.854	0.0180647
695.933	0.0178410
696.011	0.0177673
696.089	0.0178305
696.167	0.0177262
696.245	0.0178846
696.323	0.0178263
696.401	0.0177330
696.479	0.0178654
696.558	0.0176699
696.636	0.0177319
696.714	0.0177623
696.792	0.0176974
696.870	0.0178650
696.948	0.0176617
697.026	0.0176519
697.104	0.0177636
697.183	0.0177667
697.261	0.0177856
697.339	0.0177940
697.417	0.0179399
697.495	0.0179886
697.573	0.0179298
697.651	0.0180112
697.729	0.0181322
697.808	0.0180219
697.886	0.0180705
697.964	0.0180880
698.042	0.0181905
698.120	0.0183347
698.198	0.0182484
698.276	0.0183305
698.354	0.0183929
698.433	0.0182864
698.511	0.0181764
698.589	0.0183067
698.667	0.0181969
698.745	0.0182448
698.823	0.0182197
698.901	0.0180807
698.979	0.0180695
699.058	0.0178477
699.136	0.0180155
699.214	0.0178700
699.292	0.0178277
699.370	0.0178291
699.448	0.0177308
699.526	0.0177319
699.604	0.0177510
699.683	0.0177525
699.761	0.0177016
699.839	0.0178452
699.917	0.0177448
699.995	0.0178792
700.073	0.0178377
700.151	0.0180312
700.229	0.0180467
700.308	0.0178892
700.386	0.0179677
700.464	0.0181969
700.542	0.0181760
700.620	0.0181191
700.698	0.0180846
700.776	0.0180595
700.854	0.0180186
700.933	0.0180283
701.011	0.0181408
701.089	0.0181068
701.167	0.0179770
701.245	0.0179544
701.323	0.0181297
701.401	0.0180898
701.479	0.0180139
701.558	0.0180941
701.636	0.0180891
701.714	0.0182048
701.792	0.0182742
701.870	0.0182735
701.948	0.0182058
702.026	0.0183134
702.104	0.0183354
702.183	0.0183141
702.261	0.0181659
702.339	0.0181918
702.417	0.0182285
702.495	0.0181126
702.573	0.0179574
702.651	0.0179839
702.729	0.0178553
702.808	0.0178227
702.886	0.0178476
702.964	0.0177283
703.042	0.0175198
703.120	0.0175896
703.198	0.0174448
703.276	0.0173195
703.354	0.0173586
703.433	0.0173976
703.511	0.0174069
703.589	0.0172920
703.667	0.0172630
703.745	0.0172337
703.823	0.0172461
703.901	0.0172591
703.979	0.0173336
704.058	0.0173846
704.136	0.0176343
704.214	0.0176512
704.292	0.0176865
704.370	0.0180142
704.448	0.0180421
704.526	0.0180157
704.604	0.0182381
704.683	0.0182896
704.761	0.0184428
704.839	0.0185696
704.917	0.0186063
704.995	0.0187564
705.073	0.0186633
705.151	0.0184493
705.229	0.0185943
705.308	0.0186081
705.386	0.0184537
705.464	0.0183450
705.542	0.0182528
705.620	0.0181411
705.698	0.0180486
705.776	0.0178954
705.854	0.0179636
705.933	0.0176541
706.011	0.0178631
706.089	0.0177631
706.167	0.0177370
706.245	0.0176427
706.323	0.0175792
706.401	0.0175955
706.479	0.0176701
706.558	0.0177735
706.636	0.0177428
706.714	0.0178965
706.792	0.0179411
706.870	0.0181104
706.948	0.0181582
707.026	0.0181171
707.104	0.0182391
707.183	0.0184521
707.261	0.0184880
707.339	0.0184448
707.417	0.0186036
707.495	0.0185437
707.573	0.0185456
707.651	0.0185080
707.729	0.0184908
707.808	0.0184981
707.886	0.0183239
707.964	0.0182050
708.042	0.0179903
708.120	0.0178702
708.198	0.0177256
708.276	0.0177391
708.354	0.0175294
708.433	0.0174656
708.511	0.0175256
708.589	0.0172898
708.667	0.0172961
708.745	0.0172086
708.823	0.0172412
708.901	0.0172054
708.979	0.0172179
709.058	0.0170416
709.136	0.0170715
709.214	0.0170615
709.292	0.0170158
709.370	0.0170032
709.448	0.0169681
709.526	0.0170544
709.604	0.0170956
709.683	0.0172015
709.761	0.0172983
709.839	0.0174511
709.917	0.0176685
709.995	0.0178198
710.073	0.0178114
710.151	0.0181426
710.229	0.0182993
710.308	0.0183765
710.386	0.0183704
710.464	0.0185221
710.542	0.0186693
710.620	0.0186180
710.698	0.0186946
710.776	0.0186633
710.854	0.0185645
710.933	0.0184998
711.011	0.0184666
711.089	0.0185666
711.167	0.0184037
711.245	0.0184908
711.323	0.0184473
711.401	0.0184360
711.479	0.0183994
711.558	0.0184624
711.636	0.0183439
711.714	0.0182805
711.792	0.0183842
711.870	0.0183823
711.948	0.0182243
712.026	0.0182931
712.104	0.0183607
712.183	0.0182639
712.261	0.0182152
712.339	0.0181499
712.417	0.0179578
712.495	0.0178483
712.573	0.0178445
712.651	0.0177909
712.729	0.0177525
712.808	0.0176012
712.886	0.0176262
712.964	0.0175045
713.042	0.0172841
713.120	0.0173055
713.198	0.0172699
713.276	0.0174861
713.354	0.0174751
713.433	0.0175253
713.511	0.0175992
713.589	0.0176594
713.667	0.0177827
713.745	0.0179854
713.823	0.0179115
713.901	0.0179592
713.979	0.0181276
714.058	0.0181209
714.136	0.0181998
714.214	0.0180548
714.292	0.0179632
714.370	0.0181937
714.448	0.0180408
714.526	0.0179549
714.604	0.0179756
714.683	0.0179694
714.761	0.0180683
714.839	0.0180112
714.917	0.0178358
714.995	0.0177679
715.073	0.0177584
715.151	0.0177856
715.229	0.0177878
715.308	0.0176558
715.386	0.0176577
715.464	0.0175573
715.542	0.0176635
715.620	0.0176416
715.698	0.0176636
715.776	0.0176081
715.854	0.0176585
715.933	0.0175587
716.011	0.0177809
716.089	0.0178075
716.167	0.0178855
716.245	0.0178262
716.323	0.0178413
716.401	0.0179453
716.479	0.0178490
716.558	0.0178910
716.636	0.0179820
716.714	0.0180163
716.792	0.0179565
716.870	0.0177099
716.948	0.0177750
717.026	0.0177972
717.104	0.0177154
717.183	0.0176035
717.261	0.0176530
717.339	0.0177126
717.417	0.0176288
717.495	0.0175692
717.573	0.0177149
717.651	0.0177461
717.729	0.0180048
717.808	0.0178920
717.886	0.0178767
717.964	0.0180835
718.042	0.0180728
718.120	0.0179878
718.198	0.0182265
718.276	0.0182122
718.354	0.0181911
718.433	0.0180884
718.511	0.0181644
718.589	0.0183532
718.667	0.0183121
718.745	0.0183263
718.823	0.0183958
718.901	0.0184886
718.979	0.0186591
719.058	0.0184979
719.136	0.0184875
719.214	0.0186396
719.292	0.0187003
719.370	0.0189194
719.448	0.0188455
719.526	0.0187929
719.604	0.0188007
719.683	0.0186115
719.761	0.0185527
719.839	0.0185886
719.917	0.0184011
719.995	0.0182745
720.073	0.0179814
720.151	0.0180578
720.229	0.0178728
720.308	0.0176903
720.386	0.0176007
720.464	0.0175018
720.542	0.0173872
720.620	0.0172189
720.698	0.0172104
720.776	0.0171831
720.854	0.0171758
720.933	0.0171442
721.011	0.0170382
721.089	0.0171194
721.167	0.0168806
721.245	0.0170782
721.323	0.0169769
721.401	0.0170505
721.479	0.0170310
721.558	0.0169803
721.636	0.0169511
721.714	0.0171307
721.792	0.0171291
721.870	0.0172065
721.948	0.0173554
722.026	0.0175176
722.104	0.0174526
722.183	0.0176772
722.261	0.0178452
722.339	0.0180759
722.417	0.0178579
722.495	0.0181283
722.573	0.0181396
722.651	0.0182798
722.729	0.0183684
722.808	0.0182599
722.886	0.0183959
722.964	0.0184782
723.042	0.0183490
723.120	0.0184463
723.198	0.0183601
723.276	0.0184142
723.354	0.0184136
723.433	0.0183952
723.511	0.0185404
723.589	0.0185464
723.667	0.0186472
723.745	0.0187477
723.823	0.0186189
723.901	0.0186308
723.979	0.0187024
724.058	0.0185165
724.136	0.0183665
724.214	0.0183247
724.292	0.0181970
724.370	0.0179268
724.448	0.0178518
724.526	0.0177407
724.604	0.0175807
724.683	0.0174828
724.761	0.0172933
724.839	0.0173058
724.917	0.0172580
724.995	0.0172169
725.073	0.0171481
725.151	0.0172826
725.229	0.0171865
725.308	0.0173225
725.386	0.0174476
725.464	0.0174744
725.542	0.0176799
725.620	0.0177312
725.698	0.0178703
725.776	0.0179473
725.854	0.0179896
725.933	0.0180258
726.011	0.0181578
726.089	0.0182191
726.167	0.0182258
726.245	0.0183179
726.323	0.0183582
726.401	0.0183122
726.479	0.0181206
726.558	0.0182838
726.636	0.0182838
726.714	0.0180700
726.792	0.0180305
726.870	0.0181059
726.948	0.0180754
727.026	0.0178583
727.104	0.0178084
727.183	0.0178183
727.261	0.0178577
727.339	0.0177399
727.417	0.0179001
727.495	0.0179138
727.573	0.0179455
727.651	0.0179430
727.729	0.0179782
727.808	0.0181183
727.886	0.0182551
727.964	0.0182597
728.042	0.0183295
728.120	0.0181750
728.198	0.0183257
728.276	0.0181296
728.354	0.0182024
728.433	0.0181683
728.511	0.0180623
728.589	0.0179806
728.667	0.0178031
728.745	0.0176893
728.823	0.0177589
728.901	0.0176206
728.979	0.0175907
729.058	0.0175202
729.136	0.0174538
729.214	0.0175395
729.292	0.0175313
729.370	0.0174225
729.448	0.0172449
729.526	0.0173648
729.604	0.0172565
729.683	0.0171036
729.761	0.0171268
729.839	0.0171571
729.917	0.0170322
729.995	0.0169743
730.073	0.0169765
730.151	0.0171242
730.229	0.0171398
730.308	0.0170115
730.386	0.0171674
730.464	0.0174869
730.542	0.0175072
730.620	0.0176653
730.698	0.0177348
730.776	0.0178329
730.854	0.0181364
730.933	0.0181518
731.011	0.0181139
731.089	0.0181226
731.167	0.0182898
731.245	0.0182640
731.323	0.0183490
731.401	0.0183771
731.479	0.0184280
731.558	0.0183689
731.636	0.0184382
731.714	0.0185580
731.792	0.0185355
731.870	0.0186119
731.948	0.0187077
732.026	0.0187386
732.104	0.0186798
732.183	0.0185802
732.261	0.0185221
732.339	0.0186909
732.417	0.0188175
732.495	0.0187433
732.573	0.0187849
732.651	0.0187280
732.729	0.0186227
732.808	0.0186687
732.886	0.0186051
732.964	0.0185485
733.042	0.0184167
733.120	0.0182441
733.198	0.0182850
733.276	0.0180131
733.354	0.0181141
733.433	0.0179854
733.511	0.0179086
733.589	0.0176718
733.667	0.0176144
733.745	0.0176069
733.823	0.0175026
733.901	0.0172742
733.979	0.0172187
734.058	0.0171387
734.136	0.0171510
734.214	0.0171358
734.292	0.0170734
734.370	0.0170737
734.448	0.0170723
734.526	0.0169459
734.604	0.0170745
734.683	0.0170718
734.761	0.0170630
734.839	0.0171500
734.917	0.0171422
734.995	0.0171516
735.073	0.0173959
735.151	0.0174098
735.229	0.0174361
735.308	0.0175399
735.386	0.0175048
735.464	0.0176791
735.542	0.0177387
735.620	0.0177113
735.698	0.0177445
735.776	0.0178403
735.854	0.0179128
735.933	0.0177859
736.011	0.0177962
736.089	0.0178082
736.167	0.0178873
736.245	0.0179137
736.323	0.0180035
736.401	0.0180905
736.479	0.0180644
736.558	0.0180006
736.636	0.0179921
736.714	0.0182709
736.792	0.0181741
736.870	0.0182188
736.948	0.0183214
737.026	0.0184975
737.104	0.0184308
737.183	0.0183961
737.261	0.0184065
737.339	0.0184863
737.417	0.0184645
737.495	0.0185713
737.573	0.0184392
737.651	0.0183851
737.729	0.0185258
737.808	0.0185062
737.886	0.0183611
737.964	0.0183374
738.042	0.0183074
738.120	0.0184279
738.198	0.0182996
738.276	0.0182808
738.354	0.0182730
738.433	0.0181313
738.511	0.0181529
738.589	0.0181348
738.667	0.0181039
738.745	0.0179831
738.823	0.0180904
738.901	0.0180365
738.979	0.0179451
739.058	0.0178716
739.136	0.0178689
739.214	0.0177180
739.292	0.0177843
739.370	0.0178133
739.448	0.0177509
739.526	0.0177517
739.604	0.0176667
739.683	0.0176154
739.761	0.0177243
739.839	0.0177038
739.917	0.0176361
739.995	0.0175657
740.073	0.0175387
740.151	0.0176206
740.229	0.0174055
740.308	0.0173899
740.386	0.0176774
740.464	0.0173452
740.542	0.0173413
740.620	0.0175339
740.698	0.0173937
740.776	0.0176251
740.854	0.0176901
740.933	0.0176012
741.011	0.0177750
741.089	0.0178423
741.167	0.0177844
741.245	0.0179104
741.323	0.0181119
741.401	0.0182449
741.479	0.0182700
741.558	0.0184479
741.636	0.0184645
741.714	0.0183794
741.792	0.0184228
741.870	0.0185452
741.948	0.0184136
742.026	0.0182334
742.104	0.0183232
742.183	0.0183170
742.261	0.0183203
742.339	0.0181348
742.417	0.0179812
742.495	0.0178529
742.573	0.0179973
742.651	0.0178635
742.729	0.0178508
742.808	0.0178522
742.886	0.0177373
742.964	0.0177358
743.042	0.0176865
743.120	0.0175000
743.198	0.0175330
743.276	0.0176132
743.354	0.0175194
743.433	0.0175742
743.511	0.0176385
743.589	0.0175473
743.667	0.0173898
743.745	0.0175889
743.823	0.0175455
743.901	0.0175047
743.979	0.0176228
744.058	0.0173995
744.136	0.0174195
744.214	0.0174902
744.292	0.0174397
744.370	0.0177041
744.448	0.0176434
744.526	0.0175643
744.604	0.0174792
744.683	0.0176491
744.761	0.0177067
744.839	0.0176806
744.917	0.0176557
744.995	0.0178574
745.073	0.0179707
745.151	0.0178425
745.229	0.0178730
745.308	0.0179891
745.386	0.0180787
745.464	0.0180521
745.542	0.0180805
745.620	0.0181115
745.698	0.0179282
745.776	0.0183710
745.854	0.0183083
745.933	0.0182361
746.011	0.0184998
746.089	0.0185145
746.167	0.0184867
746.245	0.0184559
746.323	0.0185179
746.401	0.0183414
746.479	0.0184183
746.558	0.0185419
746.636	0.0185114
746.714	0.0184931
746.792	0.0184192
746.870	0.0183170
746.948	0.0183669
747.026	0.0183828
747.104	0.0183406
747.183	0.0181205
747.261	0.0180724
747.339	0.0182114
747.417	0.0181297
747.495	0.0179926
747.573	0.0180624
747.651	0.0179970
747.729	0.0178864
747.808	0.0178043
747.886	0.0177666
747.964	0.0178007
748.042	0.0176709
748.120	0.0175464
748.198	0.0175362
748.276	0.0174960
748.354	0.0175159
748.433	0.0173995
748.511	0.0173224
748.589	0.0172647
748.667	0.0173030
748.745	0.0172099
748.823	0.0172504
748.901	0.0170432
748.979	0.0171636
749.058	0.0170819
749.136	0.0171043
749.214	0.0173647
749.292	0.0170903
749.370	0.0172655
749.448	0.0172909
749.526	0.0171778
749.604	0.0173942
749.683	0.0174716
749.761	0.0175643
749.839	0.0176820
749.917	0.0176794
749.995	0.0176959
750.073	0.0178028
750.151	0.0178191
750.229	0.0178711
750.308	0.0179495
750.386	0.0180394
750.464	0.0179205
750.542	0.0179717
750.620	0.0182023
750.698	0.0180728
750.776	0.0180932
750.854	0.0180390
750.933	0.0180862
751.011	0.0183024
751.089	0.0182738
751.167	0.0184034
751.245	0.0183432
751.323	0.0183754
751.401	0.0184760
751.479	0.0186794
751.558	0.0187154
751.636	0.0187563
751.714	0.0186289
751.792	0.0187537
751.870	0.0186625
751.948	0.0186840
752.026	0.0187707
752.104	0.0186345
752.183	0.0185445
752.261	0.0185030
752.339	0.0182948
752.417	0.0181750
752.495	0.0182058
752.573	0.0182432
752.651	0.0180009
752.729	0.0181593
752.808	0.0179758
752.886	0.0178407
752.964	0.0178796
753.042	0.0176917
753.120	0.0178048
753.198	0.0177302
753.276	0.0176868
753.354	0.0176473
753.433	0.0177612
753.511	0.0175572
753.589	0.0174580
753.667	0.0174674
753.745	0.0176682
753.823	0.0175833
753.901	0.0173478
753.979	0.0173534
754.058	0.0174789
754.136	0.0174716
754.214	0.0174244
754.292	0.0174516
754.370	0.0174934
754.448	0.0174550
754.526	0.0173608
754.604	0.0175603
754.683	0.0176064
754.761	0.0175718
754.839	0.0175896
754.917	0.0176853
754.995	0.0176635
755.073	0.0177126
755.151	0.0177211
755.229	0.0177383
755.308	0.0177395
755.386	0.0177960
755.464	0.0176918
755.542	0.0177216
755.620	0.0178365
755.698	0.0178396
755.776	0.0179076
755.854	0.0179167
755.933	0.0177090
756.011	0.0178012
756.089	0.0179211
756.167	0.0178815
756.245	0.0179050
756.323	0.0179244
756.401	0.0178657
756.479	0.0177379
756.558	0.0179599
756.636	0.0178864
756.714	0.0177696
756.792	0.0177610
756.870	0.0179523
756.948	0.0179472
757.026	0.0178595
757.104	0.0180616
757.183	0.0180975
757.261	0.0180000
757.339	0.0180742
757.417	0.0180453
757.495	0.0181739
757.573	0.0183143
757.651	0.0183360
757.729	0.0182711
757.808	0.0183549
757.886	0.0183917
757.964	0.0182691
758.042	0.0181639
758.120	0.0182825
758.198	0.0182064
758.276	0.0182744
758.354	0.0182927
758.433	0.0182579
758.511	0.0181454
758.589	0.0180633
758.667	0.0182122
758.745	0.0182541
758.823	0.0182745
758.901	0.0182058
758.979	0.0182800
759.058	0.0182633
759.136	0.0182253
759.214	0.0181487
759.292	0.0181782
759.370	0.0182525
759.448	0.0180272
759.526	0.0179435
759.604	0.0179932
759.683	0.0177998
759.761	0.0177624
759.839	0.0177628
759.917	0.0177031
759.995	0.0178124
760.073	0.0178018
760.151	0.0176968
760.229	0.0177016
760.308	0.0176907
760.386	0.0176979
760.464	0.0177476
760.542	0.0177032
760.620	0.0176024
760.698	0.0176435
760.776	0.0176753
760.854	0.0177433
760.933	0.0177762
761.011	0.0177051
761.089	0.0176241
761.167	0.0177207
761.245	0.0177816
761.323	0.0177279
761.401	0.0176997
761.479	0.0176446
761.558	0.0178423
761.636	0.0177676
761.714	0.0176639
761.792	0.0176194
761.870	0.0177425
761.948	0.0178733
762.026	0.0177312
762.104	0.0178275
762.183	0.0179028
762.261	0.0179349
762.339	0.0178430
762.417	0.0178156
762.495	0.0180784
762.573	0.0180575
762.651	0.0181277
762.729	0.0180392
762.808	0.0180205
762.886	0.0181110
762.964	0.0178963
763.042	0.0180443
763.120	0.0180096
763.198	0.0180034
763.276	0.0180782
763.354	0.0180847
763.433	0.0180523
763.511	0.0180916
763.589	0.0182244
763.667	0.0181749
763.745	0.0180344
763.823	0.0182169
763.901	0.0180966
763.979	0.0180962
764.058	0.0180820
764.136	0.0180967
764.214	0.0179459
764.292	0.0181332
764.370	0.0180988
764.448	0.0179771
764.526	0.0180166
764.604	0.0180246
764.683	0.0181055
764.761	0.0180845
764.839	0.0181151
764.917	0.0180570
764.995	0.0181508
765.073	0.0182202
765.151	0.0180766
765.229	0.0180167
765.308	0.0180141
765.386	0.0179594
765.464	0.0180083
765.542	0.0179395
765.620	0.0180066
765.698	0.0178791
765.776	0.0177522
765.854	0.0176559
765.933	0.0177411
766.011	0.0176800
766.089	0.0175990
766.167	0.0175426
766.245	0.0177296
766.323	0.0176711
766.401	0.0176077
766.479	0.0176337
766.558	0.0176184
766.636	0.0176913
766.714	0.0179206
766.792	0.0177736
766.870	0.0179570
766.948	0.0180679
767.026	0.0180045
767.104	0.0181188
767.183	0.0183990
767.261	0.0182763
767.339	0.0182886
767.417	0.0184224
767.495	0.0183973
767.573	0.0182556
767.651	0.0185985
767.729	0.0182999
767.808	0.0182521
767.886	0.0182777
767.964	0.0182670
768.042	0.0181499
768.120	0.0180986
768.198	0.0180707
768.276	0.0180933
768.354	0.0179356
768.433	0.0178284
768.511	0.0178325
768.589	0.0178168
768.667	0.0176467
768.745	0.0175396
768.823	0.0173994
768.901	0.0174849
768.979	0.0174521
769.058	0.0174893
769.136	0.0175253
769.214	0.0174756
769.292	0.0174476
769.370	0.0174342
769.448	0.0174354
769.526	0.0174879
769.604	0.0176337
769.683	0.0175116
769.761	0.0175274
769.839	0.0176810
769.917	0.0176136
769.995	0.0176577
770.073	0.0177632
770.151	0.0177157
770.229	0.0175888
770.308	0.0175500
770.386	0.0177721
770.464	0.0176656
770.542	0.0176620
770.620	0.0179304
770.698	0.0177709
770.776	0.0178068
770.854	0.0179478
770.933	0.0180188
771.011	0.0179852
771.089	0.0178442
771.167	0.0180919
771.245	0.0180004
771.323	0.0179768
771.401	0.0179891
771.479	0.0180248
771.558	0.0179895
771.636	0.0181879
771.714	0.0180878
771.792	0.0180470
771.870	0.0181171
771.948	0.0180115
772.026	0.0180038
772.104	0.0182341
772.183	0.0181466
772.261	0.0180499
772.339	0.0181220
772.417	0.0181001
772.495	0.0180679
772.573	0.0182029
772.651	0.0181699
772.729	0.0179816
772.808	0.0180318
772.886	0.0180573
772.964	0.0182432
773.042	0.0180843
773.120	0.0180664
773.198	0.0179614
773.276	0.0181554
773.354	0.0180280
773.433	0.0180920
773.511	0.0179504
773.589	0.0179537
773.667	0.0180952
773.745	0.0180582
773.823	0.0181222
773.901	0.0179613
773.979	0.0180373
774.058	0.0180633
774.136	0.0179752
774.214	0.0181013
774.292	0.0180640
774.370	0.0176326
774.448	0.0179511
774.526	0.0178215
774.604	0.0177081
774.683	0.0177259
774.761	0.0176742
774.839	0.0175410
774.917	0.0176135
774.995	0.0174046
775.073	0.0174594
775.151	0.0174570
775.229	0.0175244
775.308	0.0175665
775.386	0.0177180
775.464	0.0177502
775.542	0.0176838
775.620	0.0177628
775.698	0.0177941
775.776	0.0177327
775.854	0.0179660
775.933	0.0178685
776.011	0.0178720
776.089	0.0177802
776.167	0.0179112
776.245	0.0177499
776.323	0.0177062
776.401	0.0177010
776.479	0.0176143
776.558	0.0178559
776.636	0.0176872
776.714	0.0177588
776.792	0.0176766
776.870	0.0176392
776.948	0.0176583
777.026	0.0176208
777.104	0.0175262
777.183	0.0176517
777.261	0.0176742
777.339	0.0176630
777.417	0.0178297
777.495	0.0177398
777.573	0.0177477
777.651	0.0177693
777.729	0.0176916
777.808	0.0178405
777.886	0.0178886
777.964	0.0178784
778.042	0.0179813
778.120	0.0179788
778.198	0.0179689
778.276	0.0179958
778.354	0.0181799
778.433	0.0181232
778.511	0.0183018
778.589	0.0181707
778.667	0.0182604
778.745	0.0182927
778.823	0.0182919
778.901	0.0182790
778.979	0.0184834
779.058	0.0183385
779.136	0.0180972
779.214	0.0181522
779.292	0.0182630
779.370	0.0183164
779.448	0.0181264
779.526	0.0179812
779.604	0.0181481
779.683	0.0179427
779.761	0.0180598
779.839	0.0179517
779.917	0.0179694
779.995	0.0179507
780.073	0.0180154
780.151	0.0179099
780.229	0.0179819
780.308	0.0180247
780.386	0.0179259
780.464	0.0178735
780.542	0.0179065
780.620	0.0179412
780.698	0.0179470
780.776	0.0180166
780.854	0.0180711
780.933	0.0179163
781.011	0.0179186
781.089	0.0179803
781.167	0.0179257
781.245	0.0179514
781.323	0.0179801
781.401	0.0178119
781.479	0.0178148
781.558	0.0178449
781.636	0.0177347
781.714	0.0178406
781.792	0.0175645
781.870	0.0176327
781.948	0.0176587
782.026	0.0177084
782.104	0.0178082
782.183	0.0176855
782.261	0.0177414
782.339	0.0177090
782.417	0.0176256
782.495	0.0178615
782.573	0.0177560
782.651	0.0179082
782.729	0.0178864
782.808	0.0178867
782.886	0.0180373
782.964	0.0180218
783.042	0.0179700
783.120	0.0178397
783.198	0.0179478
783.276	0.0179301
783.354	0.0179037
783.433	0.0179571
783.511	0.0180067
783.589	0.0179794
783.667	0.0179685
783.745	0.0179002
783.823	0.0179111
783.901	0.0180033
783.979	0.0180618
784.058	0.0180211
784.136	0.0180957
784.214	0.0180517
784.292	0.0180518
784.370	0.0180575
784.448	0.0180723
784.526	0.0181215
784.604	0.0181197
784.683	0.0181676
784.761	0.0180049
784.839	0.0181670
784.917	0.0180951
784.995	0.0180828
785.073	0.0181638
785.151	0.0180694
785.229	0.0181454
785.308	0.0181412
785.386	0.0181052
785.464	0.0181548
785.542	0.0181182
785.620	0.0180753
785.698	0.0179900
785.776	0.0178995
785.854	0.0178486
785.933	0.0178428
786.011	0.0178144
786.089	0.0176241
786.167	0.0176273
786.245	0.0178025
786.323	0.0178521
786.401	0.0178327
786.479	0.0179389
786.558	0.0177470
786.636	0.0177179
786.714	0.0178311
786.792	0.0178613
786.870	0.0179957
786.948	0.0180089
787.026	0.0180165
787.104	0.0179739
787.183	0.0179802
787.261	0.0179776
787.339	0.0180027
787.417	0.0180495
787.495	0.0181017
787.573	0.0179209
787.651	0.0180502
787.729	0.0180614
787.808	0.0179338
787.886	0.0180193
787.964	0.0179352
788.042	0.0178671
788.120	0.0180560
788.198	0.0178304
788.276	0.0177046
788.354	0.0179390
788.433	0.0178719
788.511	0.0178040
788.589	0.0177921
788.667	0.0176702
788.745	0.0178635
788.823	0.0178764
788.901	0.0177106
788.979	0.0177630
789.058	0.0177942
789.136	0.0177950
789.214	0.0177722
789.292	0.0178062
789.370	0.0179996
789.448	0.0178629
789.526	0.0180666
789.604	0.0180064
789.683	0.0180788
789.761	0.0180857
789.839	0.0180817
789.917	0.0182038
789.995	0.0180111
790.073	0.0180904
790.151	0.0179609
790.229	0.0179922
790.308	0.0179631
790.386	0.0180071
790.464	0.0179555
790.542	0.0179147
790.620	0.0179501
790.698	0.0178735
790.776	0.0178388
790.854	0.0177186
790.933	0.0178578
791.011	0.0178582
791.089	0.0178804
791.167	0.0179584
791.245	0.0179778
791.323	0.0180191
791.401	0.0181490
791.479	0.0181761
791.558	0.0181440
791.636	0.0181463
791.714	0.0182727
791.792	0.0181742
791.870	0.0181623
791.948	0.0181276
792.026	0.0180248
792.104	0.0179942
792.183	0.0179482
792.261	0.0179161
792.339	0.0179340
792.417	0.0177788
792.495	0.0177826
792.573	0.0177440
792.651	0.0177944
792.729	0.0178474
792.808	0.0176515
792.886	0.0177140
792.964	0.0175925
793.042	0.0176965
793.120	0.0176444
793.198	0.0176015
793.276	0.0176858
793.354	0.0176507
793.433	0.0177579
793.511	0.0178115
793.589	0.0177449
793.667	0.0176783
793.745	0.0178867
793.823	0.0179369
793.901	0.0179145
793.979	0.0180318
794.058	0.0181541
794.136	0.0179922
794.214	0.0182052
794.292	0.0180904
794.370	0.0181042
794.448	0.0180755
794.526	0.0180073
794.604	0.0180602
794.683	0.0179863
794.761	0.0178243
794.839	0.0177097
794.917	0.0177692
794.995	0.0175981
795.073	0.0176391
795.151	0.0177417
795.229	0.0176663
795.308	0.0176551
795.386	0.0177544
795.464	0.0177380
795.542	0.0178714
795.620	0.0180080
795.698	0.0178101
795.776	0.0178622
795.854	0.0181474
795.933	0.0180441
796.011	0.0181453
796.089	0.0181694
796.167	0.0182242
796.245	0.0181406
796.323	0.0183263
796.401	0.0181796
796.479	0.0181495
796.558	0.0181455
796.636	0.0180515
796.714	0.0179427
796.792	0.0178829
796.870	0.0179911
796.948	0.0177693
797.026	0.0179499
797.104	0.0179574
797.183	0.0177802
797.261	0.0178522
797.339	0.0178922
797.417	0.0180157
797.495	0.0179930
797.573	0.0180753
797.651	0.0181574
797.729	0.0180872
797.808	0.0182515
797.886	0.0181511
797.964	0.0181348
798.042	0.0182550
798.120	0.0182403
798.198	0.0183771
798.276	0.0182238
798.354	0.0181833
798.433	0.0180441
798.511	0.0180737
798.589	0.0179338
798.667	0.0178992
798.745	0.0178400
798.823	0.0178233
798.901	0.0175657
798.979	0.0176185
799.058	0.0175146
799.136	0.0174774
799.214	0.0175562
799.292	0.0175736
799.370	0.0177067
799.448	0.0175182
799.526	0.0175420
799.604	0.0175256
799.683	0.0176012
799.761	0.0176867
799.839	0.0177187
799.917	0.0177454
799.995	0.0178586
800.073	0.0178796
800.151	0.0181065
800.229	0.0179832
800.308	0.0181273
800.386	0.0181361
800.464	0.0180650
800.542	0.0182515
800.620	0.0181757
800.698	0.0182642
800.776	0.0181612
800.854	0.0181004
800.933	0.0181304
801.011	0.0181726
801.089	0.0181385
801.167	0.0180735
801.245	0.0179865
801.323	0.0180418
801.401	0.0180936
801.479	0.0179454
801.558	0.0178016
801.636	0.0179137
801.714	0.0179109
801.792	0.0177398
801.870	0.0176791
801.948	0.0178130
802.026	0.0178794
802.104	0.0177923
802.183	0.0177682
802.261	0.0177897
802.339	0.0178786
802.417	0.0178881
802.495	0.0178125
802.573	0.0178405
802.651	0.0178814
802.729	0.0178858
802.808	0.0178941
802.886	0.0180770
802.964	0.0181246
803.042	0.0181747
803.120	0.0180813
803.198	0.0179165
803.276	0.0180731
803.354	0.0181149
803.433	0.0180210
803.511	0.0180214
803.589	0.0180412
803.667	0.0179234
803.745	0.0181000
803.823	0.0180420
803.901	0.0180520
803.979	0.0180492
804.058	0.0180475
804.136	0.0180668
804.214	0.0181483
804.292	0.0181745
804.370	0.0181339
804.448	0.0182639
804.526	0.0181762
804.604	0.0182461
804.683	0.0181599
804.761	0.0180107
804.839	0.0181265
804.917	0.0180344
804.995	0.0179766
805.073	0.0179089
805.151	0.0178982
805.229	0.0177892
805.308	0.0177502
805.386	0.0177069
805.464	0.0175874
805.542	0.0175782
805.620	0.0175261
805.698	0.0174036
805.776	0.0174964
805.854	0.0175739
805.933	0.0177372
806.011	0.0176345
806.089	0.0175592
806.167	0.0177908
806.245	0.0176852
806.323	0.0177842
806.401	0.0178469
806.479	0.0181018
806.558	0.0181083
806.636	0.0180508
806.714	0.0181809
806.792	0.0182374
806.870	0.0182845
806.948	0.0183650
807.026	0.0182404
807.104	0.0180895
807.183	0.0183049
807.261	0.0183858
807.339	0.0182499
807.417	0.0183249
807.495	0.0180809
807.573	0.0182172
807.651	0.0182017
807.729	0.0181171
807.808	0.0180647
807.886	0.0180090
807.964	0.0180582
808.042	0.0179765
808.120	0.0179606
808.198	0.0177306
808.276	0.0177061
808.354	0.0177906
808.433	0.0176772
808.511	0.0176550
808.589	0.0177496
808.667	0.0176398
808.745	0.0176876
808.823	0.0177964
808.901	0.0177653
808.979	0.0177865
809.058	0.0179542
809.136	0.0180181
809.214	0.0179773
809.292	0.0178587
809.370	0.0180184
809.448	0.0179675
809.526	0.0180409
809.604	0.0181413
809.683	0.0180620
809.761	0.0180920
809.839	0.0179261
809.917	0.0181300
809.995	0.0180096
810.073	0.0182117
810.151	0.0181007
810.229	0.0180215
810.308	0.0179758
810.386	0.0179125
810.464	0.0180444
810.542	0.0179836
810.620	0.0180981
810.698	0.0179572
810.776	0.0181107
810.854	0.0180871
810.933	0.0181060
811.011	0.0181804
811.089	0.0180988
811.167	0.0180334
811.245	0.0181224
811.323	0.0179696
811.401	0.0179587
811.479	0.0179685
811.558	0.0180560
811.636	0.0178969
811.714	0.0177464
811.792	0.0177547
811.870	0.0174952
811.948	0.0175835
812.026	0.0177493
812.104	0.0175406
812.183	0.0175124
812.261	0.0175766
812.339	0.0175926
812.417	0.0176244
812.495	0.0175724
812.573	0.0175931
812.651	0.0177599
812.729	0.0176596
812.808	0.0176245
812.886	0.0177267
812.964	0.0179391
813.042	0.0178314
813.120	0.0178986
813.198	0.0179288
813.276	0.0181444
813.354	0.0180654
813.433	0.0180770
813.511	0.0181577
813.589	0.0181022
813.667	0.0181620
813.745	0.0181567
813.823	0.0180665
813.901	0.0180013
813.979	0.0181422
814.058	0.0182256
814.136	0.0180006
814.214	0.0180927
814.292	0.0181090
814.370	0.0180738
814.448	0.0180332
814.526	0.0179372
814.604	0.0177927
814.683	0.0178499
814.761	0.0178858
814.839	0.0178475
814.917	0.0178262
814.995	0.0177119
815.073	0.0177453
815.151	0.0176868
815.229	0.0177039
815.308	0.0176313
815.386	0.0177445
815.464	0.0179774
815.542	0.0179564
815.620	0.0178877
815.698	0.0177074
815.776	0.0177816
815.854	0.0179355
815.933	0.0179012
816.011	0.0179483
816.089	0.0180251
816.167	0.0180248
816.245	0.0180466
816.323	0.0179739
816.401	0.0180125
816.479	0.0181099
816.558	0.0180409
816.636	0.0179417
816.714	0.0179767
816.792	0.0180540
816.870	0.0179833
816.948	0.0179260
817.026	0.0179981
817.104	0.0179770
817.183	0.0180463
817.261	0.0180016
817.339	0.0179730
817.417	0.0179616
817.495	0.0179665
817.573	0.0179255
817.651	0.0180462
817.729	0.0180589
817.808	0.0180307
817.886	0.0181019
817.964	0.0179368
818.042	0.0177448
818.120	0.0176653
818.198	0.0177850
818.276	0.0176810
818.354	0.0177478
818.433	0.0175268
818.511	0.0175350
818.589	0.0174310
818.667	0.0174963
818.745	0.0174496
818.823	0.0174784
818.901	0.0174597
818.979	0.0174603
819.058	0.0174373
819.136	0.0175634
819.214	0.0174659
819.292	0.0173461
819.370	0.0176403
819.448	0.0176505
819.526	0.0177221
819.604	0.0177740
819.683	0.0179974
819.761	0.0178266
819.839	0.0180121
819.917	0.0180774
819.995	0.0181640
820.073	0.0181839
820.151	0.0181158
820.229	0.0181950
820.308	0.0182829
820.386	0.0181828
820.464	0.0182042
820.542	0.0183313
820.620	0.0181129
820.698	0.0180626
820.776	0.0181869
820.854	0.0180958
820.933	0.0180618
821.011	0.0180289
821.089	0.0180325
821.167	0.0180103
821.245	0.0178763
821.323	0.0178375
821.401	0.0179173
821.479	0.0178571
821.558	0.0176453
821.636	0.0177990
821.714	0.0177071
821.792	0.0177213
821.870	0.0178470
821.948	0.0176794
822.026	0.0177498
822.104	0.0176735
822.183	0.0179274
822.261	0.0178444
822.339	0.0178265
822.417	0.0178025
822.495	0.0177684
822.573	0.0178526
822.651	0.0178829
822.729	0.0180518
822.808	0.0179771
822.886	0.0179118
822.964	0.0179285
823.042	0.0180753
823.120	0.0179827
823.198	0.0181133
823.276	0.0179643
823.354	0.0180786
823.433	0.0180257
823.511	0.0180871
823.589	0.0180145
823.667	0.0179695
823.745	0.0181201
823.823	0.0180152
823.901	0.0179840
823.979	0.0180486
824.058	0.0181802
824.136	0.0181317
824.214	0.0181487
824.292	0.0180013
824.370	0.0180856
824.448	0.0181496
824.526	0.0179642
824.604	0.0179917
824.683	0.0179147
824.761	0.0179173
824.839	0.0179128
824.917	0.0178589
824.995	0.0177683
825.073	0.0177039
825.151	0.0177865
825.229	0.0177917
825.308	0.0177080
825.386	0.0175166
825.464	0.0175933
825.542	0.0177045
825.620	0.0176915
825.698	0.0175917
825.776	0.0176894
825.854	0.0176677
825.933	0.0177679
826.011	0.0177172
826.089	0.0176804
826.167	0.0177524
826.245	0.0179212
826.323	0.0180563
826.401	0.0177740
826.479	0.0177757
826.558	0.0180498
826.636	0.0180510
826.714	0.0179766
826.792	0.0180230
826.870	0.0182161
826.948	0.0181386
827.026	0.0181321
827.104	0.0181997
827.183	0.0180406
827.261	0.0181377
827.339	0.0180710
827.417	0.0180608
827.495	0.0179118
827.573	0.0180406
827.651	0.0180630
827.729	0.0180770
827.808	0.0178818
827.886	0.0178647
827.964	0.0180347
828.042	0.0180846
828.120	0.0178570
828.198	0.0177965
828.276	0.0179049
828.354	0.0180138
828.433	0.0180245
828.511	0.0179473
828.589	0.0180862
828.667	0.0180818
828.745	0.0180254
828.823	0.0179913
828.901	0.0180647
828.979	0.0179692
829.058	0.0179795
829.136	0.0178640
829.214	0.0181846
829.292	0.0180714
829.370	0.0178453
829.448	0.0181216
829.526	0.0181444
829.604	0.0179179
829.683	0.0180746
829.761	0.0180299
829.839	0.0181676
829.917	0.0180544
829.995	0.0180517
830.073	0.0182389
830.151	0.0180611
830.229	0.0180223
830.308	0.0180350
830.386	0.0180350
830.464	0.0180910
830.542	0.0180267
830.620	0.0179321
830.698	0.0180076
830.776	0.0180915
830.854	0.0180054
830.933	0.0180591
831.011	0.0179875
831.089	0.0180296
831.167	0.0178720
831.245	0.0178779
831.323	0.0179388
831.401	0.0177859
831.479	0.0177821
831.558	0.0178925
831.636	0.0177258
831.714	0.0177591
831.792	0.0177962
831.870	0.0177289
831.948	0.0178557
832.026	0.0176512
832.104	0.0176851
832.183	0.0176837
832.261	0.0176019
832.339	0.0176434
832.417	0.0176699
832.495	0.0177168
832.573	0.0178186
832.651	0.0177266
832.729	0.0177870
832.808	0.0178857
832.886	0.0178762
832.964	0.0177287
833.042	0.0179868
833.120	0.0180492
833.198	0.0180165
833.276	0.0180552
833.354	0.0180637
833.433	0.0181992
833.511	0.0180872
833.589	0.0181783
833.667	0.0181519
833.745	0.0181395
833.823	0.0180125
833.901	0.0181565
833.979	0.0181580
834.058	0.0180172
834.136	0.0181657
834.214	0.0182367
834.292	0.0180570
834.370	0.0181458
834.448	0.0181604
834.526	0.0181741
834.604	0.0178958
834.683	0.0179339
834.761	0.0178611
834.839	0.0179702
834.917	0.0179214
834.995	0.0179001
835.073	0.0179546
835.151	0.0178764
835.229	0.0178922
835.308	0.0178758
835.386	0.0177772
835.464	0.0176232
835.542	0.0178049
835.620	0.0177654
835.698	0.0176916
835.776	0.0177280
835.854	0.0176117
835.933	0.0177229
836.011	0.0176912
836.089	0.0176433
836.167	0.0176002
836.245	0.0176733
836.323	0.0177428
836.401	0.0178465
836.479	0.0179468
836.558	0.0177476
836.636	0.0179748
836.714	0.0179819
836.792	0.0179290
836.870	0.0179383
836.948	0.0179623
837.026	0.0181176
837.104	0.0181194
837.183	0.0179705
837.261	0.0180525
837.339	0.0181480
837.417	0.0179080
837.495	0.0180731
837.573	0.0180608
837.651	0.0181777
837.729	0.0179815
837.808	0.0179827
837.886	0.0180420
837.964	0.0181657
838.042	0.0180373
838.120	0.0180592
838.198	0.0179719
838.276	0.0179832
838.354	0.0179541
838.433	0.0180127
838.511	0.0181094
838.589	0.0178838
838.667	0.0178032
838.745	0.0177680
838.823	0.0177522
838.901	0.0178823
838.979	0.0176394
839.058	0.0177190
839.136	0.0175797
839.214	0.0176493
839.292	0.0177119
839.370	0.0177392
839.448	0.0175297
839.526	0.0176622
839.604	0.0178349
839.683	0.0177651
839.761	0.0176858
839.839	0.0177906
839.917	0.0177879
839.995	0.0178796
840.073	0.0179808
840.151	0.0179628
840.229	0.0179285
840.308	0.0179173
840.386	0.0178583
840.464	0.0178809
840.542	0.0178260
840.620	0.0180828
840.698	0.0179709
840.776	0.0178069
840.854	0.0179273
840.933	0.0180273
841.011	0.0179034
841.089	0.0179430
841.167	0.0180048
841.245	0.0179750
841.323	0.0180610
841.401	0.0178924
841.479	0.0179272
841.558	0.0179555
841.636	0.0179071
841.714	0.0179365
841.792	0.0179610
841.870	0.0179208
841.948	0.0179140
842.026	0.0177260
842.104	0.0178976
842.183	0.0180062
842.261	0.0177913
842.339	0.0178396
842.417	0.0179015
842.495	0.0177946
842.573	0.0178381
842.651	0.0177121
842.729	0.0178060
842.808	0.0179471
842.886	0.0178558
842.964	0.0178635
843.042	0.0178918
843.120	0.0178738
843.198	0.0179327
843.276	0.0180642
843.354	0.0181344
843.433	0.0179118
843.511	0.0179720
843.589	0.0180679
843.667	0.0179279
843.745	0.0179441
843.823	0.0179449
843.901	0.0179605
843.979	0.0178516
844.058	0.0178783
844.136	0.0178507
844.214	0.0177536
844.292	0.0179966
844.370	0.0177740
844.448	0.0178002
844.526	0.0178339
844.604	0.0177132
844.683	0.0178135
844.761	0.0179425
844.839	0.0178596
844.917	0.0179171
844.995	0.0178841
845.073	0.0179241
845.151	0.0178732
845.229	0.0179126
845.308	0.0177746
845.386	0.0178526
845.464	0.0176742
845.542	0.0178920
845.620	0.0177588
845.698	0.0177340
845.776	0.0177206
845.854	0.0177184
845.933	0.0177271
846.011	0.0177969
846.089	0.0178441
846.167	0.0178797
846.245	0.0177582
846.323	0.0177594
846.401	0.0180323
846.479	0.0178807
846.558	0.0179335
846.636	0.0179577
846.714	0.0179549
846.792	0.0179436
846.870	0.0179464
846.948	0.0179858
847.026	0.0181515
847.104	0.0180618
847.183	0.0179409
847.261	0.0179662
847.339	0.0180610
847.417	0.0179893
847.495	0.0179114
847.573	0.0180928
847.651	0.0179901
847.729	0.0181797
847.808	0.0180997
847.886	0.0181944
847.964	0.0180335
848.042	0.0180867
848.120	0.0182252
848.198	0.0180920
848.276	0.0181824
848.354	0.0181960
848.433	0.0181124
848.511	0.0182081
848.589	0.0181575
848.667	0.0181573
848.745	0.0180685
848.823	0.0180193
848.901	0.0180527
848.979	0.0180133
849.058	0.0180009
849.136	0.0178745
849.214	0.0180173
849.292	0.0180122
849.370	0.0179584
849.448	0.0179268
849.526	0.0178980
849.604	0.0178768
849.683	0.0178320
849.761	0.0179537
849.839	0.0180168
849.917	0.0180215
849.995	0.0179588
850.073	0.0177911
850.151	0.0178104
850.229	0.0178896
850.308	0.0178381
850.386	0.0177152
850.464	0.0178418
850.542	0.0177456
850.620	0.0176228
850.698	0.0175669
850.776	0.0177755
850.854	0.0176945
850.933	0.0177538
851.011	0.0178623
851.089	0.0178033
851.167	0.0177282
851.245	0.0177894
851.323	0.0180085
851.401	0.0180364
851.479	0.0178714
851.558	0.0178761
851.636	0.0178632
851.714	0.0180105
851.792	0.0180295
851.870	0.0180618
851.948	0.0179432
852.026	0.0179963
852.104	0.0179823
852.183	0.0178922
852.261	0.0179989
852.339	0.0180210
852.417	0.0178913
852.495	0.0180103
852.573	0.0179395
852.651	0.0178207
852.729	0.0179404
852.808	0.0179037
852.886	0.0180080
852.964	0.0178793
853.042	0.0179622
853.120	0.0181130
853.198	0.0181942
853.276	0.0181202
853.354	0.0181358
853.433	0.0182590
853.511	0.0183093
853.589	0.0181783
853.667	0.0182226
853.745	0.0181927
853.823	0.0181895
853.901	0.0183139
853.979	0.0182597
854.058	0.0182429
854.136	0.0181673
854.214	0.0181063
854.292	0.0181477
854.370	0.0180975
854.448	0.0181726
854.526	0.0181666
854.604	0.0180619
854.683	0.0180626
854.761	0.0180994
854.839	0.0181539
854.917	0.0181609
854.995	0.0180376
855.073	0.0180437
855.151	0.0180011
855.229	0.0180744
855.308	0.0180323
855.386	0.0179551
855.464	0.0179286
855.542	0.0179939
855.620	0.0179063
855.698	0.0178609
855.776	0.0177871
855.854	0.0178633
855.933	0.0178323
856.011	0.0178767
856.089	0.0178405
856.167	0.0177334
856.245	0.0178957
856.323	0.0179351
856.401	0.0178736
856.479	0.0179849
856.558	0.0178207
856.636	0.0177702
856.714	0.0178643
856.792	0.0177831
856.870	0.0177062
856.948	0.0178654
857.026	0.0179917
857.104	0.0178953
857.183	0.0178429
857.261	0.0178214
857.339	0.0178864
857.417	0.0178979
857.495	0.0179192
857.573	0.0178724
857.651	0.0179741
857.729	0.0177843
857.808	0.0179343
857.886	0.0179582
857.964	0.0179388
858.042	0.0179075
858.120	0.0180430
858.198	0.0180935
858.276	0.0179552
858.354	0.0180108
858.433	0.0181178
858.511	0.0181269
858.589	0.0179866
858.667	0.0179213
858.745	0.0179257
858.823	0.0180037
858.901	0.0179752
858.979	0.0180148
859.058	0.0179345
859.136	0.0179824
859.214	0.0179707
859.292	0.0177821
859.370	0.0177964
859.448	0.0177821
859.526	0.0178314
859.604	0.0178048
859.683	0.0178519
859.761	0.0179578
859.839	0.0178929
859.917	0.0178793
859.995	0.0179989
860.073	0.0179668
860.151	0.0179237
860.229	0.0181545
860.308	0.0180283
860.386	0.0181705
860.464	0.0182101
860.542	0.0180448
860.620	0.0181339
860.698	0.0180137
860.776	0.0180273
860.854	0.0181387
860.933	0.0179746
861.011	0.0181242
861.089	0.0180952
861.167	0.0182460
861.245	0.0181013
861.323	0.0182068
861.401	0.0182160
861.479	0.0179501
861.558	0.0181206
861.636	0.0181336
861.714	0.0180659
861.792	0.0179723
861.870	0.0180042
861.948	0.0179209
862.026	0.0180101
862.104	0.0181924
862.183	0.0179637
862.261	0.0179861
862.339	0.0181090
862.417	0.0181141
862.495	0.0179827
862.573	0.0179859
862.651	0.0179079
862.729	0.0179180
862.808	0.0179708
862.886	0.0179338
862.964	0.0180146
863.042	0.0178209
863.120	0.0177896
863.198	0.0177785
863.276	0.0177790
863.354	0.0178010
863.433	0.0177579
863.511	0.0177373
863.589	0.0176615
863.667	0.0177391
863.745	0.0177248
863.823	0.0177673
863.901	0.0177209
863.979	0.0177000
864.058	0.0178217
864.136	0.0177447
864.214	0.0178053
864.292	0.0178255
864.370	0.0179291
864.448	0.0180013
864.526	0.0179713
864.604	0.0178591
864.683	0.0179695
864.761	0.0179563
864.839	0.0181224
864.917	0.0180642
864.995	0.0180505
865.073	0.0180392
865.151	0.0180863
865.229	0.0179538
865.308	0.0180852
865.386	0.0180420
865.464	0.0181199
865.542	0.0179667
865.620	0.0179069
865.698	0.0179994
865.776	0.0179144
865.854	0.0179199
865.933	0.0179217
866.011	0.0179203
866.089	0.0178899
866.167	0.0179021
866.245	0.0179684
866.323	0.0180182
866.401	0.0179488
866.479	0.0177365
866.558	0.0180136
866.636	0.0180994
866.714	0.0180221
866.792	0.0180077
866.870	0.0179696
866.948	0.0178915
867.026	0.0180151
867.104	0.0179500
867.183	0.0179582
867.261	0.0179572
867.339	0.0182175
867.417	0.0178690
867.495	0.0178856
867.573	0.0179131
867.651	0.0180312
867.729	0.0179818
867.808	0.0179406
867.886	0.0179080
867.964	0.0178519
868.042	0.0179999
868.120	0.0179964
868.198	0.0180594
868.276	0.0179626
868.354	0.0179298
868.433	0.0180778
868.511	0.0180813
868.589	0.0180308
868.667	0.0179208
868.745	0.0179714
868.823	0.0179839
868.901	0.0181006
868.979	0.0179060
869.058	0.0180225
869.136	0.0180223
869.214	0.0179185
869.292	0.0179503
869.370	0.0179207
869.448	0.0180693
869.526	0.0178600
869.604	0.0179546
869.683	0.0178531
869.761	0.0177824
869.839	0.0177889
869.917	0.0179649
869.995	0.0179387
870.073	0.0178015
870.151	0.0177448
870.229	0.0177328
870.308	0.0177863
870.386	0.0179135
870.464	0.0178879
870.542	0.0177800
870.620	0.0178253
870.698	0.0178111
870.776	0.0179273
870.854	0.0178445
870.933	0.0178498
871.011	0.0178969
871.089	0.0178767
871.167	0.0179433
871.245	0.0179135
871.323	0.0178251
871.401	0.0177673
871.479	0.0179961
871.558	0.0179021
871.636	0.0178493
871.714	0.0178206
871.792	0.0179874
871.870	0.0178566
871.948	0.0178226
872.026	0.0178600
872.104	0.0178046
872.183	0.0179127
872.261	0.0178480
872.339	0.0178001
872.417	0.0177518
872.495	0.0177301
872.573	0.0177917
872.651	0.0177576
872.729	0.0179462
872.808	0.0177222
872.886	0.0178983
872.964	0.0178457
873.042	0.0177058
873.120	0.0178122
873.198	0.0176900
873.276	0.0177841
873.354	0.0178625
873.433	0.0178620
873.511	0.0178855
873.589	0.0179710
873.667	0.0179534
873.745	0.0179392
873.823	0.0179926
873.901	0.0180409
873.979	0.0181644
874.058	0.0179796
874.136	0.0179880
874.214	0.0180916
874.292	0.0181358
874.370	0.0180466
874.448	0.0180121
874.526	0.0180180
874.604	0.0181029
874.683	0.0180602
874.761	0.0180824
874.839	0.0181191
874.917	0.0180727
874.995	0.0180919
875.073	0.0181863
875.151	0.0181290
875.229	0.0182085
875.308	0.0183119
875.386	0.0182249
875.464	0.0182323
875.542	0.0182819
875.620	0.0181113
875.698	0.0180331
875.776	0.0179974
875.854	0.0180416
875.933	0.0180189
876.011	0.0180657
876.089	0.0178354
876.167	0.0179518
876.245	0.0178675
876.323	0.0178517
876.401	0.0178667
876.479	0.0178357
876.558	0.0179111
876.636	0.0179163
876.714	0.0179250
876.792	0.0178371
876.870	0.0178113
876.948	0.0179219
877.026	0.0179294
877.104	0.0178992
877.183	0.0180064
877.261	0.0178584
877.339	0.0179263
877.417	0.0179326
877.495	0.0177895
877.573	0.0178435
877.651	0.0177404
877.729	0.0180167
877.808	0.0178523
877.886	0.0178172
877.964	0.0178964
878.042	0.0178963
878.120	0.0178305
878.198	0.0178963
878.276	0.0178268
878.354	0.0178194
878.433	0.0177290
878.511	0.0180824
878.589	0.0180060
878.667	0.0179465
878.745	0.0179491
878.823	0.0179776
878.901	0.0180737
878.979	0.0179694
879.058	0.0179291
879.136	0.0180901
879.214	0.0180270
879.292	0.0180450
879.370	0.0180253
879.448	0.0179739
879.526	0.0179338
879.604	0.0179243
879.683	0.0181038
879.761	0.0179660
879.839	0.0177879
879.917	0.0179057
879.995	0.0179182
880.073	0.0180251
880.151	0.0180094
880.229	0.0179245
880.308	0.0179312
880.386	0.0180506
880.464	0.0179656
880.542	0.0179669
880.620	0.0178759
880.698	0.0180665
880.776	0.0179522
880.854	0.0179178
880.933	0.0180286
881.011	0.0178119
881.089	0.0180082
881.167	0.0180144
881.245	0.0179504
881.323	0.0179639
881.401	0.0180563
881.479	0.0180567
881.558	0.0181705
881.636	0.0178673
881.714	0.0181107
881.792	0.0179241
881.870	0.0179631
881.948	0.0181277
882.026	0.0181690
882.104	0.0180065
882.183	0.0182098
882.261	0.0181400
882.339	0.0180154
882.417	0.0180123
882.495	0.0181705
882.573	0.0179986
882.651	0.0180309
882.729	0.0180917
882.808	0.0180467
882.886	0.0180602
882.964	0.0181274
883.042	0.0179333
883.120	0.0177634
883.198	0.0179358
883.276	0.0178256
883.354	0.0178583
883.433	0.0178828
883.511	0.0180925
883.589	0.0180019
883.667	0.0178929
883.745	0.0178448
883.823	0.0179721
883.901	0.0179517
883.979	0.0180665
884.058	0.0179488
884.136	0.0178336
884.214	0.0178222
884.292	0.0179443
884.370	0.0179343
884.448	0.0179535
884.526	0.0178634
884.604	0.0180659
884.683	0.0178976
884.761	0.0178071
884.839	0.0178754
884.917	0.0179572
884.995	0.0178885
885.073	0.0179727
885.151	0.0178284
885.229	0.0179617
885.308	0.0179366
885.386	0.0180367
885.464	0.0178838
885.542	0.0179975
885.620	0.0179341
885.698	0.0179585
885.776	0.0180131
885.854	0.0179438
885.933	0.0178937
886.011	0.0179773
886.089	0.0180209
886.167	0.0180318
886.245	0.0179837
886.323	0.0178809
886.401	0.0179305
886.479	0.0180007
886.558	0.0179119
886.636	0.0177362
886.714	0.0179570
886.792	0.0180202
886.870	0.0179242
886.948	0.0180411
887.026	0.0180639
887.104	0.0179706
887.183	0.0179347
887.261	0.0180352
887.339	0.0179340
887.417	0.0180680
887.495	0.0180306
887.573	0.0179021
887.651	0.0180054
887.729	0.0180386
887.808	0.0179053
887.886	0.0178906
887.964	0.0179503
888.042	0.0178211
888.120	0.0179836
888.198	0.0179977
888.276	0.0178937
888.354	0.0179025
888.433	0.0178912
888.511	0.0179539
888.589	0.0179391
888.667	0.0181423
888.745	0.0180274
888.823	0.0180835
888.901	0.0179858
888.979	0.0181307
889.058	0.0180445
889.136	0.0180511
889.214	0.0179500
889.292	0.0179436
889.370	0.0179530
889.448	0.0179330
889.526	0.0180083
889.604	0.0181268
889.683	0.0179767
889.761	0.0181152
889.839	0.0179586
889.917	0.0178593
889.995	0.0180229
890.073	0.0180398
890.151	0.0180324
890.229	0.0179016
890.308	0.0178587
890.386	0.0180595
890.464	0.0182207
890.542	0.0179156
890.620	0.0179140
890.698	0.0180008
890.776	0.0178880
890.854	0.0178428
890.933	0.0178288
891.011	0.0179937
891.089	0.0179398
891.167	0.0179074
891.245	0.0179414
891.323	0.0179495
891.401	0.0179110
891.479	0.0179839
891.558	0.0179155
891.636	0.0177891
891.714	0.0178302
891.792	0.0179226
891.870	0.0178817
891.948	0.0179488
892.026	0.0178794
892.104	0.0178380
892.183	0.0179976
892.261	0.0178724
892.339	0.0178285
892.417	0.0177673
892.495	0.0179653
892.573	0.0177820
892.651	0.0178202
892.729	0.0179742
892.808	0.0177287
892.886	0.0176780
892.964	0.0178857
893.042	0.0178793
893.120	0.0178223
893.198	0.0178175
893.276	0.0178737
893.354	0.0178488
893.433	0.0177871
893.511	0.0178087
893.589	0.0178090
893.667	0.0179376
893.745	0.0179160
893.823	0.0178571
893.901	0.0179700
893.979	0.0179970
894.058	0.0178100
894.136	0.0180703
894.214	0.0180982
894.292	0.0179813
894.370	0.0180212
894.448	0.0180018
894.526	0.0180258
894.604	0.0179706
894.683	0.0178987
894.761	0.0179403
894.839	0.0177848
894.917	0.0178853
894.995	0.0179415
895.073	0.0177477
895.151	0.0179433
895.229	0.0180750
895.308	0.0181523
895.386	0.0180814
895.464	0.0179095
895.542	0.0180199
895.620	0.0179688
895.698	0.0180441
895.776	0.0179285
895.854	0.0178838
895.933	0.0179313
896.011	0.0180594
896.089	0.0179539
896.167	0.0181560
896.245	0.0180422
896.323	0.0179930
896.401	0.0179202
896.479	0.0179401
896.558	0.0179408
896.636	0.0178316
896.714	0.0178630
896.792	0.0178928
896.870	0.0179412
896.948	0.0178709
897.026	0.0177545
897.104	0.0177981
897.183	0.0177908
897.261	0.0179502
897.339	0.0177229
897.417	0.0178453
897.495	0.0179120
897.573	0.0177138
897.651	0.0176454
897.729	0.0177938
897.808	0.0178362
897.886	0.0177979
897.964	0.0178104
898.042	0.0178119
898.120	0.0178220
898.198	0.0179789
898.276	0.0178292
898.354	0.0177287
898.433	0.0179361
898.511	0.0180499
898.589	0.0179474
898.667	0.0177960
898.745	0.0178859
898.823	0.0178400
898.901	0.0178299
898.979	0.0178516
899.058	0.0178568
899.136	0.0179911
899.214	0.0179819
899.292	0.0179095
899.370	0.0178416
899.448	0.0179118
899.526	0.0178532
899.604	0.0179132
899.683	0.0178751
899.761	0.0178358
899.839	0.0178164
899.917	0.0179217
899.995	0.0177846
900.073	0.0177352
900.151	0.0177897
900.229	0.0179232
900.308	0.0175836
900.386	0.0176379
900.464	0.0177412
900.542	0.0177208
900.620	0.0177391
900.698	0.0175791
900.776	0.0177430
900.854	0.0178036
900.933	0.0175837
901.011	0.0176887
901.089	0.0177940
901.167	0.0177241
901.245	0.0176685
901.323	0.0176745
901.401	0.0176765
901.479	0.0179238
901.558	0.0179298
901.636	0.0177832
901.714	0.0179023
901.792	0.0179640
901.870	0.0179839
901.948	0.0179985
902.026	0.0180680
902.104	0.0180740
902.183	0.0180553
902.261	0.0180573
902.339	0.0180782
902.417	0.0179853
902.495	0.0180731
902.573	0.0181734
902.651	0.0180371
902.729	0.0181197
902.808	0.0179530
902.886	0.0180216
902.964	0.0181013
903.042	0.0179247
903.120	0.0180156
903.198	0.0179260
903.276	0.0177238
903.354	0.0179646
903.433	0.0178991
903.511	0.0179157
903.589	0.0178911
903.667	0.0178277
903.745	0.0179050
903.823	0.0179292
903.901	0.0180048
903.979	0.0179238
904.058	0.0178561
904.136	0.0178692
904.214	0.0179226
904.292	0.0179198
904.370	0.0180566
904.448	0.0179694
904.526	0.0177814
904.604	0.0179005
904.683	0.0180086
904.761	0.0180231
904.839	0.0178777
904.917	0.0178246
904.995	0.0179272
905.073	0.0177435
905.151	0.0179006
905.229	0.0179331
905.308	0.0179178
905.386	0.0179140
905.464	0.0179969
905.542	0.0180019
905.620	0.0180100
905.698	0.0179104
905.776	0.0179376
905.854	0.0179353
905.933	0.0180688
906.011	0.0179375
906.089	0.0180585
906.167	0.0180592
906.245	0.0179485
906.323	0.0179910
906.401	0.0179817
906.479	0.0177532
906.558	0.0179421
906.636	0.0179066
906.714	0.0180550
906.792	0.0178945
906.870	0.0179816
906.948	0.0179050
907.026	0.0178249
907.104	0.0179124
907.183	0.0180064
907.261	0.0178144
907.339	0.0179857
907.417	0.0180756
907.495	0.0179026
907.573	0.0178421
907.651	0.0179348
907.729	0.0178643
907.808	0.0180143
907.886	0.0180494
907.964	0.0179282
908.042	0.0179955
908.120	0.0179753
908.198	0.0180242
908.276	0.0179989
908.354	0.0180317
908.433	0.0179292
908.511	0.0180587
908.589	0.0179860
908.667	0.0179340
908.745	0.0180256
908.823	0.0179878
908.901	0.0180090
908.979	0.0179147
909.058	0.0179693
909.136	0.0179974
909.214	0.0180759
909.292	0.0181889
909.370	0.0179008
909.448	0.0180138
909.526	0.0180117
909.604	0.0180716
909.683	0.0179829
909.761	0.0181340
909.839	0.0179971
909.917	0.0180544
909.995	0.0181040
910.073	0.0180798
910.151	0.0180031
910.229	0.0180466
910.308	0.0180685
910.386	0.0180821
910.464	0.0180586
910.542	0.0181380
910.620	0.0180033
910.698	0.0181375
910.776	0.0182382
910.854	0.0181209
910.933	0.0180955
911.011	0.0181095
911.089	0.0180575
911.167	0.0180026
911.245	0.0181528
911.323	0.0179727
911.401	0.0181092
911.479	0.0180054
911.558	0.0179124
911.636	0.0179778
911.714	0.0180137
911.792	0.0179023
911.870	0.0178556
911.948	0.0176685
912.026	0.0178582
912.104	0.0177438
912.183	0.0177222
912.261	0.0176838
912.339	0.0177402
912.417	0.0176274
912.495	0.0177023
912.573	0.0176856
912.651	0.0178123
912.729	0.0178338
912.808	0.0177718
912.886	0.0177898
912.964	0.0178123
913.042	0.0178468
913.120	0.0177250
913.198	0.0178008
913.276	0.0178314
913.354	0.0179875
913.433	0.0178324
913.511	0.0177844
913.589	0.0177695
913.667	0.0178277
913.745	0.0179089
913.823	0.0180302
913.901	0.0180707
913.979	0.0180450
914.058	0.0179927
914.136	0.0180135
914.214	0.0179122
914.292	0.0180833
914.370	0.0179932
914.448	0.0179230
914.526	0.0180289
914.604	0.0180041
914.683	0.0178840
914.761	0.0179160
914.839	0.0179768
914.917	0.0179719
914.995	0.0180342
915.073	0.0180018
915.151	0.0179979
915.229	0.0178820
915.308	0.0178609
915.386	0.0180687
915.464	0.0179566
915.542	0.0180109
915.620	0.0180161
915.698	0.0181612
915.776	0.0181141
915.854	0.0179833
915.933	0.0178648
916.011	0.0180153
916.089	0.0180041
916.167	0.0180206
916.245	0.0180344
916.323	0.0180075
916.401	0.0180600
916.479	0.0181014
916.558	0.0179424
916.636	0.0180007
916.714	0.0180045
916.792	0.0180820
916.870	0.0178514
916.948	0.0179562
917.026	0.0181384
917.104	0.0179913
917.183	0.0179803
917.261	0.0180582
917.339	0.0181431
917.417	0.0181258
917.495	0.0182044
917.573	0.0180258
917.651	0.0180672
917.729	0.0180285
917.808	0.0180228
917.886	0.0180125
917.964	0.0178999
918.042	0.0180066
918.120	0.0179005
918.198	0.0178174
918.276	0.0178261
918.354	0.0177670
918.433	0.0178212
918.511	0.0177808
918.589	0.0177316
918.667	0.0177412
918.745	0.0177173
918.823	0.0177299
918.901	0.0178061
918.979	0.0178519
919.058	0.0179494
919.136	0.0179346
919.214	0.0179515
919.292	0.0179028
919.370	0.0178636
919.448	0.0179980
919.526	0.0179474
919.604	0.0179086
919.683	0.0179829
919.761	0.0179295
919.839	0.0179626
919.917	0.0181171
