06/03/2022	18:04:52	Ver.	4.1	UNKNOWN
Optical Delay	599.995081	Delta X		0.078125	Sweeps	1	Scan Rate	0/0
Coordinates	Axis 1	NaN	Axis 2	NaN	Axis 3	NaN	Axis 4	NaN	Axis 5	NaN	Axis 6	0.000000
TX Power	0.000000	RX Power	0.000000

599.995	0.0179826
600.073	0.0178825
600.151	0.0180353
600.229	0.0179271
600.308	0.0179020
600.386	0.0179784
600.464	0.0179583
600.542	0.0180560
600.620	0.0181229
600.698	0.0180354
600.776	0.0179959
600.854	0.0179044
600.933	0.0180221
601.011	0.0180823
601.089	0.0178683
601.167	0.0179869
601.245	0.0180682
601.323	0.0181265
601.401	0.0180644
601.479	0.0179825
601.558	0.0179410
601.636	0.0180460
601.714	0.0180345
601.792	0.0180353
601.870	0.0179360
601.948	0.0179398
602.026	0.0179082
602.104	0.0179353
602.183	0.0179002
602.261	0.0179283
602.339	0.0180573
602.417	0.0180411
602.495	0.0179650
602.573	0.0179724
602.651	0.0180122
602.729	0.0180518
602.808	0.0178242
602.886	0.0179358
602.964	0.0180314
603.042	0.0180023
603.120	0.0178658
603.198	0.0178402
603.276	0.0178829
603.354	0.0179770
603.433	0.0179575
603.511	0.0179854
603.589	0.0179229
603.667	0.0180043
603.745	0.0181596
603.823	0.0178660
603.901	0.0178742
603.979	0.0179617
604.058	0.0181108
604.136	0.0178899
604.214	0.0179063
604.292	0.0180741
604.370	0.0179934
604.448	0.0181342
604.526	0.0180436
604.604	0.0180030
604.683	0.0179800
604.761	0.0180054
604.839	0.0180009
604.917	0.0180002
604.995	0.0179574
605.073	0.0180629
605.151	0.0179642
605.229	0.0179704
605.308	0.0178770
605.386	0.0179366
605.464	0.0181622
605.542	0.0180352
605.620	0.0181150
605.698	0.0178187
605.776	0.0178955
605.854	0.0179295
605.933	0.0179867
606.011	0.0178296
606.089	0.0179526
606.167	0.0180672
606.245	0.0180099
606.323	0.0180571
606.401	0.0179393
606.479	0.0180198
606.558	0.0179672
606.636	0.0179115
606.714	0.0179352
606.792	0.0180828
606.870	0.0178108
606.948	0.0180276
607.026	0.0180531
607.104	0.0180672
607.183	0.0180060
607.261	0.0180283
607.339	0.0180193
607.417	0.0179555
607.495	0.0180062
607.573	0.0178312
607.651	0.0178951
607.729	0.0179931
607.808	0.0179279
607.886	0.0178718
607.964	0.0179715
608.042	0.0179002
608.120	0.0180428
608.198	0.0179323
608.276	0.0179636
608.354	0.0178980
608.433	0.0179192
608.511	0.0181203
608.589	0.0180077
608.667	0.0180317
608.745	0.0180178
608.823	0.0180226
608.901	0.0179581
608.979	0.0178750
609.058	0.0179990
609.136	0.0179465
609.214	0.0181427
609.292	0.0180228
609.370	0.0177969
609.448	0.0180113
609.526	0.0180490
609.604	0.0179450
609.683	0.0177308
609.761	0.0179615
609.839	0.0179556
609.917	0.0179774
609.995	0.0180263
610.073	0.0180338
610.151	0.0179343
610.229	0.0179352
610.308	0.0179172
610.386	0.0179863
610.464	0.0181103
610.542	0.0179829
610.620	0.0178591
610.698	0.0179005
610.776	0.0180671
610.854	0.0180074
610.933	0.0179068
611.011	0.0180284
611.089	0.0179852
611.167	0.0180278
611.245	0.0180012
611.323	0.0178819
611.401	0.0179090
611.479	0.0180260
611.558	0.0180401
611.636	0.0179828
611.714	0.0180592
611.792	0.0179292
611.870	0.0179790
611.948	0.0179601
612.026	0.0180014
612.104	0.0179575
612.183	0.0180053
612.261	0.0179472
612.339	0.0180258
612.417	0.0180347
612.495	0.0179922
612.573	0.0179564
612.651	0.0180605
612.729	0.0181371
612.808	0.0178628
612.886	0.0180164
612.964	0.0180180
613.042	0.0180762
613.120	0.0180267
613.198	0.0179041
613.276	0.0178716
613.354	0.0181005
613.433	0.0179820
613.511	0.0179680
613.589	0.0179843
613.667	0.0179787
613.745	0.0179948
613.823	0.0179784
613.901	0.0179735
613.979	0.0179903
614.058	0.0179383
614.136	0.0179884
614.214	0.0180299
614.292	0.0180541
614.370	0.0180405
614.448	0.0180654
614.526	0.0180740
614.604	0.0179868
614.683	0.0180359
614.761	0.0179826
614.839	0.0179601
614.917	0.0179346
614.995	0.0180014
615.073	0.0179194
615.151	0.0179250
615.229	0.0180167
615.308	0.0178775
615.386	0.0181255
615.464	0.0179240
615.542	0.0179673
615.620	0.0179815
615.698	0.0179818
615.776	0.0179129
615.854	0.0179556
615.933	0.0179158
616.011	0.0181448
616.089	0.0180096
616.167	0.0179902
616.245	0.0179092
616.323	0.0179461
616.401	0.0180342
616.479	0.0179041
616.558	0.0179565
616.636	0.0180044
616.714	0.0181129
616.792	0.0180461
616.870	0.0178736
616.948	0.0179775
617.026	0.0181097
617.104	0.0180218
617.183	0.0179085
617.261	0.0179700
617.339	0.0179880
617.417	0.0178605
617.495	0.0181741
617.573	0.0179174
617.651	0.0179520
617.729	0.0179736
617.808	0.0178587
617.886	0.0180670
617.964	0.0180345
618.042	0.0178972
618.120	0.0179254
618.198	0.0180177
618.276	0.0179496
618.354	0.0181614
618.433	0.0180198
618.511	0.0178845
618.589	0.0179868
618.667	0.0179803
618.745	0.0179904
618.823	0.0180009
618.901	0.0179702
618.979	0.0180177
619.058	0.0178626
619.136	0.0179862
619.214	0.0178813
619.292	0.0179851
619.370	0.0178430
619.448	0.0180449
619.526	0.0181082
619.604	0.0179200
619.683	0.0178949
619.761	0.0179381
619.839	0.0178912
619.917	0.0178803
619.995	0.0180190
620.073	0.0178999
620.151	0.0179292
620.229	0.0178352
620.308	0.0179326
620.386	0.0179301
620.464	0.0181094
620.542	0.0180210
620.620	0.0178572
620.698	0.0180692
620.776	0.0178446
620.854	0.0179288
620.933	0.0179657
621.011	0.0178519
621.089	0.0179008
621.167	0.0180880
621.245	0.0179261
621.323	0.0179360
621.401	0.0179685
621.479	0.0179742
621.558	0.0180666
621.636	0.0178213
621.714	0.0179790
621.792	0.0179438
621.870	0.0179840
621.948	0.0181425
622.026	0.0181403
622.104	0.0179589
622.183	0.0180202
622.261	0.0179733
622.339	0.0179983
622.417	0.0180414
622.495	0.0180341
622.573	0.0179905
622.651	0.0180068
622.729	0.0179364
622.808	0.0180871
622.886	0.0180412
622.964	0.0180403
623.042	0.0179359
623.120	0.0178246
623.198	0.0179450
623.276	0.0181304
623.354	0.0180758
623.433	0.0179577
623.511	0.0179449
623.589	0.0179531
623.667	0.0180156
623.745	0.0178895
623.823	0.0180180
623.901	0.0179662
623.979	0.0179981
624.058	0.0178660
624.136	0.0178893
624.214	0.0181219
624.292	0.0180277
624.370	0.0179939
624.448	0.0178354
624.526	0.0180010
624.604	0.0179803
624.683	0.0179803
624.761	0.0180900
624.839	0.0179044
624.917	0.0178831
624.995	0.0181108
625.073	0.0179459
625.151	0.0178732
625.229	0.0180223
625.308	0.0180425
625.386	0.0179452
625.464	0.0180015
625.542	0.0180309
625.620	0.0179155
625.698	0.0179830
625.776	0.0179542
625.854	0.0179647
625.933	0.0179629
626.011	0.0179715
626.089	0.0178826
626.167	0.0179651
626.245	0.0179482
626.323	0.0179823
626.401	0.0180103
626.479	0.0179628
626.558	0.0180110
626.636	0.0178873
626.714	0.0178964
626.792	0.0179678
626.870	0.0179858
626.948	0.0179237
627.026	0.0178631
627.104	0.0179785
627.183	0.0179059
627.261	0.0179244
627.339	0.0179121
627.417	0.0179723
627.495	0.0180278
627.573	0.0178919
627.651	0.0179143
627.729	0.0180280
627.808	0.0180092
627.886	0.0180296
627.964	0.0180781
628.042	0.0179718
628.120	0.0179018
628.198	0.0179319
628.276	0.0179971
628.354	0.0178873
628.433	0.0179201
628.511	0.0179594
628.589	0.0179989
628.667	0.0180199
628.745	0.0180787
628.823	0.0179604
628.901	0.0179832
628.979	0.0180319
629.058	0.0180127
629.136	0.0179858
629.214	0.0178938
629.292	0.0179502
629.370	0.0179183
629.448	0.0179803
629.526	0.0180153
629.604	0.0178983
629.683	0.0179007
629.761	0.0180833
629.839	0.0180010
629.917	0.0178883
629.995	0.0178568
630.073	0.0180704
630.151	0.0181073
630.229	0.0179281
630.308	0.0179744
630.386	0.0180195
630.464	0.0179791
630.542	0.0180285
630.620	0.0178838
630.698	0.0179083
630.776	0.0179926
630.854	0.0180259
630.933	0.0179722
631.011	0.0179675
631.089	0.0180606
631.167	0.0179877
631.245	0.0180247
631.323	0.0179778
631.401	0.0179373
631.479	0.0179720
631.558	0.0179831
631.636	0.0178963
631.714	0.0179688
631.792	0.0179276
631.870	0.0179967
631.948	0.0180907
632.026	0.0181071
632.104	0.0180961
632.183	0.0179901
632.261	0.0180726
632.339	0.0179925
632.417	0.0179215
632.495	0.0180281
632.573	0.0180179
632.651	0.0180199
632.729	0.0179488
632.808	0.0180987
632.886	0.0180518
632.964	0.0179443
633.042	0.0180626
633.120	0.0179848
633.198	0.0179747
633.276	0.0180365
633.354	0.0179879
633.433	0.0179430
633.511	0.0179451
633.589	0.0180044
633.667	0.0180627
633.745	0.0178786
633.823	0.0179563
633.901	0.0179980
633.979	0.0180093
634.058	0.0179719
634.136	0.0180667
634.214	0.0179314
634.292	0.0180668
634.370	0.0180667
634.448	0.0179245
634.526	0.0180112
634.604	0.0179059
634.683	0.0179311
634.761	0.0178444
634.839	0.0179653
634.917	0.0180315
634.995	0.0179151
635.073	0.0180489
635.151	0.0179528
635.229	0.0179242
635.308	0.0180437
635.386	0.0179129
635.464	0.0180060
635.542	0.0180169
635.620	0.0179019
635.698	0.0181287
635.776	0.0180898
635.854	0.0181909
635.933	0.0179555
636.011	0.0179173
636.089	0.0179048
636.167	0.0180589
636.245	0.0180278
636.323	0.0180052
636.401	0.0179850
636.479	0.0180011
636.558	0.0180207
636.636	0.0179974
636.714	0.0179852
636.792	0.0179450
636.870	0.0179982
636.948	0.0180282
637.026	0.0179749
637.104	0.0180605
637.183	0.0180024
637.261	0.0179252
637.339	0.0180003
637.417	0.0180318
637.495	0.0180165
637.573	0.0178306
637.651	0.0179757
637.729	0.0179047
637.808	0.0180701
637.886	0.0180286
637.964	0.0179746
638.042	0.0181310
638.120	0.0179072
638.198	0.0180181
638.276	0.0180612
638.354	0.0180151
638.433	0.0179231
638.511	0.0178745
638.589	0.0179636
638.667	0.0179068
638.745	0.0180187
638.823	0.0180632
638.901	0.0179591
638.979	0.0180152
639.058	0.0180330
639.136	0.0179750
639.214	0.0179566
639.292	0.0178837
639.370	0.0180091
639.448	0.0180072
639.526	0.0178065
639.604	0.0178468
639.683	0.0179939
639.761	0.0178655
639.839	0.0178610
639.917	0.0179894
639.995	0.0178960
640.073	0.0179974
640.151	0.0179689
640.229	0.0178630
640.308	0.0178381
640.386	0.0180104
640.464	0.0179913
640.542	0.0180212
640.620	0.0180392
640.698	0.0179926
640.776	0.0179745
640.854	0.0179681
640.933	0.0179043
641.011	0.0179706
641.089	0.0180539
641.167	0.0179175
641.245	0.0179204
641.323	0.0179262
641.401	0.0179929
641.479	0.0179385
641.558	0.0178113
641.636	0.0178490
641.714	0.0180600
641.792	0.0180988
641.870	0.0180540
641.948	0.0180169
642.026	0.0181514
642.104	0.0179186
642.183	0.0179301
642.261	0.0178868
642.339	0.0180621
642.417	0.0180576
642.495	0.0177856
642.573	0.0178533
642.651	0.0179322
642.729	0.0180732
642.808	0.0179625
642.886	0.0179400
642.964	0.0178918
643.042	0.0178856
643.120	0.0180609
643.198	0.0180311
643.276	0.0178697
643.354	0.0179305
643.433	0.0179615
643.511	0.0179317
643.589	0.0179597
643.667	0.0179276
643.745	0.0180444
643.823	0.0179889
643.901	0.0178867
643.979	0.0180838
644.058	0.0178880
644.136	0.0179620
644.214	0.0179939
644.292	0.0180238
644.370	0.0180787
644.448	0.0178764
644.526	0.0179394
644.604	0.0181789
644.683	0.0179708
644.761	0.0180173
644.839	0.0181249
644.917	0.0179168
644.995	0.0179620
645.073	0.0180421
645.151	0.0179825
645.229	0.0178911
645.308	0.0179676
645.386	0.0179752
645.464	0.0178885
645.542	0.0178541
645.620	0.0180310
645.698	0.0180445
645.776	0.0179408
645.854	0.0180876
645.933	0.0180057
646.011	0.0180033
646.089	0.0179824
646.167	0.0178656
646.245	0.0179390
646.323	0.0179103
646.401	0.0179469
646.479	0.0179784
646.558	0.0179663
646.636	0.0181319
646.714	0.0179855
646.792	0.0178305
646.870	0.0179491
646.948	0.0181104
647.026	0.0179745
647.104	0.0179565
647.183	0.0178816
647.261	0.0179443
647.339	0.0179414
647.417	0.0178986
647.495	0.0178447
647.573	0.0179590
647.651	0.0180505
647.729	0.0180449
647.808	0.0179588
647.886	0.0178878
647.964	0.0178324
648.042	0.0180650
648.120	0.0179326
648.198	0.0179067
648.276	0.0180069
648.354	0.0180050
648.433	0.0180636
648.511	0.0179205
648.589	0.0179839
648.667	0.0180807
648.745	0.0180640
648.823	0.0179700
648.901	0.0178722
648.979	0.0180769
649.058	0.0180345
649.136	0.0179670
649.214	0.0179883
649.292	0.0178908
649.370	0.0180412
649.448	0.0180110
649.526	0.0179117
649.604	0.0180275
649.683	0.0180043
649.761	0.0179322
649.839	0.0179852
649.917	0.0181010
649.995	0.0181333
650.073	0.0179543
650.151	0.0180063
650.229	0.0178844
650.308	0.0179184
650.386	0.0179086
650.464	0.0179038
650.542	0.0179878
650.620	0.0180038
650.698	0.0180736
650.776	0.0179460
650.854	0.0179167
650.933	0.0178922
651.011	0.0179761
651.089	0.0181216
651.167	0.0180130
651.245	0.0179454
651.323	0.0179853
651.401	0.0180847
651.479	0.0180050
651.558	0.0180034
651.636	0.0179656
651.714	0.0180225
651.792	0.0180232
651.870	0.0180618
651.948	0.0178709
652.026	0.0180370
652.104	0.0180861
652.183	0.0179224
652.261	0.0179697
652.339	0.0179649
652.417	0.0179218
652.495	0.0181486
652.573	0.0181005
652.651	0.0179857
652.729	0.0179818
652.808	0.0179114
652.886	0.0179819
652.964	0.0179465
653.042	0.0179172
653.120	0.0180237
653.198	0.0181200
653.276	0.0179134
653.354	0.0179648
653.433	0.0179545
653.511	0.0179244
653.589	0.0179198
653.667	0.0179594
653.745	0.0179223
653.823	0.0178913
653.901	0.0180801
653.979	0.0180338
654.058	0.0180331
654.136	0.0178609
654.214	0.0178586
654.292	0.0180499
654.370	0.0180347
654.448	0.0179044
654.526	0.0180032
654.604	0.0180508
654.683	0.0178446
654.761	0.0180391
654.839	0.0179514
654.917	0.0179235
654.995	0.0180760
655.073	0.0180307
655.151	0.0179389
655.229	0.0178843
655.308	0.0179681
655.386	0.0179099
655.464	0.0180822
655.542	0.0180145
655.620	0.0179645
655.698	0.0180186
655.776	0.0180527
655.854	0.0180526
655.933	0.0179200
656.011	0.0180473
656.089	0.0179566
656.167	0.0179364
656.245	0.0179443
656.323	0.0180008
656.401	0.0180009
656.479	0.0180473
656.558	0.0179150
656.636	0.0178601
656.714	0.0179134
656.792	0.0179736
656.870	0.0179964
656.948	0.0179600
657.026	0.0180955
657.104	0.0179842
657.183	0.0180408
657.261	0.0179108
657.339	0.0180010
657.417	0.0179266
657.495	0.0180751
657.573	0.0180655
657.651	0.0179713
657.729	0.0179673
657.808	0.0181023
657.886	0.0180125
657.964	0.0179407
658.042	0.0180439
658.120	0.0180146
658.198	0.0180729
658.276	0.0180573
658.354	0.0178870
658.433	0.0178196
658.511	0.0179315
658.589	0.0179873
658.667	0.0180421
658.745	0.0179669
658.823	0.0179964
658.901	0.0178802
658.979	0.0179976
659.058	0.0180135
659.136	0.0179461
659.214	0.0180788
659.292	0.0180827
659.370	0.0179481
659.448	0.0179629
659.526	0.0179886
659.604	0.0179283
659.683	0.0180414
659.761	0.0180721
659.839	0.0178435
659.917	0.0177973
659.995	0.0179720
660.073	0.0180241
660.151	0.0181406
660.229	0.0178567
660.308	0.0179930
660.386	0.0178956
660.464	0.0178359
660.542	0.0179905
660.620	0.0179729
660.698	0.0179058
660.776	0.0179792
660.854	0.0179935
660.933	0.0180242
661.011	0.0179102
661.089	0.0179236
661.167	0.0179433
661.245	0.0179052
661.323	0.0178962
661.401	0.0179240
661.479	0.0180696
661.558	0.0180921
661.636	0.0178207
661.714	0.0181041
661.792	0.0179995
661.870	0.0179166
661.948	0.0179986
662.026	0.0179137
662.104	0.0178742
662.183	0.0180054
662.261	0.0179211
662.339	0.0180607
662.417	0.0178864
662.495	0.0179679
662.573	0.0179876
662.651	0.0180540
662.729	0.0180520
662.808	0.0180884
662.886	0.0179462
662.964	0.0178017
663.042	0.0179582
663.120	0.0180437
663.198	0.0181584
663.276	0.0180260
663.354	0.0179902
663.433	0.0179364
663.511	0.0178234
663.589	0.0179525
663.667	0.0180131
663.745	0.0179925
663.823	0.0179219
663.901	0.0179186
663.979	0.0179913
664.058	0.0180097
664.136	0.0180065
664.214	0.0180508
664.292	0.0181123
664.370	0.0179311
664.448	0.0179002
664.526	0.0180041
664.604	0.0180876
664.683	0.0179853
664.761	0.0180042
664.839	0.0179888
664.917	0.0181760
664.995	0.0180307
665.073	0.0180303
665.151	0.0180452
665.229	0.0179929
665.308	0.0178254
665.386	0.0180949
665.464	0.0180210
665.542	0.0179521
665.620	0.0180141
665.698	0.0179416
665.776	0.0179340
665.854	0.0179654
665.933	0.0181129
666.011	0.0179985
666.089	0.0180078
666.167	0.0180574
666.245	0.0179201
666.323	0.0180622
666.401	0.0181120
666.479	0.0179507
666.558	0.0180233
666.636	0.0180009
666.714	0.0179336
666.792	0.0178995
666.870	0.0179419
666.948	0.0179206
667.026	0.0179469
667.104	0.0178882
667.183	0.0179507
667.261	0.0180506
667.339	0.0180698
667.417	0.0179606
667.495	0.0178973
667.573	0.0178725
667.651	0.0179728
667.729	0.0180939
667.808	0.0180023
667.886	0.0179514
667.964	0.0180389
668.042	0.0180103
668.120	0.0179025
668.198	0.0179808
668.276	0.0179473
668.354	0.0180087
668.433	0.0178851
668.511	0.0181144
668.589	0.0179662
668.667	0.0181039
668.745	0.0179124
668.823	0.0179079
668.901	0.0179205
668.979	0.0180296
669.058	0.0179836
669.136	0.0179612
669.214	0.0180554
669.292	0.0178963
669.370	0.0180755
669.448	0.0180464
669.526	0.0180918
669.604	0.0180408
669.683	0.0179931
669.761	0.0179396
669.839	0.0179150
669.917	0.0179885
669.995	0.0180993
670.073	0.0179636
670.151	0.0180848
670.229	0.0179236
670.308	0.0180052
670.386	0.0179200
670.464	0.0179856
670.542	0.0180618
670.620	0.0180125
670.698	0.0180093
670.776	0.0178887
670.854	0.0179432
670.933	0.0180411
671.011	0.0179503
671.089	0.0179121
671.167	0.0180899
671.245	0.0179838
671.323	0.0178957
671.401	0.0180059
671.479	0.0180370
671.558	0.0180900
671.636	0.0180438
671.714	0.0181525
671.792	0.0179785
671.870	0.0180613
671.948	0.0180688
672.026	0.0180591
672.104	0.0180762
672.183	0.0179314
672.261	0.0180018
672.339	0.0178555
672.417	0.0180706
672.495	0.0180466
672.573	0.0179884
672.651	0.0179288
672.729	0.0180521
672.808	0.0180214
672.886	0.0180317
672.964	0.0179386
673.042	0.0179064
673.120	0.0179823
673.198	0.0181311
673.276	0.0180881
673.354	0.0178603
673.433	0.0180219
673.511	0.0179533
673.589	0.0180571
673.667	0.0178876
673.745	0.0179115
673.823	0.0180101
673.901	0.0180783
673.979	0.0180035
674.058	0.0178614
674.136	0.0180190
674.214	0.0180215
674.292	0.0179253
674.370	0.0178981
674.448	0.0179983
674.526	0.0179015
674.604	0.0179831
674.683	0.0179542
674.761	0.0179685
674.839	0.0180264
674.917	0.0179649
674.995	0.0179662
675.073	0.0179958
675.151	0.0181948
675.229	0.0180479
675.308	0.0180540
675.386	0.0179941
675.464	0.0179802
675.542	0.0180392
675.620	0.0180146
675.698	0.0179252
675.776	0.0180219
675.854	0.0178969
675.933	0.0180576
676.011	0.0180270
676.089	0.0180228
676.167	0.0180186
676.245	0.0179970
676.323	0.0179802
676.401	0.0179889
676.479	0.0180827
676.558	0.0179383
676.636	0.0179482
676.714	0.0180612
676.792	0.0179235
676.870	0.0179341
676.948	0.0178897
677.026	0.0181081
677.104	0.0180009
677.183	0.0179786
677.261	0.0180615
677.339	0.0179650
677.417	0.0178535
677.495	0.0180128
677.573	0.0180149
677.651	0.0179061
677.729	0.0179036
677.808	0.0181400
677.886	0.0179469
677.964	0.0180062
678.042	0.0180169
678.120	0.0178735
678.198	0.0179926
678.276	0.0180016
678.354	0.0179359
678.433	0.0179708
678.511	0.0179071
678.589	0.0180566
678.667	0.0179981
678.745	0.0179505
678.823	0.0179802
678.901	0.0179977
678.979	0.0179024
679.058	0.0179845
679.136	0.0179915
679.214	0.0179459
679.292	0.0180083
679.370	0.0178566
679.448	0.0178973
679.526	0.0180398
679.604	0.0178901
679.683	0.0180598
679.761	0.0180325
679.839	0.0179928
679.917	0.0179157
679.995	0.0178468
680.073	0.0179200
680.151	0.0180424
680.229	0.0177885
680.308	0.0179630
680.386	0.0180310
680.464	0.0179532
680.542	0.0178703
680.620	0.0179478
680.698	0.0179527
680.776	0.0181048
680.854	0.0179805
680.933	0.0179214
681.011	0.0179626
681.089	0.0179671
681.167	0.0179691
681.245	0.0180184
681.323	0.0180728
681.401	0.0178790
681.479	0.0178059
681.558	0.0179321
681.636	0.0179800
681.714	0.0178925
681.792	0.0179640
681.870	0.0180011
681.948	0.0180105
682.026	0.0178793
682.104	0.0177773
682.183	0.0178602
682.261	0.0179308
682.339	0.0179126
682.417	0.0179556
682.495	0.0179128
682.573	0.0178614
682.651	0.0179250
682.729	0.0179578
682.808	0.0178536
682.886	0.0178819
682.964	0.0179736
683.042	0.0179077
683.120	0.0180269
683.198	0.0179239
683.276	0.0179570
683.354	0.0179433
683.433	0.0179392
683.511	0.0179325
683.589	0.0178333
683.667	0.0181100
683.745	0.0178121
683.823	0.0178756
683.901	0.0180421
683.979	0.0179794
684.058	0.0178809
684.136	0.0179567
684.214	0.0179375
684.292	0.0179143
684.370	0.0180129
684.448	0.0180040
684.526	0.0178796
684.604	0.0179169
684.683	0.0180774
684.761	0.0181020
684.839	0.0179719
684.917	0.0179529
684.995	0.0180035
685.073	0.0180881
685.151	0.0180592
685.229	0.0179860
685.308	0.0180235
685.386	0.0179243
685.464	0.0181306
685.542	0.0181109
685.620	0.0181559
685.698	0.0180277
685.776	0.0179332
685.854	0.0180572
685.933	0.0181094
686.011	0.0181812
686.089	0.0181649
686.167	0.0179536
686.245	0.0180733
686.323	0.0180080
686.401	0.0180711
686.479	0.0179194
686.558	0.0180280
686.636	0.0179926
686.714	0.0181685
686.792	0.0181586
686.870	0.0180330
686.948	0.0178975
687.026	0.0180801
687.104	0.0180007
687.183	0.0180482
687.261	0.0181357
687.339	0.0179489
687.417	0.0181475
687.495	0.0181702
687.573	0.0181555
687.651	0.0180367
687.729	0.0181336
687.808	0.0180342
687.886	0.0179225
687.964	0.0180341
688.042	0.0180404
688.120	0.0180714
688.198	0.0180894
688.276	0.0179145
688.354	0.0181004
688.433	0.0179613
688.511	0.0180544
688.589	0.0181203
688.667	0.0180698
688.745	0.0180305
688.823	0.0180301
688.901	0.0179810
688.979	0.0180412
689.058	0.0181654
689.136	0.0181232
689.214	0.0179466
689.292	0.0180421
689.370	0.0179467
689.448	0.0179465
689.526	0.0179516
689.604	0.0180493
689.683	0.0180882
689.761	0.0179974
689.839	0.0179391
689.917	0.0181084
689.995	0.0179534
690.073	0.0180093
690.151	0.0179913
690.229	0.0178492
690.308	0.0180965
690.386	0.0180037
690.464	0.0178626
690.542	0.0179190
690.620	0.0179618
690.698	0.0179311
690.776	0.0180605
690.854	0.0179826
690.933	0.0179607
691.011	0.0180594
691.089	0.0180185
691.167	0.0180206
691.245	0.0179591
691.323	0.0179152
691.401	0.0179623
691.479	0.0179952
691.558	0.0180177
691.636	0.0180066
691.714	0.0178982
691.792	0.0179839
691.870	0.0178719
691.948	0.0179124
692.026	0.0178542
692.104	0.0179359
692.183	0.0180305
692.261	0.0179807
692.339	0.0178425
692.417	0.0179253
692.495	0.0179988
692.573	0.0178386
692.651	0.0179375
692.729	0.0180825
692.808	0.0178424
692.886	0.0179049
692.964	0.0178059
693.042	0.0180432
693.120	0.0179602
693.198	0.0178777
693.276	0.0179089
693.354	0.0178876
693.433	0.0179652
693.511	0.0179259
693.589	0.0179277
693.667	0.0181195
693.745	0.0178945
693.823	0.0178662
693.901	0.0179835
693.979	0.0179486
694.058	0.0180141
694.136	0.0181293
694.214	0.0179207
694.292	0.0177510
694.370	0.0179864
694.448	0.0179306
694.526	0.0180035
694.604	0.0179301
694.683	0.0178779
694.761	0.0179839
694.839	0.0179212
694.917	0.0180347
694.995	0.0178574
695.073	0.0179433
695.151	0.0178529
695.229	0.0179745
695.308	0.0179313
695.386	0.0177742
695.464	0.0177697
695.542	0.0179366
695.620	0.0178900
695.698	0.0179541
695.776	0.0180859
695.854	0.0179142
695.933	0.0178723
696.011	0.0179498
696.089	0.0178761
696.167	0.0179831
696.245	0.0179205
696.323	0.0179877
696.401	0.0179167
696.479	0.0179038
696.558	0.0179620
696.636	0.0179269
696.714	0.0178937
696.792	0.0179173
696.870	0.0180444
696.948	0.0179449
697.026	0.0180522
697.104	0.0180560
697.183	0.0180251
697.261	0.0182530
697.339	0.0181866
697.417	0.0180638
697.495	0.0183149
697.573	0.0181461
697.651	0.0181783
697.729	0.0180733
697.808	0.0180619
697.886	0.0180412
697.964	0.0178601
698.042	0.0179522
698.120	0.0178896
698.198	0.0178202
698.276	0.0178377
698.354	0.0177058
698.433	0.0177661
698.511	0.0175601
698.589	0.0175481
698.667	0.0174228
698.745	0.0174412
698.823	0.0175675
698.901	0.0174658
698.979	0.0175538
699.058	0.0176818
699.136	0.0178577
699.214	0.0179276
699.292	0.0179596
699.370	0.0182131
699.448	0.0183930
699.526	0.0184838
699.604	0.0184967
699.683	0.0187386
699.761	0.0187637
699.839	0.0188570
699.917	0.0187527
699.995	0.0187005
700.073	0.0187293
700.151	0.0185200
700.229	0.0185506
700.308	0.0183975
700.386	0.0183282
700.464	0.0180856
700.542	0.0177729
700.620	0.0176355
700.698	0.0175903
700.776	0.0176086
700.854	0.0174789
700.933	0.0173824
701.011	0.0172183
701.089	0.0171584
701.167	0.0171994
701.245	0.0170679
701.323	0.0173269
701.401	0.0173136
701.479	0.0174104
701.558	0.0173421
701.636	0.0175845
701.714	0.0176955
701.792	0.0178230
701.870	0.0179243
701.948	0.0182096
702.026	0.0181960
702.104	0.0184407
702.183	0.0184739
702.261	0.0186948
702.339	0.0190036
702.417	0.0190109
702.495	0.0191562
702.573	0.0191988
702.651	0.0192019
702.729	0.0190729
702.808	0.0190842
702.886	0.0190207
702.964	0.0185842
703.042	0.0185230
703.120	0.0182285
703.198	0.0179995
703.276	0.0177258
703.354	0.0173869
703.433	0.0172188
703.511	0.0170565
703.589	0.0169036
703.667	0.0167368
703.745	0.0166595
703.823	0.0166904
703.901	0.0167065
703.979	0.0168504
704.058	0.0169509
704.136	0.0171832
704.214	0.0173678
704.292	0.0175262
704.370	0.0176576
704.448	0.0179130
704.526	0.0179888
704.604	0.0181286
704.683	0.0183038
704.761	0.0182727
704.839	0.0183366
704.917	0.0182793
704.995	0.0185422
705.073	0.0185626
705.151	0.0184426
705.229	0.0186572
705.308	0.0186545
705.386	0.0187160
705.464	0.0185826
705.542	0.0185823
705.620	0.0186747
705.698	0.0185933
705.776	0.0184357
705.854	0.0182809
705.933	0.0183981
706.011	0.0181118
706.089	0.0180085
706.167	0.0179640
706.245	0.0176881
706.323	0.0174516
706.401	0.0174776
706.479	0.0173577
706.558	0.0173363
706.636	0.0172590
706.714	0.0171801
706.792	0.0171925
706.870	0.0172790
706.948	0.0172231
707.026	0.0174551
707.104	0.0173994
707.183	0.0177106
707.261	0.0178564
707.339	0.0180807
707.417	0.0182271
707.495	0.0183568
707.573	0.0186366
707.651	0.0187222
707.729	0.0186832
707.808	0.0189060
707.886	0.0188573
707.964	0.0187135
708.042	0.0186402
708.120	0.0185508
708.198	0.0183972
708.276	0.0182053
708.354	0.0178950
708.433	0.0177699
708.511	0.0175721
708.589	0.0176932
708.667	0.0175126
708.745	0.0173918
708.823	0.0174353
708.901	0.0173683
708.979	0.0173842
709.058	0.0174754
709.136	0.0174042
709.214	0.0175659
709.292	0.0177324
709.370	0.0178819
709.448	0.0178609
709.526	0.0178999
709.604	0.0181850
709.683	0.0182740
709.761	0.0182910
709.839	0.0183271
709.917	0.0184125
709.995	0.0184647
710.073	0.0183298
710.151	0.0183855
710.229	0.0181859
710.308	0.0180193
710.386	0.0180518
710.464	0.0178532
710.542	0.0177283
710.620	0.0175651
710.698	0.0176041
710.776	0.0176514
710.854	0.0176886
710.933	0.0177030
711.011	0.0177292
711.089	0.0179613
711.167	0.0180009
711.245	0.0180731
711.323	0.0181068
711.401	0.0181445
711.479	0.0183240
711.558	0.0182727
711.636	0.0183015
711.714	0.0183672
711.792	0.0182925
711.870	0.0182625
711.948	0.0182095
712.026	0.0182652
712.104	0.0181713
712.183	0.0181493
712.261	0.0180085
712.339	0.0179527
712.417	0.0177851
712.495	0.0178125
712.573	0.0176572
712.651	0.0176768
712.729	0.0175809
712.808	0.0174626
712.886	0.0175420
712.964	0.0176095
713.042	0.0176403
713.120	0.0176245
713.198	0.0177416
713.276	0.0179142
713.354	0.0179859
713.433	0.0180163
713.511	0.0179449
713.589	0.0179793
713.667	0.0181372
713.745	0.0180795
713.823	0.0182289
713.901	0.0180824
713.979	0.0181576
714.058	0.0181367
714.136	0.0180954
714.214	0.0181624
714.292	0.0181080
714.370	0.0179956
714.448	0.0180112
714.526	0.0180671
714.604	0.0180659
714.683	0.0180661
714.761	0.0182197
714.839	0.0180418
714.917	0.0181149
714.995	0.0181293
715.073	0.0181554
715.151	0.0180463
715.229	0.0182119
715.308	0.0181679
715.386	0.0181419
715.464	0.0180498
715.542	0.0180268
715.620	0.0180260
715.698	0.0179888
715.776	0.0181023
715.854	0.0180535
715.933	0.0179305
716.011	0.0180972
716.089	0.0180569
716.167	0.0180782
716.245	0.0179790
716.323	0.0181712
716.401	0.0181393
716.479	0.0182290
716.558	0.0182531
716.636	0.0182513
716.714	0.0182476
716.792	0.0183099
716.870	0.0182426
716.948	0.0182687
717.026	0.0181976
717.104	0.0181790
717.183	0.0180749
717.261	0.0180822
717.339	0.0181086
717.417	0.0179065
717.495	0.0178471
717.573	0.0178953
717.651	0.0177110
717.729	0.0178389
717.808	0.0177865
717.886	0.0178148
717.964	0.0177291
718.042	0.0177328
718.120	0.0177980
718.198	0.0178945
718.276	0.0178476
718.354	0.0179584
718.433	0.0177475
718.511	0.0178158
718.589	0.0177905
718.667	0.0177898
718.745	0.0177750
718.823	0.0176971
718.901	0.0178429
718.979	0.0179023
719.058	0.0180225
719.136	0.0178173
719.214	0.0178575
719.292	0.0178918
719.370	0.0180345
719.448	0.0179654
719.526	0.0180103
719.604	0.0180075
719.683	0.0180425
719.761	0.0180321
719.839	0.0178162
719.917	0.0181303
719.995	0.0179871
720.073	0.0179784
720.151	0.0179842
720.229	0.0178075
720.308	0.0179146
720.386	0.0178792
720.464	0.0178564
720.542	0.0179655
720.620	0.0178522
720.698	0.0178027
720.776	0.0178535
720.854	0.0179524
720.933	0.0180235
721.011	0.0181075
721.089	0.0180756
721.167	0.0181814
721.245	0.0182446
721.323	0.0181879
721.401	0.0182595
721.479	0.0182693
721.558	0.0183295
721.636	0.0183875
721.714	0.0183403
721.792	0.0182017
721.870	0.0182381
721.948	0.0181272
722.026	0.0179111
722.104	0.0177345
722.183	0.0176829
722.261	0.0177113
722.339	0.0176346
722.417	0.0174809
722.495	0.0174486
722.573	0.0175468
722.651	0.0176151
722.729	0.0176208
722.808	0.0176375
722.886	0.0176854
722.964	0.0178590
723.042	0.0178111
723.120	0.0179530
723.198	0.0180977
723.276	0.0181721
723.354	0.0182338
723.433	0.0182128
723.511	0.0181169
723.589	0.0180811
723.667	0.0182201
723.745	0.0182288
723.823	0.0180649
723.901	0.0180611
723.979	0.0180241
724.058	0.0179507
724.136	0.0178852
724.214	0.0178021
724.292	0.0178226
724.370	0.0177620
724.448	0.0176733
724.526	0.0177556
724.604	0.0176688
724.683	0.0176513
724.761	0.0177800
724.839	0.0176075
724.917	0.0179047
724.995	0.0179136
725.073	0.0180602
725.151	0.0179884
725.229	0.0181535
725.308	0.0181628
725.386	0.0181284
725.464	0.0181133
725.542	0.0181454
725.620	0.0181852
725.698	0.0181781
725.776	0.0180590
725.854	0.0181388
725.933	0.0182043
726.011	0.0181001
726.089	0.0180453
726.167	0.0179764
726.245	0.0180051
726.323	0.0179456
726.401	0.0179237
726.479	0.0180052
726.558	0.0180350
726.636	0.0178853
726.714	0.0179122
726.792	0.0178241
726.870	0.0178294
726.948	0.0180118
727.026	0.0182351
727.104	0.0183119
727.183	0.0181287
727.261	0.0181735
727.339	0.0181137
727.417	0.0182044
727.495	0.0182021
727.573	0.0181480
727.651	0.0179424
727.729	0.0182825
727.808	0.0181777
727.886	0.0179472
727.964	0.0178506
728.042	0.0178594
728.120	0.0179002
728.198	0.0178646
728.276	0.0177302
728.354	0.0178102
728.433	0.0177502
728.511	0.0179465
728.589	0.0176476
728.667	0.0177530
728.745	0.0177765
728.823	0.0177215
728.901	0.0177606
728.979	0.0178178
729.058	0.0177898
729.136	0.0180375
729.214	0.0178207
729.292	0.0179416
729.370	0.0179399
729.448	0.0179694
729.526	0.0178954
729.604	0.0179153
729.683	0.0180360
729.761	0.0180327
729.839	0.0179240
729.917	0.0179704
729.995	0.0181194
730.073	0.0180156
730.151	0.0180362
730.229	0.0179118
730.308	0.0179480
730.386	0.0181163
730.464	0.0179830
730.542	0.0179604
730.620	0.0180447
730.698	0.0179727
730.776	0.0178348
730.854	0.0180442
730.933	0.0180967
731.011	0.0181065
731.089	0.0180770
731.167	0.0180570
731.245	0.0181836
731.323	0.0182850
731.401	0.0182574
731.479	0.0182007
731.558	0.0182562
731.636	0.0182726
731.714	0.0183478
731.792	0.0183622
731.870	0.0182582
731.948	0.0182095
732.026	0.0181359
732.104	0.0182774
732.183	0.0181271
732.261	0.0179298
732.339	0.0178587
732.417	0.0179535
732.495	0.0178578
732.573	0.0179580
732.651	0.0177113
732.729	0.0178922
732.808	0.0178040
732.886	0.0177842
732.964	0.0178671
733.042	0.0179831
733.120	0.0179314
733.198	0.0180052
733.276	0.0178447
733.354	0.0179033
733.433	0.0179851
733.511	0.0178747
733.589	0.0180673
733.667	0.0179158
733.745	0.0181664
733.823	0.0178802
733.901	0.0178752
733.979	0.0180155
734.058	0.0179529
734.136	0.0179916
734.214	0.0180438
734.292	0.0178950
734.370	0.0179845
734.448	0.0179917
734.526	0.0179518
734.604	0.0180120
734.683	0.0179324
734.761	0.0179742
734.839	0.0179812
734.917	0.0181396
734.995	0.0180264
735.073	0.0180304
735.151	0.0181224
735.229	0.0180338
735.308	0.0180450
735.386	0.0180101
735.464	0.0180521
735.542	0.0182123
735.620	0.0180942
735.698	0.0179810
735.776	0.0181175
735.854	0.0181601
735.933	0.0180238
736.011	0.0181073
736.089	0.0180200
736.167	0.0180797
736.245	0.0180306
736.323	0.0179536
736.401	0.0179958
736.479	0.0180476
736.558	0.0179906
736.636	0.0180591
736.714	0.0180148
736.792	0.0180164
736.870	0.0179626
736.948	0.0179205
737.026	0.0178293
737.104	0.0180531
737.183	0.0180987
737.261	0.0180309
737.339	0.0181092
737.417	0.0180228
737.495	0.0179626
737.573	0.0179314
737.651	0.0179824
737.729	0.0179913
737.808	0.0178992
737.886	0.0178565
737.964	0.0179098
738.042	0.0178048
738.120	0.0179317
738.198	0.0177967
738.276	0.0177729
738.354	0.0177593
738.433	0.0177925
738.511	0.0177822
738.589	0.0178878
738.667	0.0177168
738.745	0.0177532
738.823	0.0179156
738.901	0.0179027
738.979	0.0179308
739.058	0.0179846
739.136	0.0178696
739.214	0.0180522
739.292	0.0181127
739.370	0.0179311
739.448	0.0180579
739.526	0.0180475
739.604	0.0181367
739.683	0.0180222
739.761	0.0179817
739.839	0.0180339
739.917	0.0179742
739.995	0.0179769
740.073	0.0180641
740.151	0.0180967
740.229	0.0181066
740.308	0.0181842
740.386	0.0181658
740.464	0.0180173
740.542	0.0180272
740.620	0.0181204
740.698	0.0181776
740.776	0.0182957
740.854	0.0182464
740.933	0.0181965
741.011	0.0181970
741.089	0.0182200
741.167	0.0182151
741.245	0.0181318
741.323	0.0180862
741.401	0.0180518
741.479	0.0179960
741.558	0.0179908
741.636	0.0179951
741.714	0.0178618
741.792	0.0179753
741.870	0.0179584
741.948	0.0178660
742.026	0.0178732
742.104	0.0179401
742.183	0.0179668
742.261	0.0179674
742.339	0.0179853
742.417	0.0178287
742.495	0.0180977
742.573	0.0179639
742.651	0.0178984
742.729	0.0180932
742.808	0.0179263
742.886	0.0178838
742.964	0.0179331
743.042	0.0180714
743.120	0.0180704
743.198	0.0179791
743.276	0.0179167
743.354	0.0179376
743.433	0.0179693
743.511	0.0179529
743.589	0.0179583
743.667	0.0178521
743.745	0.0179418
743.823	0.0179056
743.901	0.0179699
743.979	0.0179445
744.058	0.0180180
744.136	0.0180617
744.214	0.0180726
744.292	0.0179363
744.370	0.0180227
744.448	0.0180499
744.526	0.0181170
744.604	0.0179681
744.683	0.0180600
744.761	0.0178835
744.839	0.0180251
744.917	0.0180816
744.995	0.0178316
745.073	0.0178990
745.151	0.0180138
745.229	0.0180276
745.308	0.0178848
745.386	0.0178998
745.464	0.0180055
745.542	0.0180148
745.620	0.0178905
745.698	0.0179044
745.776	0.0180431
745.854	0.0181136
745.933	0.0179711
746.011	0.0179100
746.089	0.0180161
746.167	0.0178492
746.245	0.0179452
746.323	0.0179476
746.401	0.0180426
746.479	0.0179060
746.558	0.0178456
746.636	0.0179736
746.714	0.0180045
746.792	0.0179752
746.870	0.0179633
746.948	0.0180754
747.026	0.0180002
747.104	0.0180379
747.183	0.0179940
747.261	0.0179913
747.339	0.0179933
747.417	0.0179897
747.495	0.0179571
747.573	0.0179900
747.651	0.0179189
747.729	0.0180359
747.808	0.0178312
747.886	0.0178742
747.964	0.0179018
748.042	0.0179878
748.120	0.0179382
748.198	0.0178944
748.276	0.0178540
748.354	0.0178670
748.433	0.0177834
748.511	0.0179615
748.589	0.0179622
748.667	0.0178239
748.745	0.0179831
748.823	0.0179224
748.901	0.0178951
748.979	0.0180129
749.058	0.0179080
749.136	0.0179820
749.214	0.0179749
749.292	0.0178983
749.370	0.0181320
749.448	0.0180793
749.526	0.0180152
749.604	0.0180758
749.683	0.0180399
749.761	0.0180244
749.839	0.0180379
749.917	0.0180492
749.995	0.0180792
750.073	0.0179736
750.151	0.0179208
750.229	0.0180833
750.308	0.0179699
750.386	0.0179883
750.464	0.0179669
750.542	0.0178809
750.620	0.0179628
750.698	0.0178717
750.776	0.0178773
750.854	0.0178983
750.933	0.0179347
751.011	0.0179491
751.089	0.0178657
751.167	0.0178461
751.245	0.0177414
751.323	0.0177541
751.401	0.0178922
751.479	0.0178764
751.558	0.0178508
751.636	0.0178521
751.714	0.0179031
751.792	0.0178519
751.870	0.0179008
751.948	0.0179842
752.026	0.0179080
752.104	0.0179700
752.183	0.0177561
752.261	0.0179684
752.339	0.0178462
752.417	0.0180071
752.495	0.0179825
752.573	0.0179372
752.651	0.0178391
752.729	0.0178391
752.808	0.0178716
752.886	0.0179482
752.964	0.0179614
753.042	0.0178574
753.120	0.0179639
753.198	0.0179639
753.276	0.0181045
753.354	0.0179146
753.433	0.0180413
753.511	0.0180471
753.589	0.0181529
753.667	0.0182241
753.745	0.0180493
753.823	0.0181395
753.901	0.0181562
753.979	0.0180508
754.058	0.0181763
754.136	0.0183020
754.214	0.0181213
754.292	0.0181815
754.370	0.0182332
754.448	0.0181067
754.526	0.0182125
754.604	0.0181731
754.683	0.0179305
754.761	0.0180347
754.839	0.0180470
754.917	0.0180406
754.995	0.0181091
755.073	0.0180250
755.151	0.0180542
755.229	0.0179308
755.308	0.0179019
755.386	0.0178669
755.464	0.0178921
755.542	0.0179874
755.620	0.0178973
755.698	0.0178307
755.776	0.0179851
755.854	0.0179321
755.933	0.0178815
756.011	0.0179472
756.089	0.0179798
756.167	0.0178806
756.245	0.0178606
756.323	0.0179607
756.401	0.0178342
756.479	0.0180218
756.558	0.0180048
756.636	0.0178735
756.714	0.0181593
756.792	0.0179868
756.870	0.0179707
756.948	0.0179108
757.026	0.0178670
757.104	0.0179148
757.183	0.0178675
757.261	0.0179440
757.339	0.0179748
757.417	0.0177902
757.495	0.0178712
757.573	0.0177777
757.651	0.0177899
757.729	0.0178532
757.808	0.0178999
757.886	0.0178586
757.964	0.0177850
758.042	0.0178228
758.120	0.0179549
758.198	0.0178112
758.276	0.0178320
758.354	0.0178506
758.433	0.0179100
758.511	0.0179922
758.589	0.0178703
758.667	0.0179588
758.745	0.0180731
758.823	0.0179809
758.901	0.0179257
758.979	0.0180180
759.058	0.0179200
759.136	0.0178739
759.214	0.0177952
759.292	0.0179835
759.370	0.0177783
759.448	0.0179672
759.526	0.0179839
759.604	0.0179659
759.683	0.0179216
759.761	0.0178876
759.839	0.0176915
759.917	0.0179779
759.995	0.0179581
760.073	0.0178894
760.151	0.0180146
760.229	0.0180487
760.308	0.0179783
760.386	0.0181323
760.464	0.0181709
760.542	0.0179459
760.620	0.0179987
760.698	0.0180724
760.776	0.0180394
760.854	0.0181622
760.933	0.0180544
761.011	0.0180653
761.089	0.0179886
761.167	0.0179784
761.245	0.0179829
761.323	0.0179790
761.401	0.0180091
761.479	0.0179700
761.558	0.0181355
761.636	0.0179436
761.714	0.0178310
761.792	0.0179865
761.870	0.0180789
761.948	0.0178654
762.026	0.0178808
762.104	0.0180780
762.183	0.0181702
762.261	0.0179938
762.339	0.0180312
762.417	0.0181218
762.495	0.0180157
762.573	0.0181249
762.651	0.0178989
762.729	0.0180759
762.808	0.0180420
762.886	0.0180418
762.964	0.0179324
763.042	0.0179934
763.120	0.0180328
763.198	0.0180582
763.276	0.0178622
763.354	0.0178999
763.433	0.0179762
763.511	0.0179739
763.589	0.0180488
763.667	0.0179808
763.745	0.0179344
763.823	0.0180403
763.901	0.0180907
763.979	0.0180910
764.058	0.0179662
764.136	0.0180988
764.214	0.0181059
764.292	0.0181324
764.370	0.0181184
764.448	0.0181760
764.526	0.0181252
764.604	0.0179704
764.683	0.0181847
764.761	0.0180590
764.839	0.0180159
764.917	0.0180134
764.995	0.0178895
765.073	0.0178899
765.151	0.0179044
765.229	0.0178444
765.308	0.0177289
765.386	0.0178228
765.464	0.0177638
765.542	0.0177425
765.620	0.0178205
765.698	0.0178607
765.776	0.0178308
765.854	0.0177746
765.933	0.0178452
766.011	0.0179683
766.089	0.0178863
766.167	0.0178367
766.245	0.0179000
766.323	0.0178956
766.401	0.0179233
766.479	0.0180924
766.558	0.0180663
766.636	0.0178795
766.714	0.0180302
766.792	0.0180059
766.870	0.0180330
766.948	0.0178857
767.026	0.0179645
767.104	0.0180712
767.183	0.0179573
767.261	0.0179498
767.339	0.0180111
767.417	0.0179202
767.495	0.0178535
767.573	0.0180449
767.651	0.0181194
767.729	0.0180272
767.808	0.0179420
767.886	0.0180080
767.964	0.0179193
768.042	0.0180550
768.120	0.0179551
768.198	0.0179728
768.276	0.0179491
768.354	0.0178901
768.433	0.0180201
768.511	0.0179369
768.589	0.0178886
768.667	0.0180348
768.745	0.0180551
768.823	0.0179595
768.901	0.0179124
768.979	0.0179031
769.058	0.0178444
769.136	0.0179743
769.214	0.0179629
769.292	0.0180461
769.370	0.0180980
769.448	0.0180829
769.526	0.0181010
769.604	0.0179909
769.683	0.0181008
769.761	0.0181600
769.839	0.0180618
769.917	0.0180539
769.995	0.0181205
770.073	0.0180073
770.151	0.0180178
770.229	0.0181738
770.308	0.0179845
770.386	0.0180392
770.464	0.0179648
770.542	0.0178932
770.620	0.0179076
770.698	0.0179577
770.776	0.0178742
770.854	0.0178727
770.933	0.0178909
771.011	0.0179630
771.089	0.0179382
771.167	0.0179955
771.245	0.0179562
771.323	0.0179836
771.401	0.0179622
771.479	0.0179771
771.558	0.0179964
771.636	0.0180704
771.714	0.0180479
771.792	0.0180633
771.870	0.0181090
771.948	0.0181089
772.026	0.0179799
772.104	0.0180669
772.183	0.0180878
772.261	0.0180108
772.339	0.0179421
772.417	0.0178653
772.495	0.0180592
772.573	0.0179146
772.651	0.0179904
772.729	0.0177824
772.808	0.0179326
772.886	0.0179623
772.964	0.0179465
773.042	0.0179501
773.120	0.0179778
773.198	0.0179188
773.276	0.0180584
773.354	0.0179945
773.433	0.0179353
773.511	0.0178539
773.589	0.0179394
773.667	0.0178891
773.745	0.0180065
773.823	0.0179365
773.901	0.0180089
773.979	0.0180582
774.058	0.0180161
774.136	0.0179426
774.214	0.0180518
774.292	0.0181581
774.370	0.0180661
774.448	0.0179979
774.526	0.0179979
774.604	0.0180189
774.683	0.0178602
774.761	0.0179317
774.839	0.0180332
774.917	0.0179698
774.995	0.0179934
775.073	0.0179421
775.151	0.0178195
775.229	0.0177719
775.308	0.0178273
775.386	0.0178352
775.464	0.0178442
775.542	0.0179562
775.620	0.0178999
775.698	0.0179690
775.776	0.0179917
775.854	0.0178963
775.933	0.0178976
776.011	0.0179347
776.089	0.0180328
776.167	0.0180938
776.245	0.0181270
776.323	0.0181042
776.401	0.0180256
776.479	0.0181448
776.558	0.0181156
776.636	0.0182107
776.714	0.0181410
776.792	0.0181944
776.870	0.0181635
776.948	0.0182868
777.026	0.0181538
777.104	0.0181322
777.183	0.0182222
777.261	0.0180914
777.339	0.0178640
777.417	0.0179716
777.495	0.0178357
777.573	0.0178254
777.651	0.0177115
777.729	0.0177832
777.808	0.0179578
777.886	0.0178194
777.964	0.0178388
778.042	0.0178590
778.120	0.0178781
778.198	0.0178358
778.276	0.0179831
778.354	0.0180100
778.433	0.0180112
778.511	0.0179368
778.589	0.0179580
778.667	0.0180748
778.745	0.0180966
778.823	0.0180160
778.901	0.0181026
778.979	0.0181675
779.058	0.0181355
779.136	0.0179420
779.214	0.0180347
779.292	0.0179957
779.370	0.0181503
779.448	0.0181019
779.526	0.0180000
779.604	0.0180520
779.683	0.0179891
779.761	0.0180431
779.839	0.0178809
779.917	0.0181390
779.995	0.0178764
780.073	0.0178723
780.151	0.0180611
780.229	0.0180612
780.308	0.0179412
780.386	0.0179517
780.464	0.0180058
780.542	0.0179422
780.620	0.0181624
780.698	0.0180002
780.776	0.0177605
780.854	0.0178985
780.933	0.0180377
781.011	0.0181136
781.089	0.0180673
781.167	0.0179025
781.245	0.0179067
781.323	0.0180393
781.401	0.0179567
781.479	0.0179249
781.558	0.0178506
781.636	0.0179086
781.714	0.0179465
781.792	0.0178687
781.870	0.0179893
781.948	0.0178101
782.026	0.0179165
782.104	0.0179160
782.183	0.0178679
782.261	0.0178687
782.339	0.0179250
782.417	0.0179456
782.495	0.0178527
782.573	0.0178434
782.651	0.0180440
782.729	0.0179781
782.808	0.0179026
782.886	0.0178655
782.964	0.0180135
783.042	0.0178703
783.120	0.0178730
783.198	0.0179288
783.276	0.0179951
783.354	0.0180792
783.433	0.0179827
783.511	0.0180978
783.589	0.0180543
783.667	0.0180183
783.745	0.0180383
783.823	0.0181393
783.901	0.0180190
783.979	0.0180659
784.058	0.0179562
784.136	0.0178751
784.214	0.0181002
784.292	0.0180285
784.370	0.0180739
784.448	0.0179836
784.526	0.0179766
784.604	0.0180110
784.683	0.0179809
784.761	0.0179897
784.839	0.0179763
784.917	0.0178894
784.995	0.0180080
785.073	0.0180381
785.151	0.0180745
785.229	0.0180388
785.308	0.0180859
785.386	0.0180605
785.464	0.0179818
785.542	0.0180965
785.620	0.0180799
785.698	0.0179114
785.776	0.0178880
785.854	0.0178354
785.933	0.0178741
786.011	0.0180916
786.089	0.0180083
786.167	0.0177905
786.245	0.0180101
786.323	0.0179690
786.401	0.0180147
786.479	0.0180783
786.558	0.0180820
786.636	0.0179080
786.714	0.0179109
786.792	0.0180799
786.870	0.0180096
786.948	0.0180352
787.026	0.0180471
787.104	0.0180841
787.183	0.0180112
787.261	0.0180660
787.339	0.0180732
787.417	0.0181296
787.495	0.0180271
787.573	0.0181236
787.651	0.0179985
787.729	0.0181792
787.808	0.0180244
787.886	0.0178538
787.964	0.0179183
788.042	0.0179601
788.120	0.0180255
788.198	0.0180428
788.276	0.0180492
788.354	0.0178839
788.433	0.0179555
788.511	0.0179825
788.589	0.0177908
788.667	0.0179251
788.745	0.0179223
788.823	0.0178458
788.901	0.0179030
788.979	0.0178857
789.058	0.0179306
789.136	0.0180051
789.214	0.0180139
789.292	0.0180584
789.370	0.0180221
789.448	0.0179399
789.526	0.0179153
789.604	0.0180867
789.683	0.0180494
789.761	0.0180238
789.839	0.0182035
789.917	0.0180399
789.995	0.0180418
790.073	0.0180453
790.151	0.0180511
790.229	0.0179646
790.308	0.0180804
790.386	0.0180211
790.464	0.0179702
790.542	0.0179897
790.620	0.0180711
790.698	0.0178249
790.776	0.0179691
790.854	0.0178960
790.933	0.0179314
791.011	0.0179346
791.089	0.0180063
791.167	0.0181151
791.245	0.0180584
791.323	0.0180367
791.401	0.0180715
791.479	0.0178794
791.558	0.0180938
791.636	0.0180260
791.714	0.0180753
791.792	0.0180375
791.870	0.0180292
791.948	0.0180396
792.026	0.0180700
792.104	0.0181571
792.183	0.0180556
792.261	0.0180820
792.339	0.0179886
792.417	0.0178681
792.495	0.0180359
792.573	0.0180236
792.651	0.0180907
792.729	0.0180866
792.808	0.0180514
792.886	0.0179329
792.964	0.0180227
793.042	0.0181306
793.120	0.0180164
793.198	0.0180151
793.276	0.0179538
793.354	0.0180328
793.433	0.0180929
793.511	0.0180882
793.589	0.0180228
793.667	0.0178889
793.745	0.0178324
793.823	0.0179992
793.901	0.0180445
793.979	0.0180316
794.058	0.0179359
794.136	0.0180103
794.214	0.0179132
794.292	0.0180081
794.370	0.0179635
794.448	0.0180543
794.526	0.0180779
794.604	0.0181055
794.683	0.0180822
794.761	0.0179193
794.839	0.0179633
794.917	0.0178740
794.995	0.0180517
795.073	0.0180076
795.151	0.0180120
795.229	0.0179567
795.308	0.0180498
795.386	0.0181567
795.464	0.0180043
795.542	0.0180401
795.620	0.0179984
795.698	0.0178745
795.776	0.0178970
795.854	0.0178309
795.933	0.0181020
796.011	0.0180891
796.089	0.0180894
796.167	0.0179775
796.245	0.0180116
796.323	0.0180347
796.401	0.0180074
796.479	0.0181336
796.558	0.0180639
796.636	0.0181821
796.714	0.0180516
796.792	0.0180383
796.870	0.0181639
796.948	0.0181068
797.026	0.0180525
797.104	0.0181868
797.183	0.0179733
797.261	0.0180684
797.339	0.0181161
797.417	0.0180524
797.495	0.0180021
797.573	0.0180429
797.651	0.0181419
797.729	0.0180163
797.808	0.0178826
797.886	0.0179943
797.964	0.0178938
798.042	0.0181313
798.120	0.0180766
798.198	0.0180295
798.276	0.0180382
798.354	0.0180515
798.433	0.0179601
798.511	0.0180807
798.589	0.0182697
798.667	0.0180399
798.745	0.0181152
798.823	0.0180146
798.901	0.0180549
798.979	0.0181097
799.058	0.0182108
799.136	0.0181565
799.214	0.0180951
799.292	0.0180434
799.370	0.0180337
799.448	0.0181441
799.526	0.0180177
799.604	0.0179552
799.683	0.0180493
799.761	0.0178742
799.839	0.0180390
799.917	0.0179482
799.995	0.0179027
800.073	0.0179620
800.151	0.0178381
800.229	0.0178732
800.308	0.0179557
800.386	0.0178507
800.464	0.0178271
800.542	0.0179383
800.620	0.0179279
800.698	0.0179662
800.776	0.0178681
800.854	0.0178592
800.933	0.0179262
801.011	0.0180099
801.089	0.0179652
801.167	0.0179348
801.245	0.0179599
801.323	0.0181220
801.401	0.0181175
801.479	0.0180030
801.558	0.0180566
801.636	0.0179891
801.714	0.0180010
801.792	0.0180432
801.870	0.0180862
801.948	0.0180145
802.026	0.0180433
802.104	0.0180176
802.183	0.0179509
802.261	0.0180444
802.339	0.0181773
802.417	0.0181138
802.495	0.0179879
802.573	0.0178452
802.651	0.0178823
802.729	0.0179080
802.808	0.0180558
802.886	0.0179570
802.964	0.0180645
803.042	0.0179966
803.120	0.0180313
803.198	0.0180453
803.276	0.0178034
803.354	0.0179881
803.433	0.0178175
803.511	0.0180424
803.589	0.0178613
803.667	0.0178233
803.745	0.0179284
803.823	0.0178208
803.901	0.0178934
803.979	0.0178185
804.058	0.0178870
804.136	0.0178850
804.214	0.0178597
804.292	0.0179630
804.370	0.0177435
804.448	0.0178168
804.526	0.0178870
804.604	0.0178287
804.683	0.0179174
804.761	0.0178723
804.839	0.0181274
804.917	0.0178712
804.995	0.0179858
805.073	0.0180283
805.151	0.0180905
805.229	0.0180660
805.308	0.0179331
805.386	0.0178978
805.464	0.0180633
805.542	0.0179580
805.620	0.0179825
805.698	0.0180875
805.776	0.0179857
805.854	0.0180892
805.933	0.0181196
806.011	0.0180991
806.089	0.0180453
806.167	0.0179585
806.245	0.0179845
806.323	0.0181107
806.401	0.0180997
806.479	0.0180158
806.558	0.0180355
806.636	0.0180382
806.714	0.0179826
806.792	0.0179481
806.870	0.0178757
806.948	0.0180070
807.026	0.0179327
807.104	0.0179982
807.183	0.0179257
807.261	0.0179894
807.339	0.0179681
807.417	0.0179775
807.495	0.0179601
807.573	0.0179279
807.651	0.0180292
807.729	0.0181441
807.808	0.0179915
807.886	0.0180183
807.964	0.0181243
808.042	0.0181162
808.120	0.0180152
808.198	0.0182048
808.276	0.0180925
808.354	0.0180531
808.433	0.0180653
808.511	0.0181973
808.589	0.0181331
808.667	0.0182310
808.745	0.0180823
808.823	0.0182233
808.901	0.0181719
808.979	0.0180923
809.058	0.0181215
809.136	0.0180652
809.214	0.0181046
809.292	0.0182041
809.370	0.0180919
809.448	0.0180191
809.526	0.0181404
809.604	0.0179944
809.683	0.0179734
809.761	0.0179432
809.839	0.0179028
809.917	0.0179979
809.995	0.0179174
810.073	0.0179027
810.151	0.0180268
810.229	0.0179523
810.308	0.0178957
810.386	0.0178319
810.464	0.0177995
810.542	0.0179807
810.620	0.0179514
810.698	0.0179585
810.776	0.0180024
810.854	0.0180594
810.933	0.0180465
811.011	0.0181057
811.089	0.0181443
811.167	0.0179975
811.245	0.0180347
811.323	0.0180372
811.401	0.0180338
811.479	0.0179418
811.558	0.0179382
811.636	0.0180608
811.714	0.0179056
811.792	0.0179189
811.870	0.0179244
811.948	0.0179140
812.026	0.0178043
812.104	0.0178410
812.183	0.0178033
812.261	0.0178545
812.339	0.0177837
812.417	0.0177170
812.495	0.0179139
812.573	0.0179471
812.651	0.0178272
812.729	0.0179605
812.808	0.0179050
812.886	0.0179530
812.964	0.0180125
813.042	0.0179796
813.120	0.0180080
813.198	0.0180790
813.276	0.0178984
813.354	0.0180578
813.433	0.0179573
813.511	0.0179881
813.589	0.0179425
813.667	0.0178773
813.745	0.0178457
813.823	0.0180274
813.901	0.0179002
813.979	0.0179542
814.058	0.0178868
814.136	0.0179403
814.214	0.0179804
814.292	0.0178561
814.370	0.0180305
814.448	0.0179560
814.526	0.0179095
814.604	0.0180260
814.683	0.0178527
814.761	0.0180264
814.839	0.0181467
814.917	0.0180179
814.995	0.0180333
815.073	0.0180087
815.151	0.0180327
815.229	0.0180629
815.308	0.0180521
815.386	0.0180715
815.464	0.0180933
815.542	0.0179989
815.620	0.0179606
815.698	0.0179240
815.776	0.0179862
815.854	0.0179529
815.933	0.0179442
816.011	0.0179032
816.089	0.0180428
816.167	0.0178311
816.245	0.0178278
816.323	0.0180227
816.401	0.0178581
816.479	0.0178619
816.558	0.0179642
816.636	0.0178628
816.714	0.0179789
816.792	0.0177961
816.870	0.0179438
816.948	0.0179948
817.026	0.0179539
817.104	0.0179280
817.183	0.0178937
817.261	0.0179038
817.339	0.0179861
817.417	0.0180072
817.495	0.0180656
817.573	0.0180197
817.651	0.0179484
817.729	0.0181674
817.808	0.0181912
817.886	0.0180688
817.964	0.0180321
818.042	0.0179534
818.120	0.0180299
818.198	0.0180401
818.276	0.0181661
818.354	0.0179525
818.433	0.0179445
818.511	0.0179610
818.589	0.0180209
818.667	0.0179092
818.745	0.0180686
818.823	0.0179192
818.901	0.0178853
818.979	0.0179720
819.058	0.0178675
819.136	0.0180274
819.214	0.0179478
819.292	0.0179583
819.370	0.0180133
819.448	0.0179072
819.526	0.0180284
819.604	0.0180434
819.683	0.0179943
819.761	0.0179170
819.839	0.0179803
819.917	0.0180231
819.995	0.0181332
820.073	0.0180065
820.151	0.0180653
820.229	0.0181487
820.308	0.0180315
820.386	0.0179764
820.464	0.0181271
820.542	0.0181212
820.620	0.0181437
820.698	0.0179787
820.776	0.0181889
820.854	0.0180572
820.933	0.0179911
821.011	0.0180122
821.089	0.0179861
821.167	0.0180248
821.245	0.0177985
821.323	0.0179910
821.401	0.0178667
821.479	0.0180911
821.558	0.0181033
821.636	0.0179480
821.714	0.0180739
821.792	0.0179850
821.870	0.0179215
821.948	0.0180582
822.026	0.0179867
822.104	0.0180235
822.183	0.0180122
822.261	0.0179570
822.339	0.0179627
822.417	0.0180214
822.495	0.0179469
822.573	0.0179598
822.651	0.0179549
822.729	0.0180417
822.808	0.0179953
822.886	0.0179305
822.964	0.0180402
823.042	0.0180193
823.120	0.0180663
823.198	0.0179952
823.276	0.0179758
823.354	0.0179633
823.433	0.0180328
823.511	0.0180560
823.589	0.0180882
823.667	0.0179591
823.745	0.0180844
823.823	0.0180545
823.901	0.0180089
823.979	0.0180452
824.058	0.0180164
824.136	0.0180972
824.214	0.0179135
824.292	0.0179222
824.370	0.0181059
824.448	0.0180493
824.526	0.0179786
824.604	0.0179329
824.683	0.0178528
824.761	0.0179198
824.839	0.0179542
824.917	0.0178564
824.995	0.0178329
825.073	0.0178684
825.151	0.0179015
825.229	0.0178588
825.308	0.0180437
825.386	0.0178809
825.464	0.0177870
825.542	0.0179063
825.620	0.0179408
825.698	0.0179094
825.776	0.0179433
825.854	0.0180338
825.933	0.0178561
826.011	0.0179459
826.089	0.0179474
826.167	0.0179965
826.245	0.0179947
826.323	0.0180428
826.401	0.0180631
826.479	0.0179983
826.558	0.0179871
826.636	0.0180626
826.714	0.0180357
826.792	0.0178270
826.870	0.0179350
826.948	0.0179601
827.026	0.0179021
827.104	0.0179321
827.183	0.0178298
827.261	0.0179248
827.339	0.0180247
827.417	0.0179845
827.495	0.0179138
827.573	0.0178974
827.651	0.0178355
827.729	0.0177897
827.808	0.0180338
827.886	0.0179208
827.964	0.0178401
828.042	0.0179559
828.120	0.0179940
828.198	0.0180144
828.276	0.0180581
828.354	0.0180074
828.433	0.0180811
828.511	0.0178934
828.589	0.0179658
828.667	0.0178836
828.745	0.0179507
828.823	0.0180280
828.901	0.0180257
828.979	0.0179493
829.058	0.0180292
829.136	0.0179192
829.214	0.0180943
829.292	0.0179380
829.370	0.0177862
829.448	0.0179111
829.526	0.0179456
829.604	0.0179696
829.683	0.0180370
829.761	0.0178284
829.839	0.0179321
829.917	0.0179411
829.995	0.0179919
830.073	0.0180865
830.151	0.0178876
830.229	0.0178513
830.308	0.0178815
830.386	0.0180309
830.464	0.0179538
830.542	0.0180947
830.620	0.0180936
830.698	0.0180080
830.776	0.0179008
830.854	0.0179334
830.933	0.0179606
831.011	0.0178650
831.089	0.0179498
831.167	0.0180067
831.245	0.0179958
831.323	0.0179019
831.401	0.0178655
831.479	0.0177732
831.558	0.0179581
831.636	0.0179246
831.714	0.0178764
831.792	0.0179944
831.870	0.0181651
831.948	0.0179929
832.026	0.0179651
832.104	0.0179530
832.183	0.0180391
832.261	0.0179753
832.339	0.0180143
832.417	0.0179703
832.495	0.0180047
832.573	0.0181194
832.651	0.0180532
832.729	0.0180389
832.808	0.0180848
832.886	0.0179874
832.964	0.0180386
833.042	0.0180779
833.120	0.0180125
833.198	0.0180975
833.276	0.0181396
833.354	0.0179694
833.433	0.0178274
833.511	0.0179618
833.589	0.0179311
833.667	0.0179399
833.745	0.0180456
833.823	0.0179706
833.901	0.0179511
833.979	0.0179301
834.058	0.0177857
834.136	0.0179568
834.214	0.0179888
834.292	0.0180802
834.370	0.0180118
834.448	0.0180125
834.526	0.0180694
834.604	0.0179028
834.683	0.0180038
834.761	0.0179973
834.839	0.0181297
834.917	0.0181202
834.995	0.0181028
835.073	0.0180431
835.151	0.0180283
835.229	0.0181079
835.308	0.0179049
835.386	0.0179917
835.464	0.0180570
835.542	0.0180117
835.620	0.0179780
835.698	0.0180596
835.776	0.0180696
835.854	0.0179380
835.933	0.0180456
836.011	0.0180593
836.089	0.0180404
836.167	0.0180441
836.245	0.0179881
836.323	0.0178584
836.401	0.0180833
836.479	0.0180582
836.558	0.0179852
836.636	0.0179406
836.714	0.0180535
836.792	0.0179053
836.870	0.0178712
836.948	0.0180223
837.026	0.0180157
837.104	0.0180051
837.183	0.0180454
837.261	0.0179690
837.339	0.0179357
837.417	0.0180248
837.495	0.0180848
837.573	0.0178799
837.651	0.0178679
837.729	0.0180283
837.808	0.0180406
837.886	0.0180602
837.964	0.0181059
838.042	0.0179372
838.120	0.0180215
838.198	0.0179233
838.276	0.0180122
838.354	0.0180151
838.433	0.0179106
838.511	0.0179782
838.589	0.0179146
838.667	0.0180920
838.745	0.0180949
838.823	0.0177927
838.901	0.0179013
838.979	0.0179544
839.058	0.0179250
839.136	0.0181552
839.214	0.0178349
839.292	0.0181317
839.370	0.0179090
839.448	0.0178804
839.526	0.0179072
839.604	0.0179158
839.683	0.0179959
839.761	0.0179436
839.839	0.0179158
839.917	0.0179537
839.995	0.0180275
840.073	0.0180202
840.151	0.0178221
840.229	0.0178992
840.308	0.0180368
840.386	0.0180239
840.464	0.0178843
840.542	0.0179814
840.620	0.0178851
840.698	0.0178426
840.776	0.0178362
840.854	0.0179489
840.933	0.0180193
841.011	0.0178625
841.089	0.0179285
841.167	0.0178872
841.245	0.0178058
841.323	0.0180064
841.401	0.0180344
841.479	0.0180621
841.558	0.0180464
841.636	0.0179621
841.714	0.0181108
841.792	0.0179809
841.870	0.0180788
841.948	0.0179888
842.026	0.0179318
842.104	0.0179195
842.183	0.0180782
842.261	0.0180768
842.339	0.0179585
842.417	0.0180555
842.495	0.0178164
842.573	0.0180811
842.651	0.0178564
842.729	0.0179369
842.808	0.0179510
842.886	0.0179612
842.964	0.0180320
843.042	0.0180653
843.120	0.0179066
843.198	0.0179591
843.276	0.0179619
843.354	0.0179566
843.433	0.0179181
843.511	0.0179637
843.589	0.0179796
843.667	0.0178782
843.745	0.0179915
843.823	0.0179144
843.901	0.0180340
843.979	0.0179772
844.058	0.0179179
844.136	0.0179577
844.214	0.0179551
844.292	0.0180276
844.370	0.0179704
844.448	0.0180206
844.526	0.0178723
844.604	0.0180255
844.683	0.0180801
844.761	0.0180782
844.839	0.0179848
844.917	0.0181170
844.995	0.0181087
845.073	0.0180365
845.151	0.0180724
845.229	0.0179960
845.308	0.0181068
845.386	0.0180273
845.464	0.0180241
845.542	0.0180794
845.620	0.0180019
845.698	0.0179764
845.776	0.0180235
845.854	0.0180294
845.933	0.0179733
846.011	0.0178733
846.089	0.0179475
846.167	0.0178815
846.245	0.0178646
846.323	0.0179912
846.401	0.0179040
846.479	0.0181171
846.558	0.0180189
846.636	0.0179459
846.714	0.0179687
846.792	0.0178843
846.870	0.0180363
846.948	0.0180328
847.026	0.0179243
847.104	0.0178561
847.183	0.0179801
847.261	0.0179553
847.339	0.0178417
847.417	0.0178928
847.495	0.0179941
847.573	0.0178172
847.651	0.0179083
847.729	0.0180536
847.808	0.0179255
847.886	0.0180323
847.964	0.0179762
848.042	0.0178839
848.120	0.0181199
848.198	0.0178529
848.276	0.0180817
848.354	0.0180512
848.433	0.0179748
848.511	0.0179881
848.589	0.0180410
848.667	0.0180446
848.745	0.0180324
848.823	0.0182186
848.901	0.0180911
848.979	0.0179746
849.058	0.0181007
849.136	0.0180951
849.214	0.0179695
849.292	0.0179581
849.370	0.0179836
849.448	0.0179868
849.526	0.0180196
849.604	0.0181606
849.683	0.0180181
849.761	0.0179026
849.839	0.0181118
849.917	0.0180073
849.995	0.0179742
850.073	0.0178311
850.151	0.0179652
850.229	0.0180091
850.308	0.0179996
850.386	0.0179691
850.464	0.0177931
850.542	0.0179462
850.620	0.0179196
850.698	0.0178832
850.776	0.0179699
850.854	0.0179575
850.933	0.0179741
851.011	0.0179804
851.089	0.0179435
851.167	0.0180024
851.245	0.0178387
851.323	0.0178629
851.401	0.0178805
851.479	0.0178996
851.558	0.0180685
851.636	0.0179254
851.714	0.0180180
851.792	0.0179624
851.870	0.0180140
851.948	0.0179533
852.026	0.0179248
852.104	0.0179559
852.183	0.0180318
852.261	0.0178668
852.339	0.0180158
852.417	0.0180546
852.495	0.0180768
852.573	0.0179910
852.651	0.0180963
852.729	0.0179786
852.808	0.0179735
852.886	0.0179735
852.964	0.0179179
853.042	0.0179547
853.120	0.0180767
853.198	0.0180308
853.276	0.0179286
853.354	0.0181028
853.433	0.0179664
853.511	0.0179680
853.589	0.0179684
853.667	0.0178162
853.745	0.0179639
853.823	0.0179284
853.901	0.0179126
853.979	0.0179056
854.058	0.0178169
854.136	0.0179017
854.214	0.0179195
854.292	0.0178527
854.370	0.0177299
854.448	0.0180091
854.526	0.0178062
854.604	0.0178226
854.683	0.0178114
854.761	0.0178477
854.839	0.0178227
854.917	0.0179082
854.995	0.0178767
855.073	0.0179383
855.151	0.0178847
855.229	0.0178525
855.308	0.0178620
855.386	0.0178512
855.464	0.0179309
855.542	0.0178328
855.620	0.0179185
855.698	0.0178355
855.776	0.0180949
855.854	0.0180072
855.933	0.0181575
856.011	0.0179555
856.089	0.0180429
856.167	0.0180769
856.245	0.0180084
856.323	0.0179583
856.401	0.0180855
856.479	0.0180640
856.558	0.0180843
856.636	0.0180804
856.714	0.0181320
856.792	0.0181091
856.870	0.0181338
856.948	0.0179759
857.026	0.0179710
857.104	0.0180412
857.183	0.0180611
857.261	0.0180816
857.339	0.0180910
857.417	0.0180848
857.495	0.0179507
857.573	0.0180982
857.651	0.0180167
857.729	0.0181166
857.808	0.0179223
857.886	0.0180817
857.964	0.0180411
858.042	0.0180712
858.120	0.0181165
858.198	0.0180838
858.276	0.0180938
858.354	0.0180516
858.433	0.0180256
858.511	0.0182165
858.589	0.0180825
858.667	0.0179393
858.745	0.0181439
858.823	0.0180601
858.901	0.0178797
858.979	0.0179649
859.058	0.0180173
859.136	0.0179863
859.214	0.0181130
859.292	0.0179638
859.370	0.0179703
859.448	0.0179467
859.526	0.0180048
859.604	0.0179313
859.683	0.0179558
859.761	0.0179866
859.839	0.0180317
859.917	0.0180022
859.995	0.0180434
860.073	0.0181635
860.151	0.0181116
860.229	0.0180438
860.308	0.0181350
860.386	0.0180756
860.464	0.0179677
860.542	0.0179881
860.620	0.0181608
860.698	0.0180724
860.776	0.0181082
860.854	0.0179695
860.933	0.0179740
861.011	0.0179830
861.089	0.0179724
861.167	0.0180782
861.245	0.0179251
861.323	0.0179229
861.401	0.0180603
861.479	0.0181203
861.558	0.0180309
861.636	0.0179937
861.714	0.0179098
861.792	0.0180473
861.870	0.0181751
861.948	0.0180368
862.026	0.0179566
862.104	0.0179401
862.183	0.0180162
862.261	0.0179618
862.339	0.0180492
862.417	0.0179972
862.495	0.0180228
862.573	0.0180314
862.651	0.0178924
862.729	0.0179131
862.808	0.0179443
862.886	0.0178776
862.964	0.0179635
863.042	0.0179420
863.120	0.0179552
863.198	0.0179234
863.276	0.0178898
863.354	0.0178717
863.433	0.0178790
863.511	0.0179263
863.589	0.0179440
863.667	0.0178951
863.745	0.0178847
863.823	0.0177483
863.901	0.0179062
863.979	0.0180012
864.058	0.0179417
864.136	0.0180285
864.214	0.0179717
864.292	0.0180029
864.370	0.0180084
864.448	0.0179563
864.526	0.0180595
864.604	0.0179758
864.683	0.0179200
864.761	0.0179103
864.839	0.0182006
864.917	0.0180889
864.995	0.0179465
865.073	0.0179286
865.151	0.0180239
865.229	0.0181495
865.308	0.0180263
865.386	0.0178550
865.464	0.0178786
865.542	0.0180893
865.620	0.0179824
865.698	0.0179561
865.776	0.0180551
865.854	0.0181108
865.933	0.0182071
866.011	0.0179711
866.089	0.0179478
866.167	0.0179758
866.245	0.0180255
866.323	0.0180040
866.401	0.0180646
866.479	0.0180180
866.558	0.0181573
866.636	0.0179893
866.714	0.0180394
866.792	0.0181559
866.870	0.0179940
866.948	0.0179938
867.026	0.0180257
867.104	0.0179558
867.183	0.0179810
867.261	0.0179630
867.339	0.0180325
867.417	0.0178954
867.495	0.0178944
867.573	0.0179424
867.651	0.0178407
867.729	0.0178362
867.808	0.0179748
867.886	0.0178973
867.964	0.0178416
868.042	0.0179894
868.120	0.0179276
868.198	0.0179575
868.276	0.0179308
868.354	0.0180095
868.433	0.0180227
868.511	0.0178919
868.589	0.0179060
868.667	0.0180441
868.745	0.0179459
868.823	0.0180112
868.901	0.0178709
868.979	0.0179210
869.058	0.0178557
869.136	0.0181248
869.214	0.0180019
869.292	0.0179639
869.370	0.0180550
869.448	0.0181052
869.526	0.0180608
869.604	0.0179881
869.683	0.0180966
869.761	0.0180512
869.839	0.0181538
869.917	0.0180810
869.995	0.0180619
870.073	0.0179675
870.151	0.0182507
870.229	0.0182126
870.308	0.0180744
870.386	0.0182150
870.464	0.0181332
870.542	0.0181082
870.620	0.0180988
870.698	0.0180235
870.776	0.0180613
870.854	0.0180846
870.933	0.0180280
871.011	0.0180219
871.089	0.0180626
871.167	0.0180913
871.245	0.0178654
871.323	0.0179008
871.401	0.0178912
871.479	0.0180082
871.558	0.0178690
871.636	0.0179060
871.714	0.0179935
871.792	0.0179311
871.870	0.0179638
871.948	0.0179858
872.026	0.0179542
872.104	0.0179093
872.183	0.0180557
872.261	0.0179144
872.339	0.0181100
872.417	0.0179506
872.495	0.0180106
872.573	0.0180663
872.651	0.0179340
872.729	0.0181476
872.808	0.0181185
872.886	0.0181052
872.964	0.0180953
873.042	0.0179958
873.120	0.0179856
873.198	0.0181347
873.276	0.0181881
873.354	0.0180611
873.433	0.0179729
873.511	0.0179724
873.589	0.0179089
873.667	0.0179237
873.745	0.0179512
873.823	0.0180257
873.901	0.0180277
873.979	0.0180003
874.058	0.0180710
874.136	0.0177753
874.214	0.0178780
874.292	0.0180521
874.370	0.0180127
874.448	0.0180054
874.526	0.0180154
874.604	0.0180518
874.683	0.0180946
874.761	0.0179218
874.839	0.0181182
874.917	0.0181320
874.995	0.0180538
875.073	0.0180371
875.151	0.0180833
875.229	0.0181039
875.308	0.0181525
875.386	0.0180737
875.464	0.0180704
875.542	0.0179611
875.620	0.0179053
875.698	0.0180096
875.776	0.0178991
875.854	0.0179107
875.933	0.0180215
876.011	0.0179079
876.089	0.0178883
876.167	0.0178791
876.245	0.0179244
876.323	0.0177694
876.401	0.0179924
876.479	0.0178717
876.558	0.0178671
876.636	0.0178545
876.714	0.0179713
876.792	0.0179706
876.870	0.0178873
876.948	0.0179103
877.026	0.0179604
877.104	0.0180452
877.183	0.0179887
877.261	0.0178867
877.339	0.0178430
877.417	0.0179639
877.495	0.0180300
877.573	0.0179961
877.651	0.0180373
877.729	0.0180331
877.808	0.0179739
877.886	0.0180928
877.964	0.0180479
878.042	0.0179012
878.120	0.0181724
878.198	0.0181027
878.276	0.0180273
878.354	0.0178639
878.433	0.0179602
878.511	0.0178870
878.589	0.0178171
878.667	0.0179648
878.745	0.0179096
878.823	0.0178410
878.901	0.0179339
878.979	0.0178622
879.058	0.0178268
879.136	0.0178624
879.214	0.0180623
879.292	0.0180363
879.370	0.0180452
879.448	0.0179114
879.526	0.0177576
879.604	0.0177665
879.683	0.0181911
879.761	0.0179126
879.839	0.0179424
879.917	0.0178068
879.995	0.0179123
880.073	0.0181384
880.151	0.0180475
880.229	0.0178782
880.308	0.0180689
880.386	0.0179688
880.464	0.0177163
880.542	0.0179861
880.620	0.0180065
880.698	0.0180709
880.776	0.0179901
880.854	0.0179420
880.933	0.0179142
881.011	0.0180798
881.089	0.0179909
881.167	0.0180752
881.245	0.0180180
881.323	0.0179499
881.401	0.0179221
881.479	0.0178817
881.558	0.0180497
881.636	0.0179663
881.714	0.0179982
881.792	0.0180739
881.870	0.0179626
881.948	0.0180958
882.026	0.0179709
882.104	0.0177904
882.183	0.0181332
882.261	0.0180280
882.339	0.0179559
882.417	0.0178294
882.495	0.0180134
882.573	0.0179056
882.651	0.0180460
882.729	0.0179956
882.808	0.0180917
882.886	0.0180842
882.964	0.0180481
883.042	0.0178861
883.120	0.0178669
883.198	0.0179513
883.276	0.0180608
883.354	0.0180663
883.433	0.0181113
883.511	0.0181951
883.589	0.0180099
883.667	0.0180112
883.745	0.0180782
883.823	0.0180409
883.901	0.0179583
883.979	0.0180408
884.058	0.0180820
884.136	0.0179937
884.214	0.0180769
884.292	0.0181891
884.370	0.0180488
884.448	0.0179370
884.526	0.0179598
884.604	0.0180553
884.683	0.0181155
884.761	0.0180602
884.839	0.0179785
884.917	0.0178735
884.995	0.0180011
885.073	0.0181669
885.151	0.0178242
885.229	0.0179912
885.308	0.0178738
885.386	0.0179447
885.464	0.0180039
885.542	0.0180920
885.620	0.0179429
885.698	0.0179560
885.776	0.0179594
885.854	0.0179182
885.933	0.0179948
886.011	0.0180813
886.089	0.0180296
886.167	0.0179414
886.245	0.0180251
886.323	0.0180175
886.401	0.0180286
886.479	0.0179995
886.558	0.0179827
886.636	0.0180726
886.714	0.0180360
886.792	0.0179350
886.870	0.0180240
886.948	0.0180598
887.026	0.0179571
887.104	0.0179477
887.183	0.0179639
887.261	0.0179582
887.339	0.0179864
887.417	0.0180776
887.495	0.0181747
887.573	0.0179311
887.651	0.0179746
887.729	0.0180181
887.808	0.0179358
887.886	0.0179428
887.964	0.0180141
888.042	0.0179469
888.120	0.0179430
888.198	0.0179832
888.276	0.0180606
888.354	0.0180354
888.433	0.0180157
888.511	0.0180386
888.589	0.0179422
888.667	0.0180238
888.745	0.0180039
888.823	0.0179953
888.901	0.0180542
888.979	0.0180036
889.058	0.0178210
889.136	0.0178516
889.214	0.0178170
889.292	0.0178761
889.370	0.0178983
889.448	0.0179863
889.526	0.0179030
889.604	0.0179552
889.683	0.0177964
889.761	0.0179136
889.839	0.0180069
889.917	0.0179053
889.995	0.0179230
890.073	0.0179597
890.151	0.0178897
890.229	0.0180015
890.308	0.0178020
890.386	0.0178476
890.464	0.0179613
890.542	0.0179541
890.620	0.0180091
890.698	0.0179277
890.776	0.0179559
890.854	0.0180151
890.933	0.0179699
891.011	0.0179855
891.089	0.0180653
891.167	0.0181096
891.245	0.0180701
891.323	0.0180193
891.401	0.0181750
891.479	0.0180893
891.558	0.0180412
891.636	0.0180501
891.714	0.0178925
891.792	0.0179111
891.870	0.0180052
891.948	0.0179691
892.026	0.0180876
892.104	0.0179304
892.183	0.0179907
892.261	0.0179636
892.339	0.0178880
892.417	0.0178671
892.495	0.0179733
892.573	0.0178999
892.651	0.0178693
892.729	0.0179117
892.808	0.0177747
892.886	0.0179444
892.964	0.0180513
893.042	0.0179126
893.120	0.0179227
893.198	0.0180417
893.276	0.0179449
893.354	0.0178201
893.433	0.0180923
893.511	0.0179832
893.589	0.0180878
893.667	0.0180930
893.745	0.0182047
893.823	0.0182226
893.901	0.0181512
893.979	0.0180978
894.058	0.0181790
894.136	0.0180803
894.214	0.0181133
894.292	0.0180697
894.370	0.0181515
894.448	0.0180518
894.526	0.0180643
894.604	0.0180809
894.683	0.0180111
894.761	0.0182147
894.839	0.0179904
894.917	0.0180439
894.995	0.0180612
895.073	0.0180231
895.151	0.0180305
895.229	0.0179585
895.308	0.0179993
895.386	0.0180384
895.464	0.0180294
895.542	0.0179105
895.620	0.0178515
895.698	0.0178991
895.776	0.0178191
895.854	0.0177660
895.933	0.0177982
896.011	0.0179967
896.089	0.0180479
896.167	0.0180593
896.245	0.0178719
896.323	0.0179662
896.401	0.0178951
896.479	0.0179606
896.558	0.0181798
896.636	0.0180981
896.714	0.0181146
896.792	0.0180203
896.870	0.0181220
896.948	0.0180701
897.026	0.0179986
897.104	0.0180877
897.183	0.0179977
897.261	0.0179331
897.339	0.0180000
897.417	0.0181396
897.495	0.0180246
897.573	0.0179581
897.651	0.0179376
897.729	0.0179135
897.808	0.0178769
897.886	0.0179172
897.964	0.0179005
898.042	0.0178490
898.120	0.0178277
898.198	0.0178526
898.276	0.0179503
898.354	0.0180316
898.433	0.0178011
898.511	0.0177583
898.589	0.0179162
898.667	0.0178928
898.745	0.0178989
898.823	0.0179527
898.901	0.0181154
898.979	0.0180450
899.058	0.0180450
899.136	0.0180661
899.214	0.0181262
899.292	0.0180454
899.370	0.0181474
899.448	0.0180525
899.526	0.0181567
899.604	0.0181174
899.683	0.0179881
899.761	0.0180880
899.839	0.0180665
899.917	0.0179803
899.995	0.0179778
900.073	0.0181174
900.151	0.0179315
900.229	0.0179576
900.308	0.0178710
900.386	0.0179255
900.464	0.0179120
900.542	0.0179205
900.620	0.0179820
900.698	0.0179990
900.776	0.0180273
900.854	0.0180487
900.933	0.0178826
901.011	0.0179375
901.089	0.0180491
901.167	0.0178830
901.245	0.0179312
901.323	0.0179156
901.401	0.0177036
901.479	0.0179652
901.558	0.0180148
901.636	0.0180882
901.714	0.0179916
901.792	0.0180133
901.870	0.0180516
901.948	0.0179697
902.026	0.0178840
902.104	0.0179105
902.183	0.0180269
902.261	0.0179269
902.339	0.0179932
902.417	0.0179066
902.495	0.0178188
902.573	0.0179990
902.651	0.0180344
902.729	0.0179705
902.808	0.0179961
902.886	0.0180450
902.964	0.0181117
903.042	0.0179453
903.120	0.0179147
903.198	0.0179806
903.276	0.0179401
903.354	0.0177934
903.433	0.0178906
903.511	0.0179939
903.589	0.0178738
903.667	0.0177914
903.745	0.0180090
903.823	0.0178854
903.901	0.0179482
903.979	0.0177874
904.058	0.0179082
904.136	0.0178158
904.214	0.0179253
904.292	0.0178143
904.370	0.0178855
904.448	0.0180523
904.526	0.0179862
904.604	0.0179237
904.683	0.0180136
904.761	0.0180114
904.839	0.0180089
904.917	0.0179121
904.995	0.0180723
905.073	0.0180611
905.151	0.0179530
905.229	0.0178862
905.308	0.0179939
905.386	0.0179388
905.464	0.0180128
905.542	0.0179252
905.620	0.0179406
905.698	0.0180309
905.776	0.0178535
905.854	0.0180982
905.933	0.0179497
906.011	0.0179003
906.089	0.0180370
906.167	0.0179422
906.245	0.0179653
906.323	0.0180008
906.401	0.0180261
906.479	0.0180189
906.558	0.0179766
906.636	0.0180737
906.714	0.0180206
906.792	0.0181078
906.870	0.0180266
906.948	0.0179786
907.026	0.0180922
907.104	0.0179230
907.183	0.0179574
907.261	0.0179589
907.339	0.0180470
907.417	0.0180552
907.495	0.0179830
907.573	0.0179674
907.651	0.0178287
907.729	0.0180015
907.808	0.0178988
907.886	0.0180011
907.964	0.0179101
908.042	0.0178873
908.120	0.0179585
908.198	0.0179283
908.276	0.0180380
908.354	0.0178725
908.433	0.0178976
908.511	0.0179415
908.589	0.0180559
908.667	0.0179070
908.745	0.0180114
908.823	0.0180107
908.901	0.0179698
908.979	0.0178907
909.058	0.0181068
909.136	0.0179082
909.214	0.0179421
909.292	0.0179565
909.370	0.0178712
909.448	0.0178451
909.526	0.0179216
909.604	0.0180168
909.683	0.0180616
909.761	0.0179241
909.839	0.0180062
909.917	0.0179117
909.995	0.0179271
910.073	0.0180756
910.151	0.0180111
910.229	0.0180789
910.308	0.0179898
910.386	0.0181065
910.464	0.0180641
910.542	0.0179519
910.620	0.0180623
910.698	0.0179822
910.776	0.0180405
910.854	0.0181285
910.933	0.0179615
911.011	0.0179156
911.089	0.0180670
911.167	0.0177671
911.245	0.0180479
911.323	0.0181181
911.401	0.0180051
911.479	0.0179330
911.558	0.0179902
911.636	0.0179028
911.714	0.0179530
911.792	0.0180476
911.870	0.0179776
911.948	0.0179922
912.026	0.0180009
912.104	0.0179481
912.183	0.0181266
912.261	0.0180393
912.339	0.0181938
912.417	0.0182217
912.495	0.0179964
912.573	0.0180206
912.651	0.0179513
912.729	0.0179956
912.808	0.0180730
912.886	0.0180761
912.964	0.0180154
913.042	0.0181000
913.120	0.0179794
913.198	0.0179748
913.276	0.0180388
913.354	0.0181079
913.433	0.0179384
913.511	0.0180857
913.589	0.0180039
913.667	0.0181247
913.745	0.0180236
913.823	0.0177818
913.901	0.0179868
913.979	0.0179042
914.058	0.0180412
914.136	0.0180643
914.214	0.0179678
914.292	0.0179633
914.370	0.0179930
914.448	0.0179829
914.526	0.0180582
914.604	0.0179376
914.683	0.0180404
914.761	0.0180140
914.839	0.0180694
914.917	0.0179261
914.995	0.0181287
915.073	0.0180304
915.151	0.0180919
915.229	0.0179673
915.308	0.0180947
915.386	0.0180710
915.464	0.0180330
915.542	0.0178318
915.620	0.0179234
915.698	0.0180035
915.776	0.0180572
915.854	0.0179572
915.933	0.0179528
916.011	0.0179736
916.089	0.0179057
916.167	0.0179643
916.245	0.0179288
916.323	0.0178612
916.401	0.0179845
916.479	0.0180593
916.558	0.0177802
916.636	0.0179414
916.714	0.0179747
916.792	0.0179681
916.870	0.0181153
916.948	0.0180211
917.026	0.0180066
917.104	0.0179032
917.183	0.0180144
917.261	0.0181520
917.339	0.0180338
917.417	0.0180804
917.495	0.0181483
917.573	0.0181176
917.651	0.0181454
917.729	0.0180875
917.808	0.0180949
917.886	0.0179644
917.964	0.0180819
918.042	0.0179274
918.120	0.0180048
918.198	0.0181170
918.276	0.0179152
918.354	0.0180203
918.433	0.0180327
918.511	0.0181261
918.589	0.0178771
918.667	0.0181296
918.745	0.0180109
918.823	0.0181395
918.901	0.0180110
918.979	0.0181030
919.058	0.0180458
919.136	0.0181067
919.214	0.0179875
919.292	0.0181332
919.370	0.0181207
919.448	0.0180453
919.526	0.0179664
919.604	0.0180182
919.683	0.0180209
919.761	0.0179907
919.839	0.0181698
919.917	0.0180321
