06/03/2022	18:24:03	Ver.	4.1	UNKNOWN
Optical Delay	599.995081	Delta X		0.078125	Sweeps	1	Scan Rate	0/0
Coordinates	Axis 1	NaN	Axis 2	NaN	Axis 3	NaN	Axis 4	NaN	Axis 5	NaN	Axis 6	0.000000
TX Power	0.000000	RX Power	0.000000

599.995	0.0178510
600.073	0.0179241
600.151	0.0179453
600.229	0.0177076
600.308	0.0177393
600.386	0.0177032
600.464	0.0178886
600.542	0.0178367
600.620	0.0179080
600.698	0.0177184
600.776	0.0177675
600.854	0.0177020
600.933	0.0178036
601.011	0.0177775
601.089	0.0178583
601.167	0.0179031
601.245	0.0177769
601.323	0.0179611
601.401	0.0177763
601.479	0.0177461
601.558	0.0179248
601.636	0.0178012
601.714	0.0178495
601.792	0.0178466
601.870	0.0178286
601.948	0.0177956
602.026	0.0176739
602.104	0.0180115
602.183	0.0179006
602.261	0.0177505
602.339	0.0177102
602.417	0.0177175
602.495	0.0176474
602.573	0.0178158
602.651	0.0177975
602.729	0.0177927
602.808	0.0177943
602.886	0.0178397
602.964	0.0178159
603.042	0.0177232
603.120	0.0177078
603.198	0.0177741
603.276	0.0177862
603.354	0.0177946
603.433	0.0176394
603.511	0.0178741
603.589	0.0177377
603.667	0.0176755
603.745	0.0177184
603.823	0.0179314
603.901	0.0178027
603.979	0.0177257
604.058	0.0178434
604.136	0.0177855
604.214	0.0177778
604.292	0.0179270
604.370	0.0177679
604.448	0.0177843
604.526	0.0178016
604.604	0.0178105
604.683	0.0177872
604.761	0.0179702
604.839	0.0178353
604.917	0.0177283
604.995	0.0179160
605.073	0.0179134
605.151	0.0178302
605.229	0.0178759
605.308	0.0178211
605.386	0.0177910
605.464	0.0178363
605.542	0.0178759
605.620	0.0179365
605.698	0.0178567
605.776	0.0178508
605.854	0.0178469
605.933	0.0178556
606.011	0.0178513
606.089	0.0178735
606.167	0.0176546
606.245	0.0177112
606.323	0.0178550
606.401	0.0178191
606.479	0.0178570
606.558	0.0178542
606.636	0.0178117
606.714	0.0179035
606.792	0.0177917
606.870	0.0177671
606.948	0.0178616
607.026	0.0178792
607.104	0.0178758
607.183	0.0178057
607.261	0.0178991
607.339	0.0179910
607.417	0.0178726
607.495	0.0178317
607.573	0.0177776
607.651	0.0178716
607.729	0.0178683
607.808	0.0179288
607.886	0.0178844
607.964	0.0178320
608.042	0.0177183
608.120	0.0178858
608.198	0.0178170
608.276	0.0177857
608.354	0.0179089
608.433	0.0178154
608.511	0.0178741
608.589	0.0178506
608.667	0.0177716
608.745	0.0177288
608.823	0.0178674
608.901	0.0178143
608.979	0.0178797
609.058	0.0178584
609.136	0.0176977
609.214	0.0180058
609.292	0.0178293
609.370	0.0179106
609.448	0.0179050
609.526	0.0177946
609.604	0.0177630
609.683	0.0178278
609.761	0.0178139
609.839	0.0179877
609.917	0.0178980
609.995	0.0178546
610.073	0.0178677
610.151	0.0178040
610.229	0.0177462
610.308	0.0177699
610.386	0.0178787
610.464	0.0177952
610.542	0.0178952
610.620	0.0178866
610.698	0.0178458
610.776	0.0179031
610.854	0.0177576
610.933	0.0178784
611.011	0.0178574
611.089	0.0177821
611.167	0.0180435
611.245	0.0178539
611.323	0.0178751
611.401	0.0178652
611.479	0.0177897
611.558	0.0179259
611.636	0.0179639
611.714	0.0178851
611.792	0.0178751
611.870	0.0179889
611.948	0.0180399
612.026	0.0178230
612.104	0.0177934
612.183	0.0179212
612.261	0.0178508
612.339	0.0178292
612.417	0.0178281
612.495	0.0177047
612.573	0.0178301
612.651	0.0179430
612.729	0.0178819
612.808	0.0178033
612.886	0.0179804
612.964	0.0178255
613.042	0.0179297
613.120	0.0179393
613.198	0.0178262
613.276	0.0178647
613.354	0.0177241
613.433	0.0179302
613.511	0.0178850
613.589	0.0177556
613.667	0.0176707
613.745	0.0178255
613.823	0.0179098
613.901	0.0178484
613.979	0.0178681
614.058	0.0178654
614.136	0.0176931
614.214	0.0179247
614.292	0.0178102
614.370	0.0179876
614.448	0.0180868
614.526	0.0178526
614.604	0.0177657
614.683	0.0178053
614.761	0.0179197
614.839	0.0178416
614.917	0.0178004
614.995	0.0177596
615.073	0.0178377
615.151	0.0178492
615.229	0.0179080
615.308	0.0178239
615.386	0.0179344
615.464	0.0178992
615.542	0.0178533
615.620	0.0179093
615.698	0.0178885
615.776	0.0176682
615.854	0.0177984
615.933	0.0179500
616.011	0.0177486
616.089	0.0178664
616.167	0.0177637
616.245	0.0179099
616.323	0.0177492
616.401	0.0177748
616.479	0.0179705
616.558	0.0178678
616.636	0.0179033
616.714	0.0178735
616.792	0.0177565
616.870	0.0179256
616.948	0.0177956
617.026	0.0178120
617.104	0.0178436
617.183	0.0180402
617.261	0.0179905
617.339	0.0177853
617.417	0.0178347
617.495	0.0178720
617.573	0.0177788
617.651	0.0179517
617.729	0.0179555
617.808	0.0178637
617.886	0.0178829
617.964	0.0178331
618.042	0.0178115
618.120	0.0179008
618.198	0.0178437
618.276	0.0178993
618.354	0.0179652
618.433	0.0180445
618.511	0.0178658
618.589	0.0177957
618.667	0.0178841
618.745	0.0179612
618.823	0.0177184
618.901	0.0177236
618.979	0.0178403
619.058	0.0178394
619.136	0.0179491
619.214	0.0180363
619.292	0.0177445
619.370	0.0177090
619.448	0.0177724
619.526	0.0177229
619.604	0.0178812
619.683	0.0180177
619.761	0.0177785
619.839	0.0177358
619.917	0.0178493
619.995	0.0177333
620.073	0.0176900
620.151	0.0178784
620.229	0.0178030
620.308	0.0177826
620.386	0.0179027
620.464	0.0179013
620.542	0.0178397
620.620	0.0178115
620.698	0.0177554
620.776	0.0178251
620.854	0.0177260
620.933	0.0177151
621.011	0.0178453
621.089	0.0177866
621.167	0.0177490
621.245	0.0177969
621.323	0.0177554
621.401	0.0176466
621.479	0.0178924
621.558	0.0177068
621.636	0.0177163
621.714	0.0177983
621.792	0.0178644
621.870	0.0179196
621.948	0.0177424
622.026	0.0177931
622.104	0.0177364
622.183	0.0179022
622.261	0.0178893
622.339	0.0178354
622.417	0.0177811
622.495	0.0177625
622.573	0.0178342
622.651	0.0177786
622.729	0.0177859
622.808	0.0179613
622.886	0.0177931
622.964	0.0176121
623.042	0.0178710
623.120	0.0177808
623.198	0.0179146
623.276	0.0178191
623.354	0.0178417
623.433	0.0178693
623.511	0.0178680
623.589	0.0176986
623.667	0.0179150
623.745	0.0177934
623.823	0.0177200
623.901	0.0178544
623.979	0.0178287
624.058	0.0176985
624.136	0.0178262
624.214	0.0178882
624.292	0.0178209
624.370	0.0177283
624.448	0.0179206
624.526	0.0178399
624.604	0.0178179
624.683	0.0177377
624.761	0.0179086
624.839	0.0178172
624.917	0.0176839
624.995	0.0178864
625.073	0.0178341
625.151	0.0178324
625.229	0.0177616
625.308	0.0179419
625.386	0.0179085
625.464	0.0178796
625.542	0.0177924
625.620	0.0177283
625.698	0.0177753
625.776	0.0178635
625.854	0.0178530
625.933	0.0177908
626.011	0.0179521
626.089	0.0178139
626.167	0.0178598
626.245	0.0177107
626.323	0.0179020
626.401	0.0178118
626.479	0.0179036
626.558	0.0178269
626.636	0.0177435
626.714	0.0177655
626.792	0.0179715
626.870	0.0179211
626.948	0.0177898
627.026	0.0178282
627.104	0.0178049
627.183	0.0177750
627.261	0.0177902
627.339	0.0178404
627.417	0.0178717
627.495	0.0179376
627.573	0.0178819
627.651	0.0177684
627.729	0.0177628
627.808	0.0178181
627.886	0.0178541
627.964	0.0178994
628.042	0.0178793
628.120	0.0178292
628.198	0.0177707
628.276	0.0178143
628.354	0.0178458
628.433	0.0178610
628.511	0.0178091
628.589	0.0178609
628.667	0.0178663
628.745	0.0177902
628.823	0.0178130
628.901	0.0178938
628.979	0.0177918
629.058	0.0177764
629.136	0.0178043
629.214	0.0178526
629.292	0.0179015
629.370	0.0178928
629.448	0.0177984
629.526	0.0178700
629.604	0.0179555
629.683	0.0177968
629.761	0.0177840
629.839	0.0178761
629.917	0.0177762
629.995	0.0179462
630.073	0.0179578
630.151	0.0178202
630.229	0.0179504
630.308	0.0178051
630.386	0.0177423
630.464	0.0178558
630.542	0.0177776
630.620	0.0177434
630.698	0.0179185
630.776	0.0177933
630.854	0.0177104
630.933	0.0179100
631.011	0.0178446
631.089	0.0178382
631.167	0.0177425
631.245	0.0177670
631.323	0.0179488
631.401	0.0179088
631.479	0.0179350
631.558	0.0178529
631.636	0.0179067
631.714	0.0178400
631.792	0.0179871
631.870	0.0178133
631.948	0.0179221
632.026	0.0179186
632.104	0.0179587
632.183	0.0177972
632.261	0.0178238
632.339	0.0178342
632.417	0.0179135
632.495	0.0178282
632.573	0.0177482
632.651	0.0179108
632.729	0.0179980
632.808	0.0179897
632.886	0.0178814
632.964	0.0178374
633.042	0.0177968
633.120	0.0178072
633.198	0.0178310
633.276	0.0178982
633.354	0.0178386
633.433	0.0179386
633.511	0.0178301
633.589	0.0178002
633.667	0.0178758
633.745	0.0177856
633.823	0.0178053
633.901	0.0179387
633.979	0.0178900
634.058	0.0178999
634.136	0.0177472
634.214	0.0179081
634.292	0.0177397
634.370	0.0177913
634.448	0.0178886
634.526	0.0177839
634.604	0.0177650
634.683	0.0178294
634.761	0.0178054
634.839	0.0176939
634.917	0.0177802
634.995	0.0178020
635.073	0.0178867
635.151	0.0178786
635.229	0.0177798
635.308	0.0177862
635.386	0.0177785
635.464	0.0177814
635.542	0.0178016
635.620	0.0178429
635.698	0.0178238
635.776	0.0179189
635.854	0.0178493
635.933	0.0178064
636.011	0.0177164
636.089	0.0177394
636.167	0.0178893
636.245	0.0178617
636.323	0.0178094
636.401	0.0179398
636.479	0.0176974
636.558	0.0177797
636.636	0.0177979
636.714	0.0178078
636.792	0.0177747
636.870	0.0177567
636.948	0.0178223
637.026	0.0179022
637.104	0.0178483
637.183	0.0177866
637.261	0.0177515
637.339	0.0178777
637.417	0.0178192
637.495	0.0179542
637.573	0.0177390
637.651	0.0178359
637.729	0.0179215
637.808	0.0177733
637.886	0.0176543
637.964	0.0179800
638.042	0.0178515
638.120	0.0178626
638.198	0.0179044
638.276	0.0178526
638.354	0.0178053
638.433	0.0179516
638.511	0.0179347
638.589	0.0179205
638.667	0.0180021
638.745	0.0179665
638.823	0.0177783
638.901	0.0177766
638.979	0.0179317
639.058	0.0177976
639.136	0.0179510
639.214	0.0179129
639.292	0.0178402
639.370	0.0178311
639.448	0.0178439
639.526	0.0178194
639.604	0.0178711
639.683	0.0178040
639.761	0.0177717
639.839	0.0178770
639.917	0.0178165
639.995	0.0178901
640.073	0.0177592
640.151	0.0177496
640.229	0.0177225
640.308	0.0178401
640.386	0.0178593
640.464	0.0178313
640.542	0.0179195
640.620	0.0178725
640.698	0.0177992
640.776	0.0177003
640.854	0.0178629
640.933	0.0176302
641.011	0.0179157
641.089	0.0177612
641.167	0.0177045
641.245	0.0177850
641.323	0.0177779
641.401	0.0178146
641.479	0.0177721
641.558	0.0176685
641.636	0.0178074
641.714	0.0178439
641.792	0.0177240
641.870	0.0177588
641.948	0.0177662
642.026	0.0177868
642.104	0.0178217
642.183	0.0178792
642.261	0.0179391
642.339	0.0178119
642.417	0.0177021
642.495	0.0176890
642.573	0.0177624
642.651	0.0177705
642.729	0.0178189
642.808	0.0177147
642.886	0.0177281
642.964	0.0177771
643.042	0.0178519
643.120	0.0178348
643.198	0.0177631
643.276	0.0177735
643.354	0.0178697
643.433	0.0178139
643.511	0.0178860
643.589	0.0176458
643.667	0.0178098
643.745	0.0178162
643.823	0.0177664
643.901	0.0177167
643.979	0.0177729
644.058	0.0176569
644.136	0.0178632
644.214	0.0177481
644.292	0.0177872
644.370	0.0178336
644.448	0.0178479
644.526	0.0179007
644.604	0.0178259
644.683	0.0177359
644.761	0.0178609
644.839	0.0178323
644.917	0.0177727
644.995	0.0179053
645.073	0.0179010
645.151	0.0178336
645.229	0.0178268
645.308	0.0177940
645.386	0.0178677
645.464	0.0177113
645.542	0.0178504
645.620	0.0179008
645.698	0.0177311
645.776	0.0178570
645.854	0.0177742
645.933	0.0177405
646.011	0.0178510
646.089	0.0177034
646.167	0.0176657
646.245	0.0178722
646.323	0.0179029
646.401	0.0178634
646.479	0.0177168
646.558	0.0177838
646.636	0.0177623
646.714	0.0178161
646.792	0.0179675
646.870	0.0180042
646.948	0.0179493
647.026	0.0178131
647.104	0.0177768
647.183	0.0177889
647.261	0.0177697
647.339	0.0178536
647.417	0.0178355
647.495	0.0178223
647.573	0.0178146
647.651	0.0176298
647.729	0.0176926
647.808	0.0176559
647.886	0.0177657
647.964	0.0177922
648.042	0.0178232
648.120	0.0177488
648.198	0.0176852
648.276	0.0178739
648.354	0.0179293
648.433	0.0177379
648.511	0.0179311
648.589	0.0180016
648.667	0.0178893
648.745	0.0178013
648.823	0.0178617
648.901	0.0178247
648.979	0.0178570
649.058	0.0177135
649.136	0.0178318
649.214	0.0177648
649.292	0.0178062
649.370	0.0178906
649.448	0.0178012
649.526	0.0177347
649.604	0.0178601
649.683	0.0177937
649.761	0.0178229
649.839	0.0177481
649.917	0.0177179
649.995	0.0178992
650.073	0.0177586
650.151	0.0177941
650.229	0.0177248
650.308	0.0176508
650.386	0.0177826
650.464	0.0179331
650.542	0.0177766
650.620	0.0178438
650.698	0.0179919
650.776	0.0179429
650.854	0.0179259
650.933	0.0178671
651.011	0.0179184
651.089	0.0179008
651.167	0.0178330
651.245	0.0179747
651.323	0.0179083
651.401	0.0178413
651.479	0.0179326
651.558	0.0178201
651.636	0.0178693
651.714	0.0178307
651.792	0.0177650
651.870	0.0177787
651.948	0.0176204
652.026	0.0177489
652.104	0.0177841
652.183	0.0177792
652.261	0.0178220
652.339	0.0176454
652.417	0.0177302
652.495	0.0178545
652.573	0.0179524
652.651	0.0179514
652.729	0.0179530
652.808	0.0178800
652.886	0.0179077
652.964	0.0177725
653.042	0.0178909
653.120	0.0179723
653.198	0.0179576
653.276	0.0179492
653.354	0.0179927
653.433	0.0178205
653.511	0.0178587
653.589	0.0177502
653.667	0.0177464
653.745	0.0177280
653.823	0.0178841
653.901	0.0177612
653.979	0.0176446
654.058	0.0179309
654.136	0.0178881
654.214	0.0177260
654.292	0.0178681
654.370	0.0179095
654.448	0.0178051
654.526	0.0177924
654.604	0.0178305
654.683	0.0178958
654.761	0.0178824
654.839	0.0178933
654.917	0.0179771
654.995	0.0180001
655.073	0.0180036
655.151	0.0179755
655.229	0.0178960
655.308	0.0178504
655.386	0.0177987
655.464	0.0178551
655.542	0.0179758
655.620	0.0179531
655.698	0.0177837
655.776	0.0178670
655.854	0.0178310
655.933	0.0177839
656.011	0.0178448
656.089	0.0177277
656.167	0.0176965
656.245	0.0176827
656.323	0.0177349
656.401	0.0177969
656.479	0.0178357
656.558	0.0177844
656.636	0.0178579
656.714	0.0177758
656.792	0.0178401
656.870	0.0178036
656.948	0.0177446
657.026	0.0177831
657.104	0.0178781
657.183	0.0178898
657.261	0.0178647
657.339	0.0177576
657.417	0.0177824
657.495	0.0179156
657.573	0.0178699
657.651	0.0178565
657.729	0.0177242
657.808	0.0178301
657.886	0.0179476
657.964	0.0178403
658.042	0.0177202
658.120	0.0178081
658.198	0.0178392
658.276	0.0178398
658.354	0.0177647
658.433	0.0177137
658.511	0.0177692
658.589	0.0178280
658.667	0.0179794
658.745	0.0177962
658.823	0.0177282
658.901	0.0177466
658.979	0.0176664
659.058	0.0178968
659.136	0.0177549
659.214	0.0177726
659.292	0.0178681
659.370	0.0177705
659.448	0.0176991
659.526	0.0176949
659.604	0.0178677
659.683	0.0178947
659.761	0.0177739
659.839	0.0180542
659.917	0.0177351
659.995	0.0177337
660.073	0.0176370
660.151	0.0177750
660.229	0.0177021
660.308	0.0178337
660.386	0.0178143
660.464	0.0176054
660.542	0.0175632
660.620	0.0177486
660.698	0.0179610
660.776	0.0178756
660.854	0.0177309
660.933	0.0177367
661.011	0.0179158
661.089	0.0178346
661.167	0.0177867
661.245	0.0178304
661.323	0.0178793
661.401	0.0177482
661.479	0.0178485
661.558	0.0179063
661.636	0.0178493
661.714	0.0178931
661.792	0.0178778
661.870	0.0179147
661.948	0.0178907
662.026	0.0178036
662.104	0.0177161
662.183	0.0178632
662.261	0.0177557
662.339	0.0177664
662.417	0.0178277
662.495	0.0176680
662.573	0.0179359
662.651	0.0177618
662.729	0.0178481
662.808	0.0179721
662.886	0.0179199
662.964	0.0179102
663.042	0.0179509
663.120	0.0180177
663.198	0.0178651
663.276	0.0180054
663.354	0.0178404
663.433	0.0179374
663.511	0.0179472
663.589	0.0179356
663.667	0.0179351
663.745	0.0179268
663.823	0.0179123
663.901	0.0177791
663.979	0.0179022
664.058	0.0176356
664.136	0.0176750
664.214	0.0177094
664.292	0.0175142
664.370	0.0176334
664.448	0.0177441
664.526	0.0176811
664.604	0.0177431
664.683	0.0178338
664.761	0.0179191
664.839	0.0179258
664.917	0.0178473
664.995	0.0178316
665.073	0.0179625
665.151	0.0180343
665.229	0.0181467
665.308	0.0181367
665.386	0.0179408
665.464	0.0178630
665.542	0.0179480
665.620	0.0180649
665.698	0.0178663
665.776	0.0178696
665.854	0.0177515
665.933	0.0176316
666.011	0.0175684
666.089	0.0176962
666.167	0.0177550
666.245	0.0176740
666.323	0.0177048
666.401	0.0176132
666.479	0.0178392
666.558	0.0177575
666.636	0.0178101
666.714	0.0177512
666.792	0.0178674
666.870	0.0178885
666.948	0.0179133
667.026	0.0180618
667.104	0.0180866
667.183	0.0179830
667.261	0.0179072
667.339	0.0179916
667.417	0.0180757
667.495	0.0180914
667.573	0.0180110
667.651	0.0180391
667.729	0.0178797
667.808	0.0180071
667.886	0.0178010
667.964	0.0176926
668.042	0.0179295
668.120	0.0177537
668.198	0.0175965
668.276	0.0177001
668.354	0.0175270
668.433	0.0177002
668.511	0.0178355
668.589	0.0178607
668.667	0.0177399
668.745	0.0178799
668.823	0.0179073
668.901	0.0178791
668.979	0.0180338
669.058	0.0180317
669.136	0.0179937
669.214	0.0180463
669.292	0.0181587
669.370	0.0179337
669.448	0.0179762
669.526	0.0180299
669.604	0.0180712
669.683	0.0180339
669.761	0.0179889
669.839	0.0177818
669.917	0.0177876
669.995	0.0177065
670.073	0.0177673
670.151	0.0177345
670.229	0.0176820
670.308	0.0176849
670.386	0.0179118
670.464	0.0178041
670.542	0.0178059
670.620	0.0178023
670.698	0.0179150
670.776	0.0179232
670.854	0.0179443
670.933	0.0178866
671.011	0.0179056
671.089	0.0181024
671.167	0.0180332
671.245	0.0180002
671.323	0.0178975
671.401	0.0177795
671.479	0.0178661
671.558	0.0177265
671.636	0.0179782
671.714	0.0177657
671.792	0.0178997
671.870	0.0179063
671.948	0.0178971
672.026	0.0178006
672.104	0.0178564
672.183	0.0178419
672.261	0.0178252
672.339	0.0178638
672.417	0.0179073
672.495	0.0179372
672.573	0.0179012
672.651	0.0177676
672.729	0.0177885
672.808	0.0178785
672.886	0.0178133
672.964	0.0179631
673.042	0.0179224
673.120	0.0179498
673.198	0.0179080
673.276	0.0179637
673.354	0.0178795
673.433	0.0178228
673.511	0.0179483
673.589	0.0178456
673.667	0.0177512
673.745	0.0178937
673.823	0.0179517
673.901	0.0178865
673.979	0.0179997
674.058	0.0177669
674.136	0.0178278
674.214	0.0178289
674.292	0.0177921
674.370	0.0178625
674.448	0.0178148
674.526	0.0179333
674.604	0.0177915
674.683	0.0179668
674.761	0.0178188
674.839	0.0180070
674.917	0.0179494
674.995	0.0178722
675.073	0.0178831
675.151	0.0180102
675.229	0.0178571
675.308	0.0178732
675.386	0.0180162
675.464	0.0178589
675.542	0.0177787
675.620	0.0180006
675.698	0.0177412
675.776	0.0178242
675.854	0.0177694
675.933	0.0178561
676.011	0.0178599
676.089	0.0176705
676.167	0.0177713
676.245	0.0177692
676.323	0.0178151
676.401	0.0177364
676.479	0.0177453
676.558	0.0176974
676.636	0.0178619
676.714	0.0177322
676.792	0.0177085
676.870	0.0177614
676.948	0.0177598
677.026	0.0177740
677.104	0.0178088
677.183	0.0179971
677.261	0.0179751
677.339	0.0179863
677.417	0.0179651
677.495	0.0179143
677.573	0.0177998
677.651	0.0179958
677.729	0.0178639
677.808	0.0176331
677.886	0.0178989
677.964	0.0176340
678.042	0.0178173
678.120	0.0177505
678.198	0.0176830
678.276	0.0178706
678.354	0.0177058
678.433	0.0176545
678.511	0.0176601
678.589	0.0176965
678.667	0.0177249
678.745	0.0178630
678.823	0.0177994
678.901	0.0178808
678.979	0.0178093
679.058	0.0179224
679.136	0.0178747
679.214	0.0179852
679.292	0.0177573
679.370	0.0178795
679.448	0.0178549
679.526	0.0178633
679.604	0.0177746
679.683	0.0177137
679.761	0.0178026
679.839	0.0178171
679.917	0.0177083
679.995	0.0176264
680.073	0.0177338
680.151	0.0177557
680.229	0.0176600
680.308	0.0177473
680.386	0.0177190
680.464	0.0177985
680.542	0.0176402
680.620	0.0178236
680.698	0.0178222
680.776	0.0178215
680.854	0.0179855
680.933	0.0179067
681.011	0.0178651
681.089	0.0179765
681.167	0.0180590
681.245	0.0179871
681.323	0.0179813
681.401	0.0180518
681.479	0.0180338
681.558	0.0179884
681.636	0.0180026
681.714	0.0180524
681.792	0.0179880
681.870	0.0179969
681.948	0.0180209
682.026	0.0181451
682.104	0.0180263
682.183	0.0180553
682.261	0.0179718
682.339	0.0178934
682.417	0.0179636
682.495	0.0180083
682.573	0.0179073
682.651	0.0177026
682.729	0.0179237
682.808	0.0177820
682.886	0.0177406
682.964	0.0177077
683.042	0.0177061
683.120	0.0175818
683.198	0.0176809
683.276	0.0176074
683.354	0.0176655
683.433	0.0176029
683.511	0.0176211
683.589	0.0176134
683.667	0.0176462
683.745	0.0175180
683.823	0.0176128
683.901	0.0178430
683.979	0.0177105
684.058	0.0177124
684.136	0.0176408
684.214	0.0177531
684.292	0.0177420
684.370	0.0176725
684.448	0.0176604
684.526	0.0177962
684.604	0.0178661
684.683	0.0179466
684.761	0.0178992
684.839	0.0177551
684.917	0.0180301
684.995	0.0179621
685.073	0.0178036
685.151	0.0179455
685.229	0.0180325
685.308	0.0179343
685.386	0.0178632
685.464	0.0178651
685.542	0.0180655
685.620	0.0181155
685.698	0.0181431
685.776	0.0181448
685.854	0.0181831
685.933	0.0181535
686.011	0.0181277
686.089	0.0182309
686.167	0.0182896
686.245	0.0182589
686.323	0.0181806
686.401	0.0182350
686.479	0.0183432
686.558	0.0182699
686.636	0.0181676
686.714	0.0181476
686.792	0.0180028
686.870	0.0180923
686.948	0.0180943
687.026	0.0180076
687.104	0.0179476
687.183	0.0180012
687.261	0.0178951
687.339	0.0178769
687.417	0.0178473
687.495	0.0177828
687.573	0.0176857
687.651	0.0176913
687.729	0.0177765
687.808	0.0176959
687.886	0.0176880
687.964	0.0176949
688.042	0.0176595
688.120	0.0176611
688.198	0.0177724
688.276	0.0176028
688.354	0.0176481
688.433	0.0175509
688.511	0.0175919
688.589	0.0177043
688.667	0.0176855
688.745	0.0175906
688.823	0.0177303
688.901	0.0176659
688.979	0.0176765
689.058	0.0178430
689.136	0.0178972
689.214	0.0178143
689.292	0.0179208
689.370	0.0179437
689.448	0.0178442
689.526	0.0179247
689.604	0.0179565
689.683	0.0177950
689.761	0.0179829
689.839	0.0179421
689.917	0.0179189
689.995	0.0179397
690.073	0.0180297
690.151	0.0180496
690.229	0.0180233
690.308	0.0181531
690.386	0.0179510
690.464	0.0179360
690.542	0.0179058
690.620	0.0179720
690.698	0.0178548
690.776	0.0181854
690.854	0.0179353
690.933	0.0179780
691.011	0.0179014
691.089	0.0179205
691.167	0.0178494
691.245	0.0177432
691.323	0.0178386
691.401	0.0177208
691.479	0.0178577
691.558	0.0177486
691.636	0.0177549
691.714	0.0177441
691.792	0.0178841
691.870	0.0179276
691.948	0.0179115
692.026	0.0177458
692.104	0.0178392
692.183	0.0178486
692.261	0.0179454
692.339	0.0178175
692.417	0.0179308
692.495	0.0179866
692.573	0.0178419
692.651	0.0178649
692.729	0.0178699
692.808	0.0177918
692.886	0.0179408
692.964	0.0179478
693.042	0.0179206
693.120	0.0176291
693.198	0.0176399
693.276	0.0178014
693.354	0.0176312
693.433	0.0175427
693.511	0.0177608
693.589	0.0177711
693.667	0.0176305
693.745	0.0176781
693.823	0.0177471
693.901	0.0176701
693.979	0.0178802
694.058	0.0178580
694.136	0.0178360
694.214	0.0179166
694.292	0.0179033
694.370	0.0179238
694.448	0.0179565
694.526	0.0180249
694.604	0.0179248
694.683	0.0179125
694.761	0.0177781
694.839	0.0176601
694.917	0.0176780
694.995	0.0178864
695.073	0.0176440
695.151	0.0175346
695.229	0.0176595
695.308	0.0176048
695.386	0.0175675
695.464	0.0176231
695.542	0.0175681
695.620	0.0176267
695.698	0.0175388
695.776	0.0175944
695.854	0.0175800
695.933	0.0175115
696.011	0.0176283
696.089	0.0176871
696.167	0.0176740
696.245	0.0178829
696.323	0.0177495
696.401	0.0178491
696.479	0.0180042
696.558	0.0178696
696.636	0.0181580
696.714	0.0182249
696.792	0.0182048
696.870	0.0181078
696.948	0.0181853
697.026	0.0182001
697.104	0.0181870
697.183	0.0181566
697.261	0.0181083
697.339	0.0179822
697.417	0.0180678
697.495	0.0180592
697.573	0.0179493
697.651	0.0179869
697.729	0.0180437
697.808	0.0179892
697.886	0.0178679
697.964	0.0177486
698.042	0.0177494
698.120	0.0177995
698.198	0.0179851
698.276	0.0178323
698.354	0.0176667
698.433	0.0177909
698.511	0.0178594
698.589	0.0178272
698.667	0.0178431
698.745	0.0177203
698.823	0.0177509
698.901	0.0175751
698.979	0.0176121
699.058	0.0176403
699.136	0.0175174
699.214	0.0175198
699.292	0.0174239
699.370	0.0176093
699.448	0.0174796
699.526	0.0174949
699.604	0.0175282
699.683	0.0177524
699.761	0.0177048
699.839	0.0176149
699.917	0.0177945
699.995	0.0178053
700.073	0.0178970
700.151	0.0178788
700.229	0.0179996
700.308	0.0179955
700.386	0.0179787
700.464	0.0179604
700.542	0.0180148
700.620	0.0179453
700.698	0.0179001
700.776	0.0179132
700.854	0.0177019
700.933	0.0177090
701.011	0.0176453
701.089	0.0177522
701.167	0.0177280
701.245	0.0176372
701.323	0.0176492
701.401	0.0175516
701.479	0.0175060
701.558	0.0176957
701.636	0.0177036
701.714	0.0177995
701.792	0.0178279
701.870	0.0179015
701.948	0.0178475
702.026	0.0178645
702.104	0.0180058
702.183	0.0181026
702.261	0.0179041
702.339	0.0177362
702.417	0.0179247
702.495	0.0178912
702.573	0.0178242
702.651	0.0177962
702.729	0.0178133
702.808	0.0177242
702.886	0.0175830
702.964	0.0175519
703.042	0.0176151
703.120	0.0176682
703.198	0.0175399
703.276	0.0173779
703.354	0.0173666
703.433	0.0175620
703.511	0.0175217
703.589	0.0176129
703.667	0.0174786
703.745	0.0173845
703.823	0.0176189
703.901	0.0176527
703.979	0.0177196
704.058	0.0175921
704.136	0.0177038
704.214	0.0179029
704.292	0.0180859
704.370	0.0181462
704.448	0.0182567
704.526	0.0184393
704.604	0.0184701
704.683	0.0185677
704.761	0.0185796
704.839	0.0187344
704.917	0.0186312
704.995	0.0187440
705.073	0.0187209
705.151	0.0186967
705.229	0.0186414
705.308	0.0186091
705.386	0.0184149
705.464	0.0183120
705.542	0.0181232
705.620	0.0181074
705.698	0.0178591
705.776	0.0177731
705.854	0.0175616
705.933	0.0173097
706.011	0.0173711
706.089	0.0172872
706.167	0.0171236
706.245	0.0171342
706.323	0.0171470
706.401	0.0171716
706.479	0.0171265
706.558	0.0171167
706.636	0.0172060
706.714	0.0172541
706.792	0.0173071
706.870	0.0174662
706.948	0.0176199
707.026	0.0175834
707.104	0.0178846
707.183	0.0178224
707.261	0.0180975
707.339	0.0179942
707.417	0.0182227
707.495	0.0183622
707.573	0.0183335
707.651	0.0181576
707.729	0.0182872
707.808	0.0182684
707.886	0.0182252
707.964	0.0181113
708.042	0.0179504
708.120	0.0179293
708.198	0.0177228
708.276	0.0177282
708.354	0.0175312
708.433	0.0175777
708.511	0.0174115
708.589	0.0173181
708.667	0.0172894
708.745	0.0173385
708.823	0.0173751
708.901	0.0173707
708.979	0.0172742
709.058	0.0172388
709.136	0.0171630
709.214	0.0173686
709.292	0.0174325
709.370	0.0173507
709.448	0.0174714
709.526	0.0174882
709.604	0.0175718
709.683	0.0176383
709.761	0.0178099
709.839	0.0178928
709.917	0.0178443
709.995	0.0180533
710.073	0.0181442
710.151	0.0181069
710.229	0.0183671
710.308	0.0185636
710.386	0.0184573
710.464	0.0186488
710.542	0.0186443
710.620	0.0186297
710.698	0.0186523
710.776	0.0188390
710.854	0.0187649
710.933	0.0187312
711.011	0.0187107
711.089	0.0186487
711.167	0.0186193
711.245	0.0185883
711.323	0.0186759
711.401	0.0185510
711.479	0.0182894
711.558	0.0183076
711.636	0.0183398
711.714	0.0182458
711.792	0.0181567
711.870	0.0179542
711.948	0.0178103
712.026	0.0176866
712.104	0.0177547
712.183	0.0176207
712.261	0.0175350
712.339	0.0173264
712.417	0.0173061
712.495	0.0172127
712.573	0.0171725
712.651	0.0169855
712.729	0.0169156
712.808	0.0170024
712.886	0.0169559
712.964	0.0167313
713.042	0.0169257
713.120	0.0167028
713.198	0.0167574
713.276	0.0168754
713.354	0.0170728
713.433	0.0169053
713.511	0.0171782
713.589	0.0172417
713.667	0.0171190
713.745	0.0173458
713.823	0.0176591
713.901	0.0177680
713.979	0.0178225
714.058	0.0179342
714.136	0.0178962
714.214	0.0178860
714.292	0.0180458
714.370	0.0180825
714.448	0.0180933
714.526	0.0179982
714.604	0.0181195
714.683	0.0181720
714.761	0.0182271
714.839	0.0181407
714.917	0.0181912
714.995	0.0180508
715.073	0.0180753
715.151	0.0181190
715.229	0.0184151
715.308	0.0183063
715.386	0.0180492
715.464	0.0180542
715.542	0.0180751
715.620	0.0180600
715.698	0.0179888
715.776	0.0179427
715.854	0.0178302
715.933	0.0179429
716.011	0.0178962
716.089	0.0177335
716.167	0.0177199
716.245	0.0176695
716.323	0.0177070
716.401	0.0174791
716.479	0.0175817
716.558	0.0175361
716.636	0.0175938
716.714	0.0176971
716.792	0.0178008
716.870	0.0178603
716.948	0.0178746
717.026	0.0179356
717.104	0.0180322
717.183	0.0180303
717.261	0.0180516
717.339	0.0181972
717.417	0.0180454
717.495	0.0179267
717.573	0.0180500
717.651	0.0180316
717.729	0.0180729
717.808	0.0181161
717.886	0.0180450
717.964	0.0180084
718.042	0.0179642
718.120	0.0180315
718.198	0.0179681
718.276	0.0179969
718.354	0.0177345
718.433	0.0177782
718.511	0.0177232
718.589	0.0177587
718.667	0.0178175
718.745	0.0177499
718.823	0.0176563
718.901	0.0178175
718.979	0.0179369
719.058	0.0178646
719.136	0.0179745
719.214	0.0179953
719.292	0.0181551
719.370	0.0180049
719.448	0.0179004
719.526	0.0180187
719.604	0.0179629
719.683	0.0178062
719.761	0.0179866
719.839	0.0179965
719.917	0.0179202
719.995	0.0178703
720.073	0.0179601
720.151	0.0180504
720.229	0.0179951
720.308	0.0180856
720.386	0.0179874
720.464	0.0177861
720.542	0.0178324
720.620	0.0178371
720.698	0.0174541
720.776	0.0173885
720.854	0.0172698
720.933	0.0171272
721.011	0.0169501
721.089	0.0168576
721.167	0.0168550
721.245	0.0168366
721.323	0.0169134
721.401	0.0169573
721.479	0.0169577
721.558	0.0169016
721.636	0.0169847
721.714	0.0169925
721.792	0.0171384
721.870	0.0171420
721.948	0.0173792
722.026	0.0174044
722.104	0.0175154
722.183	0.0176248
722.261	0.0178510
722.339	0.0179566
722.417	0.0179871
722.495	0.0180206
722.573	0.0182760
722.651	0.0185278
722.729	0.0184850
722.808	0.0186315
722.886	0.0186449
722.964	0.0187837
723.042	0.0188510
723.120	0.0188528
723.198	0.0188560
723.276	0.0188844
723.354	0.0189085
723.433	0.0187823
723.511	0.0188805
723.589	0.0187136
723.667	0.0185700
723.745	0.0184318
723.823	0.0184486
723.901	0.0181563
723.979	0.0181136
724.058	0.0180343
724.136	0.0181626
724.214	0.0179607
724.292	0.0179335
724.370	0.0179711
724.448	0.0178271
724.526	0.0179427
724.604	0.0176965
724.683	0.0177539
724.761	0.0177670
724.839	0.0176731
724.917	0.0175494
724.995	0.0175533
725.073	0.0175632
725.151	0.0175032
725.229	0.0176645
725.308	0.0174215
725.386	0.0174352
725.464	0.0175220
725.542	0.0175645
725.620	0.0175080
725.698	0.0175035
725.776	0.0176115
725.854	0.0175224
725.933	0.0175367
726.011	0.0175551
726.089	0.0174493
726.167	0.0173779
726.245	0.0175098
726.323	0.0174461
726.401	0.0172942
726.479	0.0171770
726.558	0.0171401
726.636	0.0173125
726.714	0.0172410
726.792	0.0172924
726.870	0.0172556
726.948	0.0173368
727.026	0.0173486
727.104	0.0173582
727.183	0.0174138
727.261	0.0175119
727.339	0.0176414
727.417	0.0177538
727.495	0.0179078
727.573	0.0179256
727.651	0.0180465
727.729	0.0181713
727.808	0.0181267
727.886	0.0180780
727.964	0.0183119
728.042	0.0183580
728.120	0.0183631
728.198	0.0184431
728.276	0.0183608
728.354	0.0184154
728.433	0.0184811
728.511	0.0184440
728.589	0.0183533
728.667	0.0182919
728.745	0.0183947
728.823	0.0182645
728.901	0.0182065
728.979	0.0182032
729.058	0.0181386
729.136	0.0180322
729.214	0.0179575
729.292	0.0177506
729.370	0.0175483
729.448	0.0177661
729.526	0.0174783
729.604	0.0173340
729.683	0.0172766
729.761	0.0174913
729.839	0.0172920
729.917	0.0172346
729.995	0.0173157
730.073	0.0172945
730.151	0.0174179
730.229	0.0174647
730.308	0.0175447
730.386	0.0175473
730.464	0.0176010
730.542	0.0176483
730.620	0.0175832
730.698	0.0177055
730.776	0.0177043
730.854	0.0175419
730.933	0.0176153
731.011	0.0175819
731.089	0.0178196
731.167	0.0177288
731.245	0.0176462
731.323	0.0175400
731.401	0.0176772
731.479	0.0177108
731.558	0.0177042
731.636	0.0177930
731.714	0.0179456
731.792	0.0180344
731.870	0.0181180
731.948	0.0181265
732.026	0.0183590
732.104	0.0183037
732.183	0.0181872
732.261	0.0185384
732.339	0.0184486
732.417	0.0183957
732.495	0.0183141
732.573	0.0182738
732.651	0.0182146
732.729	0.0183903
732.808	0.0183050
732.886	0.0181998
732.964	0.0182786
733.042	0.0182132
733.120	0.0182496
733.198	0.0182243
733.276	0.0181732
733.354	0.0180506
733.433	0.0180775
733.511	0.0179983
733.589	0.0179134
733.667	0.0178814
733.745	0.0179679
733.823	0.0177219
733.901	0.0176751
733.979	0.0175730
734.058	0.0174512
734.136	0.0173104
734.214	0.0173441
734.292	0.0174173
734.370	0.0172398
734.448	0.0171959
734.526	0.0171867
734.604	0.0171232
734.683	0.0169076
734.761	0.0169631
734.839	0.0167941
734.917	0.0168181
734.995	0.0169150
735.073	0.0168071
735.151	0.0168871
735.229	0.0170001
735.308	0.0168899
735.386	0.0169426
735.464	0.0171030
735.542	0.0172613
735.620	0.0174243
735.698	0.0174340
735.776	0.0175311
735.854	0.0175172
735.933	0.0176781
736.011	0.0178864
736.089	0.0180730
736.167	0.0181088
736.245	0.0181078
736.323	0.0182276
736.401	0.0182785
736.479	0.0184984
736.558	0.0183617
736.636	0.0184676
736.714	0.0185336
736.792	0.0184426
736.870	0.0184843
736.948	0.0186079
737.026	0.0184562
737.104	0.0183974
737.183	0.0184811
737.261	0.0184017
737.339	0.0184440
737.417	0.0182416
737.495	0.0181302
737.573	0.0183243
737.651	0.0182097
737.729	0.0181910
737.808	0.0181863
737.886	0.0182412
737.964	0.0180939
738.042	0.0180176
738.120	0.0181380
738.198	0.0180740
738.276	0.0180119
738.354	0.0180332
738.433	0.0179702
738.511	0.0180337
738.589	0.0178828
738.667	0.0179752
738.745	0.0180314
738.823	0.0178909
738.901	0.0176067
738.979	0.0174469
739.058	0.0175969
739.136	0.0175684
739.214	0.0174441
739.292	0.0172430
739.370	0.0173532
739.448	0.0172917
739.526	0.0173985
739.604	0.0174516
739.683	0.0172985
739.761	0.0174445
739.839	0.0173026
739.917	0.0175382
739.995	0.0173796
740.073	0.0173896
740.151	0.0173053
740.229	0.0172203
740.308	0.0171384
740.386	0.0173015
740.464	0.0172744
740.542	0.0172295
740.620	0.0172469
740.698	0.0173542
740.776	0.0171333
740.854	0.0171417
740.933	0.0172600
741.011	0.0174448
741.089	0.0174306
741.167	0.0173171
741.245	0.0175448
741.323	0.0175628
741.401	0.0175183
741.479	0.0174386
741.558	0.0177197
741.636	0.0176852
741.714	0.0177145
741.792	0.0178392
741.870	0.0179794
741.948	0.0179858
742.026	0.0180559
742.104	0.0181278
742.183	0.0183310
742.261	0.0184013
742.339	0.0184116
742.417	0.0185229
742.495	0.0186413
742.573	0.0186677
742.651	0.0187732
742.729	0.0187006
742.808	0.0188042
742.886	0.0186245
742.964	0.0187093
743.042	0.0186127
743.120	0.0185822
743.198	0.0184143
743.276	0.0183341
743.354	0.0182674
743.433	0.0180894
743.511	0.0179789
743.589	0.0179843
743.667	0.0180383
743.745	0.0177167
743.823	0.0178529
743.901	0.0178642
743.979	0.0178207
744.058	0.0177811
744.136	0.0176867
744.214	0.0174716
744.292	0.0176403
744.370	0.0175282
744.448	0.0176430
744.526	0.0176012
744.604	0.0174616
744.683	0.0174834
744.761	0.0173387
744.839	0.0172939
744.917	0.0173322
744.995	0.0172111
745.073	0.0173070
745.151	0.0173193
745.229	0.0173647
745.308	0.0174404
745.386	0.0173806
745.464	0.0174056
745.542	0.0176440
745.620	0.0176588
745.698	0.0178167
745.776	0.0177695
745.854	0.0177593
745.933	0.0178371
746.011	0.0178854
746.089	0.0179961
746.167	0.0181218
746.245	0.0179624
746.323	0.0178614
746.401	0.0179341
746.479	0.0181259
746.558	0.0180643
746.636	0.0178564
746.714	0.0180865
746.792	0.0179921
746.870	0.0179842
746.948	0.0179482
747.026	0.0180039
747.104	0.0180630
747.183	0.0181677
747.261	0.0181252
747.339	0.0181441
747.417	0.0181412
747.495	0.0179669
747.573	0.0180217
747.651	0.0181528
747.729	0.0180568
747.808	0.0179890
747.886	0.0180499
747.964	0.0180930
748.042	0.0180169
748.120	0.0178612
748.198	0.0180341
748.276	0.0179161
748.354	0.0178742
748.433	0.0179090
748.511	0.0179667
748.589	0.0177229
748.667	0.0177460
748.745	0.0177156
748.823	0.0176766
748.901	0.0177452
748.979	0.0175987
749.058	0.0174502
749.136	0.0175615
749.214	0.0175681
749.292	0.0175850
749.370	0.0176142
749.448	0.0175253
749.526	0.0176241
749.604	0.0175886
749.683	0.0174499
749.761	0.0175392
749.839	0.0175249
749.917	0.0174573
749.995	0.0174784
750.073	0.0175641
750.151	0.0174464
750.229	0.0175154
750.308	0.0174886
750.386	0.0175515
750.464	0.0177111
750.542	0.0178677
750.620	0.0177996
750.698	0.0178586
750.776	0.0179492
750.854	0.0180515
750.933	0.0180403
751.011	0.0181903
751.089	0.0180916
751.167	0.0182365
751.245	0.0182116
751.323	0.0181867
751.401	0.0182127
751.479	0.0183556
751.558	0.0182327
751.636	0.0182867
751.714	0.0183955
751.792	0.0183292
751.870	0.0183439
751.948	0.0182355
752.026	0.0182355
752.104	0.0182436
752.183	0.0182409
752.261	0.0182833
752.339	0.0182030
752.417	0.0182127
752.495	0.0182264
752.573	0.0182114
752.651	0.0180289
752.729	0.0179888
752.808	0.0180090
752.886	0.0180416
752.964	0.0179987
753.042	0.0177571
753.120	0.0176875
753.198	0.0176395
753.276	0.0177531
753.354	0.0176177
753.433	0.0175290
753.511	0.0175449
753.589	0.0176010
753.667	0.0176454
753.745	0.0174715
753.823	0.0174421
753.901	0.0174374
753.979	0.0173771
754.058	0.0174301
754.136	0.0173852
754.214	0.0172324
754.292	0.0173958
754.370	0.0173792
754.448	0.0174123
754.526	0.0173427
754.604	0.0173350
754.683	0.0172787
754.761	0.0173228
754.839	0.0173331
754.917	0.0173497
754.995	0.0172666
755.073	0.0173170
755.151	0.0173521
755.229	0.0172417
755.308	0.0174242
755.386	0.0174042
755.464	0.0174025
755.542	0.0174928
755.620	0.0174988
755.698	0.0175361
755.776	0.0177145
755.854	0.0176978
755.933	0.0177067
756.011	0.0177061
756.089	0.0178379
756.167	0.0178840
756.245	0.0179729
756.323	0.0180514
756.401	0.0179774
756.479	0.0181067
756.558	0.0179144
756.636	0.0180019
756.714	0.0181403
756.792	0.0181068
756.870	0.0181002
756.948	0.0180570
757.026	0.0182228
757.104	0.0181850
757.183	0.0180695
757.261	0.0181003
757.339	0.0180981
757.417	0.0180959
757.495	0.0182392
757.573	0.0179574
757.651	0.0181406
757.729	0.0181873
757.808	0.0181582
757.886	0.0181740
757.964	0.0180786
758.042	0.0180431
758.120	0.0180717
758.198	0.0180326
758.276	0.0180826
758.354	0.0181319
758.433	0.0179478
758.511	0.0178066
758.589	0.0178883
758.667	0.0178746
758.745	0.0178223
758.823	0.0178072
758.901	0.0179529
758.979	0.0177802
759.058	0.0179070
759.136	0.0178949
759.214	0.0178099
759.292	0.0177773
759.370	0.0178572
759.448	0.0178843
759.526	0.0178461
759.604	0.0177195
759.683	0.0176761
759.761	0.0177021
759.839	0.0176204
759.917	0.0174696
759.995	0.0174483
760.073	0.0174925
760.151	0.0174134
760.229	0.0172745
760.308	0.0172350
760.386	0.0171851
760.464	0.0170695
760.542	0.0172025
760.620	0.0171736
760.698	0.0172639
760.776	0.0173109
760.854	0.0172626
760.933	0.0173480
761.011	0.0173185
761.089	0.0173598
761.167	0.0174075
761.245	0.0176208
761.323	0.0174454
761.401	0.0176456
761.479	0.0177663
761.558	0.0175625
761.636	0.0175931
761.714	0.0176599
761.792	0.0175733
761.870	0.0176315
761.948	0.0176332
762.026	0.0176994
762.104	0.0176264
762.183	0.0178529
762.261	0.0178068
762.339	0.0178589
762.417	0.0178064
762.495	0.0179470
762.573	0.0179758
762.651	0.0180642
762.729	0.0180908
762.808	0.0181841
762.886	0.0181725
762.964	0.0182944
763.042	0.0181574
763.120	0.0180692
763.198	0.0180669
763.276	0.0180891
763.354	0.0181284
763.433	0.0181779
763.511	0.0179933
763.589	0.0179335
763.667	0.0179213
763.745	0.0180032
763.823	0.0179920
763.901	0.0179713
763.979	0.0181521
764.058	0.0179875
764.136	0.0180768
764.214	0.0181250
764.292	0.0180573
764.370	0.0182104
764.448	0.0181226
764.526	0.0181136
764.604	0.0181675
764.683	0.0180700
764.761	0.0180708
764.839	0.0180357
764.917	0.0181721
764.995	0.0180533
765.073	0.0179934
765.151	0.0180463
765.229	0.0178506
765.308	0.0177718
765.386	0.0176344
765.464	0.0176901
765.542	0.0176740
765.620	0.0176358
765.698	0.0174243
765.776	0.0174240
765.854	0.0174100
765.933	0.0174554
766.011	0.0175465
766.089	0.0176021
766.167	0.0174582
766.245	0.0174849
766.323	0.0174677
766.401	0.0175511
766.479	0.0174465
766.558	0.0175080
766.636	0.0176515
766.714	0.0176514
766.792	0.0176913
766.870	0.0176622
766.948	0.0176020
767.026	0.0176930
767.104	0.0177115
767.183	0.0177247
767.261	0.0177769
767.339	0.0178635
767.417	0.0178796
767.495	0.0178152
767.573	0.0179636
767.651	0.0178584
767.729	0.0179098
767.808	0.0179342
767.886	0.0181343
767.964	0.0181292
768.042	0.0181386
768.120	0.0180622
768.198	0.0179989
768.276	0.0182115
768.354	0.0180544
768.433	0.0180072
768.511	0.0180747
768.589	0.0179584
768.667	0.0178651
768.745	0.0179495
768.823	0.0178722
768.901	0.0178151
768.979	0.0177576
769.058	0.0179227
769.136	0.0178839
769.214	0.0175621
769.292	0.0175643
769.370	0.0177648
769.448	0.0176710
769.526	0.0176786
769.604	0.0175751
769.683	0.0177859
769.761	0.0176965
769.839	0.0175757
769.917	0.0176704
769.995	0.0178066
770.073	0.0178598
770.151	0.0177655
770.229	0.0177164
770.308	0.0177266
770.386	0.0178943
770.464	0.0177737
770.542	0.0177419
770.620	0.0179234
770.698	0.0178782
770.776	0.0180362
770.854	0.0180421
770.933	0.0179344
771.011	0.0180573
771.089	0.0181375
771.167	0.0179668
771.245	0.0180791
771.323	0.0179063
771.401	0.0179167
771.479	0.0179390
771.558	0.0179671
771.636	0.0178522
771.714	0.0179955
771.792	0.0177226
771.870	0.0179434
771.948	0.0178755
772.026	0.0178559
772.104	0.0178239
772.183	0.0177737
772.261	0.0177065
772.339	0.0178553
772.417	0.0177886
772.495	0.0178384
772.573	0.0179435
772.651	0.0177883
772.729	0.0177728
772.808	0.0180099
772.886	0.0180018
772.964	0.0180061
773.042	0.0178662
773.120	0.0179810
773.198	0.0179811
773.276	0.0179659
773.354	0.0181110
773.433	0.0181706
773.511	0.0177959
773.589	0.0177583
773.667	0.0178592
773.745	0.0179363
773.823	0.0178056
773.901	0.0177865
773.979	0.0178644
774.058	0.0179520
774.136	0.0178573
774.214	0.0176353
774.292	0.0178164
774.370	0.0177624
774.448	0.0177407
774.526	0.0177409
774.604	0.0177549
774.683	0.0177402
774.761	0.0177091
774.839	0.0176476
774.917	0.0175710
774.995	0.0174922
775.073	0.0176421
775.151	0.0175565
775.229	0.0175859
775.308	0.0177590
775.386	0.0176389
775.464	0.0176421
775.542	0.0177820
775.620	0.0176574
775.698	0.0176889
775.776	0.0179588
775.854	0.0178300
775.933	0.0177702
776.011	0.0180010
776.089	0.0179949
776.167	0.0180222
776.245	0.0179513
776.323	0.0179583
776.401	0.0180630
776.479	0.0180725
776.558	0.0178679
776.636	0.0179398
776.714	0.0180227
776.792	0.0180348
776.870	0.0178981
776.948	0.0178461
777.026	0.0178170
777.104	0.0177931
777.183	0.0176236
777.261	0.0178287
777.339	0.0178014
777.417	0.0177480
777.495	0.0177513
777.573	0.0176982
777.651	0.0176271
777.729	0.0176447
777.808	0.0177849
777.886	0.0178392
777.964	0.0177494
778.042	0.0178742
778.120	0.0178634
778.198	0.0178481
778.276	0.0179773
778.354	0.0179671
778.433	0.0178255
778.511	0.0177898
778.589	0.0177442
778.667	0.0177361
778.745	0.0178194
778.823	0.0177223
778.901	0.0177176
778.979	0.0177741
779.058	0.0178168
779.136	0.0176226
779.214	0.0178645
779.292	0.0180338
779.370	0.0180402
779.448	0.0179135
779.526	0.0181345
779.604	0.0180103
779.683	0.0180376
779.761	0.0181142
779.839	0.0180191
779.917	0.0179823
779.995	0.0180309
780.073	0.0181406
780.151	0.0179649
780.229	0.0178734
780.308	0.0178763
780.386	0.0177078
780.464	0.0177901
780.542	0.0178232
780.620	0.0177190
780.698	0.0175923
780.776	0.0175792
780.854	0.0176183
780.933	0.0174732
781.011	0.0175486
781.089	0.0174220
781.167	0.0176148
781.245	0.0174503
781.323	0.0174680
781.401	0.0175748
781.479	0.0175960
781.558	0.0174677
781.636	0.0175716
781.714	0.0174986
781.792	0.0174950
781.870	0.0176071
781.948	0.0178295
782.026	0.0177337
782.104	0.0176587
782.183	0.0177525
782.261	0.0176995
782.339	0.0176708
782.417	0.0175537
782.495	0.0177168
782.573	0.0177126
782.651	0.0176962
782.729	0.0178646
782.808	0.0177674
782.886	0.0178246
782.964	0.0178780
783.042	0.0178551
783.120	0.0178352
783.198	0.0178321
783.276	0.0177832
783.354	0.0177577
783.433	0.0178078
783.511	0.0177615
783.589	0.0178220
783.667	0.0178838
783.745	0.0178014
783.823	0.0178947
783.901	0.0178825
783.979	0.0178824
784.058	0.0178649
784.136	0.0179071
784.214	0.0180144
784.292	0.0179397
784.370	0.0178948
784.448	0.0180311
784.526	0.0179398
784.604	0.0180936
784.683	0.0178656
784.761	0.0179378
784.839	0.0179774
784.917	0.0179445
784.995	0.0179401
785.073	0.0179470
785.151	0.0178514
785.229	0.0179139
785.308	0.0179513
785.386	0.0177920
785.464	0.0179485
785.542	0.0178514
785.620	0.0178253
785.698	0.0176426
785.776	0.0176823
785.854	0.0178233
785.933	0.0177969
786.011	0.0179059
786.089	0.0178675
786.167	0.0179297
786.245	0.0178746
786.323	0.0178450
786.401	0.0179208
786.479	0.0180643
786.558	0.0180053
786.636	0.0180204
786.714	0.0178307
786.792	0.0180558
786.870	0.0179446
786.948	0.0178459
787.026	0.0178379
787.104	0.0178109
787.183	0.0176697
787.261	0.0175713
787.339	0.0175760
787.417	0.0175949
787.495	0.0175443
787.573	0.0174365
787.651	0.0175797
787.729	0.0176347
787.808	0.0174776
787.886	0.0176509
787.964	0.0176608
788.042	0.0177249
788.120	0.0175814
788.198	0.0176974
788.276	0.0177455
788.354	0.0177394
788.433	0.0178307
788.511	0.0178250
788.589	0.0179418
788.667	0.0179191
788.745	0.0178217
788.823	0.0177873
788.901	0.0178660
788.979	0.0180190
789.058	0.0179955
789.136	0.0178526
789.214	0.0178571
789.292	0.0179425
789.370	0.0178729
789.448	0.0180052
789.526	0.0178714
789.604	0.0178220
789.683	0.0179795
789.761	0.0178823
789.839	0.0177188
789.917	0.0177871
789.995	0.0177631
790.073	0.0178808
790.151	0.0177651
790.229	0.0178556
790.308	0.0180949
790.386	0.0179736
790.464	0.0179845
790.542	0.0178008
790.620	0.0180425
790.698	0.0180032
790.776	0.0178632
790.854	0.0178223
790.933	0.0179379
791.011	0.0179751
791.089	0.0179124
791.167	0.0179331
791.245	0.0178999
791.323	0.0179356
791.401	0.0180525
791.479	0.0181104
791.558	0.0180540
791.636	0.0180013
791.714	0.0181174
791.792	0.0181688
791.870	0.0180994
791.948	0.0179677
792.026	0.0179944
792.104	0.0179786
792.183	0.0179736
792.261	0.0179459
792.339	0.0178889
792.417	0.0178632
792.495	0.0179302
792.573	0.0180356
792.651	0.0178799
792.729	0.0179131
792.808	0.0178410
792.886	0.0179364
792.964	0.0180345
793.042	0.0179601
793.120	0.0179250
793.198	0.0179339
793.276	0.0178852
793.354	0.0178511
793.433	0.0178172
793.511	0.0178092
793.589	0.0176901
793.667	0.0176323
793.745	0.0175494
793.823	0.0175723
793.901	0.0176113
793.979	0.0175189
794.058	0.0175042
794.136	0.0174787
794.214	0.0175822
794.292	0.0176088
794.370	0.0177133
794.448	0.0177551
794.526	0.0178141
794.604	0.0177077
794.683	0.0177906
794.761	0.0178326
794.839	0.0178735
794.917	0.0177409
794.995	0.0179046
795.073	0.0177890
795.151	0.0177916
795.229	0.0178578
795.308	0.0178355
795.386	0.0177991
795.464	0.0176855
795.542	0.0177605
795.620	0.0177925
795.698	0.0178921
795.776	0.0179682
795.854	0.0179575
795.933	0.0178201
796.011	0.0177677
796.089	0.0179034
796.167	0.0178126
796.245	0.0178896
796.323	0.0178687
796.401	0.0178568
796.479	0.0178883
796.558	0.0178504
796.636	0.0180076
796.714	0.0179049
796.792	0.0179515
796.870	0.0178795
796.948	0.0179933
797.026	0.0180510
797.104	0.0180161
797.183	0.0178504
797.261	0.0179221
797.339	0.0179030
797.417	0.0179488
797.495	0.0177772
797.573	0.0177991
797.651	0.0178541
797.729	0.0177374
797.808	0.0178207
797.886	0.0179029
797.964	0.0179072
798.042	0.0179742
798.120	0.0177605
798.198	0.0178931
798.276	0.0177586
798.354	0.0178391
798.433	0.0179012
798.511	0.0178614
798.589	0.0178497
798.667	0.0178158
798.745	0.0178713
798.823	0.0177647
798.901	0.0177146
798.979	0.0178642
799.058	0.0178273
799.136	0.0177609
799.214	0.0179127
799.292	0.0178526
799.370	0.0177976
799.448	0.0177309
799.526	0.0178236
799.604	0.0179045
799.683	0.0177750
799.761	0.0177930
799.839	0.0176635
799.917	0.0177846
799.995	0.0178008
800.073	0.0178773
800.151	0.0177469
800.229	0.0178001
800.308	0.0176846
800.386	0.0177750
800.464	0.0177940
800.542	0.0178797
800.620	0.0178590
800.698	0.0176385
800.776	0.0177455
800.854	0.0178798
800.933	0.0177650
801.011	0.0176590
801.089	0.0177468
801.167	0.0177367
801.245	0.0176990
801.323	0.0176512
801.401	0.0176952
801.479	0.0176015
801.558	0.0175938
801.636	0.0176408
801.714	0.0176801
801.792	0.0175247
801.870	0.0177352
801.948	0.0176837
802.026	0.0177600
802.104	0.0178012
802.183	0.0176571
802.261	0.0176868
802.339	0.0178563
802.417	0.0177853
802.495	0.0178531
802.573	0.0178294
802.651	0.0178849
802.729	0.0178740
802.808	0.0177656
802.886	0.0178067
802.964	0.0179653
803.042	0.0178607
803.120	0.0178812
803.198	0.0177646
803.276	0.0179316
803.354	0.0180243
803.433	0.0180106
803.511	0.0178735
803.589	0.0178065
803.667	0.0177520
803.745	0.0178019
803.823	0.0178539
803.901	0.0177706
803.979	0.0177418
804.058	0.0176987
804.136	0.0177703
804.214	0.0178150
804.292	0.0176734
804.370	0.0177170
804.448	0.0177008
804.526	0.0175534
804.604	0.0176343
804.683	0.0178622
804.761	0.0175653
804.839	0.0175991
804.917	0.0177187
804.995	0.0177187
805.073	0.0176631
805.151	0.0176978
805.229	0.0176538
805.308	0.0176478
805.386	0.0175918
805.464	0.0174989
805.542	0.0174936
805.620	0.0174852
805.698	0.0175943
805.776	0.0176330
805.854	0.0175030
805.933	0.0175584
806.011	0.0175956
806.089	0.0177701
806.167	0.0176899
806.245	0.0177959
806.323	0.0177490
806.401	0.0177303
806.479	0.0178980
806.558	0.0179360
806.636	0.0179330
806.714	0.0179826
806.792	0.0179871
806.870	0.0179880
806.948	0.0180367
807.026	0.0179663
807.104	0.0181182
807.183	0.0180367
807.261	0.0180914
807.339	0.0180764
807.417	0.0180326
807.495	0.0178567
807.573	0.0178868
807.651	0.0177711
807.729	0.0179567
807.808	0.0178381
807.886	0.0178477
807.964	0.0177585
808.042	0.0177253
808.120	0.0175586
808.198	0.0176307
808.276	0.0176402
808.354	0.0177901
808.433	0.0178506
808.511	0.0178025
808.589	0.0178110
808.667	0.0178067
808.745	0.0178602
808.823	0.0177708
808.901	0.0178729
808.979	0.0178983
809.058	0.0178939
809.136	0.0179163
809.214	0.0177670
809.292	0.0179445
809.370	0.0179115
809.448	0.0178677
809.526	0.0178445
809.604	0.0180152
809.683	0.0178450
809.761	0.0178573
809.839	0.0178741
809.917	0.0178493
809.995	0.0179768
810.073	0.0178230
810.151	0.0178685
810.229	0.0178748
810.308	0.0178774
810.386	0.0178349
810.464	0.0177524
810.542	0.0180282
810.620	0.0180230
810.698	0.0180521
810.776	0.0178294
810.854	0.0179477
810.933	0.0180148
811.011	0.0179877
811.089	0.0178844
811.167	0.0180247
811.245	0.0179013
811.323	0.0178057
811.401	0.0178611
811.479	0.0177390
811.558	0.0177245
811.636	0.0177633
811.714	0.0175449
811.792	0.0177637
811.870	0.0176784
811.948	0.0175903
812.026	0.0175507
812.104	0.0175205
812.183	0.0175658
812.261	0.0176298
812.339	0.0176216
812.417	0.0176239
812.495	0.0177013
812.573	0.0177155
812.651	0.0177298
812.729	0.0178062
812.808	0.0176855
812.886	0.0178246
812.964	0.0176976
813.042	0.0178744
813.120	0.0179478
813.198	0.0179825
813.276	0.0180061
813.354	0.0180845
813.433	0.0182079
813.511	0.0181300
813.589	0.0180814
813.667	0.0180062
813.745	0.0181123
813.823	0.0179119
813.901	0.0179694
813.979	0.0179596
814.058	0.0177238
814.136	0.0177505
814.214	0.0176923
814.292	0.0176260
814.370	0.0176656
814.448	0.0176369
814.526	0.0175835
814.604	0.0178211
814.683	0.0176595
814.761	0.0176428
814.839	0.0177377
814.917	0.0175668
814.995	0.0177976
815.073	0.0176836
815.151	0.0176154
815.229	0.0178009
815.308	0.0178253
815.386	0.0178035
815.464	0.0178071
815.542	0.0179356
815.620	0.0180217
815.698	0.0180234
815.776	0.0179379
815.854	0.0180547
815.933	0.0180122
816.011	0.0180079
816.089	0.0179720
816.167	0.0180214
816.245	0.0180935
816.323	0.0180518
816.401	0.0179987
816.479	0.0178960
816.558	0.0179102
816.636	0.0179186
816.714	0.0178893
816.792	0.0179408
816.870	0.0178086
816.948	0.0179543
817.026	0.0179160
817.104	0.0180496
817.183	0.0178915
817.261	0.0178802
817.339	0.0178854
817.417	0.0180072
817.495	0.0179976
817.573	0.0179438
817.651	0.0178363
817.729	0.0177789
817.808	0.0178202
817.886	0.0178231
817.964	0.0177486
818.042	0.0176974
818.120	0.0177306
818.198	0.0175936
818.276	0.0175563
818.354	0.0175790
818.433	0.0175722
818.511	0.0175111
818.589	0.0174810
818.667	0.0175095
818.745	0.0175291
818.823	0.0174662
818.901	0.0175793
818.979	0.0175221
819.058	0.0175715
819.136	0.0176472
819.214	0.0177237
819.292	0.0179671
819.370	0.0178089
819.448	0.0178173
819.526	0.0177785
819.604	0.0179523
819.683	0.0179147
819.761	0.0180226
819.839	0.0180519
819.917	0.0180524
819.995	0.0180621
820.073	0.0180034
820.151	0.0181536
820.229	0.0180527
820.308	0.0181290
820.386	0.0180553
820.464	0.0178851
820.542	0.0180371
820.620	0.0178016
820.698	0.0180028
820.776	0.0179078
820.854	0.0178585
820.933	0.0177103
821.011	0.0176803
821.089	0.0176878
821.167	0.0177005
821.245	0.0175523
821.323	0.0175101
821.401	0.0174880
821.479	0.0175916
821.558	0.0174932
821.636	0.0175403
821.714	0.0175053
821.792	0.0174912
821.870	0.0175039
821.948	0.0176360
822.026	0.0175708
822.104	0.0176713
822.183	0.0177045
822.261	0.0177544
822.339	0.0178313
822.417	0.0178988
822.495	0.0178262
822.573	0.0179794
822.651	0.0179204
822.729	0.0178453
822.808	0.0179218
822.886	0.0179644
822.964	0.0179907
823.042	0.0179284
823.120	0.0179382
823.198	0.0178577
823.276	0.0178120
823.354	0.0178951
823.433	0.0178589
823.511	0.0178349
823.589	0.0179004
823.667	0.0180498
823.745	0.0178850
823.823	0.0178500
823.901	0.0178853
823.979	0.0178843
824.058	0.0179005
824.136	0.0179366
824.214	0.0178647
824.292	0.0178938
824.370	0.0178397
824.448	0.0178993
824.526	0.0178166
824.604	0.0177894
824.683	0.0178111
824.761	0.0178392
824.839	0.0176468
824.917	0.0176895
824.995	0.0177472
825.073	0.0177769
825.151	0.0176842
825.229	0.0175409
825.308	0.0176337
825.386	0.0176638
825.464	0.0176542
825.542	0.0176394
825.620	0.0176267
825.698	0.0176404
825.776	0.0177692
825.854	0.0176957
825.933	0.0177627
826.011	0.0177647
826.089	0.0177338
826.167	0.0177766
826.245	0.0177605
826.323	0.0177834
826.401	0.0178962
826.479	0.0179221
826.558	0.0179172
826.636	0.0178955
826.714	0.0179305
826.792	0.0179224
826.870	0.0179299
826.948	0.0178565
827.026	0.0178922
827.104	0.0179818
827.183	0.0178697
827.261	0.0177669
827.339	0.0178757
827.417	0.0177633
827.495	0.0178537
827.573	0.0178106
827.651	0.0177303
827.729	0.0177941
827.808	0.0175005
827.886	0.0176187
827.964	0.0177062
828.042	0.0175907
828.120	0.0175833
828.198	0.0175452
828.276	0.0176593
828.354	0.0176104
828.433	0.0177532
828.511	0.0176311
828.589	0.0175918
828.667	0.0177601
828.745	0.0176984
828.823	0.0179163
828.901	0.0177567
828.979	0.0178972
829.058	0.0179520
829.136	0.0178592
829.214	0.0178744
829.292	0.0177993
829.370	0.0179772
829.448	0.0178574
829.526	0.0178418
829.604	0.0178070
829.683	0.0178468
829.761	0.0179265
829.839	0.0179757
829.917	0.0179484
829.995	0.0178902
830.073	0.0178957
830.151	0.0178291
830.229	0.0178539
830.308	0.0180104
830.386	0.0179962
830.464	0.0179384
830.542	0.0178222
830.620	0.0179769
830.698	0.0179986
830.776	0.0180799
830.854	0.0179373
830.933	0.0179118
831.011	0.0178559
831.089	0.0178133
831.167	0.0178546
831.245	0.0178236
831.323	0.0176273
831.401	0.0176004
831.479	0.0176527
831.558	0.0175473
831.636	0.0176421
831.714	0.0176421
831.792	0.0175750
831.870	0.0175250
831.948	0.0174379
832.026	0.0175383
832.104	0.0175739
832.183	0.0175169
832.261	0.0175462
832.339	0.0176548
832.417	0.0176347
832.495	0.0177898
832.573	0.0175777
832.651	0.0177432
832.729	0.0178633
832.808	0.0178409
832.886	0.0177299
832.964	0.0180012
833.042	0.0179792
833.120	0.0179676
833.198	0.0181002
833.276	0.0181310
833.354	0.0181380
833.433	0.0180514
833.511	0.0180129
833.589	0.0180927
833.667	0.0179786
833.745	0.0181330
833.823	0.0180273
833.901	0.0180862
833.979	0.0179802
834.058	0.0179141
834.136	0.0177528
834.214	0.0179142
834.292	0.0178329
834.370	0.0178229
834.448	0.0178895
834.526	0.0178207
834.604	0.0176983
834.683	0.0177913
834.761	0.0177799
834.839	0.0177865
834.917	0.0176093
834.995	0.0177290
835.073	0.0177604
835.151	0.0178042
835.229	0.0177200
835.308	0.0177482
835.386	0.0176344
835.464	0.0176497
835.542	0.0177875
835.620	0.0176972
835.698	0.0177788
835.776	0.0177300
835.854	0.0176419
835.933	0.0177445
836.011	0.0177425
836.089	0.0176491
836.167	0.0178214
836.245	0.0176945
836.323	0.0176769
836.401	0.0178087
836.479	0.0177226
836.558	0.0177428
836.636	0.0176885
836.714	0.0178172
836.792	0.0178061
836.870	0.0179913
836.948	0.0178696
837.026	0.0178201
837.104	0.0179352
837.183	0.0179005
837.261	0.0179857
837.339	0.0179552
837.417	0.0178511
837.495	0.0178069
837.573	0.0180731
837.651	0.0178827
837.729	0.0178514
837.808	0.0179153
837.886	0.0179329
837.964	0.0179077
838.042	0.0178559
838.120	0.0178118
838.198	0.0178711
838.276	0.0178559
838.354	0.0178595
838.433	0.0178375
838.511	0.0177296
838.589	0.0177671
838.667	0.0177750
838.745	0.0178452
838.823	0.0177539
838.901	0.0178154
838.979	0.0177257
839.058	0.0177157
839.136	0.0178999
839.214	0.0178049
839.292	0.0177692
839.370	0.0178217
839.448	0.0177182
839.526	0.0178033
839.604	0.0178683
839.683	0.0178564
839.761	0.0179121
839.839	0.0178229
839.917	0.0179321
839.995	0.0179478
840.073	0.0178680
840.151	0.0178460
840.229	0.0180246
840.308	0.0179678
840.386	0.0179020
840.464	0.0178558
840.542	0.0178839
840.620	0.0179962
840.698	0.0180222
840.776	0.0178981
840.854	0.0178835
840.933	0.0179343
841.011	0.0179750
841.089	0.0179977
841.167	0.0178822
841.245	0.0178879
841.323	0.0177694
841.401	0.0178618
841.479	0.0177414
841.558	0.0178146
841.636	0.0177763
841.714	0.0177904
841.792	0.0177561
841.870	0.0177473
841.948	0.0175990
842.026	0.0176746
842.104	0.0176562
842.183	0.0177201
842.261	0.0176604
842.339	0.0177111
842.417	0.0179143
842.495	0.0179053
842.573	0.0177805
842.651	0.0176983
842.729	0.0179118
842.808	0.0177808
842.886	0.0178304
842.964	0.0177391
843.042	0.0177549
843.120	0.0179763
843.198	0.0178685
843.276	0.0179099
843.354	0.0179119
843.433	0.0179491
843.511	0.0178427
843.589	0.0177842
843.667	0.0179250
843.745	0.0178025
843.823	0.0178545
843.901	0.0180414
843.979	0.0180536
844.058	0.0180086
844.136	0.0178577
844.214	0.0179228
844.292	0.0179692
844.370	0.0178982
844.448	0.0180675
844.526	0.0181001
844.604	0.0178408
844.683	0.0178336
844.761	0.0179039
844.839	0.0180090
844.917	0.0177457
844.995	0.0176975
845.073	0.0178596
845.151	0.0179341
845.229	0.0178432
845.308	0.0177397
845.386	0.0178453
845.464	0.0177893
845.542	0.0177210
845.620	0.0175513
845.698	0.0177198
845.776	0.0177400
845.854	0.0177280
845.933	0.0177382
846.011	0.0178407
846.089	0.0176965
846.167	0.0177510
846.245	0.0176590
846.323	0.0176965
846.401	0.0178747
846.479	0.0179591
846.558	0.0179724
846.636	0.0179560
846.714	0.0179807
846.792	0.0180154
846.870	0.0178551
846.948	0.0179784
847.026	0.0179569
847.104	0.0179273
847.183	0.0179810
847.261	0.0178519
847.339	0.0179233
847.417	0.0179131
847.495	0.0179312
847.573	0.0179219
847.651	0.0178270
847.729	0.0179412
847.808	0.0179463
847.886	0.0179491
847.964	0.0180997
848.042	0.0179711
848.120	0.0179103
848.198	0.0178947
848.276	0.0178319
848.354	0.0179531
848.433	0.0178071
848.511	0.0179623
848.589	0.0179942
848.667	0.0179202
848.745	0.0177976
848.823	0.0177156
848.901	0.0177846
848.979	0.0178004
849.058	0.0179100
849.136	0.0177959
849.214	0.0178420
849.292	0.0177937
849.370	0.0178194
849.448	0.0178273
849.526	0.0176347
849.604	0.0178004
849.683	0.0176186
849.761	0.0178479
849.839	0.0178001
849.917	0.0177087
849.995	0.0177529
850.073	0.0177287
850.151	0.0176652
850.229	0.0177570
850.308	0.0177627
850.386	0.0176118
850.464	0.0177578
850.542	0.0176724
850.620	0.0177100
850.698	0.0177534
850.776	0.0177754
850.854	0.0175779
850.933	0.0178110
851.011	0.0176298
851.089	0.0176762
851.167	0.0177986
851.245	0.0177985
851.323	0.0178558
851.401	0.0177432
851.479	0.0177485
851.558	0.0177925
851.636	0.0177705
851.714	0.0177628
851.792	0.0176363
851.870	0.0177094
851.948	0.0176591
852.026	0.0177784
852.104	0.0176110
852.183	0.0175955
852.261	0.0177653
852.339	0.0176299
852.417	0.0176904
852.495	0.0177711
852.573	0.0177490
852.651	0.0177209
852.729	0.0178876
852.808	0.0177896
852.886	0.0177515
852.964	0.0179063
853.042	0.0180343
853.120	0.0179703
853.198	0.0178992
853.276	0.0180154
853.354	0.0180134
853.433	0.0180812
853.511	0.0180992
853.589	0.0181454
853.667	0.0180161
853.745	0.0180447
853.823	0.0180400
853.901	0.0179742
853.979	0.0179080
854.058	0.0181065
854.136	0.0180550
854.214	0.0178655
854.292	0.0178217
854.370	0.0179902
854.448	0.0179572
854.526	0.0179026
854.604	0.0180166
854.683	0.0179453
854.761	0.0178943
854.839	0.0179213
854.917	0.0177846
854.995	0.0176922
855.073	0.0177231
855.151	0.0177776
855.229	0.0176558
855.308	0.0175913
855.386	0.0176280
855.464	0.0176076
855.542	0.0176180
855.620	0.0176017
855.698	0.0176302
855.776	0.0174446
855.854	0.0176449
855.933	0.0175639
856.011	0.0175309
856.089	0.0176508
856.167	0.0176376
856.245	0.0174580
856.323	0.0176126
856.401	0.0176616
856.479	0.0176209
856.558	0.0176305
856.636	0.0175080
856.714	0.0176426
856.792	0.0176237
856.870	0.0176406
856.948	0.0175681
857.026	0.0175149
857.104	0.0175616
857.183	0.0177184
857.261	0.0175456
857.339	0.0175954
857.417	0.0176631
857.495	0.0178009
857.573	0.0175691
857.651	0.0177090
857.729	0.0176736
857.808	0.0177890
857.886	0.0178827
857.964	0.0178308
858.042	0.0179049
858.120	0.0180434
858.198	0.0179681
858.276	0.0178625
858.354	0.0178683
858.433	0.0177738
858.511	0.0178284
858.589	0.0179759
858.667	0.0179014
858.745	0.0178350
858.823	0.0177500
858.901	0.0177291
858.979	0.0176358
859.058	0.0178099
859.136	0.0177866
859.214	0.0178230
859.292	0.0178349
859.370	0.0178145
859.448	0.0178232
859.526	0.0177689
859.604	0.0177742
859.683	0.0177981
859.761	0.0177262
859.839	0.0178342
859.917	0.0179033
859.995	0.0178137
860.073	0.0179181
860.151	0.0179234
860.229	0.0180412
860.308	0.0178670
860.386	0.0179289
860.464	0.0179679
860.542	0.0179106
860.620	0.0179799
860.698	0.0179077
860.776	0.0179208
860.854	0.0179027
860.933	0.0181049
861.011	0.0179959
861.089	0.0179856
861.167	0.0179765
861.245	0.0178647
861.323	0.0180017
861.401	0.0179435
861.479	0.0180061
861.558	0.0181037
861.636	0.0179439
861.714	0.0178174
861.792	0.0179082
861.870	0.0178484
861.948	0.0178370
862.026	0.0179408
862.104	0.0179942
862.183	0.0178952
862.261	0.0178275
862.339	0.0178440
862.417	0.0178101
862.495	0.0178452
862.573	0.0178260
862.651	0.0177558
862.729	0.0177914
862.808	0.0178452
862.886	0.0178286
862.964	0.0178197
863.042	0.0178369
863.120	0.0178668
863.198	0.0177689
863.276	0.0177087
863.354	0.0178149
863.433	0.0178890
863.511	0.0178483
863.589	0.0178497
863.667	0.0177076
863.745	0.0177782
863.823	0.0178080
863.901	0.0177126
863.979	0.0178374
864.058	0.0178424
864.136	0.0177941
864.214	0.0177825
864.292	0.0177700
864.370	0.0177843
864.448	0.0177651
864.526	0.0178851
864.604	0.0179643
864.683	0.0179310
864.761	0.0179685
864.839	0.0180503
864.917	0.0179608
864.995	0.0179008
865.073	0.0178966
865.151	0.0178134
865.229	0.0179340
865.308	0.0178869
865.386	0.0180511
865.464	0.0178728
865.542	0.0178024
865.620	0.0179523
865.698	0.0178234
865.776	0.0177656
865.854	0.0178105
865.933	0.0179163
866.011	0.0177040
866.089	0.0176710
866.167	0.0178307
866.245	0.0178553
866.323	0.0178594
866.401	0.0179173
866.479	0.0179897
866.558	0.0178383
866.636	0.0177579
866.714	0.0178578
866.792	0.0179121
866.870	0.0179272
866.948	0.0179580
867.026	0.0178391
867.104	0.0178207
867.183	0.0178502
867.261	0.0177531
867.339	0.0177660
867.417	0.0179097
867.495	0.0179214
867.573	0.0178236
867.651	0.0178266
867.729	0.0177335
867.808	0.0178145
867.886	0.0179427
867.964	0.0180421
868.042	0.0179321
868.120	0.0178814
868.198	0.0179832
868.276	0.0177492
868.354	0.0178726
868.433	0.0179643
868.511	0.0179479
868.589	0.0179436
868.667	0.0179128
868.745	0.0178865
868.823	0.0180374
868.901	0.0178256
868.979	0.0177917
869.058	0.0180441
869.136	0.0177933
869.214	0.0178322
869.292	0.0179286
869.370	0.0179204
869.448	0.0180278
869.526	0.0178979
869.604	0.0177707
869.683	0.0179063
869.761	0.0180083
869.839	0.0178521
869.917	0.0178881
869.995	0.0179681
870.073	0.0178751
870.151	0.0179420
870.229	0.0178831
870.308	0.0179130
870.386	0.0178299
870.464	0.0178848
870.542	0.0179018
870.620	0.0177497
870.698	0.0178642
870.776	0.0178717
870.854	0.0178126
870.933	0.0177439
871.011	0.0178741
871.089	0.0179047
871.167	0.0179043
871.245	0.0178071
871.323	0.0178326
871.401	0.0178400
871.479	0.0178159
871.558	0.0177859
871.636	0.0179477
871.714	0.0178789
871.792	0.0179121
871.870	0.0178249
871.948	0.0178565
872.026	0.0178101
872.104	0.0179436
872.183	0.0178822
872.261	0.0177400
872.339	0.0176515
872.417	0.0177544
872.495	0.0176022
872.573	0.0176640
872.651	0.0178958
872.729	0.0176469
872.808	0.0176668
872.886	0.0176142
872.964	0.0176447
873.042	0.0177886
873.120	0.0177094
873.198	0.0177311
873.276	0.0177945
873.354	0.0178665
873.433	0.0178319
873.511	0.0177982
873.589	0.0179010
873.667	0.0177655
873.745	0.0178439
873.823	0.0178806
873.901	0.0179221
873.979	0.0180838
874.058	0.0179312
874.136	0.0179601
874.214	0.0178951
874.292	0.0179896
874.370	0.0180225
874.448	0.0179772
874.526	0.0180492
874.604	0.0179881
874.683	0.0180135
874.761	0.0180125
874.839	0.0179395
874.917	0.0180009
874.995	0.0180138
875.073	0.0180025
875.151	0.0180069
875.229	0.0180405
875.308	0.0178907
875.386	0.0179329
875.464	0.0180519
875.542	0.0180342
875.620	0.0179525
875.698	0.0179967
875.776	0.0180495
875.854	0.0178600
875.933	0.0179111
876.011	0.0179317
876.089	0.0177937
876.167	0.0177114
876.245	0.0177746
876.323	0.0178213
876.401	0.0178630
876.479	0.0177545
876.558	0.0177840
876.636	0.0178488
876.714	0.0177941
876.792	0.0176540
876.870	0.0175479
876.948	0.0176099
877.026	0.0177206
877.104	0.0175195
877.183	0.0175795
877.261	0.0177467
877.339	0.0177583
877.417	0.0177100
877.495	0.0176783
877.573	0.0177082
877.651	0.0176006
877.729	0.0176609
877.808	0.0177245
877.886	0.0177404
877.964	0.0177661
878.042	0.0177155
878.120	0.0178224
878.198	0.0178661
878.276	0.0178191
878.354	0.0179137
878.433	0.0178349
878.511	0.0178797
878.589	0.0178635
878.667	0.0178052
878.745	0.0179241
878.823	0.0179246
878.901	0.0178880
878.979	0.0177719
879.058	0.0178020
879.136	0.0177596
879.214	0.0179436
879.292	0.0177389
879.370	0.0177654
879.448	0.0178846
879.526	0.0177052
879.604	0.0177637
879.683	0.0178532
879.761	0.0176450
879.839	0.0177178
879.917	0.0177361
879.995	0.0177811
880.073	0.0176810
880.151	0.0176945
880.229	0.0178392
880.308	0.0177764
880.386	0.0175110
880.464	0.0176691
880.542	0.0177985
880.620	0.0176899
880.698	0.0177706
880.776	0.0177707
880.854	0.0175699
880.933	0.0175853
881.011	0.0175784
881.089	0.0175604
881.167	0.0176591
881.245	0.0177083
881.323	0.0178414
881.401	0.0177309
881.479	0.0177645
881.558	0.0177373
881.636	0.0177446
881.714	0.0178013
881.792	0.0178914
881.870	0.0180151
881.948	0.0177948
882.026	0.0178145
882.104	0.0178581
882.183	0.0178829
882.261	0.0180418
882.339	0.0177293
882.417	0.0178749
882.495	0.0178825
882.573	0.0177228
882.651	0.0176899
882.729	0.0179107
882.808	0.0178631
882.886	0.0176390
882.964	0.0176543
883.042	0.0177351
883.120	0.0178052
883.198	0.0176469
883.276	0.0175983
883.354	0.0176421
883.433	0.0176706
883.511	0.0175228
883.589	0.0176812
883.667	0.0176032
883.745	0.0174390
883.823	0.0175649
883.901	0.0175397
883.979	0.0175359
884.058	0.0174862
884.136	0.0175500
884.214	0.0175789
884.292	0.0176165
884.370	0.0175183
884.448	0.0176385
884.526	0.0175109
884.604	0.0176399
884.683	0.0176190
884.761	0.0175867
884.839	0.0176463
884.917	0.0176241
884.995	0.0177744
885.073	0.0178284
885.151	0.0178705
885.229	0.0177879
885.308	0.0176987
885.386	0.0179032
885.464	0.0177405
885.542	0.0177866
885.620	0.0178920
885.698	0.0178177
885.776	0.0178271
885.854	0.0177288
885.933	0.0177029
886.011	0.0178825
886.089	0.0177767
886.167	0.0177142
886.245	0.0179068
886.323	0.0177823
886.401	0.0176873
886.479	0.0177036
886.558	0.0177116
886.636	0.0178354
886.714	0.0176974
886.792	0.0178220
886.870	0.0177512
886.948	0.0179498
887.026	0.0178001
887.104	0.0177307
887.183	0.0177928
887.261	0.0178512
887.339	0.0178120
887.417	0.0177875
887.495	0.0178893
887.573	0.0176902
887.651	0.0178905
887.729	0.0178685
887.808	0.0178688
887.886	0.0179028
887.964	0.0177821
888.042	0.0178442
888.120	0.0178778
888.198	0.0178825
888.276	0.0177647
888.354	0.0178513
888.433	0.0179529
888.511	0.0179131
888.589	0.0179237
888.667	0.0179552
888.745	0.0177678
888.823	0.0179810
888.901	0.0180433
888.979	0.0180105
889.058	0.0178858
889.136	0.0178722
889.214	0.0179704
889.292	0.0179398
889.370	0.0179117
889.448	0.0177987
889.526	0.0178947
889.604	0.0178931
889.683	0.0179320
889.761	0.0177626
889.839	0.0177879
889.917	0.0178813
889.995	0.0178310
890.073	0.0176918
890.151	0.0178129
890.229	0.0178909
890.308	0.0178780
890.386	0.0176598
890.464	0.0177547
890.542	0.0176983
890.620	0.0176821
890.698	0.0178846
890.776	0.0177259
890.854	0.0177308
890.933	0.0178809
891.011	0.0176524
891.089	0.0178738
891.167	0.0178119
891.245	0.0177662
891.323	0.0177879
891.401	0.0178329
891.479	0.0178484
891.558	0.0178088
891.636	0.0180132
891.714	0.0179354
891.792	0.0178922
891.870	0.0178776
891.948	0.0179475
892.026	0.0179484
892.104	0.0178711
892.183	0.0179075
892.261	0.0178063
892.339	0.0179098
892.417	0.0179762
892.495	0.0178040
892.573	0.0179179
892.651	0.0178331
892.729	0.0179460
892.808	0.0179147
892.886	0.0179527
892.964	0.0179725
893.042	0.0179566
893.120	0.0178794
893.198	0.0178658
893.276	0.0180397
893.354	0.0179137
893.433	0.0179137
893.511	0.0179015
893.589	0.0177444
893.667	0.0179062
893.745	0.0179993
893.823	0.0179943
893.901	0.0178452
893.979	0.0179414
894.058	0.0179061
894.136	0.0177940
894.214	0.0177482
894.292	0.0176952
894.370	0.0178625
894.448	0.0177643
894.526	0.0178442
894.604	0.0178526
894.683	0.0178501
894.761	0.0177574
894.839	0.0179517
894.917	0.0179038
894.995	0.0178516
895.073	0.0179798
895.151	0.0179143
895.229	0.0178550
895.308	0.0179475
895.386	0.0180455
895.464	0.0179449
895.542	0.0178953
895.620	0.0179852
895.698	0.0179517
895.776	0.0179737
895.854	0.0181121
895.933	0.0180037
896.011	0.0179617
896.089	0.0179494
896.167	0.0180337
896.245	0.0180416
896.323	0.0180115
896.401	0.0179208
896.479	0.0178864
896.558	0.0178873
896.636	0.0178930
896.714	0.0178245
896.792	0.0177861
896.870	0.0177663
896.948	0.0178361
897.026	0.0178156
897.104	0.0175582
897.183	0.0177658
897.261	0.0176529
897.339	0.0175435
897.417	0.0175617
897.495	0.0176945
897.573	0.0175417
897.651	0.0174364
897.729	0.0176890
897.808	0.0176324
897.886	0.0175874
897.964	0.0176302
898.042	0.0176176
898.120	0.0176260
898.198	0.0175587
898.276	0.0176411
898.354	0.0177142
898.433	0.0176850
898.511	0.0177406
898.589	0.0177705
898.667	0.0176611
898.745	0.0176804
898.823	0.0178133
898.901	0.0178533
898.979	0.0178484
899.058	0.0177385
899.136	0.0178693
899.214	0.0179638
899.292	0.0179269
899.370	0.0178484
899.448	0.0179206
899.526	0.0178381
899.604	0.0178358
899.683	0.0178362
899.761	0.0177882
899.839	0.0178349
899.917	0.0180025
899.995	0.0178692
900.073	0.0177681
900.151	0.0176731
900.229	0.0178856
900.308	0.0177714
900.386	0.0178791
900.464	0.0177003
900.542	0.0176842
900.620	0.0177352
900.698	0.0176645
900.776	0.0176342
900.854	0.0177321
900.933	0.0179339
901.011	0.0178170
901.089	0.0177015
901.167	0.0178115
901.245	0.0178197
901.323	0.0178445
901.401	0.0178014
901.479	0.0179191
901.558	0.0178140
901.636	0.0178184
901.714	0.0178548
901.792	0.0178473
901.870	0.0180600
901.948	0.0178536
902.026	0.0178614
902.104	0.0179466
902.183	0.0179784
902.261	0.0179530
902.339	0.0178562
902.417	0.0179789
902.495	0.0179977
902.573	0.0180168
902.651	0.0178982
902.729	0.0179720
902.808	0.0179289
902.886	0.0178606
902.964	0.0179640
903.042	0.0179370
903.120	0.0178963
903.198	0.0177777
903.276	0.0178394
903.354	0.0178429
903.433	0.0178181
903.511	0.0177814
903.589	0.0178072
903.667	0.0177591
903.745	0.0178848
903.823	0.0177149
903.901	0.0176252
903.979	0.0176084
904.058	0.0176921
904.136	0.0176728
904.214	0.0176922
904.292	0.0177473
904.370	0.0176461
904.448	0.0175703
904.526	0.0176371
904.604	0.0174998
904.683	0.0176381
904.761	0.0176398
904.839	0.0175655
904.917	0.0177650
904.995	0.0177041
905.073	0.0177665
905.151	0.0177376
905.229	0.0175804
905.308	0.0176512
905.386	0.0178271
905.464	0.0177297
905.542	0.0177000
905.620	0.0177345
905.698	0.0178577
905.776	0.0176956
905.854	0.0177741
905.933	0.0179286
906.011	0.0179763
906.089	0.0179327
906.167	0.0178987
906.245	0.0179382
906.323	0.0180004
906.401	0.0177941
906.479	0.0179283
906.558	0.0179491
906.636	0.0177698
906.714	0.0177706
906.792	0.0178156
906.870	0.0177177
906.948	0.0178677
907.026	0.0177422
907.104	0.0177398
907.183	0.0176378
907.261	0.0178501
907.339	0.0176300
907.417	0.0178470
907.495	0.0176254
907.573	0.0177062
907.651	0.0176649
907.729	0.0178117
907.808	0.0176343
907.886	0.0177096
907.964	0.0176962
908.042	0.0176996
908.120	0.0177716
908.198	0.0177671
908.276	0.0179194
908.354	0.0178017
908.433	0.0177165
908.511	0.0178014
908.589	0.0178037
908.667	0.0178352
908.745	0.0178249
908.823	0.0178161
908.901	0.0177834
908.979	0.0178868
909.058	0.0177676
909.136	0.0177496
909.214	0.0178043
909.292	0.0178072
909.370	0.0177294
909.448	0.0177646
909.526	0.0178017
909.604	0.0178042
909.683	0.0176783
909.761	0.0176705
909.839	0.0178217
909.917	0.0177817
909.995	0.0176931
910.073	0.0178690
910.151	0.0177697
910.229	0.0178503
910.308	0.0178188
910.386	0.0178285
910.464	0.0178171
910.542	0.0177901
910.620	0.0178851
910.698	0.0177383
910.776	0.0178034
910.854	0.0178701
910.933	0.0179022
911.011	0.0178081
911.089	0.0180270
911.167	0.0178641
911.245	0.0178719
911.323	0.0178687
911.401	0.0179703
911.479	0.0178717
911.558	0.0177285
911.636	0.0178170
911.714	0.0178616
911.792	0.0178381
911.870	0.0177246
911.948	0.0177750
912.026	0.0177532
912.104	0.0178042
912.183	0.0175879
912.261	0.0177148
912.339	0.0177999
912.417	0.0178760
912.495	0.0177100
912.573	0.0177838
912.651	0.0178619
912.729	0.0177019
912.808	0.0177470
912.886	0.0177943
912.964	0.0177587
913.042	0.0177704
913.120	0.0176903
913.198	0.0178485
913.276	0.0178326
913.354	0.0178933
913.433	0.0176648
913.511	0.0177734
913.589	0.0179865
913.667	0.0179312
913.745	0.0178753
913.823	0.0179627
913.901	0.0178320
913.979	0.0177138
914.058	0.0177554
914.136	0.0178979
914.214	0.0177972
914.292	0.0178465
914.370	0.0177966
914.448	0.0178522
914.526	0.0179192
914.604	0.0178448
914.683	0.0178272
914.761	0.0176208
914.839	0.0178235
914.917	0.0178291
914.995	0.0178572
915.073	0.0177838
915.151	0.0177070
915.229	0.0178339
915.308	0.0178877
915.386	0.0178352
915.464	0.0178471
915.542	0.0177792
915.620	0.0178618
915.698	0.0179447
915.776	0.0178261
915.854	0.0179560
915.933	0.0178631
916.011	0.0178819
916.089	0.0178889
916.167	0.0178724
916.245	0.0178827
916.323	0.0179533
916.401	0.0178158
916.479	0.0178751
916.558	0.0180445
916.636	0.0179282
916.714	0.0178179
916.792	0.0178277
916.870	0.0178239
916.948	0.0178305
917.026	0.0177417
917.104	0.0178465
917.183	0.0178664
917.261	0.0178976
917.339	0.0177972
917.417	0.0178428
917.495	0.0178394
917.573	0.0178069
917.651	0.0178723
917.729	0.0177436
917.808	0.0177143
917.886	0.0178217
917.964	0.0177342
918.042	0.0177731
918.120	0.0177307
918.198	0.0178680
918.276	0.0178192
918.354	0.0177565
918.433	0.0176440
918.511	0.0176635
918.589	0.0175908
918.667	0.0176221
918.745	0.0176504
918.823	0.0178693
918.901	0.0177546
918.979	0.0177559
919.058	0.0177340
919.136	0.0177442
919.214	0.0177073
919.292	0.0178622
919.370	0.0177616
919.448	0.0178681
919.526	0.0179710
919.604	0.0179674
919.683	0.0178275
919.761	0.0178360
919.839	0.0178078
919.917	0.0178710
