06/03/2022	18:24:33	Ver.	4.1	UNKNOWN
Optical Delay	599.995081	Delta X		0.078125	Sweeps	1	Scan Rate	0/0
Coordinates	Axis 1	NaN	Axis 2	NaN	Axis 3	NaN	Axis 4	NaN	Axis 5	NaN	Axis 6	0.000000
TX Power	0.000000	RX Power	0.000000

599.995	0.0178883
600.073	0.0179925
600.151	0.0179748
600.229	0.0177487
600.308	0.0176967
600.386	0.0178020
600.464	0.0178539
600.542	0.0177877
600.620	0.0178278
600.698	0.0179136
600.776	0.0178437
600.854	0.0178748
600.933	0.0178748
601.011	0.0178008
601.089	0.0178214
601.167	0.0177505
601.245	0.0178499
601.323	0.0177782
601.401	0.0176422
601.479	0.0178374
601.558	0.0177667
601.636	0.0178143
601.714	0.0179151
601.792	0.0177773
601.870	0.0177436
601.948	0.0178489
602.026	0.0178829
602.104	0.0177530
602.183	0.0178696
602.261	0.0178415
602.339	0.0178478
602.417	0.0179659
602.495	0.0180520
602.573	0.0178625
602.651	0.0179363
602.729	0.0179189
602.808	0.0178183
602.886	0.0178003
602.964	0.0177932
603.042	0.0177953
603.120	0.0179371
603.198	0.0178613
603.276	0.0178645
603.354	0.0180113
603.433	0.0180708
603.511	0.0178533
603.589	0.0178093
603.667	0.0177023
603.745	0.0177838
603.823	0.0178564
603.901	0.0178072
603.979	0.0178847
604.058	0.0177822
604.136	0.0179723
604.214	0.0179019
604.292	0.0178665
604.370	0.0178680
604.448	0.0179208
604.526	0.0178260
604.604	0.0178857
604.683	0.0178558
604.761	0.0178839
604.839	0.0178662
604.917	0.0178178
604.995	0.0178673
605.073	0.0179498
605.151	0.0178612
605.229	0.0178280
605.308	0.0179311
605.386	0.0178506
605.464	0.0177998
605.542	0.0179683
605.620	0.0178849
605.698	0.0178169
605.776	0.0178534
605.854	0.0178294
605.933	0.0179748
606.011	0.0177859
606.089	0.0177345
606.167	0.0178680
606.245	0.0178696
606.323	0.0179333
606.401	0.0178793
606.479	0.0179720
606.558	0.0179604
606.636	0.0178406
606.714	0.0179378
606.792	0.0178971
606.870	0.0178180
606.948	0.0177951
607.026	0.0178453
607.104	0.0178724
607.183	0.0179819
607.261	0.0176859
607.339	0.0178566
607.417	0.0177853
607.495	0.0179903
607.573	0.0179379
607.651	0.0178465
607.729	0.0178598
607.808	0.0180041
607.886	0.0179864
607.964	0.0177279
608.042	0.0178740
608.120	0.0179655
608.198	0.0178159
608.276	0.0178452
608.354	0.0177427
608.433	0.0178569
608.511	0.0179394
608.589	0.0179359
608.667	0.0177646
608.745	0.0178987
608.823	0.0179076
608.901	0.0177798
608.979	0.0179041
609.058	0.0179721
609.136	0.0178294
609.214	0.0178973
609.292	0.0180385
609.370	0.0178835
609.448	0.0178751
609.526	0.0178500
609.604	0.0177882
609.683	0.0179009
609.761	0.0178323
609.839	0.0177087
609.917	0.0178558
609.995	0.0177686
610.073	0.0179342
610.151	0.0179096
610.229	0.0179828
610.308	0.0178377
610.386	0.0179141
610.464	0.0177879
610.542	0.0179655
610.620	0.0179095
610.698	0.0177779
610.776	0.0178637
610.854	0.0179829
610.933	0.0178414
611.011	0.0177898
611.089	0.0178212
611.167	0.0177772
611.245	0.0178011
611.323	0.0179671
611.401	0.0178696
611.479	0.0178006
611.558	0.0178024
611.636	0.0178442
611.714	0.0178082
611.792	0.0179478
611.870	0.0177200
611.948	0.0177057
612.026	0.0177085
612.104	0.0178249
612.183	0.0178220
612.261	0.0177544
612.339	0.0178265
612.417	0.0178191
612.495	0.0177892
612.573	0.0177222
612.651	0.0178616
612.729	0.0178932
612.808	0.0177145
612.886	0.0177460
612.964	0.0178154
613.042	0.0178337
613.120	0.0178799
613.198	0.0178118
613.276	0.0178883
613.354	0.0179205
613.433	0.0178279
613.511	0.0178632
613.589	0.0179189
613.667	0.0177895
613.745	0.0178264
613.823	0.0178162
613.901	0.0178619
613.979	0.0179167
614.058	0.0178632
614.136	0.0177675
614.214	0.0178968
614.292	0.0178731
614.370	0.0180305
614.448	0.0179435
614.526	0.0178764
614.604	0.0178992
614.683	0.0177309
614.761	0.0179539
614.839	0.0177466
614.917	0.0177613
614.995	0.0177612
615.073	0.0178247
615.151	0.0179696
615.229	0.0179851
615.308	0.0178285
615.386	0.0177898
615.464	0.0176793
615.542	0.0177849
615.620	0.0177959
615.698	0.0178538
615.776	0.0177318
615.854	0.0178328
615.933	0.0178921
616.011	0.0178783
616.089	0.0179448
616.167	0.0177731
616.245	0.0177419
616.323	0.0176904
616.401	0.0178693
616.479	0.0179610
616.558	0.0178542
616.636	0.0178047
616.714	0.0178638
616.792	0.0178970
616.870	0.0178073
616.948	0.0178749
617.026	0.0178240
617.104	0.0177677
617.183	0.0178077
617.261	0.0178913
617.339	0.0178865
617.417	0.0179826
617.495	0.0177847
617.573	0.0178555
617.651	0.0178760
617.729	0.0179743
617.808	0.0180360
617.886	0.0178038
617.964	0.0178240
618.042	0.0178029
618.120	0.0179002
618.198	0.0179301
618.276	0.0177589
618.354	0.0177717
618.433	0.0179041
618.511	0.0178873
618.589	0.0178782
618.667	0.0179429
618.745	0.0179314
618.823	0.0178700
618.901	0.0178711
618.979	0.0177470
619.058	0.0177330
619.136	0.0178475
619.214	0.0179031
619.292	0.0177872
619.370	0.0178493
619.448	0.0178201
619.526	0.0178590
619.604	0.0177285
619.683	0.0179657
619.761	0.0178277
619.839	0.0177258
619.917	0.0178069
619.995	0.0177396
620.073	0.0177734
620.151	0.0178327
620.229	0.0178493
620.308	0.0177608
620.386	0.0178245
620.464	0.0177901
620.542	0.0178716
620.620	0.0178241
620.698	0.0176951
620.776	0.0178727
620.854	0.0178931
620.933	0.0178647
621.011	0.0178796
621.089	0.0178319
621.167	0.0178275
621.245	0.0178673
621.323	0.0176749
621.401	0.0178061
621.479	0.0178109
621.558	0.0179218
621.636	0.0179465
621.714	0.0178516
621.792	0.0178548
621.870	0.0178545
621.948	0.0177695
622.026	0.0177973
622.104	0.0177973
622.183	0.0179115
622.261	0.0178436
622.339	0.0179572
622.417	0.0177446
622.495	0.0178266
622.573	0.0178166
622.651	0.0178429
622.729	0.0178142
622.808	0.0179076
622.886	0.0178875
622.964	0.0177738
623.042	0.0177584
623.120	0.0179590
623.198	0.0179146
623.276	0.0178891
623.354	0.0178918
623.433	0.0178359
623.511	0.0178806
623.589	0.0179209
623.667	0.0177730
623.745	0.0177957
623.823	0.0178177
623.901	0.0179279
623.979	0.0179040
624.058	0.0177877
624.136	0.0177999
624.214	0.0178980
624.292	0.0179037
624.370	0.0177983
624.448	0.0177714
624.526	0.0178439
624.604	0.0177493
624.683	0.0178058
624.761	0.0179015
624.839	0.0178560
624.917	0.0178413
624.995	0.0178538
625.073	0.0180525
625.151	0.0179067
625.229	0.0177778
625.308	0.0179620
625.386	0.0179598
625.464	0.0178331
625.542	0.0178308
625.620	0.0178787
625.698	0.0180062
625.776	0.0177737
625.854	0.0178486
625.933	0.0177853
626.011	0.0178773
626.089	0.0178952
626.167	0.0177888
626.245	0.0178278
626.323	0.0178981
626.401	0.0178786
626.479	0.0178366
626.558	0.0177948
626.636	0.0178173
626.714	0.0179305
626.792	0.0178665
626.870	0.0178466
626.948	0.0178272
627.026	0.0179521
627.104	0.0180429
627.183	0.0178568
627.261	0.0177835
627.339	0.0178301
627.417	0.0178391
627.495	0.0178411
627.573	0.0179039
627.651	0.0177884
627.729	0.0177816
627.808	0.0178500
627.886	0.0176971
627.964	0.0178324
628.042	0.0179638
628.120	0.0178493
628.198	0.0177805
628.276	0.0178399
628.354	0.0178036
628.433	0.0178339
628.511	0.0178440
628.589	0.0179343
628.667	0.0177992
628.745	0.0178091
628.823	0.0178548
628.901	0.0178773
628.979	0.0177502
629.058	0.0177573
629.136	0.0176329
629.214	0.0178181
629.292	0.0178666
629.370	0.0178271
629.448	0.0177987
629.526	0.0178654
629.604	0.0178679
629.683	0.0179901
629.761	0.0178738
629.839	0.0178259
629.917	0.0177505
629.995	0.0178278
630.073	0.0178125
630.151	0.0177541
630.229	0.0179115
630.308	0.0178152
630.386	0.0176810
630.464	0.0177440
630.542	0.0178793
630.620	0.0178672
630.698	0.0178957
630.776	0.0178987
630.854	0.0179122
630.933	0.0177833
631.011	0.0177535
631.089	0.0180521
631.167	0.0178823
631.245	0.0178361
631.323	0.0177807
631.401	0.0178022
631.479	0.0178446
631.558	0.0178736
631.636	0.0177568
631.714	0.0177464
631.792	0.0178022
631.870	0.0179662
631.948	0.0177633
632.026	0.0177643
632.104	0.0178857
632.183	0.0178604
632.261	0.0178596
632.339	0.0178617
632.417	0.0179731
632.495	0.0179276
632.573	0.0178962
632.651	0.0179221
632.729	0.0178283
632.808	0.0178355
632.886	0.0178296
632.964	0.0178471
633.042	0.0178849
633.120	0.0178727
633.198	0.0178645
633.276	0.0178207
633.354	0.0177776
633.433	0.0178602
633.511	0.0179893
633.589	0.0177917
633.667	0.0177744
633.745	0.0178618
633.823	0.0178015
633.901	0.0179090
633.979	0.0180472
634.058	0.0178268
634.136	0.0178242
634.214	0.0178138
634.292	0.0177422
634.370	0.0178392
634.448	0.0178760
634.526	0.0178163
634.604	0.0177622
634.683	0.0179258
634.761	0.0178834
634.839	0.0177911
634.917	0.0178812
634.995	0.0179173
635.073	0.0179716
635.151	0.0178108
635.229	0.0179047
635.308	0.0179107
635.386	0.0178586
635.464	0.0179993
635.542	0.0178385
635.620	0.0177699
635.698	0.0179897
635.776	0.0178775
635.854	0.0178628
635.933	0.0177787
636.011	0.0176995
636.089	0.0178780
636.167	0.0180414
636.245	0.0179221
636.323	0.0178109
636.401	0.0178606
636.479	0.0179538
636.558	0.0178310
636.636	0.0176781
636.714	0.0178360
636.792	0.0178875
636.870	0.0178078
636.948	0.0178970
637.026	0.0179269
637.104	0.0179785
637.183	0.0179161
637.261	0.0178985
637.339	0.0176904
637.417	0.0178819
637.495	0.0178779
637.573	0.0178183
637.651	0.0178301
637.729	0.0178038
637.808	0.0178291
637.886	0.0178989
637.964	0.0178369
638.042	0.0178430
638.120	0.0179797
638.198	0.0178091
638.276	0.0177894
638.354	0.0177693
638.433	0.0178738
638.511	0.0178259
638.589	0.0177402
638.667	0.0178407
638.745	0.0179034
638.823	0.0178141
638.901	0.0178741
638.979	0.0180078
639.058	0.0179175
639.136	0.0179154
639.214	0.0178400
639.292	0.0178600
639.370	0.0178882
639.448	0.0178365
639.526	0.0178293
639.604	0.0179565
639.683	0.0179753
639.761	0.0178303
639.839	0.0179958
639.917	0.0177728
639.995	0.0179331
640.073	0.0178054
640.151	0.0178429
640.229	0.0178349
640.308	0.0180749
640.386	0.0178857
640.464	0.0178497
640.542	0.0178902
640.620	0.0177913
640.698	0.0179595
640.776	0.0178957
640.854	0.0178982
640.933	0.0179705
641.011	0.0178233
641.089	0.0179317
641.167	0.0178236
641.245	0.0177572
641.323	0.0178112
641.401	0.0178422
641.479	0.0178547
641.558	0.0179093
641.636	0.0179020
641.714	0.0177016
641.792	0.0178490
641.870	0.0178781
641.948	0.0179331
642.026	0.0179785
642.104	0.0177336
642.183	0.0180772
642.261	0.0178111
642.339	0.0178413
642.417	0.0178976
642.495	0.0179276
642.573	0.0178626
642.651	0.0178812
642.729	0.0177168
642.808	0.0177331
642.886	0.0178804
642.964	0.0178056
643.042	0.0176758
643.120	0.0178278
643.198	0.0176891
643.276	0.0177708
643.354	0.0177871
643.433	0.0177650
643.511	0.0177638
643.589	0.0178295
643.667	0.0178031
643.745	0.0176819
643.823	0.0178275
643.901	0.0179186
643.979	0.0178484
644.058	0.0178745
644.136	0.0178587
644.214	0.0179028
644.292	0.0178606
644.370	0.0180173
644.448	0.0177283
644.526	0.0178467
644.604	0.0179088
644.683	0.0178072
644.761	0.0178043
644.839	0.0178914
644.917	0.0177911
644.995	0.0177792
645.073	0.0176156
645.151	0.0178564
645.229	0.0178264
645.308	0.0178185
645.386	0.0176628
645.464	0.0179102
645.542	0.0178915
645.620	0.0177562
645.698	0.0177245
645.776	0.0177927
645.854	0.0178359
645.933	0.0178552
646.011	0.0179399
646.089	0.0179490
646.167	0.0178313
646.245	0.0176850
646.323	0.0180289
646.401	0.0179145
646.479	0.0178828
646.558	0.0178951
646.636	0.0177490
646.714	0.0179307
646.792	0.0178421
646.870	0.0179240
646.948	0.0178502
647.026	0.0177615
647.104	0.0178181
647.183	0.0177291
647.261	0.0178445
647.339	0.0177916
647.417	0.0177656
647.495	0.0176028
647.573	0.0177665
647.651	0.0178044
647.729	0.0177867
647.808	0.0178654
647.886	0.0180455
647.964	0.0178424
648.042	0.0178877
648.120	0.0178043
648.198	0.0177341
648.276	0.0178924
648.354	0.0179607
648.433	0.0177709
648.511	0.0178757
648.589	0.0178947
648.667	0.0178162
648.745	0.0177016
648.823	0.0178001
648.901	0.0179415
648.979	0.0178572
649.058	0.0177399
649.136	0.0178462
649.214	0.0177227
649.292	0.0177599
649.370	0.0177860
649.448	0.0178372
649.526	0.0178078
649.604	0.0177252
649.683	0.0178021
649.761	0.0177431
649.839	0.0178120
649.917	0.0177259
649.995	0.0178783
650.073	0.0177261
650.151	0.0179094
650.229	0.0180370
650.308	0.0178672
650.386	0.0179408
650.464	0.0178699
650.542	0.0180000
650.620	0.0178341
650.698	0.0177861
650.776	0.0178006
650.854	0.0179228
650.933	0.0179612
651.011	0.0178712
651.089	0.0177670
651.167	0.0176989
651.245	0.0178735
651.323	0.0177760
651.401	0.0178023
651.479	0.0177737
651.558	0.0176343
651.636	0.0179092
651.714	0.0178828
651.792	0.0178594
651.870	0.0178608
651.948	0.0178838
652.026	0.0177513
652.104	0.0179001
652.183	0.0178822
652.261	0.0179191
652.339	0.0178711
652.417	0.0178981
652.495	0.0180227
652.573	0.0178820
652.651	0.0178983
652.729	0.0178573
652.808	0.0179128
652.886	0.0177475
652.964	0.0179261
653.042	0.0178246
653.120	0.0179501
653.198	0.0178857
653.276	0.0178138
653.354	0.0177637
653.433	0.0177415
653.511	0.0179078
653.589	0.0180320
653.667	0.0178413
653.745	0.0178629
653.823	0.0179201
653.901	0.0179084
653.979	0.0178586
654.058	0.0178535
654.136	0.0178741
654.214	0.0179149
654.292	0.0178757
654.370	0.0179094
654.448	0.0177760
654.526	0.0179273
654.604	0.0180054
654.683	0.0179634
654.761	0.0179039
654.839	0.0177499
654.917	0.0180569
654.995	0.0179982
655.073	0.0176820
655.151	0.0177994
655.229	0.0178549
655.308	0.0179178
655.386	0.0178251
655.464	0.0178304
655.542	0.0178536
655.620	0.0178700
655.698	0.0178311
655.776	0.0179449
655.854	0.0178895
655.933	0.0178725
656.011	0.0179203
656.089	0.0178860
656.167	0.0179426
656.245	0.0180488
656.323	0.0179642
656.401	0.0179673
656.479	0.0178015
656.558	0.0177239
656.636	0.0179629
656.714	0.0180769
656.792	0.0179375
656.870	0.0178722
656.948	0.0180625
657.026	0.0179404
657.104	0.0179663
657.183	0.0180482
657.261	0.0178745
657.339	0.0179346
657.417	0.0178616
657.495	0.0177753
657.573	0.0180231
657.651	0.0178214
657.729	0.0179096
657.808	0.0177431
657.886	0.0177856
657.964	0.0177918
658.042	0.0177997
658.120	0.0178440
658.198	0.0179361
658.276	0.0179051
658.354	0.0177990
658.433	0.0179447
658.511	0.0179064
658.589	0.0177398
658.667	0.0179324
658.745	0.0178179
658.823	0.0179250
658.901	0.0179898
658.979	0.0180293
659.058	0.0179626
659.136	0.0178126
659.214	0.0179426
659.292	0.0177874
659.370	0.0177966
659.448	0.0178046
659.526	0.0177417
659.604	0.0177731
659.683	0.0177155
659.761	0.0178354
659.839	0.0178192
659.917	0.0177666
659.995	0.0177331
660.073	0.0178875
660.151	0.0178336
660.229	0.0179709
660.308	0.0178899
660.386	0.0180296
660.464	0.0178176
660.542	0.0178815
660.620	0.0180267
660.698	0.0180576
660.776	0.0179958
660.854	0.0179577
660.933	0.0179450
661.011	0.0179288
661.089	0.0178552
661.167	0.0179221
661.245	0.0179258
661.323	0.0178788
661.401	0.0178104
661.479	0.0178699
661.558	0.0176838
661.636	0.0176686
661.714	0.0176048
661.792	0.0177489
661.870	0.0177396
661.948	0.0177950
662.026	0.0177341
662.104	0.0178292
662.183	0.0179275
662.261	0.0179193
662.339	0.0179745
662.417	0.0180025
662.495	0.0179219
662.573	0.0180993
662.651	0.0180982
662.729	0.0180721
662.808	0.0180706
662.886	0.0180858
662.964	0.0179981
663.042	0.0179018
663.120	0.0178974
663.198	0.0179471
663.276	0.0177090
663.354	0.0176931
663.433	0.0176086
663.511	0.0176601
663.589	0.0176302
663.667	0.0176598
663.745	0.0178075
663.823	0.0177699
663.901	0.0176838
663.979	0.0177908
664.058	0.0178120
664.136	0.0178817
664.214	0.0178109
664.292	0.0177992
664.370	0.0178259
664.448	0.0177929
664.526	0.0179060
664.604	0.0178128
664.683	0.0179261
664.761	0.0179209
664.839	0.0178551
664.917	0.0179469
664.995	0.0178501
665.073	0.0177596
665.151	0.0177314
665.229	0.0177663
665.308	0.0177491
665.386	0.0177749
665.464	0.0177811
665.542	0.0177793
665.620	0.0176180
665.698	0.0176635
665.776	0.0176701
665.854	0.0177252
665.933	0.0175598
666.011	0.0177247
666.089	0.0177042
666.167	0.0177126
666.245	0.0178689
666.323	0.0178783
666.401	0.0178305
666.479	0.0177499
666.558	0.0178227
666.636	0.0180354
666.714	0.0177917
666.792	0.0179700
666.870	0.0181407
666.948	0.0180633
667.026	0.0178666
667.104	0.0178150
667.183	0.0177934
667.261	0.0179909
667.339	0.0179292
667.417	0.0177660
667.495	0.0177381
667.573	0.0178302
667.651	0.0177602
667.729	0.0177160
667.808	0.0177187
667.886	0.0179026
667.964	0.0177956
668.042	0.0178404
668.120	0.0178908
668.198	0.0179029
668.276	0.0179898
668.354	0.0179643
668.433	0.0178754
668.511	0.0178925
668.589	0.0178732
668.667	0.0180437
668.745	0.0179019
668.823	0.0177979
668.901	0.0179882
668.979	0.0180270
669.058	0.0179166
669.136	0.0178780
669.214	0.0178448
669.292	0.0178912
669.370	0.0178707
669.448	0.0178794
669.526	0.0178314
669.604	0.0177212
669.683	0.0178217
669.761	0.0178222
669.839	0.0177765
669.917	0.0177160
669.995	0.0178870
670.073	0.0178408
670.151	0.0178092
670.229	0.0177869
670.308	0.0178040
670.386	0.0177914
670.464	0.0178123
670.542	0.0178587
670.620	0.0179391
670.698	0.0178625
670.776	0.0179734
670.854	0.0179022
670.933	0.0179700
671.011	0.0179907
671.089	0.0177039
671.167	0.0178149
671.245	0.0178546
671.323	0.0179515
671.401	0.0178593
671.479	0.0177683
671.558	0.0179218
671.636	0.0179694
671.714	0.0177706
671.792	0.0178653
671.870	0.0178779
671.948	0.0177962
672.026	0.0180534
672.104	0.0179617
672.183	0.0177608
672.261	0.0178812
672.339	0.0179305
672.417	0.0180463
672.495	0.0178972
672.573	0.0179656
672.651	0.0179263
672.729	0.0180378
672.808	0.0179269
672.886	0.0179909
672.964	0.0178444
673.042	0.0179522
673.120	0.0179060
673.198	0.0178435
673.276	0.0178597
673.354	0.0178561
673.433	0.0178658
673.511	0.0179349
673.589	0.0177691
673.667	0.0179342
673.745	0.0178315
673.823	0.0177911
673.901	0.0179696
673.979	0.0178853
674.058	0.0177058
674.136	0.0179597
674.214	0.0179188
674.292	0.0178410
674.370	0.0178262
674.448	0.0179424
674.526	0.0180099
674.604	0.0180689
674.683	0.0178752
674.761	0.0178932
674.839	0.0180010
674.917	0.0178963
674.995	0.0179691
675.073	0.0180028
675.151	0.0180473
675.229	0.0179081
675.308	0.0178801
675.386	0.0179330
675.464	0.0178345
675.542	0.0178850
675.620	0.0177748
675.698	0.0179535
675.776	0.0178921
675.854	0.0177460
675.933	0.0179250
676.011	0.0178561
676.089	0.0179651
676.167	0.0180069
676.245	0.0179730
676.323	0.0179727
676.401	0.0179769
676.479	0.0181321
676.558	0.0181643
676.636	0.0180695
676.714	0.0179418
676.792	0.0181419
676.870	0.0180209
676.948	0.0179092
677.026	0.0179124
677.104	0.0179530
677.183	0.0178664
677.261	0.0179559
677.339	0.0179643
677.417	0.0180099
677.495	0.0177872
677.573	0.0176921
677.651	0.0179072
677.729	0.0179334
677.808	0.0177396
677.886	0.0177347
677.964	0.0178879
678.042	0.0179436
678.120	0.0178043
678.198	0.0179147
678.276	0.0178730
678.354	0.0178764
678.433	0.0178255
678.511	0.0178062
678.589	0.0178185
678.667	0.0177871
678.745	0.0177765
678.823	0.0177640
678.901	0.0179630
678.979	0.0178386
679.058	0.0178672
679.136	0.0179066
679.214	0.0178493
679.292	0.0178365
679.370	0.0178796
679.448	0.0179095
679.526	0.0177316
679.604	0.0178630
679.683	0.0179170
679.761	0.0178668
679.839	0.0177245
679.917	0.0178399
679.995	0.0178912
680.073	0.0177953
680.151	0.0179799
680.229	0.0180328
680.308	0.0179357
680.386	0.0179147
680.464	0.0179668
680.542	0.0180022
680.620	0.0179452
680.698	0.0180284
680.776	0.0182814
680.854	0.0179172
680.933	0.0180424
681.011	0.0181489
681.089	0.0179228
681.167	0.0181135
681.245	0.0180379
681.323	0.0178647
681.401	0.0180292
681.479	0.0179803
681.558	0.0179181
681.636	0.0178536
681.714	0.0177216
681.792	0.0176805
681.870	0.0177456
681.948	0.0177033
682.026	0.0176228
682.104	0.0175468
682.183	0.0177296
682.261	0.0176620
682.339	0.0175946
682.417	0.0176336
682.495	0.0175853
682.573	0.0175489
682.651	0.0175397
682.729	0.0178194
682.808	0.0175962
682.886	0.0176454
682.964	0.0178205
683.042	0.0177167
683.120	0.0178553
683.198	0.0177374
683.276	0.0178534
683.354	0.0179957
683.433	0.0179071
683.511	0.0178477
683.589	0.0180097
683.667	0.0178869
683.745	0.0180298
683.823	0.0179813
683.901	0.0179181
683.979	0.0179713
684.058	0.0179703
684.136	0.0179446
684.214	0.0180198
684.292	0.0179733
684.370	0.0181059
684.448	0.0181398
684.526	0.0181424
684.604	0.0179462
684.683	0.0181204
684.761	0.0179375
684.839	0.0180910
684.917	0.0180146
684.995	0.0182561
685.073	0.0179976
685.151	0.0180203
685.229	0.0182893
685.308	0.0180804
685.386	0.0180235
685.464	0.0180416
685.542	0.0179636
685.620	0.0180550
685.698	0.0178616
685.776	0.0179530
685.854	0.0178003
685.933	0.0178059
686.011	0.0178445
686.089	0.0177649
686.167	0.0177262
686.245	0.0176197
686.323	0.0178356
686.401	0.0177467
686.479	0.0175989
686.558	0.0175900
686.636	0.0176193
686.714	0.0175516
686.792	0.0175780
686.870	0.0175016
686.948	0.0175459
687.026	0.0174995
687.104	0.0174830
687.183	0.0175822
687.261	0.0176967
687.339	0.0174841
687.417	0.0175851
687.495	0.0175967
687.573	0.0176563
687.651	0.0176678
687.729	0.0177576
687.808	0.0176396
687.886	0.0177240
687.964	0.0178082
688.042	0.0177612
688.120	0.0178740
688.198	0.0177850
688.276	0.0177623
688.354	0.0176800
688.433	0.0177242
688.511	0.0178245
688.589	0.0178473
688.667	0.0178607
688.745	0.0177594
688.823	0.0179022
688.901	0.0179658
688.979	0.0179668
689.058	0.0179668
689.136	0.0179910
689.214	0.0179623
689.292	0.0179949
689.370	0.0180798
689.448	0.0180716
689.526	0.0182481
689.604	0.0180268
689.683	0.0179983
689.761	0.0179478
689.839	0.0181110
689.917	0.0179619
689.995	0.0179359
690.073	0.0181873
690.151	0.0177766
690.229	0.0178487
690.308	0.0179673
690.386	0.0177935
690.464	0.0178594
690.542	0.0178728
690.620	0.0178574
690.698	0.0177031
690.776	0.0176954
690.854	0.0179229
690.933	0.0178213
691.011	0.0177660
691.089	0.0177959
691.167	0.0178630
691.245	0.0178111
691.323	0.0178800
691.401	0.0178619
691.479	0.0178830
691.558	0.0178383
691.636	0.0177139
691.714	0.0177540
691.792	0.0177810
691.870	0.0179102
691.948	0.0177982
692.026	0.0176788
692.104	0.0177709
692.183	0.0179069
692.261	0.0177952
692.339	0.0177895
692.417	0.0177082
692.495	0.0177494
692.573	0.0176983
692.651	0.0179334
692.729	0.0179244
692.808	0.0178041
692.886	0.0177705
692.964	0.0177294
693.042	0.0178975
693.120	0.0179006
693.198	0.0178180
693.276	0.0178188
693.354	0.0178098
693.433	0.0179440
693.511	0.0180089
693.589	0.0178262
693.667	0.0178770
693.745	0.0179272
693.823	0.0179159
693.901	0.0180128
693.979	0.0179591
694.058	0.0179597
694.136	0.0177968
694.214	0.0178309
694.292	0.0178658
694.370	0.0179808
694.448	0.0178200
694.526	0.0178895
694.604	0.0176662
694.683	0.0178062
694.761	0.0177687
694.839	0.0176151
694.917	0.0176492
694.995	0.0177192
695.073	0.0176649
695.151	0.0177937
695.229	0.0176945
695.308	0.0177965
695.386	0.0177636
695.464	0.0177624
695.542	0.0177778
695.620	0.0179435
695.698	0.0178441
695.776	0.0180939
695.854	0.0179474
695.933	0.0179270
696.011	0.0179690
696.089	0.0179980
696.167	0.0181146
696.245	0.0182052
696.323	0.0180402
696.401	0.0181093
696.479	0.0180676
696.558	0.0180613
696.636	0.0180933
696.714	0.0181095
696.792	0.0180165
696.870	0.0180023
696.948	0.0180984
697.026	0.0179836
697.104	0.0179929
697.183	0.0179836
697.261	0.0180348
697.339	0.0179961
697.417	0.0177460
697.495	0.0179037
697.573	0.0178268
697.651	0.0178318
697.729	0.0178877
697.808	0.0178561
697.886	0.0178315
697.964	0.0177349
698.042	0.0175977
698.120	0.0175886
698.198	0.0176362
698.276	0.0175792
698.354	0.0174976
698.433	0.0175719
698.511	0.0175818
698.589	0.0176285
698.667	0.0176936
698.745	0.0177132
698.823	0.0176891
698.901	0.0177009
698.979	0.0177149
699.058	0.0177695
699.136	0.0178607
699.214	0.0178777
699.292	0.0179234
699.370	0.0178468
699.448	0.0180331
699.526	0.0179691
699.604	0.0179755
699.683	0.0180378
699.761	0.0179833
699.839	0.0180044
699.917	0.0179049
699.995	0.0179436
700.073	0.0179478
700.151	0.0180412
700.229	0.0179215
700.308	0.0177982
700.386	0.0179865
700.464	0.0180812
700.542	0.0178751
700.620	0.0178226
700.698	0.0178045
700.776	0.0177462
700.854	0.0177965
700.933	0.0177585
701.011	0.0177419
701.089	0.0176347
701.167	0.0176634
701.245	0.0175526
701.323	0.0176407
701.401	0.0174792
701.479	0.0178448
701.558	0.0177905
701.636	0.0177486
701.714	0.0177856
701.792	0.0179033
701.870	0.0179156
701.948	0.0178959
702.026	0.0180596
702.104	0.0181495
702.183	0.0181097
702.261	0.0181620
702.339	0.0182089
702.417	0.0183459
702.495	0.0182024
702.573	0.0181834
702.651	0.0181994
702.729	0.0181473
702.808	0.0180260
702.886	0.0179572
702.964	0.0181116
703.042	0.0177600
703.120	0.0178000
703.198	0.0177403
703.276	0.0176122
703.354	0.0176958
703.433	0.0175406
703.511	0.0176155
703.589	0.0176775
703.667	0.0175896
703.745	0.0176374
703.823	0.0178522
703.901	0.0177514
703.979	0.0178953
704.058	0.0179865
704.136	0.0180726
704.214	0.0180410
704.292	0.0181272
704.370	0.0181673
704.448	0.0183515
704.526	0.0183502
704.604	0.0184914
704.683	0.0184647
704.761	0.0184759
704.839	0.0184367
704.917	0.0183847
704.995	0.0184441
705.073	0.0183432
705.151	0.0183654
705.229	0.0183023
705.308	0.0180245
705.386	0.0180124
705.464	0.0178737
705.542	0.0177354
705.620	0.0175217
705.698	0.0174874
705.776	0.0175031
705.854	0.0173856
705.933	0.0172385
706.011	0.0173361
706.089	0.0172981
706.167	0.0170547
706.245	0.0172296
706.323	0.0171062
706.401	0.0172553
706.479	0.0171980
706.558	0.0172063
706.636	0.0172795
706.714	0.0174868
706.792	0.0174408
706.870	0.0174522
706.948	0.0175593
707.026	0.0176231
707.104	0.0176583
707.183	0.0178079
707.261	0.0178024
707.339	0.0180936
707.417	0.0182181
707.495	0.0181922
707.573	0.0182809
707.651	0.0182751
707.729	0.0182952
707.808	0.0181989
707.886	0.0183564
707.964	0.0183060
708.042	0.0182138
708.120	0.0181110
708.198	0.0181286
708.276	0.0180756
708.354	0.0180174
708.433	0.0180170
708.511	0.0179211
708.589	0.0178394
708.667	0.0177570
708.745	0.0177264
708.823	0.0178393
708.901	0.0176076
708.979	0.0176482
709.058	0.0176280
709.136	0.0174710
709.214	0.0173458
709.292	0.0173634
709.370	0.0173122
709.448	0.0174577
709.526	0.0175212
709.604	0.0175575
709.683	0.0175452
709.761	0.0176259
709.839	0.0178420
709.917	0.0178439
709.995	0.0180112
710.073	0.0179678
710.151	0.0180938
710.229	0.0182064
710.308	0.0183900
710.386	0.0183695
710.464	0.0184936
710.542	0.0185265
710.620	0.0185259
710.698	0.0184637
710.776	0.0185028
710.854	0.0185569
710.933	0.0184074
711.011	0.0185314
711.089	0.0184428
711.167	0.0183755
711.245	0.0180862
711.323	0.0181092
711.401	0.0179915
711.479	0.0178276
711.558	0.0178435
711.636	0.0178812
711.714	0.0176973
711.792	0.0175844
711.870	0.0176020
711.948	0.0174657
712.026	0.0175995
712.104	0.0175180
712.183	0.0174522
712.261	0.0174562
712.339	0.0171709
712.417	0.0172716
712.495	0.0173744
712.573	0.0170963
712.651	0.0171792
712.729	0.0171976
712.808	0.0171699
712.886	0.0171047
712.964	0.0170068
713.042	0.0170423
713.120	0.0170294
713.198	0.0170195
713.276	0.0171619
713.354	0.0172590
713.433	0.0173001
713.511	0.0172926
713.589	0.0174904
713.667	0.0175659
713.745	0.0176697
713.823	0.0179162
713.901	0.0179610
713.979	0.0181200
714.058	0.0181807
714.136	0.0182198
714.214	0.0181564
714.292	0.0183257
714.370	0.0184097
714.448	0.0184181
714.526	0.0182709
714.604	0.0183012
714.683	0.0183882
714.761	0.0183948
714.839	0.0181963
714.917	0.0182729
714.995	0.0183704
715.073	0.0183790
715.151	0.0184189
715.229	0.0184122
715.308	0.0183813
715.386	0.0184108
715.464	0.0184834
715.542	0.0185122
715.620	0.0184707
715.698	0.0185038
715.776	0.0183671
715.854	0.0183870
715.933	0.0183907
716.011	0.0183673
716.089	0.0180919
716.167	0.0181030
716.245	0.0180854
716.323	0.0179189
716.401	0.0178610
716.479	0.0176459
716.558	0.0175353
716.636	0.0175489
716.714	0.0174241
716.792	0.0173500
716.870	0.0173075
716.948	0.0171561
717.026	0.0171990
717.104	0.0171661
717.183	0.0171938
717.261	0.0170028
717.339	0.0171365
717.417	0.0171523
717.495	0.0173463
717.573	0.0173742
717.651	0.0175495
717.729	0.0175051
717.808	0.0176063
717.886	0.0177596
717.964	0.0179000
718.042	0.0179860
718.120	0.0180270
718.198	0.0180466
718.276	0.0181305
718.354	0.0180654
718.433	0.0181144
718.511	0.0180966
718.589	0.0180740
718.667	0.0180801
718.745	0.0181940
718.823	0.0179440
718.901	0.0179842
718.979	0.0180260
719.058	0.0178324
719.136	0.0178419
719.214	0.0180183
719.292	0.0179224
719.370	0.0176775
719.448	0.0178182
719.526	0.0177662
719.604	0.0176941
719.683	0.0177676
719.761	0.0177641
719.839	0.0177476
719.917	0.0176838
719.995	0.0176877
720.073	0.0177876
720.151	0.0178508
720.229	0.0178368
720.308	0.0181103
720.386	0.0180610
720.464	0.0179684
720.542	0.0179182
720.620	0.0180334
720.698	0.0180231
720.776	0.0180453
720.854	0.0180540
720.933	0.0179452
721.011	0.0177786
721.089	0.0178129
721.167	0.0175581
721.245	0.0174301
721.323	0.0174628
721.401	0.0174467
721.479	0.0174224
721.558	0.0174167
721.636	0.0172924
721.714	0.0174337
721.792	0.0175269
721.870	0.0173151
721.948	0.0174005
722.026	0.0174206
722.104	0.0175421
722.183	0.0175594
722.261	0.0175135
722.339	0.0177676
722.417	0.0176782
722.495	0.0178328
722.573	0.0181244
722.651	0.0181381
722.729	0.0182288
722.808	0.0183410
722.886	0.0183978
722.964	0.0184790
723.042	0.0185806
723.120	0.0185693
723.198	0.0187682
723.276	0.0187603
723.354	0.0186877
723.433	0.0185151
723.511	0.0184505
723.589	0.0186372
723.667	0.0186088
723.745	0.0184072
723.823	0.0183642
723.901	0.0183856
723.979	0.0182413
724.058	0.0181371
724.136	0.0180231
724.214	0.0179342
724.292	0.0177549
724.370	0.0176037
724.448	0.0175508
724.526	0.0174498
724.604	0.0174519
724.683	0.0172804
724.761	0.0172871
724.839	0.0173661
724.917	0.0173797
724.995	0.0173672
725.073	0.0174712
725.151	0.0173656
725.229	0.0173601
725.308	0.0174940
725.386	0.0174022
725.464	0.0174763
725.542	0.0175923
725.620	0.0175307
725.698	0.0174972
725.776	0.0174397
725.854	0.0175203
725.933	0.0174160
726.011	0.0173904
726.089	0.0176226
726.167	0.0175251
726.245	0.0175546
726.323	0.0175525
726.401	0.0175085
726.479	0.0176815
726.558	0.0176982
726.636	0.0176608
726.714	0.0177124
726.792	0.0178022
726.870	0.0177994
726.948	0.0176070
727.026	0.0175648
727.104	0.0175810
727.183	0.0174635
727.261	0.0174995
727.339	0.0174495
727.417	0.0175554
727.495	0.0175717
727.573	0.0176750
727.651	0.0177358
727.729	0.0176711
727.808	0.0178754
727.886	0.0180216
727.964	0.0183340
728.042	0.0182775
728.120	0.0184538
728.198	0.0185223
728.276	0.0186800
728.354	0.0186885
728.433	0.0187336
728.511	0.0187280
728.589	0.0185635
728.667	0.0186157
728.745	0.0186002
728.823	0.0186433
728.901	0.0185040
728.979	0.0186343
729.058	0.0185091
729.136	0.0183775
729.214	0.0183669
729.292	0.0184544
729.370	0.0183037
729.448	0.0183248
729.526	0.0181738
729.604	0.0181949
729.683	0.0181741
729.761	0.0178570
729.839	0.0178793
729.917	0.0177281
729.995	0.0176116
730.073	0.0176213
730.151	0.0174625
730.229	0.0172901
730.308	0.0172467
730.386	0.0169717
730.464	0.0171310
730.542	0.0171627
730.620	0.0171635
730.698	0.0171312
730.776	0.0171609
730.854	0.0172700
730.933	0.0172787
731.011	0.0172655
731.089	0.0174832
731.167	0.0175845
731.245	0.0175881
731.323	0.0174352
731.401	0.0175251
731.479	0.0177192
731.558	0.0174916
731.636	0.0175852
731.714	0.0177680
731.792	0.0177995
731.870	0.0178304
731.948	0.0178353
732.026	0.0178875
732.104	0.0180792
732.183	0.0181182
732.261	0.0180589
732.339	0.0183335
732.417	0.0185307
732.495	0.0184734
732.573	0.0185018
732.651	0.0185857
732.729	0.0187425
732.808	0.0188654
732.886	0.0188574
732.964	0.0189005
733.042	0.0187909
733.120	0.0188101
733.198	0.0187811
733.276	0.0186134
733.354	0.0186174
733.433	0.0183768
733.511	0.0183045
733.589	0.0181309
733.667	0.0179431
733.745	0.0179710
733.823	0.0177601
733.901	0.0176720
733.979	0.0174902
734.058	0.0175533
734.136	0.0175565
734.214	0.0174057
734.292	0.0175587
734.370	0.0174488
734.448	0.0172484
734.526	0.0173477
734.604	0.0173228
734.683	0.0173617
734.761	0.0173152
734.839	0.0172974
734.917	0.0173962
734.995	0.0173622
735.073	0.0172895
735.151	0.0175478
735.229	0.0173988
735.308	0.0174397
735.386	0.0175774
735.464	0.0175639
735.542	0.0176644
735.620	0.0177127
735.698	0.0175691
735.776	0.0177552
735.854	0.0177901
735.933	0.0177721
736.011	0.0178924
736.089	0.0180432
736.167	0.0181714
736.245	0.0181810
736.323	0.0183765
736.401	0.0184622
736.479	0.0183852
736.558	0.0186517
736.636	0.0186475
736.714	0.0186588
736.792	0.0187106
736.870	0.0188203
736.948	0.0186119
737.026	0.0186325
737.104	0.0185851
737.183	0.0184851
737.261	0.0185334
737.339	0.0182967
737.417	0.0182941
737.495	0.0182605
737.573	0.0182350
737.651	0.0181587
737.729	0.0181439
737.808	0.0182283
737.886	0.0181137
737.964	0.0180619
738.042	0.0181271
738.120	0.0179986
738.198	0.0180081
738.276	0.0178013
738.354	0.0176650
738.433	0.0176959
738.511	0.0175986
738.589	0.0174942
738.667	0.0175674
738.745	0.0177274
738.823	0.0175901
738.901	0.0174411
738.979	0.0175658
739.058	0.0175594
739.136	0.0176690
739.214	0.0175651
739.292	0.0177307
739.370	0.0175756
739.448	0.0177108
739.526	0.0177858
739.604	0.0177004
739.683	0.0176685
739.761	0.0176784
739.839	0.0176267
739.917	0.0175340
739.995	0.0176637
740.073	0.0174878
740.151	0.0174897
740.229	0.0173703
740.308	0.0174364
740.386	0.0172917
740.464	0.0173193
740.542	0.0174641
740.620	0.0173092
740.698	0.0172816
740.776	0.0173504
740.854	0.0174762
740.933	0.0174583
741.011	0.0175521
741.089	0.0174230
741.167	0.0175998
741.245	0.0175513
741.323	0.0174867
741.401	0.0177051
741.479	0.0176504
741.558	0.0177612
741.636	0.0178037
741.714	0.0179862
741.792	0.0180012
741.870	0.0179476
741.948	0.0179258
742.026	0.0181462
742.104	0.0181940
742.183	0.0181490
742.261	0.0182154
742.339	0.0183662
742.417	0.0183942
742.495	0.0184162
742.573	0.0184493
742.651	0.0184105
742.729	0.0184458
742.808	0.0184708
742.886	0.0183585
742.964	0.0184554
743.042	0.0183635
743.120	0.0183330
743.198	0.0182475
743.276	0.0183525
743.354	0.0183244
743.433	0.0183194
743.511	0.0182381
743.589	0.0182546
743.667	0.0182781
743.745	0.0181180
743.823	0.0180464
743.901	0.0180143
743.979	0.0178356
744.058	0.0179129
744.136	0.0177479
744.214	0.0176836
744.292	0.0176916
744.370	0.0176308
744.448	0.0176155
744.526	0.0175994
744.604	0.0174521
744.683	0.0175925
744.761	0.0174006
744.839	0.0175163
744.917	0.0175050
744.995	0.0173833
745.073	0.0172615
745.151	0.0173193
745.229	0.0172504
745.308	0.0174356
745.386	0.0172889
745.464	0.0170438
745.542	0.0171531
745.620	0.0172237
745.698	0.0171348
745.776	0.0171712
745.854	0.0172260
745.933	0.0173681
746.011	0.0173490
746.089	0.0173114
746.167	0.0175214
746.245	0.0176305
746.323	0.0177378
746.401	0.0177149
746.479	0.0178168
746.558	0.0179309
746.636	0.0181070
746.714	0.0181921
746.792	0.0182006
746.870	0.0182941
746.948	0.0182119
747.026	0.0182646
747.104	0.0181558
747.183	0.0183006
747.261	0.0182762
747.339	0.0183126
747.417	0.0182668
747.495	0.0182378
747.573	0.0182556
747.651	0.0183085
747.729	0.0184564
747.808	0.0183919
747.886	0.0183191
747.964	0.0183916
748.042	0.0181873
748.120	0.0182265
748.198	0.0182652
748.276	0.0182963
748.354	0.0181707
748.433	0.0181701
748.511	0.0181016
748.589	0.0180616
748.667	0.0179556
748.745	0.0179359
748.823	0.0179562
748.901	0.0178516
748.979	0.0177341
749.058	0.0178072
749.136	0.0176163
749.214	0.0176743
749.292	0.0175922
749.370	0.0175832
749.448	0.0177088
749.526	0.0176615
749.604	0.0177156
749.683	0.0175971
749.761	0.0176455
749.839	0.0176988
749.917	0.0176504
749.995	0.0175613
750.073	0.0175084
750.151	0.0176800
750.229	0.0177165
750.308	0.0175861
750.386	0.0176474
750.464	0.0177528
750.542	0.0177535
750.620	0.0177654
750.698	0.0177496
750.776	0.0178178
750.854	0.0177989
750.933	0.0177738
751.011	0.0177547
751.089	0.0178726
751.167	0.0177982
751.245	0.0177433
751.323	0.0176631
751.401	0.0177205
751.479	0.0178821
751.558	0.0179440
751.636	0.0178225
751.714	0.0178471
751.792	0.0178101
751.870	0.0179621
751.948	0.0180746
752.026	0.0178909
752.104	0.0179388
752.183	0.0181493
752.261	0.0179528
752.339	0.0180075
752.417	0.0181148
752.495	0.0182464
752.573	0.0181184
752.651	0.0181528
752.729	0.0180531
752.808	0.0181313
752.886	0.0181762
752.964	0.0182057
753.042	0.0180913
753.120	0.0180237
753.198	0.0180238
753.276	0.0181540
753.354	0.0180697
753.433	0.0181564
753.511	0.0181348
753.589	0.0179752
753.667	0.0179626
753.745	0.0180077
753.823	0.0179950
753.901	0.0180446
753.979	0.0179446
754.058	0.0179602
754.136	0.0178695
754.214	0.0177677
754.292	0.0178187
754.370	0.0176729
754.448	0.0176671
754.526	0.0176984
754.604	0.0174639
754.683	0.0175179
754.761	0.0176923
754.839	0.0174707
754.917	0.0173528
754.995	0.0175687
755.073	0.0176230
755.151	0.0175758
755.229	0.0177126
755.308	0.0177344
755.386	0.0176828
755.464	0.0177609
755.542	0.0177863
755.620	0.0178209
755.698	0.0177689
755.776	0.0180046
755.854	0.0178879
755.933	0.0178439
756.011	0.0178426
756.089	0.0177949
756.167	0.0179752
756.245	0.0178967
756.323	0.0179108
756.401	0.0180196
756.479	0.0179094
756.558	0.0180779
756.636	0.0180668
756.714	0.0180900
756.792	0.0181666
756.870	0.0180298
756.948	0.0182880
757.026	0.0181931
757.104	0.0181091
757.183	0.0179488
757.261	0.0180991
757.339	0.0182228
757.417	0.0180272
757.495	0.0179774
757.573	0.0181181
757.651	0.0180450
757.729	0.0180540
757.808	0.0180602
757.886	0.0179846
757.964	0.0181989
758.042	0.0180789
758.120	0.0180347
758.198	0.0180526
758.276	0.0181432
758.354	0.0181280
758.433	0.0181404
758.511	0.0180519
758.589	0.0179777
758.667	0.0180040
758.745	0.0179044
758.823	0.0179343
758.901	0.0177940
758.979	0.0179593
759.058	0.0178362
759.136	0.0177539
759.214	0.0177761
759.292	0.0177545
759.370	0.0175995
759.448	0.0175799
759.526	0.0176929
759.604	0.0176202
759.683	0.0176937
759.761	0.0175710
759.839	0.0176070
759.917	0.0176107
759.995	0.0177780
760.073	0.0176910
760.151	0.0174626
760.229	0.0175298
760.308	0.0177850
760.386	0.0176157
760.464	0.0175695
760.542	0.0175382
760.620	0.0175204
760.698	0.0176682
760.776	0.0174945
760.854	0.0174593
760.933	0.0174125
761.011	0.0174764
761.089	0.0176325
761.167	0.0176138
761.245	0.0175345
761.323	0.0176963
761.401	0.0177331
761.479	0.0175802
761.558	0.0178053
761.636	0.0176598
761.714	0.0178750
761.792	0.0178363
761.870	0.0179950
761.948	0.0179823
762.026	0.0179556
762.104	0.0178831
762.183	0.0180042
762.261	0.0181127
762.339	0.0179690
762.417	0.0180258
762.495	0.0180556
762.573	0.0180826
762.651	0.0182500
762.729	0.0181538
762.808	0.0181264
762.886	0.0181974
762.964	0.0182229
763.042	0.0181593
763.120	0.0182204
763.198	0.0182569
763.276	0.0181332
763.354	0.0181326
763.433	0.0182158
763.511	0.0182846
763.589	0.0181828
763.667	0.0182670
763.745	0.0181950
763.823	0.0182353
763.901	0.0181515
763.979	0.0180851
764.058	0.0180772
764.136	0.0181750
764.214	0.0180624
764.292	0.0180470
764.370	0.0180332
764.448	0.0179159
764.526	0.0178773
764.604	0.0180127
764.683	0.0178400
764.761	0.0178060
764.839	0.0176227
764.917	0.0177106
764.995	0.0177027
765.073	0.0176664
765.151	0.0177155
765.229	0.0175085
765.308	0.0175413
765.386	0.0174208
765.464	0.0176358
765.542	0.0175215
765.620	0.0172672
765.698	0.0173850
765.776	0.0174565
765.854	0.0173331
765.933	0.0174084
766.011	0.0174135
766.089	0.0174666
766.167	0.0173862
766.245	0.0174534
766.323	0.0174186
766.401	0.0174260
766.479	0.0175565
766.558	0.0175362
766.636	0.0176347
766.714	0.0176060
766.792	0.0176183
766.870	0.0177631
766.948	0.0176840
767.026	0.0177616
767.104	0.0177119
767.183	0.0176421
767.261	0.0176563
767.339	0.0176760
767.417	0.0177728
767.495	0.0177236
767.573	0.0178365
767.651	0.0177465
767.729	0.0178976
767.808	0.0177715
767.886	0.0178727
767.964	0.0179253
768.042	0.0180015
768.120	0.0180035
768.198	0.0179470
768.276	0.0180293
768.354	0.0180783
768.433	0.0179555
768.511	0.0181229
768.589	0.0180203
768.667	0.0180398
768.745	0.0180714
768.823	0.0180968
768.901	0.0181424
768.979	0.0180145
769.058	0.0180507
769.136	0.0180116
769.214	0.0179745
769.292	0.0179537
769.370	0.0179627
769.448	0.0178669
769.526	0.0178585
769.604	0.0178306
769.683	0.0178516
769.761	0.0179821
769.839	0.0178895
769.917	0.0178820
769.995	0.0177536
770.073	0.0179076
770.151	0.0179199
770.229	0.0178835
770.308	0.0178963
770.386	0.0179565
770.464	0.0177590
770.542	0.0177487
770.620	0.0178850
770.698	0.0179809
770.776	0.0179450
770.854	0.0179189
770.933	0.0178928
771.011	0.0178276
771.089	0.0179166
771.167	0.0178951
771.245	0.0177074
771.323	0.0177200
771.401	0.0177330
771.479	0.0177983
771.558	0.0178724
771.636	0.0179616
771.714	0.0178631
771.792	0.0178349
771.870	0.0177260
771.948	0.0176339
772.026	0.0176279
772.104	0.0176794
772.183	0.0178143
772.261	0.0176994
772.339	0.0176942
772.417	0.0178329
772.495	0.0178629
772.573	0.0177728
772.651	0.0177785
772.729	0.0178945
772.808	0.0176861
772.886	0.0177378
772.964	0.0178034
773.042	0.0177497
773.120	0.0178661
773.198	0.0177634
773.276	0.0177621
773.354	0.0177894
773.433	0.0178421
773.511	0.0178677
773.589	0.0177963
773.667	0.0179579
773.745	0.0177786
773.823	0.0178220
773.901	0.0179891
773.979	0.0178535
774.058	0.0178368
774.136	0.0178028
774.214	0.0177124
774.292	0.0178202
774.370	0.0178112
774.448	0.0177081
774.526	0.0178019
774.604	0.0178236
774.683	0.0177997
774.761	0.0178732
774.839	0.0179301
774.917	0.0179092
774.995	0.0179243
775.073	0.0178080
775.151	0.0178719
775.229	0.0178107
775.308	0.0180468
775.386	0.0179910
775.464	0.0179810
775.542	0.0180107
775.620	0.0180194
775.698	0.0180770
775.776	0.0180538
775.854	0.0180003
775.933	0.0180244
776.011	0.0180936
776.089	0.0180486
776.167	0.0180599
776.245	0.0180447
776.323	0.0179665
776.401	0.0181150
776.479	0.0178954
776.558	0.0179935
776.636	0.0178465
776.714	0.0179478
776.792	0.0177117
776.870	0.0179704
776.948	0.0178352
777.026	0.0178694
777.104	0.0177968
777.183	0.0177637
777.261	0.0176731
777.339	0.0177563
777.417	0.0176810
777.495	0.0175738
777.573	0.0177841
777.651	0.0177315
777.729	0.0176872
777.808	0.0177496
777.886	0.0177552
777.964	0.0178857
778.042	0.0179298
778.120	0.0178657
778.198	0.0180930
778.276	0.0180811
778.354	0.0180435
778.433	0.0179671
778.511	0.0180464
778.589	0.0182598
778.667	0.0182217
778.745	0.0181418
778.823	0.0181467
778.901	0.0181378
778.979	0.0180506
779.058	0.0180629
779.136	0.0180574
779.214	0.0178312
779.292	0.0178761
779.370	0.0178512
779.448	0.0176062
779.526	0.0178110
779.604	0.0178152
779.683	0.0177839
779.761	0.0177492
779.839	0.0177168
779.917	0.0177184
779.995	0.0177649
780.073	0.0178974
780.151	0.0178709
780.229	0.0179214
780.308	0.0178345
780.386	0.0178717
780.464	0.0179070
780.542	0.0178552
780.620	0.0179736
780.698	0.0179359
780.776	0.0177966
780.854	0.0178416
780.933	0.0178081
781.011	0.0177968
781.089	0.0177950
781.167	0.0177354
781.245	0.0177105
781.323	0.0177018
781.401	0.0176749
781.479	0.0177884
781.558	0.0176889
781.636	0.0177289
781.714	0.0177589
781.792	0.0177911
781.870	0.0177687
781.948	0.0177904
782.026	0.0178534
782.104	0.0180106
782.183	0.0179671
782.261	0.0179139
782.339	0.0179198
782.417	0.0178794
782.495	0.0179350
782.573	0.0180085
782.651	0.0178957
782.729	0.0177457
782.808	0.0179219
782.886	0.0179034
782.964	0.0179273
783.042	0.0178897
783.120	0.0178419
783.198	0.0177941
783.276	0.0179778
783.354	0.0177821
783.433	0.0176227
783.511	0.0178800
783.589	0.0179577
783.667	0.0178836
783.745	0.0178018
783.823	0.0178367
783.901	0.0178436
783.979	0.0177657
784.058	0.0179861
784.136	0.0179150
784.214	0.0178854
784.292	0.0178689
784.370	0.0179495
784.448	0.0178916
784.526	0.0179028
784.604	0.0178996
784.683	0.0180187
784.761	0.0178995
784.839	0.0179343
784.917	0.0178621
784.995	0.0179361
785.073	0.0177998
785.151	0.0179749
785.229	0.0178465
785.308	0.0178520
785.386	0.0177839
785.464	0.0179485
785.542	0.0179379
785.620	0.0179694
785.698	0.0178823
785.776	0.0179177
785.854	0.0178106
785.933	0.0179287
786.011	0.0179671
786.089	0.0178697
786.167	0.0178577
786.245	0.0179068
786.323	0.0177615
786.401	0.0177976
786.479	0.0179639
786.558	0.0179446
786.636	0.0179638
786.714	0.0177968
786.792	0.0179711
786.870	0.0178446
786.948	0.0178047
787.026	0.0176579
787.104	0.0178222
787.183	0.0177921
787.261	0.0177013
787.339	0.0177020
787.417	0.0176685
787.495	0.0175761
787.573	0.0176053
787.651	0.0174780
787.729	0.0175932
787.808	0.0175616
787.886	0.0174791
787.964	0.0176196
788.042	0.0176360
788.120	0.0176176
788.198	0.0175896
788.276	0.0176278
788.354	0.0177358
788.433	0.0177423
788.511	0.0177668
788.589	0.0178812
788.667	0.0179379
788.745	0.0181184
788.823	0.0178802
788.901	0.0179459
788.979	0.0180089
789.058	0.0179754
789.136	0.0178880
789.214	0.0179444
789.292	0.0179230
789.370	0.0179732
789.448	0.0179290
789.526	0.0177609
789.604	0.0178162
789.683	0.0177695
789.761	0.0177714
789.839	0.0176962
789.917	0.0177216
789.995	0.0176728
790.073	0.0177259
790.151	0.0177930
790.229	0.0177141
790.308	0.0177383
790.386	0.0176750
790.464	0.0176572
790.542	0.0176904
790.620	0.0175858
790.698	0.0178580
790.776	0.0178578
790.854	0.0177425
790.933	0.0177790
791.011	0.0177894
791.089	0.0179516
791.167	0.0177197
791.245	0.0177225
791.323	0.0178524
791.401	0.0178265
791.479	0.0178761
791.558	0.0177824
791.636	0.0179828
791.714	0.0179554
791.792	0.0180640
791.870	0.0179915
791.948	0.0178423
792.026	0.0179800
792.104	0.0180141
792.183	0.0179162
792.261	0.0179128
792.339	0.0179411
792.417	0.0180141
792.495	0.0180409
792.573	0.0181013
792.651	0.0179823
792.729	0.0179147
792.808	0.0177844
792.886	0.0180128
792.964	0.0179031
793.042	0.0177348
793.120	0.0178988
793.198	0.0176764
793.276	0.0176159
793.354	0.0175811
793.433	0.0175863
793.511	0.0175251
793.589	0.0177534
793.667	0.0174961
793.745	0.0175671
793.823	0.0176958
793.901	0.0175336
793.979	0.0175662
794.058	0.0175883
794.136	0.0175171
794.214	0.0176897
794.292	0.0176694
794.370	0.0174692
794.448	0.0178067
794.526	0.0177415
794.604	0.0176867
794.683	0.0178926
794.761	0.0177721
794.839	0.0178909
794.917	0.0179771
794.995	0.0179498
795.073	0.0179002
795.151	0.0179541
795.229	0.0178739
795.308	0.0178841
795.386	0.0179232
795.464	0.0179745
795.542	0.0179342
795.620	0.0179147
795.698	0.0178953
795.776	0.0179208
795.854	0.0180573
795.933	0.0179923
796.011	0.0178783
796.089	0.0179085
796.167	0.0179453
796.245	0.0178062
796.323	0.0178697
796.401	0.0177619
796.479	0.0179273
796.558	0.0178924
796.636	0.0178448
796.714	0.0179415
796.792	0.0178011
796.870	0.0178215
796.948	0.0178457
797.026	0.0179681
797.104	0.0180666
797.183	0.0178392
797.261	0.0177402
797.339	0.0179234
797.417	0.0179526
797.495	0.0178564
797.573	0.0178938
797.651	0.0181012
797.729	0.0179626
797.808	0.0179839
797.886	0.0180285
797.964	0.0181538
798.042	0.0179758
798.120	0.0179971
798.198	0.0180524
798.276	0.0180475
798.354	0.0180634
798.433	0.0181055
798.511	0.0180753
798.589	0.0180840
798.667	0.0182575
798.745	0.0181151
798.823	0.0181789
798.901	0.0179768
798.979	0.0182380
799.058	0.0181324
799.136	0.0180734
799.214	0.0180632
799.292	0.0179229
799.370	0.0177489
799.448	0.0179044
799.526	0.0177920
799.604	0.0177973
799.683	0.0176213
799.761	0.0176205
799.839	0.0175707
799.917	0.0174665
799.995	0.0175028
800.073	0.0174839
800.151	0.0175487
800.229	0.0176142
800.308	0.0176000
800.386	0.0175983
800.464	0.0175974
800.542	0.0176891
800.620	0.0176826
800.698	0.0176378
800.776	0.0178214
800.854	0.0178381
800.933	0.0178671
801.011	0.0179402
801.089	0.0179588
801.167	0.0178429
801.245	0.0178798
801.323	0.0180154
801.401	0.0180155
801.479	0.0178022
801.558	0.0178924
801.636	0.0179781
801.714	0.0178068
801.792	0.0177972
801.870	0.0179718
801.948	0.0179288
802.026	0.0178954
802.104	0.0179098
802.183	0.0178414
802.261	0.0179062
802.339	0.0179212
802.417	0.0179974
802.495	0.0179773
802.573	0.0179819
802.651	0.0178788
802.729	0.0180225
802.808	0.0181609
802.886	0.0179710
802.964	0.0179408
803.042	0.0180402
803.120	0.0179807
803.198	0.0178012
803.276	0.0180074
803.354	0.0179083
803.433	0.0179873
803.511	0.0179432
803.589	0.0178679
803.667	0.0180219
803.745	0.0180728
803.823	0.0179802
803.901	0.0179329
803.979	0.0177467
804.058	0.0178632
804.136	0.0180271
804.214	0.0179514
804.292	0.0178828
804.370	0.0179609
804.448	0.0179913
804.526	0.0180174
804.604	0.0179300
804.683	0.0179124
804.761	0.0179532
804.839	0.0179212
804.917	0.0178249
804.995	0.0180071
805.073	0.0178689
805.151	0.0180192
805.229	0.0177182
805.308	0.0178190
805.386	0.0179041
805.464	0.0177953
805.542	0.0177776
805.620	0.0178455
805.698	0.0177722
805.776	0.0176770
805.854	0.0177354
805.933	0.0178552
806.011	0.0177838
806.089	0.0178325
806.167	0.0177036
806.245	0.0178442
806.323	0.0177138
806.401	0.0177555
806.479	0.0178858
806.558	0.0177203
806.636	0.0176707
806.714	0.0178421
806.792	0.0177447
806.870	0.0177357
806.948	0.0178498
807.026	0.0177222
807.104	0.0179089
807.183	0.0178734
807.261	0.0177969
807.339	0.0178341
807.417	0.0176956
807.495	0.0176566
807.573	0.0177625
807.651	0.0177949
807.729	0.0176787
807.808	0.0176789
807.886	0.0177126
807.964	0.0175978
808.042	0.0176461
808.120	0.0176062
808.198	0.0176187
808.276	0.0176268
808.354	0.0177080
808.433	0.0176620
808.511	0.0175838
808.589	0.0176708
808.667	0.0177225
808.745	0.0178679
808.823	0.0177807
808.901	0.0178536
808.979	0.0178665
809.058	0.0177591
809.136	0.0177913
809.214	0.0178321
809.292	0.0178860
809.370	0.0178510
809.448	0.0179654
809.526	0.0179234
809.604	0.0178320
809.683	0.0179139
809.761	0.0180448
809.839	0.0178524
809.917	0.0179052
809.995	0.0178549
810.073	0.0178212
810.151	0.0177628
810.229	0.0179746
810.308	0.0178814
810.386	0.0177766
810.464	0.0177617
810.542	0.0177103
810.620	0.0179100
810.698	0.0179135
810.776	0.0178255
810.854	0.0178851
810.933	0.0179690
811.011	0.0178631
811.089	0.0177724
811.167	0.0178451
811.245	0.0177851
811.323	0.0178318
811.401	0.0178778
811.479	0.0177918
811.558	0.0179832
811.636	0.0179089
811.714	0.0178277
811.792	0.0179231
811.870	0.0179359
811.948	0.0178709
812.026	0.0179623
812.104	0.0179027
812.183	0.0177742
812.261	0.0178983
812.339	0.0179110
812.417	0.0178970
812.495	0.0178576
812.573	0.0177847
812.651	0.0177395
812.729	0.0179196
812.808	0.0177306
812.886	0.0177054
812.964	0.0177804
813.042	0.0177672
813.120	0.0177505
813.198	0.0177827
813.276	0.0177495
813.354	0.0175518
813.433	0.0177475
813.511	0.0177943
813.589	0.0178056
813.667	0.0177444
813.745	0.0177052
813.823	0.0175778
813.901	0.0178008
813.979	0.0176501
814.058	0.0175415
814.136	0.0176559
814.214	0.0176156
814.292	0.0175706
814.370	0.0175073
814.448	0.0176760
814.526	0.0176140
814.604	0.0176618
814.683	0.0177191
814.761	0.0175839
814.839	0.0176144
814.917	0.0177993
814.995	0.0175931
815.073	0.0177322
815.151	0.0178406
815.229	0.0179484
815.308	0.0178960
815.386	0.0178929
815.464	0.0181374
815.542	0.0179998
815.620	0.0179301
815.698	0.0180468
815.776	0.0179752
815.854	0.0180956
815.933	0.0181136
816.011	0.0180650
816.089	0.0179632
816.167	0.0181028
816.245	0.0179881
816.323	0.0179442
816.401	0.0179259
816.479	0.0178312
816.558	0.0179755
816.636	0.0176678
816.714	0.0178275
816.792	0.0178224
816.870	0.0177691
816.948	0.0177564
817.026	0.0176352
817.104	0.0178217
817.183	0.0176887
817.261	0.0176288
817.339	0.0176863
817.417	0.0176620
817.495	0.0176015
817.573	0.0178365
817.651	0.0177723
817.729	0.0175758
817.808	0.0177484
817.886	0.0178043
817.964	0.0177229
818.042	0.0177292
818.120	0.0178025
818.198	0.0177493
818.276	0.0177303
818.354	0.0178522
818.433	0.0177289
818.511	0.0177735
818.589	0.0178286
818.667	0.0178628
818.745	0.0178874
818.823	0.0178389
818.901	0.0177923
818.979	0.0178899
819.058	0.0179435
819.136	0.0178707
819.214	0.0178419
819.292	0.0180749
819.370	0.0179839
819.448	0.0178064
819.526	0.0178970
819.604	0.0179852
819.683	0.0179019
819.761	0.0180197
819.839	0.0179785
819.917	0.0179504
819.995	0.0178898
820.073	0.0178020
820.151	0.0179023
820.229	0.0179237
820.308	0.0178692
820.386	0.0177311
820.464	0.0178179
820.542	0.0177635
820.620	0.0178336
820.698	0.0177408
820.776	0.0178201
820.854	0.0177165
820.933	0.0176930
821.011	0.0175728
821.089	0.0177913
821.167	0.0177604
821.245	0.0175701
821.323	0.0176470
821.401	0.0177036
821.479	0.0177525
821.558	0.0176021
821.636	0.0177649
821.714	0.0177623
821.792	0.0177534
821.870	0.0177113
821.948	0.0178700
822.026	0.0178572
822.104	0.0177955
822.183	0.0179377
822.261	0.0178809
822.339	0.0180135
822.417	0.0180554
822.495	0.0181227
822.573	0.0180547
822.651	0.0181238
822.729	0.0182487
822.808	0.0181480
822.886	0.0181647
822.964	0.0180282
823.042	0.0181618
823.120	0.0181187
823.198	0.0180999
823.276	0.0180815
823.354	0.0179121
823.433	0.0178505
823.511	0.0179785
823.589	0.0179702
823.667	0.0179073
823.745	0.0179320
823.823	0.0178072
823.901	0.0177622
823.979	0.0178496
824.058	0.0177296
824.136	0.0175725
824.214	0.0177345
824.292	0.0179037
824.370	0.0177951
824.448	0.0178243
824.526	0.0178944
824.604	0.0177785
824.683	0.0178864
824.761	0.0177949
824.839	0.0177971
824.917	0.0179028
824.995	0.0179185
825.073	0.0177499
825.151	0.0178779
825.229	0.0178197
825.308	0.0177792
825.386	0.0179337
825.464	0.0178523
825.542	0.0178858
825.620	0.0178819
825.698	0.0178644
825.776	0.0180365
825.854	0.0180315
825.933	0.0181244
826.011	0.0180105
826.089	0.0179773
826.167	0.0180682
826.245	0.0179877
826.323	0.0180546
826.401	0.0181996
826.479	0.0180573
826.558	0.0179504
826.636	0.0179724
826.714	0.0181490
826.792	0.0180246
826.870	0.0177273
826.948	0.0178544
827.026	0.0177977
827.104	0.0179726
827.183	0.0177787
827.261	0.0178023
827.339	0.0177097
827.417	0.0176003
827.495	0.0175974
827.573	0.0176312
827.651	0.0175848
827.729	0.0176112
827.808	0.0176009
827.886	0.0176000
827.964	0.0175311
828.042	0.0177297
828.120	0.0177950
828.198	0.0177289
828.276	0.0178052
828.354	0.0178389
828.433	0.0177879
828.511	0.0178915
828.589	0.0179837
828.667	0.0180864
828.745	0.0179345
828.823	0.0181770
828.901	0.0180578
828.979	0.0181363
829.058	0.0182351
829.136	0.0182100
829.214	0.0181671
829.292	0.0181985
829.370	0.0182191
829.448	0.0183065
829.526	0.0181071
829.604	0.0181944
829.683	0.0182101
829.761	0.0179790
829.839	0.0180940
829.917	0.0180313
829.995	0.0181357
830.073	0.0180144
830.151	0.0179411
830.229	0.0179849
830.308	0.0179969
830.386	0.0178175
830.464	0.0178771
830.542	0.0179516
830.620	0.0180155
830.698	0.0179822
830.776	0.0180298
830.854	0.0178840
830.933	0.0178719
831.011	0.0179530
831.089	0.0178077
831.167	0.0179630
831.245	0.0179388
831.323	0.0178564
831.401	0.0177968
831.479	0.0178939
831.558	0.0177515
831.636	0.0177517
831.714	0.0179002
831.792	0.0177020
831.870	0.0178621
831.948	0.0177632
832.026	0.0176915
832.104	0.0177541
832.183	0.0177517
832.261	0.0177611
832.339	0.0178284
832.417	0.0179205
832.495	0.0179101
832.573	0.0177499
832.651	0.0177991
832.729	0.0180546
832.808	0.0180384
832.886	0.0179623
832.964	0.0180655
833.042	0.0179660
833.120	0.0179877
833.198	0.0180298
833.276	0.0180415
833.354	0.0180737
833.433	0.0179646
833.511	0.0180000
833.589	0.0179245
833.667	0.0180640
833.745	0.0178791
833.823	0.0177061
833.901	0.0179353
833.979	0.0179588
834.058	0.0179147
834.136	0.0178911
834.214	0.0177832
834.292	0.0177335
834.370	0.0178027
834.448	0.0178669
834.526	0.0177633
834.604	0.0176820
834.683	0.0178072
834.761	0.0177953
834.839	0.0177824
834.917	0.0177419
834.995	0.0177826
835.073	0.0178225
835.151	0.0178455
835.229	0.0178263
835.308	0.0179038
835.386	0.0178570
835.464	0.0178795
835.542	0.0178533
835.620	0.0178361
835.698	0.0178989
835.776	0.0178556
835.854	0.0178914
835.933	0.0180430
836.011	0.0178763
836.089	0.0180424
836.167	0.0178821
836.245	0.0179029
836.323	0.0179736
836.401	0.0179385
836.479	0.0180208
836.558	0.0178830
836.636	0.0180144
836.714	0.0178754
836.792	0.0178381
836.870	0.0179179
836.948	0.0178512
837.026	0.0177528
837.104	0.0178188
837.183	0.0177956
837.261	0.0177909
837.339	0.0177521
837.417	0.0177730
837.495	0.0177906
837.573	0.0178445
837.651	0.0178581
837.729	0.0178201
837.808	0.0179330
837.886	0.0176859
837.964	0.0179189
838.042	0.0179919
838.120	0.0179075
838.198	0.0178561
838.276	0.0177752
838.354	0.0176713
838.433	0.0177190
838.511	0.0178335
838.589	0.0178838
838.667	0.0179597
838.745	0.0177760
838.823	0.0178394
838.901	0.0179487
838.979	0.0177828
839.058	0.0178106
839.136	0.0179586
839.214	0.0179914
839.292	0.0178442
839.370	0.0179642
839.448	0.0178710
839.526	0.0181157
839.604	0.0181096
839.683	0.0181050
839.761	0.0181122
839.839	0.0179095
839.917	0.0180738
839.995	0.0179729
840.073	0.0180444
840.151	0.0180792
840.229	0.0180075
840.308	0.0180277
840.386	0.0177259
840.464	0.0179122
840.542	0.0181129
840.620	0.0178183
840.698	0.0178536
840.776	0.0178624
840.854	0.0176507
840.933	0.0177567
841.011	0.0176616
841.089	0.0176971
841.167	0.0176213
841.245	0.0175986
841.323	0.0174763
841.401	0.0176267
841.479	0.0175595
841.558	0.0176490
841.636	0.0176614
841.714	0.0176453
841.792	0.0177529
841.870	0.0176922
841.948	0.0177326
842.026	0.0175653
842.104	0.0176984
842.183	0.0178220
842.261	0.0178326
842.339	0.0177065
842.417	0.0176517
842.495	0.0178723
842.573	0.0176668
842.651	0.0177827
842.729	0.0179078
842.808	0.0179315
842.886	0.0177562
842.964	0.0178448
843.042	0.0177278
843.120	0.0178679
843.198	0.0179572
843.276	0.0179572
843.354	0.0179807
843.433	0.0178377
843.511	0.0179539
843.589	0.0180505
843.667	0.0180026
843.745	0.0179684
843.823	0.0179443
843.901	0.0179979
843.979	0.0180040
844.058	0.0180670
844.136	0.0178256
844.214	0.0178306
844.292	0.0178478
844.370	0.0178169
844.448	0.0178934
844.526	0.0179902
844.604	0.0179240
844.683	0.0177567
844.761	0.0177028
844.839	0.0177916
844.917	0.0177149
844.995	0.0177636
845.073	0.0176449
845.151	0.0178592
845.229	0.0178616
845.308	0.0178056
845.386	0.0176611
845.464	0.0177039
845.542	0.0177928
845.620	0.0178618
845.698	0.0179000
845.776	0.0179938
845.854	0.0177974
845.933	0.0178488
846.011	0.0179179
846.089	0.0177740
846.167	0.0178253
846.245	0.0179444
846.323	0.0178328
846.401	0.0179400
846.479	0.0179779
846.558	0.0180162
846.636	0.0177967
846.714	0.0179387
846.792	0.0178940
846.870	0.0180993
846.948	0.0178491
847.026	0.0179231
847.104	0.0179660
847.183	0.0179259
847.261	0.0177497
847.339	0.0177182
847.417	0.0178950
847.495	0.0178505
847.573	0.0178415
847.651	0.0177364
847.729	0.0178473
847.808	0.0177863
847.886	0.0178319
847.964	0.0178881
848.042	0.0178837
848.120	0.0179138
848.198	0.0179646
848.276	0.0179648
848.354	0.0179412
848.433	0.0178294
848.511	0.0177751
848.589	0.0178426
848.667	0.0178323
848.745	0.0177830
848.823	0.0178924
848.901	0.0179050
848.979	0.0177862
849.058	0.0179003
849.136	0.0180173
849.214	0.0179559
849.292	0.0178963
849.370	0.0179729
849.448	0.0180402
849.526	0.0179707
849.604	0.0178503
849.683	0.0179477
849.761	0.0179805
849.839	0.0179790
849.917	0.0180136
849.995	0.0180226
850.073	0.0180509
850.151	0.0180270
850.229	0.0180585
850.308	0.0178750
850.386	0.0179797
850.464	0.0179329
850.542	0.0179089
850.620	0.0179899
850.698	0.0180203
850.776	0.0180118
850.854	0.0178869
850.933	0.0179042
851.011	0.0179543
851.089	0.0179120
851.167	0.0178980
851.245	0.0178972
851.323	0.0177470
851.401	0.0178201
851.479	0.0177844
851.558	0.0177898
851.636	0.0179140
851.714	0.0178552
851.792	0.0177673
851.870	0.0178277
851.948	0.0179686
852.026	0.0178725
852.104	0.0176908
852.183	0.0177621
852.261	0.0178026
852.339	0.0177641
852.417	0.0177656
852.495	0.0177770
852.573	0.0178103
852.651	0.0178139
852.729	0.0178561
852.808	0.0178143
852.886	0.0178662
852.964	0.0179900
853.042	0.0178680
853.120	0.0179148
853.198	0.0182359
853.276	0.0180276
853.354	0.0180802
853.433	0.0180990
853.511	0.0180433
853.589	0.0180956
853.667	0.0180997
853.745	0.0180456
853.823	0.0181394
853.901	0.0180132
853.979	0.0179994
854.058	0.0179786
854.136	0.0179855
854.214	0.0179411
854.292	0.0178091
854.370	0.0178304
854.448	0.0179605
854.526	0.0179257
854.604	0.0180029
854.683	0.0178495
854.761	0.0179778
854.839	0.0178356
854.917	0.0178111
854.995	0.0179245
855.073	0.0179609
855.151	0.0178386
855.229	0.0178775
855.308	0.0178894
855.386	0.0179286
855.464	0.0178074
855.542	0.0178776
855.620	0.0178042
855.698	0.0177852
855.776	0.0176960
855.854	0.0177383
855.933	0.0178719
856.011	0.0178735
856.089	0.0177359
856.167	0.0178126
856.245	0.0177587
856.323	0.0178266
856.401	0.0177986
856.479	0.0178889
856.558	0.0178287
856.636	0.0178838
856.714	0.0178291
856.792	0.0179493
856.870	0.0179819
856.948	0.0178548
857.026	0.0178208
857.104	0.0179073
857.183	0.0177673
857.261	0.0176881
857.339	0.0180142
857.417	0.0178184
857.495	0.0178110
857.573	0.0178682
857.651	0.0179307
857.729	0.0178362
857.808	0.0177935
857.886	0.0178396
857.964	0.0179069
858.042	0.0178448
858.120	0.0178253
858.198	0.0178874
858.276	0.0178088
858.354	0.0178606
858.433	0.0178372
858.511	0.0179613
858.589	0.0178511
858.667	0.0178590
858.745	0.0179543
858.823	0.0180160
858.901	0.0179128
858.979	0.0177833
859.058	0.0178374
859.136	0.0179145
859.214	0.0178891
859.292	0.0180173
859.370	0.0179550
859.448	0.0179219
859.526	0.0178916
859.604	0.0178901
859.683	0.0180016
859.761	0.0178432
859.839	0.0178791
859.917	0.0179099
859.995	0.0179066
860.073	0.0179250
860.151	0.0179990
860.229	0.0177985
860.308	0.0179953
860.386	0.0179035
860.464	0.0178921
860.542	0.0178700
860.620	0.0178222
860.698	0.0180901
860.776	0.0178268
860.854	0.0179558
860.933	0.0179191
861.011	0.0179893
861.089	0.0179274
861.167	0.0180009
861.245	0.0180441
861.323	0.0180549
861.401	0.0179090
861.479	0.0180008
861.558	0.0180402
861.636	0.0179583
861.714	0.0179310
861.792	0.0179388
861.870	0.0180087
861.948	0.0178627
862.026	0.0178571
862.104	0.0179607
862.183	0.0180121
862.261	0.0179337
862.339	0.0178130
862.417	0.0178093
862.495	0.0179556
862.573	0.0178455
862.651	0.0177193
862.729	0.0178868
862.808	0.0178055
862.886	0.0177372
862.964	0.0177023
863.042	0.0178261
863.120	0.0177336
863.198	0.0179063
863.276	0.0178771
863.354	0.0177276
863.433	0.0177676
863.511	0.0177813
863.589	0.0179578
863.667	0.0179028
863.745	0.0179081
863.823	0.0178062
863.901	0.0177924
863.979	0.0179032
864.058	0.0178571
864.136	0.0178075
864.214	0.0177907
864.292	0.0178165
864.370	0.0178021
864.448	0.0177520
864.526	0.0179044
864.604	0.0178796
864.683	0.0178743
864.761	0.0179697
864.839	0.0177920
864.917	0.0178949
864.995	0.0179857
865.073	0.0178828
865.151	0.0178910
865.229	0.0178801
865.308	0.0178139
865.386	0.0177764
865.464	0.0179395
865.542	0.0180158
865.620	0.0176892
865.698	0.0176387
865.776	0.0178466
865.854	0.0177746
865.933	0.0177847
866.011	0.0178277
866.089	0.0177489
866.167	0.0177749
866.245	0.0178501
866.323	0.0179252
866.401	0.0178734
866.479	0.0178749
866.558	0.0179440
866.636	0.0179356
866.714	0.0179639
866.792	0.0179475
866.870	0.0178549
866.948	0.0177811
867.026	0.0178896
867.104	0.0178539
867.183	0.0178180
867.261	0.0178278
867.339	0.0177802
867.417	0.0177766
867.495	0.0178833
867.573	0.0178561
867.651	0.0177738
867.729	0.0177164
867.808	0.0177537
867.886	0.0179137
867.964	0.0177560
868.042	0.0178030
868.120	0.0177869
868.198	0.0178320
868.276	0.0178960
868.354	0.0178196
868.433	0.0177770
868.511	0.0178288
868.589	0.0178524
868.667	0.0177296
868.745	0.0176705
868.823	0.0177329
868.901	0.0176366
868.979	0.0176310
869.058	0.0175771
869.136	0.0176400
869.214	0.0175365
869.292	0.0176853
869.370	0.0177039
869.448	0.0177915
869.526	0.0176190
869.604	0.0176797
869.683	0.0177637
869.761	0.0175779
869.839	0.0177818
869.917	0.0177425
869.995	0.0176405
870.073	0.0177225
870.151	0.0177501
870.229	0.0177216
870.308	0.0178252
870.386	0.0177535
870.464	0.0175739
870.542	0.0178320
870.620	0.0177197
870.698	0.0177406
870.776	0.0178133
870.854	0.0178544
870.933	0.0177155
871.011	0.0177222
871.089	0.0178168
871.167	0.0178710
871.245	0.0178339
871.323	0.0179357
871.401	0.0178984
871.479	0.0178161
871.558	0.0179218
871.636	0.0180213
871.714	0.0178508
871.792	0.0179412
871.870	0.0179723
871.948	0.0178995
872.026	0.0179201
872.104	0.0178943
872.183	0.0179388
872.261	0.0179128
872.339	0.0178692
872.417	0.0177603
872.495	0.0176842
872.573	0.0178112
872.651	0.0177098
872.729	0.0177332
872.808	0.0178197
872.886	0.0177444
872.964	0.0178333
873.042	0.0178055
873.120	0.0178801
873.198	0.0177318
873.276	0.0178348
873.354	0.0176691
873.433	0.0177773
873.511	0.0178272
873.589	0.0176289
873.667	0.0177097
873.745	0.0177448
873.823	0.0177303
873.901	0.0177457
873.979	0.0177779
874.058	0.0178612
874.136	0.0178629
874.214	0.0178911
874.292	0.0178856
874.370	0.0177988
874.448	0.0178972
874.526	0.0178755
874.604	0.0178893
874.683	0.0179134
874.761	0.0178759
874.839	0.0178758
874.917	0.0180521
874.995	0.0179868
875.073	0.0178696
875.151	0.0179454
875.229	0.0180067
875.308	0.0180257
875.386	0.0178507
875.464	0.0180077
875.542	0.0179312
875.620	0.0179891
875.698	0.0177932
875.776	0.0177578
875.854	0.0179438
875.933	0.0178784
876.011	0.0177168
876.089	0.0177921
876.167	0.0178998
876.245	0.0177855
876.323	0.0178628
876.401	0.0178412
876.479	0.0179724
876.558	0.0180083
876.636	0.0179897
876.714	0.0179589
876.792	0.0179026
876.870	0.0179448
876.948	0.0179518
877.026	0.0179309
877.104	0.0179570
877.183	0.0178660
877.261	0.0178455
877.339	0.0179171
877.417	0.0177223
877.495	0.0177959
877.573	0.0179057
877.651	0.0178371
877.729	0.0177966
877.808	0.0178499
877.886	0.0178896
877.964	0.0177957
878.042	0.0178909
878.120	0.0179053
878.198	0.0180075
878.276	0.0178127
878.354	0.0179406
878.433	0.0180237
878.511	0.0180233
878.589	0.0180221
878.667	0.0180424
878.745	0.0179482
878.823	0.0179636
878.901	0.0180206
878.979	0.0178463
879.058	0.0178983
879.136	0.0178653
879.214	0.0179236
879.292	0.0179333
879.370	0.0179291
879.448	0.0178912
879.526	0.0179600
879.604	0.0179745
879.683	0.0180082
879.761	0.0179525
879.839	0.0180225
879.917	0.0179446
879.995	0.0178584
880.073	0.0180149
880.151	0.0179749
880.229	0.0179505
880.308	0.0179499
880.386	0.0180051
880.464	0.0178506
880.542	0.0179807
880.620	0.0179391
880.698	0.0179724
880.776	0.0179177
880.854	0.0179490
880.933	0.0179774
881.011	0.0179235
881.089	0.0180169
881.167	0.0178516
881.245	0.0179777
881.323	0.0179993
881.401	0.0178902
881.479	0.0180656
881.558	0.0179812
881.636	0.0179395
881.714	0.0180239
881.792	0.0180444
881.870	0.0179433
881.948	0.0178947
882.026	0.0179883
882.104	0.0179278
882.183	0.0179587
882.261	0.0180086
882.339	0.0180323
882.417	0.0180292
882.495	0.0179977
882.573	0.0180058
882.651	0.0179171
882.729	0.0178575
882.808	0.0179825
882.886	0.0179926
882.964	0.0179752
883.042	0.0179649
883.120	0.0180750
883.198	0.0178937
883.276	0.0179025
883.354	0.0177598
883.433	0.0179499
883.511	0.0178430
883.589	0.0177882
883.667	0.0178017
883.745	0.0179382
883.823	0.0178413
883.901	0.0178069
883.979	0.0176714
884.058	0.0178498
884.136	0.0177159
884.214	0.0176246
884.292	0.0176688
884.370	0.0176265
884.448	0.0177214
884.526	0.0177666
884.604	0.0177820
884.683	0.0178685
884.761	0.0176920
884.839	0.0177114
884.917	0.0178648
884.995	0.0178205
885.073	0.0177735
885.151	0.0178152
885.229	0.0178447
885.308	0.0178844
885.386	0.0177957
885.464	0.0179057
885.542	0.0178130
885.620	0.0178642
885.698	0.0179205
885.776	0.0178313
885.854	0.0178703
885.933	0.0179485
886.011	0.0178490
886.089	0.0179558
886.167	0.0178889
886.245	0.0178020
886.323	0.0179241
886.401	0.0178262
886.479	0.0178966
886.558	0.0178362
886.636	0.0179276
886.714	0.0179279
886.792	0.0179124
886.870	0.0179912
886.948	0.0179230
887.026	0.0178231
887.104	0.0179372
887.183	0.0178277
887.261	0.0177858
887.339	0.0178314
887.417	0.0177470
887.495	0.0177338
887.573	0.0178972
887.651	0.0177962
887.729	0.0179620
887.808	0.0178979
887.886	0.0179414
887.964	0.0178748
888.042	0.0177843
888.120	0.0177914
888.198	0.0179288
888.276	0.0178482
888.354	0.0177715
888.433	0.0179670
888.511	0.0178392
888.589	0.0180075
888.667	0.0179193
888.745	0.0179926
888.823	0.0180691
888.901	0.0178639
888.979	0.0179589
889.058	0.0178783
889.136	0.0179132
889.214	0.0179363
889.292	0.0178006
889.370	0.0178384
889.448	0.0178831
889.526	0.0178429
889.604	0.0178533
889.683	0.0179115
889.761	0.0178545
889.839	0.0177599
889.917	0.0177427
889.995	0.0178747
890.073	0.0179448
890.151	0.0177828
890.229	0.0178893
890.308	0.0176873
890.386	0.0177583
890.464	0.0179018
890.542	0.0178199
890.620	0.0177566
890.698	0.0176882
890.776	0.0177052
890.854	0.0177055
890.933	0.0176807
891.011	0.0178767
891.089	0.0177298
891.167	0.0177278
891.245	0.0178778
891.323	0.0177344
891.401	0.0176310
891.479	0.0179309
891.558	0.0178432
891.636	0.0178826
891.714	0.0178358
891.792	0.0178131
891.870	0.0178441
891.948	0.0178042
892.026	0.0178255
892.104	0.0178931
892.183	0.0178413
892.261	0.0178767
892.339	0.0178955
892.417	0.0178407
892.495	0.0178678
892.573	0.0178175
892.651	0.0178041
892.729	0.0178166
892.808	0.0179139
892.886	0.0178605
892.964	0.0177513
893.042	0.0178476
893.120	0.0178462
893.198	0.0177667
893.276	0.0177322
893.354	0.0177792
893.433	0.0177370
893.511	0.0177900
893.589	0.0178620
893.667	0.0177193
893.745	0.0176846
893.823	0.0176910
893.901	0.0175731
893.979	0.0176595
894.058	0.0177401
894.136	0.0177828
894.214	0.0177891
894.292	0.0178413
894.370	0.0177691
894.448	0.0178142
894.526	0.0177705
894.604	0.0178274
894.683	0.0178162
894.761	0.0176840
894.839	0.0177950
894.917	0.0179108
894.995	0.0178222
895.073	0.0178467
895.151	0.0179368
895.229	0.0177973
895.308	0.0179356
895.386	0.0179204
895.464	0.0178992
895.542	0.0178530
895.620	0.0179738
895.698	0.0180340
895.776	0.0180302
895.854	0.0180127
895.933	0.0179863
896.011	0.0179010
896.089	0.0181142
896.167	0.0181133
896.245	0.0179179
896.323	0.0180812
896.401	0.0180999
896.479	0.0180339
896.558	0.0180356
896.636	0.0181291
896.714	0.0179414
896.792	0.0179105
896.870	0.0179122
896.948	0.0178127
897.026	0.0179600
897.104	0.0178973
897.183	0.0178297
897.261	0.0177098
897.339	0.0177314
897.417	0.0177364
897.495	0.0178181
897.573	0.0177586
897.651	0.0175996
897.729	0.0176298
897.808	0.0176093
897.886	0.0176483
897.964	0.0175932
898.042	0.0176460
898.120	0.0175142
898.198	0.0175686
898.276	0.0177933
898.354	0.0177743
898.433	0.0177976
898.511	0.0178012
898.589	0.0177682
898.667	0.0178213
898.745	0.0179130
898.823	0.0178198
898.901	0.0178673
898.979	0.0178967
899.058	0.0179040
899.136	0.0180892
899.214	0.0180514
899.292	0.0179755
899.370	0.0180814
899.448	0.0179551
899.526	0.0179348
899.604	0.0179751
899.683	0.0180657
899.761	0.0179245
899.839	0.0180624
899.917	0.0179958
899.995	0.0178564
900.073	0.0180049
900.151	0.0179382
900.229	0.0179246
900.308	0.0178687
900.386	0.0179491
900.464	0.0178853
900.542	0.0177912
900.620	0.0175833
900.698	0.0177802
900.776	0.0177325
900.854	0.0177248
900.933	0.0176695
901.011	0.0177453
901.089	0.0177251
901.167	0.0178584
901.245	0.0177814
901.323	0.0178796
901.401	0.0178001
901.479	0.0179186
901.558	0.0178258
901.636	0.0179179
901.714	0.0179288
901.792	0.0178374
901.870	0.0178568
901.948	0.0179374
902.026	0.0181379
902.104	0.0178664
902.183	0.0179621
902.261	0.0180271
902.339	0.0180629
902.417	0.0181009
902.495	0.0179631
902.573	0.0179948
902.651	0.0180287
902.729	0.0179295
902.808	0.0180615
902.886	0.0179695
902.964	0.0180001
903.042	0.0178649
903.120	0.0179068
903.198	0.0180305
903.276	0.0178619
903.354	0.0178168
903.433	0.0178716
903.511	0.0178071
903.589	0.0177070
903.667	0.0178902
903.745	0.0178162
903.823	0.0177969
903.901	0.0178163
903.979	0.0176838
904.058	0.0177917
904.136	0.0177454
904.214	0.0178047
904.292	0.0176412
904.370	0.0177516
904.448	0.0177233
904.526	0.0177530
904.604	0.0178199
904.683	0.0176689
904.761	0.0176884
904.839	0.0178497
904.917	0.0177543
904.995	0.0177290
905.073	0.0178868
905.151	0.0178017
905.229	0.0177791
905.308	0.0177008
905.386	0.0178946
905.464	0.0178968
905.542	0.0179104
905.620	0.0178787
905.698	0.0179073
905.776	0.0178720
905.854	0.0178933
905.933	0.0179273
906.011	0.0179448
906.089	0.0179574
906.167	0.0178577
906.245	0.0178912
906.323	0.0178922
906.401	0.0179181
906.479	0.0179369
906.558	0.0180105
906.636	0.0178815
906.714	0.0179410
906.792	0.0179285
906.870	0.0180649
906.948	0.0179560
907.026	0.0178808
907.104	0.0178042
907.183	0.0179301
907.261	0.0179575
907.339	0.0179053
907.417	0.0178205
907.495	0.0179028
907.573	0.0176792
907.651	0.0177662
907.729	0.0179291
907.808	0.0178662
907.886	0.0178705
907.964	0.0178801
908.042	0.0179018
908.120	0.0178898
908.198	0.0178240
908.276	0.0178362
908.354	0.0179051
908.433	0.0178985
908.511	0.0179288
908.589	0.0178217
908.667	0.0178136
908.745	0.0179437
908.823	0.0179280
908.901	0.0178733
908.979	0.0179299
909.058	0.0180930
909.136	0.0180163
909.214	0.0179893
909.292	0.0179658
909.370	0.0178393
909.448	0.0180708
909.526	0.0181129
909.604	0.0179076
909.683	0.0180396
909.761	0.0181175
909.839	0.0178977
909.917	0.0179290
909.995	0.0178586
910.073	0.0180172
910.151	0.0180132
910.229	0.0177562
910.308	0.0178829
910.386	0.0180244
910.464	0.0178752
910.542	0.0178960
910.620	0.0179466
910.698	0.0178860
910.776	0.0178441
910.854	0.0178609
910.933	0.0178545
911.011	0.0178193
911.089	0.0178028
911.167	0.0178233
911.245	0.0177737
911.323	0.0177328
911.401	0.0178610
911.479	0.0178572
911.558	0.0178102
911.636	0.0178173
911.714	0.0176637
911.792	0.0175972
911.870	0.0179659
911.948	0.0178410
912.026	0.0177979
912.104	0.0177739
912.183	0.0179431
912.261	0.0178400
912.339	0.0178866
912.417	0.0179706
912.495	0.0177502
912.573	0.0178454
912.651	0.0178236
912.729	0.0178087
912.808	0.0178767
912.886	0.0178450
912.964	0.0177998
913.042	0.0178841
913.120	0.0177429
913.198	0.0177616
913.276	0.0178613
913.354	0.0177418
913.433	0.0178428
913.511	0.0178107
913.589	0.0179154
913.667	0.0178271
913.745	0.0178470
913.823	0.0176722
913.901	0.0178525
913.979	0.0179006
914.058	0.0179629
914.136	0.0178043
914.214	0.0178691
914.292	0.0179907
914.370	0.0177683
914.448	0.0179266
914.526	0.0179112
914.604	0.0179206
914.683	0.0180029
914.761	0.0179060
914.839	0.0178461
914.917	0.0179228
914.995	0.0180019
915.073	0.0179623
915.151	0.0177914
915.229	0.0178585
915.308	0.0179688
915.386	0.0178040
915.464	0.0179621
915.542	0.0179272
915.620	0.0179763
915.698	0.0178470
915.776	0.0180460
915.854	0.0178786
915.933	0.0179733
916.011	0.0178767
916.089	0.0178395
916.167	0.0180154
916.245	0.0179648
916.323	0.0179050
916.401	0.0178831
916.479	0.0178682
916.558	0.0178585
916.636	0.0179234
916.714	0.0178008
916.792	0.0178809
916.870	0.0178684
916.948	0.0178503
917.026	0.0179453
917.104	0.0178867
917.183	0.0177549
917.261	0.0178681
917.339	0.0178841
917.417	0.0178916
917.495	0.0179128
917.573	0.0179610
917.651	0.0179026
917.729	0.0178106
917.808	0.0177700
917.886	0.0178093
917.964	0.0178645
918.042	0.0176801
918.120	0.0179420
918.198	0.0177444
918.276	0.0177834
918.354	0.0178674
918.433	0.0177700
918.511	0.0178709
918.589	0.0179515
918.667	0.0178563
918.745	0.0179369
918.823	0.0179317
918.901	0.0178656
918.979	0.0178968
919.058	0.0179572
919.136	0.0179181
919.214	0.0178730
919.292	0.0178207
919.370	0.0178662
919.448	0.0179139
919.526	0.0179944
919.604	0.0180114
919.683	0.0177773
919.761	0.0179833
919.839	0.0181092
919.917	0.0178283
