06/03/2022	18:25:29	Ver.	4.1	UNKNOWN
Optical Delay	599.995081	Delta X		0.078125	Sweeps	1	Scan Rate	0/0
Coordinates	Axis 1	NaN	Axis 2	NaN	Axis 3	NaN	Axis 4	NaN	Axis 5	NaN	Axis 6	0.000000
TX Power	0.000000	RX Power	0.000000

599.995	0.0180952
600.073	0.0180432
600.151	0.0179340
600.229	0.0180231
600.308	0.0181000
600.386	0.0180602
600.464	0.0180799
600.542	0.0180508
600.620	0.0179531
600.698	0.0179673
600.776	0.0181068
600.854	0.0181110
600.933	0.0180204
601.011	0.0180920
601.089	0.0180459
601.167	0.0180299
601.245	0.0179717
601.323	0.0180868
601.401	0.0180276
601.479	0.0181179
601.558	0.0178892
601.636	0.0179232
601.714	0.0181391
601.792	0.0180364
601.870	0.0180175
601.948	0.0179852
602.026	0.0181822
602.104	0.0179747
602.183	0.0180486
602.261	0.0181246
602.339	0.0180091
602.417	0.0180318
602.495	0.0180024
602.573	0.0179542
602.651	0.0179518
602.729	0.0178977
602.808	0.0180782
602.886	0.0180078
602.964	0.0180818
603.042	0.0180636
603.120	0.0179482
603.198	0.0181210
603.276	0.0181023
603.354	0.0179021
603.433	0.0179350
603.511	0.0180717
603.589	0.0180738
603.667	0.0181316
603.745	0.0180969
603.823	0.0180105
603.901	0.0178938
603.979	0.0181113
604.058	0.0180693
604.136	0.0181013
604.214	0.0181326
604.292	0.0179633
604.370	0.0180806
604.448	0.0180669
604.526	0.0180511
604.604	0.0180867
604.683	0.0180244
604.761	0.0180434
604.839	0.0180016
604.917	0.0179037
604.995	0.0179505
605.073	0.0181017
605.151	0.0181171
605.229	0.0179662
605.308	0.0179755
605.386	0.0179912
605.464	0.0181440
605.542	0.0180458
605.620	0.0179295
605.698	0.0180919
605.776	0.0181429
605.854	0.0181750
605.933	0.0180456
606.011	0.0180813
606.089	0.0180480
606.167	0.0180189
606.245	0.0180347
606.323	0.0180379
606.401	0.0180530
606.479	0.0180147
606.558	0.0180789
606.636	0.0179477
606.714	0.0179617
606.792	0.0179279
606.870	0.0178987
606.948	0.0180579
607.026	0.0181038
607.104	0.0180997
607.183	0.0179807
607.261	0.0179337
607.339	0.0180614
607.417	0.0180088
607.495	0.0180894
607.573	0.0180685
607.651	0.0180354
607.729	0.0182001
607.808	0.0180726
607.886	0.0179400
607.964	0.0179646
608.042	0.0180148
608.120	0.0180905
608.198	0.0179719
608.276	0.0180633
608.354	0.0180353
608.433	0.0180796
608.511	0.0182327
608.589	0.0181094
608.667	0.0179831
608.745	0.0180148
608.823	0.0179696
608.901	0.0179403
608.979	0.0181253
609.058	0.0179419
609.136	0.0181774
609.214	0.0180947
609.292	0.0180340
609.370	0.0179685
609.448	0.0179754
609.526	0.0180132
609.604	0.0179488
609.683	0.0181476
609.761	0.0180103
609.839	0.0180920
609.917	0.0179818
609.995	0.0180936
610.073	0.0181847
610.151	0.0181901
610.229	0.0180448
610.308	0.0180208
610.386	0.0180556
610.464	0.0181420
610.542	0.0180614
610.620	0.0181504
610.698	0.0180994
610.776	0.0180614
610.854	0.0180708
610.933	0.0180417
611.011	0.0181520
611.089	0.0180009
611.167	0.0180447
611.245	0.0181917
611.323	0.0182090
611.401	0.0181699
611.479	0.0180965
611.558	0.0180161
611.636	0.0180790
611.714	0.0180575
611.792	0.0181178
611.870	0.0180405
611.948	0.0180885
612.026	0.0181471
612.104	0.0179910
612.183	0.0180666
612.261	0.0179582
612.339	0.0181277
612.417	0.0181850
612.495	0.0181677
612.573	0.0181491
612.651	0.0180537
612.729	0.0179404
612.808	0.0180807
612.886	0.0181702
612.964	0.0182014
613.042	0.0181990
613.120	0.0180326
613.198	0.0181001
613.276	0.0181979
613.354	0.0180856
613.433	0.0180663
613.511	0.0180710
613.589	0.0181955
613.667	0.0181662
613.745	0.0180339
613.823	0.0181210
613.901	0.0181757
613.979	0.0180408
614.058	0.0181960
614.136	0.0181890
614.214	0.0181844
614.292	0.0180507
614.370	0.0181990
614.448	0.0182158
614.526	0.0181789
614.604	0.0181581
614.683	0.0180731
614.761	0.0181803
614.839	0.0180975
614.917	0.0181255
614.995	0.0180787
615.073	0.0180282
615.151	0.0180278
615.229	0.0181267
615.308	0.0180658
615.386	0.0180724
615.464	0.0181712
615.542	0.0181606
615.620	0.0181351
615.698	0.0181444
615.776	0.0181025
615.854	0.0179872
615.933	0.0180838
616.011	0.0180882
616.089	0.0180441
616.167	0.0180747
616.245	0.0180756
616.323	0.0180585
616.401	0.0181493
616.479	0.0180945
616.558	0.0179462
616.636	0.0181093
616.714	0.0180464
616.792	0.0179839
616.870	0.0180271
616.948	0.0180746
617.026	0.0180241
617.104	0.0181340
617.183	0.0181516
617.261	0.0180634
617.339	0.0180206
617.417	0.0181437
617.495	0.0181269
617.573	0.0180937
617.651	0.0182085
617.729	0.0180710
617.808	0.0179723
617.886	0.0180429
617.964	0.0181148
618.042	0.0180155
618.120	0.0180956
618.198	0.0180786
618.276	0.0181270
618.354	0.0180517
618.433	0.0181170
618.511	0.0181534
618.589	0.0180455
618.667	0.0180444
618.745	0.0181592
618.823	0.0181558
618.901	0.0181788
618.979	0.0180105
619.058	0.0181921
619.136	0.0180374
619.214	0.0180249
619.292	0.0181908
619.370	0.0181464
619.448	0.0181960
619.526	0.0182680
619.604	0.0181283
619.683	0.0181171
619.761	0.0179943
619.839	0.0180201
619.917	0.0182043
619.995	0.0182404
620.073	0.0181922
620.151	0.0180569
620.229	0.0180851
620.308	0.0181555
620.386	0.0180685
620.464	0.0180116
620.542	0.0180556
620.620	0.0181055
620.698	0.0181461
620.776	0.0180415
620.854	0.0180772
620.933	0.0181406
621.011	0.0180899
621.089	0.0181778
621.167	0.0181214
621.245	0.0179914
621.323	0.0180923
621.401	0.0181551
621.479	0.0180427
621.558	0.0181054
621.636	0.0181131
621.714	0.0181003
621.792	0.0182076
621.870	0.0179829
621.948	0.0181277
622.026	0.0182111
622.104	0.0181848
622.183	0.0181485
622.261	0.0180190
622.339	0.0180369
622.417	0.0179602
622.495	0.0179749
622.573	0.0180504
622.651	0.0180068
622.729	0.0180350
622.808	0.0180503
622.886	0.0181149
622.964	0.0179349
623.042	0.0180893
623.120	0.0178749
623.198	0.0179784
623.276	0.0179940
623.354	0.0180682
623.433	0.0179321
623.511	0.0179933
623.589	0.0180013
623.667	0.0179160
623.745	0.0179837
623.823	0.0180420
623.901	0.0179927
623.979	0.0180112
624.058	0.0179566
624.136	0.0179891
624.214	0.0181442
624.292	0.0179606
624.370	0.0178756
624.448	0.0179458
624.526	0.0179661
624.604	0.0180423
624.683	0.0179852
624.761	0.0180260
624.839	0.0180011
624.917	0.0180067
624.995	0.0179194
625.073	0.0179602
625.151	0.0180904
625.229	0.0179900
625.308	0.0181878
625.386	0.0180444
625.464	0.0180260
625.542	0.0179801
625.620	0.0180881
625.698	0.0180538
625.776	0.0179258
625.854	0.0179093
625.933	0.0179821
626.011	0.0182069
626.089	0.0181394
626.167	0.0180183
626.245	0.0181312
626.323	0.0179394
626.401	0.0179834
626.479	0.0179899
626.558	0.0179954
626.636	0.0180192
626.714	0.0180927
626.792	0.0180892
626.870	0.0181264
626.948	0.0179955
627.026	0.0180810
627.104	0.0179805
627.183	0.0179620
627.261	0.0180446
627.339	0.0179066
627.417	0.0181424
627.495	0.0179582
627.573	0.0180196
627.651	0.0180618
627.729	0.0179755
627.808	0.0180109
627.886	0.0181957
627.964	0.0181152
628.042	0.0180236
628.120	0.0179063
628.198	0.0180082
628.276	0.0180222
628.354	0.0180447
628.433	0.0179964
628.511	0.0179504
628.589	0.0180080
628.667	0.0181454
628.745	0.0180215
628.823	0.0179816
628.901	0.0180416
628.979	0.0179768
629.058	0.0178942
629.136	0.0180754
629.214	0.0179831
629.292	0.0181192
629.370	0.0180555
629.448	0.0180925
629.526	0.0179583
629.604	0.0179830
629.683	0.0179061
629.761	0.0180244
629.839	0.0180301
629.917	0.0181236
629.995	0.0180431
630.073	0.0179557
630.151	0.0179793
630.229	0.0181340
630.308	0.0181085
630.386	0.0180037
630.464	0.0180949
630.542	0.0179393
630.620	0.0180460
630.698	0.0181140
630.776	0.0180632
630.854	0.0182690
630.933	0.0180993
631.011	0.0179978
631.089	0.0179635
631.167	0.0180669
631.245	0.0181480
631.323	0.0181789
631.401	0.0182053
631.479	0.0180834
631.558	0.0180142
631.636	0.0179684
631.714	0.0180849
631.792	0.0180334
631.870	0.0180458
631.948	0.0181620
632.026	0.0182146
632.104	0.0180308
632.183	0.0180553
632.261	0.0181445
632.339	0.0181441
632.417	0.0180978
632.495	0.0180972
632.573	0.0181118
632.651	0.0182338
632.729	0.0181017
632.808	0.0179967
632.886	0.0181308
632.964	0.0182156
633.042	0.0181183
633.120	0.0181504
633.198	0.0181818
633.276	0.0181518
633.354	0.0182272
633.433	0.0181068
633.511	0.0183142
633.589	0.0181730
633.667	0.0180349
633.745	0.0180983
633.823	0.0180647
633.901	0.0180894
633.979	0.0181584
634.058	0.0179907
634.136	0.0181764
634.214	0.0182066
634.292	0.0181478
634.370	0.0181538
634.448	0.0180837
634.526	0.0180247
634.604	0.0181372
634.683	0.0181513
634.761	0.0180721
634.839	0.0181403
634.917	0.0182049
634.995	0.0181368
635.073	0.0181094
635.151	0.0181116
635.229	0.0181759
635.308	0.0182334
635.386	0.0181802
635.464	0.0181541
635.542	0.0180766
635.620	0.0181713
635.698	0.0180798
635.776	0.0180831
635.854	0.0180727
635.933	0.0181074
636.011	0.0181035
636.089	0.0181344
636.167	0.0180594
636.245	0.0180745
636.323	0.0180975
636.401	0.0180781
636.479	0.0182146
636.558	0.0180409
636.636	0.0180901
636.714	0.0181696
636.792	0.0182018
636.870	0.0180672
636.948	0.0180914
637.026	0.0179828
637.104	0.0180460
637.183	0.0181187
637.261	0.0182012
637.339	0.0180335
637.417	0.0180801
637.495	0.0181025
637.573	0.0181599
637.651	0.0179347
637.729	0.0180165
637.808	0.0180967
637.886	0.0181603
637.964	0.0181668
638.042	0.0182014
638.120	0.0182979
638.198	0.0182333
638.276	0.0182961
638.354	0.0180293
638.433	0.0179774
638.511	0.0180412
638.589	0.0182198
638.667	0.0182806
638.745	0.0181149
638.823	0.0181115
638.901	0.0180723
638.979	0.0181260
639.058	0.0179988
639.136	0.0181966
639.214	0.0181437
639.292	0.0179977
639.370	0.0180331
639.448	0.0180907
639.526	0.0182056
639.604	0.0180859
639.683	0.0181438
639.761	0.0182598
639.839	0.0181340
639.917	0.0181721
639.995	0.0181400
640.073	0.0180592
640.151	0.0181119
640.229	0.0181628
640.308	0.0180979
640.386	0.0182207
640.464	0.0180602
640.542	0.0181852
640.620	0.0182710
640.698	0.0180635
640.776	0.0182082
640.854	0.0180971
640.933	0.0179610
641.011	0.0179078
641.089	0.0179987
641.167	0.0180884
641.245	0.0181539
641.323	0.0180280
641.401	0.0179932
641.479	0.0180505
641.558	0.0181288
641.636	0.0179134
641.714	0.0180656
641.792	0.0181181
641.870	0.0179565
641.948	0.0180585
642.026	0.0181447
642.104	0.0181820
642.183	0.0180900
642.261	0.0182284
642.339	0.0181661
642.417	0.0181059
642.495	0.0179955
642.573	0.0180246
642.651	0.0180019
642.729	0.0180231
642.808	0.0181187
642.886	0.0180550
642.964	0.0179564
643.042	0.0180685
643.120	0.0181462
643.198	0.0180143
643.276	0.0179969
643.354	0.0180307
643.433	0.0181062
643.511	0.0179600
643.589	0.0180968
643.667	0.0181020
643.745	0.0179932
643.823	0.0179983
643.901	0.0181106
643.979	0.0180602
644.058	0.0180775
644.136	0.0182088
644.214	0.0179039
644.292	0.0180616
644.370	0.0180186
644.448	0.0180137
644.526	0.0181035
644.604	0.0180614
644.683	0.0180780
644.761	0.0179575
644.839	0.0181113
644.917	0.0179687
644.995	0.0180136
645.073	0.0179750
645.151	0.0179937
645.229	0.0179386
645.308	0.0179804
645.386	0.0178646
645.464	0.0180455
645.542	0.0179612
645.620	0.0179687
645.698	0.0180373
645.776	0.0179859
645.854	0.0181424
645.933	0.0180029
646.011	0.0179790
646.089	0.0179588
646.167	0.0179842
646.245	0.0180823
646.323	0.0181149
646.401	0.0180513
646.479	0.0180534
646.558	0.0178751
646.636	0.0179657
646.714	0.0179988
646.792	0.0180437
646.870	0.0180032
646.948	0.0180495
647.026	0.0180765
647.104	0.0179394
647.183	0.0178675
647.261	0.0180333
647.339	0.0180262
647.417	0.0180328
647.495	0.0180075
647.573	0.0180048
647.651	0.0180470
647.729	0.0181599
647.808	0.0182154
647.886	0.0179498
647.964	0.0181512
648.042	0.0180731
648.120	0.0181448
648.198	0.0181042
648.276	0.0179868
648.354	0.0181245
648.433	0.0181733
648.511	0.0181869
648.589	0.0180776
648.667	0.0180657
648.745	0.0179877
648.823	0.0180599
648.901	0.0181105
648.979	0.0179387
649.058	0.0180512
649.136	0.0181759
649.214	0.0181129
649.292	0.0178900
649.370	0.0180735
649.448	0.0179247
649.526	0.0181313
649.604	0.0180974
649.683	0.0180560
649.761	0.0181068
649.839	0.0180575
649.917	0.0181215
649.995	0.0181976
650.073	0.0179909
650.151	0.0180751
650.229	0.0181039
650.308	0.0181178
650.386	0.0180958
650.464	0.0180222
650.542	0.0180629
650.620	0.0181123
650.698	0.0180489
650.776	0.0179624
650.854	0.0180988
650.933	0.0179671
651.011	0.0180003
651.089	0.0180262
651.167	0.0179781
651.245	0.0180874
651.323	0.0179149
651.401	0.0180046
651.479	0.0180971
651.558	0.0180943
651.636	0.0180856
651.714	0.0181269
651.792	0.0181581
651.870	0.0181041
651.948	0.0180537
652.026	0.0180293
652.104	0.0181210
652.183	0.0181100
652.261	0.0181633
652.339	0.0181157
652.417	0.0181091
652.495	0.0180582
652.573	0.0181886
652.651	0.0181665
652.729	0.0181232
652.808	0.0180473
652.886	0.0181279
652.964	0.0180447
653.042	0.0181586
653.120	0.0182430
653.198	0.0180582
653.276	0.0181599
653.354	0.0181761
653.433	0.0180423
653.511	0.0181568
653.589	0.0180710
653.667	0.0180844
653.745	0.0181467
653.823	0.0180879
653.901	0.0182781
653.979	0.0182370
654.058	0.0181598
654.136	0.0182307
654.214	0.0182351
654.292	0.0182085
654.370	0.0182301
654.448	0.0181595
654.526	0.0181361
654.604	0.0181808
654.683	0.0182339
654.761	0.0182471
654.839	0.0183132
654.917	0.0181087
654.995	0.0182184
655.073	0.0180893
655.151	0.0181134
655.229	0.0183187
655.308	0.0182845
655.386	0.0181778
655.464	0.0181353
655.542	0.0180609
655.620	0.0181065
655.698	0.0180692
655.776	0.0180593
655.854	0.0181905
655.933	0.0181542
656.011	0.0181522
656.089	0.0180133
656.167	0.0181875
656.245	0.0182008
656.323	0.0180269
656.401	0.0181900
656.479	0.0181748
656.558	0.0183278
656.636	0.0182379
656.714	0.0182681
656.792	0.0182680
656.870	0.0184374
656.948	0.0183319
657.026	0.0182809
657.104	0.0181589
657.183	0.0180872
657.261	0.0181139
657.339	0.0182217
657.417	0.0181123
657.495	0.0180502
657.573	0.0178373
657.651	0.0179817
657.729	0.0180061
657.808	0.0180093
657.886	0.0180333
657.964	0.0179994
658.042	0.0181749
658.120	0.0181583
658.198	0.0181185
658.276	0.0181251
658.354	0.0182954
658.433	0.0183174
658.511	0.0181500
658.589	0.0180019
658.667	0.0182727
658.745	0.0182375
658.823	0.0180835
658.901	0.0182689
658.979	0.0182053
659.058	0.0180275
659.136	0.0180368
659.214	0.0178918
659.292	0.0179643
659.370	0.0179637
659.448	0.0179304
659.526	0.0179355
659.604	0.0179206
659.683	0.0180193
659.761	0.0179778
659.839	0.0179416
659.917	0.0180421
659.995	0.0180447
660.073	0.0180032
660.151	0.0180872
660.229	0.0180526
660.308	0.0180721
660.386	0.0182016
660.464	0.0181021
660.542	0.0181079
660.620	0.0182173
660.698	0.0181789
660.776	0.0182647
660.854	0.0180966
660.933	0.0181627
661.011	0.0181742
661.089	0.0181198
661.167	0.0181135
661.245	0.0181094
661.323	0.0180136
661.401	0.0180108
661.479	0.0181359
661.558	0.0180239
661.636	0.0179482
661.714	0.0180112
661.792	0.0180485
661.870	0.0180238
661.948	0.0179434
662.026	0.0181644
662.104	0.0180882
662.183	0.0181631
662.261	0.0180578
662.339	0.0181642
662.417	0.0180436
662.495	0.0180582
662.573	0.0182213
662.651	0.0182469
662.729	0.0181036
662.808	0.0182409
662.886	0.0181107
662.964	0.0181680
663.042	0.0180515
663.120	0.0181693
663.198	0.0181651
663.276	0.0180154
663.354	0.0180977
663.433	0.0179598
663.511	0.0179762
663.589	0.0181084
663.667	0.0180679
663.745	0.0179781
663.823	0.0179786
663.901	0.0180560
663.979	0.0180421
664.058	0.0180686
664.136	0.0180698
664.214	0.0181686
664.292	0.0178827
664.370	0.0180578
664.448	0.0180111
664.526	0.0180892
664.604	0.0181036
664.683	0.0180740
664.761	0.0181147
664.839	0.0181913
664.917	0.0182032
664.995	0.0181261
665.073	0.0180618
665.151	0.0181661
665.229	0.0181691
665.308	0.0180937
665.386	0.0180387
665.464	0.0180177
665.542	0.0179964
665.620	0.0180489
665.698	0.0181000
665.776	0.0180327
665.854	0.0178996
665.933	0.0179329
666.011	0.0179982
666.089	0.0180026
666.167	0.0179679
666.245	0.0179173
666.323	0.0180453
666.401	0.0180225
666.479	0.0181564
666.558	0.0179836
666.636	0.0180448
666.714	0.0180511
666.792	0.0180154
666.870	0.0180228
666.948	0.0180619
667.026	0.0178529
667.104	0.0179789
667.183	0.0181116
667.261	0.0181749
667.339	0.0180391
667.417	0.0179815
667.495	0.0179682
667.573	0.0180486
667.651	0.0180399
667.729	0.0181259
667.808	0.0180040
667.886	0.0180602
667.964	0.0179343
668.042	0.0181169
668.120	0.0180008
668.198	0.0180868
668.276	0.0179965
668.354	0.0180367
668.433	0.0179733
668.511	0.0181080
668.589	0.0180605
668.667	0.0179627
668.745	0.0179967
668.823	0.0180355
668.901	0.0180557
668.979	0.0180821
669.058	0.0180425
669.136	0.0180424
669.214	0.0180551
669.292	0.0181991
669.370	0.0181676
669.448	0.0179689
669.526	0.0180553
669.604	0.0180225
669.683	0.0180097
669.761	0.0179887
669.839	0.0180096
669.917	0.0181092
669.995	0.0179926
670.073	0.0179298
670.151	0.0181209
670.229	0.0181518
670.308	0.0181490
670.386	0.0181027
670.464	0.0179666
670.542	0.0179710
670.620	0.0181900
670.698	0.0181280
670.776	0.0182658
670.854	0.0181441
670.933	0.0181950
671.011	0.0181612
671.089	0.0179515
671.167	0.0180979
671.245	0.0181442
671.323	0.0180361
671.401	0.0180907
671.479	0.0180282
671.558	0.0180530
671.636	0.0178545
671.714	0.0179619
671.792	0.0180014
671.870	0.0179464
671.948	0.0180801
672.026	0.0181028
672.104	0.0180654
672.183	0.0180037
672.261	0.0180507
672.339	0.0181281
672.417	0.0181042
672.495	0.0180748
672.573	0.0180692
672.651	0.0181145
672.729	0.0180179
672.808	0.0181680
672.886	0.0182134
672.964	0.0181306
673.042	0.0181046
673.120	0.0181732
673.198	0.0180507
673.276	0.0182200
673.354	0.0181351
673.433	0.0181127
673.511	0.0180749
673.589	0.0181520
673.667	0.0181040
673.745	0.0181476
673.823	0.0179994
673.901	0.0180614
673.979	0.0181675
674.058	0.0180833
674.136	0.0181839
674.214	0.0182153
674.292	0.0181001
674.370	0.0182629
674.448	0.0182140
674.526	0.0182303
674.604	0.0181875
674.683	0.0181544
674.761	0.0181818
674.839	0.0181756
674.917	0.0182211
674.995	0.0183077
675.073	0.0180755
675.151	0.0180759
675.229	0.0182076
675.308	0.0182148
675.386	0.0181254
675.464	0.0181348
675.542	0.0181271
675.620	0.0180053
675.698	0.0179948
675.776	0.0180357
675.854	0.0179937
675.933	0.0180381
676.011	0.0180515
676.089	0.0179359
676.167	0.0180085
676.245	0.0181058
676.323	0.0180842
676.401	0.0180491
676.479	0.0180934
676.558	0.0181662
676.636	0.0180460
676.714	0.0180846
676.792	0.0181075
676.870	0.0182784
676.948	0.0181139
677.026	0.0182365
677.104	0.0180110
677.183	0.0180862
677.261	0.0182640
677.339	0.0181063
677.417	0.0181300
677.495	0.0181238
677.573	0.0180290
677.651	0.0180923
677.729	0.0180753
677.808	0.0180169
677.886	0.0181068
677.964	0.0181442
678.042	0.0180235
678.120	0.0181593
678.198	0.0181719
678.276	0.0181241
678.354	0.0181499
678.433	0.0181672
678.511	0.0183652
678.589	0.0182894
678.667	0.0183007
678.745	0.0181933
678.823	0.0182410
678.901	0.0182710
678.979	0.0182381
679.058	0.0181288
679.136	0.0181987
679.214	0.0183381
679.292	0.0183265
679.370	0.0180677
679.448	0.0180032
679.526	0.0182809
679.604	0.0182004
679.683	0.0181384
679.761	0.0181075
679.839	0.0180781
679.917	0.0179805
679.995	0.0180595
680.073	0.0179366
680.151	0.0178802
680.229	0.0179630
680.308	0.0177989
680.386	0.0179321
680.464	0.0177220
680.542	0.0177973
680.620	0.0177913
680.698	0.0179141
680.776	0.0179090
680.854	0.0179228
680.933	0.0179561
681.011	0.0179362
681.089	0.0179795
681.167	0.0180720
681.245	0.0180571
681.323	0.0181696
681.401	0.0182658
681.479	0.0180715
681.558	0.0180037
681.636	0.0181410
681.714	0.0181223
681.792	0.0181351
681.870	0.0183556
681.948	0.0183117
682.026	0.0182853
682.104	0.0182903
682.183	0.0182918
682.261	0.0184907
682.339	0.0183231
682.417	0.0183633
682.495	0.0183914
682.573	0.0182716
682.651	0.0183492
682.729	0.0182695
682.808	0.0182514
682.886	0.0182658
682.964	0.0182207
683.042	0.0182344
683.120	0.0182936
683.198	0.0181210
683.276	0.0180088
683.354	0.0180927
683.433	0.0180565
683.511	0.0180810
683.589	0.0180824
683.667	0.0181178
683.745	0.0180712
683.823	0.0180132
683.901	0.0181184
683.979	0.0181355
684.058	0.0180618
684.136	0.0181774
684.214	0.0181288
684.292	0.0180979
684.370	0.0180878
684.448	0.0180214
684.526	0.0180801
684.604	0.0180231
684.683	0.0178404
684.761	0.0179243
684.839	0.0178896
684.917	0.0176774
684.995	0.0178896
685.073	0.0178974
685.151	0.0177396
685.229	0.0178209
685.308	0.0178658
685.386	0.0178139
685.464	0.0178653
685.542	0.0178137
685.620	0.0178580
685.698	0.0179113
685.776	0.0180651
685.854	0.0179688
685.933	0.0181551
686.011	0.0181704
686.089	0.0181931
686.167	0.0180643
686.245	0.0181113
686.323	0.0181038
686.401	0.0183416
686.479	0.0181988
686.558	0.0180807
686.636	0.0182517
686.714	0.0182808
686.792	0.0180617
686.870	0.0180441
686.948	0.0181701
687.026	0.0180995
687.104	0.0183040
687.183	0.0182285
687.261	0.0181171
687.339	0.0181847
687.417	0.0182397
687.495	0.0180962
687.573	0.0181969
687.651	0.0182114
687.729	0.0182870
687.808	0.0182246
687.886	0.0183053
687.964	0.0182865
688.042	0.0183205
688.120	0.0183078
688.198	0.0181754
688.276	0.0181829
688.354	0.0183188
688.433	0.0183139
688.511	0.0182452
688.589	0.0181612
688.667	0.0181598
688.745	0.0181574
688.823	0.0182452
688.901	0.0181718
688.979	0.0180284
689.058	0.0179531
689.136	0.0179357
689.214	0.0179219
689.292	0.0178657
689.370	0.0179317
689.448	0.0179342
689.526	0.0180274
689.604	0.0179199
689.683	0.0179424
689.761	0.0179278
689.839	0.0178455
689.917	0.0178384
689.995	0.0179038
690.073	0.0178722
690.151	0.0178437
690.229	0.0178885
690.308	0.0179304
690.386	0.0179143
690.464	0.0178787
690.542	0.0179843
690.620	0.0178654
690.698	0.0180151
690.776	0.0180216
690.854	0.0180331
690.933	0.0180168
691.011	0.0181831
691.089	0.0182143
691.167	0.0182748
691.245	0.0181365
691.323	0.0182161
691.401	0.0181229
691.479	0.0181669
691.558	0.0182957
691.636	0.0182510
691.714	0.0182310
691.792	0.0181678
691.870	0.0181843
691.948	0.0181223
692.026	0.0181879
692.104	0.0181512
692.183	0.0181484
692.261	0.0180373
692.339	0.0182439
692.417	0.0182372
692.495	0.0182628
692.573	0.0181418
692.651	0.0181303
692.729	0.0181234
692.808	0.0183199
692.886	0.0182166
692.964	0.0181223
693.042	0.0181147
693.120	0.0181042
693.198	0.0180820
693.276	0.0180277
693.354	0.0181918
693.433	0.0181996
693.511	0.0180649
693.589	0.0180095
693.667	0.0180653
693.745	0.0179095
693.823	0.0180476
693.901	0.0181781
693.979	0.0181094
694.058	0.0181408
694.136	0.0180685
694.214	0.0179426
694.292	0.0179839
694.370	0.0181143
694.448	0.0179038
694.526	0.0179424
694.604	0.0178751
694.683	0.0180056
694.761	0.0181380
694.839	0.0179892
694.917	0.0179929
694.995	0.0180120
695.073	0.0182013
695.151	0.0182386
695.229	0.0181609
695.308	0.0181538
695.386	0.0182244
695.464	0.0182519
695.542	0.0182952
695.620	0.0182156
695.698	0.0182027
695.776	0.0183169
695.854	0.0181882
695.933	0.0183155
696.011	0.0182715
696.089	0.0181357
696.167	0.0182273
696.245	0.0180748
696.323	0.0180297
696.401	0.0180627
696.479	0.0181686
696.558	0.0180219
696.636	0.0178372
696.714	0.0178484
696.792	0.0178893
696.870	0.0178056
696.948	0.0178799
697.026	0.0180447
697.104	0.0178203
697.183	0.0178264
697.261	0.0178120
697.339	0.0179171
697.417	0.0178159
697.495	0.0178802
697.573	0.0179785
697.651	0.0179749
697.729	0.0178391
697.808	0.0179093
697.886	0.0179485
697.964	0.0179907
698.042	0.0180000
698.120	0.0179833
698.198	0.0181039
698.276	0.0180281
698.354	0.0179986
698.433	0.0181467
698.511	0.0180081
698.589	0.0182487
698.667	0.0182507
698.745	0.0182271
698.823	0.0181288
698.901	0.0182371
698.979	0.0181340
699.058	0.0181823
699.136	0.0180119
699.214	0.0180939
699.292	0.0180450
699.370	0.0179803
699.448	0.0180226
699.526	0.0179996
699.604	0.0179804
699.683	0.0180125
699.761	0.0179723
699.839	0.0181216
699.917	0.0179777
699.995	0.0180325
700.073	0.0181538
700.151	0.0181666
700.229	0.0181351
700.308	0.0181623
700.386	0.0182881
700.464	0.0180840
700.542	0.0182246
700.620	0.0179974
700.698	0.0181186
700.776	0.0181446
700.854	0.0180541
700.933	0.0181829
701.011	0.0178868
701.089	0.0180142
701.167	0.0179868
701.245	0.0180344
701.323	0.0180688
701.401	0.0179741
701.479	0.0181526
701.558	0.0179959
701.636	0.0180100
701.714	0.0180363
701.792	0.0180254
701.870	0.0183113
701.948	0.0182460
702.026	0.0182069
702.104	0.0183444
702.183	0.0184523
702.261	0.0183903
702.339	0.0184294
702.417	0.0184082
702.495	0.0182328
702.573	0.0184162
702.651	0.0183126
702.729	0.0182605
702.808	0.0181639
702.886	0.0179961
702.964	0.0178681
703.042	0.0178780
703.120	0.0179227
703.198	0.0177403
703.276	0.0176837
703.354	0.0176443
703.433	0.0174197
703.511	0.0174979
703.589	0.0176103
703.667	0.0176235
703.745	0.0175033
703.823	0.0176862
703.901	0.0177186
703.979	0.0177074
704.058	0.0177608
704.136	0.0180392
704.214	0.0181758
704.292	0.0181313
704.370	0.0183309
704.448	0.0184505
704.526	0.0185585
704.604	0.0185226
704.683	0.0186079
704.761	0.0186228
704.839	0.0185681
704.917	0.0185166
704.995	0.0184567
705.073	0.0184289
705.151	0.0183194
705.229	0.0181789
705.308	0.0181187
705.386	0.0180141
705.464	0.0179677
705.542	0.0179149
705.620	0.0178208
705.698	0.0177476
705.776	0.0174947
705.854	0.0174867
705.933	0.0174437
706.011	0.0174265
706.089	0.0172614
706.167	0.0174773
706.245	0.0175088
706.323	0.0174133
706.401	0.0175942
706.479	0.0176241
706.558	0.0176482
706.636	0.0176929
706.714	0.0179558
706.792	0.0178982
706.870	0.0180130
706.948	0.0181315
707.026	0.0180757
707.104	0.0183720
707.183	0.0184905
707.261	0.0185239
707.339	0.0185480
707.417	0.0186065
707.495	0.0186356
707.573	0.0186251
707.651	0.0187556
707.729	0.0187182
707.808	0.0186697
707.886	0.0186354
707.964	0.0187659
708.042	0.0187922
708.120	0.0185615
708.198	0.0184752
708.276	0.0184986
708.354	0.0184755
708.433	0.0181895
708.511	0.0182668
708.589	0.0182384
708.667	0.0181408
708.745	0.0181416
708.823	0.0180721
708.901	0.0179550
708.979	0.0179090
709.058	0.0177526
709.136	0.0177351
709.214	0.0176335
709.292	0.0175332
709.370	0.0174509
709.448	0.0174430
709.526	0.0173337
709.604	0.0174968
709.683	0.0174248
709.761	0.0174208
709.839	0.0173698
709.917	0.0176304
709.995	0.0177090
710.073	0.0178587
710.151	0.0181103
710.229	0.0182639
710.308	0.0183090
710.386	0.0184003
710.464	0.0184225
710.542	0.0184917
710.620	0.0186324
710.698	0.0186806
710.776	0.0185928
710.854	0.0187346
710.933	0.0185137
711.011	0.0184521
711.089	0.0184047
711.167	0.0184545
711.245	0.0183987
711.323	0.0183389
711.401	0.0182516
711.479	0.0180566
711.558	0.0180955
711.636	0.0180418
711.714	0.0180228
711.792	0.0180555
711.870	0.0179573
711.948	0.0179601
712.026	0.0178410
712.104	0.0178425
712.183	0.0178576
712.261	0.0178107
712.339	0.0177837
712.417	0.0179209
712.495	0.0178418
712.573	0.0178887
712.651	0.0177263
712.729	0.0177794
712.808	0.0176778
712.886	0.0177003
712.964	0.0174645
713.042	0.0175161
713.120	0.0176144
713.198	0.0176241
713.276	0.0175938
713.354	0.0177257
713.433	0.0178691
713.511	0.0180463
713.589	0.0180448
713.667	0.0181401
713.745	0.0184952
713.823	0.0184366
713.901	0.0186371
713.979	0.0186493
714.058	0.0188094
714.136	0.0188735
714.214	0.0190229
714.292	0.0189908
714.370	0.0190021
714.448	0.0189279
714.526	0.0188992
714.604	0.0189362
714.683	0.0188702
714.761	0.0188452
714.839	0.0186006
714.917	0.0186855
714.995	0.0186533
715.073	0.0184675
715.151	0.0185941
715.229	0.0185479
715.308	0.0183859
715.386	0.0185435
715.464	0.0183676
715.542	0.0183364
715.620	0.0183762
715.698	0.0183472
715.776	0.0183215
715.854	0.0183244
715.933	0.0183079
716.011	0.0184505
716.089	0.0181900
716.167	0.0180254
716.245	0.0180440
716.323	0.0180628
716.401	0.0179646
716.479	0.0178976
716.558	0.0177886
716.636	0.0179324
716.714	0.0179111
716.792	0.0176576
716.870	0.0173983
716.948	0.0175524
717.026	0.0175525
717.104	0.0174860
717.183	0.0174290
717.261	0.0174046
717.339	0.0172543
717.417	0.0170638
717.495	0.0172047
717.573	0.0172628
717.651	0.0171542
717.729	0.0171979
717.808	0.0173858
717.886	0.0172884
717.964	0.0174048
718.042	0.0175694
718.120	0.0176987
718.198	0.0178281
718.276	0.0180743
718.354	0.0180233
718.433	0.0183112
718.511	0.0184927
718.589	0.0186107
718.667	0.0187069
718.745	0.0186555
718.823	0.0187273
718.901	0.0191339
718.979	0.0189552
719.058	0.0189689
719.136	0.0189236
719.214	0.0191017
719.292	0.0191128
719.370	0.0190710
719.448	0.0190761
719.526	0.0189379
719.604	0.0187495
719.683	0.0188531
719.761	0.0186037
719.839	0.0185822
719.917	0.0184352
719.995	0.0182866
720.073	0.0180187
720.151	0.0179789
720.229	0.0177517
720.308	0.0177454
720.386	0.0177919
720.464	0.0175950
720.542	0.0173930
720.620	0.0174969
720.698	0.0174235
720.776	0.0173669
720.854	0.0175223
720.933	0.0177606
721.011	0.0175999
721.089	0.0178050
721.167	0.0177049
721.245	0.0178746
721.323	0.0179904
721.401	0.0180550
721.479	0.0182317
721.558	0.0180838
721.636	0.0180484
721.714	0.0181755
721.792	0.0182484
721.870	0.0181044
721.948	0.0179551
722.026	0.0179662
722.104	0.0180397
722.183	0.0179417
722.261	0.0179761
722.339	0.0178624
722.417	0.0178214
722.495	0.0177991
722.573	0.0177763
722.651	0.0179529
722.729	0.0178046
722.808	0.0178064
722.886	0.0177854
722.964	0.0180433
723.042	0.0179765
723.120	0.0178652
723.198	0.0178557
723.276	0.0178062
723.354	0.0179744
723.433	0.0180206
723.511	0.0180511
723.589	0.0179053
723.667	0.0179918
723.745	0.0181241
723.823	0.0179600
723.901	0.0181368
723.979	0.0182329
724.058	0.0180861
724.136	0.0181925
724.214	0.0181709
724.292	0.0183220
724.370	0.0183531
724.448	0.0184278
724.526	0.0180577
724.604	0.0180589
724.683	0.0181289
724.761	0.0180837
724.839	0.0180672
724.917	0.0179611
724.995	0.0178954
725.073	0.0178617
725.151	0.0178791
725.229	0.0177467
725.308	0.0175699
725.386	0.0176775
725.464	0.0174271
725.542	0.0174566
725.620	0.0172404
725.698	0.0174440
725.776	0.0174673
725.854	0.0173373
725.933	0.0173582
726.011	0.0175105
726.089	0.0174900
726.167	0.0175216
726.245	0.0178992
726.323	0.0179504
726.401	0.0179927
726.479	0.0180641
726.558	0.0181450
726.636	0.0184176
726.714	0.0184681
726.792	0.0184996
726.870	0.0184868
726.948	0.0186411
727.026	0.0185365
727.104	0.0185560
727.183	0.0185978
727.261	0.0185928
727.339	0.0186518
727.417	0.0186875
727.495	0.0185834
727.573	0.0185075
727.651	0.0183944
727.729	0.0184174
727.808	0.0183791
727.886	0.0183630
727.964	0.0181919
728.042	0.0183244
728.120	0.0182138
728.198	0.0181290
728.276	0.0180376
728.354	0.0181159
728.433	0.0180367
728.511	0.0180861
728.589	0.0179796
728.667	0.0180219
728.745	0.0181426
728.823	0.0181303
728.901	0.0179912
728.979	0.0181430
729.058	0.0180869
729.136	0.0181673
729.214	0.0180174
729.292	0.0181013
729.370	0.0182056
729.448	0.0182177
729.526	0.0181929
729.604	0.0182856
729.683	0.0181165
729.761	0.0181394
729.839	0.0180517
729.917	0.0181113
729.995	0.0180825
730.073	0.0180308
730.151	0.0179411
730.229	0.0180399
730.308	0.0180129
730.386	0.0179181
730.464	0.0177944
730.542	0.0178339
730.620	0.0178941
730.698	0.0178750
730.776	0.0179410
730.854	0.0176699
730.933	0.0177282
731.011	0.0176425
731.089	0.0177737
731.167	0.0177396
731.245	0.0176719
731.323	0.0176967
731.401	0.0176058
731.479	0.0176151
731.558	0.0175936
731.636	0.0176815
731.714	0.0174158
731.792	0.0174934
731.870	0.0176077
731.948	0.0175843
732.026	0.0176208
732.104	0.0177226
732.183	0.0177769
732.261	0.0178035
732.339	0.0179843
732.417	0.0180676
732.495	0.0182298
732.573	0.0182901
732.651	0.0183372
732.729	0.0185456
732.808	0.0186751
732.886	0.0186428
732.964	0.0186555
733.042	0.0188656
733.120	0.0189777
733.198	0.0190051
733.276	0.0191097
733.354	0.0192878
733.433	0.0191560
733.511	0.0191793
733.589	0.0191978
733.667	0.0193031
733.745	0.0191443
733.823	0.0192004
733.901	0.0190071
733.979	0.0189197
734.058	0.0187273
734.136	0.0186289
734.214	0.0185034
734.292	0.0182729
734.370	0.0181246
734.448	0.0180196
734.526	0.0178944
734.604	0.0178155
734.683	0.0177000
734.761	0.0174664
734.839	0.0175072
734.917	0.0176153
734.995	0.0173731
735.073	0.0172806
735.151	0.0173532
735.229	0.0171806
735.308	0.0173238
735.386	0.0173737
735.464	0.0172343
735.542	0.0173106
735.620	0.0172640
735.698	0.0174685
735.776	0.0174406
735.854	0.0175600
735.933	0.0176313
736.011	0.0177807
736.089	0.0178486
736.167	0.0178907
736.245	0.0182467
736.323	0.0181851
736.401	0.0183107
736.479	0.0184908
736.558	0.0182597
736.636	0.0184130
736.714	0.0184798
736.792	0.0185428
736.870	0.0186582
736.948	0.0185849
737.026	0.0185351
737.104	0.0186868
737.183	0.0186383
737.261	0.0186042
737.339	0.0187240
737.417	0.0187029
737.495	0.0186337
737.573	0.0186931
737.651	0.0185861
737.729	0.0186034
737.808	0.0184793
737.886	0.0182668
737.964	0.0182832
738.042	0.0183949
738.120	0.0182462
738.198	0.0181779
738.276	0.0179671
738.354	0.0180159
738.433	0.0180379
738.511	0.0180007
738.589	0.0179858
738.667	0.0177644
738.745	0.0178085
738.823	0.0178156
738.901	0.0178459
738.979	0.0179661
739.058	0.0178433
739.136	0.0178625
739.214	0.0179679
739.292	0.0177793
739.370	0.0179950
739.448	0.0181693
739.526	0.0181337
739.604	0.0181626
739.683	0.0182260
739.761	0.0181264
739.839	0.0181615
739.917	0.0181609
739.995	0.0180752
740.073	0.0180820
740.151	0.0181071
740.229	0.0180181
740.308	0.0179262
740.386	0.0177908
740.464	0.0178294
740.542	0.0178470
740.620	0.0179229
740.698	0.0178867
740.776	0.0178793
740.854	0.0178493
740.933	0.0177791
741.011	0.0179590
741.089	0.0180116
741.167	0.0179908
741.245	0.0179603
741.323	0.0181248
741.401	0.0180199
741.479	0.0179128
741.558	0.0180666
741.636	0.0181323
741.714	0.0181742
741.792	0.0181216
741.870	0.0182413
741.948	0.0182867
742.026	0.0179952
742.104	0.0182493
742.183	0.0183671
742.261	0.0184879
742.339	0.0186242
742.417	0.0185028
742.495	0.0182735
742.573	0.0185657
742.651	0.0184714
742.729	0.0184093
742.808	0.0185488
742.886	0.0185210
742.964	0.0185535
743.042	0.0184085
743.120	0.0183967
743.198	0.0184923
743.276	0.0184712
743.354	0.0182653
743.433	0.0183332
743.511	0.0184223
743.589	0.0183494
743.667	0.0184422
743.745	0.0182825
743.823	0.0182456
743.901	0.0182594
743.979	0.0180383
744.058	0.0180537
744.136	0.0181382
744.214	0.0181532
744.292	0.0180709
744.370	0.0179983
744.448	0.0177974
744.526	0.0178506
744.604	0.0177158
744.683	0.0178005
744.761	0.0177189
744.839	0.0177452
744.917	0.0176402
744.995	0.0177838
745.073	0.0175109
745.151	0.0176111
745.229	0.0176363
745.308	0.0175443
745.386	0.0174107
745.464	0.0174863
745.542	0.0175910
745.620	0.0177698
745.698	0.0176600
745.776	0.0176943
745.854	0.0176833
745.933	0.0177440
746.011	0.0177870
746.089	0.0176160
746.167	0.0176399
746.245	0.0178108
746.323	0.0177026
746.401	0.0179148
746.479	0.0179855
746.558	0.0179795
746.636	0.0180228
746.714	0.0181360
746.792	0.0181612
746.870	0.0182573
746.948	0.0183039
747.026	0.0183630
747.104	0.0183916
747.183	0.0185423
747.261	0.0185126
747.339	0.0185215
747.417	0.0186215
747.495	0.0187344
747.573	0.0186389
747.651	0.0186058
747.729	0.0186239
747.808	0.0186050
747.886	0.0186394
747.964	0.0185925
748.042	0.0185083
748.120	0.0185079
748.198	0.0184122
748.276	0.0185191
748.354	0.0184086
748.433	0.0185986
748.511	0.0184371
748.589	0.0183953
748.667	0.0183901
748.745	0.0182428
748.823	0.0182222
748.901	0.0181834
748.979	0.0182188
749.058	0.0181239
749.136	0.0181071
749.214	0.0181384
749.292	0.0178729
749.370	0.0178043
749.448	0.0178961
749.526	0.0179864
749.604	0.0178226
749.683	0.0178191
749.761	0.0178373
749.839	0.0178329
749.917	0.0179643
749.995	0.0178483
750.073	0.0177959
750.151	0.0179773
750.229	0.0180173
750.308	0.0179076
750.386	0.0180507
750.464	0.0181389
750.542	0.0178871
750.620	0.0180906
750.698	0.0181847
750.776	0.0179827
750.854	0.0179031
750.933	0.0178416
751.011	0.0178847
751.089	0.0177455
751.167	0.0176579
751.245	0.0176945
751.323	0.0176629
751.401	0.0175776
751.479	0.0176752
751.558	0.0176308
751.636	0.0176591
751.714	0.0176338
751.792	0.0178111
751.870	0.0177465
751.948	0.0177940
752.026	0.0179765
752.104	0.0178647
752.183	0.0178909
752.261	0.0181467
752.339	0.0180536
752.417	0.0181856
752.495	0.0182987
752.573	0.0182806
752.651	0.0182788
752.729	0.0183129
752.808	0.0182369
752.886	0.0183676
752.964	0.0184515
753.042	0.0183005
753.120	0.0183800
753.198	0.0183685
753.276	0.0184280
753.354	0.0183560
753.433	0.0183482
753.511	0.0184326
753.589	0.0185229
753.667	0.0184325
753.745	0.0185035
753.823	0.0186101
753.901	0.0184658
753.979	0.0184546
754.058	0.0184886
754.136	0.0183759
754.214	0.0182818
754.292	0.0183836
754.370	0.0184959
754.448	0.0183812
754.526	0.0183659
754.604	0.0182626
754.683	0.0182173
754.761	0.0182446
754.839	0.0181834
754.917	0.0179229
754.995	0.0181093
755.073	0.0181415
755.151	0.0180240
755.229	0.0180535
755.308	0.0182339
755.386	0.0180942
755.464	0.0179731
755.542	0.0179186
755.620	0.0180093
755.698	0.0178645
755.776	0.0180626
755.854	0.0178423
755.933	0.0178613
756.011	0.0178271
756.089	0.0178499
756.167	0.0176737
756.245	0.0178140
756.323	0.0179314
756.401	0.0179497
756.479	0.0180756
756.558	0.0179909
756.636	0.0180283
756.714	0.0180238
756.792	0.0180526
756.870	0.0179568
756.948	0.0178644
757.026	0.0180544
757.104	0.0179425
757.183	0.0178818
757.261	0.0178676
757.339	0.0178148
757.417	0.0179341
757.495	0.0178960
757.573	0.0179319
757.651	0.0178553
757.729	0.0179153
757.808	0.0179790
757.886	0.0180941
757.964	0.0181125
758.042	0.0182156
758.120	0.0182761
758.198	0.0183371
758.276	0.0182175
758.354	0.0183203
758.433	0.0183645
758.511	0.0184412
758.589	0.0183069
758.667	0.0183580
758.745	0.0184985
758.823	0.0182802
758.901	0.0183927
758.979	0.0183455
759.058	0.0183044
759.136	0.0182954
759.214	0.0183500
759.292	0.0182760
759.370	0.0184435
759.448	0.0183927
759.526	0.0184818
759.604	0.0183949
759.683	0.0183484
759.761	0.0183198
759.839	0.0182945
759.917	0.0182776
759.995	0.0182963
760.073	0.0183967
760.151	0.0182705
760.229	0.0183418
760.308	0.0182351
760.386	0.0181754
760.464	0.0181593
760.542	0.0180796
760.620	0.0180221
760.698	0.0179156
760.776	0.0178905
760.854	0.0179995
760.933	0.0180259
761.011	0.0179324
761.089	0.0178239
761.167	0.0179308
761.245	0.0179156
761.323	0.0177573
761.401	0.0176794
761.479	0.0178829
761.558	0.0177445
761.636	0.0176460
761.714	0.0177460
761.792	0.0176881
761.870	0.0177240
761.948	0.0176990
762.026	0.0178900
762.104	0.0178934
762.183	0.0177627
762.261	0.0178556
762.339	0.0179473
762.417	0.0182314
762.495	0.0182744
762.573	0.0180983
762.651	0.0182784
762.729	0.0183196
762.808	0.0181760
762.886	0.0183442
762.964	0.0183571
763.042	0.0183685
763.120	0.0183894
763.198	0.0185056
763.276	0.0185507
763.354	0.0186049
763.433	0.0184972
763.511	0.0184142
763.589	0.0184112
763.667	0.0184186
763.745	0.0182617
763.823	0.0182448
763.901	0.0183200
763.979	0.0182823
764.058	0.0183482
764.136	0.0183531
764.214	0.0181391
764.292	0.0180589
764.370	0.0181342
764.448	0.0180157
764.526	0.0179849
764.604	0.0178615
764.683	0.0178922
764.761	0.0180917
764.839	0.0180145
764.917	0.0179709
764.995	0.0178967
765.073	0.0179087
765.151	0.0177927
765.229	0.0178440
765.308	0.0179494
765.386	0.0177619
765.464	0.0178448
765.542	0.0179916
765.620	0.0178688
765.698	0.0178485
765.776	0.0179936
765.854	0.0180375
765.933	0.0179221
766.011	0.0180528
766.089	0.0182117
766.167	0.0181011
766.245	0.0180663
766.323	0.0181013
766.401	0.0181519
766.479	0.0180914
766.558	0.0180134
766.636	0.0181109
766.714	0.0180653
766.792	0.0181364
766.870	0.0180897
766.948	0.0180099
767.026	0.0179308
767.104	0.0179749
767.183	0.0179678
767.261	0.0179401
767.339	0.0179790
767.417	0.0179960
767.495	0.0180183
767.573	0.0177741
767.651	0.0179664
767.729	0.0179707
767.808	0.0180305
767.886	0.0180502
767.964	0.0180315
768.042	0.0180831
768.120	0.0180781
768.198	0.0180963
768.276	0.0182076
768.354	0.0181639
768.433	0.0182014
768.511	0.0182639
768.589	0.0183254
768.667	0.0183152
768.745	0.0183065
768.823	0.0181973
768.901	0.0184059
768.979	0.0182699
769.058	0.0182397
769.136	0.0183103
769.214	0.0182932
769.292	0.0181545
769.370	0.0181451
769.448	0.0181300
769.526	0.0183085
769.604	0.0181353
769.683	0.0181955
769.761	0.0181281
769.839	0.0180872
769.917	0.0182421
769.995	0.0181197
770.073	0.0182214
770.151	0.0182560
770.229	0.0180908
770.308	0.0180903
770.386	0.0180340
770.464	0.0180829
770.542	0.0179869
770.620	0.0181290
770.698	0.0178214
770.776	0.0178734
770.854	0.0179586
770.933	0.0178563
771.011	0.0177871
771.089	0.0179118
771.167	0.0178088
771.245	0.0178989
771.323	0.0177433
771.401	0.0179782
771.479	0.0179393
771.558	0.0179233
771.636	0.0178907
771.714	0.0178281
771.792	0.0180610
771.870	0.0180255
771.948	0.0180137
772.026	0.0179311
772.104	0.0179356
772.183	0.0180318
772.261	0.0179929
772.339	0.0180334
772.417	0.0178311
772.495	0.0179324
772.573	0.0179140
772.651	0.0179620
772.729	0.0178045
772.808	0.0178758
772.886	0.0177963
772.964	0.0179558
773.042	0.0180177
773.120	0.0180407
773.198	0.0179375
773.276	0.0181581
773.354	0.0181409
773.433	0.0180356
773.511	0.0182377
773.589	0.0181969
773.667	0.0181274
773.745	0.0182989
773.823	0.0183123
773.901	0.0182803
773.979	0.0182859
774.058	0.0183195
774.136	0.0182922
774.214	0.0182301
774.292	0.0184347
774.370	0.0183440
774.448	0.0181709
774.526	0.0182943
774.604	0.0182442
774.683	0.0182658
774.761	0.0183970
774.839	0.0182005
774.917	0.0182617
774.995	0.0183080
775.073	0.0180889
775.151	0.0182265
775.229	0.0183105
775.308	0.0181812
775.386	0.0181284
775.464	0.0182931
775.542	0.0183466
775.620	0.0184045
775.698	0.0183614
775.776	0.0183127
775.854	0.0183846
775.933	0.0182500
776.011	0.0183371
776.089	0.0181984
776.167	0.0181792
776.245	0.0184364
776.323	0.0182987
776.401	0.0182103
776.479	0.0181841
776.558	0.0181817
776.636	0.0182420
776.714	0.0182220
776.792	0.0182105
776.870	0.0182001
776.948	0.0181964
777.026	0.0181142
777.104	0.0180594
777.183	0.0181384
777.261	0.0180725
777.339	0.0180226
777.417	0.0181049
777.495	0.0180292
777.573	0.0179514
777.651	0.0179755
777.729	0.0180009
777.808	0.0179234
777.886	0.0178815
777.964	0.0177647
778.042	0.0179623
778.120	0.0179843
778.198	0.0179134
778.276	0.0179251
778.354	0.0180257
778.433	0.0179954
778.511	0.0179320
778.589	0.0180299
778.667	0.0180466
778.745	0.0180499
778.823	0.0180851
778.901	0.0181768
778.979	0.0180896
779.058	0.0181483
779.136	0.0182364
779.214	0.0181772
779.292	0.0181736
779.370	0.0182881
779.448	0.0181601
779.526	0.0180298
779.604	0.0181590
779.683	0.0182063
779.761	0.0181194
779.839	0.0181290
779.917	0.0181776
779.995	0.0182142
780.073	0.0181718
780.151	0.0181312
780.229	0.0181681
780.308	0.0182047
780.386	0.0182713
780.464	0.0180014
780.542	0.0181073
780.620	0.0181926
780.698	0.0182189
780.776	0.0182593
780.854	0.0182059
780.933	0.0182791
781.011	0.0182412
781.089	0.0181515
781.167	0.0182883
781.245	0.0183049
781.323	0.0181199
781.401	0.0182294
781.479	0.0182855
781.558	0.0183086
781.636	0.0183405
781.714	0.0182897
781.792	0.0182551
781.870	0.0182892
781.948	0.0182307
782.026	0.0182025
782.104	0.0181454
782.183	0.0181260
782.261	0.0181145
782.339	0.0181903
782.417	0.0180678
782.495	0.0180888
782.573	0.0181914
782.651	0.0180075
782.729	0.0180947
782.808	0.0181378
782.886	0.0180978
782.964	0.0180701
783.042	0.0181152
783.120	0.0182888
783.198	0.0181674
783.276	0.0181940
783.354	0.0181996
783.433	0.0182236
783.511	0.0181394
783.589	0.0181303
783.667	0.0182475
783.745	0.0181175
783.823	0.0180766
783.901	0.0181450
783.979	0.0180861
784.058	0.0180373
784.136	0.0182807
784.214	0.0181791
784.292	0.0180803
784.370	0.0180806
784.448	0.0180195
784.526	0.0180864
784.604	0.0181256
784.683	0.0180920
784.761	0.0180262
784.839	0.0179836
784.917	0.0180733
784.995	0.0181550
785.073	0.0181833
785.151	0.0181200
785.229	0.0181265
785.308	0.0180727
785.386	0.0179574
785.464	0.0181153
785.542	0.0182807
785.620	0.0180402
785.698	0.0180292
785.776	0.0181301
785.854	0.0181496
785.933	0.0181620
786.011	0.0181413
786.089	0.0182352
786.167	0.0182571
786.245	0.0182347
786.323	0.0181697
786.401	0.0183101
786.479	0.0182058
786.558	0.0181075
786.636	0.0181033
786.714	0.0182885
786.792	0.0182217
786.870	0.0182455
786.948	0.0181725
787.026	0.0181808
787.104	0.0182174
787.183	0.0181737
787.261	0.0180272
787.339	0.0181845
787.417	0.0180346
787.495	0.0179660
787.573	0.0179594
787.651	0.0178042
787.729	0.0177503
787.808	0.0178762
787.886	0.0176910
787.964	0.0178215
788.042	0.0178779
788.120	0.0178078
788.198	0.0179214
788.276	0.0178217
788.354	0.0177799
788.433	0.0178519
788.511	0.0178915
788.589	0.0179973
788.667	0.0179249
788.745	0.0180235
788.823	0.0181203
788.901	0.0179373
788.979	0.0180070
789.058	0.0181851
789.136	0.0180582
789.214	0.0180797
789.292	0.0182465
789.370	0.0182795
789.448	0.0180746
789.526	0.0181451
789.604	0.0182433
789.683	0.0182089
789.761	0.0182801
789.839	0.0181734
789.917	0.0182456
789.995	0.0182135
790.073	0.0180980
790.151	0.0181613
790.229	0.0182209
790.308	0.0180281
790.386	0.0181409
790.464	0.0181406
790.542	0.0181519
790.620	0.0181391
790.698	0.0181549
790.776	0.0182182
790.854	0.0179274
790.933	0.0180431
791.011	0.0179427
791.089	0.0180156
791.167	0.0180225
791.245	0.0178814
791.323	0.0180060
791.401	0.0179335
791.479	0.0180675
791.558	0.0180590
791.636	0.0179003
791.714	0.0180312
791.792	0.0178419
791.870	0.0179619
791.948	0.0179683
792.026	0.0180020
792.104	0.0180267
792.183	0.0179967
792.261	0.0179202
792.339	0.0180225
792.417	0.0179647
792.495	0.0180067
792.573	0.0181811
792.651	0.0181726
792.729	0.0182986
792.808	0.0181509
792.886	0.0181631
792.964	0.0180682
793.042	0.0182289
793.120	0.0182185
793.198	0.0182204
793.276	0.0182690
793.354	0.0181357
793.433	0.0179856
793.511	0.0181391
793.589	0.0180241
793.667	0.0179774
793.745	0.0180688
793.823	0.0180998
793.901	0.0180137
793.979	0.0179659
794.058	0.0180442
794.136	0.0179799
794.214	0.0180314
794.292	0.0180128
794.370	0.0179002
794.448	0.0179426
794.526	0.0180383
794.604	0.0181278
794.683	0.0180389
794.761	0.0179927
794.839	0.0180914
794.917	0.0179321
794.995	0.0179237
795.073	0.0180470
795.151	0.0180032
795.229	0.0178294
795.308	0.0181382
795.386	0.0180143
795.464	0.0179581
795.542	0.0180002
795.620	0.0179145
795.698	0.0180165
795.776	0.0179684
795.854	0.0178452
795.933	0.0180448
796.011	0.0180536
796.089	0.0180067
796.167	0.0180880
796.245	0.0181842
796.323	0.0180538
796.401	0.0181326
796.479	0.0181264
796.558	0.0182270
796.636	0.0181335
796.714	0.0181511
796.792	0.0181113
796.870	0.0181187
796.948	0.0182587
797.026	0.0181576
797.104	0.0182101
797.183	0.0182986
797.261	0.0180727
797.339	0.0183309
797.417	0.0181551
797.495	0.0182413
797.573	0.0182385
797.651	0.0183508
797.729	0.0182692
797.808	0.0181823
797.886	0.0181912
797.964	0.0182616
798.042	0.0183383
798.120	0.0183221
798.198	0.0182375
798.276	0.0181216
798.354	0.0181422
798.433	0.0180743
798.511	0.0180820
798.589	0.0181493
798.667	0.0180695
798.745	0.0182518
798.823	0.0180920
798.901	0.0179829
798.979	0.0180142
799.058	0.0180817
799.136	0.0181448
799.214	0.0182781
799.292	0.0182106
799.370	0.0180161
799.448	0.0179403
799.526	0.0179702
799.604	0.0180472
799.683	0.0179089
799.761	0.0179472
799.839	0.0180244
799.917	0.0179420
799.995	0.0178996
800.073	0.0178133
800.151	0.0178649
800.229	0.0178125
800.308	0.0178741
800.386	0.0178343
800.464	0.0179490
800.542	0.0177541
800.620	0.0178203
800.698	0.0178880
800.776	0.0178713
800.854	0.0178894
800.933	0.0179279
801.011	0.0179549
801.089	0.0180681
801.167	0.0181773
801.245	0.0181244
801.323	0.0180956
801.401	0.0181206
801.479	0.0181250
801.558	0.0181776
801.636	0.0182396
801.714	0.0182625
801.792	0.0181538
801.870	0.0181674
801.948	0.0181786
802.026	0.0183624
802.104	0.0181905
802.183	0.0182452
802.261	0.0182686
802.339	0.0182626
802.417	0.0182377
802.495	0.0181367
802.573	0.0183169
802.651	0.0182124
802.729	0.0182003
802.808	0.0182419
802.886	0.0181834
802.964	0.0181496
803.042	0.0181210
803.120	0.0180305
803.198	0.0183001
803.276	0.0182290
803.354	0.0180634
803.433	0.0180772
803.511	0.0180712
803.589	0.0181704
803.667	0.0182674
803.745	0.0181830
803.823	0.0181525
803.901	0.0182455
803.979	0.0183353
804.058	0.0182762
804.136	0.0181158
804.214	0.0182916
804.292	0.0181892
804.370	0.0183208
804.448	0.0182365
804.526	0.0182851
804.604	0.0183117
804.683	0.0182971
804.761	0.0184477
804.839	0.0183470
804.917	0.0181763
804.995	0.0182599
805.073	0.0181699
805.151	0.0181436
805.229	0.0181444
805.308	0.0181317
805.386	0.0180613
805.464	0.0180537
805.542	0.0181829
805.620	0.0180238
805.698	0.0180035
805.776	0.0179127
805.854	0.0179207
805.933	0.0180329
806.011	0.0180073
806.089	0.0179310
806.167	0.0180088
806.245	0.0179772
806.323	0.0179677
806.401	0.0180273
806.479	0.0180117
806.558	0.0178999
806.636	0.0178992
806.714	0.0179805
806.792	0.0180606
806.870	0.0181322
806.948	0.0181394
807.026	0.0179874
807.104	0.0179718
807.183	0.0180178
807.261	0.0180365
807.339	0.0180442
807.417	0.0180527
807.495	0.0181776
807.573	0.0180576
807.651	0.0183106
807.729	0.0182605
807.808	0.0180134
807.886	0.0181920
807.964	0.0182011
808.042	0.0182843
808.120	0.0182812
808.198	0.0181891
808.276	0.0181803
808.354	0.0182050
808.433	0.0182428
808.511	0.0182500
808.589	0.0182033
808.667	0.0182775
808.745	0.0183734
808.823	0.0182413
808.901	0.0181293
808.979	0.0180543
809.058	0.0181216
809.136	0.0181339
809.214	0.0180172
809.292	0.0180878
809.370	0.0180836
809.448	0.0181499
809.526	0.0180450
809.604	0.0182024
809.683	0.0180051
809.761	0.0179017
809.839	0.0181268
809.917	0.0180366
809.995	0.0181718
810.073	0.0181666
810.151	0.0180675
810.229	0.0181574
810.308	0.0181674
810.386	0.0182428
810.464	0.0183694
810.542	0.0183121
810.620	0.0182039
810.698	0.0183365
810.776	0.0182877
810.854	0.0182048
810.933	0.0183322
811.011	0.0183042
811.089	0.0182031
811.167	0.0183134
811.245	0.0180679
811.323	0.0181253
811.401	0.0182716
811.479	0.0182812
811.558	0.0181516
811.636	0.0181127
811.714	0.0180311
811.792	0.0180649
811.870	0.0179907
811.948	0.0181317
812.026	0.0180415
812.104	0.0180940
812.183	0.0181610
812.261	0.0180084
812.339	0.0180503
812.417	0.0179955
812.495	0.0181966
812.573	0.0180824
812.651	0.0181142
812.729	0.0180509
812.808	0.0180007
812.886	0.0180907
812.964	0.0179559
813.042	0.0179951
813.120	0.0179640
813.198	0.0179721
813.276	0.0181113
813.354	0.0179533
813.433	0.0178821
813.511	0.0180347
813.589	0.0180642
813.667	0.0180269
813.745	0.0180948
813.823	0.0180586
813.901	0.0180113
813.979	0.0181927
814.058	0.0181857
814.136	0.0180869
814.214	0.0180193
814.292	0.0182407
814.370	0.0183668
814.448	0.0180949
814.526	0.0182995
814.604	0.0181412
814.683	0.0180833
814.761	0.0182234
814.839	0.0182941
814.917	0.0180922
814.995	0.0181613
815.073	0.0181284
815.151	0.0181300
815.229	0.0181532
815.308	0.0182121
815.386	0.0181526
815.464	0.0183183
815.542	0.0181194
815.620	0.0181808
815.698	0.0181006
815.776	0.0180920
815.854	0.0181962
815.933	0.0181542
816.011	0.0181145
816.089	0.0182150
816.167	0.0180720
816.245	0.0181197
816.323	0.0181932
816.401	0.0180952
816.479	0.0180793
816.558	0.0181321
816.636	0.0183601
816.714	0.0180898
816.792	0.0181350
816.870	0.0181713
816.948	0.0181668
817.026	0.0182561
817.104	0.0182582
817.183	0.0182688
817.261	0.0181831
817.339	0.0182741
817.417	0.0182604
817.495	0.0181876
817.573	0.0182740
817.651	0.0182597
817.729	0.0181854
817.808	0.0181326
817.886	0.0180672
817.964	0.0182038
818.042	0.0181258
818.120	0.0179454
818.198	0.0179538
818.276	0.0180668
818.354	0.0180867
818.433	0.0181230
818.511	0.0179111
818.589	0.0181255
818.667	0.0180994
818.745	0.0179634
818.823	0.0180546
818.901	0.0182220
818.979	0.0179420
819.058	0.0180353
819.136	0.0180360
819.214	0.0181445
819.292	0.0180215
819.370	0.0180166
819.448	0.0181404
819.526	0.0179379
819.604	0.0181153
819.683	0.0180652
819.761	0.0179867
819.839	0.0179920
819.917	0.0181064
819.995	0.0179784
820.073	0.0180261
820.151	0.0179189
820.229	0.0180243
820.308	0.0178392
820.386	0.0179848
820.464	0.0180536
820.542	0.0180700
820.620	0.0180872
820.698	0.0181557
820.776	0.0179897
820.854	0.0180521
820.933	0.0180891
821.011	0.0181058
821.089	0.0181744
821.167	0.0182792
821.245	0.0181468
821.323	0.0182037
821.401	0.0181401
821.479	0.0181911
821.558	0.0182262
821.636	0.0183154
821.714	0.0181885
821.792	0.0181274
821.870	0.0180211
821.948	0.0181715
822.026	0.0181116
822.104	0.0179347
822.183	0.0180540
822.261	0.0181209
822.339	0.0179646
822.417	0.0178960
822.495	0.0179347
822.573	0.0179691
822.651	0.0180043
822.729	0.0179532
822.808	0.0180949
822.886	0.0179029
822.964	0.0179686
823.042	0.0180250
823.120	0.0179890
823.198	0.0181725
823.276	0.0181451
823.354	0.0181430
823.433	0.0181095
823.511	0.0180334
823.589	0.0181203
823.667	0.0180405
823.745	0.0180334
823.823	0.0180379
823.901	0.0181374
823.979	0.0180368
824.058	0.0181516
824.136	0.0180655
824.214	0.0180871
824.292	0.0182674
824.370	0.0180870
824.448	0.0181213
824.526	0.0181216
824.604	0.0180888
824.683	0.0179967
824.761	0.0181259
824.839	0.0180691
824.917	0.0180666
824.995	0.0180759
825.073	0.0181424
825.151	0.0180341
825.229	0.0180149
825.308	0.0181313
825.386	0.0180978
825.464	0.0180429
825.542	0.0179628
825.620	0.0179734
825.698	0.0181235
825.776	0.0181425
825.854	0.0181389
825.933	0.0181508
826.011	0.0181611
826.089	0.0180718
826.167	0.0181498
826.245	0.0181779
826.323	0.0181409
826.401	0.0181341
826.479	0.0181130
826.558	0.0180448
826.636	0.0182761
826.714	0.0181807
826.792	0.0180663
826.870	0.0179872
826.948	0.0180993
827.026	0.0180497
827.104	0.0179858
827.183	0.0179395
827.261	0.0178613
827.339	0.0178911
827.417	0.0178128
827.495	0.0179397
827.573	0.0178679
827.651	0.0178988
827.729	0.0180527
827.808	0.0180849
827.886	0.0180386
827.964	0.0180739
828.042	0.0179432
828.120	0.0180547
828.198	0.0181763
828.276	0.0181996
828.354	0.0179190
828.433	0.0180780
828.511	0.0180481
828.589	0.0181197
828.667	0.0182774
828.745	0.0183326
828.823	0.0183202
828.901	0.0183067
828.979	0.0182668
829.058	0.0183741
829.136	0.0182800
829.214	0.0183488
829.292	0.0182886
829.370	0.0182692
829.448	0.0184182
829.526	0.0182857
829.604	0.0183113
829.683	0.0182711
829.761	0.0183823
829.839	0.0182876
829.917	0.0182349
829.995	0.0182476
830.073	0.0182421
830.151	0.0181753
830.229	0.0183294
830.308	0.0183541
830.386	0.0182113
830.464	0.0181783
830.542	0.0181564
830.620	0.0181912
830.698	0.0180994
830.776	0.0182780
830.854	0.0181969
830.933	0.0179462
831.011	0.0180589
831.089	0.0180605
831.167	0.0182273
831.245	0.0182561
831.323	0.0180877
831.401	0.0181668
831.479	0.0180511
831.558	0.0182063
831.636	0.0181509
831.714	0.0181130
831.792	0.0181946
831.870	0.0182448
831.948	0.0180999
832.026	0.0180415
832.104	0.0181097
832.183	0.0181697
832.261	0.0181538
832.339	0.0181184
832.417	0.0180823
832.495	0.0182248
832.573	0.0181035
832.651	0.0180502
832.729	0.0181015
832.808	0.0181451
832.886	0.0181413
832.964	0.0179629
833.042	0.0180694
833.120	0.0182786
833.198	0.0181466
833.276	0.0179930
833.354	0.0180714
833.433	0.0181665
833.511	0.0181940
833.589	0.0181012
833.667	0.0182037
833.745	0.0181459
833.823	0.0181599
833.901	0.0181669
833.979	0.0181216
834.058	0.0182069
834.136	0.0182208
834.214	0.0182475
834.292	0.0182056
834.370	0.0180326
834.448	0.0181522
834.526	0.0181939
834.604	0.0182578
834.683	0.0181229
834.761	0.0180235
834.839	0.0180510
834.917	0.0181889
834.995	0.0181216
835.073	0.0181133
835.151	0.0181696
835.229	0.0181245
835.308	0.0181866
835.386	0.0181897
835.464	0.0181760
835.542	0.0180551
835.620	0.0181625
835.698	0.0182417
835.776	0.0182455
835.854	0.0182177
835.933	0.0183015
836.011	0.0181675
836.089	0.0181599
836.167	0.0182352
836.245	0.0181159
836.323	0.0182173
836.401	0.0180847
836.479	0.0180763
836.558	0.0181226
836.636	0.0181869
836.714	0.0181374
836.792	0.0181429
836.870	0.0179254
836.948	0.0179881
837.026	0.0180064
837.104	0.0181116
837.183	0.0179318
837.261	0.0181655
837.339	0.0180305
837.417	0.0180856
837.495	0.0181807
837.573	0.0179858
837.651	0.0181011
837.729	0.0179870
837.808	0.0180964
837.886	0.0182375
837.964	0.0181085
838.042	0.0181879
838.120	0.0183019
838.198	0.0181076
838.276	0.0182616
838.354	0.0181098
838.433	0.0180794
838.511	0.0182476
838.589	0.0181911
838.667	0.0181429
838.745	0.0181656
838.823	0.0182501
838.901	0.0182517
838.979	0.0181606
839.058	0.0180543
839.136	0.0180701
839.214	0.0181670
839.292	0.0181918
839.370	0.0181635
839.448	0.0182204
839.526	0.0182577
839.604	0.0182108
839.683	0.0183005
839.761	0.0181102
839.839	0.0180477
839.917	0.0182796
839.995	0.0181514
840.073	0.0182083
840.151	0.0182569
840.229	0.0181457
840.308	0.0180573
840.386	0.0180688
840.464	0.0180331
840.542	0.0180075
840.620	0.0180477
840.698	0.0180434
840.776	0.0180403
840.854	0.0179563
840.933	0.0179083
841.011	0.0181111
841.089	0.0179543
841.167	0.0179514
841.245	0.0178208
841.323	0.0179292
841.401	0.0180415
841.479	0.0179956
841.558	0.0180513
841.636	0.0180542
841.714	0.0180904
841.792	0.0180441
841.870	0.0181825
841.948	0.0181348
842.026	0.0182028
842.104	0.0182304
842.183	0.0181634
842.261	0.0180836
842.339	0.0182162
842.417	0.0181814
842.495	0.0182146
842.573	0.0182627
842.651	0.0181375
842.729	0.0182352
842.808	0.0181959
842.886	0.0179694
842.964	0.0180993
843.042	0.0181384
843.120	0.0181464
843.198	0.0181872
843.276	0.0181435
843.354	0.0181504
843.433	0.0179228
843.511	0.0180105
843.589	0.0181398
843.667	0.0182230
843.745	0.0182967
843.823	0.0180730
843.901	0.0179549
843.979	0.0180930
844.058	0.0181836
844.136	0.0181953
844.214	0.0183063
844.292	0.0182925
844.370	0.0181071
844.448	0.0181150
844.526	0.0182478
844.604	0.0181920
844.683	0.0180896
844.761	0.0182307
844.839	0.0181948
844.917	0.0183006
844.995	0.0181963
845.073	0.0181351
845.151	0.0182145
845.229	0.0182054
845.308	0.0181648
845.386	0.0181432
845.464	0.0181112
845.542	0.0182536
845.620	0.0182717
845.698	0.0180849
845.776	0.0181380
845.854	0.0180070
845.933	0.0180898
846.011	0.0182303
846.089	0.0181985
846.167	0.0182323
846.245	0.0181666
846.323	0.0181646
846.401	0.0180777
846.479	0.0181805
846.558	0.0179550
846.636	0.0179921
846.714	0.0180810
846.792	0.0179034
846.870	0.0179413
846.948	0.0179697
847.026	0.0179297
847.104	0.0179239
847.183	0.0178976
847.261	0.0177972
847.339	0.0178219
847.417	0.0178545
847.495	0.0178173
847.573	0.0177228
847.651	0.0178310
847.729	0.0178963
847.808	0.0178327
847.886	0.0178344
847.964	0.0178790
848.042	0.0179949
848.120	0.0178970
848.198	0.0180952
848.276	0.0179973
848.354	0.0179668
848.433	0.0181583
848.511	0.0180428
848.589	0.0180827
848.667	0.0181300
848.745	0.0181532
848.823	0.0180030
848.901	0.0181970
848.979	0.0181783
849.058	0.0182014
849.136	0.0181965
849.214	0.0180080
849.292	0.0182108
849.370	0.0180399
849.448	0.0180585
849.526	0.0180322
849.604	0.0181889
849.683	0.0180945
849.761	0.0178738
849.839	0.0180903
849.917	0.0181026
849.995	0.0181954
850.073	0.0180930
850.151	0.0180899
850.229	0.0180082
850.308	0.0179999
850.386	0.0182005
850.464	0.0179352
850.542	0.0179626
850.620	0.0180331
850.698	0.0180605
850.776	0.0179928
850.854	0.0180080
850.933	0.0179917
851.011	0.0181187
851.089	0.0178726
851.167	0.0179386
851.245	0.0179816
851.323	0.0180915
851.401	0.0180054
851.479	0.0179443
851.558	0.0180334
851.636	0.0180030
851.714	0.0179453
851.792	0.0180559
851.870	0.0179765
851.948	0.0180079
852.026	0.0180341
852.104	0.0180254
852.183	0.0181064
852.261	0.0179717
852.339	0.0180299
852.417	0.0180103
852.495	0.0179449
852.573	0.0179011
852.651	0.0180800
852.729	0.0180505
852.808	0.0179979
852.886	0.0180223
852.964	0.0179654
853.042	0.0179006
853.120	0.0181071
853.198	0.0180875
853.276	0.0180234
853.354	0.0181474
853.433	0.0179581
853.511	0.0180950
853.589	0.0179525
853.667	0.0178018
853.745	0.0180654
853.823	0.0180404
853.901	0.0180050
853.979	0.0181101
854.058	0.0180990
854.136	0.0181327
854.214	0.0180128
854.292	0.0180260
854.370	0.0180193
854.448	0.0181361
854.526	0.0181799
854.604	0.0181187
854.683	0.0180824
854.761	0.0179752
854.839	0.0180968
854.917	0.0181190
854.995	0.0180982
855.073	0.0181284
855.151	0.0182143
855.229	0.0180946
855.308	0.0181267
855.386	0.0182410
855.464	0.0181378
855.542	0.0182314
855.620	0.0182452
855.698	0.0182790
855.776	0.0181684
855.854	0.0180662
855.933	0.0180277
856.011	0.0181807
856.089	0.0181110
856.167	0.0183540
856.245	0.0183110
856.323	0.0181516
856.401	0.0182277
856.479	0.0181072
856.558	0.0183366
856.636	0.0181748
856.714	0.0182186
856.792	0.0182125
856.870	0.0182026
856.948	0.0181981
857.026	0.0180298
857.104	0.0182731
857.183	0.0182568
857.261	0.0181421
857.339	0.0182025
857.417	0.0180862
857.495	0.0179776
857.573	0.0180509
857.651	0.0181560
857.729	0.0179952
857.808	0.0180157
857.886	0.0181241
857.964	0.0180745
858.042	0.0180779
858.120	0.0181234
858.198	0.0180679
858.276	0.0180360
858.354	0.0179775
858.433	0.0181457
858.511	0.0180599
858.589	0.0181375
858.667	0.0181532
858.745	0.0181107
858.823	0.0182275
858.901	0.0182287
858.979	0.0182403
859.058	0.0181498
859.136	0.0182420
859.214	0.0181051
859.292	0.0181342
859.370	0.0181278
859.448	0.0182526
859.526	0.0181207
859.604	0.0183010
859.683	0.0182741
859.761	0.0181582
859.839	0.0181535
859.917	0.0182534
859.995	0.0182985
860.073	0.0183051
860.151	0.0181522
860.229	0.0182164
860.308	0.0182013
860.386	0.0182310
860.464	0.0181541
860.542	0.0182152
860.620	0.0180682
860.698	0.0180854
860.776	0.0181741
860.854	0.0181181
860.933	0.0181704
861.011	0.0181078
861.089	0.0179570
861.167	0.0181438
861.245	0.0181436
861.323	0.0180638
861.401	0.0181804
861.479	0.0180571
861.558	0.0179427
861.636	0.0180883
861.714	0.0181819
861.792	0.0181042
861.870	0.0181542
861.948	0.0182197
862.026	0.0180791
862.104	0.0180831
862.183	0.0181522
862.261	0.0181177
862.339	0.0180360
862.417	0.0182434
862.495	0.0182116
862.573	0.0181786
862.651	0.0181283
862.729	0.0181207
862.808	0.0181108
862.886	0.0182630
862.964	0.0182388
863.042	0.0181487
863.120	0.0181371
863.198	0.0182220
863.276	0.0181650
863.354	0.0181060
863.433	0.0181999
863.511	0.0181216
863.589	0.0181471
863.667	0.0182628
863.745	0.0180579
863.823	0.0180391
863.901	0.0181250
863.979	0.0180590
864.058	0.0181619
864.136	0.0181985
864.214	0.0180369
864.292	0.0180244
864.370	0.0180502
864.448	0.0179552
864.526	0.0180472
864.604	0.0180614
864.683	0.0179794
864.761	0.0181057
864.839	0.0181329
864.917	0.0181256
864.995	0.0181288
865.073	0.0180884
865.151	0.0180746
865.229	0.0180235
865.308	0.0181982
865.386	0.0181907
865.464	0.0182648
865.542	0.0181510
865.620	0.0180154
865.698	0.0181090
865.776	0.0181316
865.854	0.0182437
865.933	0.0182026
866.011	0.0182433
866.089	0.0180275
866.167	0.0180006
866.245	0.0181526
866.323	0.0181448
866.401	0.0181596
866.479	0.0180325
866.558	0.0180988
866.636	0.0180524
866.714	0.0181733
866.792	0.0181065
866.870	0.0180811
866.948	0.0180692
867.026	0.0182091
867.104	0.0181780
867.183	0.0181225
867.261	0.0181626
867.339	0.0180732
867.417	0.0180047
867.495	0.0180679
867.573	0.0179574
867.651	0.0180739
867.729	0.0180244
867.808	0.0178477
867.886	0.0180030
867.964	0.0179072
868.042	0.0178795
868.120	0.0179772
868.198	0.0181017
868.276	0.0180238
868.354	0.0180493
868.433	0.0180701
868.511	0.0181268
868.589	0.0181718
868.667	0.0180286
868.745	0.0180717
868.823	0.0181371
868.901	0.0180477
868.979	0.0180119
869.058	0.0181269
869.136	0.0180303
869.214	0.0181219
869.292	0.0181619
869.370	0.0179507
869.448	0.0180315
869.526	0.0179707
869.604	0.0180989
869.683	0.0182114
869.761	0.0180760
869.839	0.0179541
869.917	0.0180347
869.995	0.0182829
870.073	0.0181741
870.151	0.0180929
870.229	0.0180472
870.308	0.0181329
870.386	0.0179768
870.464	0.0180172
870.542	0.0180611
870.620	0.0180016
870.698	0.0180865
870.776	0.0180412
870.854	0.0180858
870.933	0.0180770
871.011	0.0180457
871.089	0.0181230
871.167	0.0181041
871.245	0.0180806
871.323	0.0181286
871.401	0.0180621
871.479	0.0182133
871.558	0.0180254
871.636	0.0181181
871.714	0.0181796
871.792	0.0182919
871.870	0.0181227
871.948	0.0181029
872.026	0.0180877
872.104	0.0180035
872.183	0.0179701
872.261	0.0179306
872.339	0.0181014
872.417	0.0180031
872.495	0.0179373
872.573	0.0181287
872.651	0.0180291
872.729	0.0179362
872.808	0.0180766
872.886	0.0181764
872.964	0.0180006
873.042	0.0180749
873.120	0.0180350
873.198	0.0180004
873.276	0.0180180
873.354	0.0179969
873.433	0.0178828
873.511	0.0181550
873.589	0.0180219
873.667	0.0178622
873.745	0.0178444
873.823	0.0180138
873.901	0.0180235
873.979	0.0179445
874.058	0.0178937
874.136	0.0180221
874.214	0.0181250
874.292	0.0180975
874.370	0.0179559
874.448	0.0179328
874.526	0.0180037
874.604	0.0181135
874.683	0.0180534
874.761	0.0181124
874.839	0.0180219
874.917	0.0181134
874.995	0.0182391
875.073	0.0181480
875.151	0.0181409
875.229	0.0182600
875.308	0.0182006
875.386	0.0181924
875.464	0.0182434
875.542	0.0181551
875.620	0.0182550
875.698	0.0181802
875.776	0.0182315
875.854	0.0181472
875.933	0.0181210
876.011	0.0180881
876.089	0.0181726
876.167	0.0181120
876.245	0.0180684
876.323	0.0180622
876.401	0.0181178
876.479	0.0180761
876.558	0.0180675
876.636	0.0180280
876.714	0.0179758
876.792	0.0180586
876.870	0.0181039
876.948	0.0180538
877.026	0.0181265
877.104	0.0179109
877.183	0.0178560
877.261	0.0179427
877.339	0.0179753
877.417	0.0180621
877.495	0.0179853
877.573	0.0179669
877.651	0.0178645
877.729	0.0178919
877.808	0.0180938
877.886	0.0181190
877.964	0.0179067
878.042	0.0179068
878.120	0.0178885
878.198	0.0180354
878.276	0.0180669
878.354	0.0180756
878.433	0.0181310
878.511	0.0179978
878.589	0.0181396
878.667	0.0181747
878.745	0.0180724
878.823	0.0180632
878.901	0.0181721
878.979	0.0181915
879.058	0.0181052
879.136	0.0181435
879.214	0.0183042
879.292	0.0180767
879.370	0.0180926
879.448	0.0179738
879.526	0.0181609
879.604	0.0182829
879.683	0.0180976
879.761	0.0181303
879.839	0.0182756
879.917	0.0180354
879.995	0.0180492
880.073	0.0181710
880.151	0.0180824
880.229	0.0181624
880.308	0.0182336
880.386	0.0182214
880.464	0.0181479
880.542	0.0181327
880.620	0.0181660
880.698	0.0181056
880.776	0.0181030
880.854	0.0180634
880.933	0.0180283
881.011	0.0179028
881.089	0.0179831
881.167	0.0180332
881.245	0.0179139
881.323	0.0180579
881.401	0.0179534
881.479	0.0180492
881.558	0.0180875
881.636	0.0181216
881.714	0.0180255
881.792	0.0180456
881.870	0.0181078
881.948	0.0181728
882.026	0.0182227
882.104	0.0181113
882.183	0.0182507
882.261	0.0182397
882.339	0.0181893
882.417	0.0181059
882.495	0.0182704
882.573	0.0181332
882.651	0.0182529
882.729	0.0181778
882.808	0.0182025
882.886	0.0181006
882.964	0.0182756
883.042	0.0181052
883.120	0.0180589
883.198	0.0182166
883.276	0.0181722
883.354	0.0181624
883.433	0.0180785
883.511	0.0181100
883.589	0.0181060
883.667	0.0182787
883.745	0.0181371
883.823	0.0181094
883.901	0.0181847
883.979	0.0179868
884.058	0.0181035
884.136	0.0179499
884.214	0.0181393
884.292	0.0181837
884.370	0.0180486
884.448	0.0181297
884.526	0.0182375
884.604	0.0180851
884.683	0.0180305
884.761	0.0182286
884.839	0.0181213
884.917	0.0181328
884.995	0.0181779
885.073	0.0180745
885.151	0.0181297
885.229	0.0180773
885.308	0.0181160
885.386	0.0182100
885.464	0.0181819
885.542	0.0180559
885.620	0.0180687
885.698	0.0181017
885.776	0.0180435
885.854	0.0181515
885.933	0.0181581
886.011	0.0182355
886.089	0.0179962
886.167	0.0180513
886.245	0.0182382
886.323	0.0182606
886.401	0.0181678
886.479	0.0182287
886.558	0.0181506
886.636	0.0181220
886.714	0.0181292
886.792	0.0181324
886.870	0.0182138
886.948	0.0181484
887.026	0.0182326
887.104	0.0183131
887.183	0.0182478
887.261	0.0182032
887.339	0.0181780
887.417	0.0181659
887.495	0.0181340
887.573	0.0182125
887.651	0.0181153
887.729	0.0181785
887.808	0.0181865
887.886	0.0181507
887.964	0.0181561
888.042	0.0182274
888.120	0.0181051
888.198	0.0181415
888.276	0.0180692
888.354	0.0182302
888.433	0.0182030
888.511	0.0179956
888.589	0.0181247
888.667	0.0180421
888.745	0.0181898
888.823	0.0180678
888.901	0.0181556
888.979	0.0182133
889.058	0.0182515
889.136	0.0181931
889.214	0.0181309
889.292	0.0180512
889.370	0.0179752
889.448	0.0180799
889.526	0.0181105
889.604	0.0180542
889.683	0.0181535
889.761	0.0181339
889.839	0.0180260
889.917	0.0181426
889.995	0.0181261
890.073	0.0181236
890.151	0.0182172
890.229	0.0181695
890.308	0.0180038
890.386	0.0180927
890.464	0.0181376
890.542	0.0178970
890.620	0.0181255
890.698	0.0181582
890.776	0.0181118
890.854	0.0181586
890.933	0.0180896
891.011	0.0180075
891.089	0.0180704
891.167	0.0180341
891.245	0.0180189
891.323	0.0180122
891.401	0.0180338
891.479	0.0181363
891.558	0.0180801
891.636	0.0180676
891.714	0.0179929
891.792	0.0180427
891.870	0.0181451
891.948	0.0179808
892.026	0.0180078
892.104	0.0180754
892.183	0.0179376
892.261	0.0180563
892.339	0.0180616
892.417	0.0179852
892.495	0.0181079
892.573	0.0181270
892.651	0.0181059
892.729	0.0180508
892.808	0.0181188
892.886	0.0181006
892.964	0.0180047
893.042	0.0179177
893.120	0.0180663
893.198	0.0180385
893.276	0.0180305
893.354	0.0180743
893.433	0.0180557
893.511	0.0179305
893.589	0.0179375
893.667	0.0180711
893.745	0.0181034
893.823	0.0179871
893.901	0.0180673
893.979	0.0181422
894.058	0.0180952
894.136	0.0179666
894.214	0.0180551
894.292	0.0180202
894.370	0.0180981
894.448	0.0180557
894.526	0.0179947
894.604	0.0180672
894.683	0.0180072
894.761	0.0179591
894.839	0.0180206
894.917	0.0180472
894.995	0.0180680
895.073	0.0180179
895.151	0.0179927
895.229	0.0181009
895.308	0.0181251
895.386	0.0179828
895.464	0.0180817
895.542	0.0180241
895.620	0.0182832
895.698	0.0181522
895.776	0.0181009
895.854	0.0181590
895.933	0.0180553
896.011	0.0182947
896.089	0.0180178
896.167	0.0182441
896.245	0.0181730
896.323	0.0181641
896.401	0.0180487
896.479	0.0182028
896.558	0.0182161
896.636	0.0181486
896.714	0.0182462
896.792	0.0180298
896.870	0.0179540
896.948	0.0180379
897.026	0.0181476
897.104	0.0181008
897.183	0.0179865
897.261	0.0180174
897.339	0.0180748
897.417	0.0182407
897.495	0.0180304
897.573	0.0180604
897.651	0.0179760
897.729	0.0178233
897.808	0.0178419
897.886	0.0178996
897.964	0.0178337
898.042	0.0178931
898.120	0.0178123
898.198	0.0179317
898.276	0.0179210
898.354	0.0180013
898.433	0.0180446
898.511	0.0180250
898.589	0.0179301
898.667	0.0180690
898.745	0.0180652
898.823	0.0181758
898.901	0.0180907
898.979	0.0181036
899.058	0.0181201
899.136	0.0183720
899.214	0.0182051
899.292	0.0182614
899.370	0.0181957
899.448	0.0181783
899.526	0.0181861
899.604	0.0181644
899.683	0.0180431
899.761	0.0182034
899.839	0.0181036
899.917	0.0181454
899.995	0.0181726
900.073	0.0180384
900.151	0.0181131
900.229	0.0182304
900.308	0.0181072
900.386	0.0181470
900.464	0.0180841
900.542	0.0181203
900.620	0.0180634
900.698	0.0180473
900.776	0.0181374
900.854	0.0182172
900.933	0.0182027
901.011	0.0180793
901.089	0.0181794
901.167	0.0182221
901.245	0.0181159
901.323	0.0180381
901.401	0.0180045
901.479	0.0180706
901.558	0.0181104
901.636	0.0181641
901.714	0.0181337
901.792	0.0182306
901.870	0.0180670
901.948	0.0182324
902.026	0.0182268
902.104	0.0182363
902.183	0.0182471
902.261	0.0182329
902.339	0.0181938
902.417	0.0183230
902.495	0.0182806
902.573	0.0182361
902.651	0.0181606
902.729	0.0181686
902.808	0.0181615
902.886	0.0181536
902.964	0.0180319
903.042	0.0181139
903.120	0.0180679
903.198	0.0180355
903.276	0.0181484
903.354	0.0181042
903.433	0.0180692
903.511	0.0181857
903.589	0.0181863
903.667	0.0179774
903.745	0.0181226
903.823	0.0181538
903.901	0.0182329
903.979	0.0181681
904.058	0.0181444
904.136	0.0182231
904.214	0.0181793
904.292	0.0181174
904.370	0.0182057
904.448	0.0182330
904.526	0.0181612
904.604	0.0181194
904.683	0.0180344
904.761	0.0180137
904.839	0.0180418
904.917	0.0180122
904.995	0.0181057
905.073	0.0180315
905.151	0.0180563
905.229	0.0181139
905.308	0.0180746
905.386	0.0181311
905.464	0.0180992
905.542	0.0180080
905.620	0.0180909
905.698	0.0180918
905.776	0.0180552
905.854	0.0182275
905.933	0.0182329
906.011	0.0180843
906.089	0.0181757
906.167	0.0180442
906.245	0.0180951
906.323	0.0181064
906.401	0.0181441
906.479	0.0180972
906.558	0.0180448
906.636	0.0179042
906.714	0.0179813
906.792	0.0180588
906.870	0.0179111
906.948	0.0178594
907.026	0.0179254
907.104	0.0179910
907.183	0.0179204
907.261	0.0180653
907.339	0.0180012
907.417	0.0180366
907.495	0.0180294
907.573	0.0180704
907.651	0.0180214
907.729	0.0179980
907.808	0.0181221
907.886	0.0181303
907.964	0.0180775
908.042	0.0180431
908.120	0.0181105
908.198	0.0181666
908.276	0.0181430
908.354	0.0182523
908.433	0.0182448
908.511	0.0181439
908.589	0.0181291
908.667	0.0179704
908.745	0.0182259
908.823	0.0182018
908.901	0.0181115
908.979	0.0180875
909.058	0.0180158
909.136	0.0180082
909.214	0.0181306
909.292	0.0181393
909.370	0.0180383
909.448	0.0180653
909.526	0.0181602
909.604	0.0180785
909.683	0.0180548
909.761	0.0182105
909.839	0.0180553
909.917	0.0182033
909.995	0.0181617
910.073	0.0181846
910.151	0.0182101
910.229	0.0181391
910.308	0.0181796
910.386	0.0181129
910.464	0.0182243
910.542	0.0182533
910.620	0.0182342
910.698	0.0182769
910.776	0.0182011
910.854	0.0182249
910.933	0.0181166
911.011	0.0180622
911.089	0.0180009
911.167	0.0181939
911.245	0.0181900
911.323	0.0181007
911.401	0.0180360
911.479	0.0179128
911.558	0.0178497
911.636	0.0180017
911.714	0.0179999
911.792	0.0178384
911.870	0.0178938
911.948	0.0178255
912.026	0.0179117
912.104	0.0179102
912.183	0.0182270
912.261	0.0180026
912.339	0.0180578
912.417	0.0179486
912.495	0.0180267
912.573	0.0180556
912.651	0.0179235
912.729	0.0180797
912.808	0.0181199
912.886	0.0180571
912.964	0.0179719
913.042	0.0182468
913.120	0.0181429
913.198	0.0182083
913.276	0.0181510
913.354	0.0181168
913.433	0.0182153
913.511	0.0181728
913.589	0.0180621
913.667	0.0181425
913.745	0.0181513
913.823	0.0179882
913.901	0.0180830
913.979	0.0180358
914.058	0.0181139
914.136	0.0181241
914.214	0.0181258
914.292	0.0181332
914.370	0.0181326
914.448	0.0181115
914.526	0.0181226
914.604	0.0181325
914.683	0.0181139
914.761	0.0180664
914.839	0.0181413
914.917	0.0182487
914.995	0.0180107
915.073	0.0182208
915.151	0.0181899
915.229	0.0182649
915.308	0.0181560
915.386	0.0179329
915.464	0.0180953
915.542	0.0180412
915.620	0.0180659
915.698	0.0181229
915.776	0.0181327
915.854	0.0182108
915.933	0.0182395
916.011	0.0182522
916.089	0.0181709
916.167	0.0182767
916.245	0.0183203
916.323	0.0181089
916.401	0.0181084
916.479	0.0182149
916.558	0.0182394
916.636	0.0183085
916.714	0.0183257
916.792	0.0182183
916.870	0.0181901
916.948	0.0181466
917.026	0.0181029
917.104	0.0181265
917.183	0.0181824
917.261	0.0181456
917.339	0.0180234
917.417	0.0181311
917.495	0.0181668
917.573	0.0180452
917.651	0.0179723
917.729	0.0180742
917.808	0.0181297
917.886	0.0181018
917.964	0.0180643
918.042	0.0180187
918.120	0.0179755
918.198	0.0179490
918.276	0.0179422
918.354	0.0180509
918.433	0.0181895
918.511	0.0179643
918.589	0.0180712
918.667	0.0180765
918.745	0.0180181
918.823	0.0180406
918.901	0.0180846
918.979	0.0178484
919.058	0.0178097
919.136	0.0179427
919.214	0.0181316
919.292	0.0178413
919.370	0.0178520
919.448	0.0179391
919.526	0.0178514
919.604	0.0178313
919.683	0.0179781
919.761	0.0179691
919.839	0.0178963
919.917	0.0179827
