06/03/2022	18:26:44	Ver.	4.1	UNKNOWN
Optical Delay	599.995081	Delta X		0.078125	Sweeps	1	Scan Rate	0/0
Coordinates	Axis 1	NaN	Axis 2	NaN	Axis 3	NaN	Axis 4	NaN	Axis 5	NaN	Axis 6	0.000000
TX Power	0.000000	RX Power	0.000000

599.995	0.0179773
600.073	0.0178657
600.151	0.0180585
600.229	0.0179344
600.308	0.0180029
600.386	0.0179250
600.464	0.0180066
600.542	0.0179314
600.620	0.0179094
600.698	0.0181622
600.776	0.0180144
600.854	0.0179498
600.933	0.0177943
601.011	0.0179670
601.089	0.0179796
601.167	0.0180727
601.245	0.0180183
601.323	0.0178706
601.401	0.0178587
601.479	0.0180199
601.558	0.0180277
601.636	0.0180060
601.714	0.0180987
601.792	0.0180966
601.870	0.0180827
601.948	0.0179771
602.026	0.0179784
602.104	0.0180463
602.183	0.0180594
602.261	0.0180620
602.339	0.0180304
602.417	0.0179592
602.495	0.0179341
602.573	0.0180086
602.651	0.0180089
602.729	0.0179116
602.808	0.0178649
602.886	0.0180515
602.964	0.0179377
603.042	0.0180092
603.120	0.0179780
603.198	0.0181064
603.276	0.0179853
603.354	0.0179497
603.433	0.0181641
603.511	0.0178625
603.589	0.0179120
603.667	0.0179995
603.745	0.0180587
603.823	0.0181606
603.901	0.0180108
603.979	0.0180236
604.058	0.0181115
604.136	0.0179813
604.214	0.0180086
604.292	0.0178148
604.370	0.0180148
604.448	0.0179967
604.526	0.0180476
604.604	0.0180167
604.683	0.0181091
604.761	0.0180116
604.839	0.0179583
604.917	0.0180760
604.995	0.0180926
605.073	0.0180708
605.151	0.0179767
605.229	0.0181360
605.308	0.0181087
605.386	0.0180348
605.464	0.0180798
605.542	0.0180022
605.620	0.0179636
605.698	0.0180816
605.776	0.0180598
605.854	0.0180743
605.933	0.0180157
606.011	0.0179425
606.089	0.0179975
606.167	0.0181281
606.245	0.0181882
606.323	0.0180746
606.401	0.0181429
606.479	0.0181069
606.558	0.0180138
606.636	0.0179942
606.714	0.0180844
606.792	0.0181219
606.870	0.0179781
606.948	0.0180939
607.026	0.0179710
607.104	0.0180971
607.183	0.0179980
607.261	0.0181277
607.339	0.0180237
607.417	0.0180125
607.495	0.0181953
607.573	0.0181152
607.651	0.0180627
607.729	0.0181390
607.808	0.0181089
607.886	0.0180736
607.964	0.0182014
608.042	0.0180978
608.120	0.0179540
608.198	0.0180757
608.276	0.0181480
608.354	0.0179809
608.433	0.0181754
608.511	0.0181020
608.589	0.0180110
608.667	0.0179939
608.745	0.0180386
608.823	0.0181096
608.901	0.0181229
608.979	0.0181020
609.058	0.0181204
609.136	0.0181625
609.214	0.0181057
609.292	0.0180761
609.370	0.0181001
609.448	0.0180457
609.526	0.0180185
609.604	0.0181489
609.683	0.0181261
609.761	0.0181325
609.839	0.0181228
609.917	0.0181065
609.995	0.0180577
610.073	0.0181458
610.151	0.0181751
610.229	0.0181145
610.308	0.0182420
610.386	0.0181303
610.464	0.0180584
610.542	0.0181802
610.620	0.0182597
610.698	0.0182667
610.776	0.0181225
610.854	0.0181911
610.933	0.0181451
611.011	0.0180833
611.089	0.0180834
611.167	0.0182191
611.245	0.0180197
611.323	0.0180276
611.401	0.0182259
611.479	0.0181433
611.558	0.0182584
611.636	0.0180677
611.714	0.0181789
611.792	0.0181282
611.870	0.0182220
611.948	0.0181519
612.026	0.0181602
612.104	0.0181967
612.183	0.0179894
612.261	0.0180878
612.339	0.0181230
612.417	0.0182359
612.495	0.0180157
612.573	0.0180773
612.651	0.0181695
612.729	0.0181460
612.808	0.0182463
612.886	0.0182703
612.964	0.0181716
613.042	0.0180731
613.120	0.0180820
613.198	0.0183470
613.276	0.0182227
613.354	0.0182371
613.433	0.0181290
613.511	0.0182436
613.589	0.0181149
613.667	0.0182670
613.745	0.0182074
613.823	0.0181121
613.901	0.0179473
613.979	0.0180836
614.058	0.0182426
614.136	0.0180199
614.214	0.0178637
614.292	0.0181667
614.370	0.0181635
614.448	0.0180231
614.526	0.0180898
614.604	0.0180968
614.683	0.0180508
614.761	0.0181718
614.839	0.0181851
614.917	0.0181015
614.995	0.0180943
615.073	0.0181142
615.151	0.0181935
615.229	0.0181646
615.308	0.0180926
615.386	0.0180859
615.464	0.0181120
615.542	0.0181098
615.620	0.0181631
615.698	0.0181576
615.776	0.0181497
615.854	0.0181843
615.933	0.0181255
616.011	0.0180737
616.089	0.0182244
616.167	0.0180965
616.245	0.0181313
616.323	0.0180578
616.401	0.0182226
616.479	0.0181755
616.558	0.0180628
616.636	0.0181038
616.714	0.0182568
616.792	0.0182072
616.870	0.0179510
616.948	0.0180860
617.026	0.0181124
617.104	0.0182691
617.183	0.0182043
617.261	0.0181464
617.339	0.0181575
617.417	0.0181213
617.495	0.0183696
617.573	0.0182304
617.651	0.0181459
617.729	0.0181217
617.808	0.0181140
617.886	0.0181223
617.964	0.0181290
618.042	0.0182339
618.120	0.0181212
618.198	0.0179626
618.276	0.0181427
618.354	0.0181197
618.433	0.0180916
618.511	0.0182723
618.589	0.0181062
618.667	0.0179221
618.745	0.0181303
618.823	0.0181670
618.901	0.0181264
618.979	0.0180042
619.058	0.0180598
619.136	0.0180838
619.214	0.0180296
619.292	0.0180624
619.370	0.0178815
619.448	0.0179569
619.526	0.0181506
619.604	0.0179863
619.683	0.0180781
619.761	0.0180132
619.839	0.0179521
619.917	0.0179874
619.995	0.0181065
620.073	0.0180029
620.151	0.0178656
620.229	0.0179375
620.308	0.0179625
620.386	0.0179730
620.464	0.0178983
620.542	0.0179461
620.620	0.0179516
620.698	0.0178234
620.776	0.0178893
620.854	0.0178177
620.933	0.0178175
621.011	0.0177861
621.089	0.0179377
621.167	0.0179269
621.245	0.0178276
621.323	0.0178634
621.401	0.0177824
621.479	0.0177787
621.558	0.0178040
621.636	0.0178861
621.714	0.0178529
621.792	0.0178553
621.870	0.0177653
621.948	0.0178436
622.026	0.0178326
622.104	0.0178246
622.183	0.0179720
622.261	0.0179206
622.339	0.0179713
622.417	0.0179753
622.495	0.0181864
622.573	0.0181500
622.651	0.0180770
622.729	0.0179757
622.808	0.0179667
622.886	0.0179905
622.964	0.0181437
623.042	0.0181481
623.120	0.0180166
623.198	0.0181211
623.276	0.0180409
623.354	0.0182104
623.433	0.0179744
623.511	0.0179530
623.589	0.0178619
623.667	0.0180163
623.745	0.0180668
623.823	0.0179611
623.901	0.0179201
623.979	0.0179190
624.058	0.0179130
624.136	0.0179184
624.214	0.0178294
624.292	0.0178536
624.370	0.0179121
624.448	0.0177496
624.526	0.0177655
624.604	0.0178941
624.683	0.0179467
624.761	0.0177795
624.839	0.0178423
624.917	0.0179141
624.995	0.0179088
625.073	0.0178114
625.151	0.0178143
625.229	0.0181084
625.308	0.0180186
625.386	0.0180353
625.464	0.0178626
625.542	0.0178900
625.620	0.0179611
625.698	0.0179824
625.776	0.0180834
625.854	0.0179094
625.933	0.0179897
626.011	0.0180769
626.089	0.0180067
626.167	0.0179361
626.245	0.0179392
626.323	0.0180199
626.401	0.0180225
626.479	0.0180726
626.558	0.0179614
626.636	0.0180689
626.714	0.0180613
626.792	0.0181365
626.870	0.0180608
626.948	0.0180409
627.026	0.0181842
627.104	0.0180547
627.183	0.0181600
627.261	0.0181765
627.339	0.0181899
627.417	0.0181721
627.495	0.0181173
627.573	0.0181245
627.651	0.0182242
627.729	0.0182368
627.808	0.0182924
627.886	0.0181437
627.964	0.0182297
628.042	0.0182073
628.120	0.0182604
628.198	0.0182624
628.276	0.0181401
628.354	0.0182400
628.433	0.0182331
628.511	0.0181911
628.589	0.0183281
628.667	0.0181139
628.745	0.0181816
628.823	0.0182870
628.901	0.0180090
628.979	0.0182682
629.058	0.0181251
629.136	0.0181412
629.214	0.0180775
629.292	0.0182982
629.370	0.0181721
629.448	0.0181934
629.526	0.0182430
629.604	0.0182017
629.683	0.0181975
629.761	0.0181908
629.839	0.0182640
629.917	0.0180312
629.995	0.0180221
630.073	0.0183131
630.151	0.0181420
630.229	0.0181202
630.308	0.0180837
630.386	0.0183823
630.464	0.0181126
630.542	0.0180016
630.620	0.0181026
630.698	0.0181963
630.776	0.0181725
630.854	0.0182158
630.933	0.0182391
631.011	0.0183144
631.089	0.0182482
631.167	0.0182649
631.245	0.0181998
631.323	0.0181932
631.401	0.0181549
631.479	0.0181910
631.558	0.0183247
631.636	0.0183469
631.714	0.0182729
631.792	0.0181556
631.870	0.0182585
631.948	0.0183292
632.026	0.0181409
632.104	0.0181924
632.183	0.0181653
632.261	0.0181931
632.339	0.0183263
632.417	0.0182198
632.495	0.0181879
632.573	0.0182032
632.651	0.0183089
632.729	0.0183533
632.808	0.0182332
632.886	0.0182509
632.964	0.0182389
633.042	0.0181992
633.120	0.0182685
633.198	0.0182950
633.276	0.0180972
633.354	0.0183097
633.433	0.0182993
633.511	0.0181582
633.589	0.0182293
633.667	0.0182066
633.745	0.0180613
633.823	0.0182522
633.901	0.0181828
633.979	0.0181544
634.058	0.0180807
634.136	0.0181316
634.214	0.0181590
634.292	0.0181478
634.370	0.0181350
634.448	0.0182772
634.526	0.0182136
634.604	0.0182461
634.683	0.0181293
634.761	0.0181021
634.839	0.0181474
634.917	0.0182838
634.995	0.0181908
635.073	0.0179870
635.151	0.0180977
635.229	0.0181896
635.308	0.0180589
635.386	0.0180550
635.464	0.0180101
635.542	0.0181779
635.620	0.0181091
635.698	0.0179661
635.776	0.0180417
635.854	0.0181098
635.933	0.0179304
636.011	0.0179973
636.089	0.0181716
636.167	0.0180129
636.245	0.0181642
636.323	0.0181706
636.401	0.0181091
636.479	0.0182516
636.558	0.0180968
636.636	0.0181250
636.714	0.0180717
636.792	0.0182183
636.870	0.0180013
636.948	0.0179622
637.026	0.0180190
637.104	0.0181939
637.183	0.0179449
637.261	0.0180591
637.339	0.0181752
637.417	0.0180629
637.495	0.0180842
637.573	0.0179806
637.651	0.0181026
637.729	0.0180066
637.808	0.0181145
637.886	0.0181530
637.964	0.0181406
638.042	0.0179513
638.120	0.0181727
638.198	0.0181186
638.276	0.0181556
638.354	0.0182543
638.433	0.0180926
638.511	0.0181161
638.589	0.0181311
638.667	0.0181030
638.745	0.0180068
638.823	0.0180904
638.901	0.0180879
638.979	0.0180514
639.058	0.0181094
639.136	0.0180496
639.214	0.0180051
639.292	0.0180843
639.370	0.0180342
639.448	0.0181167
639.526	0.0180161
639.604	0.0179509
639.683	0.0178615
639.761	0.0180389
639.839	0.0179378
639.917	0.0180194
639.995	0.0178847
640.073	0.0179633
640.151	0.0180820
640.229	0.0178979
640.308	0.0179396
640.386	0.0180875
640.464	0.0181348
640.542	0.0180424
640.620	0.0180098
640.698	0.0180676
640.776	0.0179258
640.854	0.0179773
640.933	0.0181483
641.011	0.0181353
641.089	0.0179177
641.167	0.0180978
641.245	0.0179810
641.323	0.0178867
641.401	0.0180177
641.479	0.0180145
641.558	0.0179846
641.636	0.0180214
641.714	0.0179898
641.792	0.0179673
641.870	0.0179859
641.948	0.0181291
642.026	0.0180980
642.104	0.0182582
642.183	0.0181512
642.261	0.0179360
642.339	0.0180577
642.417	0.0179002
642.495	0.0180771
642.573	0.0180442
642.651	0.0181245
642.729	0.0181886
642.808	0.0181838
642.886	0.0180743
642.964	0.0178882
643.042	0.0181413
643.120	0.0181512
643.198	0.0180462
643.276	0.0179910
643.354	0.0180768
643.433	0.0179975
643.511	0.0179689
643.589	0.0180788
643.667	0.0179954
643.745	0.0179619
643.823	0.0180341
643.901	0.0181366
643.979	0.0180030
644.058	0.0180988
644.136	0.0180061
644.214	0.0180463
644.292	0.0180995
644.370	0.0180403
644.448	0.0180580
644.526	0.0182270
644.604	0.0181303
644.683	0.0181810
644.761	0.0181071
644.839	0.0180737
644.917	0.0181379
644.995	0.0181006
645.073	0.0181311
645.151	0.0181692
645.229	0.0181940
645.308	0.0182345
645.386	0.0180380
645.464	0.0181269
645.542	0.0179778
645.620	0.0180031
645.698	0.0181408
645.776	0.0181784
645.854	0.0180811
645.933	0.0180572
646.011	0.0180161
646.089	0.0179665
646.167	0.0180948
646.245	0.0180103
646.323	0.0179256
646.401	0.0179280
646.479	0.0180756
646.558	0.0181297
646.636	0.0179697
646.714	0.0180535
646.792	0.0180787
646.870	0.0181630
646.948	0.0182237
647.026	0.0180621
647.104	0.0179884
647.183	0.0179590
647.261	0.0181820
647.339	0.0179080
647.417	0.0179807
647.495	0.0180688
647.573	0.0180313
647.651	0.0180373
647.729	0.0180853
647.808	0.0181303
647.886	0.0181252
647.964	0.0180988
648.042	0.0181415
648.120	0.0181034
648.198	0.0180209
648.276	0.0182573
648.354	0.0182067
648.433	0.0181239
648.511	0.0182470
648.589	0.0181041
648.667	0.0180380
648.745	0.0180714
648.823	0.0181451
648.901	0.0180875
648.979	0.0180923
649.058	0.0180827
649.136	0.0179601
649.214	0.0180655
649.292	0.0180497
649.370	0.0180304
649.448	0.0180533
649.526	0.0181162
649.604	0.0181419
649.683	0.0181214
649.761	0.0182461
649.839	0.0180659
649.917	0.0182059
649.995	0.0182259
650.073	0.0181208
650.151	0.0181841
650.229	0.0182861
650.308	0.0181745
650.386	0.0181901
650.464	0.0183153
650.542	0.0182163
650.620	0.0181883
650.698	0.0181031
650.776	0.0180985
650.854	0.0180584
650.933	0.0180794
651.011	0.0181139
651.089	0.0180114
651.167	0.0179906
651.245	0.0180205
651.323	0.0180640
651.401	0.0180105
651.479	0.0181255
651.558	0.0180912
651.636	0.0181823
651.714	0.0181513
651.792	0.0182823
651.870	0.0184344
651.948	0.0182846
652.026	0.0183393
652.104	0.0182859
652.183	0.0183740
652.261	0.0181898
652.339	0.0182247
652.417	0.0182888
652.495	0.0181693
652.573	0.0182485
652.651	0.0182716
652.729	0.0181364
652.808	0.0181477
652.886	0.0181641
652.964	0.0180819
653.042	0.0181942
653.120	0.0180494
653.198	0.0181237
653.276	0.0182297
653.354	0.0183369
653.433	0.0181249
653.511	0.0182320
653.589	0.0183411
653.667	0.0183882
653.745	0.0182612
653.823	0.0183039
653.901	0.0183542
653.979	0.0181161
654.058	0.0181788
654.136	0.0183644
654.214	0.0180829
654.292	0.0181298
654.370	0.0180872
654.448	0.0181331
654.526	0.0179658
654.604	0.0181322
654.683	0.0180519
654.761	0.0181281
654.839	0.0181938
654.917	0.0180373
654.995	0.0182545
655.073	0.0181966
655.151	0.0181991
655.229	0.0182560
655.308	0.0182623
655.386	0.0182568
655.464	0.0183145
655.542	0.0182378
655.620	0.0181632
655.698	0.0182844
655.776	0.0183220
655.854	0.0181684
655.933	0.0182697
656.011	0.0183218
656.089	0.0182220
656.167	0.0180312
656.245	0.0180267
656.323	0.0181916
656.401	0.0181449
656.479	0.0180853
656.558	0.0181680
656.636	0.0181642
656.714	0.0180318
656.792	0.0180776
656.870	0.0180616
656.948	0.0181444
657.026	0.0181242
657.104	0.0179897
657.183	0.0180740
657.261	0.0181330
657.339	0.0181573
657.417	0.0181351
657.495	0.0181596
657.573	0.0181893
657.651	0.0182519
657.729	0.0182310
657.808	0.0182416
657.886	0.0182417
657.964	0.0181812
658.042	0.0181268
658.120	0.0182460
658.198	0.0181059
658.276	0.0180755
658.354	0.0181229
658.433	0.0181870
658.511	0.0180692
658.589	0.0181015
658.667	0.0180517
658.745	0.0179273
658.823	0.0179424
658.901	0.0180723
658.979	0.0180819
659.058	0.0180399
659.136	0.0182539
659.214	0.0180914
659.292	0.0181526
659.370	0.0180508
659.448	0.0180993
659.526	0.0181506
659.604	0.0182635
659.683	0.0181484
659.761	0.0181042
659.839	0.0181921
659.917	0.0182052
659.995	0.0180543
660.073	0.0180652
660.151	0.0180805
660.229	0.0179800
660.308	0.0179905
660.386	0.0179774
660.464	0.0180432
660.542	0.0180962
660.620	0.0181310
660.698	0.0180750
660.776	0.0181237
660.854	0.0179456
660.933	0.0180610
661.011	0.0180779
661.089	0.0182007
661.167	0.0179400
661.245	0.0179512
661.323	0.0181824
661.401	0.0180660
661.479	0.0180193
661.558	0.0181034
661.636	0.0181732
661.714	0.0182819
661.792	0.0181474
661.870	0.0180224
661.948	0.0181345
662.026	0.0181418
662.104	0.0181490
662.183	0.0181612
662.261	0.0180270
662.339	0.0179604
662.417	0.0181301
662.495	0.0181600
662.573	0.0180544
662.651	0.0180400
662.729	0.0181232
662.808	0.0181025
662.886	0.0180394
662.964	0.0181417
663.042	0.0181896
663.120	0.0179638
663.198	0.0181917
663.276	0.0181233
663.354	0.0181644
663.433	0.0181165
663.511	0.0179907
663.589	0.0181738
663.667	0.0180536
663.745	0.0181979
663.823	0.0182507
663.901	0.0180933
663.979	0.0182637
664.058	0.0182227
664.136	0.0182379
664.214	0.0182706
664.292	0.0181280
664.370	0.0182502
664.448	0.0181612
664.526	0.0181841
664.604	0.0181553
664.683	0.0180203
664.761	0.0181574
664.839	0.0180395
664.917	0.0181508
664.995	0.0180743
665.073	0.0180955
665.151	0.0180518
665.229	0.0181469
665.308	0.0180080
665.386	0.0181296
665.464	0.0181467
665.542	0.0183388
665.620	0.0181730
665.698	0.0181872
665.776	0.0181898
665.854	0.0183284
665.933	0.0181458
666.011	0.0181267
666.089	0.0183197
666.167	0.0182397
666.245	0.0181496
666.323	0.0181107
666.401	0.0181242
666.479	0.0181725
666.558	0.0180912
666.636	0.0180951
666.714	0.0180262
666.792	0.0179102
666.870	0.0181341
666.948	0.0180732
667.026	0.0180116
667.104	0.0179687
667.183	0.0180602
667.261	0.0181709
667.339	0.0180111
667.417	0.0181416
667.495	0.0181830
667.573	0.0181203
667.651	0.0181399
667.729	0.0181828
667.808	0.0181863
667.886	0.0181954
667.964	0.0182230
668.042	0.0181760
668.120	0.0181403
668.198	0.0180778
668.276	0.0180553
668.354	0.0180045
668.433	0.0180160
668.511	0.0181098
668.589	0.0181602
668.667	0.0178951
668.745	0.0180733
668.823	0.0180521
668.901	0.0179800
668.979	0.0180686
669.058	0.0180965
669.136	0.0180325
669.214	0.0182124
669.292	0.0183174
669.370	0.0180951
669.448	0.0181285
669.526	0.0182067
669.604	0.0181525
669.683	0.0181725
669.761	0.0183139
669.839	0.0182430
669.917	0.0181679
669.995	0.0182046
670.073	0.0182036
670.151	0.0180796
670.229	0.0181505
670.308	0.0181712
670.386	0.0178819
670.464	0.0180135
670.542	0.0182313
670.620	0.0180859
670.698	0.0181802
670.776	0.0181510
670.854	0.0181734
670.933	0.0180071
671.011	0.0181813
671.089	0.0181191
671.167	0.0181702
671.245	0.0181705
671.323	0.0181659
671.401	0.0182650
671.479	0.0180919
671.558	0.0180167
671.636	0.0181462
671.714	0.0183128
671.792	0.0181648
671.870	0.0181665
671.948	0.0182888
672.026	0.0181625
672.104	0.0181223
672.183	0.0182352
672.261	0.0182452
672.339	0.0180897
672.417	0.0180789
672.495	0.0180500
672.573	0.0180610
672.651	0.0180847
672.729	0.0180079
672.808	0.0181504
672.886	0.0180566
672.964	0.0178937
673.042	0.0178609
673.120	0.0180340
673.198	0.0180865
673.276	0.0181261
673.354	0.0180473
673.433	0.0180276
673.511	0.0180533
673.589	0.0179903
673.667	0.0180363
673.745	0.0180424
673.823	0.0179914
673.901	0.0181785
673.979	0.0181089
674.058	0.0181398
674.136	0.0182122
674.214	0.0182179
674.292	0.0182320
674.370	0.0182136
674.448	0.0182643
674.526	0.0181068
674.604	0.0181944
674.683	0.0182441
674.761	0.0181971
674.839	0.0183262
674.917	0.0182658
674.995	0.0181447
675.073	0.0180728
675.151	0.0181858
675.229	0.0181683
675.308	0.0181847
675.386	0.0182590
675.464	0.0181657
675.542	0.0180103
675.620	0.0180161
675.698	0.0181882
675.776	0.0180394
675.854	0.0181379
675.933	0.0182736
676.011	0.0182162
676.089	0.0180389
676.167	0.0182206
676.245	0.0183669
676.323	0.0182157
676.401	0.0181588
676.479	0.0181361
676.558	0.0181928
676.636	0.0180956
676.714	0.0181108
676.792	0.0181091
676.870	0.0181979
676.948	0.0181704
677.026	0.0180064
677.104	0.0179929
677.183	0.0179401
677.261	0.0180921
677.339	0.0180231
677.417	0.0181597
677.495	0.0180128
677.573	0.0179715
677.651	0.0179162
677.729	0.0178922
677.808	0.0177805
677.886	0.0178919
677.964	0.0178317
678.042	0.0178024
678.120	0.0177042
678.198	0.0177482
678.276	0.0178484
678.354	0.0176597
678.433	0.0177074
678.511	0.0177203
678.589	0.0176952
678.667	0.0177770
678.745	0.0177429
678.823	0.0176527
678.901	0.0177665
678.979	0.0177946
679.058	0.0176986
679.136	0.0179321
679.214	0.0179913
679.292	0.0181374
679.370	0.0180396
679.448	0.0181095
679.526	0.0182075
679.604	0.0180767
679.683	0.0182058
679.761	0.0182655
679.839	0.0181625
679.917	0.0181069
679.995	0.0183817
680.073	0.0181034
680.151	0.0180392
680.229	0.0181342
680.308	0.0182156
680.386	0.0180765
680.464	0.0181399
680.542	0.0179573
680.620	0.0180820
680.698	0.0181429
680.776	0.0180962
680.854	0.0179811
680.933	0.0180685
681.011	0.0181115
681.089	0.0179913
681.167	0.0179891
681.245	0.0178011
681.323	0.0179214
681.401	0.0178577
681.479	0.0180526
681.558	0.0178024
681.636	0.0178345
681.714	0.0179180
681.792	0.0179075
681.870	0.0178366
681.948	0.0179898
682.026	0.0179649
682.104	0.0178672
682.183	0.0179176
682.261	0.0178200
682.339	0.0179826
682.417	0.0178536
682.495	0.0176782
682.573	0.0177454
682.651	0.0179092
682.729	0.0177824
682.808	0.0178445
682.886	0.0176788
682.964	0.0177589
683.042	0.0178001
683.120	0.0177604
683.198	0.0177299
683.276	0.0179453
683.354	0.0178905
683.433	0.0178180
683.511	0.0178049
683.589	0.0179530
683.667	0.0178549
683.745	0.0179134
683.823	0.0180745
683.901	0.0178569
683.979	0.0180977
684.058	0.0179791
684.136	0.0180699
684.214	0.0182008
684.292	0.0182141
684.370	0.0180502
684.448	0.0182142
684.526	0.0182744
684.604	0.0182384
684.683	0.0181119
684.761	0.0182442
684.839	0.0182047
684.917	0.0180658
684.995	0.0181516
685.073	0.0182357
685.151	0.0182621
685.229	0.0182180
685.308	0.0181824
685.386	0.0181706
685.464	0.0183483
685.542	0.0183260
685.620	0.0181738
685.698	0.0182423
685.776	0.0182211
685.854	0.0180712
685.933	0.0180398
686.011	0.0180942
686.089	0.0180357
686.167	0.0179907
686.245	0.0179439
686.323	0.0181842
686.401	0.0180067
686.479	0.0180415
686.558	0.0180681
686.636	0.0179955
686.714	0.0179331
686.792	0.0181025
686.870	0.0181173
686.948	0.0179580
687.026	0.0180034
687.104	0.0180584
687.183	0.0180605
687.261	0.0179353
687.339	0.0179844
687.417	0.0179838
687.495	0.0178553
687.573	0.0178980
687.651	0.0180235
687.729	0.0179311
687.808	0.0178036
687.886	0.0177950
687.964	0.0177934
688.042	0.0178911
688.120	0.0176968
688.198	0.0176687
688.276	0.0178426
688.354	0.0178828
688.433	0.0178191
688.511	0.0177888
688.589	0.0177708
688.667	0.0179829
688.745	0.0181451
688.823	0.0180398
688.901	0.0181233
688.979	0.0180605
689.058	0.0181334
689.136	0.0183386
689.214	0.0184466
689.292	0.0183825
689.370	0.0182566
689.448	0.0183647
689.526	0.0183356
689.604	0.0184202
689.683	0.0184319
689.761	0.0182980
689.839	0.0184768
689.917	0.0182918
689.995	0.0183215
690.073	0.0183260
690.151	0.0183381
690.229	0.0182484
690.308	0.0181924
690.386	0.0181288
690.464	0.0181937
690.542	0.0180706
690.620	0.0181818
690.698	0.0180467
690.776	0.0180083
690.854	0.0180657
690.933	0.0180327
691.011	0.0180235
691.089	0.0180885
691.167	0.0180843
691.245	0.0180901
691.323	0.0180227
691.401	0.0179472
691.479	0.0178802
691.558	0.0181120
691.636	0.0180489
691.714	0.0180573
691.792	0.0182420
691.870	0.0181251
691.948	0.0181060
692.026	0.0180876
692.104	0.0180631
692.183	0.0180444
692.261	0.0181524
692.339	0.0183075
692.417	0.0182677
692.495	0.0181855
692.573	0.0182188
692.651	0.0181546
692.729	0.0183878
692.808	0.0182611
692.886	0.0181856
692.964	0.0181615
693.042	0.0180003
693.120	0.0181171
693.198	0.0182031
693.276	0.0180952
693.354	0.0181036
693.433	0.0180408
693.511	0.0179379
693.589	0.0181026
693.667	0.0180515
693.745	0.0180917
693.823	0.0180255
693.901	0.0179948
693.979	0.0181529
694.058	0.0181809
694.136	0.0180935
694.214	0.0181519
694.292	0.0183751
694.370	0.0182281
694.448	0.0181136
694.526	0.0182629
694.604	0.0181394
694.683	0.0181334
694.761	0.0182446
694.839	0.0182841
694.917	0.0182587
694.995	0.0182438
695.073	0.0181776
695.151	0.0181744
695.229	0.0182117
695.308	0.0181584
695.386	0.0181197
695.464	0.0181413
695.542	0.0181482
695.620	0.0181554
695.698	0.0180679
695.776	0.0180672
695.854	0.0180425
695.933	0.0179204
696.011	0.0179405
696.089	0.0180050
696.167	0.0179280
696.245	0.0179729
696.323	0.0179339
696.401	0.0178389
696.479	0.0178008
696.558	0.0177603
696.636	0.0178220
696.714	0.0178752
696.792	0.0179118
696.870	0.0177673
696.948	0.0176563
697.026	0.0178387
697.104	0.0180466
697.183	0.0180731
697.261	0.0180390
697.339	0.0182447
697.417	0.0181963
697.495	0.0180355
697.573	0.0181534
697.651	0.0183161
697.729	0.0182534
697.808	0.0183287
697.886	0.0182948
697.964	0.0183720
698.042	0.0183817
698.120	0.0182321
698.198	0.0182472
698.276	0.0182108
698.354	0.0183062
698.433	0.0182136
698.511	0.0181400
698.589	0.0180008
698.667	0.0180176
698.745	0.0181861
698.823	0.0180094
698.901	0.0181181
698.979	0.0180898
699.058	0.0180448
699.136	0.0181650
699.214	0.0179898
699.292	0.0180135
699.370	0.0181553
699.448	0.0179585
699.526	0.0180536
699.604	0.0180317
699.683	0.0179716
699.761	0.0179124
699.839	0.0178620
699.917	0.0179325
699.995	0.0179034
700.073	0.0178997
700.151	0.0179350
700.229	0.0178634
700.308	0.0178021
700.386	0.0176929
700.464	0.0176540
700.542	0.0177436
700.620	0.0178356
700.698	0.0175442
700.776	0.0176932
700.854	0.0177468
700.933	0.0177496
701.011	0.0176385
701.089	0.0178029
701.167	0.0177230
701.245	0.0177613
701.323	0.0178438
701.401	0.0180241
701.479	0.0178409
701.558	0.0179868
701.636	0.0179345
701.714	0.0180581
701.792	0.0179899
701.870	0.0180772
701.948	0.0179835
702.026	0.0180885
702.104	0.0182879
702.183	0.0179730
702.261	0.0179129
702.339	0.0180211
702.417	0.0180092
702.495	0.0179222
702.573	0.0179369
702.651	0.0177882
702.729	0.0176710
702.808	0.0177396
702.886	0.0176104
702.964	0.0175847
703.042	0.0174315
703.120	0.0174290
703.198	0.0176807
703.276	0.0176942
703.354	0.0175540
703.433	0.0175312
703.511	0.0176582
703.589	0.0177153
703.667	0.0178127
703.745	0.0179582
703.823	0.0180922
703.901	0.0181530
703.979	0.0183064
704.058	0.0182719
704.136	0.0183189
704.214	0.0183530
704.292	0.0185727
704.370	0.0185458
704.448	0.0187151
704.526	0.0185287
704.604	0.0186690
704.683	0.0184555
704.761	0.0183134
704.839	0.0182076
704.917	0.0182583
704.995	0.0183038
705.073	0.0180587
705.151	0.0178390
705.229	0.0179730
705.308	0.0177350
705.386	0.0177393
705.464	0.0176512
705.542	0.0175335
705.620	0.0175437
705.698	0.0175500
705.776	0.0175175
705.854	0.0174120
705.933	0.0174521
706.011	0.0174578
706.089	0.0176541
706.167	0.0176280
706.245	0.0176903
706.323	0.0179033
706.401	0.0178732
706.479	0.0179486
706.558	0.0181643
706.636	0.0182189
706.714	0.0182474
706.792	0.0182387
706.870	0.0184039
706.948	0.0184540
707.026	0.0185164
707.104	0.0184972
707.183	0.0184418
707.261	0.0185174
707.339	0.0185506
707.417	0.0183091
707.495	0.0186151
707.573	0.0185690
707.651	0.0183025
707.729	0.0184103
707.808	0.0184014
707.886	0.0181578
707.964	0.0181006
708.042	0.0179951
708.120	0.0179156
708.198	0.0180196
708.276	0.0178403
708.354	0.0176392
708.433	0.0175463
708.511	0.0176530
708.589	0.0176140
708.667	0.0174918
708.745	0.0174589
708.823	0.0174617
708.901	0.0175316
708.979	0.0175820
709.058	0.0173928
709.136	0.0174185
709.214	0.0174715
709.292	0.0174953
709.370	0.0175766
709.448	0.0176439
709.526	0.0176642
709.604	0.0178445
709.683	0.0179128
709.761	0.0180446
709.839	0.0179463
709.917	0.0181295
709.995	0.0181218
710.073	0.0181171
710.151	0.0182901
710.229	0.0182617
710.308	0.0182775
710.386	0.0183376
710.464	0.0184063
710.542	0.0184408
710.620	0.0183899
710.698	0.0182657
710.776	0.0183317
710.854	0.0182652
710.933	0.0182817
711.011	0.0184626
711.089	0.0181950
711.167	0.0184083
711.245	0.0182980
711.323	0.0182301
711.401	0.0183993
711.479	0.0182059
711.558	0.0183424
711.636	0.0182421
711.714	0.0182928
711.792	0.0182364
711.870	0.0181597
711.948	0.0182454
712.026	0.0181156
712.104	0.0182295
712.183	0.0181937
712.261	0.0181727
712.339	0.0180975
712.417	0.0180195
712.495	0.0178951
712.573	0.0179031
712.651	0.0176546
712.729	0.0177277
712.808	0.0176851
712.886	0.0174945
712.964	0.0175897
713.042	0.0175024
713.120	0.0174199
713.198	0.0176065
713.276	0.0177774
713.354	0.0177486
713.433	0.0178922
713.511	0.0180378
713.589	0.0182516
713.667	0.0182156
713.745	0.0184718
713.823	0.0186246
713.901	0.0187704
713.979	0.0187091
714.058	0.0189407
714.136	0.0188919
714.214	0.0188077
714.292	0.0189365
714.370	0.0187148
714.448	0.0185861
714.526	0.0185839
714.604	0.0185665
714.683	0.0182965
714.761	0.0182251
714.839	0.0182323
714.917	0.0181265
714.995	0.0179370
715.073	0.0178426
715.151	0.0177380
715.229	0.0176548
715.308	0.0176987
715.386	0.0176338
715.464	0.0174865
715.542	0.0176457
715.620	0.0176666
715.698	0.0178344
715.776	0.0177367
715.854	0.0177327
715.933	0.0175854
716.011	0.0177534
716.089	0.0178092
716.167	0.0177338
716.245	0.0177522
716.323	0.0177760
716.401	0.0178359
716.479	0.0178667
716.558	0.0178320
716.636	0.0178571
716.714	0.0179526
716.792	0.0179144
716.870	0.0179566
716.948	0.0179605
717.026	0.0180806
717.104	0.0182433
717.183	0.0180255
717.261	0.0181502
717.339	0.0181963
717.417	0.0182373
717.495	0.0182285
717.573	0.0181190
717.651	0.0181744
717.729	0.0183318
717.808	0.0182840
717.886	0.0180876
717.964	0.0182410
718.042	0.0182439
718.120	0.0181499
718.198	0.0181825
718.276	0.0182056
718.354	0.0183241
718.433	0.0183594
718.511	0.0183679
718.589	0.0184001
718.667	0.0183888
718.745	0.0185661
718.823	0.0184988
718.901	0.0186372
718.979	0.0186063
719.058	0.0187272
719.136	0.0188022
719.214	0.0188693
719.292	0.0188266
719.370	0.0187942
719.448	0.0188557
719.526	0.0187557
719.604	0.0186648
719.683	0.0187241
719.761	0.0186204
719.839	0.0185704
719.917	0.0185766
719.995	0.0182500
720.073	0.0182072
720.151	0.0182022
720.229	0.0178534
720.308	0.0177840
720.386	0.0175755
720.464	0.0176484
720.542	0.0172324
720.620	0.0172112
720.698	0.0170470
720.776	0.0168862
720.854	0.0168718
720.933	0.0169234
721.011	0.0168109
721.089	0.0167403
721.167	0.0167864
721.245	0.0168669
721.323	0.0169424
721.401	0.0171076
721.479	0.0169805
721.558	0.0171761
721.636	0.0174861
721.714	0.0175788
721.792	0.0177015
721.870	0.0179530
721.948	0.0178873
722.026	0.0179706
722.104	0.0181870
722.183	0.0183434
722.261	0.0183907
722.339	0.0184599
722.417	0.0184460
722.495	0.0184697
722.573	0.0186555
722.651	0.0187513
722.729	0.0187549
722.808	0.0187735
722.886	0.0187334
722.964	0.0187038
723.042	0.0187928
723.120	0.0187414
723.198	0.0185913
723.276	0.0186349
723.354	0.0185490
723.433	0.0185432
723.511	0.0184291
723.589	0.0183649
723.667	0.0184479
723.745	0.0182328
723.823	0.0181837
723.901	0.0181664
723.979	0.0179792
724.058	0.0181158
724.136	0.0180908
724.214	0.0179864
724.292	0.0179454
724.370	0.0180094
724.448	0.0179347
724.526	0.0180450
724.604	0.0180157
724.683	0.0180921
724.761	0.0181151
724.839	0.0180666
724.917	0.0179109
724.995	0.0180591
725.073	0.0181142
725.151	0.0181139
725.229	0.0180130
725.308	0.0180136
725.386	0.0179867
725.464	0.0180437
725.542	0.0180511
725.620	0.0178995
725.698	0.0178268
725.776	0.0179453
725.854	0.0179562
725.933	0.0179930
726.011	0.0178001
726.089	0.0179857
726.167	0.0180619
726.245	0.0180320
726.323	0.0180519
726.401	0.0180877
726.479	0.0181299
726.558	0.0180835
726.636	0.0181428
726.714	0.0181637
726.792	0.0180880
726.870	0.0181489
726.948	0.0180431
727.026	0.0181277
727.104	0.0183025
727.183	0.0181948
727.261	0.0181672
727.339	0.0182348
727.417	0.0183077
727.495	0.0182890
727.573	0.0181422
727.651	0.0181224
727.729	0.0182491
727.808	0.0181429
727.886	0.0182121
727.964	0.0180401
728.042	0.0182240
728.120	0.0181310
728.198	0.0181757
728.276	0.0182029
728.354	0.0180746
728.433	0.0181754
728.511	0.0181652
728.589	0.0180877
728.667	0.0183553
728.745	0.0182272
728.823	0.0179817
728.901	0.0181938
728.979	0.0182003
729.058	0.0180688
729.136	0.0181073
729.214	0.0180246
729.292	0.0180293
729.370	0.0180006
729.448	0.0178555
729.526	0.0178503
729.604	0.0178616
729.683	0.0179086
729.761	0.0179534
729.839	0.0178158
729.917	0.0180492
729.995	0.0180339
730.073	0.0178464
730.151	0.0179151
730.229	0.0180474
730.308	0.0180469
730.386	0.0180514
730.464	0.0181531
730.542	0.0181325
730.620	0.0181104
730.698	0.0181422
730.776	0.0182573
730.854	0.0182330
730.933	0.0182609
731.011	0.0183388
731.089	0.0182972
731.167	0.0182402
731.245	0.0182251
731.323	0.0182819
731.401	0.0183795
731.479	0.0182609
731.558	0.0182737
731.636	0.0182906
731.714	0.0183045
731.792	0.0180238
731.870	0.0181416
731.948	0.0180001
732.026	0.0179348
732.104	0.0180018
732.183	0.0179213
732.261	0.0179015
732.339	0.0177284
732.417	0.0178302
732.495	0.0177893
732.573	0.0177682
732.651	0.0178235
732.729	0.0180235
732.808	0.0180026
732.886	0.0180756
732.964	0.0180267
733.042	0.0181826
733.120	0.0182401
733.198	0.0183342
733.276	0.0184364
733.354	0.0185734
733.433	0.0185224
733.511	0.0187214
733.589	0.0187057
733.667	0.0185882
733.745	0.0185324
733.823	0.0185881
733.901	0.0186212
733.979	0.0185043
734.058	0.0184052
734.136	0.0183522
734.214	0.0184515
734.292	0.0184491
734.370	0.0182788
734.448	0.0183725
734.526	0.0183363
734.604	0.0182583
734.683	0.0182053
734.761	0.0180784
734.839	0.0179904
734.917	0.0180087
734.995	0.0177708
735.073	0.0178497
735.151	0.0176912
735.229	0.0176199
735.308	0.0175900
735.386	0.0174679
735.464	0.0174535
735.542	0.0174376
735.620	0.0173508
735.698	0.0173045
735.776	0.0171899
735.854	0.0171783
735.933	0.0171060
736.011	0.0173229
736.089	0.0174889
736.167	0.0174158
736.245	0.0174727
736.323	0.0177280
736.401	0.0176263
736.479	0.0177813
736.558	0.0179526
736.636	0.0179178
736.714	0.0180467
736.792	0.0181737
736.870	0.0182529
736.948	0.0183467
737.026	0.0185573
737.104	0.0187305
737.183	0.0187081
737.261	0.0187445
737.339	0.0189912
737.417	0.0189005
737.495	0.0189318
737.573	0.0189799
737.651	0.0189124
737.729	0.0189339
737.808	0.0188357
737.886	0.0188396
737.964	0.0187917
738.042	0.0187823
738.120	0.0189299
738.198	0.0187460
738.276	0.0185583
738.354	0.0185851
738.433	0.0184914
738.511	0.0184953
738.589	0.0184603
738.667	0.0184987
738.745	0.0184325
738.823	0.0184745
738.901	0.0182854
738.979	0.0183239
739.058	0.0182054
739.136	0.0181434
739.214	0.0181593
739.292	0.0179996
739.370	0.0180709
739.448	0.0180325
739.526	0.0180854
739.604	0.0179061
739.683	0.0178001
739.761	0.0179381
739.839	0.0179272
739.917	0.0178524
739.995	0.0178898
740.073	0.0178757
740.151	0.0177400
740.229	0.0179189
740.308	0.0180195
740.386	0.0180112
740.464	0.0179380
740.542	0.0178123
740.620	0.0180000
740.698	0.0180367
740.776	0.0179430
740.854	0.0180029
740.933	0.0180106
741.011	0.0179559
741.089	0.0180554
741.167	0.0180883
741.245	0.0181057
741.323	0.0181560
741.401	0.0182308
741.479	0.0183301
741.558	0.0180688
741.636	0.0181567
741.714	0.0181279
741.792	0.0182249
741.870	0.0182224
741.948	0.0182275
742.026	0.0183807
742.104	0.0185127
742.183	0.0182815
742.261	0.0183756
742.339	0.0183826
742.417	0.0184912
742.495	0.0185756
742.573	0.0184009
742.651	0.0184872
742.729	0.0184103
742.808	0.0184548
742.886	0.0184727
742.964	0.0183714
743.042	0.0182730
743.120	0.0183694
743.198	0.0183286
743.276	0.0183333
743.354	0.0182478
743.433	0.0182215
743.511	0.0182839
743.589	0.0183282
743.667	0.0182689
743.745	0.0182251
743.823	0.0182014
743.901	0.0181356
743.979	0.0180408
744.058	0.0182420
744.136	0.0182324
744.214	0.0182193
744.292	0.0181741
744.370	0.0180978
744.448	0.0181677
744.526	0.0181789
744.604	0.0181950
744.683	0.0181511
744.761	0.0180415
744.839	0.0180202
744.917	0.0179269
744.995	0.0178551
745.073	0.0178635
745.151	0.0178365
745.229	0.0178443
745.308	0.0174569
745.386	0.0176437
745.464	0.0175159
745.542	0.0175102
745.620	0.0175494
745.698	0.0176148
745.776	0.0176868
745.854	0.0176014
745.933	0.0177723
746.011	0.0175060
746.089	0.0178346
746.167	0.0178414
746.245	0.0178345
746.323	0.0178622
746.401	0.0178761
746.479	0.0179877
746.558	0.0181646
746.636	0.0182089
746.714	0.0183016
746.792	0.0182883
746.870	0.0182030
746.948	0.0184527
747.026	0.0185694
747.104	0.0184782
747.183	0.0184326
747.261	0.0186282
747.339	0.0184580
747.417	0.0183826
747.495	0.0185961
747.573	0.0186327
747.651	0.0184667
747.729	0.0184725
747.808	0.0185936
747.886	0.0183438
747.964	0.0184315
748.042	0.0182761
748.120	0.0184052
748.198	0.0182631
748.276	0.0183159
748.354	0.0181449
748.433	0.0182150
748.511	0.0181911
748.589	0.0180650
748.667	0.0179770
748.745	0.0178774
748.823	0.0179727
748.901	0.0178887
748.979	0.0177587
749.058	0.0177401
749.136	0.0178353
749.214	0.0178732
749.292	0.0177850
749.370	0.0177757
749.448	0.0178043
749.526	0.0177095
749.604	0.0175809
749.683	0.0177242
749.761	0.0178375
749.839	0.0178031
749.917	0.0177480
749.995	0.0178606
750.073	0.0178458
750.151	0.0179081
750.229	0.0180820
750.308	0.0180293
750.386	0.0179900
750.464	0.0180423
750.542	0.0182003
750.620	0.0182819
750.698	0.0181393
750.776	0.0180825
750.854	0.0180568
750.933	0.0181329
751.011	0.0180377
751.089	0.0179686
751.167	0.0180920
751.245	0.0182156
751.323	0.0180270
751.401	0.0179164
751.479	0.0180940
751.558	0.0180286
751.636	0.0180184
751.714	0.0179652
751.792	0.0179620
751.870	0.0179749
751.948	0.0179715
752.026	0.0180741
752.104	0.0179943
752.183	0.0179621
752.261	0.0178107
752.339	0.0179900
752.417	0.0181377
752.495	0.0180916
752.573	0.0180498
752.651	0.0182063
752.729	0.0182572
752.808	0.0183035
752.886	0.0182937
752.964	0.0182974
753.042	0.0183341
753.120	0.0184607
753.198	0.0183171
753.276	0.0183887
753.354	0.0183028
753.433	0.0183781
753.511	0.0183313
753.589	0.0184433
753.667	0.0183810
753.745	0.0183643
753.823	0.0183805
753.901	0.0183203
753.979	0.0184236
754.058	0.0182307
754.136	0.0182972
754.214	0.0182316
754.292	0.0181182
754.370	0.0183311
754.448	0.0182964
754.526	0.0180663
754.604	0.0181490
754.683	0.0181297
754.761	0.0181445
754.839	0.0180983
754.917	0.0180682
754.995	0.0181473
755.073	0.0180407
755.151	0.0179761
755.229	0.0179423
755.308	0.0179999
755.386	0.0178869
755.464	0.0178412
755.542	0.0176917
755.620	0.0176852
755.698	0.0179149
755.776	0.0177715
755.854	0.0176434
755.933	0.0177460
756.011	0.0175778
756.089	0.0176787
756.167	0.0176909
756.245	0.0177106
756.323	0.0177536
756.401	0.0176569
756.479	0.0177695
756.558	0.0177618
756.636	0.0177352
756.714	0.0177435
756.792	0.0176686
756.870	0.0177975
756.948	0.0177437
757.026	0.0176667
757.104	0.0177698
757.183	0.0179636
757.261	0.0179509
757.339	0.0181131
757.417	0.0180569
757.495	0.0180687
757.573	0.0181693
757.651	0.0180856
757.729	0.0182176
757.808	0.0183619
757.886	0.0182921
757.964	0.0183646
758.042	0.0184482
758.120	0.0182961
758.198	0.0184177
758.276	0.0183230
758.354	0.0182745
758.433	0.0184884
758.511	0.0184106
758.589	0.0183903
758.667	0.0184357
758.745	0.0185190
758.823	0.0184522
758.901	0.0184094
758.979	0.0184647
759.058	0.0185113
759.136	0.0185619
759.214	0.0184531
759.292	0.0183681
759.370	0.0184399
759.448	0.0185078
759.526	0.0183717
759.604	0.0184312
759.683	0.0185083
759.761	0.0184827
759.839	0.0184235
759.917	0.0184194
759.995	0.0183094
760.073	0.0182168
760.151	0.0183722
760.229	0.0182858
760.308	0.0181670
760.386	0.0180259
760.464	0.0181060
760.542	0.0180865
760.620	0.0181142
760.698	0.0178905
760.776	0.0180680
760.854	0.0179182
760.933	0.0178221
761.011	0.0177762
761.089	0.0178300
761.167	0.0177900
761.245	0.0179257
761.323	0.0180845
761.401	0.0179070
761.479	0.0179191
761.558	0.0179965
761.636	0.0180884
761.714	0.0180511
761.792	0.0181113
761.870	0.0181948
761.948	0.0181888
762.026	0.0180036
762.104	0.0181210
762.183	0.0182339
762.261	0.0181718
762.339	0.0181371
762.417	0.0181796
762.495	0.0181235
762.573	0.0180791
762.651	0.0180357
762.729	0.0180950
762.808	0.0179252
762.886	0.0180659
762.964	0.0180141
763.042	0.0182098
763.120	0.0180805
763.198	0.0181351
763.276	0.0182142
763.354	0.0181422
763.433	0.0182064
763.511	0.0183986
763.589	0.0181963
763.667	0.0181431
763.745	0.0183324
763.823	0.0183591
763.901	0.0183527
763.979	0.0182877
764.058	0.0182851
764.136	0.0183047
764.214	0.0182747
764.292	0.0183882
764.370	0.0183109
764.448	0.0182793
764.526	0.0183302
764.604	0.0182327
764.683	0.0183203
764.761	0.0183550
764.839	0.0183008
764.917	0.0181538
764.995	0.0180033
765.073	0.0183026
765.151	0.0181357
765.229	0.0180080
765.308	0.0180145
765.386	0.0180306
765.464	0.0180554
765.542	0.0179680
765.620	0.0181795
765.698	0.0179027
765.776	0.0179411
765.854	0.0180674
765.933	0.0182255
766.011	0.0182682
766.089	0.0181590
766.167	0.0182610
766.245	0.0181981
766.323	0.0181805
766.401	0.0181617
766.479	0.0182165
766.558	0.0181968
766.636	0.0182210
766.714	0.0181926
766.792	0.0180870
766.870	0.0181750
766.948	0.0179541
767.026	0.0179718
767.104	0.0180719
767.183	0.0178278
767.261	0.0179330
767.339	0.0179029
767.417	0.0179076
767.495	0.0177038
767.573	0.0178505
767.651	0.0177814
767.729	0.0178415
767.808	0.0178417
767.886	0.0179212
767.964	0.0179216
768.042	0.0176994
768.120	0.0179370
768.198	0.0178834
768.276	0.0181474
768.354	0.0180014
768.433	0.0179963
768.511	0.0179803
768.589	0.0178487
768.667	0.0180564
768.745	0.0180335
768.823	0.0179689
768.901	0.0179807
768.979	0.0179119
769.058	0.0179932
769.136	0.0178668
769.214	0.0179219
769.292	0.0177455
769.370	0.0178812
769.448	0.0179086
769.526	0.0178899
769.604	0.0179211
769.683	0.0178819
769.761	0.0178317
769.839	0.0178196
769.917	0.0178565
769.995	0.0179192
770.073	0.0178569
770.151	0.0179057
770.229	0.0179926
770.308	0.0180219
770.386	0.0181113
770.464	0.0182059
770.542	0.0180690
770.620	0.0180762
770.698	0.0183001
770.776	0.0182323
770.854	0.0181935
770.933	0.0181535
771.011	0.0182066
771.089	0.0180378
771.167	0.0181983
771.245	0.0182730
771.323	0.0181944
771.401	0.0180851
771.479	0.0180888
771.558	0.0180781
771.636	0.0181639
771.714	0.0180838
771.792	0.0181709
771.870	0.0180685
771.948	0.0179895
772.026	0.0180943
772.104	0.0181321
772.183	0.0181279
772.261	0.0180717
772.339	0.0181219
772.417	0.0179137
772.495	0.0179731
772.573	0.0180658
772.651	0.0178843
772.729	0.0178151
772.808	0.0177455
772.886	0.0176250
772.964	0.0177731
773.042	0.0176785
773.120	0.0177438
773.198	0.0176886
773.276	0.0176243
773.354	0.0176666
773.433	0.0176923
773.511	0.0178510
773.589	0.0179779
773.667	0.0179509
773.745	0.0178391
773.823	0.0181085
773.901	0.0181319
773.979	0.0181661
774.058	0.0181389
774.136	0.0181876
774.214	0.0181638
774.292	0.0182838
774.370	0.0181622
774.448	0.0182735
774.526	0.0183369
774.604	0.0183037
774.683	0.0182700
774.761	0.0183619
774.839	0.0182399
774.917	0.0181001
774.995	0.0182129
775.073	0.0181700
775.151	0.0180531
775.229	0.0181192
775.308	0.0180617
775.386	0.0180381
775.464	0.0180480
775.542	0.0180666
775.620	0.0179531
775.698	0.0179371
775.776	0.0179932
775.854	0.0180547
775.933	0.0179317
776.011	0.0179344
776.089	0.0180180
776.167	0.0179412
776.245	0.0179640
776.323	0.0179617
776.401	0.0179726
776.479	0.0178907
776.558	0.0179835
776.636	0.0180180
776.714	0.0178608
776.792	0.0178848
776.870	0.0179112
776.948	0.0176718
777.026	0.0177484
777.104	0.0179530
777.183	0.0178699
777.261	0.0177639
777.339	0.0176125
777.417	0.0177006
777.495	0.0177605
777.573	0.0177971
777.651	0.0177415
777.729	0.0178429
777.808	0.0179617
777.886	0.0179385
777.964	0.0179881
778.042	0.0180174
778.120	0.0180906
778.198	0.0180511
778.276	0.0180547
778.354	0.0181031
778.433	0.0181361
778.511	0.0182763
778.589	0.0179967
778.667	0.0181099
778.745	0.0179393
778.823	0.0180416
778.901	0.0180488
778.979	0.0182614
779.058	0.0180355
779.136	0.0179769
779.214	0.0180422
779.292	0.0180154
779.370	0.0179188
779.448	0.0180339
779.526	0.0179131
779.604	0.0179343
779.683	0.0179814
779.761	0.0178896
779.839	0.0179479
779.917	0.0180365
779.995	0.0179536
780.073	0.0178875
780.151	0.0179842
780.229	0.0179026
780.308	0.0180762
780.386	0.0181841
780.464	0.0179962
780.542	0.0180334
780.620	0.0180300
780.698	0.0181120
780.776	0.0180526
780.854	0.0179179
780.933	0.0180496
781.011	0.0180766
781.089	0.0182006
781.167	0.0180381
781.245	0.0180284
781.323	0.0181802
781.401	0.0182740
781.479	0.0180668
781.558	0.0180047
781.636	0.0180719
781.714	0.0181174
781.792	0.0180721
781.870	0.0180452
781.948	0.0179854
782.026	0.0180860
782.104	0.0179121
782.183	0.0180366
782.261	0.0180609
782.339	0.0181007
782.417	0.0179232
782.495	0.0179467
782.573	0.0177602
782.651	0.0178777
782.729	0.0177579
782.808	0.0178163
782.886	0.0179247
782.964	0.0182148
783.042	0.0179545
783.120	0.0181213
783.198	0.0181542
783.276	0.0180184
783.354	0.0181259
783.433	0.0181093
783.511	0.0180902
783.589	0.0182333
783.667	0.0182328
783.745	0.0181844
783.823	0.0182262
783.901	0.0180220
783.979	0.0181144
784.058	0.0182380
784.136	0.0180762
784.214	0.0180409
784.292	0.0180749
784.370	0.0180055
784.448	0.0180272
784.526	0.0179913
784.604	0.0179889
784.683	0.0180541
784.761	0.0178548
784.839	0.0179764
784.917	0.0179971
784.995	0.0179397
785.073	0.0179777
785.151	0.0179925
785.229	0.0179696
785.308	0.0179131
785.386	0.0181377
785.464	0.0180038
785.542	0.0180553
785.620	0.0179321
785.698	0.0180392
785.776	0.0180073
785.854	0.0180280
785.933	0.0182539
786.011	0.0181978
786.089	0.0182179
786.167	0.0182558
786.245	0.0183627
786.323	0.0181938
786.401	0.0182896
786.479	0.0183422
786.558	0.0183140
786.636	0.0183668
786.714	0.0184012
786.792	0.0184995
786.870	0.0184283
786.948	0.0185044
787.026	0.0184371
787.104	0.0183855
787.183	0.0183894
787.261	0.0182438
787.339	0.0183435
787.417	0.0182825
787.495	0.0183284
787.573	0.0181696
787.651	0.0182965
787.729	0.0181393
787.808	0.0180774
787.886	0.0179518
787.964	0.0181365
788.042	0.0180531
788.120	0.0179688
788.198	0.0179217
788.276	0.0179848
788.354	0.0180074
788.433	0.0179453
788.511	0.0179510
788.589	0.0180141
788.667	0.0179832
788.745	0.0181920
788.823	0.0181268
788.901	0.0181400
788.979	0.0180691
789.058	0.0182045
789.136	0.0181615
789.214	0.0181591
789.292	0.0181960
789.370	0.0181398
789.448	0.0182616
789.526	0.0184114
789.604	0.0183227
789.683	0.0180881
789.761	0.0182641
789.839	0.0183255
789.917	0.0183804
789.995	0.0182185
790.073	0.0181688
790.151	0.0181343
790.229	0.0180110
790.308	0.0179932
790.386	0.0180896
790.464	0.0180213
790.542	0.0180908
790.620	0.0180348
790.698	0.0181186
790.776	0.0180356
790.854	0.0179989
790.933	0.0179834
791.011	0.0180006
791.089	0.0180099
791.167	0.0181094
791.245	0.0179912
791.323	0.0180197
791.401	0.0179544
791.479	0.0181390
791.558	0.0182671
791.636	0.0180354
791.714	0.0180718
791.792	0.0179210
791.870	0.0181968
791.948	0.0180759
792.026	0.0179357
792.104	0.0181056
792.183	0.0182539
792.261	0.0180347
792.339	0.0180729
792.417	0.0181943
792.495	0.0181541
792.573	0.0180753
792.651	0.0180523
792.729	0.0180961
792.808	0.0180774
792.886	0.0180549
792.964	0.0180510
793.042	0.0181018
793.120	0.0180891
793.198	0.0180540
793.276	0.0180784
793.354	0.0182350
793.433	0.0181248
793.511	0.0180265
793.589	0.0181562
793.667	0.0182050
793.745	0.0180795
793.823	0.0181735
793.901	0.0180579
793.979	0.0180318
794.058	0.0180988
794.136	0.0181075
794.214	0.0180450
794.292	0.0180150
794.370	0.0181948
794.448	0.0180827
794.526	0.0181726
794.604	0.0179784
794.683	0.0181530
794.761	0.0180157
794.839	0.0179189
794.917	0.0180894
794.995	0.0179679
795.073	0.0180865
795.151	0.0180174
795.229	0.0180920
795.308	0.0180566
795.386	0.0180146
795.464	0.0180152
795.542	0.0180844
795.620	0.0178914
795.698	0.0180325
795.776	0.0179852
795.854	0.0179786
795.933	0.0179668
796.011	0.0179716
796.089	0.0179631
796.167	0.0178587
796.245	0.0180303
796.323	0.0179571
796.401	0.0178951
796.479	0.0180917
796.558	0.0179759
796.636	0.0178876
796.714	0.0179742
796.792	0.0179941
796.870	0.0180270
796.948	0.0179441
797.026	0.0180752
797.104	0.0179876
797.183	0.0177710
797.261	0.0179938
797.339	0.0180235
797.417	0.0179640
797.495	0.0178587
797.573	0.0179090
797.651	0.0179842
797.729	0.0179749
797.808	0.0181428
797.886	0.0180702
797.964	0.0180504
798.042	0.0180640
798.120	0.0181164
798.198	0.0181174
798.276	0.0182339
798.354	0.0181040
798.433	0.0181030
798.511	0.0180950
798.589	0.0182010
798.667	0.0181005
798.745	0.0181190
798.823	0.0181646
798.901	0.0182683
798.979	0.0183327
799.058	0.0182153
799.136	0.0182161
799.214	0.0181754
799.292	0.0182725
799.370	0.0181879
799.448	0.0182664
799.526	0.0182332
799.604	0.0181289
799.683	0.0181290
799.761	0.0181264
799.839	0.0179840
799.917	0.0180231
799.995	0.0180212
800.073	0.0179584
800.151	0.0181220
800.229	0.0180704
800.308	0.0179853
800.386	0.0180200
800.464	0.0179864
800.542	0.0180676
800.620	0.0180007
800.698	0.0180401
800.776	0.0179061
800.854	0.0179522
800.933	0.0181090
801.011	0.0181184
801.089	0.0180151
801.167	0.0180927
801.245	0.0180681
801.323	0.0181030
801.401	0.0180898
801.479	0.0179948
801.558	0.0181158
801.636	0.0181132
801.714	0.0181108
801.792	0.0180633
801.870	0.0181447
801.948	0.0180745
802.026	0.0180654
802.104	0.0181333
802.183	0.0181195
802.261	0.0180481
802.339	0.0179881
802.417	0.0181208
802.495	0.0180513
802.573	0.0181051
802.651	0.0180293
802.729	0.0179956
802.808	0.0179170
802.886	0.0179565
802.964	0.0180970
803.042	0.0180574
803.120	0.0179813
803.198	0.0179194
803.276	0.0178572
803.354	0.0179506
803.433	0.0178922
803.511	0.0180167
803.589	0.0178811
803.667	0.0179845
803.745	0.0179066
803.823	0.0180135
803.901	0.0179020
803.979	0.0178957
804.058	0.0180132
804.136	0.0180242
804.214	0.0180546
804.292	0.0180163
804.370	0.0178715
804.448	0.0180139
804.526	0.0180744
804.604	0.0181075
804.683	0.0180588
804.761	0.0180318
804.839	0.0180141
804.917	0.0180497
804.995	0.0179542
805.073	0.0179929
805.151	0.0180834
805.229	0.0180259
805.308	0.0179961
805.386	0.0180117
805.464	0.0181147
805.542	0.0180663
805.620	0.0180685
805.698	0.0181371
805.776	0.0180780
805.854	0.0180202
805.933	0.0180720
806.011	0.0180856
806.089	0.0180189
806.167	0.0180413
806.245	0.0180653
806.323	0.0180299
806.401	0.0180568
806.479	0.0181490
806.558	0.0181477
806.636	0.0179801
806.714	0.0179971
806.792	0.0180011
806.870	0.0180106
806.948	0.0181101
807.026	0.0181486
807.104	0.0179744
807.183	0.0180123
807.261	0.0179606
807.339	0.0179796
807.417	0.0180676
807.495	0.0180225
807.573	0.0180304
807.651	0.0180026
807.729	0.0180354
807.808	0.0181343
807.886	0.0180371
807.964	0.0180445
808.042	0.0181633
808.120	0.0181293
808.198	0.0182410
808.276	0.0180634
808.354	0.0181281
808.433	0.0180221
808.511	0.0181922
808.589	0.0182555
808.667	0.0182192
808.745	0.0182852
808.823	0.0182789
808.901	0.0183192
808.979	0.0182097
809.058	0.0184212
809.136	0.0182168
809.214	0.0182626
809.292	0.0183313
809.370	0.0182240
809.448	0.0182145
809.526	0.0182814
809.604	0.0182580
809.683	0.0181364
809.761	0.0180760
809.839	0.0181197
809.917	0.0180585
809.995	0.0181539
810.073	0.0182059
810.151	0.0182382
810.229	0.0182530
810.308	0.0180050
810.386	0.0181508
810.464	0.0181509
810.542	0.0181759
810.620	0.0181888
810.698	0.0182145
810.776	0.0181451
810.854	0.0183232
810.933	0.0181532
811.011	0.0183047
811.089	0.0181673
811.167	0.0181897
811.245	0.0181361
811.323	0.0182453
811.401	0.0182030
811.479	0.0182472
811.558	0.0182152
811.636	0.0180430
811.714	0.0181896
811.792	0.0181616
811.870	0.0181108
811.948	0.0182275
812.026	0.0181618
812.104	0.0181654
812.183	0.0181825
812.261	0.0181870
812.339	0.0182433
812.417	0.0182546
812.495	0.0181379
812.573	0.0181510
812.651	0.0182067
812.729	0.0181121
812.808	0.0180829
812.886	0.0181075
812.964	0.0180958
813.042	0.0181147
813.120	0.0180729
813.198	0.0180886
813.276	0.0180352
813.354	0.0180753
813.433	0.0179436
813.511	0.0180443
813.589	0.0179483
813.667	0.0180175
813.745	0.0180346
813.823	0.0180923
813.901	0.0181158
813.979	0.0180424
814.058	0.0179690
814.136	0.0180759
814.214	0.0180683
814.292	0.0180542
814.370	0.0181050
814.448	0.0180217
814.526	0.0180266
814.604	0.0181026
814.683	0.0181420
814.761	0.0181255
814.839	0.0181560
814.917	0.0182581
814.995	0.0182698
815.073	0.0183282
815.151	0.0181907
815.229	0.0181891
815.308	0.0183128
815.386	0.0184444
815.464	0.0184950
815.542	0.0182137
815.620	0.0182278
815.698	0.0182987
815.776	0.0182925
815.854	0.0183083
815.933	0.0180939
816.011	0.0181747
816.089	0.0181937
816.167	0.0180983
816.245	0.0180670
816.323	0.0180920
816.401	0.0179371
816.479	0.0180952
816.558	0.0181540
816.636	0.0181979
816.714	0.0179883
816.792	0.0180764
816.870	0.0181036
816.948	0.0182280
817.026	0.0182675
817.104	0.0182019
817.183	0.0182633
817.261	0.0183460
817.339	0.0182949
817.417	0.0182234
817.495	0.0181888
817.573	0.0181409
817.651	0.0181636
817.729	0.0181356
817.808	0.0180184
817.886	0.0180453
817.964	0.0180118
818.042	0.0179060
818.120	0.0179630
818.198	0.0179191
818.276	0.0179919
818.354	0.0179401
818.433	0.0180480
818.511	0.0180185
818.589	0.0180222
818.667	0.0180695
818.745	0.0181603
818.823	0.0181888
818.901	0.0179011
818.979	0.0182079
819.058	0.0181441
819.136	0.0180733
819.214	0.0180456
819.292	0.0181548
819.370	0.0181303
819.448	0.0182326
819.526	0.0180019
819.604	0.0179982
819.683	0.0181789
819.761	0.0182333
819.839	0.0183522
819.917	0.0183424
819.995	0.0182565
820.073	0.0182420
820.151	0.0183158
820.229	0.0184547
820.308	0.0182366
820.386	0.0182960
820.464	0.0183127
820.542	0.0183568
820.620	0.0182906
820.698	0.0182096
820.776	0.0183324
820.854	0.0184972
820.933	0.0182518
821.011	0.0182493
821.089	0.0183038
821.167	0.0183161
821.245	0.0183065
821.323	0.0182027
821.401	0.0181137
821.479	0.0181118
821.558	0.0181950
821.636	0.0181876
821.714	0.0179849
821.792	0.0181007
821.870	0.0181897
821.948	0.0180566
822.026	0.0180352
822.104	0.0181773
822.183	0.0182800
822.261	0.0181776
822.339	0.0181064
822.417	0.0181724
822.495	0.0182852
822.573	0.0181930
822.651	0.0182087
822.729	0.0182875
822.808	0.0182335
822.886	0.0182473
822.964	0.0183493
823.042	0.0182624
823.120	0.0183087
823.198	0.0182536
823.276	0.0182373
823.354	0.0182842
823.433	0.0182748
823.511	0.0182983
823.589	0.0180881
823.667	0.0181883
823.745	0.0182738
823.823	0.0182118
823.901	0.0183587
823.979	0.0183053
824.058	0.0181690
824.136	0.0182073
824.214	0.0182192
824.292	0.0182231
824.370	0.0182966
824.448	0.0181438
824.526	0.0181651
824.604	0.0181754
824.683	0.0182057
824.761	0.0182359
824.839	0.0182952
824.917	0.0182077
824.995	0.0180390
825.073	0.0182807
825.151	0.0182594
825.229	0.0182172
825.308	0.0181918
825.386	0.0181764
825.464	0.0181644
825.542	0.0183292
825.620	0.0181706
825.698	0.0180835
825.776	0.0180929
825.854	0.0179952
825.933	0.0179860
826.011	0.0179720
826.089	0.0180621
826.167	0.0179893
826.245	0.0179131
826.323	0.0179336
826.401	0.0180173
826.479	0.0178947
826.558	0.0178470
826.636	0.0178995
826.714	0.0179246
826.792	0.0176589
826.870	0.0178601
826.948	0.0177900
827.026	0.0178725
827.104	0.0179332
827.183	0.0178506
827.261	0.0178012
827.339	0.0178028
827.417	0.0179508
827.495	0.0180121
827.573	0.0178058
827.651	0.0178896
827.729	0.0179624
827.808	0.0179282
827.886	0.0179288
827.964	0.0180522
828.042	0.0180190
828.120	0.0178707
828.198	0.0178999
828.276	0.0179517
828.354	0.0177522
828.433	0.0178840
828.511	0.0179680
828.589	0.0180415
828.667	0.0178390
828.745	0.0179236
828.823	0.0179794
828.901	0.0179426
828.979	0.0179485
829.058	0.0178148
829.136	0.0178780
829.214	0.0179527
829.292	0.0180555
829.370	0.0180119
829.448	0.0178458
829.526	0.0179115
829.604	0.0180358
829.683	0.0180033
829.761	0.0178609
829.839	0.0179383
829.917	0.0178920
829.995	0.0179047
830.073	0.0178990
830.151	0.0179555
830.229	0.0179040
830.308	0.0179048
830.386	0.0178876
830.464	0.0179800
830.542	0.0179243
830.620	0.0178551
830.698	0.0179401
830.776	0.0179102
830.854	0.0178436
830.933	0.0179356
831.011	0.0178516
831.089	0.0179016
831.167	0.0177150
831.245	0.0177790
831.323	0.0178534
831.401	0.0179053
831.479	0.0179247
831.558	0.0179881
831.636	0.0177774
831.714	0.0178069
831.792	0.0178450
831.870	0.0177916
831.948	0.0178085
832.026	0.0179292
832.104	0.0178326
832.183	0.0181261
832.261	0.0180312
832.339	0.0178724
832.417	0.0178699
832.495	0.0180643
832.573	0.0180248
832.651	0.0179413
832.729	0.0180145
832.808	0.0180475
832.886	0.0180502
832.964	0.0181021
833.042	0.0180516
833.120	0.0180947
833.198	0.0179099
833.276	0.0180927
833.354	0.0180180
833.433	0.0180800
833.511	0.0181026
833.589	0.0182333
833.667	0.0179536
833.745	0.0180726
833.823	0.0181413
833.901	0.0180118
833.979	0.0179607
834.058	0.0181778
834.136	0.0180315
834.214	0.0179586
834.292	0.0181499
834.370	0.0179709
834.448	0.0180288
834.526	0.0180745
834.604	0.0180506
834.683	0.0180925
834.761	0.0178851
834.839	0.0180933
834.917	0.0181597
834.995	0.0181190
835.073	0.0180686
835.151	0.0180682
835.229	0.0179569
835.308	0.0180125
835.386	0.0181671
835.464	0.0183234
835.542	0.0181211
835.620	0.0180470
835.698	0.0180930
835.776	0.0182221
835.854	0.0182114
835.933	0.0182069
836.011	0.0182150
836.089	0.0181840
836.167	0.0183940
836.245	0.0183300
836.323	0.0183205
836.401	0.0181923
836.479	0.0183302
836.558	0.0182919
836.636	0.0182652
836.714	0.0183627
836.792	0.0184322
836.870	0.0181831
836.948	0.0182586
837.026	0.0181856
837.104	0.0182144
837.183	0.0180998
837.261	0.0181709
837.339	0.0182414
837.417	0.0182232
837.495	0.0181715
837.573	0.0183053
837.651	0.0182397
837.729	0.0181807
837.808	0.0182344
837.886	0.0182204
837.964	0.0182047
838.042	0.0182133
838.120	0.0182790
838.198	0.0181727
838.276	0.0181695
838.354	0.0181455
838.433	0.0181820
838.511	0.0181322
838.589	0.0180423
838.667	0.0181410
838.745	0.0182011
838.823	0.0181307
838.901	0.0181022
838.979	0.0181432
839.058	0.0181259
839.136	0.0182509
839.214	0.0183572
839.292	0.0182185
839.370	0.0182790
839.448	0.0183018
839.526	0.0182777
839.604	0.0181940
839.683	0.0184547
839.761	0.0183672
839.839	0.0184042
839.917	0.0183427
839.995	0.0183194
840.073	0.0183817
840.151	0.0184175
840.229	0.0183988
840.308	0.0184385
840.386	0.0184704
840.464	0.0183191
840.542	0.0184341
840.620	0.0182838
840.698	0.0183518
840.776	0.0183864
840.854	0.0183479
840.933	0.0181863
841.011	0.0181849
841.089	0.0182599
841.167	0.0181548
841.245	0.0181718
841.323	0.0182175
841.401	0.0181467
841.479	0.0181362
841.558	0.0181937
841.636	0.0181046
841.714	0.0180542
841.792	0.0181383
841.870	0.0181402
841.948	0.0179994
842.026	0.0179983
842.104	0.0179358
842.183	0.0180006
842.261	0.0180211
842.339	0.0180891
842.417	0.0181184
842.495	0.0178242
842.573	0.0178736
842.651	0.0179884
842.729	0.0180109
842.808	0.0178144
842.886	0.0179821
842.964	0.0181032
843.042	0.0179553
843.120	0.0178702
843.198	0.0180092
843.276	0.0180417
843.354	0.0180481
843.433	0.0180736
843.511	0.0180976
843.589	0.0179500
843.667	0.0181467
843.745	0.0181084
843.823	0.0180834
843.901	0.0181202
843.979	0.0180470
844.058	0.0181527
844.136	0.0181361
844.214	0.0182214
844.292	0.0181930
844.370	0.0181805
844.448	0.0181479
844.526	0.0181340
844.604	0.0181775
844.683	0.0182229
844.761	0.0181580
844.839	0.0180759
844.917	0.0181257
844.995	0.0182534
845.073	0.0183382
845.151	0.0182470
845.229	0.0182401
845.308	0.0181413
845.386	0.0181120
845.464	0.0182825
845.542	0.0182394
845.620	0.0182743
845.698	0.0181779
845.776	0.0180330
845.854	0.0181228
845.933	0.0181759
846.011	0.0180663
846.089	0.0182058
846.167	0.0181384
846.245	0.0180627
846.323	0.0179871
846.401	0.0179676
846.479	0.0180521
846.558	0.0180509
846.636	0.0179968
846.714	0.0179857
846.792	0.0177912
846.870	0.0179031
846.948	0.0180769
847.026	0.0179826
847.104	0.0179626
847.183	0.0179087
847.261	0.0178517
847.339	0.0178773
847.417	0.0180025
847.495	0.0180697
847.573	0.0179690
847.651	0.0178863
847.729	0.0179840
847.808	0.0179202
847.886	0.0179246
847.964	0.0179688
848.042	0.0179565
848.120	0.0180425
848.198	0.0180724
848.276	0.0182020
848.354	0.0182516
848.433	0.0181209
848.511	0.0180137
848.589	0.0180543
848.667	0.0180555
848.745	0.0180357
848.823	0.0181998
848.901	0.0181253
848.979	0.0181330
849.058	0.0182014
849.136	0.0180947
849.214	0.0182068
849.292	0.0182446
849.370	0.0182126
849.448	0.0183642
849.526	0.0180961
849.604	0.0180875
849.683	0.0181432
849.761	0.0182591
849.839	0.0182360
849.917	0.0181219
849.995	0.0181084
850.073	0.0181035
850.151	0.0180419
850.229	0.0179951
850.308	0.0180904
850.386	0.0180363
850.464	0.0179534
850.542	0.0181004
850.620	0.0179691
850.698	0.0180583
850.776	0.0180030
850.854	0.0179744
850.933	0.0179137
851.011	0.0179755
851.089	0.0179620
851.167	0.0180627
851.245	0.0179610
851.323	0.0179713
851.401	0.0180868
851.479	0.0179372
851.558	0.0180574
851.636	0.0179890
851.714	0.0180003
851.792	0.0181111
851.870	0.0181584
851.948	0.0181980
852.026	0.0181513
852.104	0.0180578
852.183	0.0179963
852.261	0.0180947
852.339	0.0180589
852.417	0.0180264
852.495	0.0181255
852.573	0.0180508
852.651	0.0180376
852.729	0.0180846
852.808	0.0178783
852.886	0.0179910
852.964	0.0181595
853.042	0.0181762
853.120	0.0180585
853.198	0.0178315
853.276	0.0180603
853.354	0.0180819
853.433	0.0178752
853.511	0.0178772
853.589	0.0178805
853.667	0.0181166
853.745	0.0178308
853.823	0.0178819
853.901	0.0179914
853.979	0.0179788
854.058	0.0180139
854.136	0.0180037
854.214	0.0179860
854.292	0.0179462
854.370	0.0179298
854.448	0.0180022
854.526	0.0179193
854.604	0.0179096
854.683	0.0179069
854.761	0.0179858
854.839	0.0180409
854.917	0.0181342
854.995	0.0181007
855.073	0.0180831
855.151	0.0181742
855.229	0.0179523
855.308	0.0180946
855.386	0.0182474
855.464	0.0179773
855.542	0.0179454
855.620	0.0181710
855.698	0.0180287
855.776	0.0181185
855.854	0.0180738
855.933	0.0182295
856.011	0.0181670
856.089	0.0181920
856.167	0.0182423
856.245	0.0180865
856.323	0.0180706
856.401	0.0180353
856.479	0.0181349
856.558	0.0181104
856.636	0.0181292
856.714	0.0181041
856.792	0.0181216
856.870	0.0180528
856.948	0.0180116
857.026	0.0180515
857.104	0.0178988
857.183	0.0180562
857.261	0.0180150
857.339	0.0179936
857.417	0.0180973
857.495	0.0179671
857.573	0.0180276
857.651	0.0180545
857.729	0.0180415
857.808	0.0180016
857.886	0.0180378
857.964	0.0179125
858.042	0.0181186
858.120	0.0180556
858.198	0.0180612
858.276	0.0180176
858.354	0.0179468
858.433	0.0180029
858.511	0.0179716
858.589	0.0179670
858.667	0.0180779
858.745	0.0180946
858.823	0.0180200
858.901	0.0181603
858.979	0.0181098
859.058	0.0182581
859.136	0.0180461
859.214	0.0181361
859.292	0.0184452
859.370	0.0182580
859.448	0.0182308
859.526	0.0182411
859.604	0.0183643
859.683	0.0182907
859.761	0.0182453
859.839	0.0184595
859.917	0.0183727
859.995	0.0182986
860.073	0.0182402
860.151	0.0182685
860.229	0.0183654
860.308	0.0184383
860.386	0.0182841
860.464	0.0183032
860.542	0.0184148
860.620	0.0183427
860.698	0.0182361
860.776	0.0182443
860.854	0.0182896
860.933	0.0181764
861.011	0.0182338
861.089	0.0182696
861.167	0.0183445
861.245	0.0181956
861.323	0.0183253
861.401	0.0183177
861.479	0.0182053
861.558	0.0182772
861.636	0.0181915
861.714	0.0183257
861.792	0.0181514
861.870	0.0182094
861.948	0.0183305
862.026	0.0182883
862.104	0.0181510
862.183	0.0182545
862.261	0.0180929
862.339	0.0181732
862.417	0.0181528
862.495	0.0181324
862.573	0.0180667
862.651	0.0179473
862.729	0.0180411
862.808	0.0180186
862.886	0.0179954
862.964	0.0180388
863.042	0.0179747
863.120	0.0179586
863.198	0.0179631
863.276	0.0179945
863.354	0.0179894
863.433	0.0180079
863.511	0.0181081
863.589	0.0181291
863.667	0.0181487
863.745	0.0181774
863.823	0.0180612
863.901	0.0181131
863.979	0.0181945
864.058	0.0180131
864.136	0.0182317
864.214	0.0181898
864.292	0.0181261
864.370	0.0181193
864.448	0.0181332
864.526	0.0182432
864.604	0.0182727
864.683	0.0181580
864.761	0.0181673
864.839	0.0183570
864.917	0.0182451
864.995	0.0182439
865.073	0.0183733
865.151	0.0183152
865.229	0.0183170
865.308	0.0182784
865.386	0.0182955
865.464	0.0183319
865.542	0.0183263
865.620	0.0181533
865.698	0.0182175
865.776	0.0181818
865.854	0.0182078
865.933	0.0182443
866.011	0.0182104
866.089	0.0182519
866.167	0.0181766
866.245	0.0182365
866.323	0.0181795
866.401	0.0182693
866.479	0.0180454
866.558	0.0181042
866.636	0.0181557
866.714	0.0181108
866.792	0.0182590
866.870	0.0182199
866.948	0.0180131
867.026	0.0180824
867.104	0.0181262
867.183	0.0180791
867.261	0.0180249
867.339	0.0181873
867.417	0.0181956
867.495	0.0180655
867.573	0.0182375
867.651	0.0182047
867.729	0.0181255
867.808	0.0182982
867.886	0.0183739
867.964	0.0183338
868.042	0.0183852
868.120	0.0182788
868.198	0.0181746
868.276	0.0181673
868.354	0.0182590
868.433	0.0183336
868.511	0.0182989
868.589	0.0182212
868.667	0.0182594
868.745	0.0182552
868.823	0.0181259
868.901	0.0181995
868.979	0.0182577
869.058	0.0180952
869.136	0.0181990
869.214	0.0180703
869.292	0.0180610
869.370	0.0181239
869.448	0.0179852
869.526	0.0179329
869.604	0.0180537
869.683	0.0180288
869.761	0.0179742
869.839	0.0180697
869.917	0.0180820
869.995	0.0179864
870.073	0.0178796
870.151	0.0178138
870.229	0.0178603
870.308	0.0179636
870.386	0.0178776
870.464	0.0179659
870.542	0.0180500
870.620	0.0180568
870.698	0.0179450
870.776	0.0179866
870.854	0.0179201
870.933	0.0179444
871.011	0.0180843
871.089	0.0179292
871.167	0.0179783
871.245	0.0179611
871.323	0.0179758
871.401	0.0178876
871.479	0.0178734
871.558	0.0179048
871.636	0.0180300
871.714	0.0180833
871.792	0.0180516
871.870	0.0180938
871.948	0.0180531
872.026	0.0180098
872.104	0.0179682
872.183	0.0180017
872.261	0.0180319
872.339	0.0179478
872.417	0.0179812
872.495	0.0178954
872.573	0.0179563
872.651	0.0179808
872.729	0.0179748
872.808	0.0178538
872.886	0.0177905
872.964	0.0178951
873.042	0.0179427
873.120	0.0178949
873.198	0.0177952
873.276	0.0178410
873.354	0.0178287
873.433	0.0177926
873.511	0.0178022
873.589	0.0178501
873.667	0.0178739
873.745	0.0179394
873.823	0.0178529
873.901	0.0178685
873.979	0.0177883
874.058	0.0179867
874.136	0.0178251
874.214	0.0178429
874.292	0.0180069
874.370	0.0179222
874.448	0.0179868
874.526	0.0180659
874.604	0.0180331
874.683	0.0180568
874.761	0.0180411
874.839	0.0179890
874.917	0.0179761
874.995	0.0179108
875.073	0.0182845
875.151	0.0180554
875.229	0.0179899
875.308	0.0179887
875.386	0.0179443
875.464	0.0181261
875.542	0.0180221
875.620	0.0179521
875.698	0.0180624
875.776	0.0180753
875.854	0.0180289
875.933	0.0181439
876.011	0.0180244
876.089	0.0180974
876.167	0.0181956
876.245	0.0181075
876.323	0.0181038
876.401	0.0181711
876.479	0.0181262
876.558	0.0183181
876.636	0.0181340
876.714	0.0181216
876.792	0.0181580
876.870	0.0181888
876.948	0.0181952
877.026	0.0180958
877.104	0.0181866
877.183	0.0182231
877.261	0.0181198
877.339	0.0182036
877.417	0.0181657
877.495	0.0180338
877.573	0.0181178
877.651	0.0181052
877.729	0.0180367
877.808	0.0180980
877.886	0.0179697
877.964	0.0179382
878.042	0.0179366
878.120	0.0180693
878.198	0.0179755
878.276	0.0177780
878.354	0.0179090
878.433	0.0179227
878.511	0.0180146
878.589	0.0180727
878.667	0.0180503
878.745	0.0180075
878.823	0.0180920
878.901	0.0181532
878.979	0.0181519
879.058	0.0179977
879.136	0.0180365
879.214	0.0182059
879.292	0.0181783
879.370	0.0181225
879.448	0.0180074
879.526	0.0181521
879.604	0.0181386
879.683	0.0180875
879.761	0.0182062
879.839	0.0182089
879.917	0.0181534
879.995	0.0181210
880.073	0.0181384
880.151	0.0180623
880.229	0.0182566
880.308	0.0181559
880.386	0.0181843
880.464	0.0182213
880.542	0.0182027
880.620	0.0181229
880.698	0.0182002
880.776	0.0181305
880.854	0.0180446
880.933	0.0181506
881.011	0.0182009
881.089	0.0183010
881.167	0.0181964
881.245	0.0181060
881.323	0.0182258
881.401	0.0183189
881.479	0.0182204
881.558	0.0182492
881.636	0.0181795
881.714	0.0182430
881.792	0.0182182
881.870	0.0181632
881.948	0.0182146
882.026	0.0182275
882.104	0.0182569
882.183	0.0182466
882.261	0.0182678
882.339	0.0182473
882.417	0.0183131
882.495	0.0183159
882.573	0.0182228
882.651	0.0181781
882.729	0.0182167
882.808	0.0182394
882.886	0.0183073
882.964	0.0182481
883.042	0.0182708
883.120	0.0182024
883.198	0.0181678
883.276	0.0181550
883.354	0.0181790
883.433	0.0182455
883.511	0.0179319
883.589	0.0181319
883.667	0.0180602
883.745	0.0179412
883.823	0.0180907
883.901	0.0180141
883.979	0.0179465
884.058	0.0180404
884.136	0.0180283
884.214	0.0181271
884.292	0.0179241
884.370	0.0178494
884.448	0.0179519
884.526	0.0179769
884.604	0.0178389
884.683	0.0178520
884.761	0.0180595
884.839	0.0180014
884.917	0.0179885
884.995	0.0177951
885.073	0.0177802
885.151	0.0180810
885.229	0.0180504
885.308	0.0180660
885.386	0.0180621
885.464	0.0179581
885.542	0.0180909
885.620	0.0181245
885.698	0.0181779
885.776	0.0180562
885.854	0.0180123
885.933	0.0179787
886.011	0.0180959
886.089	0.0182511
886.167	0.0180874
886.245	0.0179821
886.323	0.0180274
886.401	0.0181577
886.479	0.0179981
886.558	0.0180830
886.636	0.0181242
886.714	0.0181569
886.792	0.0182285
886.870	0.0180495
886.948	0.0180564
887.026	0.0181497
887.104	0.0181641
887.183	0.0180501
887.261	0.0181611
887.339	0.0180746
887.417	0.0181554
887.495	0.0181914
887.573	0.0182407
887.651	0.0181980
887.729	0.0180531
887.808	0.0180763
887.886	0.0181313
887.964	0.0182005
888.042	0.0180910
888.120	0.0181454
888.198	0.0180305
888.276	0.0181656
888.354	0.0180901
888.433	0.0180880
888.511	0.0180963
888.589	0.0180369
888.667	0.0181368
888.745	0.0179684
888.823	0.0181679
888.901	0.0181828
888.979	0.0181319
889.058	0.0180393
889.136	0.0180561
889.214	0.0182193
889.292	0.0181040
889.370	0.0182581
889.448	0.0180115
889.526	0.0180775
889.604	0.0180141
889.683	0.0181018
889.761	0.0181286
889.839	0.0181236
889.917	0.0179745
889.995	0.0180834
890.073	0.0181366
890.151	0.0179947
890.229	0.0179906
890.308	0.0181635
890.386	0.0180606
890.464	0.0179352
890.542	0.0179093
890.620	0.0180895
890.698	0.0180499
890.776	0.0180862
890.854	0.0179217
890.933	0.0179918
891.011	0.0180657
891.089	0.0180103
891.167	0.0180027
891.245	0.0182083
891.323	0.0180743
891.401	0.0180165
891.479	0.0180117
891.558	0.0179776
891.636	0.0180153
891.714	0.0179373
891.792	0.0178416
891.870	0.0180321
891.948	0.0179620
892.026	0.0180331
892.104	0.0179868
892.183	0.0180135
892.261	0.0181091
892.339	0.0180396
892.417	0.0179776
892.495	0.0180421
892.573	0.0180238
892.651	0.0179681
892.729	0.0180693
892.808	0.0180221
892.886	0.0179239
892.964	0.0180915
893.042	0.0179596
893.120	0.0179095
893.198	0.0179932
893.276	0.0179823
893.354	0.0179932
893.433	0.0179272
893.511	0.0178920
893.589	0.0179307
893.667	0.0181358
893.745	0.0178744
893.823	0.0179436
893.901	0.0180276
893.979	0.0180158
894.058	0.0178747
894.136	0.0180953
894.214	0.0180274
894.292	0.0180180
894.370	0.0180412
894.448	0.0180928
894.526	0.0180615
894.604	0.0181538
894.683	0.0181316
894.761	0.0182246
894.839	0.0181112
894.917	0.0181901
894.995	0.0182434
895.073	0.0182626
895.151	0.0180833
895.229	0.0182064
895.308	0.0182119
895.386	0.0182201
895.464	0.0182413
895.542	0.0182298
895.620	0.0182323
895.698	0.0182052
895.776	0.0183606
895.854	0.0182285
895.933	0.0182060
896.011	0.0182173
896.089	0.0182074
896.167	0.0182491
896.245	0.0182851
896.323	0.0181390
896.401	0.0182151
896.479	0.0181135
896.558	0.0180995
896.636	0.0180972
896.714	0.0179405
896.792	0.0179481
896.870	0.0179929
896.948	0.0181123
897.026	0.0180984
897.104	0.0180074
897.183	0.0179833
897.261	0.0180431
897.339	0.0179998
897.417	0.0179422
897.495	0.0178543
897.573	0.0180055
897.651	0.0180587
897.729	0.0180569
897.808	0.0181295
897.886	0.0179317
897.964	0.0179914
898.042	0.0180458
898.120	0.0180676
898.198	0.0179578
898.276	0.0179845
898.354	0.0181956
898.433	0.0180673
898.511	0.0181164
898.589	0.0180788
898.667	0.0180515
898.745	0.0180511
898.823	0.0179836
898.901	0.0180242
898.979	0.0180820
899.058	0.0179410
899.136	0.0180020
899.214	0.0180504
899.292	0.0180690
899.370	0.0180193
899.448	0.0178585
899.526	0.0181068
899.604	0.0180368
899.683	0.0179828
899.761	0.0179774
899.839	0.0177887
899.917	0.0179898
899.995	0.0180796
900.073	0.0179558
900.151	0.0178944
900.229	0.0179685
900.308	0.0179312
900.386	0.0181299
900.464	0.0180573
900.542	0.0179886
900.620	0.0180727
900.698	0.0180285
900.776	0.0181200
900.854	0.0182073
900.933	0.0181697
901.011	0.0183309
901.089	0.0180367
901.167	0.0181303
901.245	0.0184080
901.323	0.0182966
901.401	0.0183138
901.479	0.0183262
901.558	0.0182275
901.636	0.0183796
901.714	0.0182573
901.792	0.0182749
901.870	0.0183894
901.948	0.0184793
902.026	0.0184261
902.104	0.0184221
902.183	0.0184122
902.261	0.0183325
902.339	0.0184640
902.417	0.0183624
902.495	0.0184567
902.573	0.0183990
902.651	0.0183970
902.729	0.0183764
902.808	0.0183739
902.886	0.0183643
902.964	0.0182568
903.042	0.0183866
903.120	0.0182538
903.198	0.0182913
903.276	0.0183540
903.354	0.0183400
903.433	0.0182360
903.511	0.0183341
903.589	0.0181844
903.667	0.0183151
903.745	0.0182071
903.823	0.0182190
903.901	0.0180993
903.979	0.0182102
904.058	0.0182562
904.136	0.0182045
904.214	0.0180927
904.292	0.0181447
904.370	0.0180480
904.448	0.0181805
904.526	0.0180957
904.604	0.0182139
904.683	0.0178882
904.761	0.0181537
904.839	0.0180776
904.917	0.0180339
904.995	0.0181953
905.073	0.0180360
905.151	0.0180640
905.229	0.0180938
905.308	0.0180715
905.386	0.0182003
905.464	0.0182207
905.542	0.0181800
905.620	0.0182874
905.698	0.0182366
905.776	0.0180489
905.854	0.0181879
905.933	0.0182562
906.011	0.0182438
906.089	0.0181144
906.167	0.0181918
906.245	0.0181515
906.323	0.0181283
906.401	0.0181039
906.479	0.0179507
906.558	0.0181127
906.636	0.0181098
906.714	0.0180454
906.792	0.0180370
906.870	0.0181649
906.948	0.0180945
907.026	0.0181573
907.104	0.0180987
907.183	0.0180420
907.261	0.0183444
907.339	0.0181332
907.417	0.0182151
907.495	0.0182135
907.573	0.0183208
907.651	0.0181828
907.729	0.0182715
907.808	0.0183723
907.886	0.0183243
907.964	0.0182497
908.042	0.0182545
908.120	0.0181618
908.198	0.0181495
908.276	0.0180763
908.354	0.0181896
908.433	0.0182590
908.511	0.0182047
908.589	0.0181840
908.667	0.0181656
908.745	0.0181475
908.823	0.0182748
908.901	0.0181536
908.979	0.0181147
909.058	0.0182323
909.136	0.0182154
909.214	0.0181625
909.292	0.0181358
909.370	0.0181427
909.448	0.0182800
909.526	0.0181319
909.604	0.0180759
909.683	0.0179467
909.761	0.0180594
909.839	0.0181554
909.917	0.0181334
909.995	0.0181388
910.073	0.0182529
910.151	0.0180408
910.229	0.0179749
910.308	0.0181827
910.386	0.0180444
910.464	0.0182792
910.542	0.0181731
910.620	0.0181194
910.698	0.0180711
910.776	0.0182246
910.854	0.0181142
910.933	0.0181499
911.011	0.0181895
911.089	0.0182757
911.167	0.0180566
911.245	0.0181357
911.323	0.0180610
911.401	0.0181181
911.479	0.0182759
911.558	0.0181171
911.636	0.0180284
911.714	0.0181051
911.792	0.0179374
911.870	0.0180628
911.948	0.0180041
912.026	0.0180058
912.104	0.0180465
912.183	0.0180043
912.261	0.0178478
912.339	0.0180756
912.417	0.0179424
912.495	0.0179623
912.573	0.0179874
912.651	0.0181081
912.729	0.0180405
912.808	0.0180909
912.886	0.0180953
912.964	0.0181041
913.042	0.0181026
913.120	0.0181577
913.198	0.0180606
913.276	0.0182124
913.354	0.0182891
913.433	0.0182608
913.511	0.0181883
913.589	0.0181350
913.667	0.0180617
913.745	0.0182461
913.823	0.0182135
913.901	0.0181139
913.979	0.0181760
914.058	0.0183289
914.136	0.0181635
914.214	0.0181755
914.292	0.0182462
914.370	0.0182108
914.448	0.0180166
914.526	0.0181509
914.604	0.0181900
914.683	0.0182476
914.761	0.0180103
914.839	0.0181641
914.917	0.0181994
914.995	0.0181032
915.073	0.0181561
915.151	0.0180222
915.229	0.0181413
915.308	0.0180254
915.386	0.0181821
915.464	0.0181870
915.542	0.0180961
915.620	0.0180235
915.698	0.0180982
915.776	0.0181020
915.854	0.0179462
915.933	0.0180795
916.011	0.0180642
916.089	0.0181080
916.167	0.0180286
916.245	0.0180149
916.323	0.0179807
916.401	0.0180400
916.479	0.0180566
916.558	0.0180273
916.636	0.0179820
916.714	0.0180116
916.792	0.0179276
916.870	0.0178812
916.948	0.0178960
917.026	0.0180228
917.104	0.0179812
917.183	0.0179608
917.261	0.0179835
917.339	0.0178069
917.417	0.0180010
917.495	0.0180705
917.573	0.0180382
917.651	0.0179824
917.729	0.0179115
917.808	0.0179636
917.886	0.0178988
917.964	0.0177979
918.042	0.0179149
918.120	0.0178007
918.198	0.0179298
918.276	0.0179533
918.354	0.0179506
918.433	0.0179152
918.511	0.0179399
918.589	0.0179131
918.667	0.0178175
918.745	0.0179411
918.823	0.0179417
918.901	0.0179124
918.979	0.0179808
919.058	0.0180008
919.136	0.0179289
919.214	0.0181226
919.292	0.0180621
919.370	0.0180004
919.448	0.0180022
919.526	0.0180395
919.604	0.0178999
919.683	0.0180639
919.761	0.0181131
919.839	0.0180460
919.917	0.0180970
