06/03/2022	18:27:14	Ver.	4.1	UNKNOWN
Optical Delay	599.995081	Delta X		0.078125	Sweeps	1	Scan Rate	0/0
Coordinates	Axis 1	NaN	Axis 2	NaN	Axis 3	NaN	Axis 4	NaN	Axis 5	NaN	Axis 6	0.000000
TX Power	0.000000	RX Power	0.000000

599.995	0.0177677
600.073	0.0178713
600.151	0.0178548
600.229	0.0177255
600.308	0.0177264
600.386	0.0177816
600.464	0.0178142
600.542	0.0177550
600.620	0.0177538
600.698	0.0176240
600.776	0.0177579
600.854	0.0178107
600.933	0.0177596
601.011	0.0177815
601.089	0.0177152
601.167	0.0178565
601.245	0.0178783
601.323	0.0178011
601.401	0.0178070
601.479	0.0177291
601.558	0.0178005
601.636	0.0179422
601.714	0.0177578
601.792	0.0178959
601.870	0.0177262
601.948	0.0177956
602.026	0.0178188
602.104	0.0178787
602.183	0.0177934
602.261	0.0178268
602.339	0.0178488
602.417	0.0179140
602.495	0.0178280
602.573	0.0177099
602.651	0.0178652
602.729	0.0178809
602.808	0.0178475
602.886	0.0178211
602.964	0.0177074
603.042	0.0178048
603.120	0.0177392
603.198	0.0177465
603.276	0.0178889
603.354	0.0179442
603.433	0.0178876
603.511	0.0179097
603.589	0.0177072
603.667	0.0178078
603.745	0.0179540
603.823	0.0178204
603.901	0.0178535
603.979	0.0177990
604.058	0.0177010
604.136	0.0178175
604.214	0.0179030
604.292	0.0177708
604.370	0.0177872
604.448	0.0177589
604.526	0.0178918
604.604	0.0177843
604.683	0.0179053
604.761	0.0178992
604.839	0.0178889
604.917	0.0178374
604.995	0.0177691
605.073	0.0178136
605.151	0.0178750
605.229	0.0177306
605.308	0.0178232
605.386	0.0179409
605.464	0.0178223
605.542	0.0178680
605.620	0.0179490
605.698	0.0178648
605.776	0.0178527
605.854	0.0179373
605.933	0.0179420
606.011	0.0179739
606.089	0.0179390
606.167	0.0180096
606.245	0.0179845
606.323	0.0178472
606.401	0.0179052
606.479	0.0179051
606.558	0.0180249
606.636	0.0179121
606.714	0.0179733
606.792	0.0177879
606.870	0.0178312
606.948	0.0179368
607.026	0.0179439
607.104	0.0180503
607.183	0.0179325
607.261	0.0178872
607.339	0.0181100
607.417	0.0179422
607.495	0.0178987
607.573	0.0178816
607.651	0.0180411
607.729	0.0179540
607.808	0.0178900
607.886	0.0178159
607.964	0.0179373
608.042	0.0179893
608.120	0.0177983
608.198	0.0179055
608.276	0.0179044
608.354	0.0178487
608.433	0.0178796
608.511	0.0180122
608.589	0.0179636
608.667	0.0178337
608.745	0.0178641
608.823	0.0178674
608.901	0.0180033
608.979	0.0180104
609.058	0.0177941
609.136	0.0178933
609.214	0.0179562
609.292	0.0178913
609.370	0.0178928
609.448	0.0178749
609.526	0.0179340
609.604	0.0179008
609.683	0.0179646
609.761	0.0179650
609.839	0.0179281
609.917	0.0180262
609.995	0.0179205
610.073	0.0179921
610.151	0.0180439
610.229	0.0178625
610.308	0.0180505
610.386	0.0178855
610.464	0.0179124
610.542	0.0180135
610.620	0.0178215
610.698	0.0179272
610.776	0.0179137
610.854	0.0179684
610.933	0.0180070
611.011	0.0178810
611.089	0.0181058
611.167	0.0177837
611.245	0.0179218
611.323	0.0178809
611.401	0.0180380
611.479	0.0179583
611.558	0.0180257
611.636	0.0178049
611.714	0.0180109
611.792	0.0179153
611.870	0.0178511
611.948	0.0179828
612.026	0.0179436
612.104	0.0179625
612.183	0.0179398
612.261	0.0179465
612.339	0.0181036
612.417	0.0179607
612.495	0.0177999
612.573	0.0179303
612.651	0.0179509
612.729	0.0179832
612.808	0.0179160
612.886	0.0179600
612.964	0.0180096
613.042	0.0179930
613.120	0.0179257
613.198	0.0179073
613.276	0.0179379
613.354	0.0179893
613.433	0.0177806
613.511	0.0179456
613.589	0.0179387
613.667	0.0178970
613.745	0.0178805
613.823	0.0180067
613.901	0.0178632
613.979	0.0178055
614.058	0.0177708
614.136	0.0178150
614.214	0.0177700
614.292	0.0178620
614.370	0.0178785
614.448	0.0177730
614.526	0.0178379
614.604	0.0178756
614.683	0.0178663
614.761	0.0178478
614.839	0.0176875
614.917	0.0177589
614.995	0.0179034
615.073	0.0178165
615.151	0.0177477
615.229	0.0178410
615.308	0.0179043
615.386	0.0177686
615.464	0.0177786
615.542	0.0177444
615.620	0.0177979
615.698	0.0178876
615.776	0.0176949
615.854	0.0177567
615.933	0.0176785
616.011	0.0176784
616.089	0.0177029
616.167	0.0177125
616.245	0.0176572
616.323	0.0177823
616.401	0.0177061
616.479	0.0177566
616.558	0.0177196
616.636	0.0177462
616.714	0.0177757
616.792	0.0177301
616.870	0.0176719
616.948	0.0176948
617.026	0.0177153
617.104	0.0176279
617.183	0.0175875
617.261	0.0178090
617.339	0.0177345
617.417	0.0176823
617.495	0.0177865
617.573	0.0176755
617.651	0.0176659
617.729	0.0175468
617.808	0.0175654
617.886	0.0176859
617.964	0.0176270
618.042	0.0176127
618.120	0.0176132
618.198	0.0176178
618.276	0.0176777
618.354	0.0177381
618.433	0.0176443
618.511	0.0176131
618.589	0.0176971
618.667	0.0176054
618.745	0.0177320
618.823	0.0177460
618.901	0.0176191
618.979	0.0177048
619.058	0.0175002
619.136	0.0177076
619.214	0.0175720
619.292	0.0177584
619.370	0.0177444
619.448	0.0178201
619.526	0.0177957
619.604	0.0179236
619.683	0.0176624
619.761	0.0177353
619.839	0.0178047
619.917	0.0177989
619.995	0.0177413
620.073	0.0178826
620.151	0.0177987
620.229	0.0178797
620.308	0.0178302
620.386	0.0177986
620.464	0.0177339
620.542	0.0178549
620.620	0.0177766
620.698	0.0175635
620.776	0.0176342
620.854	0.0176554
620.933	0.0176403
621.011	0.0176687
621.089	0.0177164
621.167	0.0176859
621.245	0.0175985
621.323	0.0176331
621.401	0.0175143
621.479	0.0174294
621.558	0.0175161
621.636	0.0177644
621.714	0.0176703
621.792	0.0175890
621.870	0.0175050
621.948	0.0176224
622.026	0.0175979
622.104	0.0177090
622.183	0.0177130
622.261	0.0176076
622.339	0.0178245
622.417	0.0177415
622.495	0.0176860
622.573	0.0178481
622.651	0.0177204
622.729	0.0178149
622.808	0.0178229
622.886	0.0179074
622.964	0.0178482
623.042	0.0177275
623.120	0.0178366
623.198	0.0178076
623.276	0.0177516
623.354	0.0179158
623.433	0.0179057
623.511	0.0178924
623.589	0.0178530
623.667	0.0179711
623.745	0.0179842
623.823	0.0180681
623.901	0.0178792
623.979	0.0179378
624.058	0.0180002
624.136	0.0180194
624.214	0.0178473
624.292	0.0180050
624.370	0.0179095
624.448	0.0179260
624.526	0.0180788
624.604	0.0179073
624.683	0.0178174
624.761	0.0180696
624.839	0.0179242
624.917	0.0180026
624.995	0.0179621
625.073	0.0179484
625.151	0.0179153
625.229	0.0179899
625.308	0.0181387
625.386	0.0179568
625.464	0.0179497
625.542	0.0178596
625.620	0.0179108
625.698	0.0179597
625.776	0.0181438
625.854	0.0180721
625.933	0.0178784
626.011	0.0180723
626.089	0.0180141
626.167	0.0179298
626.245	0.0179263
626.323	0.0178471
626.401	0.0178941
626.479	0.0180772
626.558	0.0181078
626.636	0.0179391
626.714	0.0180347
626.792	0.0180159
626.870	0.0180453
626.948	0.0179444
627.026	0.0180381
627.104	0.0180329
627.183	0.0180682
627.261	0.0179871
627.339	0.0179382
627.417	0.0179041
627.495	0.0179289
627.573	0.0178145
627.651	0.0178980
627.729	0.0180936
627.808	0.0178970
627.886	0.0178756
627.964	0.0179476
628.042	0.0179286
628.120	0.0179288
628.198	0.0180326
628.276	0.0179903
628.354	0.0179366
628.433	0.0179686
628.511	0.0180239
628.589	0.0180282
628.667	0.0179164
628.745	0.0178555
628.823	0.0179666
628.901	0.0179857
628.979	0.0179082
629.058	0.0179080
629.136	0.0178355
629.214	0.0179225
629.292	0.0179401
629.370	0.0179822
629.448	0.0179688
629.526	0.0178745
629.604	0.0179417
629.683	0.0179301
629.761	0.0179972
629.839	0.0179019
629.917	0.0179185
629.995	0.0181349
630.073	0.0180048
630.151	0.0179603
630.229	0.0177979
630.308	0.0178493
630.386	0.0179511
630.464	0.0178451
630.542	0.0179929
630.620	0.0180487
630.698	0.0179385
630.776	0.0177838
630.854	0.0179021
630.933	0.0179262
631.011	0.0178772
631.089	0.0178796
631.167	0.0179013
631.245	0.0179033
631.323	0.0179821
631.401	0.0178672
631.479	0.0180146
631.558	0.0180294
631.636	0.0179666
631.714	0.0179906
631.792	0.0178801
631.870	0.0179847
631.948	0.0180194
632.026	0.0178645
632.104	0.0179597
632.183	0.0179350
632.261	0.0178568
632.339	0.0180142
632.417	0.0178423
632.495	0.0178558
632.573	0.0178349
632.651	0.0177724
632.729	0.0179652
632.808	0.0177937
632.886	0.0178574
632.964	0.0177750
633.042	0.0177288
633.120	0.0179405
633.198	0.0178724
633.276	0.0177561
633.354	0.0179614
633.433	0.0180299
633.511	0.0178622
633.589	0.0177327
633.667	0.0178465
633.745	0.0178011
633.823	0.0178166
633.901	0.0177325
633.979	0.0178215
634.058	0.0176933
634.136	0.0179324
634.214	0.0177187
634.292	0.0178346
634.370	0.0178080
634.448	0.0177724
634.526	0.0176568
634.604	0.0176146
634.683	0.0177512
634.761	0.0176962
634.839	0.0176814
634.917	0.0177338
634.995	0.0178349
635.073	0.0177158
635.151	0.0178591
635.229	0.0178140
635.308	0.0178769
635.386	0.0179246
635.464	0.0178526
635.542	0.0178104
635.620	0.0177448
635.698	0.0178480
635.776	0.0179145
635.854	0.0178107
635.933	0.0178051
636.011	0.0177767
636.089	0.0177942
636.167	0.0179474
636.245	0.0178656
636.323	0.0177644
636.401	0.0177106
636.479	0.0177170
636.558	0.0177090
636.636	0.0177491
636.714	0.0177331
636.792	0.0178179
636.870	0.0177699
636.948	0.0177116
637.026	0.0179044
637.104	0.0177581
637.183	0.0176740
637.261	0.0178210
637.339	0.0177765
637.417	0.0177956
637.495	0.0176586
637.573	0.0178253
637.651	0.0178164
637.729	0.0177231
637.808	0.0177555
637.886	0.0177769
637.964	0.0178677
638.042	0.0178502
638.120	0.0177853
638.198	0.0178262
638.276	0.0178635
638.354	0.0177303
638.433	0.0178653
638.511	0.0177477
638.589	0.0177613
638.667	0.0177570
638.745	0.0178322
638.823	0.0178546
638.901	0.0178604
638.979	0.0178360
639.058	0.0177100
639.136	0.0176978
639.214	0.0178797
639.292	0.0178890
639.370	0.0176644
639.448	0.0177264
639.526	0.0179469
639.604	0.0178767
639.683	0.0178491
639.761	0.0177900
639.839	0.0178182
639.917	0.0178778
639.995	0.0177233
640.073	0.0177933
640.151	0.0177090
640.229	0.0178851
640.308	0.0177932
640.386	0.0177394
640.464	0.0179106
640.542	0.0177676
640.620	0.0176753
640.698	0.0178405
640.776	0.0177761
640.854	0.0176390
640.933	0.0178159
641.011	0.0178474
641.089	0.0176608
641.167	0.0179362
641.245	0.0178403
641.323	0.0178052
641.401	0.0177974
641.479	0.0178404
641.558	0.0176823
641.636	0.0177402
641.714	0.0178234
641.792	0.0178185
641.870	0.0178991
641.948	0.0178986
642.026	0.0179732
642.104	0.0178326
642.183	0.0177958
642.261	0.0178034
642.339	0.0177499
642.417	0.0179298
642.495	0.0177467
642.573	0.0178562
642.651	0.0178773
642.729	0.0177527
642.808	0.0178470
642.886	0.0179002
642.964	0.0178981
643.042	0.0177581
643.120	0.0177804
643.198	0.0178621
643.276	0.0177316
643.354	0.0177603
643.433	0.0178221
643.511	0.0178011
643.589	0.0178799
643.667	0.0176955
643.745	0.0178721
643.823	0.0179088
643.901	0.0178783
643.979	0.0178322
644.058	0.0177990
644.136	0.0178970
644.214	0.0178697
644.292	0.0179789
644.370	0.0177807
644.448	0.0178800
644.526	0.0178204
644.604	0.0179026
644.683	0.0179843
644.761	0.0177958
644.839	0.0178944
644.917	0.0177058
644.995	0.0178419
645.073	0.0179101
645.151	0.0178651
645.229	0.0177801
645.308	0.0178040
645.386	0.0179288
645.464	0.0177460
645.542	0.0178693
645.620	0.0178532
645.698	0.0178324
645.776	0.0178839
645.854	0.0178867
645.933	0.0178609
646.011	0.0178737
646.089	0.0178772
646.167	0.0178394
646.245	0.0177441
646.323	0.0177340
646.401	0.0177980
646.479	0.0176897
646.558	0.0178283
646.636	0.0178292
646.714	0.0179803
646.792	0.0178977
646.870	0.0179167
646.948	0.0178544
647.026	0.0179522
647.104	0.0178854
647.183	0.0179117
647.261	0.0179617
647.339	0.0179827
647.417	0.0180710
647.495	0.0180258
647.573	0.0180817
647.651	0.0180669
647.729	0.0181168
647.808	0.0180463
647.886	0.0178226
647.964	0.0178841
648.042	0.0179119
648.120	0.0179444
648.198	0.0179621
648.276	0.0178298
648.354	0.0178353
648.433	0.0178642
648.511	0.0179333
648.589	0.0178214
648.667	0.0178801
648.745	0.0180516
648.823	0.0179444
648.901	0.0178942
648.979	0.0181099
649.058	0.0181028
649.136	0.0180907
649.214	0.0181326
649.292	0.0180659
649.370	0.0179366
649.448	0.0180118
649.526	0.0181495
649.604	0.0180700
649.683	0.0178857
649.761	0.0179305
649.839	0.0179252
649.917	0.0178639
649.995	0.0177180
650.073	0.0177132
650.151	0.0179794
650.229	0.0180755
650.308	0.0179601
650.386	0.0178096
650.464	0.0180982
650.542	0.0179375
650.620	0.0178448
650.698	0.0181524
650.776	0.0180390
650.854	0.0180655
650.933	0.0181157
651.011	0.0181140
651.089	0.0180520
651.167	0.0180728
651.245	0.0181075
651.323	0.0180551
651.401	0.0179383
651.479	0.0180817
651.558	0.0179307
651.636	0.0179179
651.714	0.0178125
651.792	0.0179447
651.870	0.0178581
651.948	0.0177853
652.026	0.0179430
652.104	0.0178338
652.183	0.0179158
652.261	0.0179127
652.339	0.0180182
652.417	0.0179817
652.495	0.0179936
652.573	0.0180438
652.651	0.0178418
652.729	0.0179535
652.808	0.0179819
652.886	0.0179922
652.964	0.0178876
653.042	0.0180344
653.120	0.0179633
653.198	0.0179921
653.276	0.0179839
653.354	0.0177634
653.433	0.0177442
653.511	0.0178459
653.589	0.0177795
653.667	0.0177236
653.745	0.0178580
653.823	0.0177222
653.901	0.0178142
653.979	0.0179150
654.058	0.0179412
654.136	0.0178835
654.214	0.0178470
654.292	0.0178725
654.370	0.0179434
654.448	0.0179943
654.526	0.0179544
654.604	0.0178160
654.683	0.0179482
654.761	0.0180039
654.839	0.0179711
654.917	0.0178318
654.995	0.0179370
655.073	0.0179488
655.151	0.0179745
655.229	0.0180109
655.308	0.0178223
655.386	0.0178929
655.464	0.0177036
655.542	0.0178503
655.620	0.0178410
655.698	0.0176476
655.776	0.0177931
655.854	0.0178526
655.933	0.0178431
656.011	0.0178060
656.089	0.0177950
656.167	0.0178712
656.245	0.0178312
656.323	0.0179921
656.401	0.0179411
656.479	0.0178931
656.558	0.0178275
656.636	0.0179347
656.714	0.0178937
656.792	0.0179254
656.870	0.0179631
656.948	0.0180064
657.026	0.0178730
657.104	0.0179615
657.183	0.0179158
657.261	0.0177906
657.339	0.0178756
657.417	0.0178752
657.495	0.0178004
657.573	0.0177153
657.651	0.0177978
657.729	0.0177604
657.808	0.0178718
657.886	0.0177161
657.964	0.0178072
658.042	0.0178448
658.120	0.0179775
658.198	0.0178941
658.276	0.0178729
658.354	0.0178892
658.433	0.0178389
658.511	0.0178427
658.589	0.0179792
658.667	0.0180273
658.745	0.0180555
658.823	0.0178479
658.901	0.0178508
658.979	0.0178568
659.058	0.0179093
659.136	0.0178239
659.214	0.0180010
659.292	0.0179250
659.370	0.0177628
659.448	0.0178934
659.526	0.0179090
659.604	0.0178397
659.683	0.0178802
659.761	0.0177850
659.839	0.0178682
659.917	0.0179733
659.995	0.0179311
660.073	0.0179131
660.151	0.0179859
660.229	0.0178550
660.308	0.0178931
660.386	0.0178756
660.464	0.0179269
660.542	0.0178151
660.620	0.0178327
660.698	0.0179349
660.776	0.0180244
660.854	0.0180096
660.933	0.0180069
661.011	0.0178948
661.089	0.0181625
661.167	0.0180313
661.245	0.0179723
661.323	0.0179667
661.401	0.0180533
661.479	0.0180015
661.558	0.0178218
661.636	0.0178770
661.714	0.0179145
661.792	0.0178397
661.870	0.0178176
661.948	0.0180386
662.026	0.0178773
662.104	0.0179577
662.183	0.0177617
662.261	0.0178963
662.339	0.0179381
662.417	0.0178678
662.495	0.0177768
662.573	0.0180400
662.651	0.0178095
662.729	0.0178629
662.808	0.0180006
662.886	0.0179391
662.964	0.0178479
663.042	0.0179385
663.120	0.0179129
663.198	0.0180592
663.276	0.0178334
663.354	0.0178730
663.433	0.0178882
663.511	0.0179344
663.589	0.0179739
663.667	0.0177957
663.745	0.0177503
663.823	0.0178929
663.901	0.0178418
663.979	0.0178221
664.058	0.0176856
664.136	0.0177485
664.214	0.0178517
664.292	0.0178754
664.370	0.0178112
664.448	0.0180018
664.526	0.0179321
664.604	0.0178414
664.683	0.0179828
664.761	0.0179965
664.839	0.0179360
664.917	0.0177581
664.995	0.0179356
665.073	0.0178473
665.151	0.0180904
665.229	0.0180472
665.308	0.0179434
665.386	0.0178793
665.464	0.0179644
665.542	0.0179314
665.620	0.0178497
665.698	0.0177937
665.776	0.0178734
665.854	0.0178340
665.933	0.0179683
666.011	0.0179173
666.089	0.0177938
666.167	0.0178890
666.245	0.0180080
666.323	0.0179779
666.401	0.0179485
666.479	0.0180994
666.558	0.0181255
666.636	0.0180344
666.714	0.0179697
666.792	0.0179417
666.870	0.0179913
666.948	0.0179689
667.026	0.0181708
667.104	0.0180579
667.183	0.0179471
667.261	0.0179402
667.339	0.0179121
667.417	0.0177895
667.495	0.0179272
667.573	0.0178819
667.651	0.0178672
667.729	0.0178429
667.808	0.0179016
667.886	0.0179063
667.964	0.0178520
668.042	0.0178776
668.120	0.0178599
668.198	0.0179237
668.276	0.0180173
668.354	0.0178668
668.433	0.0179567
668.511	0.0180033
668.589	0.0178217
668.667	0.0179766
668.745	0.0180036
668.823	0.0180251
668.901	0.0177959
668.979	0.0179011
669.058	0.0179167
669.136	0.0178890
669.214	0.0179887
669.292	0.0179062
669.370	0.0178441
669.448	0.0176951
669.526	0.0178805
669.604	0.0179345
669.683	0.0178352
669.761	0.0177894
669.839	0.0179641
669.917	0.0178938
669.995	0.0177932
670.073	0.0178444
670.151	0.0178406
670.229	0.0178349
670.308	0.0178401
670.386	0.0179832
670.464	0.0177940
670.542	0.0177748
670.620	0.0178648
670.698	0.0179440
670.776	0.0180429
670.854	0.0179344
670.933	0.0178079
671.011	0.0179114
671.089	0.0180194
671.167	0.0178625
671.245	0.0178484
671.323	0.0178524
671.401	0.0178477
671.479	0.0177745
671.558	0.0178503
671.636	0.0179078
671.714	0.0177760
671.792	0.0176868
671.870	0.0177381
671.948	0.0177746
672.026	0.0177973
672.104	0.0177707
672.183	0.0176475
672.261	0.0177898
672.339	0.0178405
672.417	0.0177063
672.495	0.0177872
672.573	0.0178239
672.651	0.0177448
672.729	0.0178248
672.808	0.0177885
672.886	0.0178585
672.964	0.0178265
673.042	0.0179036
673.120	0.0178416
673.198	0.0177782
673.276	0.0178334
673.354	0.0177620
673.433	0.0178924
673.511	0.0178899
673.589	0.0178362
673.667	0.0177488
673.745	0.0178157
673.823	0.0177843
673.901	0.0178606
673.979	0.0177592
674.058	0.0177645
674.136	0.0178605
674.214	0.0177457
674.292	0.0178008
674.370	0.0177979
674.448	0.0178072
674.526	0.0177392
674.604	0.0177478
674.683	0.0177454
674.761	0.0178052
674.839	0.0179460
674.917	0.0178004
674.995	0.0177478
675.073	0.0178408
675.151	0.0178348
675.229	0.0178549
675.308	0.0178734
675.386	0.0177728
675.464	0.0179990
675.542	0.0178426
675.620	0.0177548
675.698	0.0178416
675.776	0.0178133
675.854	0.0178507
675.933	0.0177952
676.011	0.0176553
676.089	0.0177570
676.167	0.0178918
676.245	0.0178056
676.323	0.0177468
676.401	0.0177950
676.479	0.0178006
676.558	0.0178059
676.636	0.0177752
676.714	0.0178754
676.792	0.0177755
676.870	0.0178538
676.948	0.0178324
677.026	0.0178496
677.104	0.0177731
677.183	0.0176530
677.261	0.0177324
677.339	0.0175338
677.417	0.0176292
677.495	0.0175351
677.573	0.0175359
677.651	0.0174393
677.729	0.0173715
677.808	0.0173199
677.886	0.0174489
677.964	0.0174259
678.042	0.0173921
678.120	0.0173615
678.198	0.0176257
678.276	0.0175418
678.354	0.0175512
678.433	0.0176764
678.511	0.0176927
678.589	0.0176768
678.667	0.0177488
678.745	0.0177211
678.823	0.0178052
678.901	0.0177512
678.979	0.0177880
679.058	0.0177408
679.136	0.0177768
679.214	0.0179146
679.292	0.0178619
679.370	0.0178797
679.448	0.0179434
679.526	0.0179588
679.604	0.0179521
679.683	0.0178762
679.761	0.0179607
679.839	0.0179944
679.917	0.0180087
679.995	0.0179623
680.073	0.0180145
680.151	0.0179880
680.229	0.0179777
680.308	0.0179371
680.386	0.0179350
680.464	0.0180411
680.542	0.0179577
680.620	0.0179251
680.698	0.0177318
680.776	0.0177595
680.854	0.0176527
680.933	0.0178441
681.011	0.0178220
681.089	0.0176254
681.167	0.0176330
681.245	0.0177090
681.323	0.0176685
681.401	0.0176896
681.479	0.0177110
681.558	0.0176975
681.636	0.0176952
681.714	0.0177129
681.792	0.0176719
681.870	0.0177190
681.948	0.0177009
682.026	0.0176944
682.104	0.0177229
682.183	0.0176123
682.261	0.0177001
682.339	0.0175662
682.417	0.0175932
682.495	0.0175963
682.573	0.0175761
682.651	0.0176290
682.729	0.0175368
682.808	0.0175568
682.886	0.0174635
682.964	0.0175302
683.042	0.0176521
683.120	0.0176101
683.198	0.0176032
683.276	0.0176756
683.354	0.0177228
683.433	0.0177128
683.511	0.0177374
683.589	0.0180489
683.667	0.0180892
683.745	0.0179552
683.823	0.0180023
683.901	0.0180206
683.979	0.0180920
684.058	0.0181251
684.136	0.0180844
684.214	0.0182475
684.292	0.0181120
684.370	0.0181329
684.448	0.0179555
684.526	0.0180998
684.604	0.0180907
684.683	0.0180786
684.761	0.0180522
684.839	0.0181160
684.917	0.0180760
684.995	0.0180066
685.073	0.0180404
685.151	0.0180210
685.229	0.0180099
685.308	0.0179555
685.386	0.0180573
685.464	0.0179919
685.542	0.0179654
685.620	0.0179640
685.698	0.0179498
685.776	0.0178970
685.854	0.0179388
685.933	0.0178949
686.011	0.0177612
686.089	0.0179030
686.167	0.0179565
686.245	0.0178213
686.323	0.0178325
686.401	0.0177480
686.479	0.0178922
686.558	0.0179736
686.636	0.0178926
686.714	0.0176918
686.792	0.0177645
686.870	0.0177775
686.948	0.0177529
687.026	0.0177753
687.104	0.0178387
687.183	0.0177164
687.261	0.0177356
687.339	0.0178175
687.417	0.0178984
687.495	0.0177942
687.573	0.0177598
687.651	0.0178199
687.729	0.0177962
687.808	0.0176654
687.886	0.0177817
687.964	0.0176735
688.042	0.0179300
688.120	0.0177672
688.198	0.0177953
688.276	0.0179015
688.354	0.0177731
688.433	0.0178702
688.511	0.0178938
688.589	0.0178475
688.667	0.0180684
688.745	0.0179582
688.823	0.0181158
688.901	0.0180253
688.979	0.0181776
689.058	0.0181817
689.136	0.0181841
689.214	0.0183147
689.292	0.0181618
689.370	0.0180994
689.448	0.0181330
689.526	0.0182288
689.604	0.0182890
689.683	0.0181197
689.761	0.0181004
689.839	0.0180834
689.917	0.0178658
689.995	0.0179778
690.073	0.0180385
690.151	0.0179373
690.229	0.0180347
690.308	0.0179069
690.386	0.0178097
690.464	0.0177151
690.542	0.0177490
690.620	0.0177879
690.698	0.0177643
690.776	0.0177318
690.854	0.0175951
690.933	0.0178506
691.011	0.0178210
691.089	0.0178590
691.167	0.0177635
691.245	0.0175858
691.323	0.0176595
691.401	0.0177607
691.479	0.0178885
691.558	0.0177746
691.636	0.0177848
691.714	0.0176696
691.792	0.0177842
691.870	0.0177464
691.948	0.0178773
692.026	0.0180513
692.104	0.0178225
692.183	0.0178334
692.261	0.0178608
692.339	0.0179619
692.417	0.0179329
692.495	0.0177714
692.573	0.0177721
692.651	0.0178786
692.729	0.0177856
692.808	0.0177804
692.886	0.0178588
692.964	0.0179471
693.042	0.0178673
693.120	0.0178350
693.198	0.0177251
693.276	0.0177763
693.354	0.0178620
693.433	0.0176698
693.511	0.0178202
693.589	0.0177237
693.667	0.0178996
693.745	0.0178639
693.823	0.0177399
693.901	0.0178107
693.979	0.0177351
694.058	0.0178481
694.136	0.0179170
694.214	0.0178298
694.292	0.0178945
694.370	0.0180641
694.448	0.0179285
694.526	0.0179173
694.604	0.0178966
694.683	0.0179607
694.761	0.0179234
694.839	0.0178027
694.917	0.0178654
694.995	0.0180517
695.073	0.0180077
695.151	0.0179691
695.229	0.0177697
695.308	0.0178401
695.386	0.0178496
695.464	0.0179079
695.542	0.0178202
695.620	0.0176456
695.698	0.0175929
695.776	0.0175739
695.854	0.0176919
695.933	0.0175218
696.011	0.0175557
696.089	0.0175304
696.167	0.0174603
696.245	0.0173531
696.323	0.0172987
696.401	0.0173785
696.479	0.0172903
696.558	0.0173860
696.636	0.0175935
696.714	0.0175037
696.792	0.0175526
696.870	0.0176961
696.948	0.0176499
697.026	0.0177197
697.104	0.0176762
697.183	0.0176237
697.261	0.0179426
697.339	0.0178744
697.417	0.0178538
697.495	0.0179262
697.573	0.0178277
697.651	0.0178607
697.729	0.0179591
697.808	0.0179900
697.886	0.0179391
697.964	0.0178631
698.042	0.0179185
698.120	0.0177359
698.198	0.0177523
698.276	0.0178832
698.354	0.0178171
698.433	0.0178614
698.511	0.0179394
698.589	0.0178465
698.667	0.0178545
698.745	0.0178703
698.823	0.0178040
698.901	0.0176694
698.979	0.0176567
699.058	0.0176904
699.136	0.0177400
699.214	0.0176646
699.292	0.0177345
699.370	0.0177696
699.448	0.0176783
699.526	0.0176244
699.604	0.0176787
699.683	0.0177285
699.761	0.0175623
699.839	0.0177016
699.917	0.0176379
699.995	0.0175798
700.073	0.0177015
700.151	0.0177615
700.229	0.0176161
700.308	0.0177314
700.386	0.0176682
700.464	0.0175545
700.542	0.0176410
700.620	0.0176177
700.698	0.0177088
700.776	0.0176772
700.854	0.0176479
700.933	0.0178019
701.011	0.0177719
701.089	0.0176215
701.167	0.0177884
701.245	0.0177428
701.323	0.0177329
701.401	0.0178413
701.479	0.0178658
701.558	0.0178513
701.636	0.0178493
701.714	0.0178509
701.792	0.0178815
701.870	0.0179939
701.948	0.0180981
702.026	0.0180675
702.104	0.0179135
702.183	0.0179450
702.261	0.0179797
702.339	0.0179723
702.417	0.0178773
702.495	0.0177200
702.573	0.0178287
702.651	0.0178223
702.729	0.0178014
702.808	0.0176080
702.886	0.0176513
702.964	0.0174833
703.042	0.0175864
703.120	0.0175148
703.198	0.0173656
703.276	0.0173973
703.354	0.0174231
703.433	0.0174844
703.511	0.0175517
703.589	0.0176012
703.667	0.0177920
703.745	0.0178963
703.823	0.0178429
703.901	0.0179354
703.979	0.0179309
704.058	0.0181452
704.136	0.0181466
704.214	0.0182420
704.292	0.0181863
704.370	0.0183533
704.448	0.0183449
704.526	0.0183208
704.604	0.0182523
704.683	0.0182584
704.761	0.0182307
704.839	0.0182841
704.917	0.0181384
704.995	0.0180820
705.073	0.0179969
705.151	0.0178448
705.229	0.0178307
705.308	0.0176113
705.386	0.0176232
705.464	0.0176271
705.542	0.0175273
705.620	0.0174069
705.698	0.0173699
705.776	0.0173533
705.854	0.0172538
705.933	0.0171561
706.011	0.0172781
706.089	0.0173460
706.167	0.0173361
706.245	0.0174828
706.323	0.0175591
706.401	0.0175310
706.479	0.0177083
706.558	0.0177685
706.636	0.0178724
706.714	0.0179654
706.792	0.0180334
706.870	0.0181626
706.948	0.0181676
707.026	0.0182664
707.104	0.0182099
707.183	0.0183116
707.261	0.0183970
707.339	0.0184240
707.417	0.0184423
707.495	0.0183080
707.573	0.0184923
707.651	0.0183311
707.729	0.0180679
707.808	0.0181522
707.886	0.0181211
707.964	0.0179311
708.042	0.0178674
708.120	0.0178780
708.198	0.0177191
708.276	0.0176727
708.354	0.0176244
708.433	0.0173717
708.511	0.0173981
708.589	0.0175858
708.667	0.0174126
708.745	0.0173080
708.823	0.0173470
708.901	0.0174197
708.979	0.0172971
709.058	0.0172713
709.136	0.0173234
709.214	0.0174808
709.292	0.0173374
709.370	0.0173936
709.448	0.0175178
709.526	0.0176259
709.604	0.0176014
709.683	0.0175906
709.761	0.0179378
709.839	0.0177308
709.917	0.0178471
709.995	0.0180184
710.073	0.0181089
710.151	0.0181721
710.229	0.0181612
710.308	0.0180769
710.386	0.0182143
710.464	0.0182005
710.542	0.0182558
710.620	0.0181069
710.698	0.0183470
710.776	0.0183253
710.854	0.0181898
710.933	0.0182242
711.011	0.0182464
711.089	0.0180737
711.167	0.0181754
711.245	0.0182497
711.323	0.0182939
711.401	0.0181449
711.479	0.0181385
711.558	0.0181261
711.636	0.0182327
711.714	0.0181641
711.792	0.0182095
711.870	0.0180501
711.948	0.0181661
712.026	0.0179891
712.104	0.0180191
712.183	0.0180313
712.261	0.0181456
712.339	0.0179232
712.417	0.0178471
712.495	0.0178845
712.573	0.0177159
712.651	0.0175531
712.729	0.0176459
712.808	0.0175656
712.886	0.0173736
712.964	0.0174373
713.042	0.0173016
713.120	0.0173075
713.198	0.0172437
713.276	0.0172371
713.354	0.0174527
713.433	0.0174155
713.511	0.0175941
713.589	0.0177327
713.667	0.0178934
713.745	0.0179182
713.823	0.0180366
713.901	0.0182340
713.979	0.0183656
714.058	0.0184879
714.136	0.0185178
714.214	0.0186207
714.292	0.0184911
714.370	0.0186960
714.448	0.0185070
714.526	0.0184718
714.604	0.0184753
714.683	0.0182970
714.761	0.0182740
714.839	0.0182464
714.917	0.0180779
714.995	0.0178642
715.073	0.0177505
715.151	0.0178413
715.229	0.0175925
715.308	0.0176398
715.386	0.0175196
715.464	0.0173399
715.542	0.0174123
715.620	0.0174760
715.698	0.0175119
715.776	0.0174117
715.854	0.0174533
715.933	0.0175813
716.011	0.0177003
716.089	0.0175688
716.167	0.0175149
716.245	0.0176616
716.323	0.0176780
716.401	0.0176939
716.479	0.0175815
716.558	0.0176872
716.636	0.0178235
716.714	0.0177119
716.792	0.0177396
716.870	0.0178474
716.948	0.0178539
717.026	0.0178093
717.104	0.0179218
717.183	0.0178751
717.261	0.0178268
717.339	0.0179901
717.417	0.0179484
717.495	0.0179053
717.573	0.0180737
717.651	0.0180888
717.729	0.0181252
717.808	0.0179575
717.886	0.0178423
717.964	0.0179369
718.042	0.0179971
718.120	0.0178305
718.198	0.0178142
718.276	0.0179253
718.354	0.0180781
718.433	0.0179860
718.511	0.0180077
718.589	0.0180817
718.667	0.0180920
718.745	0.0180416
718.823	0.0180732
718.901	0.0182632
718.979	0.0184007
719.058	0.0182723
719.136	0.0181282
719.214	0.0182786
719.292	0.0182879
719.370	0.0182708
719.448	0.0184840
719.526	0.0183807
719.604	0.0184203
719.683	0.0182305
719.761	0.0183903
719.839	0.0184368
719.917	0.0182735
719.995	0.0183345
720.073	0.0181201
720.151	0.0181160
720.229	0.0179494
720.308	0.0177880
720.386	0.0176437
720.464	0.0176955
720.542	0.0175991
720.620	0.0172615
720.698	0.0172515
720.776	0.0171260
720.854	0.0169453
720.933	0.0168256
721.011	0.0167884
721.089	0.0166578
721.167	0.0165002
721.245	0.0165179
721.323	0.0166219
721.401	0.0164890
721.479	0.0165120
721.558	0.0167231
721.636	0.0168114
721.714	0.0169398
721.792	0.0171163
721.870	0.0172106
721.948	0.0173962
722.026	0.0176414
722.104	0.0178173
722.183	0.0179034
722.261	0.0180155
722.339	0.0181785
722.417	0.0183665
722.495	0.0184392
722.573	0.0184617
722.651	0.0186521
722.729	0.0186325
722.808	0.0187881
722.886	0.0186034
722.964	0.0186926
723.042	0.0189365
723.120	0.0187215
723.198	0.0187827
723.276	0.0189120
723.354	0.0188409
723.433	0.0188921
723.511	0.0187920
723.589	0.0187064
723.667	0.0184689
723.745	0.0185245
723.823	0.0184760
723.901	0.0183177
723.979	0.0183018
724.058	0.0180351
724.136	0.0181031
724.214	0.0177760
724.292	0.0176449
724.370	0.0176970
724.448	0.0176342
724.526	0.0174851
724.604	0.0174976
724.683	0.0175566
724.761	0.0175273
724.839	0.0174680
724.917	0.0174292
724.995	0.0174596
725.073	0.0176284
725.151	0.0175519
725.229	0.0175227
725.308	0.0176096
725.386	0.0175480
725.464	0.0175770
725.542	0.0176242
725.620	0.0177434
725.698	0.0177148
725.776	0.0178109
725.854	0.0179262
725.933	0.0176994
726.011	0.0177897
726.089	0.0176708
726.167	0.0178225
726.245	0.0178873
726.323	0.0177866
726.401	0.0177869
726.479	0.0177708
726.558	0.0177218
726.636	0.0177320
726.714	0.0177469
726.792	0.0177264
726.870	0.0178566
726.948	0.0178046
727.026	0.0177212
727.104	0.0177445
727.183	0.0178229
727.261	0.0176978
727.339	0.0178658
727.417	0.0179041
727.495	0.0178280
727.573	0.0179423
727.651	0.0180247
727.729	0.0180064
727.808	0.0178519
727.886	0.0179446
727.964	0.0180473
728.042	0.0182238
728.120	0.0180078
728.198	0.0181026
728.276	0.0181039
728.354	0.0179971
728.433	0.0178952
728.511	0.0180773
728.589	0.0180022
728.667	0.0179242
728.745	0.0178777
728.823	0.0179252
728.901	0.0179140
728.979	0.0179339
729.058	0.0178930
729.136	0.0178051
729.214	0.0179560
729.292	0.0178456
729.370	0.0177371
729.448	0.0177428
729.526	0.0177084
729.604	0.0176614
729.683	0.0177654
729.761	0.0176971
729.839	0.0176688
729.917	0.0175554
729.995	0.0176089
730.073	0.0176763
730.151	0.0174451
730.229	0.0174973
730.308	0.0176251
730.386	0.0177167
730.464	0.0176490
730.542	0.0176429
730.620	0.0176710
730.698	0.0176929
730.776	0.0177904
730.854	0.0178332
730.933	0.0176829
731.011	0.0178323
731.089	0.0178438
731.167	0.0178639
731.245	0.0178761
731.323	0.0179176
731.401	0.0178407
731.479	0.0179609
731.558	0.0180891
731.636	0.0178610
731.714	0.0180052
731.792	0.0179932
731.870	0.0178943
731.948	0.0180083
732.026	0.0182049
732.104	0.0179462
732.183	0.0178693
732.261	0.0179317
732.339	0.0179934
732.417	0.0180443
732.495	0.0178448
732.573	0.0177500
732.651	0.0178430
732.729	0.0178523
732.808	0.0177816
732.886	0.0177152
732.964	0.0178661
733.042	0.0177850
733.120	0.0178888
733.198	0.0179055
733.276	0.0179923
733.354	0.0180615
733.433	0.0181034
733.511	0.0180544
733.589	0.0181662
733.667	0.0182095
733.745	0.0183444
733.823	0.0185052
733.901	0.0184612
733.979	0.0184625
734.058	0.0183801
734.136	0.0185041
734.214	0.0184290
734.292	0.0184608
734.370	0.0183643
734.448	0.0183486
734.526	0.0184387
734.604	0.0181751
734.683	0.0181946
734.761	0.0181995
734.839	0.0181938
734.917	0.0181449
734.995	0.0181816
735.073	0.0180745
735.151	0.0178058
735.229	0.0177897
735.308	0.0179351
735.386	0.0178205
735.464	0.0177156
735.542	0.0176181
735.620	0.0176069
735.698	0.0175021
735.776	0.0173466
735.854	0.0174408
735.933	0.0174025
736.011	0.0174323
736.089	0.0173116
736.167	0.0171331
736.245	0.0174325
736.323	0.0174884
736.401	0.0175460
736.479	0.0176084
736.558	0.0175040
736.636	0.0176650
736.714	0.0177905
736.792	0.0177436
736.870	0.0178883
736.948	0.0180177
737.026	0.0181873
737.104	0.0181446
737.183	0.0182249
737.261	0.0183725
737.339	0.0182281
737.417	0.0185181
737.495	0.0184122
737.573	0.0185531
737.651	0.0187711
737.729	0.0186551
737.808	0.0185775
737.886	0.0185888
737.964	0.0186651
738.042	0.0185712
738.120	0.0186514
738.198	0.0185870
738.276	0.0184708
738.354	0.0184198
738.433	0.0184078
738.511	0.0183025
738.589	0.0183320
738.667	0.0182332
738.745	0.0182359
738.823	0.0180820
738.901	0.0181358
738.979	0.0180557
739.058	0.0180587
739.136	0.0178808
739.214	0.0179056
739.292	0.0178564
739.370	0.0179382
739.448	0.0178020
739.526	0.0177168
739.604	0.0177207
739.683	0.0177490
739.761	0.0176858
739.839	0.0176527
739.917	0.0177438
739.995	0.0176746
740.073	0.0176349
740.151	0.0175684
740.229	0.0175029
740.308	0.0174763
740.386	0.0176664
740.464	0.0175234
740.542	0.0175228
740.620	0.0173850
740.698	0.0174479
740.776	0.0174738
740.854	0.0174026
740.933	0.0174242
741.011	0.0174541
741.089	0.0174046
741.167	0.0175651
741.245	0.0175030
741.323	0.0174883
741.401	0.0174610
741.479	0.0176691
741.558	0.0176630
741.636	0.0176724
741.714	0.0177814
741.792	0.0178320
741.870	0.0178176
741.948	0.0178952
742.026	0.0181062
742.104	0.0179989
742.183	0.0180518
742.261	0.0179155
742.339	0.0180338
742.417	0.0181464
742.495	0.0180750
742.573	0.0180713
742.651	0.0180124
742.729	0.0180866
742.808	0.0179825
742.886	0.0179976
742.964	0.0180740
743.042	0.0181607
743.120	0.0179867
743.198	0.0180571
743.276	0.0179659
743.354	0.0180094
743.433	0.0181836
743.511	0.0180514
743.589	0.0180019
743.667	0.0180811
743.745	0.0182097
743.823	0.0181463
743.901	0.0180456
743.979	0.0179469
744.058	0.0179485
744.136	0.0181105
744.214	0.0180163
744.292	0.0179997
744.370	0.0180463
744.448	0.0179968
744.526	0.0179909
744.604	0.0179313
744.683	0.0181379
744.761	0.0181789
744.839	0.0181154
744.917	0.0180112
744.995	0.0181443
745.073	0.0180097
745.151	0.0178861
745.229	0.0178352
745.308	0.0179569
745.386	0.0175809
745.464	0.0176337
745.542	0.0176134
745.620	0.0174378
745.698	0.0173074
745.776	0.0174390
745.854	0.0173289
745.933	0.0172841
746.011	0.0172558
746.089	0.0172205
746.167	0.0171525
746.245	0.0172113
746.323	0.0174764
746.401	0.0174519
746.479	0.0175008
746.558	0.0176051
746.636	0.0177882
746.714	0.0178836
746.792	0.0178996
746.870	0.0178481
746.948	0.0180788
747.026	0.0181654
747.104	0.0181424
747.183	0.0181696
747.261	0.0181979
747.339	0.0182664
747.417	0.0182031
747.495	0.0182301
747.573	0.0182523
747.651	0.0182288
747.729	0.0182893
747.808	0.0181805
747.886	0.0181965
747.964	0.0182189
748.042	0.0181222
748.120	0.0182329
748.198	0.0181989
748.276	0.0180090
748.354	0.0181241
748.433	0.0180421
748.511	0.0181751
748.589	0.0181671
748.667	0.0179066
748.745	0.0177628
748.823	0.0178055
748.901	0.0177280
748.979	0.0176170
749.058	0.0175954
749.136	0.0175981
749.214	0.0176112
749.292	0.0175285
749.370	0.0176279
749.448	0.0175334
749.526	0.0174744
749.604	0.0173254
749.683	0.0174024
749.761	0.0174350
749.839	0.0174890
749.917	0.0175590
749.995	0.0176185
750.073	0.0176569
750.151	0.0175928
750.229	0.0176270
750.308	0.0178152
750.386	0.0178023
750.464	0.0178667
750.542	0.0179173
750.620	0.0180181
750.698	0.0179549
750.776	0.0179351
750.854	0.0178703
750.933	0.0179169
751.011	0.0179303
751.089	0.0179849
751.167	0.0178752
751.245	0.0179435
751.323	0.0178835
751.401	0.0178201
751.479	0.0177768
751.558	0.0177146
751.636	0.0177642
751.714	0.0176839
751.792	0.0176291
751.870	0.0176477
751.948	0.0176263
752.026	0.0176534
752.104	0.0176513
752.183	0.0176332
752.261	0.0176405
752.339	0.0176472
752.417	0.0176186
752.495	0.0175403
752.573	0.0176324
752.651	0.0176338
752.729	0.0176646
752.808	0.0177950
752.886	0.0178557
752.964	0.0179362
753.042	0.0180554
753.120	0.0179756
753.198	0.0179378
753.276	0.0180231
753.354	0.0181767
753.433	0.0182434
753.511	0.0183308
753.589	0.0180701
753.667	0.0182356
753.745	0.0182724
753.823	0.0182515
753.901	0.0181731
753.979	0.0181651
754.058	0.0181358
754.136	0.0180959
754.214	0.0180573
754.292	0.0180051
754.370	0.0180962
754.448	0.0181028
754.526	0.0179582
754.604	0.0179910
754.683	0.0179246
754.761	0.0179682
754.839	0.0179324
754.917	0.0178806
754.995	0.0177976
755.073	0.0179390
755.151	0.0181094
755.229	0.0180494
755.308	0.0179739
755.386	0.0177805
755.464	0.0178122
755.542	0.0178161
755.620	0.0178045
755.698	0.0177356
755.776	0.0177834
755.854	0.0176079
755.933	0.0175262
756.011	0.0174924
756.089	0.0176912
756.167	0.0175754
756.245	0.0175478
756.323	0.0176788
756.401	0.0175679
756.479	0.0176380
756.558	0.0177018
756.636	0.0175195
756.714	0.0177089
756.792	0.0175954
756.870	0.0176987
756.948	0.0176331
757.026	0.0177721
757.104	0.0177265
757.183	0.0178254
757.261	0.0178325
757.339	0.0177540
757.417	0.0178352
757.495	0.0179474
757.573	0.0179322
757.651	0.0179282
757.729	0.0181074
757.808	0.0181752
757.886	0.0181552
757.964	0.0181879
758.042	0.0181938
758.120	0.0181341
758.198	0.0184131
758.276	0.0182570
758.354	0.0183620
758.433	0.0183179
758.511	0.0185741
758.589	0.0185054
758.667	0.0184134
758.745	0.0185100
758.823	0.0184794
758.901	0.0183740
758.979	0.0184462
759.058	0.0183952
759.136	0.0183395
759.214	0.0183411
759.292	0.0183022
759.370	0.0182558
759.448	0.0181892
759.526	0.0181970
759.604	0.0183715
759.683	0.0181355
759.761	0.0181671
759.839	0.0180750
759.917	0.0180147
759.995	0.0180412
760.073	0.0181928
760.151	0.0181408
760.229	0.0180070
760.308	0.0178635
760.386	0.0177763
760.464	0.0178962
760.542	0.0179146
760.620	0.0177592
760.698	0.0178576
760.776	0.0178422
760.854	0.0178401
760.933	0.0178586
761.011	0.0177472
761.089	0.0176195
761.167	0.0176048
761.245	0.0176959
761.323	0.0177936
761.401	0.0175703
761.479	0.0175839
761.558	0.0175953
761.636	0.0175330
761.714	0.0175109
761.792	0.0175399
761.870	0.0176781
761.948	0.0177029
762.026	0.0177235
762.104	0.0177309
762.183	0.0176715
762.261	0.0175909
762.339	0.0176482
762.417	0.0177229
762.495	0.0176260
762.573	0.0176766
762.651	0.0175417
762.729	0.0176871
762.808	0.0178135
762.886	0.0177065
762.964	0.0176900
763.042	0.0177557
763.120	0.0178268
763.198	0.0179236
763.276	0.0178466
763.354	0.0178762
763.433	0.0178561
763.511	0.0179656
763.589	0.0179334
763.667	0.0180805
763.745	0.0180579
763.823	0.0180514
763.901	0.0181103
763.979	0.0180396
764.058	0.0181025
764.136	0.0180298
764.214	0.0181136
764.292	0.0181371
764.370	0.0181241
764.448	0.0179278
764.526	0.0179865
764.604	0.0177661
764.683	0.0178297
764.761	0.0179575
764.839	0.0178542
764.917	0.0178310
764.995	0.0178059
765.073	0.0177757
765.151	0.0176877
765.229	0.0178268
765.308	0.0176939
765.386	0.0177184
765.464	0.0176827
765.542	0.0177069
765.620	0.0177470
765.698	0.0177187
765.776	0.0176515
765.854	0.0175139
765.933	0.0176216
766.011	0.0179071
766.089	0.0177345
766.167	0.0177380
766.245	0.0177710
766.323	0.0178300
766.401	0.0179449
766.479	0.0178561
766.558	0.0179379
766.636	0.0177731
766.714	0.0178157
766.792	0.0179008
766.870	0.0176474
766.948	0.0177629
767.026	0.0179295
767.104	0.0176739
767.183	0.0178432
767.261	0.0177403
767.339	0.0177795
767.417	0.0176607
767.495	0.0177226
767.573	0.0176632
767.651	0.0177013
767.729	0.0176872
767.808	0.0177171
767.886	0.0177032
767.964	0.0176743
768.042	0.0177339
768.120	0.0177184
768.198	0.0177602
768.276	0.0177407
768.354	0.0177834
768.433	0.0177236
768.511	0.0176701
768.589	0.0177625
768.667	0.0175807
768.745	0.0176180
768.823	0.0176571
768.901	0.0176083
768.979	0.0175905
769.058	0.0177385
769.136	0.0176223
769.214	0.0175787
769.292	0.0175211
769.370	0.0175833
769.448	0.0176463
769.526	0.0173892
769.604	0.0175806
769.683	0.0175504
769.761	0.0175340
769.839	0.0174068
769.917	0.0175858
769.995	0.0176066
770.073	0.0175856
770.151	0.0176064
770.229	0.0176563
770.308	0.0177213
770.386	0.0177779
770.464	0.0178205
770.542	0.0178896
770.620	0.0178731
770.698	0.0179593
770.776	0.0180395
770.854	0.0178535
770.933	0.0178560
771.011	0.0180887
771.089	0.0180706
771.167	0.0181602
771.245	0.0181435
771.323	0.0179756
771.401	0.0179329
771.479	0.0179577
771.558	0.0180321
771.636	0.0180483
771.714	0.0179782
771.792	0.0180161
771.870	0.0179544
771.948	0.0179213
772.026	0.0178471
772.104	0.0177824
772.183	0.0178796
772.261	0.0176824
772.339	0.0177515
772.417	0.0176440
772.495	0.0176330
772.573	0.0176425
772.651	0.0176587
772.729	0.0176112
772.808	0.0175135
772.886	0.0174004
772.964	0.0173325
773.042	0.0173959
773.120	0.0174223
773.198	0.0173940
773.276	0.0175056
773.354	0.0173655
773.433	0.0174615
773.511	0.0175575
773.589	0.0175078
773.667	0.0174734
773.745	0.0176785
773.823	0.0176208
773.901	0.0176973
773.979	0.0177139
774.058	0.0179446
774.136	0.0178321
774.214	0.0178667
774.292	0.0179006
774.370	0.0180325
774.448	0.0180411
774.526	0.0179531
774.604	0.0180879
774.683	0.0180000
774.761	0.0180097
774.839	0.0180894
774.917	0.0180441
774.995	0.0180867
775.073	0.0179508
775.151	0.0178142
775.229	0.0179317
775.308	0.0178474
775.386	0.0179224
775.464	0.0178899
775.542	0.0177567
775.620	0.0178438
775.698	0.0177915
775.776	0.0179096
775.854	0.0178039
775.933	0.0177354
776.011	0.0177513
776.089	0.0178271
776.167	0.0177935
776.245	0.0178295
776.323	0.0177860
776.401	0.0177634
776.479	0.0177260
776.558	0.0176938
776.636	0.0178278
776.714	0.0177412
776.792	0.0177389
776.870	0.0176647
776.948	0.0177190
777.026	0.0176897
777.104	0.0177157
777.183	0.0176508
777.261	0.0176679
777.339	0.0175957
777.417	0.0177145
777.495	0.0177020
777.573	0.0176694
777.651	0.0177367
777.729	0.0177753
777.808	0.0177639
777.886	0.0177267
777.964	0.0177304
778.042	0.0176397
778.120	0.0176532
778.198	0.0178159
778.276	0.0177590
778.354	0.0178669
778.433	0.0177347
778.511	0.0179800
778.589	0.0180157
778.667	0.0179663
778.745	0.0178162
778.823	0.0179230
778.901	0.0178435
778.979	0.0179904
779.058	0.0178444
779.136	0.0179562
779.214	0.0178847
779.292	0.0178762
779.370	0.0177883
779.448	0.0177573
779.526	0.0178326
779.604	0.0178563
779.683	0.0177684
779.761	0.0177418
779.839	0.0176794
779.917	0.0176782
779.995	0.0177892
780.073	0.0177247
780.151	0.0178011
780.229	0.0178943
780.308	0.0177709
780.386	0.0178474
780.464	0.0179701
780.542	0.0178601
780.620	0.0180305
780.698	0.0179716
780.776	0.0182026
780.854	0.0181419
780.933	0.0179314
781.011	0.0180557
781.089	0.0180662
781.167	0.0180848
781.245	0.0181554
781.323	0.0181781
781.401	0.0179594
781.479	0.0179062
781.558	0.0179704
781.636	0.0180888
781.714	0.0179564
781.792	0.0179634
781.870	0.0179405
781.948	0.0178932
782.026	0.0177516
782.104	0.0176836
782.183	0.0176654
782.261	0.0176522
782.339	0.0176943
782.417	0.0176514
782.495	0.0177457
782.573	0.0177359
782.651	0.0177787
782.729	0.0177676
782.808	0.0177583
782.886	0.0178564
782.964	0.0177966
783.042	0.0176010
783.120	0.0178224
783.198	0.0179664
783.276	0.0179453
783.354	0.0179674
783.433	0.0177598
783.511	0.0180939
783.589	0.0180807
783.667	0.0179865
783.745	0.0180502
783.823	0.0180413
783.901	0.0180910
783.979	0.0180511
784.058	0.0180677
784.136	0.0180096
784.214	0.0181394
784.292	0.0180550
784.370	0.0180341
784.448	0.0179403
784.526	0.0180151
784.604	0.0180163
784.683	0.0180611
784.761	0.0178366
784.839	0.0178880
784.917	0.0178169
784.995	0.0179578
785.073	0.0178239
785.151	0.0177803
785.229	0.0178416
785.308	0.0178614
785.386	0.0177351
785.464	0.0177268
785.542	0.0176527
785.620	0.0177329
785.698	0.0176285
785.776	0.0179092
785.854	0.0177775
785.933	0.0175957
786.011	0.0178166
786.089	0.0178896
786.167	0.0178638
786.245	0.0178455
786.323	0.0179655
786.401	0.0181570
786.479	0.0181917
786.558	0.0181880
786.636	0.0181637
786.714	0.0181121
786.792	0.0182395
786.870	0.0181649
786.948	0.0182950
787.026	0.0182552
787.104	0.0181611
787.183	0.0183976
787.261	0.0182451
787.339	0.0182274
787.417	0.0182101
787.495	0.0182050
787.573	0.0180965
787.651	0.0181059
787.729	0.0179362
787.808	0.0180596
787.886	0.0180463
787.964	0.0177562
788.042	0.0177766
788.120	0.0177711
788.198	0.0177381
788.276	0.0175227
788.354	0.0177289
788.433	0.0176441
788.511	0.0175911
788.589	0.0176449
788.667	0.0176611
788.745	0.0175409
788.823	0.0176184
788.901	0.0176889
788.979	0.0176016
789.058	0.0176475
789.136	0.0177412
789.214	0.0176977
789.292	0.0179142
789.370	0.0178313
789.448	0.0178632
789.526	0.0179137
789.604	0.0178380
789.683	0.0178606
789.761	0.0178976
789.839	0.0179185
789.917	0.0179037
789.995	0.0178561
790.073	0.0178838
790.151	0.0177667
790.229	0.0179126
790.308	0.0177817
790.386	0.0178603
790.464	0.0178558
790.542	0.0177605
790.620	0.0179733
790.698	0.0177971
790.776	0.0178078
790.854	0.0179372
790.933	0.0177125
791.011	0.0178056
791.089	0.0177876
791.167	0.0177393
791.245	0.0177730
791.323	0.0177658
791.401	0.0177518
791.479	0.0177865
791.558	0.0179346
791.636	0.0178335
791.714	0.0177956
791.792	0.0177718
791.870	0.0177996
791.948	0.0177978
792.026	0.0177689
792.104	0.0178011
792.183	0.0177078
792.261	0.0177015
792.339	0.0176521
792.417	0.0175412
792.495	0.0177007
792.573	0.0177407
792.651	0.0178017
792.729	0.0177980
792.808	0.0179043
792.886	0.0178711
792.964	0.0178260
793.042	0.0179529
793.120	0.0178748
793.198	0.0178497
793.276	0.0177651
793.354	0.0177118
793.433	0.0176871
793.511	0.0178919
793.589	0.0177943
793.667	0.0177120
793.745	0.0178607
793.823	0.0178050
793.901	0.0177423
793.979	0.0178249
794.058	0.0177193
794.136	0.0177985
794.214	0.0177953
794.292	0.0179142
794.370	0.0178638
794.448	0.0178484
794.526	0.0179446
794.604	0.0179763
794.683	0.0179478
794.761	0.0179412
794.839	0.0180311
794.917	0.0178553
794.995	0.0179703
795.073	0.0180161
795.151	0.0180080
795.229	0.0180873
795.308	0.0180426
795.386	0.0180102
795.464	0.0179317
795.542	0.0179937
795.620	0.0178989
795.698	0.0177977
795.776	0.0178089
795.854	0.0179153
795.933	0.0178601
796.011	0.0177447
796.089	0.0176978
796.167	0.0177879
796.245	0.0177173
796.323	0.0177789
796.401	0.0178748
796.479	0.0177222
796.558	0.0176469
796.636	0.0177534
796.714	0.0177035
796.792	0.0177422
796.870	0.0178120
796.948	0.0178345
797.026	0.0177984
797.104	0.0178351
797.183	0.0178587
797.261	0.0177780
797.339	0.0177459
797.417	0.0178732
797.495	0.0179253
797.573	0.0178775
797.651	0.0176933
797.729	0.0178994
797.808	0.0179121
797.886	0.0177129
797.964	0.0178257
798.042	0.0178814
798.120	0.0178451
798.198	0.0178875
798.276	0.0178577
798.354	0.0178952
798.433	0.0178706
798.511	0.0178900
798.589	0.0180204
798.667	0.0178763
798.745	0.0178040
798.823	0.0180659
798.901	0.0179263
798.979	0.0178140
799.058	0.0179250
799.136	0.0179979
799.214	0.0180389
799.292	0.0181278
799.370	0.0179775
799.448	0.0179697
799.526	0.0180000
799.604	0.0179622
799.683	0.0179234
799.761	0.0179479
799.839	0.0179247
799.917	0.0179436
799.995	0.0178542
800.073	0.0178300
800.151	0.0177674
800.229	0.0178036
800.308	0.0178463
800.386	0.0177792
800.464	0.0177992
800.542	0.0178117
800.620	0.0178385
800.698	0.0178242
800.776	0.0177608
800.854	0.0178721
800.933	0.0177512
801.011	0.0178422
801.089	0.0177568
801.167	0.0179214
801.245	0.0178156
801.323	0.0177776
801.401	0.0178672
801.479	0.0179101
801.558	0.0177543
801.636	0.0178570
801.714	0.0179453
801.792	0.0177911
801.870	0.0178726
801.948	0.0177968
802.026	0.0177766
802.104	0.0178131
802.183	0.0178585
802.261	0.0178622
802.339	0.0177812
802.417	0.0178394
802.495	0.0178165
802.573	0.0178681
802.651	0.0178662
802.729	0.0179057
802.808	0.0179338
802.886	0.0178184
802.964	0.0179611
803.042	0.0179172
803.120	0.0179465
803.198	0.0178480
803.276	0.0178704
803.354	0.0178119
803.433	0.0179514
803.511	0.0179427
803.589	0.0178065
803.667	0.0179339
803.745	0.0177695
803.823	0.0178315
803.901	0.0178968
803.979	0.0178709
804.058	0.0180027
804.136	0.0180466
804.214	0.0178596
804.292	0.0179229
804.370	0.0181654
804.448	0.0180115
804.526	0.0180186
804.604	0.0179889
804.683	0.0180037
804.761	0.0180225
804.839	0.0181261
804.917	0.0180100
804.995	0.0181351
805.073	0.0179603
805.151	0.0179777
805.229	0.0178799
805.308	0.0178748
805.386	0.0178791
805.464	0.0180245
805.542	0.0178593
805.620	0.0180004
805.698	0.0179707
805.776	0.0178486
805.854	0.0178932
805.933	0.0179017
806.011	0.0179671
806.089	0.0179778
806.167	0.0180042
806.245	0.0179939
806.323	0.0179454
806.401	0.0179433
806.479	0.0180104
806.558	0.0180759
806.636	0.0180100
806.714	0.0179498
806.792	0.0179945
806.870	0.0179452
806.948	0.0178739
807.026	0.0179788
807.104	0.0179462
807.183	0.0179869
807.261	0.0178777
807.339	0.0178809
807.417	0.0179202
807.495	0.0178020
807.573	0.0178584
807.651	0.0178407
807.729	0.0179355
807.808	0.0179556
807.886	0.0178402
807.964	0.0179859
808.042	0.0178995
808.120	0.0178706
808.198	0.0178432
808.276	0.0179514
808.354	0.0179839
808.433	0.0180008
808.511	0.0180050
808.589	0.0180149
808.667	0.0180430
808.745	0.0179782
808.823	0.0179400
808.901	0.0180452
808.979	0.0180782
809.058	0.0179558
809.136	0.0179715
809.214	0.0180474
809.292	0.0181902
809.370	0.0180717
809.448	0.0178716
809.526	0.0180083
809.604	0.0179237
809.683	0.0179579
809.761	0.0179338
809.839	0.0179149
809.917	0.0177975
809.995	0.0178542
810.073	0.0178951
810.151	0.0179624
810.229	0.0177330
810.308	0.0179243
810.386	0.0179440
810.464	0.0178468
810.542	0.0178416
810.620	0.0177897
810.698	0.0178551
810.776	0.0177647
810.854	0.0177959
810.933	0.0178779
811.011	0.0178368
811.089	0.0178031
811.167	0.0179363
811.245	0.0179836
811.323	0.0177901
811.401	0.0178137
811.479	0.0177421
811.558	0.0177663
811.636	0.0179388
811.714	0.0178780
811.792	0.0178697
811.870	0.0177958
811.948	0.0178345
812.026	0.0179173
812.104	0.0178802
812.183	0.0178059
812.261	0.0179522
812.339	0.0178466
812.417	0.0179500
812.495	0.0180164
812.573	0.0179955
812.651	0.0180782
812.729	0.0178242
812.808	0.0179517
812.886	0.0179485
812.964	0.0178937
813.042	0.0179590
813.120	0.0179142
813.198	0.0178100
813.276	0.0177634
813.354	0.0177536
813.433	0.0178203
813.511	0.0178063
813.589	0.0178591
813.667	0.0178487
813.745	0.0177688
813.823	0.0178372
813.901	0.0179988
813.979	0.0176984
814.058	0.0178292
814.136	0.0178094
814.214	0.0177213
814.292	0.0177441
814.370	0.0179839
814.448	0.0178886
814.526	0.0178842
814.604	0.0178840
814.683	0.0179356
814.761	0.0179639
814.839	0.0180817
814.917	0.0181265
814.995	0.0180189
815.073	0.0179476
815.151	0.0180601
815.229	0.0179414
815.308	0.0180893
815.386	0.0180503
815.464	0.0180003
815.542	0.0179553
815.620	0.0180995
815.698	0.0181320
815.776	0.0181482
815.854	0.0181319
815.933	0.0181055
816.011	0.0180917
816.089	0.0179775
816.167	0.0178799
816.245	0.0178382
816.323	0.0179443
816.401	0.0177738
816.479	0.0179106
816.558	0.0177995
816.636	0.0177478
816.714	0.0178853
816.792	0.0178792
816.870	0.0180617
816.948	0.0178317
817.026	0.0178080
817.104	0.0179259
817.183	0.0179208
817.261	0.0179617
817.339	0.0180343
817.417	0.0179425
817.495	0.0179733
817.573	0.0181315
817.651	0.0181614
817.729	0.0180541
817.808	0.0179197
817.886	0.0179624
817.964	0.0180532
818.042	0.0179776
818.120	0.0179200
818.198	0.0178963
818.276	0.0179447
818.354	0.0178805
818.433	0.0178056
818.511	0.0180222
818.589	0.0179608
818.667	0.0178522
818.745	0.0180244
818.823	0.0179768
818.901	0.0179681
818.979	0.0180356
819.058	0.0179397
819.136	0.0180591
819.214	0.0179610
819.292	0.0179794
819.370	0.0181600
819.448	0.0179665
819.526	0.0180984
819.604	0.0180367
819.683	0.0180880
819.761	0.0181172
819.839	0.0181976
819.917	0.0182237
819.995	0.0180965
820.073	0.0181672
820.151	0.0183065
820.229	0.0181730
820.308	0.0182445
820.386	0.0181725
820.464	0.0183743
820.542	0.0182556
820.620	0.0181657
820.698	0.0183408
820.776	0.0182370
820.854	0.0182255
820.933	0.0180537
821.011	0.0180974
821.089	0.0181894
821.167	0.0180544
821.245	0.0179337
821.323	0.0179936
821.401	0.0179764
821.479	0.0179602
821.558	0.0177607
821.636	0.0177951
821.714	0.0178689
821.792	0.0176787
821.870	0.0177330
821.948	0.0177412
822.026	0.0177315
822.104	0.0177099
822.183	0.0176717
822.261	0.0176544
822.339	0.0177780
822.417	0.0178077
822.495	0.0176633
822.573	0.0176697
822.651	0.0177100
822.729	0.0178254
822.808	0.0176396
822.886	0.0175085
822.964	0.0176875
823.042	0.0178059
823.120	0.0177170
823.198	0.0177970
823.276	0.0176769
823.354	0.0177289
823.433	0.0176714
823.511	0.0176222
823.589	0.0178975
823.667	0.0178019
823.745	0.0175941
823.823	0.0174814
823.901	0.0175169
823.979	0.0177211
824.058	0.0177052
824.136	0.0176643
824.214	0.0175323
824.292	0.0175959
824.370	0.0175095
824.448	0.0174687
824.526	0.0175159
824.604	0.0176137
824.683	0.0174321
824.761	0.0176327
824.839	0.0176753
824.917	0.0176444
824.995	0.0175915
825.073	0.0176181
825.151	0.0175739
825.229	0.0177045
825.308	0.0177316
825.386	0.0176579
825.464	0.0177225
825.542	0.0179146
825.620	0.0178284
825.698	0.0177819
825.776	0.0178939
825.854	0.0176865
825.933	0.0176774
826.011	0.0177834
826.089	0.0178613
826.167	0.0176828
826.245	0.0176626
826.323	0.0178065
826.401	0.0176706
826.479	0.0177268
826.558	0.0177037
826.636	0.0176897
826.714	0.0177393
826.792	0.0177203
826.870	0.0176163
826.948	0.0177158
827.026	0.0177885
827.104	0.0178157
827.183	0.0177103
827.261	0.0177660
827.339	0.0178248
827.417	0.0177758
827.495	0.0178230
827.573	0.0178396
827.651	0.0178117
827.729	0.0178787
827.808	0.0179595
827.886	0.0178929
827.964	0.0177708
828.042	0.0178506
828.120	0.0178323
828.198	0.0177673
828.276	0.0179340
828.354	0.0176791
828.433	0.0177846
828.511	0.0177621
828.589	0.0179749
828.667	0.0178751
828.745	0.0178667
828.823	0.0177773
828.901	0.0177270
828.979	0.0178375
829.058	0.0178235
829.136	0.0179197
829.214	0.0179684
829.292	0.0178111
829.370	0.0177739
829.448	0.0179803
829.526	0.0178179
829.604	0.0178342
829.683	0.0177914
829.761	0.0179527
829.839	0.0177850
829.917	0.0179157
829.995	0.0178535
830.073	0.0177907
830.151	0.0178574
830.229	0.0177829
830.308	0.0178704
830.386	0.0180103
830.464	0.0178452
830.542	0.0178737
830.620	0.0177853
830.698	0.0177995
830.776	0.0179141
830.854	0.0179657
830.933	0.0178250
831.011	0.0178863
831.089	0.0178436
831.167	0.0176701
831.245	0.0179744
831.323	0.0178481
831.401	0.0179565
831.479	0.0179368
831.558	0.0179823
831.636	0.0177692
831.714	0.0178491
831.792	0.0179095
831.870	0.0178831
831.948	0.0178957
832.026	0.0179627
832.104	0.0179683
832.183	0.0179066
832.261	0.0179005
832.339	0.0178967
832.417	0.0179056
832.495	0.0179110
832.573	0.0179987
832.651	0.0178639
832.729	0.0180874
832.808	0.0179693
832.886	0.0180318
832.964	0.0179843
833.042	0.0180016
833.120	0.0179999
833.198	0.0179623
833.276	0.0178310
833.354	0.0180885
833.433	0.0180485
833.511	0.0180367
833.589	0.0180422
833.667	0.0179555
833.745	0.0180643
833.823	0.0181995
833.901	0.0180528
833.979	0.0181161
834.058	0.0181371
834.136	0.0181118
834.214	0.0182118
834.292	0.0181071
834.370	0.0181036
834.448	0.0181247
834.526	0.0181389
834.604	0.0181326
834.683	0.0179894
834.761	0.0179644
834.839	0.0181207
834.917	0.0180136
834.995	0.0179549
835.073	0.0178557
835.151	0.0179514
835.229	0.0180717
835.308	0.0180694
835.386	0.0180067
835.464	0.0180466
835.542	0.0179772
835.620	0.0182198
835.698	0.0180106
835.776	0.0178513
835.854	0.0179806
835.933	0.0180013
836.011	0.0180420
836.089	0.0181438
836.167	0.0180763
836.245	0.0178652
836.323	0.0180643
836.401	0.0180965
836.479	0.0181215
836.558	0.0179755
836.636	0.0180882
836.714	0.0180267
836.792	0.0180521
836.870	0.0182046
836.948	0.0181176
837.026	0.0180975
837.104	0.0180164
837.183	0.0179931
837.261	0.0179449
837.339	0.0179143
837.417	0.0180150
837.495	0.0180384
837.573	0.0178923
837.651	0.0178620
837.729	0.0179662
837.808	0.0180013
837.886	0.0179346
837.964	0.0179216
838.042	0.0178939
838.120	0.0178506
838.198	0.0177212
838.276	0.0177844
838.354	0.0177860
838.433	0.0178801
838.511	0.0178349
838.589	0.0177321
838.667	0.0177368
838.745	0.0177901
838.823	0.0178472
838.901	0.0177763
838.979	0.0178111
839.058	0.0177785
839.136	0.0177437
839.214	0.0178495
839.292	0.0178030
839.370	0.0178276
839.448	0.0177510
839.526	0.0178243
839.604	0.0179741
839.683	0.0179289
839.761	0.0179296
839.839	0.0178003
839.917	0.0178127
839.995	0.0178683
840.073	0.0178780
840.151	0.0179675
840.229	0.0179327
840.308	0.0179692
840.386	0.0179926
840.464	0.0179218
840.542	0.0180944
840.620	0.0179732
840.698	0.0180540
840.776	0.0179793
840.854	0.0180717
840.933	0.0181362
841.011	0.0180967
841.089	0.0180527
841.167	0.0180708
841.245	0.0179932
841.323	0.0180143
841.401	0.0180889
841.479	0.0178787
841.558	0.0179239
841.636	0.0179366
841.714	0.0177681
841.792	0.0179140
841.870	0.0179851
841.948	0.0178425
842.026	0.0177471
842.104	0.0178577
842.183	0.0178323
842.261	0.0178972
842.339	0.0178310
842.417	0.0177122
842.495	0.0178584
842.573	0.0178640
842.651	0.0178151
842.729	0.0179786
842.808	0.0179539
842.886	0.0177915
842.964	0.0179148
843.042	0.0177646
843.120	0.0179749
843.198	0.0177412
843.276	0.0178162
843.354	0.0177578
843.433	0.0177344
843.511	0.0178056
843.589	0.0178422
843.667	0.0178188
843.745	0.0177921
843.823	0.0176936
843.901	0.0178019
843.979	0.0179731
844.058	0.0177914
844.136	0.0178150
844.214	0.0177882
844.292	0.0178919
844.370	0.0179333
844.448	0.0179091
844.526	0.0178443
844.604	0.0177958
844.683	0.0179491
844.761	0.0180775
844.839	0.0179511
844.917	0.0179189
844.995	0.0179779
845.073	0.0180775
845.151	0.0180068
845.229	0.0179176
845.308	0.0180099
845.386	0.0178710
845.464	0.0178535
845.542	0.0178384
845.620	0.0179765
845.698	0.0179149
845.776	0.0179292
845.854	0.0179914
845.933	0.0179159
846.011	0.0179219
846.089	0.0178500
846.167	0.0178859
846.245	0.0179357
846.323	0.0178214
846.401	0.0177947
846.479	0.0177975
846.558	0.0177346
846.636	0.0177074
846.714	0.0178706
846.792	0.0176905
846.870	0.0175320
846.948	0.0175983
847.026	0.0177676
847.104	0.0177077
847.183	0.0176144
847.261	0.0177440
847.339	0.0178652
847.417	0.0175668
847.495	0.0175871
847.573	0.0177930
847.651	0.0177168
847.729	0.0177818
847.808	0.0176592
847.886	0.0176325
847.964	0.0177222
848.042	0.0177261
848.120	0.0176945
848.198	0.0176881
848.276	0.0176262
848.354	0.0176536
848.433	0.0177110
848.511	0.0178929
848.589	0.0177456
848.667	0.0176808
848.745	0.0178530
848.823	0.0178432
848.901	0.0178266
848.979	0.0178098
849.058	0.0177087
849.136	0.0177158
849.214	0.0177049
849.292	0.0179649
849.370	0.0177139
849.448	0.0179768
849.526	0.0179761
849.604	0.0177953
849.683	0.0180244
849.761	0.0179898
849.839	0.0177485
849.917	0.0178117
849.995	0.0178269
850.073	0.0178209
850.151	0.0178703
850.229	0.0178297
850.308	0.0177589
850.386	0.0177411
850.464	0.0176015
850.542	0.0176241
850.620	0.0175652
850.698	0.0177110
850.776	0.0176425
850.854	0.0175306
850.933	0.0175964
851.011	0.0175458
851.089	0.0176305
851.167	0.0176860
851.245	0.0175870
851.323	0.0176495
851.401	0.0177079
851.479	0.0176198
851.558	0.0175354
851.636	0.0176791
851.714	0.0176542
851.792	0.0177536
851.870	0.0177502
851.948	0.0176553
852.026	0.0176778
852.104	0.0176482
852.183	0.0177415
852.261	0.0177573
852.339	0.0176841
852.417	0.0177296
852.495	0.0177592
852.573	0.0178234
852.651	0.0178526
852.729	0.0177414
852.808	0.0177986
852.886	0.0178230
852.964	0.0177861
853.042	0.0178491
853.120	0.0178796
853.198	0.0177754
853.276	0.0177342
853.354	0.0176698
853.433	0.0178385
853.511	0.0177911
853.589	0.0176908
853.667	0.0178049
853.745	0.0179386
853.823	0.0179287
853.901	0.0180027
853.979	0.0178399
854.058	0.0179031
854.136	0.0178660
854.214	0.0179958
854.292	0.0179934
854.370	0.0179943
854.448	0.0180912
854.526	0.0178788
854.604	0.0179705
854.683	0.0179890
854.761	0.0179726
854.839	0.0180433
854.917	0.0179960
854.995	0.0180727
855.073	0.0180535
855.151	0.0180059
855.229	0.0180731
855.308	0.0182293
855.386	0.0180563
855.464	0.0181515
855.542	0.0181124
855.620	0.0181163
855.698	0.0181058
855.776	0.0180750
855.854	0.0180688
855.933	0.0181229
856.011	0.0181202
856.089	0.0181590
856.167	0.0181683
856.245	0.0181882
856.323	0.0179979
856.401	0.0181477
856.479	0.0181512
856.558	0.0180856
856.636	0.0180855
856.714	0.0181155
856.792	0.0180165
856.870	0.0179993
856.948	0.0180542
857.026	0.0180211
857.104	0.0180148
857.183	0.0179112
857.261	0.0179729
857.339	0.0177900
857.417	0.0179475
857.495	0.0178708
857.573	0.0178717
857.651	0.0178838
857.729	0.0178976
857.808	0.0177686
857.886	0.0177848
857.964	0.0178476
858.042	0.0177451
858.120	0.0179391
858.198	0.0178858
858.276	0.0179218
858.354	0.0177374
858.433	0.0177129
858.511	0.0177515
858.589	0.0178725
858.667	0.0178275
858.745	0.0177883
858.823	0.0178739
858.901	0.0177947
858.979	0.0176605
859.058	0.0176295
859.136	0.0178335
859.214	0.0178339
859.292	0.0177874
859.370	0.0177759
859.448	0.0177777
859.526	0.0177639
859.604	0.0176751
859.683	0.0178978
859.761	0.0177985
859.839	0.0178520
859.917	0.0178849
859.995	0.0179903
860.073	0.0179967
860.151	0.0179517
860.229	0.0179832
860.308	0.0180695
860.386	0.0180063
860.464	0.0180158
860.542	0.0180212
860.620	0.0181080
860.698	0.0180914
860.776	0.0180477
860.854	0.0181997
860.933	0.0180360
861.011	0.0179692
861.089	0.0179637
861.167	0.0181771
861.245	0.0181274
861.323	0.0180735
861.401	0.0181155
861.479	0.0179725
861.558	0.0181392
861.636	0.0181293
861.714	0.0181128
861.792	0.0180389
861.870	0.0179871
861.948	0.0180368
862.026	0.0179008
862.104	0.0177877
862.183	0.0180853
862.261	0.0179591
862.339	0.0180184
862.417	0.0179204
862.495	0.0180353
862.573	0.0180550
862.651	0.0180170
862.729	0.0180335
862.808	0.0179017
862.886	0.0177488
862.964	0.0179317
863.042	0.0179465
863.120	0.0180549
863.198	0.0178915
863.276	0.0178336
863.354	0.0180599
863.433	0.0178773
863.511	0.0179288
863.589	0.0179560
863.667	0.0179665
863.745	0.0179427
863.823	0.0179440
863.901	0.0178568
863.979	0.0180752
864.058	0.0179264
864.136	0.0178083
864.214	0.0178609
864.292	0.0180392
864.370	0.0180022
864.448	0.0179916
864.526	0.0177621
864.604	0.0179546
864.683	0.0179683
864.761	0.0180475
864.839	0.0178442
864.917	0.0179672
864.995	0.0180173
865.073	0.0177992
865.151	0.0177865
865.229	0.0177888
865.308	0.0178105
865.386	0.0177783
865.464	0.0177085
865.542	0.0178559
865.620	0.0179188
865.698	0.0179243
865.776	0.0177172
865.854	0.0176890
865.933	0.0178835
866.011	0.0177467
866.089	0.0177673
866.167	0.0178485
866.245	0.0177416
866.323	0.0176537
866.401	0.0177592
866.479	0.0177044
866.558	0.0177545
866.636	0.0177189
866.714	0.0177710
866.792	0.0176725
866.870	0.0176194
866.948	0.0177133
867.026	0.0177402
867.104	0.0176369
867.183	0.0176772
867.261	0.0176685
867.339	0.0176652
867.417	0.0175008
867.495	0.0177662
867.573	0.0176418
867.651	0.0176530
867.729	0.0176025
867.808	0.0176421
867.886	0.0176447
867.964	0.0176594
868.042	0.0176701
868.120	0.0177854
868.198	0.0177884
868.276	0.0176531
868.354	0.0176909
868.433	0.0177644
868.511	0.0178518
868.589	0.0177583
868.667	0.0177814
868.745	0.0178728
868.823	0.0177995
868.901	0.0177288
868.979	0.0177688
869.058	0.0177218
869.136	0.0178331
869.214	0.0177151
869.292	0.0177259
869.370	0.0176663
869.448	0.0177818
869.526	0.0175829
869.604	0.0176331
869.683	0.0176955
869.761	0.0176766
869.839	0.0176331
869.917	0.0177628
869.995	0.0176380
870.073	0.0177320
870.151	0.0176598
870.229	0.0176802
870.308	0.0177037
870.386	0.0176364
870.464	0.0177233
870.542	0.0177170
870.620	0.0178110
870.698	0.0176385
870.776	0.0175883
870.854	0.0175897
870.933	0.0176900
871.011	0.0177185
871.089	0.0178184
871.167	0.0177299
871.245	0.0178645
871.323	0.0176929
871.401	0.0176695
871.479	0.0178198
871.558	0.0177264
871.636	0.0177947
871.714	0.0177942
871.792	0.0177242
871.870	0.0176961
871.948	0.0177890
872.026	0.0177518
872.104	0.0177209
872.183	0.0176395
872.261	0.0177821
872.339	0.0179211
872.417	0.0177796
872.495	0.0177822
872.573	0.0178480
872.651	0.0178329
872.729	0.0178213
872.808	0.0177861
872.886	0.0178021
872.964	0.0178568
873.042	0.0178373
873.120	0.0177897
873.198	0.0178088
873.276	0.0176984
873.354	0.0179508
873.433	0.0178114
873.511	0.0178595
873.589	0.0177169
873.667	0.0179151
873.745	0.0177927
873.823	0.0178193
873.901	0.0178143
873.979	0.0177499
874.058	0.0178178
874.136	0.0177342
874.214	0.0177697
874.292	0.0178416
874.370	0.0178893
874.448	0.0178860
874.526	0.0177888
874.604	0.0179288
874.683	0.0178937
874.761	0.0179842
874.839	0.0177226
874.917	0.0179147
874.995	0.0179395
875.073	0.0178816
875.151	0.0179584
875.229	0.0179733
875.308	0.0180209
875.386	0.0179622
875.464	0.0179610
875.542	0.0179221
875.620	0.0179570
875.698	0.0178806
875.776	0.0178925
875.854	0.0178581
875.933	0.0179444
876.011	0.0179811
876.089	0.0179351
876.167	0.0179422
876.245	0.0178412
876.323	0.0179290
876.401	0.0178797
876.479	0.0178368
876.558	0.0180401
876.636	0.0179954
876.714	0.0180047
876.792	0.0179441
876.870	0.0179800
876.948	0.0180038
877.026	0.0181413
877.104	0.0180227
877.183	0.0180042
877.261	0.0179360
877.339	0.0180327
877.417	0.0179541
877.495	0.0178725
877.573	0.0179066
877.651	0.0178033
877.729	0.0180025
877.808	0.0177660
877.886	0.0178258
877.964	0.0178253
878.042	0.0177991
878.120	0.0177225
878.198	0.0179053
878.276	0.0177335
878.354	0.0176534
878.433	0.0177377
878.511	0.0176572
878.589	0.0177392
878.667	0.0178190
878.745	0.0177673
878.823	0.0177586
878.901	0.0178289
878.979	0.0179440
879.058	0.0178140
879.136	0.0177693
879.214	0.0177961
879.292	0.0177677
879.370	0.0177710
879.448	0.0176808
879.526	0.0178054
879.604	0.0179398
879.683	0.0177912
879.761	0.0177139
879.839	0.0178040
879.917	0.0177493
879.995	0.0178872
880.073	0.0178440
880.151	0.0178477
880.229	0.0176308
880.308	0.0176676
880.386	0.0177771
880.464	0.0176886
880.542	0.0178300
880.620	0.0178315
880.698	0.0178997
880.776	0.0178864
880.854	0.0177950
880.933	0.0179784
881.011	0.0177745
881.089	0.0178085
881.167	0.0178767
881.245	0.0178944
881.323	0.0178282
881.401	0.0177598
881.479	0.0178859
881.558	0.0178493
881.636	0.0177602
881.714	0.0178968
881.792	0.0178391
881.870	0.0178922
881.948	0.0177991
882.026	0.0178781
882.104	0.0179654
882.183	0.0178315
882.261	0.0177706
882.339	0.0178777
882.417	0.0180504
882.495	0.0178496
882.573	0.0178325
882.651	0.0179275
882.729	0.0179132
882.808	0.0180120
882.886	0.0178422
882.964	0.0179245
883.042	0.0178149
883.120	0.0179784
883.198	0.0178589
883.276	0.0179021
883.354	0.0179178
883.433	0.0180131
883.511	0.0180300
883.589	0.0177252
883.667	0.0178895
883.745	0.0178665
883.823	0.0178448
883.901	0.0178512
883.979	0.0178537
884.058	0.0177547
884.136	0.0177094
884.214	0.0177167
884.292	0.0179224
884.370	0.0179009
884.448	0.0178883
884.526	0.0179864
884.604	0.0176392
884.683	0.0178347
884.761	0.0177779
884.839	0.0177393
884.917	0.0178363
884.995	0.0177929
885.073	0.0176430
885.151	0.0177656
885.229	0.0177631
885.308	0.0178639
885.386	0.0177082
885.464	0.0177117
885.542	0.0177815
885.620	0.0177972
885.698	0.0177570
885.776	0.0177593
885.854	0.0179047
885.933	0.0178494
886.011	0.0178526
886.089	0.0178550
886.167	0.0178607
886.245	0.0178694
886.323	0.0177983
886.401	0.0178029
886.479	0.0179882
886.558	0.0179263
886.636	0.0178778
886.714	0.0178985
886.792	0.0178634
886.870	0.0177584
886.948	0.0177959
887.026	0.0179510
887.104	0.0178656
887.183	0.0178991
887.261	0.0179298
887.339	0.0178204
887.417	0.0177579
887.495	0.0178236
887.573	0.0178686
887.651	0.0179736
887.729	0.0178384
887.808	0.0178430
887.886	0.0178699
887.964	0.0178545
888.042	0.0178964
888.120	0.0179079
888.198	0.0178712
888.276	0.0179451
888.354	0.0179482
888.433	0.0177912
888.511	0.0178189
888.589	0.0177483
888.667	0.0179342
888.745	0.0180738
888.823	0.0179567
888.901	0.0178952
888.979	0.0179460
889.058	0.0179661
889.136	0.0178326
889.214	0.0180247
889.292	0.0177740
889.370	0.0179737
889.448	0.0180698
889.526	0.0178853
889.604	0.0178403
889.683	0.0177865
889.761	0.0180290
889.839	0.0178076
889.917	0.0179512
889.995	0.0178419
890.073	0.0179782
890.151	0.0179260
890.229	0.0179230
890.308	0.0178044
890.386	0.0177049
890.464	0.0179888
890.542	0.0179565
890.620	0.0177968
890.698	0.0178342
890.776	0.0179004
890.854	0.0179355
890.933	0.0178567
891.011	0.0177502
891.089	0.0177511
891.167	0.0178746
891.245	0.0177945
891.323	0.0178313
891.401	0.0178540
891.479	0.0177107
891.558	0.0177290
891.636	0.0178022
891.714	0.0178714
891.792	0.0177122
891.870	0.0176070
891.948	0.0176415
892.026	0.0179329
892.104	0.0178989
892.183	0.0177416
892.261	0.0176235
892.339	0.0177360
892.417	0.0178001
892.495	0.0176582
892.573	0.0176503
892.651	0.0176984
892.729	0.0176292
892.808	0.0176897
892.886	0.0178077
892.964	0.0176968
893.042	0.0176722
893.120	0.0175642
893.198	0.0177254
893.276	0.0177278
893.354	0.0177699
893.433	0.0176827
893.511	0.0177171
893.589	0.0177560
893.667	0.0178151
893.745	0.0177718
893.823	0.0177286
893.901	0.0177612
893.979	0.0178903
894.058	0.0178933
894.136	0.0177219
894.214	0.0178185
894.292	0.0177869
894.370	0.0177579
894.448	0.0177452
894.526	0.0178457
894.604	0.0176643
894.683	0.0177762
894.761	0.0178174
894.839	0.0177407
894.917	0.0178327
894.995	0.0178024
895.073	0.0176777
895.151	0.0178687
895.229	0.0179070
895.308	0.0179552
895.386	0.0178776
895.464	0.0180279
895.542	0.0178881
895.620	0.0178957
895.698	0.0179867
895.776	0.0179941
895.854	0.0178482
895.933	0.0181480
896.011	0.0179490
896.089	0.0179358
896.167	0.0180685
896.245	0.0181117
896.323	0.0179579
896.401	0.0180605
896.479	0.0178666
896.558	0.0179237
896.636	0.0179845
896.714	0.0180283
896.792	0.0179108
896.870	0.0179777
896.948	0.0178333
897.026	0.0178638
897.104	0.0179425
897.183	0.0179193
897.261	0.0178904
897.339	0.0177583
897.417	0.0178390
897.495	0.0179166
897.573	0.0178538
897.651	0.0178446
897.729	0.0179410
897.808	0.0178744
897.886	0.0178028
897.964	0.0177925
898.042	0.0178723
898.120	0.0178763
898.198	0.0178464
898.276	0.0178649
898.354	0.0180773
898.433	0.0179524
898.511	0.0179871
898.589	0.0178148
898.667	0.0180370
898.745	0.0178584
898.823	0.0179362
898.901	0.0178486
898.979	0.0179553
899.058	0.0179844
899.136	0.0178532
899.214	0.0179369
899.292	0.0178145
899.370	0.0178513
899.448	0.0179597
899.526	0.0178348
899.604	0.0177653
899.683	0.0178777
899.761	0.0178388
899.839	0.0178871
899.917	0.0178781
899.995	0.0179091
900.073	0.0178304
900.151	0.0179189
900.229	0.0178159
900.308	0.0178085
900.386	0.0178770
900.464	0.0178812
900.542	0.0179613
900.620	0.0177643
900.698	0.0178640
900.776	0.0179207
900.854	0.0178453
900.933	0.0178859
901.011	0.0179443
901.089	0.0179136
901.167	0.0178854
901.245	0.0179076
901.323	0.0179875
901.401	0.0180830
901.479	0.0180978
901.558	0.0179755
901.636	0.0180928
901.714	0.0179787
901.792	0.0181033
901.870	0.0181014
901.948	0.0180853
902.026	0.0180673
902.104	0.0181494
902.183	0.0181126
902.261	0.0180381
902.339	0.0182053
902.417	0.0181598
902.495	0.0181589
902.573	0.0179782
902.651	0.0179778
902.729	0.0180819
902.808	0.0180911
902.886	0.0180419
902.964	0.0179403
903.042	0.0180600
903.120	0.0179965
903.198	0.0180670
903.276	0.0178875
903.354	0.0178056
903.433	0.0179311
903.511	0.0177967
903.589	0.0179280
903.667	0.0179027
903.745	0.0179461
903.823	0.0179810
903.901	0.0177873
903.979	0.0178398
904.058	0.0178501
904.136	0.0178001
904.214	0.0176712
904.292	0.0178272
904.370	0.0178592
904.448	0.0176822
904.526	0.0177281
904.604	0.0177901
904.683	0.0179002
904.761	0.0178104
904.839	0.0176272
904.917	0.0176366
904.995	0.0176694
905.073	0.0177579
905.151	0.0177271
905.229	0.0179170
905.308	0.0177441
905.386	0.0177814
905.464	0.0178361
905.542	0.0179694
905.620	0.0178140
905.698	0.0178164
905.776	0.0179838
905.854	0.0180114
905.933	0.0178745
906.011	0.0180798
906.089	0.0179594
906.167	0.0179013
906.245	0.0179630
906.323	0.0180285
906.401	0.0180611
906.479	0.0179316
906.558	0.0178953
906.636	0.0179415
906.714	0.0178542
906.792	0.0178636
906.870	0.0177502
906.948	0.0178250
907.026	0.0179718
907.104	0.0178905
907.183	0.0179063
907.261	0.0177489
907.339	0.0180363
907.417	0.0179741
907.495	0.0178886
907.573	0.0179948
907.651	0.0179646
907.729	0.0179495
907.808	0.0180445
907.886	0.0181214
907.964	0.0180723
908.042	0.0181680
908.120	0.0179183
908.198	0.0179781
908.276	0.0180639
908.354	0.0181107
908.433	0.0181170
908.511	0.0179224
908.589	0.0179906
908.667	0.0179549
908.745	0.0179572
908.823	0.0179119
908.901	0.0179655
908.979	0.0179097
909.058	0.0179313
909.136	0.0178559
909.214	0.0179974
909.292	0.0177911
909.370	0.0178078
909.448	0.0179811
909.526	0.0179529
909.604	0.0178291
909.683	0.0178944
909.761	0.0179904
909.839	0.0178040
909.917	0.0178814
909.995	0.0178180
910.073	0.0177706
910.151	0.0179502
910.229	0.0178755
910.308	0.0178310
910.386	0.0178546
910.464	0.0179957
910.542	0.0180339
910.620	0.0179327
910.698	0.0177943
910.776	0.0178468
910.854	0.0178049
910.933	0.0178476
911.011	0.0177818
911.089	0.0177630
911.167	0.0177513
911.245	0.0177352
911.323	0.0177155
911.401	0.0176981
911.479	0.0178206
911.558	0.0176534
911.636	0.0177424
911.714	0.0177182
911.792	0.0176483
911.870	0.0176690
911.948	0.0175284
912.026	0.0176597
912.104	0.0175149
912.183	0.0175421
912.261	0.0175285
912.339	0.0175358
912.417	0.0174271
912.495	0.0174869
912.573	0.0175763
912.651	0.0174865
912.729	0.0175555
912.808	0.0174052
912.886	0.0174337
912.964	0.0175773
913.042	0.0175904
913.120	0.0174450
913.198	0.0175557
913.276	0.0176503
913.354	0.0176697
913.433	0.0175897
913.511	0.0176041
913.589	0.0177773
913.667	0.0177075
913.745	0.0178530
913.823	0.0179460
913.901	0.0180524
913.979	0.0178944
914.058	0.0179163
914.136	0.0179175
914.214	0.0176817
914.292	0.0178471
914.370	0.0179121
914.448	0.0178102
914.526	0.0177267
914.604	0.0179087
914.683	0.0178425
914.761	0.0177967
914.839	0.0179121
914.917	0.0178943
914.995	0.0177940
915.073	0.0178201
915.151	0.0177908
915.229	0.0177991
915.308	0.0179067
915.386	0.0178451
915.464	0.0177720
915.542	0.0177421
915.620	0.0177726
915.698	0.0178079
915.776	0.0177300
915.854	0.0178221
915.933	0.0178314
916.011	0.0176919
916.089	0.0178577
916.167	0.0178203
916.245	0.0178904
916.323	0.0178661
916.401	0.0179356
916.479	0.0177983
916.558	0.0178365
916.636	0.0179221
916.714	0.0178931
916.792	0.0177812
916.870	0.0178158
916.948	0.0177750
917.026	0.0178435
917.104	0.0179317
917.183	0.0179446
917.261	0.0178342
917.339	0.0178831
917.417	0.0178316
917.495	0.0177393
917.573	0.0178935
917.651	0.0177567
917.729	0.0178675
917.808	0.0179230
917.886	0.0177899
917.964	0.0179697
918.042	0.0179490
918.120	0.0178152
918.198	0.0178866
918.276	0.0178984
918.354	0.0178587
918.433	0.0178288
918.511	0.0178851
918.589	0.0179256
918.667	0.0177938
918.745	0.0179485
918.823	0.0178701
918.901	0.0179189
918.979	0.0179243
919.058	0.0178148
919.136	0.0178599
919.214	0.0180331
919.292	0.0179626
919.370	0.0180150
919.448	0.0179288
919.526	0.0178860
919.604	0.0180173
919.683	0.0179566
919.761	0.0179745
919.839	0.0179453
919.917	0.0178680
