05/20/2022	15:58:56	Ver.	4.1	UNKNOWN
Optical Delay	639.989416	Delta X		0.078125	Sweeps	1	Scan Rate	0/0
Coordinates	Axis 1	NaN	Axis 2	NaN	Axis 3	NaN	Axis 4	NaN	Axis 5	NaN	Axis 6	0.000000
TX Power	0.000000	RX Power	0.000000

639.989	0.0151786
640.068	0.0151521
640.146	0.0151769
640.224	0.0151357
640.302	0.0152022
640.380	0.0150623
640.458	0.0151176
640.536	0.0151736
640.614	0.0150866
640.693	0.0152587
640.771	0.0152370
640.849	0.0152125
640.927	0.0152547
641.005	0.0151987
641.083	0.0150699
641.161	0.0151168
641.239	0.0151862
641.318	0.0151550
641.396	0.0152777
641.474	0.0152679
641.552	0.0151364
641.630	0.0152095
641.708	0.0152496
641.786	0.0151266
641.864	0.0150854
641.943	0.0151901
642.021	0.0150700
642.099	0.0151126
642.177	0.0150779
642.255	0.0152216
642.333	0.0152196
642.411	0.0151107
642.489	0.0150926
642.568	0.0151115
642.646	0.0151790
642.724	0.0152966
642.802	0.0152705
642.880	0.0151933
642.958	0.0150736
643.036	0.0152419
643.114	0.0153134
643.193	0.0151469
643.271	0.0150769
643.349	0.0151376
643.427	0.0151203
643.505	0.0151131
643.583	0.0151073
643.661	0.0152390
643.739	0.0152528
643.818	0.0152415
643.896	0.0151369
643.974	0.0151099
644.052	0.0152296
644.130	0.0152200
644.208	0.0152666
644.286	0.0151652
644.364	0.0152046
644.443	0.0150381
644.521	0.0152151
644.599	0.0152563
644.677	0.0152007
644.755	0.0152754
644.833	0.0151270
644.911	0.0152008
644.989	0.0153427
645.068	0.0153268
645.146	0.0152882
645.224	0.0150648
645.302	0.0150471
645.380	0.0152503
645.458	0.0152079
645.536	0.0153448
645.614	0.0152411
645.693	0.0151489
645.771	0.0150813
645.849	0.0150497
645.927	0.0152197
646.005	0.0152331
646.083	0.0150336
646.161	0.0150840
646.239	0.0152473
646.318	0.0151413
646.396	0.0152278
646.474	0.0151194
646.552	0.0151409
646.630	0.0152126
646.708	0.0151797
646.786	0.0153366
646.864	0.0152689
646.943	0.0152627
647.021	0.0151505
647.099	0.0150572
647.177	0.0151234
647.255	0.0152599
647.333	0.0151640
647.411	0.0153894
647.489	0.0152280
647.568	0.0151980
647.646	0.0151668
647.724	0.0153127
647.802	0.0151640
647.880	0.0151309
647.958	0.0151547
648.036	0.0152652
648.114	0.0152012
648.193	0.0152145
648.271	0.0151725
648.349	0.0152562
648.427	0.0152280
648.505	0.0151949
648.583	0.0151975
648.661	0.0152132
648.739	0.0152347
648.818	0.0150400
648.896	0.0151572
648.974	0.0153340
649.052	0.0152950
649.130	0.0152675
649.208	0.0151810
649.286	0.0151324
649.364	0.0152689
649.443	0.0152076
649.521	0.0152027
649.599	0.0152591
649.677	0.0152458
649.755	0.0151905
649.833	0.0152586
649.911	0.0152515
649.989	0.0150729
650.068	0.0153063
650.146	0.0151453
650.224	0.0150275
650.302	0.0151030
650.380	0.0153394
650.458	0.0152059
650.536	0.0152084
650.614	0.0152080
650.693	0.0151035
650.771	0.0150953
650.849	0.0151799
650.927	0.0151505
651.005	0.0151790
651.083	0.0152523
651.161	0.0153277
651.239	0.0152766
651.318	0.0151951
651.396	0.0151849
651.474	0.0152177
651.552	0.0151971
651.630	0.0153001
651.708	0.0151847
651.786	0.0153117
651.864	0.0152052
651.943	0.0150846
652.021	0.0151498
652.099	0.0153510
652.177	0.0151906
652.255	0.0152509
652.333	0.0151664
652.411	0.0152194
652.489	0.0150899
652.568	0.0152307
652.646	0.0152107
652.724	0.0151888
652.802	0.0151168
652.880	0.0151606
652.958	0.0151215
653.036	0.0152625
653.114	0.0152086
653.193	0.0152611
653.271	0.0152226
653.349	0.0150266
653.427	0.0151112
653.505	0.0152686
653.583	0.0150885
653.661	0.0150932
653.739	0.0151753
653.818	0.0151627
653.896	0.0153313
653.974	0.0152230
654.052	0.0151774
654.130	0.0151298
654.208	0.0151193
654.286	0.0150655
654.364	0.0152317
654.443	0.0152049
654.521	0.0152107
654.599	0.0151277
654.677	0.0153066
654.755	0.0152634
654.833	0.0152692
654.911	0.0150587
654.989	0.0152214
655.068	0.0152546
655.146	0.0151151
655.224	0.0151701
655.302	0.0152276
655.380	0.0152210
655.458	0.0150111
655.536	0.0150628
655.614	0.0152113
655.693	0.0152416
655.771	0.0152323
655.849	0.0151669
655.927	0.0152420
656.005	0.0149925
656.083	0.0150817
656.161	0.0151702
656.239	0.0153387
656.318	0.0151186
656.396	0.0149911
656.474	0.0151937
656.552	0.0151492
656.630	0.0151443
656.708	0.0151266
656.786	0.0150388
656.864	0.0152088
656.943	0.0151083
657.021	0.0152067
657.099	0.0152710
657.177	0.0151118
657.255	0.0151206
657.333	0.0150916
657.411	0.0151927
657.489	0.0150854
657.568	0.0151844
657.646	0.0151987
657.724	0.0153396
657.802	0.0152138
657.880	0.0151373
657.958	0.0152524
658.036	0.0151468
658.114	0.0151199
658.193	0.0151250
658.271	0.0151825
658.349	0.0152369
658.427	0.0150385
658.505	0.0150501
658.583	0.0151184
658.661	0.0150983
658.739	0.0151408
658.818	0.0153316
658.896	0.0151152
658.974	0.0152267
659.052	0.0152821
659.130	0.0152072
659.208	0.0152205
659.286	0.0150438
659.364	0.0151119
659.443	0.0151539
659.521	0.0153106
659.599	0.0151885
659.677	0.0151081
659.755	0.0151189
659.833	0.0150941
659.911	0.0152266
659.989	0.0150149
660.068	0.0151544
660.146	0.0151511
660.224	0.0152052
660.302	0.0150991
660.380	0.0151643
660.458	0.0152514
660.536	0.0151676
660.614	0.0152174
660.693	0.0150487
660.771	0.0150072
660.849	0.0151096
660.927	0.0152121
661.005	0.0151922
661.083	0.0151850
661.161	0.0150858
661.239	0.0151178
661.318	0.0151934
661.396	0.0151231
661.474	0.0150612
661.552	0.0151003
661.630	0.0151451
661.708	0.0152119
661.786	0.0152908
661.864	0.0150803
661.943	0.0151949
662.021	0.0151718
662.099	0.0151255
662.177	0.0151327
662.255	0.0150755
662.333	0.0152393
662.411	0.0150764
662.489	0.0151809
662.568	0.0151353
662.646	0.0151624
662.724	0.0150845
662.802	0.0151035
662.880	0.0152573
662.958	0.0152227
663.036	0.0150815
663.114	0.0151175
663.193	0.0151384
663.271	0.0152023
663.349	0.0151638
663.427	0.0151015
663.505	0.0152956
663.583	0.0151758
663.661	0.0150598
663.739	0.0150745
663.818	0.0152077
663.896	0.0151014
663.974	0.0151732
664.052	0.0151254
664.130	0.0151997
664.208	0.0151551
664.286	0.0151487
664.364	0.0151301
664.443	0.0151541
664.521	0.0151083
664.599	0.0150871
664.677	0.0151263
664.755	0.0152261
664.833	0.0151528
664.911	0.0151302
664.989	0.0152776
665.068	0.0151522
665.146	0.0150739
665.224	0.0151414
665.302	0.0152145
665.380	0.0151320
665.458	0.0151475
665.536	0.0151228
665.614	0.0151457
665.693	0.0152779
665.771	0.0151305
665.849	0.0151011
665.927	0.0151970
666.005	0.0153213
666.083	0.0151528
666.161	0.0152292
666.239	0.0150925
666.318	0.0151131
666.396	0.0151904
666.474	0.0151160
666.552	0.0152646
666.630	0.0151894
666.708	0.0151151
666.786	0.0151900
666.864	0.0151104
666.943	0.0151982
667.021	0.0151533
667.099	0.0151771
667.177	0.0152592
667.255	0.0151685
667.333	0.0151553
667.411	0.0151717
667.489	0.0151990
667.568	0.0150599
667.646	0.0151234
667.724	0.0152176
667.802	0.0152049
667.880	0.0151389
667.958	0.0151402
668.036	0.0152457
668.114	0.0151022
668.193	0.0152225
668.271	0.0150578
668.349	0.0151525
668.427	0.0152154
668.505	0.0151675
668.583	0.0152119
668.661	0.0151717
668.739	0.0152585
668.818	0.0151270
668.896	0.0151102
668.974	0.0149332
669.052	0.0150927
669.130	0.0152226
669.208	0.0151511
669.286	0.0151880
669.364	0.0150768
669.443	0.0152629
669.521	0.0151993
669.599	0.0152218
669.677	0.0151597
669.755	0.0151808
669.833	0.0152159
669.911	0.0151402
669.989	0.0151049
670.068	0.0152420
670.146	0.0153137
670.224	0.0152180
670.302	0.0151665
670.380	0.0151818
670.458	0.0152432
670.536	0.0151470
670.614	0.0151407
670.693	0.0151398
670.771	0.0151889
670.849	0.0151411
670.927	0.0151503
671.005	0.0151067
671.083	0.0151559
671.161	0.0151095
671.239	0.0151969
671.318	0.0151749
671.396	0.0151462
671.474	0.0151559
671.552	0.0151986
671.630	0.0151601
671.708	0.0150817
671.786	0.0150566
671.864	0.0152126
671.943	0.0152762
672.021	0.0152470
672.099	0.0151783
672.177	0.0150557
672.255	0.0151961
672.333	0.0151128
672.411	0.0150713
672.489	0.0149876
672.568	0.0151746
672.646	0.0150796
672.724	0.0150925
672.802	0.0149532
672.880	0.0152425
672.958	0.0151997
673.036	0.0152243
673.114	0.0149637
673.193	0.0150538
673.271	0.0150573
673.349	0.0150337
673.427	0.0151313
673.505	0.0151921
673.583	0.0150768
673.661	0.0149323
673.739	0.0150146
673.818	0.0151997
673.896	0.0150951
673.974	0.0151038
674.052	0.0150465
674.130	0.0152043
674.208	0.0150400
674.286	0.0152180
674.364	0.0151488
674.443	0.0152024
674.521	0.0150668
674.599	0.0149923
674.677	0.0151694
674.755	0.0151827
674.833	0.0151362
674.911	0.0151627
674.989	0.0150320
675.068	0.0149541
675.146	0.0152158
675.224	0.0151898
675.302	0.0152147
675.380	0.0151014
675.458	0.0150897
675.536	0.0151652
675.614	0.0149979
675.693	0.0151573
675.771	0.0151357
675.849	0.0150993
675.927	0.0151337
676.005	0.0152090
676.083	0.0151273
676.161	0.0151189
676.239	0.0151611
676.318	0.0151916
676.396	0.0151403
676.474	0.0150811
676.552	0.0150854
676.630	0.0150817
676.708	0.0151682
676.786	0.0151476
676.864	0.0150471
676.943	0.0150748
677.021	0.0150526
677.099	0.0151199
677.177	0.0150128
677.255	0.0151241
677.333	0.0151234
677.411	0.0148615
677.489	0.0151180
677.568	0.0151906
677.646	0.0153126
677.724	0.0152222
677.802	0.0150726
677.880	0.0150834
677.958	0.0150301
678.036	0.0151124
678.114	0.0152087
678.193	0.0151208
678.271	0.0152579
678.349	0.0150793
678.427	0.0151934
678.505	0.0151084
678.583	0.0152977
678.661	0.0151887
678.739	0.0151469
678.818	0.0153448
678.896	0.0151378
678.974	0.0151952
679.052	0.0151627
679.130	0.0151679
679.208	0.0153300
679.286	0.0151900
679.364	0.0151763
679.443	0.0152068
679.521	0.0151627
679.599	0.0151556
679.677	0.0152643
679.755	0.0151673
679.833	0.0149754
679.911	0.0150353
679.989	0.0153514
680.068	0.0151661
680.146	0.0151017
680.224	0.0151005
680.302	0.0150555
680.380	0.0152412
680.458	0.0152097
680.536	0.0150643
680.614	0.0152325
680.693	0.0152155
680.771	0.0152539
680.849	0.0152357
680.927	0.0152355
681.005	0.0151625
681.083	0.0151464
681.161	0.0151308
681.239	0.0151090
681.318	0.0152429
681.396	0.0151134
681.474	0.0152176
681.552	0.0151871
681.630	0.0151494
681.708	0.0152451
681.786	0.0151463
681.864	0.0150288
681.943	0.0152092
682.021	0.0151419
682.099	0.0151939
682.177	0.0151878
682.255	0.0152547
682.333	0.0153344
682.411	0.0151497
682.489	0.0151897
682.568	0.0151786
682.646	0.0151284
682.724	0.0152200
682.802	0.0152362
682.880	0.0152351
682.958	0.0150746
683.036	0.0152599
683.114	0.0152145
683.193	0.0151543
683.271	0.0152151
683.349	0.0151244
683.427	0.0151327
683.505	0.0152298
683.583	0.0152969
683.661	0.0151740
683.739	0.0152663
683.818	0.0152142
683.896	0.0152576
683.974	0.0149911
684.052	0.0152176
684.130	0.0151563
684.208	0.0151740
684.286	0.0151219
684.364	0.0152203
684.443	0.0151972
684.521	0.0151656
684.599	0.0152338
684.677	0.0150746
684.755	0.0151990
684.833	0.0151082
684.911	0.0152473
684.989	0.0152616
685.068	0.0152825
685.146	0.0152065
685.224	0.0152326
685.302	0.0150363
685.380	0.0152188
685.458	0.0152268
685.536	0.0151318
685.614	0.0153337
685.693	0.0151275
685.771	0.0151330
685.849	0.0151300
685.927	0.0151888
686.005	0.0151377
686.083	0.0152287
686.161	0.0151311
686.239	0.0152359
686.318	0.0153809
686.396	0.0152467
686.474	0.0151523
686.552	0.0151913
686.630	0.0152991
686.708	0.0153342
686.786	0.0149733
686.864	0.0151088
686.943	0.0152351
687.021	0.0152041
687.099	0.0151468
687.177	0.0151141
687.255	0.0152872
687.333	0.0151922
687.411	0.0151418
687.489	0.0151233
687.568	0.0152145
687.646	0.0151967
687.724	0.0150793
687.802	0.0150708
687.880	0.0152234
687.958	0.0151999
688.036	0.0151239
688.114	0.0151449
688.193	0.0151831
688.271	0.0150581
688.349	0.0151773
688.427	0.0151955
688.505	0.0151671
688.583	0.0152493
688.661	0.0151450
688.739	0.0151193
688.818	0.0150996
688.896	0.0151930
688.974	0.0150008
689.052	0.0150770
689.130	0.0150449
689.208	0.0150892
689.286	0.0152385
689.364	0.0151456
689.443	0.0152217
689.521	0.0153166
689.599	0.0152599
689.677	0.0152310
689.755	0.0152630
689.833	0.0153619
689.911	0.0151756
689.989	0.0150496
690.068	0.0151109
690.146	0.0151803
690.224	0.0150082
690.302	0.0149117
690.380	0.0149271
690.458	0.0149961
690.536	0.0149071
690.614	0.0149937
690.693	0.0150294
690.771	0.0150211
690.849	0.0151094
690.927	0.0152142
691.005	0.0152394
691.083	0.0152739
691.161	0.0153824
691.239	0.0154622
691.318	0.0154901
691.396	0.0154786
691.474	0.0154847
691.552	0.0153577
691.630	0.0153594
691.708	0.0153058
691.786	0.0152748
691.864	0.0151262
691.943	0.0150623
692.021	0.0151003
692.099	0.0149718
692.177	0.0149114
692.255	0.0149281
692.333	0.0149261
692.411	0.0148528
692.489	0.0149783
692.568	0.0150307
692.646	0.0150724
692.724	0.0148920
692.802	0.0151141
692.880	0.0150766
692.958	0.0150486
693.036	0.0151653
693.114	0.0151335
693.193	0.0151132
693.271	0.0151896
693.349	0.0151863
693.427	0.0152825
693.505	0.0152850
693.583	0.0152602
693.661	0.0151539
693.739	0.0150813
693.818	0.0151453
693.896	0.0152084
693.974	0.0152786
694.052	0.0149982
694.130	0.0150537
694.208	0.0151804
694.286	0.0152657
694.364	0.0152586
694.443	0.0152275
694.521	0.0152655
694.599	0.0153897
694.677	0.0155398
694.755	0.0152461
694.833	0.0153976
694.911	0.0156001
694.989	0.0152874
695.068	0.0152610
695.146	0.0152625
695.224	0.0152250
695.302	0.0152390
695.380	0.0151917
695.458	0.0150288
695.536	0.0151267
695.614	0.0149368
695.693	0.0150261
695.771	0.0149795
695.849	0.0149296
695.927	0.0150304
696.005	0.0149650
696.083	0.0149671
696.161	0.0150199
696.239	0.0150072
696.318	0.0150511
696.396	0.0150211
696.474	0.0151909
696.552	0.0151417
696.630	0.0151727
696.708	0.0150881
696.786	0.0151475
696.864	0.0150739
696.943	0.0153781
697.021	0.0152944
697.099	0.0152830
697.177	0.0152505
697.255	0.0153954
697.333	0.0153919
697.411	0.0154655
697.489	0.0153371
697.568	0.0153423
697.646	0.0154028
697.724	0.0153361
697.802	0.0153070
697.880	0.0153099
697.958	0.0153160
698.036	0.0152404
698.114	0.0153542
698.193	0.0152729
698.271	0.0152128
698.349	0.0151447
698.427	0.0150770
698.505	0.0150637
698.583	0.0151659
698.661	0.0151167
698.739	0.0150082
698.818	0.0151053
698.896	0.0150195
698.974	0.0150053
699.052	0.0150611
699.130	0.0150658
699.208	0.0152004
699.286	0.0150815
699.364	0.0150637
699.443	0.0150695
699.521	0.0149970
699.599	0.0150074
699.677	0.0151441
699.755	0.0151498
699.833	0.0151577
699.911	0.0152233
699.989	0.0152762
700.068	0.0151022
700.146	0.0151036
700.224	0.0152772
700.302	0.0151421
700.380	0.0151778
700.458	0.0151815
700.536	0.0150977
700.614	0.0151261
700.693	0.0152123
700.771	0.0151348
700.849	0.0151105
700.927	0.0152176
701.005	0.0152252
701.083	0.0150792
701.161	0.0151051
701.239	0.0151912
701.318	0.0151841
701.396	0.0151826
701.474	0.0151739
701.552	0.0151353
701.630	0.0152644
701.708	0.0151180
701.786	0.0151260
701.864	0.0152391
701.943	0.0152101
702.021	0.0151006
702.099	0.0152004
702.177	0.0152032
702.255	0.0152361
702.333	0.0152043
702.411	0.0151445
702.489	0.0151311
702.568	0.0149476
702.646	0.0151364
702.724	0.0151801
702.802	0.0150973
702.880	0.0151913
702.958	0.0151946
703.036	0.0151202
703.114	0.0151762
703.193	0.0151731
703.271	0.0152150
703.349	0.0152103
703.427	0.0151458
703.505	0.0151924
703.583	0.0151750
703.661	0.0151386
703.739	0.0151945
703.818	0.0152530
703.896	0.0151614
703.974	0.0151347
704.052	0.0152070
704.130	0.0153010
704.208	0.0151021
704.286	0.0152288
704.364	0.0151109
704.443	0.0152019
704.521	0.0151239
704.599	0.0152483
704.677	0.0152005
704.755	0.0151534
704.833	0.0150953
704.911	0.0150781
704.989	0.0151391
705.068	0.0151577
705.146	0.0150633
705.224	0.0149496
705.302	0.0150053
705.380	0.0151431
705.458	0.0150810
705.536	0.0151053
705.614	0.0151167
705.693	0.0149947
705.771	0.0151760
705.849	0.0151913
705.927	0.0150919
706.005	0.0151279
706.083	0.0151439
706.161	0.0153316
706.239	0.0153638
706.318	0.0150840
706.396	0.0151978
706.474	0.0151698
706.552	0.0152824
706.630	0.0152924
706.708	0.0152132
706.786	0.0151825
706.864	0.0152380
706.943	0.0151547
707.021	0.0151383
707.099	0.0153168
707.177	0.0153029
707.255	0.0150763
707.333	0.0151443
707.411	0.0151179
707.489	0.0152623
707.568	0.0151192
707.646	0.0152022
707.724	0.0152637
707.802	0.0151521
707.880	0.0151552
707.958	0.0151215
708.036	0.0150867
708.114	0.0152015
708.193	0.0152582
708.271	0.0151916
708.349	0.0150996
708.427	0.0151884
708.505	0.0150911
708.583	0.0152673
708.661	0.0151284
708.739	0.0151314
708.818	0.0151279
708.896	0.0150659
708.974	0.0149966
709.052	0.0151711
709.130	0.0151510
709.208	0.0150273
709.286	0.0151267
709.364	0.0151451
709.443	0.0151047
709.521	0.0152287
709.599	0.0151606
709.677	0.0151457
709.755	0.0151147
709.833	0.0150706
709.911	0.0150500
709.989	0.0151793
710.068	0.0151858
710.146	0.0151711
710.224	0.0152300
710.302	0.0151482
710.380	0.0152142
710.458	0.0151411
710.536	0.0152781
710.614	0.0151686
710.693	0.0151368
710.771	0.0151933
710.849	0.0151559
710.927	0.0151356
711.005	0.0150863
711.083	0.0150496
711.161	0.0151170
711.239	0.0151265
711.318	0.0152226
711.396	0.0151281
711.474	0.0150774
711.552	0.0152168
711.630	0.0151912
711.708	0.0151064
711.786	0.0152574
711.864	0.0151509
711.943	0.0152106
712.021	0.0151864
712.099	0.0150509
712.177	0.0151570
712.255	0.0152335
712.333	0.0151311
712.411	0.0152747
712.489	0.0151834
712.568	0.0150938
712.646	0.0153799
712.724	0.0152277
712.802	0.0152105
712.880	0.0152017
712.958	0.0151180
713.036	0.0152371
713.114	0.0151560
713.193	0.0151637
713.271	0.0152367
713.349	0.0151196
713.427	0.0151695
713.505	0.0150731
713.583	0.0152467
713.661	0.0152750
713.739	0.0151237
713.818	0.0151518
713.896	0.0152029
713.974	0.0151908
714.052	0.0151310
714.130	0.0151599
714.208	0.0152572
714.286	0.0151468
714.364	0.0150500
714.443	0.0151627
714.521	0.0152287
714.599	0.0150908
714.677	0.0151711
714.755	0.0151871
714.833	0.0150582
714.911	0.0149708
714.989	0.0151288
715.068	0.0152864
715.146	0.0153564
715.224	0.0151498
715.302	0.0152202
715.380	0.0151447
715.458	0.0151765
715.536	0.0153176
715.614	0.0152454
715.693	0.0153199
715.771	0.0152985
715.849	0.0151132
715.927	0.0152723
716.005	0.0151609
716.083	0.0151927
716.161	0.0152796
716.239	0.0152222
716.318	0.0151775
716.396	0.0151275
716.474	0.0152765
716.552	0.0151228
716.630	0.0150669
716.708	0.0151383
716.786	0.0152195
716.864	0.0152156
716.943	0.0152111
717.021	0.0151206
717.099	0.0152384
717.177	0.0151954
717.255	0.0151263
717.333	0.0151656
717.411	0.0151795
717.489	0.0153806
717.568	0.0151241
717.646	0.0151914
717.724	0.0151324
717.802	0.0150900
717.880	0.0150871
717.958	0.0151337
718.036	0.0150388
718.114	0.0152666
718.193	0.0152145
718.271	0.0151078
718.349	0.0152118
718.427	0.0151397
718.505	0.0150562
718.583	0.0149893
718.661	0.0152647
718.739	0.0150554
718.818	0.0150520
718.896	0.0151456
718.974	0.0152065
719.052	0.0150993
719.130	0.0150467
719.208	0.0151984
719.286	0.0152540
719.364	0.0149879
719.443	0.0150384
719.521	0.0151006
719.599	0.0150569
719.677	0.0151326
719.755	0.0150253
719.833	0.0152061
719.911	0.0151003
719.989	0.0152092
720.068	0.0150352
720.146	0.0150171
720.224	0.0150455
720.302	0.0150955
720.380	0.0151736
720.458	0.0150722
720.536	0.0151081
720.614	0.0152502
720.693	0.0151267
720.771	0.0150863
720.849	0.0151408
720.927	0.0151047
721.005	0.0151633
721.083	0.0151716
721.161	0.0151992
721.239	0.0151440
721.318	0.0150691
721.396	0.0151984
721.474	0.0153027
721.552	0.0152522
721.630	0.0151026
721.708	0.0152119
721.786	0.0153770
721.864	0.0151636
721.943	0.0152011
722.021	0.0153146
722.099	0.0153135
722.177	0.0151704
722.255	0.0153362
722.333	0.0152997
722.411	0.0152053
722.489	0.0152005
722.568	0.0152042
722.646	0.0152676
722.724	0.0151755
722.802	0.0151550
722.880	0.0152520
722.958	0.0151906
723.036	0.0151205
723.114	0.0151761
723.193	0.0151064
723.271	0.0152217
723.349	0.0151878
723.427	0.0152206
723.505	0.0152245
723.583	0.0152206
723.661	0.0151681
723.739	0.0150963
723.818	0.0151960
723.896	0.0151163
723.974	0.0152923
724.052	0.0151454
724.130	0.0153041
724.208	0.0153083
724.286	0.0152666
724.364	0.0151802
724.443	0.0151734
724.521	0.0151306
724.599	0.0151324
724.677	0.0151321
724.755	0.0151044
724.833	0.0151715
724.911	0.0152368
724.989	0.0150757
725.068	0.0150645
725.146	0.0151163
725.224	0.0151653
725.302	0.0151600
725.380	0.0150218
725.458	0.0151520
725.536	0.0151156
725.614	0.0151632
725.693	0.0150846
725.771	0.0152656
725.849	0.0151527
725.927	0.0151104
726.005	0.0151841
726.083	0.0151952
726.161	0.0151960
726.239	0.0150607
726.318	0.0151923
726.396	0.0152225
726.474	0.0151897
726.552	0.0150025
726.630	0.0151703
726.708	0.0150993
726.786	0.0150542
726.864	0.0151405
726.943	0.0150887
727.021	0.0150069
727.099	0.0150632
727.177	0.0151549
727.255	0.0151550
727.333	0.0150793
727.411	0.0151338
727.489	0.0151379
727.568	0.0150819
727.646	0.0151717
727.724	0.0151588
727.802	0.0151849
727.880	0.0152085
727.958	0.0151754
728.036	0.0151962
728.114	0.0151565
728.193	0.0151291
728.271	0.0151478
728.349	0.0153529
728.427	0.0154305
728.505	0.0152727
728.583	0.0152268
728.661	0.0152312
728.739	0.0153698
728.818	0.0152792
728.896	0.0151498
728.974	0.0151845
729.052	0.0151934
729.130	0.0151524
729.208	0.0151921
729.286	0.0151082
729.364	0.0151619
729.443	0.0151367
729.521	0.0151081
729.599	0.0150586
729.677	0.0151608
729.755	0.0151404
729.833	0.0151091
729.911	0.0151954
729.989	0.0152026
730.068	0.0153041
730.146	0.0152931
730.224	0.0152452
730.302	0.0152321
730.380	0.0152563
730.458	0.0152511
730.536	0.0152931
730.614	0.0151819
730.693	0.0151606
730.771	0.0151296
730.849	0.0151259
730.927	0.0151497
731.005	0.0151607
731.083	0.0152079
731.161	0.0153139
731.239	0.0151804
731.318	0.0151616
731.396	0.0150426
731.474	0.0150793
731.552	0.0151102
731.630	0.0149725
731.708	0.0149477
731.786	0.0151077
731.864	0.0151279
731.943	0.0152489
732.021	0.0152553
732.099	0.0150608
732.177	0.0151336
732.255	0.0150832
732.333	0.0152206
732.411	0.0153207
732.489	0.0151708
732.568	0.0151768
732.646	0.0150838
732.724	0.0152476
732.802	0.0151573
732.880	0.0151859
732.958	0.0152623
733.036	0.0151288
733.114	0.0151526
733.193	0.0151273
733.271	0.0152040
733.349	0.0152480
733.427	0.0151634
733.505	0.0150463
733.583	0.0151060
733.661	0.0151624
733.739	0.0152812
733.818	0.0151442
733.896	0.0151273
733.974	0.0151852
734.052	0.0150325
734.130	0.0151720
734.208	0.0151997
734.286	0.0151899
734.364	0.0152193
734.443	0.0151392
734.521	0.0151652
734.599	0.0153048
734.677	0.0153823
734.755	0.0152740
734.833	0.0153854
734.911	0.0152402
734.989	0.0152061
735.068	0.0151607
735.146	0.0152806
735.224	0.0153198
735.302	0.0153119
735.380	0.0152073
735.458	0.0152565
735.536	0.0152319
735.614	0.0152437
735.693	0.0152666
735.771	0.0151820
735.849	0.0150977
735.927	0.0150985
736.005	0.0151176
736.083	0.0151175
736.161	0.0151397
736.239	0.0151061
736.318	0.0151788
736.396	0.0151783
736.474	0.0152694
736.552	0.0150710
736.630	0.0151586
736.708	0.0151989
736.786	0.0151661
736.864	0.0151364
736.943	0.0151730
737.021	0.0152934
737.099	0.0152176
737.177	0.0152345
737.255	0.0152486
737.333	0.0151373
737.411	0.0152016
737.489	0.0151291
737.568	0.0151518
737.646	0.0151041
737.724	0.0151559
737.802	0.0151508
737.880	0.0150185
737.958	0.0150526
738.036	0.0151926
738.114	0.0151931
738.193	0.0151752
738.271	0.0151936
738.349	0.0150426
738.427	0.0151093
738.505	0.0151761
738.583	0.0149999
738.661	0.0151330
738.739	0.0151758
738.818	0.0153293
738.896	0.0151740
738.974	0.0150664
739.052	0.0150507
739.130	0.0151065
739.208	0.0150690
739.286	0.0153307
739.364	0.0152692
739.443	0.0150359
739.521	0.0151751
739.599	0.0151118
739.677	0.0153390
739.755	0.0150886
739.833	0.0151559
739.911	0.0151566
739.989	0.0151346
740.068	0.0150445
740.146	0.0150071
740.224	0.0150523
740.302	0.0150587
740.380	0.0150833
740.458	0.0150622
740.536	0.0150784
740.614	0.0151514
740.693	0.0152523
740.771	0.0151700
740.849	0.0151933
740.927	0.0151073
741.005	0.0151808
741.083	0.0152120
741.161	0.0151163
741.239	0.0151669
741.318	0.0152265
741.396	0.0152843
741.474	0.0151948
741.552	0.0152366
741.630	0.0152384
741.708	0.0151244
741.786	0.0151601
741.864	0.0151907
741.943	0.0152143
742.021	0.0151361
742.099	0.0152872
742.177	0.0151970
742.255	0.0151153
742.333	0.0150061
742.411	0.0152000
742.489	0.0151945
742.568	0.0151591
742.646	0.0150817
742.724	0.0151202
742.802	0.0151080
742.880	0.0151659
742.958	0.0152625
743.036	0.0152036
743.114	0.0150835
743.193	0.0150599
743.271	0.0151585
743.349	0.0150814
743.427	0.0150381
743.505	0.0150443
743.583	0.0150947
743.661	0.0151089
743.739	0.0151693
743.818	0.0151434
743.896	0.0150891
743.974	0.0148782
744.052	0.0150807
744.130	0.0151500
744.208	0.0151344
744.286	0.0152652
744.364	0.0151294
744.443	0.0150743
744.521	0.0151861
744.599	0.0152103
744.677	0.0151305
744.755	0.0152037
744.833	0.0151574
744.911	0.0151572
744.989	0.0151784
745.068	0.0151279
745.146	0.0150992
745.224	0.0151648
745.302	0.0151044
745.380	0.0150265
745.458	0.0150355
745.536	0.0150957
745.614	0.0153001
745.693	0.0150047
745.771	0.0149467
745.849	0.0151700
745.927	0.0150552
746.005	0.0150372
746.083	0.0151379
746.161	0.0151910
746.239	0.0150723
746.318	0.0151427
746.396	0.0151096
746.474	0.0150105
746.552	0.0151240
746.630	0.0153520
746.708	0.0152281
746.786	0.0151599
746.864	0.0151368
746.943	0.0151753
747.021	0.0152811
747.099	0.0151357
747.177	0.0152129
747.255	0.0150669
747.333	0.0153283
747.411	0.0152165
747.489	0.0151480
747.568	0.0152175
747.646	0.0152229
747.724	0.0150768
747.802	0.0151484
747.880	0.0150957
747.958	0.0151744
748.036	0.0152380
748.114	0.0151743
748.193	0.0150625
748.271	0.0152861
748.349	0.0150837
748.427	0.0152068
748.505	0.0152625
748.583	0.0151267
748.661	0.0151501
748.739	0.0152199
748.818	0.0153140
748.896	0.0152122
748.974	0.0151062
749.052	0.0152233
749.130	0.0151811
749.208	0.0151801
749.286	0.0153836
749.364	0.0151263
749.443	0.0151630
749.521	0.0152744
749.599	0.0151906
749.677	0.0152064
749.755	0.0152225
749.833	0.0151285
749.911	0.0151719
749.989	0.0151117
750.068	0.0150436
750.146	0.0151060
750.224	0.0151879
750.302	0.0149876
750.380	0.0152389
750.458	0.0152006
750.536	0.0152866
750.614	0.0150426
750.693	0.0151055
750.771	0.0151690
750.849	0.0151321
750.927	0.0150974
751.005	0.0150826
751.083	0.0152998
751.161	0.0151537
751.239	0.0151658
751.318	0.0151733
751.396	0.0150424
751.474	0.0150252
751.552	0.0151632
751.630	0.0151984
751.708	0.0152360
751.786	0.0151103
751.864	0.0151445
751.943	0.0152004
752.021	0.0153224
752.099	0.0152003
752.177	0.0150087
752.255	0.0150095
752.333	0.0152174
752.411	0.0153008
752.489	0.0151704
752.568	0.0151231
752.646	0.0152914
752.724	0.0152206
752.802	0.0151656
752.880	0.0151833
752.958	0.0152178
753.036	0.0151733
753.114	0.0150812
753.193	0.0151750
753.271	0.0150363
753.349	0.0152045
753.427	0.0151333
753.505	0.0151379
753.583	0.0151407
753.661	0.0151533
753.739	0.0151999
753.818	0.0151900
753.896	0.0152071
753.974	0.0149920
754.052	0.0152181
754.130	0.0152094
754.208	0.0152230
754.286	0.0150075
754.364	0.0152197
754.443	0.0151527
754.521	0.0153623
754.599	0.0153247
754.677	0.0152263
754.755	0.0151141
754.833	0.0151403
754.911	0.0153226
754.989	0.0151325
755.068	0.0151343
755.146	0.0151197
755.224	0.0151559
755.302	0.0151479
755.380	0.0151436
755.458	0.0151341
755.536	0.0152779
755.614	0.0152310
755.693	0.0151519
755.771	0.0151637
755.849	0.0151966
755.927	0.0150786
756.005	0.0151115
756.083	0.0150217
756.161	0.0151232
756.239	0.0151611
756.318	0.0150854
756.396	0.0151154
756.474	0.0149509
756.552	0.0151022
756.630	0.0152222
756.708	0.0149698
756.786	0.0150793
756.864	0.0152290
756.943	0.0151127
757.021	0.0152083
757.099	0.0151228
757.177	0.0150686
757.255	0.0151886
757.333	0.0152006
757.411	0.0151781
757.489	0.0151794
757.568	0.0150605
757.646	0.0150974
757.724	0.0151307
757.802	0.0151615
757.880	0.0151247
757.958	0.0151859
758.036	0.0151517
758.114	0.0152718
758.193	0.0152071
758.271	0.0151740
758.349	0.0151929
758.427	0.0151517
758.505	0.0152151
758.583	0.0153513
758.661	0.0151623
758.739	0.0152030
758.818	0.0151722
758.896	0.0151450
758.974	0.0152574
759.052	0.0151646
759.130	0.0150607
759.208	0.0151704
759.286	0.0151852
759.364	0.0151347
759.443	0.0151180
759.521	0.0152042
759.599	0.0151093
759.677	0.0150867
759.755	0.0151572
759.833	0.0151840
759.911	0.0151982
759.989	0.0152173
760.068	0.0151405
760.146	0.0152591
760.224	0.0151447
760.302	0.0151444
760.380	0.0151489
760.458	0.0151310
760.536	0.0152277
760.614	0.0152448
760.693	0.0150410
760.771	0.0150171
760.849	0.0151888
760.927	0.0151915
761.005	0.0150261
761.083	0.0150877
761.161	0.0151259
761.239	0.0151135
761.318	0.0150254
761.396	0.0150867
761.474	0.0152279
761.552	0.0151285
761.630	0.0152731
761.708	0.0150756
761.786	0.0150867
761.864	0.0151546
761.943	0.0153561
762.021	0.0153112
762.099	0.0152703
762.177	0.0151949
762.255	0.0151205
762.333	0.0152367
762.411	0.0151605
762.489	0.0151463
762.568	0.0152650
762.646	0.0151308
762.724	0.0151607
762.802	0.0151585
762.880	0.0150928
762.958	0.0151183
763.036	0.0151920
763.114	0.0152567
763.193	0.0151914
763.271	0.0150438
763.349	0.0150818
763.427	0.0152249
763.505	0.0151209
763.583	0.0152152
763.661	0.0152011
763.739	0.0151235
763.818	0.0152088
763.896	0.0151583
763.974	0.0153133
764.052	0.0151824
764.130	0.0152187
764.208	0.0150052
764.286	0.0152028
764.364	0.0152617
764.443	0.0152723
764.521	0.0151371
764.599	0.0151991
764.677	0.0151155
764.755	0.0152788
764.833	0.0152448
764.911	0.0151906
764.989	0.0152232
765.068	0.0151503
765.146	0.0151591
765.224	0.0151855
765.302	0.0151470
765.380	0.0152139
765.458	0.0150090
765.536	0.0152266
765.614	0.0151039
765.693	0.0152122
765.771	0.0152083
765.849	0.0151446
765.927	0.0151282
766.005	0.0151774
766.083	0.0149875
766.161	0.0151340
766.239	0.0151014
766.318	0.0150635
766.396	0.0150403
766.474	0.0150710
766.552	0.0151255
766.630	0.0150539
766.708	0.0148961
766.786	0.0152538
766.864	0.0151228
766.943	0.0149565
767.021	0.0151201
767.099	0.0150812
767.177	0.0151486
767.255	0.0151313
767.333	0.0151244
767.411	0.0151398
767.489	0.0150424
767.568	0.0151173
767.646	0.0151720
767.724	0.0151148
767.802	0.0151963
767.880	0.0151689
767.958	0.0153307
768.036	0.0152205
768.114	0.0152214
768.193	0.0150879
768.271	0.0151058
768.349	0.0152352
768.427	0.0152436
768.505	0.0151540
768.583	0.0151144
768.661	0.0151284
768.739	0.0151836
768.818	0.0151903
768.896	0.0153030
768.974	0.0151188
769.052	0.0151772
769.130	0.0152464
769.208	0.0152157
769.286	0.0152181
769.364	0.0151727
769.443	0.0150583
769.521	0.0152442
769.599	0.0152254
769.677	0.0152798
769.755	0.0151874
769.833	0.0151115
769.911	0.0150887
769.989	0.0151478
770.068	0.0152738
770.146	0.0151620
770.224	0.0150405
770.302	0.0151254
770.380	0.0153163
770.458	0.0152087
770.536	0.0151675
770.614	0.0151730
770.693	0.0151719
770.771	0.0151455
770.849	0.0152596
770.927	0.0152774
771.005	0.0152624
771.083	0.0151297
771.161	0.0150955
771.239	0.0151563
771.318	0.0149777
771.396	0.0150583
771.474	0.0150839
771.552	0.0150786
771.630	0.0150320
771.708	0.0151044
771.786	0.0151846
771.864	0.0152249
771.943	0.0151001
772.021	0.0150956
772.099	0.0151534
772.177	0.0151408
772.255	0.0152465
772.333	0.0151167
772.411	0.0150856
772.489	0.0149352
772.568	0.0151770
772.646	0.0151759
772.724	0.0151926
772.802	0.0151362
772.880	0.0153222
772.958	0.0151626
773.036	0.0150982
773.114	0.0151708
773.193	0.0152219
773.271	0.0150975
773.349	0.0151198
773.427	0.0151122
773.505	0.0151869
773.583	0.0151649
773.661	0.0153251
773.739	0.0151919
773.818	0.0149643
773.896	0.0151362
773.974	0.0152598
774.052	0.0152200
774.130	0.0151633
774.208	0.0152367
774.286	0.0151392
774.364	0.0152089
774.443	0.0151718
774.521	0.0151138
774.599	0.0152987
774.677	0.0152719
774.755	0.0151151
774.833	0.0152997
774.911	0.0152304
774.989	0.0152261
775.068	0.0152544
775.146	0.0151908
775.224	0.0152244
775.302	0.0151728
775.380	0.0152975
775.458	0.0151557
775.536	0.0151648
775.614	0.0152563
775.693	0.0151727
775.771	0.0151444
775.849	0.0151030
775.927	0.0152618
776.005	0.0151261
776.083	0.0153285
776.161	0.0152306
776.239	0.0150380
776.318	0.0151427
776.396	0.0151504
776.474	0.0150802
776.552	0.0151239
776.630	0.0151115
776.708	0.0152431
776.786	0.0152787
776.864	0.0151249
776.943	0.0151267
777.021	0.0149919
777.099	0.0152291
777.177	0.0153043
777.255	0.0152540
777.333	0.0153193
777.411	0.0151603
777.489	0.0153147
777.568	0.0152353
777.646	0.0153542
777.724	0.0151835
777.802	0.0153397
777.880	0.0151198
777.958	0.0151782
778.036	0.0151713
778.114	0.0150797
778.193	0.0152114
778.271	0.0151167
778.349	0.0152348
778.427	0.0151615
778.505	0.0152500
778.583	0.0152803
778.661	0.0151638
778.739	0.0151208
778.818	0.0152576
778.896	0.0152677
778.974	0.0151364
779.052	0.0150791
779.130	0.0150601
779.208	0.0151055
779.286	0.0152545
779.364	0.0151324
779.443	0.0152403
779.521	0.0152842
779.599	0.0151545
779.677	0.0153512
779.755	0.0152653
779.833	0.0151071
779.911	0.0151265
779.989	0.0152499
780.068	0.0152975
780.146	0.0152134
780.224	0.0151241
780.302	0.0151768
780.380	0.0150436
780.458	0.0152004
780.536	0.0153051
780.614	0.0151965
780.693	0.0151382
780.771	0.0152457
780.849	0.0151684
780.927	0.0151611
781.005	0.0152062
781.083	0.0151291
781.161	0.0151959
781.239	0.0152980
781.318	0.0151845
781.396	0.0152049
781.474	0.0151582
781.552	0.0151456
781.630	0.0150323
781.708	0.0152336
781.786	0.0152046
781.864	0.0151168
781.943	0.0152406
782.021	0.0151314
782.099	0.0151533
782.177	0.0150661
782.255	0.0152572
782.333	0.0150676
782.411	0.0151306
782.489	0.0150687
782.568	0.0150689
782.646	0.0150787
782.724	0.0152225
782.802	0.0152023
782.880	0.0151807
782.958	0.0150942
783.036	0.0150668
783.114	0.0152104
783.193	0.0152048
783.271	0.0151257
783.349	0.0152213
783.427	0.0152002
783.505	0.0151785
783.583	0.0152616
783.661	0.0153296
783.739	0.0151451
783.818	0.0151726
783.896	0.0151824
783.974	0.0151388
784.052	0.0150173
784.130	0.0150083
784.208	0.0151913
784.286	0.0153638
784.364	0.0151277
784.443	0.0151514
784.521	0.0151379
784.599	0.0150842
784.677	0.0150988
784.755	0.0152049
784.833	0.0150742
784.911	0.0153268
784.989	0.0152728
785.068	0.0151797
785.146	0.0152241
785.224	0.0153098
785.302	0.0152241
785.380	0.0152927
785.458	0.0152806
785.536	0.0153345
785.614	0.0152379
785.693	0.0152536
785.771	0.0153347
785.849	0.0153292
785.927	0.0151752
786.005	0.0152204
786.083	0.0152502
786.161	0.0152049
786.239	0.0154193
786.318	0.0151820
786.396	0.0152326
786.474	0.0151667
786.552	0.0152642
786.630	0.0152420
786.708	0.0152354
786.786	0.0151871
786.864	0.0151740
786.943	0.0152031
787.021	0.0153466
787.099	0.0151638
787.177	0.0151388
787.255	0.0152739
787.333	0.0152365
787.411	0.0151883
787.489	0.0151752
787.568	0.0151390
787.646	0.0151628
787.724	0.0152319
787.802	0.0154005
787.880	0.0151926
787.958	0.0151875
788.036	0.0151914
788.114	0.0151414
788.193	0.0152534
788.271	0.0152299
788.349	0.0151045
788.427	0.0151778
788.505	0.0152950
788.583	0.0151285
788.661	0.0152669
788.739	0.0152676
788.818	0.0151506
788.896	0.0151659
788.974	0.0151729
789.052	0.0152649
789.130	0.0152351
789.208	0.0152964
789.286	0.0153888
789.364	0.0151678
789.443	0.0151958
789.521	0.0150412
789.599	0.0151210
789.677	0.0152004
789.755	0.0152015
789.833	0.0151921
789.911	0.0150467
789.989	0.0151077
790.068	0.0151534
790.146	0.0152561
790.224	0.0151900
790.302	0.0151756
790.380	0.0151913
790.458	0.0152513
790.536	0.0150671
790.614	0.0152378
790.693	0.0153163
790.771	0.0153127
790.849	0.0151505
790.927	0.0150722
791.005	0.0151736
791.083	0.0150925
791.161	0.0151110
791.239	0.0151107
791.318	0.0152264
791.396	0.0151633
791.474	0.0151218
791.552	0.0152456
791.630	0.0152168
791.708	0.0151507
791.786	0.0151332
791.864	0.0150497
791.943	0.0152232
792.021	0.0150510
792.099	0.0150235
792.177	0.0149804
792.255	0.0150089
792.333	0.0151904
792.411	0.0150152
792.489	0.0152193
792.568	0.0151151
792.646	0.0151125
792.724	0.0151179
792.802	0.0151213
792.880	0.0152049
792.958	0.0151459
793.036	0.0151051
793.114	0.0152303
793.193	0.0151591
793.271	0.0151576
793.349	0.0150702
793.427	0.0151053
793.505	0.0152859
793.583	0.0151392
793.661	0.0151922
793.739	0.0152451
793.818	0.0151649
793.896	0.0151293
793.974	0.0151601
794.052	0.0151808
794.130	0.0151382
794.208	0.0151042
794.286	0.0151683
794.364	0.0150628
794.443	0.0152190
794.521	0.0152564
794.599	0.0151954
794.677	0.0149850
794.755	0.0151635
794.833	0.0152162
794.911	0.0151288
794.989	0.0151984
795.068	0.0151197
795.146	0.0152326
795.224	0.0151065
795.302	0.0151370
795.380	0.0151729
795.458	0.0151007
795.536	0.0151669
795.614	0.0152417
795.693	0.0151450
795.771	0.0150489
795.849	0.0151038
795.927	0.0151759
796.005	0.0152467
796.083	0.0150270
796.161	0.0152193
796.239	0.0151100
796.318	0.0152457
796.396	0.0151730
796.474	0.0152158
796.552	0.0152252
796.630	0.0152721
796.708	0.0152760
796.786	0.0151867
796.864	0.0151186
796.943	0.0151558
797.021	0.0152820
797.099	0.0151843
797.177	0.0151672
797.255	0.0152556
797.333	0.0150983
797.411	0.0151672
797.489	0.0152079
797.568	0.0151518
797.646	0.0151450
797.724	0.0152247
797.802	0.0151378
797.880	0.0152609
797.958	0.0151447
798.036	0.0152015
798.114	0.0150455
798.193	0.0150844
798.271	0.0152283
798.349	0.0151672
798.427	0.0150901
798.505	0.0151324
798.583	0.0151094
798.661	0.0151704
798.739	0.0151690
798.818	0.0150373
798.896	0.0151685
798.974	0.0150979
799.052	0.0151729
799.130	0.0151197
799.208	0.0152570
799.286	0.0151685
799.364	0.0149449
799.443	0.0151546
799.521	0.0151479
799.599	0.0151054
799.677	0.0151582
799.755	0.0150729
799.833	0.0152370
799.911	0.0152217
799.989	0.0150696
800.068	0.0151623
800.146	0.0152580
800.224	0.0151637
800.302	0.0151878
800.380	0.0151593
800.458	0.0152460
800.536	0.0152487
800.614	0.0152065
800.693	0.0153136
800.771	0.0152036
800.849	0.0153276
800.927	0.0154391
801.005	0.0153295
801.083	0.0151078
801.161	0.0152928
801.239	0.0153469
801.318	0.0151874
801.396	0.0152296
801.474	0.0151675
801.552	0.0152596
801.630	0.0150880
801.708	0.0151488
801.786	0.0151097
801.864	0.0152113
801.943	0.0150097
802.021	0.0150887
802.099	0.0151712
802.177	0.0150893
802.255	0.0152151
802.333	0.0151656
802.411	0.0151231
802.489	0.0152373
802.568	0.0150744
802.646	0.0151244
802.724	0.0152042
802.802	0.0152293
802.880	0.0153054
802.958	0.0150948
803.036	0.0151865
803.114	0.0152952
803.193	0.0151466
803.271	0.0152461
803.349	0.0152937
803.427	0.0152734
803.505	0.0151689
803.583	0.0151976
803.661	0.0151962
803.739	0.0151801
803.818	0.0153083
803.896	0.0153534
803.974	0.0152503
804.052	0.0151259
804.130	0.0152388
804.208	0.0151208
804.286	0.0151448
804.364	0.0152066
804.443	0.0151531
804.521	0.0152587
804.599	0.0152179
804.677	0.0151054
804.755	0.0151343
804.833	0.0152614
804.911	0.0149688
804.989	0.0150800
805.068	0.0151388
805.146	0.0151620
805.224	0.0152325
805.302	0.0150565
805.380	0.0151566
805.458	0.0151783
805.536	0.0152217
805.614	0.0152277
805.693	0.0152105
805.771	0.0151589
805.849	0.0151886
805.927	0.0151261
806.005	0.0151996
806.083	0.0151786
806.161	0.0152959
806.239	0.0151095
806.318	0.0151154
806.396	0.0152306
806.474	0.0151521
806.552	0.0152926
806.630	0.0153356
806.708	0.0151623
806.786	0.0153136
806.864	0.0153144
806.943	0.0152158
807.021	0.0153056
807.099	0.0151050
807.177	0.0151328
807.255	0.0152351
807.333	0.0152052
807.411	0.0153023
807.489	0.0153755
807.568	0.0152052
807.646	0.0150626
807.724	0.0151339
807.802	0.0151496
807.880	0.0150467
807.958	0.0151964
808.036	0.0150596
808.114	0.0151140
808.193	0.0152782
808.271	0.0152057
808.349	0.0151587
808.427	0.0152116
808.505	0.0151183
808.583	0.0151215
808.661	0.0150173
808.739	0.0150415
808.818	0.0152065
808.896	0.0153272
808.974	0.0151726
809.052	0.0150231
809.130	0.0151764
809.208	0.0150925
809.286	0.0150757
809.364	0.0150675
809.443	0.0150816
809.521	0.0152619
809.599	0.0153152
809.677	0.0151438
809.755	0.0151302
809.833	0.0151415
809.911	0.0152924
809.989	0.0150426
810.068	0.0151482
810.146	0.0152744
810.224	0.0151617
810.302	0.0152078
810.380	0.0152989
810.458	0.0153471
810.536	0.0151074
810.614	0.0150337
810.693	0.0151359
810.771	0.0151186
810.849	0.0151010
810.927	0.0152320
811.005	0.0151096
811.083	0.0149722
811.161	0.0151968
811.239	0.0151567
811.318	0.0151223
811.396	0.0150806
811.474	0.0151817
811.552	0.0150942
811.630	0.0150475
811.708	0.0151705
811.786	0.0152480
811.864	0.0151735
811.943	0.0151406
812.021	0.0152638
812.099	0.0152554
812.177	0.0150974
812.255	0.0152120
812.333	0.0151927
812.411	0.0152525
812.489	0.0152358
812.568	0.0151109
812.646	0.0152897
812.724	0.0151842
812.802	0.0150764
812.880	0.0151746
812.958	0.0152882
813.036	0.0153329
813.114	0.0152168
813.193	0.0151778
813.271	0.0152414
813.349	0.0152023
813.427	0.0151863
813.505	0.0151932
813.583	0.0151088
813.661	0.0152186
813.739	0.0151425
813.818	0.0151453
813.896	0.0151101
813.974	0.0152436
814.052	0.0151176
814.130	0.0151639
814.208	0.0151293
814.286	0.0149488
814.364	0.0152187
814.443	0.0151018
814.521	0.0151112
814.599	0.0151672
814.677	0.0151780
814.755	0.0150702
814.833	0.0151381
814.911	0.0151055
814.989	0.0150901
815.068	0.0152659
815.146	0.0151599
815.224	0.0150816
815.302	0.0150093
815.380	0.0149751
815.458	0.0152641
815.536	0.0150716
815.614	0.0151268
815.693	0.0150898
815.771	0.0151308
815.849	0.0152498
815.927	0.0151736
816.005	0.0152247
816.083	0.0150807
816.161	0.0150957
816.239	0.0151541
816.318	0.0150809
816.396	0.0150961
816.474	0.0151677
816.552	0.0151113
816.630	0.0151418
816.708	0.0152128
816.786	0.0151202
816.864	0.0149963
816.943	0.0152087
817.021	0.0152226
817.099	0.0152129
817.177	0.0151777
817.255	0.0152190
817.333	0.0151392
817.411	0.0152171
817.489	0.0151491
817.568	0.0151517
817.646	0.0151071
817.724	0.0151424
817.802	0.0151847
817.880	0.0153292
817.958	0.0151802
818.036	0.0151820
818.114	0.0152626
818.193	0.0151929
818.271	0.0152704
818.349	0.0152684
818.427	0.0152768
818.505	0.0152560
818.583	0.0151952
818.661	0.0152351
818.739	0.0152218
818.818	0.0152247
818.896	0.0153318
818.974	0.0151122
819.052	0.0151586
819.130	0.0151759
819.208	0.0151897
819.286	0.0152068
819.364	0.0153176
819.443	0.0151372
819.521	0.0151021
819.599	0.0151435
819.677	0.0151677
819.755	0.0152290
819.833	0.0152390
819.911	0.0152169
819.989	0.0150745
820.068	0.0150446
820.146	0.0149860
820.224	0.0151118
820.302	0.0152375
820.380	0.0150612
820.458	0.0149817
820.536	0.0151060
820.614	0.0149933
820.693	0.0148949
820.771	0.0149747
820.849	0.0151041
820.927	0.0150661
821.005	0.0151552
821.083	0.0149579
821.161	0.0149130
821.239	0.0149557
821.318	0.0150471
821.396	0.0150166
821.474	0.0150901
821.552	0.0150741
821.630	0.0150860
821.708	0.0149884
821.786	0.0151775
821.864	0.0151737
821.943	0.0151347
822.021	0.0152542
822.099	0.0150978
822.177	0.0152247
822.255	0.0151978
822.333	0.0152002
822.411	0.0151621
822.489	0.0152499
822.568	0.0151879
822.646	0.0154500
822.724	0.0153564
822.802	0.0153327
822.880	0.0153152
822.958	0.0154745
823.036	0.0153465
823.114	0.0151986
823.193	0.0154087
823.271	0.0153423
823.349	0.0154520
823.427	0.0153943
823.505	0.0154375
823.583	0.0153701
823.661	0.0151635
823.739	0.0153186
823.818	0.0152869
823.896	0.0152065
823.974	0.0151962
824.052	0.0153033
824.130	0.0152604
824.208	0.0152620
824.286	0.0152335
824.364	0.0150941
824.443	0.0151134
824.521	0.0153288
824.599	0.0151849
824.677	0.0151495
824.755	0.0150502
824.833	0.0151301
824.911	0.0151147
824.989	0.0152341
825.068	0.0151482
825.146	0.0150660
825.224	0.0150443
825.302	0.0150190
825.380	0.0150397
825.458	0.0150632
825.536	0.0150606
825.614	0.0150617
825.693	0.0148829
825.771	0.0149575
825.849	0.0150192
825.927	0.0149667
826.005	0.0149195
826.083	0.0150233
826.161	0.0149995
826.239	0.0149874
826.318	0.0149656
826.396	0.0150169
826.474	0.0150072
826.552	0.0149731
826.630	0.0149643
826.708	0.0151019
826.786	0.0149293
826.864	0.0149704
826.943	0.0149829
827.021	0.0150916
827.099	0.0150296
827.177	0.0152181
827.255	0.0150244
827.333	0.0151918
827.411	0.0151460
827.489	0.0152902
827.568	0.0152161
827.646	0.0152122
827.724	0.0151170
827.802	0.0153342
827.880	0.0152171
827.958	0.0151907
828.036	0.0153722
828.114	0.0154355
828.193	0.0153116
828.271	0.0152425
828.349	0.0151964
828.427	0.0153818
828.505	0.0153521
828.583	0.0154093
828.661	0.0153920
828.739	0.0153840
828.818	0.0153645
828.896	0.0153471
828.974	0.0153176
829.052	0.0153731
829.130	0.0153874
829.208	0.0153991
829.286	0.0151946
829.364	0.0153322
829.443	0.0152455
829.521	0.0153757
829.599	0.0151386
829.677	0.0151881
829.755	0.0151116
829.833	0.0151221
829.911	0.0149865
829.989	0.0150645
830.068	0.0150809
830.146	0.0150579
830.224	0.0149660
830.302	0.0149348
830.380	0.0148777
830.458	0.0149255
830.536	0.0149407
830.614	0.0150076
830.693	0.0148499
830.771	0.0149507
830.849	0.0149300
830.927	0.0148441
831.005	0.0148975
831.083	0.0149220
831.161	0.0149467
831.239	0.0149247
831.318	0.0149660
831.396	0.0150191
831.474	0.0149606
831.552	0.0151466
831.630	0.0150716
831.708	0.0150999
831.786	0.0150349
831.864	0.0151798
831.943	0.0150513
832.021	0.0150757
832.099	0.0152139
832.177	0.0152470
832.255	0.0150557
832.333	0.0152780
832.411	0.0154041
832.489	0.0153062
832.568	0.0153162
832.646	0.0151919
832.724	0.0152573
832.802	0.0153062
832.880	0.0152065
832.958	0.0154182
833.036	0.0153867
833.114	0.0152766
833.193	0.0153064
833.271	0.0153121
833.349	0.0152490
833.427	0.0153408
833.505	0.0153542
833.583	0.0152305
833.661	0.0151894
833.739	0.0152582
833.818	0.0153878
833.896	0.0152103
833.974	0.0152280
834.052	0.0151823
834.130	0.0152897
834.208	0.0151151
834.286	0.0152119
834.364	0.0153348
834.443	0.0151373
834.521	0.0151314
834.599	0.0151695
834.677	0.0151293
834.755	0.0151606
834.833	0.0151351
834.911	0.0151640
834.989	0.0150805
835.068	0.0151035
835.146	0.0150262
835.224	0.0151617
835.302	0.0150732
835.380	0.0151165
835.458	0.0151399
835.536	0.0151505
835.614	0.0150475
835.693	0.0149949
835.771	0.0150660
835.849	0.0151316
835.927	0.0152595
836.005	0.0150333
836.083	0.0151440
836.161	0.0151443
836.239	0.0150797
836.318	0.0150537
836.396	0.0151498
836.474	0.0151556
836.552	0.0151018
836.630	0.0151188
836.708	0.0151519
836.786	0.0150637
836.864	0.0151814
836.943	0.0152553
837.021	0.0151266
837.099	0.0151614
837.177	0.0150973
837.255	0.0151820
837.333	0.0152254
837.411	0.0152360
837.489	0.0152562
837.568	0.0151547
837.646	0.0152605
837.724	0.0152351
837.802	0.0152100
837.880	0.0153162
837.958	0.0152486
838.036	0.0150842
838.114	0.0151106
838.193	0.0152486
838.271	0.0152647
838.349	0.0152509
838.427	0.0152592
838.505	0.0152819
838.583	0.0151270
838.661	0.0151318
838.739	0.0151150
838.818	0.0152767
838.896	0.0152428
838.974	0.0153006
839.052	0.0152728
839.130	0.0150993
839.208	0.0151447
839.286	0.0151884
839.364	0.0152240
839.443	0.0152079
839.521	0.0151813
839.599	0.0151667
839.677	0.0150231
839.755	0.0152326
839.833	0.0152557
839.911	0.0152858
839.989	0.0152567
840.068	0.0152154
840.146	0.0152357
840.224	0.0150503
840.302	0.0151175
840.380	0.0152044
840.458	0.0152197
840.536	0.0149961
840.614	0.0151826
840.693	0.0151447
840.771	0.0150708
840.849	0.0152182
840.927	0.0150635
841.005	0.0151801
841.083	0.0151918
841.161	0.0151631
841.239	0.0151428
841.318	0.0151797
841.396	0.0152463
841.474	0.0152544
841.552	0.0152527
841.630	0.0150402
841.708	0.0151990
841.786	0.0151542
841.864	0.0150717
841.943	0.0151846
842.021	0.0152310
842.099	0.0151004
842.177	0.0152445
842.255	0.0150919
842.333	0.0151906
842.411	0.0151031
842.489	0.0151366
842.568	0.0151161
842.646	0.0151438
842.724	0.0152077
842.802	0.0152360
842.880	0.0151148
842.958	0.0152201
843.036	0.0151987
843.114	0.0151695
843.193	0.0151369
843.271	0.0152554
843.349	0.0151574
843.427	0.0151952
843.505	0.0152948
843.583	0.0151575
843.661	0.0151733
843.739	0.0150494
843.818	0.0152110
843.896	0.0150787
843.974	0.0151348
844.052	0.0153484
844.130	0.0151904
844.208	0.0151869
844.286	0.0151521
844.364	0.0150701
844.443	0.0152639
844.521	0.0151315
844.599	0.0150878
844.677	0.0151564
844.755	0.0152364
844.833	0.0151619
844.911	0.0152995
844.989	0.0151846
845.068	0.0151038
845.146	0.0151724
845.224	0.0152085
845.302	0.0152600
845.380	0.0153381
845.458	0.0151352
845.536	0.0150822
845.614	0.0150790
845.693	0.0150772
845.771	0.0152197
845.849	0.0151102
845.927	0.0150776
846.005	0.0149631
846.083	0.0150092
846.161	0.0151447
846.239	0.0151591
846.318	0.0151534
846.396	0.0151860
846.474	0.0151698
846.552	0.0153185
846.630	0.0152003
846.708	0.0151561
846.786	0.0150352
846.864	0.0151544
846.943	0.0150979
847.021	0.0151787
847.099	0.0150893
847.177	0.0151830
847.255	0.0152485
847.333	0.0150498
847.411	0.0150069
847.489	0.0151875
847.568	0.0152206
847.646	0.0152237
847.724	0.0152278
847.802	0.0152750
847.880	0.0151698
847.958	0.0151601
848.036	0.0152084
848.114	0.0152094
848.193	0.0150705
848.271	0.0152206
848.349	0.0152305
848.427	0.0152403
848.505	0.0151691
848.583	0.0151166
848.661	0.0152393
848.739	0.0152374
848.818	0.0153399
848.896	0.0152035
848.974	0.0152453
849.052	0.0152225
849.130	0.0152050
849.208	0.0152923
849.286	0.0152425
849.364	0.0152039
849.443	0.0153761
849.521	0.0151990
849.599	0.0151793
849.677	0.0153139
849.755	0.0152470
849.833	0.0151341
849.911	0.0152100
849.989	0.0152769
850.068	0.0151030
850.146	0.0151767
850.224	0.0152621
850.302	0.0153374
850.380	0.0152411
850.458	0.0153255
850.536	0.0151994
850.614	0.0151997
850.693	0.0151198
850.771	0.0152354
850.849	0.0151507
850.927	0.0151535
851.005	0.0150715
851.083	0.0151082
851.161	0.0150694
851.239	0.0152473
851.318	0.0152807
851.396	0.0150629
851.474	0.0150082
851.552	0.0149820
851.630	0.0150762
851.708	0.0150932
851.786	0.0151761
851.864	0.0152200
851.943	0.0151525
852.021	0.0150624
852.099	0.0150826
852.177	0.0150140
852.255	0.0150400
852.333	0.0150963
852.411	0.0151064
852.489	0.0151992
852.568	0.0150354
852.646	0.0150478
852.724	0.0150841
852.802	0.0150202
852.880	0.0151947
852.958	0.0149996
853.036	0.0150352
853.114	0.0151292
853.193	0.0151942
853.271	0.0153040
853.349	0.0152014
853.427	0.0151007
853.505	0.0150267
853.583	0.0151798
853.661	0.0151862
853.739	0.0151564
853.818	0.0151708
853.896	0.0150796
853.974	0.0150880
854.052	0.0151598
854.130	0.0152450
854.208	0.0151826
854.286	0.0153645
854.364	0.0152682
854.443	0.0153498
854.521	0.0151617
854.599	0.0151520
854.677	0.0152984
854.755	0.0151939
854.833	0.0153084
854.911	0.0152982
854.989	0.0152882
855.068	0.0153114
855.146	0.0153522
855.224	0.0153285
855.302	0.0153954
855.380	0.0153040
855.458	0.0153941
855.536	0.0152191
855.614	0.0151644
855.693	0.0152576
855.771	0.0152743
855.849	0.0152666
855.927	0.0152538
856.005	0.0151604
856.083	0.0152543
856.161	0.0151194
856.239	0.0151449
856.318	0.0150858
856.396	0.0150638
856.474	0.0152665
856.552	0.0151931
856.630	0.0151428
856.708	0.0150700
856.786	0.0151534
856.864	0.0151354
856.943	0.0150535
857.021	0.0151654
857.099	0.0150781
857.177	0.0150817
857.255	0.0150358
857.333	0.0150688
857.411	0.0149479
857.489	0.0151570
857.568	0.0150062
857.646	0.0150993
857.724	0.0151080
857.802	0.0151208
857.880	0.0151260
857.958	0.0150658
858.036	0.0151424
858.114	0.0151558
858.193	0.0150286
858.271	0.0150005
858.349	0.0152081
858.427	0.0152609
858.505	0.0152567
858.583	0.0151643
858.661	0.0150433
858.739	0.0152678
858.818	0.0152049
858.896	0.0151053
858.974	0.0151983
859.052	0.0152980
859.130	0.0152476
859.208	0.0153921
859.286	0.0152081
859.364	0.0152234
859.443	0.0151989
859.521	0.0152182
859.599	0.0151386
859.677	0.0152750
859.755	0.0152904
859.833	0.0151920
859.911	0.0152820
859.989	0.0153093
860.068	0.0153971
860.146	0.0153631
860.224	0.0152000
860.302	0.0152387
860.380	0.0152109
860.458	0.0152287
860.536	0.0152050
860.614	0.0152240
860.693	0.0152567
860.771	0.0152105
860.849	0.0151919
860.927	0.0151769
861.005	0.0151485
861.083	0.0152410
861.161	0.0151459
861.239	0.0152498
861.318	0.0151797
861.396	0.0151791
861.474	0.0153075
861.552	0.0151965
861.630	0.0152434
861.708	0.0152275
861.786	0.0151736
861.864	0.0151030
861.943	0.0151569
862.021	0.0150603
862.099	0.0150336
862.177	0.0151783
862.255	0.0150723
862.333	0.0152205
862.411	0.0151188
862.489	0.0151280
862.568	0.0152111
862.646	0.0151707
862.724	0.0151618
862.802	0.0151306
862.880	0.0151910
862.958	0.0152567
863.036	0.0151848
863.114	0.0151797
863.193	0.0152069
863.271	0.0151844
863.349	0.0151751
863.427	0.0152535
863.505	0.0151974
863.583	0.0151300
863.661	0.0152250
863.739	0.0151920
863.818	0.0151820
863.896	0.0152769
863.974	0.0152458
864.052	0.0151981
864.130	0.0152460
864.208	0.0151132
864.286	0.0151784
864.364	0.0153165
864.443	0.0152075
864.521	0.0151886
864.599	0.0151553
864.677	0.0153703
864.755	0.0152697
864.833	0.0152077
864.911	0.0151526
864.989	0.0152396
865.068	0.0151958
865.146	0.0152029
865.224	0.0152680
865.302	0.0152293
865.380	0.0152142
865.458	0.0152467
865.536	0.0151751
865.614	0.0151069
865.693	0.0151045
865.771	0.0151005
865.849	0.0151279
865.927	0.0152082
866.005	0.0151284
866.083	0.0151292
866.161	0.0151372
866.239	0.0151895
866.318	0.0151345
866.396	0.0152257
866.474	0.0151291
866.552	0.0151530
866.630	0.0151433
866.708	0.0151155
866.786	0.0152483
866.864	0.0152184
866.943	0.0151181
867.021	0.0152711
867.099	0.0152572
867.177	0.0152422
867.255	0.0151761
867.333	0.0152357
867.411	0.0152942
867.489	0.0153046
867.568	0.0153182
867.646	0.0152691
867.724	0.0152733
867.802	0.0152374
867.880	0.0152354
867.958	0.0151266
868.036	0.0151831
868.114	0.0151417
868.193	0.0151466
868.271	0.0152423
868.349	0.0151357
868.427	0.0150994
868.505	0.0151332
868.583	0.0150279
868.661	0.0151501
868.739	0.0151963
868.818	0.0150497
868.896	0.0151607
868.974	0.0151516
869.052	0.0151211
869.130	0.0151151
869.208	0.0150803
869.286	0.0151388
869.364	0.0150060
869.443	0.0151186
869.521	0.0150042
869.599	0.0151640
869.677	0.0152083
869.755	0.0151845
869.833	0.0150531
869.911	0.0150609
869.989	0.0151357
870.068	0.0150849
870.146	0.0151840
870.224	0.0151328
870.302	0.0152144
870.380	0.0151696
870.458	0.0151548
870.536	0.0151858
870.614	0.0152855
870.693	0.0152316
870.771	0.0152689
870.849	0.0151252
870.927	0.0150327
871.005	0.0151401
871.083	0.0149691
871.161	0.0151314
871.239	0.0150639
871.318	0.0150822
871.396	0.0151894
871.474	0.0150897
871.552	0.0150754
871.630	0.0149854
871.708	0.0150957
871.786	0.0150849
871.864	0.0150014
871.943	0.0151305
872.021	0.0150734
872.099	0.0149964
872.177	0.0151004
872.255	0.0150893
872.333	0.0150137
872.411	0.0149873
872.489	0.0152197
872.568	0.0150696
872.646	0.0151099
872.724	0.0151125
872.802	0.0150848
872.880	0.0151128
872.958	0.0151978
873.036	0.0151038
873.114	0.0151998
873.193	0.0152837
873.271	0.0150775
873.349	0.0151769
873.427	0.0152026
873.505	0.0152267
873.583	0.0152453
873.661	0.0152466
873.739	0.0153822
873.818	0.0152893
873.896	0.0153395
873.974	0.0152509
874.052	0.0152216
874.130	0.0152322
874.208	0.0153151
874.286	0.0154124
874.364	0.0153437
874.443	0.0153483
874.521	0.0153667
874.599	0.0152344
874.677	0.0151307
874.755	0.0152502
874.833	0.0152380
874.911	0.0152646
874.989	0.0152110
875.068	0.0151996
875.146	0.0153569
875.224	0.0153709
875.302	0.0153568
875.380	0.0151617
875.458	0.0152564
875.536	0.0151963
875.614	0.0152184
875.693	0.0153628
875.771	0.0152703
875.849	0.0151810
875.927	0.0151954
876.005	0.0150691
876.083	0.0152225
876.161	0.0152893
876.239	0.0153298
876.318	0.0152773
876.396	0.0152975
876.474	0.0151560
876.552	0.0151436
876.630	0.0152580
876.708	0.0152477
876.786	0.0153204
876.864	0.0151927
876.943	0.0152508
877.021	0.0152148
877.099	0.0151896
877.177	0.0151721
877.255	0.0152330
877.333	0.0150826
877.411	0.0151498
877.489	0.0151982
877.568	0.0152020
877.646	0.0151903
877.724	0.0151939
877.802	0.0152020
877.880	0.0152261
877.958	0.0153307
878.036	0.0152240
878.114	0.0150771
878.193	0.0153269
878.271	0.0153210
878.349	0.0152196
878.427	0.0152863
878.505	0.0154640
878.583	0.0154544
878.661	0.0151607
878.739	0.0155047
878.818	0.0154388
878.896	0.0153407
878.974	0.0151797
879.052	0.0153979
879.130	0.0153465
879.208	0.0152995
879.286	0.0154822
879.364	0.0154777
879.443	0.0153620
879.521	0.0153205
879.599	0.0153464
879.677	0.0154134
879.755	0.0154235
879.833	0.0154440
879.911	0.0152541
879.989	0.0154465
880.068	0.0152347
880.146	0.0153065
880.224	0.0152509
880.302	0.0153370
880.380	0.0153537
880.458	0.0153526
880.536	0.0153043
880.614	0.0151366
880.693	0.0152866
880.771	0.0152220
880.849	0.0152370
880.927	0.0151184
881.005	0.0151975
881.083	0.0151994
881.161	0.0152140
881.239	0.0151878
881.318	0.0151304
881.396	0.0152489
881.474	0.0151332
881.552	0.0151828
881.630	0.0151479
881.708	0.0151012
881.786	0.0151765
881.864	0.0151729
881.943	0.0151456
882.021	0.0151790
882.099	0.0151714
882.177	0.0150867
882.255	0.0152200
882.333	0.0152216
882.411	0.0150633
882.489	0.0152884
882.568	0.0152840
882.646	0.0151302
882.724	0.0152381
882.802	0.0151777
882.880	0.0151719
882.958	0.0151974
883.036	0.0153197
883.114	0.0152431
883.193	0.0152062
883.271	0.0150885
883.349	0.0152151
883.427	0.0151971
883.505	0.0151914
883.583	0.0152583
883.661	0.0152964
883.739	0.0151691
883.818	0.0151156
883.896	0.0152345
883.974	0.0152075
884.052	0.0152415
884.130	0.0153786
884.208	0.0151857
884.286	0.0151704
884.364	0.0151421
884.443	0.0152429
884.521	0.0152859
884.599	0.0151688
884.677	0.0150984
884.755	0.0150993
884.833	0.0152279
884.911	0.0152821
884.989	0.0151032
885.068	0.0149877
885.146	0.0152169
885.224	0.0152792
885.302	0.0151757
885.380	0.0151666
885.458	0.0151490
885.536	0.0151501
885.614	0.0152235
885.693	0.0153030
885.771	0.0151970
885.849	0.0151067
885.927	0.0152161
886.005	0.0151180
886.083	0.0151596
886.161	0.0152444
886.239	0.0152477
886.318	0.0152477
886.396	0.0154292
886.474	0.0152362
886.552	0.0151649
886.630	0.0153001
886.708	0.0151791
886.786	0.0152979
886.864	0.0151826
886.943	0.0151278
887.021	0.0151097
887.099	0.0152192
887.177	0.0151352
887.255	0.0151035
887.333	0.0150140
887.411	0.0151646
887.489	0.0152381
887.568	0.0150423
887.646	0.0150950
887.724	0.0150629
887.802	0.0150382
887.880	0.0149302
887.958	0.0150375
888.036	0.0150151
888.114	0.0150069
888.193	0.0150571
888.271	0.0150237
888.349	0.0151588
888.427	0.0150449
888.505	0.0150909
888.583	0.0150571
888.661	0.0150341
888.739	0.0150546
888.818	0.0148952
888.896	0.0150719
888.974	0.0152069
889.052	0.0151939
889.130	0.0151385
889.208	0.0152153
889.286	0.0150465
889.364	0.0151627
889.443	0.0151122
889.521	0.0151635
889.599	0.0151133
889.677	0.0151175
889.755	0.0151470
889.833	0.0152778
889.911	0.0151837
889.989	0.0152551
890.068	0.0151469
890.146	0.0150922
890.224	0.0151874
890.302	0.0152869
890.380	0.0151720
890.458	0.0150980
890.536	0.0151598
890.614	0.0152967
890.693	0.0153711
890.771	0.0153008
890.849	0.0152738
890.927	0.0152110
891.005	0.0152441
891.083	0.0152218
891.161	0.0151975
891.239	0.0151869
891.318	0.0151711
891.396	0.0151485
891.474	0.0152029
891.552	0.0151781
891.630	0.0151048
891.708	0.0152080
891.786	0.0152155
891.864	0.0152461
891.943	0.0151939
892.021	0.0149551
892.099	0.0153520
892.177	0.0154320
892.255	0.0152075
892.333	0.0150413
892.411	0.0151626
892.489	0.0151373
892.568	0.0151208
892.646	0.0151682
892.724	0.0152122
892.802	0.0150539
892.880	0.0150643
892.958	0.0151915
893.036	0.0150928
893.114	0.0151169
893.193	0.0150374
893.271	0.0151733
893.349	0.0152083
893.427	0.0150351
893.505	0.0149673
893.583	0.0151426
893.661	0.0150705
893.739	0.0150215
893.818	0.0150910
893.896	0.0151685
893.974	0.0152289
894.052	0.0152040
894.130	0.0150037
894.208	0.0152371
894.286	0.0151926
894.364	0.0151095
894.443	0.0151234
894.521	0.0150152
894.599	0.0152863
894.677	0.0152069
894.755	0.0151540
894.833	0.0151686
894.911	0.0150164
894.989	0.0151324
895.068	0.0151311
895.146	0.0151747
895.224	0.0151721
895.302	0.0152178
895.380	0.0151630
895.458	0.0151454
895.536	0.0151675
895.614	0.0151125
895.693	0.0150878
895.771	0.0150969
895.849	0.0151147
895.927	0.0151914
896.005	0.0150933
896.083	0.0151099
896.161	0.0151505
896.239	0.0151901
896.318	0.0151373
896.396	0.0151991
896.474	0.0152525
896.552	0.0152506
896.630	0.0152615
896.708	0.0151546
896.786	0.0153051
896.864	0.0152325
896.943	0.0151530
897.021	0.0151953
897.099	0.0152547
897.177	0.0152673
897.255	0.0151814
897.333	0.0151414
897.411	0.0151778
897.489	0.0152316
897.568	0.0153506
897.646	0.0151855
897.724	0.0151805
897.802	0.0152149
897.880	0.0151358
897.958	0.0151765
898.036	0.0151269
898.114	0.0152381
898.193	0.0151289
898.271	0.0153119
898.349	0.0151978
898.427	0.0151506
898.505	0.0152070
898.583	0.0150853
898.661	0.0151138
898.739	0.0151569
898.818	0.0151783
898.896	0.0152070
898.974	0.0150885
899.052	0.0151342
899.130	0.0151076
899.208	0.0152203
899.286	0.0152386
899.364	0.0151806
899.443	0.0153202
899.521	0.0152219
899.599	0.0153508
899.677	0.0151752
899.755	0.0150691
899.833	0.0152901
899.911	0.0153804
899.989	0.0152494
900.068	0.0153147
900.146	0.0152339
900.224	0.0152478
900.302	0.0153286
900.380	0.0151678
900.458	0.0151607
900.536	0.0150864
900.614	0.0153042
900.693	0.0151158
900.771	0.0150652
900.849	0.0150651
900.927	0.0151513
901.005	0.0151517
901.083	0.0152019
901.161	0.0150450
901.239	0.0150957
901.318	0.0152649
901.396	0.0152618
901.474	0.0151552
901.552	0.0151761
901.630	0.0152479
901.708	0.0152233
901.786	0.0151257
901.864	0.0152206
901.943	0.0151814
902.021	0.0153401
902.099	0.0152472
902.177	0.0151243
902.255	0.0150577
902.333	0.0151202
902.411	0.0152036
902.489	0.0151385
902.568	0.0150466
902.646	0.0152897
902.724	0.0151788
902.802	0.0151063
902.880	0.0153038
902.958	0.0152590
903.036	0.0150471
903.114	0.0150753
903.193	0.0149779
903.271	0.0151634
903.349	0.0151165
903.427	0.0152386
903.505	0.0152393
903.583	0.0151020
903.661	0.0150793
903.739	0.0150969
903.818	0.0152304
903.896	0.0150491
903.974	0.0152142
904.052	0.0152335
904.130	0.0150983
904.208	0.0151788
904.286	0.0151442
904.364	0.0151241
904.443	0.0152804
904.521	0.0153029
904.599	0.0152110
904.677	0.0151354
904.755	0.0151562
904.833	0.0152473
904.911	0.0151744
904.989	0.0151198
905.068	0.0151527
905.146	0.0151758
905.224	0.0152686
905.302	0.0152385
905.380	0.0152279
905.458	0.0152238
905.536	0.0151690
905.614	0.0151794
905.693	0.0151938
905.771	0.0151329
905.849	0.0151913
905.927	0.0152275
906.005	0.0152310
906.083	0.0150430
906.161	0.0151585
906.239	0.0152570
906.318	0.0150922
906.396	0.0150884
906.474	0.0152872
906.552	0.0152549
906.630	0.0151769
906.708	0.0151254
906.786	0.0151015
906.864	0.0153148
906.943	0.0151491
907.021	0.0151302
907.099	0.0150810
907.177	0.0150347
907.255	0.0152238
907.333	0.0151410
907.411	0.0152404
907.489	0.0153225
907.568	0.0151453
907.646	0.0151933
907.724	0.0152854
907.802	0.0150923
907.880	0.0152689
907.958	0.0152260
908.036	0.0150485
908.114	0.0152226
908.193	0.0151236
908.271	0.0151299
908.349	0.0151348
908.427	0.0151669
908.505	0.0150096
908.583	0.0151249
908.661	0.0151694
908.739	0.0150838
908.818	0.0150540
908.896	0.0151065
908.974	0.0150923
909.052	0.0149868
909.130	0.0151406
909.208	0.0150743
909.286	0.0151489
909.364	0.0150534
909.443	0.0151583
909.521	0.0153437
909.599	0.0150935
909.677	0.0151288
909.755	0.0151339
909.833	0.0151326
909.911	0.0151433
909.989	0.0152510
910.068	0.0151997
910.146	0.0150298
910.224	0.0152195
910.302	0.0152485
910.380	0.0150553
910.458	0.0151562
910.536	0.0152084
910.614	0.0151769
910.693	0.0151298
910.771	0.0151443
910.849	0.0151061
910.927	0.0151105
911.005	0.0150922
911.083	0.0150183
911.161	0.0150404
911.239	0.0151328
911.318	0.0150104
911.396	0.0150172
911.474	0.0152372
911.552	0.0152604
911.630	0.0151131
911.708	0.0150558
911.786	0.0151454
911.864	0.0150646
911.943	0.0151464
912.021	0.0151954
912.099	0.0150792
912.177	0.0151811
912.255	0.0150877
912.333	0.0152451
912.411	0.0151592
912.489	0.0151196
912.568	0.0151790
912.646	0.0151193
912.724	0.0152515
912.802	0.0152493
912.880	0.0151167
912.958	0.0150647
913.036	0.0151653
913.114	0.0151069
913.193	0.0151609
913.271	0.0151975
913.349	0.0150432
913.427	0.0151758
913.505	0.0150665
913.583	0.0150343
913.661	0.0150945
913.739	0.0150446
913.818	0.0151263
913.896	0.0151002
913.974	0.0152083
914.052	0.0151636
914.130	0.0150887
914.208	0.0150488
914.286	0.0149765
914.364	0.0152557
914.443	0.0150906
914.521	0.0151594
914.599	0.0151301
914.677	0.0150613
914.755	0.0151448
914.833	0.0152378
914.911	0.0150910
914.989	0.0152129
915.068	0.0152592
915.146	0.0152216
915.224	0.0151084
915.302	0.0150474
915.380	0.0150872
915.458	0.0152202
915.536	0.0152155
915.614	0.0152094
915.693	0.0151601
915.771	0.0152139
915.849	0.0151385
915.927	0.0150773
916.005	0.0152200
916.083	0.0152736
916.161	0.0151365
916.239	0.0151468
916.318	0.0152439
916.396	0.0150683
916.474	0.0150711
916.552	0.0151541
916.630	0.0150132
916.708	0.0151623
916.786	0.0151686
916.864	0.0150802
916.943	0.0151757
917.021	0.0151556
917.099	0.0152200
917.177	0.0150552
917.255	0.0151855
917.333	0.0151783
917.411	0.0151397
917.489	0.0152492
917.568	0.0152102
917.646	0.0152248
917.724	0.0151241
917.802	0.0151333
917.880	0.0152134
917.958	0.0152550
918.036	0.0150578
918.114	0.0152459
918.193	0.0152271
918.271	0.0151579
918.349	0.0151045
918.427	0.0150393
918.505	0.0151311
918.583	0.0151128
918.661	0.0151374
918.739	0.0151730
918.818	0.0150776
918.896	0.0152287
918.974	0.0153120
919.052	0.0152490
919.130	0.0151526
919.208	0.0150428
919.286	0.0151955
919.364	0.0152015
919.443	0.0152302
919.521	0.0151938
919.599	0.0151398
919.677	0.0151379
919.755	0.0151855
919.833	0.0150095
919.911	0.0152037
919.989	0.0151753
920.068	0.0149870
920.146	0.0150943
920.224	0.0151137
920.302	0.0151313
920.380	0.0150901
920.458	0.0151266
920.536	0.0151391
920.614	0.0150918
920.693	0.0149680
920.771	0.0151277
920.849	0.0152021
920.927	0.0151758
921.005	0.0150819
921.083	0.0151626
921.161	0.0150938
921.239	0.0150537
921.318	0.0151684
921.396	0.0152045
921.474	0.0151978
921.552	0.0152178
921.630	0.0151155
921.708	0.0151470
921.786	0.0149883
921.864	0.0151987
921.943	0.0151553
922.021	0.0151649
922.099	0.0150320
922.177	0.0151495
922.255	0.0152037
922.333	0.0152435
922.411	0.0152405
922.489	0.0152341
922.568	0.0150677
922.646	0.0151528
922.724	0.0152139
922.802	0.0151120
922.880	0.0151667
922.958	0.0152455
923.036	0.0151798
923.114	0.0152109
923.193	0.0152668
923.271	0.0152853
923.349	0.0152014
923.427	0.0152470
923.505	0.0150882
923.583	0.0151521
923.661	0.0151702
923.739	0.0151938
923.818	0.0150638
923.896	0.0152982
923.974	0.0152563
924.052	0.0151682
924.130	0.0152402
924.208	0.0151415
924.286	0.0151530
924.364	0.0152860
924.443	0.0151225
924.521	0.0151118
924.599	0.0153011
924.677	0.0152726
924.755	0.0152074
924.833	0.0152303
924.911	0.0150924
924.989	0.0152238
925.068	0.0152984
925.146	0.0151763
925.224	0.0151112
925.302	0.0153294
925.380	0.0151976
925.458	0.0152473
925.536	0.0151794
925.614	0.0151969
925.693	0.0152656
925.771	0.0153297
925.849	0.0151660
925.927	0.0151721
926.005	0.0152933
926.083	0.0152231
926.161	0.0152119
926.239	0.0152060
926.318	0.0150624
926.396	0.0151674
926.474	0.0151502
926.552	0.0151859
926.630	0.0151637
926.708	0.0152521
926.786	0.0151755
926.864	0.0151218
926.943	0.0151767
927.021	0.0153366
927.099	0.0150854
927.177	0.0150498
927.255	0.0152983
927.333	0.0151244
927.411	0.0149664
927.489	0.0151797
927.568	0.0152197
927.646	0.0151180
927.724	0.0151675
927.802	0.0150471
927.880	0.0151633
927.958	0.0151520
928.036	0.0152421
928.114	0.0152612
928.193	0.0152544
928.271	0.0151640
928.349	0.0150549
928.427	0.0151952
928.505	0.0152271
928.583	0.0151088
928.661	0.0152011
928.739	0.0151094
928.818	0.0152306
928.896	0.0152644
928.974	0.0152479
929.052	0.0150953
929.130	0.0152300
929.208	0.0153150
929.286	0.0150648
929.364	0.0152602
929.443	0.0153516
929.521	0.0152388
929.599	0.0151649
929.677	0.0151974
929.755	0.0152158
929.833	0.0151121
929.911	0.0151534
929.989	0.0152431
930.068	0.0152484
930.146	0.0150975
930.224	0.0150421
930.302	0.0152206
930.380	0.0152254
930.458	0.0151749
930.536	0.0151089
930.614	0.0152750
930.693	0.0152519
930.771	0.0150608
930.849	0.0151830
930.927	0.0151509
931.005	0.0151122
931.083	0.0151543
931.161	0.0150928
931.239	0.0151077
931.318	0.0151729
931.396	0.0150987
931.474	0.0151408
931.552	0.0151597
931.630	0.0152365
931.708	0.0152263
931.786	0.0152984
931.864	0.0151891
931.943	0.0150555
932.021	0.0151412
932.099	0.0151807
932.177	0.0152763
932.255	0.0151896
932.333	0.0151019
932.411	0.0151108
932.489	0.0151461
932.568	0.0151881
932.646	0.0151701
932.724	0.0151640
932.802	0.0150182
932.880	0.0151055
932.958	0.0150508
933.036	0.0151012
933.114	0.0150943
933.193	0.0152260
933.271	0.0151507
933.349	0.0151443
933.427	0.0151765
933.505	0.0151154
933.583	0.0150562
933.661	0.0151872
933.739	0.0151637
933.818	0.0151028
933.896	0.0150906
933.974	0.0150407
934.052	0.0152247
934.130	0.0152146
934.208	0.0150294
934.286	0.0150101
934.364	0.0153771
934.443	0.0151763
934.521	0.0150701
934.599	0.0150628
934.677	0.0150566
934.755	0.0151345
934.833	0.0149685
934.911	0.0151163
934.989	0.0151884
935.068	0.0152109
935.146	0.0151465
935.224	0.0151335
935.302	0.0151196
935.380	0.0151476
935.458	0.0152370
935.536	0.0151626
935.614	0.0151629
935.693	0.0151986
935.771	0.0151130
935.849	0.0151973
935.927	0.0151589
936.005	0.0151508
936.083	0.0151994
936.161	0.0152049
936.239	0.0150766
936.318	0.0152940
936.396	0.0151600
936.474	0.0151802
936.552	0.0151254
936.630	0.0150359
936.708	0.0152721
936.786	0.0152162
936.864	0.0151314
936.943	0.0150727
937.021	0.0151279
937.099	0.0151752
937.177	0.0151954
937.255	0.0151866
937.333	0.0150800
937.411	0.0151762
937.489	0.0152438
937.568	0.0151591
937.646	0.0151785
937.724	0.0152392
937.802	0.0151481
937.880	0.0152129
937.958	0.0151077
938.036	0.0151464
938.114	0.0151521
938.193	0.0149968
938.271	0.0150006
938.349	0.0151546
938.427	0.0151808
938.505	0.0151203
938.583	0.0152113
938.661	0.0151416
938.739	0.0152122
938.818	0.0152493
938.896	0.0152388
938.974	0.0152135
939.052	0.0151714
939.130	0.0151116
939.208	0.0151327
939.286	0.0152712
939.364	0.0151970
939.443	0.0152589
939.521	0.0151499
939.599	0.0151372
939.677	0.0151353
939.755	0.0152162
939.833	0.0152448
939.911	0.0150279
939.989	0.0152722
940.068	0.0153045
940.146	0.0152335
940.224	0.0151666
940.302	0.0151964
940.380	0.0152511
940.458	0.0153279
940.536	0.0152081
940.614	0.0152383
940.693	0.0152502
940.771	0.0151324
940.849	0.0152975
940.927	0.0152622
941.005	0.0152614
941.083	0.0152054
941.161	0.0151353
941.239	0.0152377
941.318	0.0151808
941.396	0.0152228
941.474	0.0151521
941.552	0.0152419
941.630	0.0150930
941.708	0.0151354
941.786	0.0152115
941.864	0.0153018
941.943	0.0152675
942.021	0.0151480
942.099	0.0150467
942.177	0.0150871
942.255	0.0152361
942.333	0.0150764
942.411	0.0152753
942.489	0.0151008
942.568	0.0151767
942.646	0.0153578
942.724	0.0151013
942.802	0.0150908
942.880	0.0152579
942.958	0.0152301
943.036	0.0152628
943.114	0.0151786
943.193	0.0152367
943.271	0.0153027
943.349	0.0152747
943.427	0.0152543
943.505	0.0152113
943.583	0.0152816
943.661	0.0151662
943.739	0.0152038
943.818	0.0152815
943.896	0.0151597
943.974	0.0152138
944.052	0.0152350
944.130	0.0152032
944.208	0.0153309
944.286	0.0152021
944.364	0.0151928
944.443	0.0151528
944.521	0.0152614
944.599	0.0153439
944.677	0.0152758
944.755	0.0151743
944.833	0.0151461
944.911	0.0151851
944.989	0.0152042
945.068	0.0151714
945.146	0.0151392
945.224	0.0152721
945.302	0.0152281
945.380	0.0153176
945.458	0.0151495
945.536	0.0151949
945.614	0.0152522
945.693	0.0153136
945.771	0.0152338
945.849	0.0152390
945.927	0.0153781
946.005	0.0151801
946.083	0.0152810
946.161	0.0151441
946.239	0.0151210
946.318	0.0151324
946.396	0.0151108
946.474	0.0151397
946.552	0.0151300
946.630	0.0151551
946.708	0.0151460
946.786	0.0151357
946.864	0.0151833
946.943	0.0150786
947.021	0.0151099
947.099	0.0151339
947.177	0.0152503
947.255	0.0152084
947.333	0.0152126
947.411	0.0151772
947.489	0.0150484
947.568	0.0152461
947.646	0.0151539
947.724	0.0152409
947.802	0.0150298
947.880	0.0150395
947.958	0.0150568
948.036	0.0152153
948.114	0.0150610
948.193	0.0151802
948.271	0.0150906
948.349	0.0150920
948.427	0.0151521
948.505	0.0151624
948.583	0.0150544
948.661	0.0151363
948.739	0.0153320
948.818	0.0152511
948.896	0.0151014
948.974	0.0150273
949.052	0.0151541
949.130	0.0150834
949.208	0.0151237
949.286	0.0150710
949.364	0.0151530
949.443	0.0151293
949.521	0.0152045
949.599	0.0152879
949.677	0.0150383
949.755	0.0151923
949.833	0.0153104
949.911	0.0151772
949.989	0.0150574
950.068	0.0151553
950.146	0.0152806
950.224	0.0152831
950.302	0.0152658
950.380	0.0152420
950.458	0.0151711
950.536	0.0151800
950.614	0.0151520
950.693	0.0152218
950.771	0.0154198
950.849	0.0152488
950.927	0.0151131
951.005	0.0152451
951.083	0.0151832
951.161	0.0152058
951.239	0.0152171
951.318	0.0152187
951.396	0.0152830
951.474	0.0152100
951.552	0.0151704
951.630	0.0152074
951.708	0.0151804
951.786	0.0152728
951.864	0.0151142
951.943	0.0150802
952.021	0.0151621
952.099	0.0151021
952.177	0.0151646
952.255	0.0152069
952.333	0.0151942
952.411	0.0153018
952.489	0.0152476
952.568	0.0152646
952.646	0.0151016
952.724	0.0152335
952.802	0.0151945
952.880	0.0151302
952.958	0.0151980
953.036	0.0153480
953.114	0.0152199
953.193	0.0151060
953.271	0.0151906
953.349	0.0151740
953.427	0.0150009
953.505	0.0151716
953.583	0.0151907
953.661	0.0151787
953.739	0.0151141
953.818	0.0151296
953.896	0.0151079
953.974	0.0151910
954.052	0.0151157
954.130	0.0151972
954.208	0.0150955
954.286	0.0151180
954.364	0.0151833
954.443	0.0152899
954.521	0.0152276
954.599	0.0151266
954.677	0.0151324
954.755	0.0151846
954.833	0.0153264
954.911	0.0152746
954.989	0.0151788
955.068	0.0152715
955.146	0.0150012
955.224	0.0152143
955.302	0.0152172
955.380	0.0151060
955.458	0.0152288
955.536	0.0151805
955.614	0.0152013
955.693	0.0151133
955.771	0.0150841
955.849	0.0152090
955.927	0.0152498
956.005	0.0151257
956.083	0.0153409
956.161	0.0151463
956.239	0.0150948
956.318	0.0152177
956.396	0.0152478
956.474	0.0152277
956.552	0.0152663
956.630	0.0153252
956.708	0.0151923
956.786	0.0152112
956.864	0.0151865
956.943	0.0151617
957.021	0.0151954
957.099	0.0152579
957.177	0.0151581
957.255	0.0151534
957.333	0.0152424
957.411	0.0151571
957.489	0.0152953
957.568	0.0151981
957.646	0.0150891
957.724	0.0151576
957.802	0.0152942
957.880	0.0151591
957.958	0.0152569
958.036	0.0152679
958.114	0.0152153
958.193	0.0151466
958.271	0.0151053
958.349	0.0151682
958.427	0.0151888
958.505	0.0150648
958.583	0.0151664
958.661	0.0151215
958.739	0.0150925
958.818	0.0151211
958.896	0.0149711
958.974	0.0151814
959.052	0.0151701
959.130	0.0152189
959.208	0.0150911
959.286	0.0152786
959.364	0.0150864
959.443	0.0150808
959.521	0.0151550
959.599	0.0151534
959.677	0.0150633
959.755	0.0150658
959.833	0.0152244
959.911	0.0153279
