05/20/2022	16:49:58	Ver.	4.1	UNKNOWN
Optical Delay	639.982744	Delta X		0.078125	Sweeps	1	Scan Rate	0/0
Coordinates	Axis 1	NaN	Axis 2	NaN	Axis 3	NaN	Axis 4	NaN	Axis 5	NaN	Axis 6	0.000000
TX Power	0.000000	RX Power	0.000000

639.983	0.0150939
640.061	0.0151495
640.139	0.0151734
640.217	0.0151611
640.295	0.0151637
640.373	0.0151265
640.451	0.0151849
640.530	0.0151164
640.608	0.0151147
640.686	0.0151141
640.764	0.0151423
640.842	0.0151595
640.920	0.0150735
640.998	0.0151511
641.076	0.0150711
641.155	0.0150826
641.233	0.0150827
641.311	0.0150503
641.389	0.0151365
641.467	0.0148587
641.545	0.0151016
641.623	0.0152217
641.701	0.0150809
641.780	0.0149976
641.858	0.0152345
641.936	0.0151794
642.014	0.0151934
642.092	0.0150639
642.170	0.0152600
642.248	0.0150185
642.326	0.0151581
642.405	0.0151413
642.483	0.0150480
642.561	0.0150800
642.639	0.0151685
642.717	0.0150752
642.795	0.0150999
642.873	0.0153014
642.951	0.0152914
643.030	0.0151210
643.108	0.0151868
643.186	0.0150330
643.264	0.0151513
643.342	0.0151407
643.420	0.0151581
643.498	0.0150872
643.576	0.0149219
643.655	0.0152042
643.733	0.0152016
643.811	0.0151604
643.889	0.0153181
643.967	0.0150897
644.045	0.0152744
644.123	0.0151652
644.201	0.0149737
644.280	0.0152274
644.358	0.0153365
644.436	0.0153069
644.514	0.0152755
644.592	0.0151749
644.670	0.0152377
644.748	0.0153692
644.826	0.0153317
644.905	0.0152431
644.983	0.0151917
645.061	0.0151821
645.139	0.0152147
645.217	0.0152147
645.295	0.0152119
645.373	0.0152301
645.451	0.0153299
645.530	0.0153117
645.608	0.0152512
645.686	0.0153288
645.764	0.0151604
645.842	0.0152625
645.920	0.0153497
645.998	0.0150919
646.076	0.0152868
646.155	0.0151522
646.233	0.0152011
646.311	0.0151039
646.389	0.0150885
646.467	0.0150288
646.545	0.0150978
646.623	0.0151067
646.701	0.0152171
646.780	0.0151628
646.858	0.0149795
646.936	0.0150093
647.014	0.0150045
647.092	0.0151247
647.170	0.0151131
647.248	0.0152037
647.326	0.0150911
647.405	0.0152583
647.483	0.0151086
647.561	0.0152558
647.639	0.0150861
647.717	0.0151086
647.795	0.0152235
647.873	0.0150536
647.951	0.0152392
648.030	0.0152420
648.108	0.0150457
648.186	0.0150647
648.264	0.0151318
648.342	0.0151996
648.420	0.0150666
648.498	0.0150477
648.576	0.0150573
648.655	0.0151156
648.733	0.0150093
648.811	0.0151447
648.889	0.0151529
648.967	0.0149989
649.045	0.0150782
649.123	0.0152725
649.201	0.0150900
649.280	0.0151733
649.358	0.0151825
649.436	0.0150962
649.514	0.0152262
649.592	0.0151324
649.670	0.0151767
649.748	0.0151314
649.826	0.0151574
649.905	0.0152522
649.983	0.0153261
650.061	0.0152366
650.139	0.0151898
650.217	0.0152586
650.295	0.0152827
650.373	0.0152890
650.451	0.0152878
650.530	0.0151266
650.608	0.0152167
650.686	0.0151781
650.764	0.0152735
650.842	0.0152732
650.920	0.0152773
650.998	0.0152517
651.076	0.0152823
651.155	0.0150468
651.233	0.0153223
651.311	0.0151981
651.389	0.0152327
651.467	0.0153622
651.545	0.0152065
651.623	0.0153083
651.701	0.0151753
651.780	0.0153378
651.858	0.0152270
651.936	0.0154472
652.014	0.0153754
652.092	0.0153209
652.170	0.0152087
652.248	0.0153839
652.326	0.0153788
652.405	0.0152434
652.483	0.0152602
652.561	0.0153071
652.639	0.0151464
652.717	0.0152406
652.795	0.0152711
652.873	0.0153561
652.951	0.0154485
653.030	0.0152542
653.108	0.0152431
653.186	0.0154722
653.264	0.0154296
653.342	0.0152441
653.420	0.0152634
653.498	0.0153999
653.576	0.0153071
653.655	0.0151470
653.733	0.0153462
653.811	0.0153953
653.889	0.0152539
653.967	0.0153683
654.045	0.0152122
654.123	0.0152672
654.201	0.0154086
654.280	0.0154391
654.358	0.0152821
654.436	0.0154206
654.514	0.0153950
654.592	0.0154223
654.670	0.0153668
654.748	0.0154045
654.826	0.0153548
654.905	0.0154268
654.983	0.0155148
655.061	0.0155073
655.139	0.0154784
655.217	0.0155161
655.295	0.0153723
655.373	0.0153742
655.451	0.0154911
655.530	0.0155529
655.608	0.0155308
655.686	0.0155817
655.764	0.0153462
655.842	0.0155431
655.920	0.0154447
655.998	0.0155418
656.076	0.0155814
656.155	0.0154319
656.233	0.0153902
656.311	0.0154318
656.389	0.0153362
656.467	0.0154676
656.545	0.0153758
656.623	0.0151248
656.701	0.0152496
656.780	0.0153632
656.858	0.0153438
656.936	0.0152169
657.014	0.0152466
657.092	0.0152479
657.170	0.0151421
657.248	0.0151598
657.326	0.0150674
657.405	0.0151115
657.483	0.0151176
657.561	0.0150514
657.639	0.0150826
657.717	0.0150451
657.795	0.0152625
657.873	0.0150570
657.951	0.0150852
658.030	0.0150851
658.108	0.0151263
658.186	0.0151246
658.264	0.0153284
658.342	0.0152392
658.420	0.0151745
658.498	0.0151863
658.576	0.0150774
658.655	0.0152711
658.733	0.0153691
658.811	0.0153440
658.889	0.0151686
658.967	0.0152139
659.045	0.0153423
659.123	0.0152132
659.201	0.0152344
659.280	0.0151644
659.358	0.0153326
659.436	0.0153523
659.514	0.0154162
659.592	0.0153444
659.670	0.0152902
659.748	0.0154332
659.826	0.0154089
659.905	0.0153831
659.983	0.0154433
660.061	0.0154913
660.139	0.0154918
660.217	0.0153933
660.295	0.0152999
660.373	0.0153304
660.451	0.0153568
660.530	0.0153825
660.608	0.0153644
660.686	0.0152180
660.764	0.0151971
660.842	0.0151848
660.920	0.0152174
660.998	0.0151437
661.076	0.0152127
661.155	0.0151742
661.233	0.0151796
661.311	0.0152728
661.389	0.0152750
661.467	0.0154044
661.545	0.0153773
661.623	0.0153259
661.701	0.0152868
661.780	0.0153934
661.858	0.0154027
661.936	0.0152643
662.014	0.0153522
662.092	0.0152699
662.170	0.0153214
662.248	0.0152920
662.326	0.0152221
662.405	0.0152239
662.483	0.0153336
662.561	0.0152934
662.639	0.0151091
662.717	0.0153152
662.795	0.0153200
662.873	0.0153426
662.951	0.0151894
663.030	0.0153371
663.108	0.0153838
663.186	0.0153540
663.264	0.0153165
663.342	0.0152843
663.420	0.0153390
663.498	0.0152463
663.576	0.0153111
663.655	0.0154211
663.733	0.0151604
663.811	0.0152279
663.889	0.0153085
663.967	0.0153708
664.045	0.0152674
664.123	0.0153770
664.201	0.0153506
664.280	0.0153175
664.358	0.0153230
664.436	0.0153811
664.514	0.0152936
664.592	0.0152708
664.670	0.0153281
664.748	0.0152313
664.826	0.0151996
664.905	0.0151203
664.983	0.0150766
665.061	0.0150109
665.139	0.0151205
665.217	0.0150015
665.295	0.0151165
665.373	0.0150778
665.451	0.0149601
665.530	0.0149846
665.608	0.0150197
665.686	0.0147139
665.764	0.0148718
665.842	0.0149362
665.920	0.0149528
665.998	0.0149966
666.076	0.0150037
666.155	0.0150948
666.233	0.0149639
666.311	0.0150702
666.389	0.0151082
666.467	0.0151520
666.545	0.0152215
666.623	0.0152724
666.701	0.0153377
666.780	0.0154676
666.858	0.0155388
666.936	0.0155813
667.014	0.0157583
667.092	0.0157124
667.170	0.0157365
667.248	0.0158468
667.326	0.0159492
667.405	0.0160011
667.483	0.0158666
667.561	0.0158410
667.639	0.0160220
667.717	0.0161825
667.795	0.0160406
667.873	0.0159051
667.951	0.0159711
668.030	0.0158904
668.108	0.0159344
668.186	0.0158518
668.264	0.0158798
668.342	0.0158508
668.420	0.0157137
668.498	0.0155430
668.576	0.0154979
668.655	0.0153970
668.733	0.0152404
668.811	0.0152911
668.889	0.0151073
668.967	0.0147755
669.045	0.0146531
669.123	0.0147181
669.201	0.0144794
669.280	0.0143893
669.358	0.0142484
669.436	0.0141254
669.514	0.0140382
669.592	0.0141750
669.670	0.0138842
669.748	0.0140628
669.826	0.0141188
669.905	0.0141666
669.983	0.0141817
670.061	0.0142545
670.139	0.0145277
670.217	0.0146136
670.295	0.0146822
670.373	0.0146877
670.451	0.0148521
670.530	0.0149944
670.608	0.0152091
670.686	0.0152648
670.764	0.0153825
670.842	0.0154484
670.920	0.0156075
670.998	0.0156983
671.076	0.0158534
671.155	0.0160824
671.233	0.0162757
671.311	0.0162204
671.389	0.0163194
671.467	0.0164503
671.545	0.0164774
671.623	0.0163967
671.701	0.0164787
671.780	0.0164115
671.858	0.0163511
671.936	0.0162872
672.014	0.0162077
672.092	0.0161311
672.170	0.0160841
672.248	0.0157941
672.326	0.0156268
672.405	0.0157137
672.483	0.0155079
672.561	0.0153165
672.639	0.0148502
672.717	0.0148830
672.795	0.0148814
672.873	0.0146257
672.951	0.0143822
673.030	0.0143482
673.108	0.0141875
673.186	0.0142587
673.264	0.0140398
673.342	0.0138566
673.420	0.0140190
673.498	0.0139933
673.576	0.0139416
673.655	0.0140623
673.733	0.0139943
673.811	0.0138496
673.889	0.0139876
673.967	0.0141550
674.045	0.0142342
674.123	0.0143238
674.201	0.0144328
674.280	0.0145410
674.358	0.0146637
674.436	0.0148434
674.514	0.0149740
674.592	0.0152527
674.670	0.0152441
674.748	0.0154798
674.826	0.0158492
674.905	0.0159158
674.983	0.0160644
675.061	0.0160435
675.139	0.0162010
675.217	0.0162616
675.295	0.0165242
675.373	0.0165099
675.451	0.0165821
675.530	0.0165104
675.608	0.0165529
675.686	0.0165505
675.764	0.0163704
675.842	0.0165283
675.920	0.0162537
675.998	0.0159856
676.076	0.0160604
676.155	0.0158923
676.233	0.0158035
676.311	0.0157782
676.389	0.0156096
676.467	0.0154925
676.545	0.0153069
676.623	0.0152477
676.701	0.0150060
676.780	0.0148618
676.858	0.0145239
676.936	0.0146052
677.014	0.0144645
677.092	0.0144630
677.170	0.0143688
677.248	0.0143425
677.326	0.0143262
677.405	0.0142756
677.483	0.0144651
677.561	0.0144024
677.639	0.0144141
677.717	0.0145898
677.795	0.0144589
677.873	0.0145634
677.951	0.0146245
678.030	0.0148232
678.108	0.0149003
678.186	0.0148705
678.264	0.0149656
678.342	0.0149025
678.420	0.0152213
678.498	0.0152844
678.576	0.0152126
678.655	0.0153420
678.733	0.0153565
678.811	0.0152798
678.889	0.0154827
678.967	0.0152850
679.045	0.0152518
679.123	0.0153760
679.201	0.0153975
679.280	0.0153745
679.358	0.0153987
679.436	0.0153689
679.514	0.0153661
679.592	0.0152966
679.670	0.0152934
679.748	0.0153370
679.826	0.0153343
679.905	0.0153706
679.983	0.0152564
680.061	0.0152721
680.139	0.0152895
680.217	0.0153455
680.295	0.0153299
680.373	0.0154566
680.451	0.0152355
680.530	0.0153797
680.608	0.0153423
680.686	0.0152592
680.764	0.0152200
680.842	0.0153815
680.920	0.0153622
680.998	0.0153964
681.076	0.0152269
681.155	0.0151997
681.233	0.0151569
681.311	0.0151891
681.389	0.0151174
681.467	0.0152501
681.545	0.0151344
681.623	0.0152359
681.701	0.0151100
681.780	0.0151891
681.858	0.0152854
681.936	0.0150537
682.014	0.0151125
682.092	0.0152755
682.170	0.0151912
682.248	0.0152467
682.326	0.0151575
682.405	0.0152587
682.483	0.0151686
682.561	0.0149562
682.639	0.0151564
682.717	0.0152039
682.795	0.0150613
682.873	0.0150587
682.951	0.0149607
683.030	0.0151426
683.108	0.0149692
683.186	0.0150406
683.264	0.0151500
683.342	0.0150745
683.420	0.0151150
683.498	0.0151743
683.576	0.0150842
683.655	0.0151813
683.733	0.0151344
683.811	0.0151566
683.889	0.0149940
683.967	0.0149178
684.045	0.0149722
684.123	0.0150643
684.201	0.0149364
684.280	0.0149923
684.358	0.0149034
684.436	0.0150449
684.514	0.0151758
684.592	0.0149984
684.670	0.0149701
684.748	0.0151034
684.826	0.0151556
684.905	0.0152350
684.983	0.0151328
685.061	0.0152369
685.139	0.0152988
685.217	0.0153559
685.295	0.0153851
685.373	0.0154532
685.451	0.0154060
685.530	0.0155064
685.608	0.0155304
685.686	0.0155747
685.764	0.0157449
685.842	0.0159340
685.920	0.0158481
685.998	0.0161566
686.076	0.0162833
686.155	0.0160693
686.233	0.0162649
686.311	0.0163053
686.389	0.0163226
686.467	0.0163773
686.545	0.0161565
686.623	0.0160718
686.701	0.0163522
686.780	0.0160417
686.858	0.0160662
686.936	0.0158590
687.014	0.0158199
687.092	0.0157665
687.170	0.0156109
687.248	0.0155327
687.326	0.0153169
687.405	0.0152788
687.483	0.0152763
687.561	0.0149445
687.639	0.0148322
687.717	0.0147124
687.795	0.0146719
687.873	0.0144485
687.951	0.0144782
688.030	0.0144321
688.108	0.0144187
688.186	0.0143348
688.264	0.0144219
688.342	0.0144376
688.420	0.0144414
688.498	0.0146385
688.576	0.0147091
688.655	0.0146526
688.733	0.0147315
688.811	0.0149596
688.889	0.0150478
688.967	0.0151115
689.045	0.0152840
689.123	0.0153567
689.201	0.0154572
689.280	0.0157291
689.358	0.0157110
689.436	0.0158836
689.514	0.0160066
689.592	0.0160642
689.670	0.0161213
689.748	0.0160614
689.826	0.0162807
689.905	0.0162601
689.983	0.0162584
690.061	0.0162048
690.139	0.0162046
690.217	0.0159942
690.295	0.0158854
690.373	0.0159316
690.451	0.0157611
690.530	0.0155951
690.608	0.0154734
690.686	0.0156279
690.764	0.0153608
690.842	0.0151897
690.920	0.0150789
690.998	0.0150021
691.076	0.0149729
691.155	0.0148921
691.233	0.0149019
691.311	0.0148254
691.389	0.0148011
691.467	0.0146765
691.545	0.0146759
691.623	0.0146915
691.701	0.0145384
691.780	0.0147158
691.858	0.0145695
691.936	0.0146864
692.014	0.0145996
692.092	0.0148508
692.170	0.0147532
692.248	0.0147955
692.326	0.0147518
692.405	0.0149614
692.483	0.0150340
692.561	0.0150610
692.639	0.0150721
692.717	0.0151332
692.795	0.0151460
692.873	0.0154600
692.951	0.0154079
693.030	0.0155699
693.108	0.0155704
693.186	0.0156413
693.264	0.0155791
693.342	0.0157423
693.420	0.0157898
693.498	0.0158573
693.576	0.0159610
693.655	0.0159517
693.733	0.0158894
693.811	0.0159090
693.889	0.0158804
693.967	0.0158035
694.045	0.0156818
694.123	0.0156626
694.201	0.0155598
694.280	0.0153226
694.358	0.0154417
694.436	0.0152658
694.514	0.0151328
694.592	0.0153316
694.670	0.0151472
694.748	0.0151952
694.826	0.0152325
694.905	0.0150648
694.983	0.0148622
695.061	0.0149246
695.139	0.0148482
695.217	0.0147962
695.295	0.0148006
695.373	0.0148650
695.451	0.0147832
695.530	0.0145915
695.608	0.0146636
695.686	0.0147198
695.764	0.0147894
695.842	0.0145904
695.920	0.0145738
695.998	0.0147856
696.076	0.0147703
696.155	0.0145350
696.233	0.0147231
696.311	0.0148720
696.389	0.0148378
696.467	0.0149432
696.545	0.0149809
696.623	0.0149319
696.701	0.0150451
696.780	0.0150753
696.858	0.0149927
696.936	0.0152040
697.014	0.0152631
697.092	0.0154957
697.170	0.0154673
697.248	0.0155669
697.326	0.0156288
697.405	0.0156308
697.483	0.0157980
697.561	0.0158149
697.639	0.0158508
697.717	0.0159294
697.795	0.0160072
697.873	0.0160016
697.951	0.0159743
698.030	0.0158905
698.108	0.0159479
698.186	0.0159120
698.264	0.0158443
698.342	0.0159200
698.420	0.0157525
698.498	0.0157126
698.576	0.0155467
698.655	0.0155045
698.733	0.0154115
698.811	0.0152626
698.889	0.0152576
698.967	0.0150755
699.045	0.0150256
699.123	0.0147773
699.201	0.0147387
699.280	0.0145522
699.358	0.0145435
699.436	0.0144939
699.514	0.0144466
699.592	0.0144279
699.670	0.0143211
699.748	0.0142754
699.826	0.0143757
699.905	0.0143716
699.983	0.0144052
700.061	0.0145017
700.139	0.0144693
700.217	0.0145220
700.295	0.0145679
700.373	0.0146106
700.451	0.0148695
700.530	0.0148815
700.608	0.0147881
700.686	0.0150480
700.764	0.0151662
700.842	0.0150887
700.920	0.0153308
700.998	0.0152290
701.076	0.0153155
701.155	0.0154629
701.233	0.0154762
701.311	0.0156175
701.389	0.0156493
701.467	0.0155791
701.545	0.0156455
701.623	0.0154766
701.701	0.0155713
701.780	0.0152897
701.858	0.0154320
701.936	0.0155150
702.014	0.0154250
702.092	0.0151643
702.170	0.0152908
702.248	0.0154042
702.326	0.0151954
702.405	0.0153584
702.483	0.0153104
702.561	0.0154845
702.639	0.0154404
702.717	0.0155125
702.795	0.0154564
702.873	0.0154910
702.951	0.0155670
703.030	0.0156612
703.108	0.0155466
703.186	0.0155078
703.264	0.0155726
703.342	0.0156040
703.420	0.0155537
703.498	0.0155182
703.576	0.0154836
703.655	0.0154332
703.733	0.0153541
703.811	0.0155008
703.889	0.0153638
703.967	0.0153152
704.045	0.0150502
704.123	0.0150648
704.201	0.0148347
704.280	0.0149127
704.358	0.0148787
704.436	0.0145470
704.514	0.0143478
704.592	0.0142168
704.670	0.0142221
704.748	0.0141714
704.826	0.0141038
704.905	0.0140239
704.983	0.0139313
705.061	0.0139512
705.139	0.0140001
705.217	0.0138984
705.295	0.0138824
705.373	0.0139130
705.451	0.0140189
705.530	0.0138898
705.608	0.0141157
705.686	0.0140024
705.764	0.0141061
705.842	0.0141630
705.920	0.0142864
705.998	0.0143211
706.076	0.0145977
706.155	0.0146926
706.233	0.0147797
706.311	0.0147934
706.389	0.0150869
706.467	0.0151820
706.545	0.0153828
706.623	0.0153101
706.701	0.0155186
706.780	0.0156760
706.858	0.0158818
706.936	0.0159481
707.014	0.0159733
707.092	0.0161274
707.170	0.0162841
707.248	0.0163301
707.326	0.0163470
707.405	0.0164610
707.483	0.0165482
707.561	0.0166628
707.639	0.0165540
707.717	0.0166740
707.795	0.0165820
707.873	0.0164230
707.951	0.0164423
708.030	0.0164124
708.108	0.0163213
708.186	0.0161938
708.264	0.0162402
708.342	0.0160431
708.420	0.0159884
708.498	0.0159598
708.576	0.0158281
708.655	0.0157121
708.733	0.0156007
708.811	0.0154605
708.889	0.0153349
708.967	0.0151347
709.045	0.0150308
709.123	0.0147897
709.201	0.0146583
709.280	0.0144449
709.358	0.0143405
709.436	0.0144092
709.514	0.0141576
709.592	0.0141166
709.670	0.0140443
709.748	0.0141148
709.826	0.0140616
709.905	0.0141061
709.983	0.0140343
710.061	0.0141576
710.139	0.0142210
710.217	0.0144557
710.295	0.0144779
710.373	0.0146671
710.451	0.0147883
710.530	0.0149984
710.608	0.0151959
710.686	0.0150927
710.764	0.0155588
710.842	0.0156539
710.920	0.0155908
710.998	0.0158084
711.076	0.0160021
711.155	0.0162041
711.233	0.0162921
711.311	0.0164966
711.389	0.0164586
711.467	0.0165266
711.545	0.0166128
711.623	0.0165406
711.701	0.0165638
711.780	0.0164845
711.858	0.0165143
711.936	0.0164137
712.014	0.0163703
712.092	0.0161169
712.170	0.0160214
712.248	0.0160480
712.326	0.0159443
712.405	0.0156935
712.483	0.0154582
712.561	0.0154096
712.639	0.0152749
712.717	0.0152018
712.795	0.0148875
712.873	0.0148392
712.951	0.0148067
713.030	0.0147245
713.108	0.0145090
713.186	0.0146112
713.264	0.0146319
713.342	0.0144805
713.420	0.0144565
713.498	0.0144739
713.576	0.0144437
713.655	0.0144539
713.733	0.0144759
713.811	0.0146948
713.889	0.0146362
713.967	0.0149514
714.045	0.0151038
714.123	0.0151641
714.201	0.0153278
714.280	0.0153123
714.358	0.0155312
714.436	0.0155914
714.514	0.0156865
714.592	0.0157829
714.670	0.0157645
714.748	0.0157627
714.826	0.0158099
714.905	0.0158385
714.983	0.0158630
715.061	0.0158573
715.139	0.0156923
715.217	0.0156615
715.295	0.0157468
715.373	0.0155070
715.451	0.0154418
715.530	0.0153596
715.608	0.0154110
715.686	0.0154518
715.764	0.0152737
715.842	0.0151027
715.920	0.0151418
715.998	0.0151673
716.076	0.0151945
716.155	0.0152029
716.233	0.0152005
716.311	0.0152313
716.389	0.0151277
716.467	0.0151116
716.545	0.0150573
716.623	0.0151467
716.701	0.0153998
716.780	0.0151020
716.858	0.0152245
716.936	0.0151666
717.014	0.0152724
717.092	0.0152851
717.170	0.0151495
717.248	0.0151781
717.326	0.0152744
717.405	0.0151725
717.483	0.0151951
717.561	0.0152654
717.639	0.0153858
717.717	0.0152635
717.795	0.0149956
717.873	0.0149884
717.951	0.0151618
718.030	0.0150223
718.108	0.0149570
718.186	0.0149257
718.264	0.0150285
718.342	0.0149672
718.420	0.0148756
718.498	0.0146712
718.576	0.0147511
718.655	0.0148193
718.733	0.0148009
718.811	0.0149623
718.889	0.0148558
718.967	0.0150948
719.045	0.0150499
719.123	0.0151386
719.201	0.0151472
719.280	0.0153939
719.358	0.0153635
719.436	0.0154351
719.514	0.0154257
719.592	0.0157114
719.670	0.0156260
719.748	0.0156512
719.826	0.0157663
719.905	0.0157468
719.983	0.0157024
720.061	0.0157088
720.139	0.0157387
720.217	0.0156641
720.295	0.0158277
720.373	0.0156882
720.451	0.0156842
720.530	0.0156672
720.608	0.0156747
720.686	0.0155728
720.764	0.0155888
720.842	0.0156338
720.920	0.0154792
720.998	0.0153583
721.076	0.0153817
721.155	0.0152962
721.233	0.0150262
721.311	0.0149218
721.389	0.0150523
721.467	0.0149820
721.545	0.0149474
721.623	0.0148923
721.701	0.0149386
721.780	0.0146773
721.858	0.0147486
721.936	0.0149551
722.014	0.0147433
722.092	0.0148172
722.170	0.0147651
722.248	0.0149222
722.326	0.0149659
722.405	0.0151126
722.483	0.0151004
722.561	0.0151221
722.639	0.0150843
722.717	0.0152413
722.795	0.0152233
722.873	0.0151759
722.951	0.0153553
723.030	0.0152495
723.108	0.0152345
723.186	0.0153194
723.264	0.0151796
723.342	0.0150807
723.420	0.0150105
723.498	0.0148543
723.576	0.0147719
723.655	0.0149095
723.733	0.0147076
723.811	0.0146459
723.889	0.0146701
723.967	0.0147315
724.045	0.0144412
724.123	0.0145079
724.201	0.0144551
724.280	0.0143648
724.358	0.0145213
724.436	0.0141593
724.514	0.0141565
724.592	0.0142992
724.670	0.0142142
724.748	0.0142091
724.826	0.0141972
724.905	0.0143064
724.983	0.0142425
725.061	0.0145939
725.139	0.0144550
725.217	0.0145963
725.295	0.0147324
725.373	0.0147756
725.451	0.0150013
725.530	0.0150034
725.608	0.0151139
725.686	0.0154219
725.764	0.0155883
725.842	0.0156298
725.920	0.0158442
725.998	0.0157780
726.076	0.0156937
726.155	0.0159023
726.233	0.0157990
726.311	0.0160126
726.389	0.0159125
726.467	0.0157696
726.545	0.0159885
726.623	0.0159669
726.701	0.0159050
726.780	0.0158681
726.858	0.0158254
726.936	0.0158188
727.014	0.0157574
727.092	0.0157956
727.170	0.0156137
727.248	0.0155074
727.326	0.0154087
727.405	0.0154233
727.483	0.0152757
727.561	0.0153349
727.639	0.0151115
727.717	0.0151152
727.795	0.0152626
727.873	0.0149176
727.951	0.0147949
728.030	0.0147955
728.108	0.0146410
728.186	0.0148090
728.264	0.0147624
728.342	0.0146457
728.420	0.0147089
728.498	0.0147635
728.576	0.0147870
728.655	0.0149778
728.733	0.0148917
728.811	0.0148514
728.889	0.0150745
728.967	0.0151460
729.045	0.0151934
729.123	0.0152164
729.201	0.0153924
729.280	0.0154308
729.358	0.0154350
729.436	0.0154503
729.514	0.0154364
729.592	0.0154295
729.670	0.0155299
729.748	0.0156074
729.826	0.0154438
729.905	0.0154369
729.983	0.0155785
730.061	0.0154712
730.139	0.0156368
730.217	0.0156602
730.295	0.0154482
730.373	0.0154414
730.451	0.0154427
730.530	0.0155012
730.608	0.0153004
730.686	0.0152486
730.764	0.0151811
730.842	0.0150935
730.920	0.0151730
730.998	0.0149455
731.076	0.0150079
731.155	0.0150063
731.233	0.0148512
731.311	0.0147607
731.389	0.0150033
731.467	0.0149276
731.545	0.0148369
731.623	0.0150011
731.701	0.0150980
731.780	0.0150810
731.858	0.0151167
731.936	0.0151594
732.014	0.0150639
732.092	0.0151973
732.170	0.0154136
732.248	0.0153840
732.326	0.0153367
732.405	0.0153183
732.483	0.0154087
732.561	0.0155075
732.639	0.0154040
732.717	0.0153123
732.795	0.0154138
732.873	0.0154944
732.951	0.0154439
733.030	0.0154936
733.108	0.0155571
733.186	0.0154195
733.264	0.0154395
733.342	0.0153911
733.420	0.0154008
733.498	0.0155365
733.576	0.0153217
733.655	0.0154546
733.733	0.0153736
733.811	0.0153540
733.889	0.0153080
733.967	0.0151935
734.045	0.0151221
734.123	0.0150589
734.201	0.0151546
734.280	0.0151697
734.358	0.0149136
734.436	0.0149766
734.514	0.0150961
734.592	0.0151085
734.670	0.0151225
734.748	0.0151595
734.826	0.0152393
734.905	0.0152205
734.983	0.0153847
735.061	0.0154092
735.139	0.0155724
735.217	0.0155933
735.295	0.0155929
735.373	0.0157105
735.451	0.0155727
735.530	0.0155937
735.608	0.0157896
735.686	0.0158503
735.764	0.0157732
735.842	0.0159362
735.920	0.0157393
735.998	0.0156448
736.076	0.0157124
736.155	0.0156557
736.233	0.0156287
736.311	0.0155299
736.389	0.0155728
736.467	0.0154299
736.545	0.0152753
736.623	0.0151595
736.701	0.0150107
736.780	0.0149528
736.858	0.0149055
736.936	0.0148985
737.014	0.0148042
737.092	0.0146622
737.170	0.0144920
737.248	0.0145667
737.326	0.0145721
737.405	0.0144744
737.483	0.0144240
737.561	0.0144830
737.639	0.0145818
737.717	0.0146145
737.795	0.0145763
737.873	0.0148201
737.951	0.0148227
738.030	0.0147478
738.108	0.0148318
738.186	0.0150427
738.264	0.0150227
738.342	0.0152081
738.420	0.0152364
738.498	0.0152930
738.576	0.0153455
738.655	0.0153746
738.733	0.0154868
738.811	0.0155592
738.889	0.0157085
738.967	0.0156982
739.045	0.0156301
739.123	0.0156400
739.201	0.0156956
739.280	0.0157661
739.358	0.0157388
739.436	0.0155278
739.514	0.0155132
739.592	0.0155202
739.670	0.0156390
739.748	0.0155753
739.826	0.0153806
739.905	0.0153847
739.983	0.0152447
740.061	0.0153025
740.139	0.0150892
740.217	0.0149981
740.295	0.0149552
740.373	0.0149828
740.451	0.0150443
740.530	0.0149555
740.608	0.0147971
740.686	0.0148711
740.764	0.0149966
740.842	0.0149356
740.920	0.0149527
740.998	0.0149570
741.076	0.0148426
741.155	0.0150456
741.233	0.0151264
741.311	0.0150849
741.389	0.0150208
741.467	0.0151676
741.545	0.0151398
741.623	0.0151765
741.701	0.0151939
741.780	0.0152155
741.858	0.0152451
741.936	0.0153918
742.014	0.0154066
742.092	0.0152835
742.170	0.0150645
742.248	0.0153052
742.326	0.0152796
742.405	0.0151540
742.483	0.0152317
742.561	0.0153625
742.639	0.0152612
742.717	0.0151426
742.795	0.0151395
742.873	0.0152006
742.951	0.0150455
743.030	0.0151665
743.108	0.0150768
743.186	0.0148959
743.264	0.0150101
743.342	0.0150214
743.420	0.0149939
743.498	0.0151013
743.576	0.0150314
743.655	0.0150251
743.733	0.0150204
743.811	0.0151517
743.889	0.0151495
743.967	0.0150791
744.045	0.0151835
744.123	0.0153580
744.201	0.0152107
744.280	0.0152802
744.358	0.0153049
744.436	0.0152316
744.514	0.0154327
744.592	0.0153118
744.670	0.0153930
744.748	0.0152355
744.826	0.0152953
744.905	0.0153320
744.983	0.0153613
745.061	0.0153503
745.139	0.0153969
745.217	0.0152395
745.295	0.0151052
745.373	0.0153304
745.451	0.0151498
745.530	0.0151630
745.608	0.0152431
745.686	0.0150601
745.764	0.0151189
745.842	0.0150998
745.920	0.0149861
745.998	0.0148736
746.076	0.0148946
746.155	0.0149988
746.233	0.0150365
746.311	0.0149787
746.389	0.0149895
746.467	0.0148867
746.545	0.0149648
746.623	0.0149754
746.701	0.0150737
746.780	0.0150908
746.858	0.0150668
746.936	0.0151138
747.014	0.0150622
747.092	0.0150118
747.170	0.0149059
747.248	0.0149683
747.326	0.0151336
747.405	0.0151273
747.483	0.0149406
747.561	0.0150768
747.639	0.0150581
747.717	0.0151898
747.795	0.0149488
747.873	0.0151164
747.951	0.0151643
748.030	0.0151271
748.108	0.0152142
748.186	0.0151219
748.264	0.0150105
748.342	0.0151218
748.420	0.0152071
748.498	0.0151954
748.576	0.0151968
748.655	0.0152171
748.733	0.0152953
748.811	0.0153928
748.889	0.0154107
748.967	0.0153803
749.045	0.0154625
749.123	0.0153443
749.201	0.0154270
749.280	0.0155065
749.358	0.0155077
749.436	0.0154787
749.514	0.0156045
749.592	0.0155812
749.670	0.0155247
749.748	0.0155149
749.826	0.0154530
749.905	0.0153202
749.983	0.0156245
750.061	0.0155579
750.139	0.0156457
750.217	0.0154897
750.295	0.0155495
750.373	0.0154609
750.451	0.0154533
750.530	0.0153169
750.608	0.0152226
750.686	0.0153482
750.764	0.0153667
750.842	0.0153880
750.920	0.0152818
750.998	0.0151554
751.076	0.0152701
751.155	0.0152216
751.233	0.0152148
751.311	0.0152167
751.389	0.0153085
751.467	0.0152646
751.545	0.0152779
751.623	0.0152476
751.701	0.0151494
751.780	0.0151498
751.858	0.0151110
751.936	0.0150423
752.014	0.0150744
752.092	0.0152407
752.170	0.0150294
752.248	0.0149693
752.326	0.0150632
752.405	0.0150601
752.483	0.0151481
752.561	0.0149580
752.639	0.0149934
752.717	0.0149744
752.795	0.0149364
752.873	0.0150352
752.951	0.0149191
753.030	0.0149721
753.108	0.0147363
753.186	0.0149135
753.264	0.0150003
753.342	0.0148581
753.420	0.0149933
753.498	0.0151532
753.576	0.0151181
753.655	0.0150677
753.733	0.0151046
753.811	0.0150759
753.889	0.0152242
753.967	0.0151995
754.045	0.0152319
754.123	0.0151875
754.201	0.0152811
754.280	0.0151783
754.358	0.0154249
754.436	0.0154627
754.514	0.0153685
754.592	0.0154510
754.670	0.0155743
754.748	0.0154713
754.826	0.0155599
754.905	0.0154817
754.983	0.0155908
755.061	0.0155917
755.139	0.0156435
755.217	0.0156000
755.295	0.0156358
755.373	0.0154136
755.451	0.0157032
755.530	0.0154648
755.608	0.0154832
755.686	0.0155692
755.764	0.0155452
755.842	0.0153732
755.920	0.0153642
755.998	0.0153757
756.076	0.0153207
756.155	0.0152854
756.233	0.0152647
756.311	0.0152800
756.389	0.0152292
756.467	0.0151971
756.545	0.0151761
756.623	0.0151559
756.701	0.0151501
756.780	0.0151701
756.858	0.0151276
756.936	0.0149995
757.014	0.0151412
757.092	0.0151698
757.170	0.0149760
757.248	0.0150359
757.326	0.0149313
757.405	0.0150415
757.483	0.0149528
757.561	0.0150025
757.639	0.0150000
757.717	0.0150132
757.795	0.0150352
757.873	0.0150282
757.951	0.0149878
758.030	0.0151205
758.108	0.0152102
758.186	0.0152875
758.264	0.0152536
758.342	0.0153516
758.420	0.0153178
758.498	0.0153620
758.576	0.0154453
758.655	0.0154386
758.733	0.0153937
758.811	0.0154539
758.889	0.0153854
758.967	0.0154064
759.045	0.0155569
759.123	0.0156059
759.201	0.0156118
759.280	0.0154746
759.358	0.0155740
759.436	0.0156141
759.514	0.0155688
759.592	0.0156815
759.670	0.0156664
759.748	0.0156113
759.826	0.0156598
759.905	0.0157582
759.983	0.0157070
760.061	0.0154958
760.139	0.0156606
760.217	0.0154923
760.295	0.0154269
760.373	0.0152341
760.451	0.0154491
760.530	0.0153884
760.608	0.0152605
760.686	0.0151304
760.764	0.0150406
760.842	0.0150110
760.920	0.0150262
760.998	0.0150541
761.076	0.0150537
761.155	0.0149468
761.233	0.0149725
761.311	0.0148490
761.389	0.0148446
761.467	0.0150665
761.545	0.0149979
761.623	0.0149993
761.701	0.0150546
761.780	0.0152370
761.858	0.0151065
761.936	0.0150672
762.014	0.0152225
762.092	0.0153123
762.170	0.0153448
762.248	0.0152630
762.326	0.0152702
762.405	0.0154440
762.483	0.0153242
762.561	0.0154247
762.639	0.0155628
762.717	0.0155268
762.795	0.0155062
762.873	0.0155842
762.951	0.0154211
763.030	0.0155039
763.108	0.0154923
763.186	0.0155662
763.264	0.0154198
763.342	0.0154529
763.420	0.0152367
763.498	0.0155360
763.576	0.0153337
763.655	0.0153345
763.733	0.0152731
763.811	0.0155170
763.889	0.0152926
763.967	0.0152590
764.045	0.0152208
764.123	0.0152157
764.201	0.0153058
764.280	0.0151924
764.358	0.0150151
764.436	0.0152358
764.514	0.0152463
764.592	0.0151810
764.670	0.0152255
764.748	0.0150724
764.826	0.0151713
764.905	0.0152196
764.983	0.0151836
765.061	0.0152206
765.139	0.0151323
765.217	0.0151375
765.295	0.0150221
765.373	0.0150097
765.451	0.0149842
765.530	0.0150333
765.608	0.0149855
765.686	0.0149957
765.764	0.0150208
765.842	0.0149234
765.920	0.0149667
765.998	0.0150008
766.076	0.0149317
766.155	0.0148310
766.233	0.0149310
766.311	0.0148524
766.389	0.0147469
766.467	0.0150195
766.545	0.0150277
766.623	0.0150684
766.701	0.0150499
766.780	0.0150619
766.858	0.0149390
766.936	0.0149885
767.014	0.0151111
767.092	0.0151036
767.170	0.0151446
767.248	0.0150906
767.326	0.0151151
767.405	0.0152482
767.483	0.0151695
767.561	0.0151024
767.639	0.0151681
767.717	0.0152954
767.795	0.0151721
767.873	0.0152821
767.951	0.0154271
768.030	0.0154167
768.108	0.0154515
768.186	0.0152593
768.264	0.0154568
768.342	0.0153558
768.420	0.0153842
768.498	0.0153897
768.576	0.0154077
768.655	0.0152806
768.733	0.0152833
768.811	0.0154234
768.889	0.0153747
768.967	0.0152551
769.045	0.0152334
769.123	0.0152690
769.201	0.0151257
769.280	0.0150334
769.358	0.0152336
769.436	0.0152488
769.514	0.0151859
769.592	0.0151823
769.670	0.0152291
769.748	0.0152034
769.826	0.0151548
769.905	0.0150549
769.983	0.0151230
770.061	0.0151520
770.139	0.0152211
770.217	0.0151646
770.295	0.0151512
770.373	0.0151900
770.451	0.0150696
770.530	0.0152231
770.608	0.0152816
770.686	0.0153412
770.764	0.0152164
770.842	0.0152157
770.920	0.0152267
770.998	0.0151631
771.076	0.0152556
771.155	0.0151213
771.233	0.0152560
771.311	0.0153728
771.389	0.0154012
771.467	0.0151217
771.545	0.0152287
771.623	0.0153022
771.701	0.0154323
771.780	0.0152900
771.858	0.0152831
771.936	0.0152899
772.014	0.0152370
772.092	0.0153703
772.170	0.0153790
772.248	0.0152879
772.326	0.0152632
772.405	0.0153481
772.483	0.0152140
772.561	0.0151508
772.639	0.0152000
772.717	0.0152551
772.795	0.0152084
772.873	0.0151318
772.951	0.0152514
773.030	0.0151619
773.108	0.0149707
773.186	0.0150620
773.264	0.0151540
773.342	0.0149453
773.420	0.0151260
773.498	0.0150649
773.576	0.0152064
773.655	0.0151785
773.733	0.0151646
773.811	0.0151575
773.889	0.0152030
773.967	0.0152025
774.045	0.0150775
774.123	0.0151958
774.201	0.0152003
774.280	0.0151456
774.358	0.0152128
774.436	0.0152135
774.514	0.0152642
774.592	0.0152538
774.670	0.0153369
774.748	0.0151582
774.826	0.0150742
774.905	0.0152753
774.983	0.0152113
775.061	0.0153930
775.139	0.0152657
775.217	0.0153831
775.295	0.0153188
775.373	0.0152073
775.451	0.0152509
775.530	0.0152464
775.608	0.0152653
775.686	0.0152993
775.764	0.0153242
775.842	0.0154502
775.920	0.0153024
775.998	0.0152468
776.076	0.0155389
776.155	0.0154099
776.233	0.0153609
776.311	0.0154434
776.389	0.0155173
776.467	0.0156126
776.545	0.0156330
776.623	0.0156103
776.701	0.0155240
776.780	0.0155013
776.858	0.0155059
776.936	0.0155505
777.014	0.0155291
777.092	0.0155605
777.170	0.0155127
777.248	0.0153732
777.326	0.0154240
777.405	0.0153867
777.483	0.0153593
777.561	0.0153468
777.639	0.0154070
777.717	0.0155180
777.795	0.0154882
777.873	0.0154636
777.951	0.0153212
778.030	0.0154058
778.108	0.0154432
778.186	0.0153224
778.264	0.0153622
778.342	0.0153505
778.420	0.0152487
778.498	0.0153173
778.576	0.0153512
778.655	0.0152785
778.733	0.0151237
778.811	0.0150693
778.889	0.0151746
778.967	0.0153371
779.045	0.0151286
779.123	0.0152925
779.201	0.0152119
779.280	0.0152341
779.358	0.0151318
779.436	0.0152274
779.514	0.0151960
779.592	0.0152965
779.670	0.0150820
779.748	0.0153652
779.826	0.0151686
779.905	0.0152244
779.983	0.0150201
780.061	0.0151524
780.139	0.0151762
780.217	0.0152296
780.295	0.0151166
780.373	0.0151223
780.451	0.0151088
780.530	0.0152527
780.608	0.0151305
780.686	0.0152411
780.764	0.0152711
780.842	0.0151921
780.920	0.0152239
780.998	0.0151765
781.076	0.0151143
781.155	0.0152300
781.233	0.0152095
781.311	0.0151855
781.389	0.0151645
781.467	0.0152643
781.545	0.0151532
781.623	0.0151579
781.701	0.0152009
781.780	0.0151358
781.858	0.0153993
781.936	0.0154381
782.014	0.0152987
782.092	0.0153230
782.170	0.0153592
782.248	0.0154543
782.326	0.0154877
782.405	0.0152795
782.483	0.0153967
782.561	0.0154981
782.639	0.0153792
782.717	0.0154109
782.795	0.0154549
782.873	0.0155553
782.951	0.0154647
783.030	0.0153745
783.108	0.0154068
783.186	0.0154123
783.264	0.0153568
783.342	0.0152020
783.420	0.0152962
783.498	0.0151765
783.576	0.0151876
783.655	0.0152914
783.733	0.0152592
783.811	0.0152297
783.889	0.0151153
783.967	0.0152087
784.045	0.0150232
784.123	0.0149564
784.201	0.0149785
784.280	0.0150744
784.358	0.0151299
784.436	0.0151441
784.514	0.0150262
784.592	0.0149252
784.670	0.0151232
784.748	0.0150626
784.826	0.0149747
784.905	0.0150594
784.983	0.0150379
785.061	0.0150465
785.139	0.0150699
785.217	0.0149770
785.295	0.0149634
785.373	0.0152814
785.451	0.0150462
785.530	0.0151066
785.608	0.0151675
785.686	0.0150681
785.764	0.0152034
785.842	0.0151701
785.920	0.0152436
785.998	0.0152900
786.076	0.0152647
786.155	0.0152295
786.233	0.0152873
786.311	0.0151628
786.389	0.0152475
786.467	0.0152821
786.545	0.0154707
786.623	0.0154910
786.701	0.0153545
786.780	0.0153635
786.858	0.0153679
786.936	0.0153944
787.014	0.0154337
787.092	0.0155238
787.170	0.0152619
787.248	0.0152853
787.326	0.0153949
787.405	0.0152964
787.483	0.0153667
787.561	0.0152110
787.639	0.0152773
787.717	0.0153795
787.795	0.0152623
787.873	0.0152608
787.951	0.0152422
788.030	0.0151881
788.108	0.0153551
788.186	0.0153561
788.264	0.0151741
788.342	0.0153286
788.420	0.0153628
788.498	0.0152009
788.576	0.0152216
788.655	0.0152087
788.733	0.0152579
788.811	0.0151968
788.889	0.0152689
788.967	0.0152431
789.045	0.0151738
789.123	0.0152930
789.201	0.0152851
789.280	0.0152279
789.358	0.0152207
789.436	0.0153694
789.514	0.0152770
789.592	0.0152882
789.670	0.0152429
789.748	0.0152954
789.826	0.0154865
789.905	0.0154301
789.983	0.0156190
790.061	0.0155727
790.139	0.0154979
790.217	0.0154648
790.295	0.0155616
790.373	0.0154387
790.451	0.0154472
790.530	0.0152795
790.608	0.0153285
790.686	0.0153062
790.764	0.0153088
790.842	0.0152663
790.920	0.0151601
790.998	0.0152197
791.076	0.0151502
791.155	0.0151279
791.233	0.0151469
791.311	0.0149271
791.389	0.0151163
791.467	0.0151064
791.545	0.0151673
791.623	0.0149806
791.701	0.0149591
791.780	0.0150069
791.858	0.0150751
791.936	0.0151334
792.014	0.0150440
792.092	0.0150040
792.170	0.0150362
792.248	0.0151423
792.326	0.0149345
792.405	0.0150059
792.483	0.0151318
792.561	0.0153358
792.639	0.0151794
792.717	0.0152065
792.795	0.0151567
792.873	0.0152646
792.951	0.0154166
793.030	0.0153311
793.108	0.0151877
793.186	0.0153922
793.264	0.0154460
793.342	0.0154341
793.420	0.0153661
793.498	0.0154239
793.576	0.0155823
793.655	0.0153309
793.733	0.0153583
793.811	0.0153662
793.889	0.0154565
793.967	0.0153831
794.045	0.0152525
794.123	0.0154263
794.201	0.0155266
794.280	0.0154060
794.358	0.0154524
794.436	0.0153516
794.514	0.0154090
794.592	0.0154597
794.670	0.0154929
794.748	0.0154359
794.826	0.0154282
794.905	0.0153180
794.983	0.0153962
795.061	0.0152288
795.139	0.0152688
795.217	0.0152697
795.295	0.0150950
795.373	0.0153795
795.451	0.0152401
795.530	0.0151450
795.608	0.0152360
795.686	0.0153081
795.764	0.0150947
795.842	0.0150229
795.920	0.0150803
795.998	0.0151978
796.076	0.0151120
796.155	0.0151486
796.233	0.0152074
796.311	0.0149190
796.389	0.0152659
796.467	0.0151353
796.545	0.0151968
796.623	0.0152023
796.701	0.0151559
796.780	0.0151395
796.858	0.0152618
796.936	0.0151614
797.014	0.0152029
797.092	0.0153876
797.170	0.0151932
797.248	0.0153395
797.326	0.0152501
797.405	0.0153300
797.483	0.0154153
797.561	0.0153347
797.639	0.0152470
797.717	0.0153786
797.795	0.0153632
797.873	0.0154060
797.951	0.0155021
798.030	0.0153168
798.108	0.0153829
798.186	0.0153929
798.264	0.0154278
798.342	0.0155285
798.420	0.0154910
798.498	0.0154823
798.576	0.0155842
798.655	0.0154274
798.733	0.0155775
798.811	0.0154797
798.889	0.0156118
798.967	0.0153828
799.045	0.0154554
799.123	0.0155822
799.201	0.0155590
799.280	0.0154791
799.358	0.0155402
799.436	0.0155411
799.514	0.0154494
799.592	0.0154256
799.670	0.0154144
799.748	0.0154925
799.826	0.0153290
799.905	0.0153856
799.983	0.0152976
800.061	0.0153213
800.139	0.0152642
800.217	0.0153123
800.295	0.0153601
800.373	0.0152309
800.451	0.0151852
800.530	0.0152525
800.608	0.0150973
800.686	0.0152080
800.764	0.0150872
800.842	0.0151926
800.920	0.0150227
800.998	0.0149270
801.076	0.0150614
801.155	0.0150762
801.233	0.0149902
801.311	0.0149759
801.389	0.0150627
801.467	0.0151488
801.545	0.0150966
801.623	0.0151320
801.701	0.0149435
801.780	0.0149184
801.858	0.0150119
801.936	0.0150775
802.014	0.0150622
802.092	0.0150794
802.170	0.0151965
802.248	0.0150232
802.326	0.0151366
802.405	0.0151775
802.483	0.0152229
802.561	0.0151351
802.639	0.0151863
802.717	0.0153408
802.795	0.0152509
802.873	0.0152941
802.951	0.0153771
803.030	0.0154979
803.108	0.0154205
803.186	0.0153947
803.264	0.0155776
803.342	0.0156121
803.420	0.0154482
803.498	0.0155070
803.576	0.0155367
803.655	0.0155974
803.733	0.0154441
803.811	0.0155196
803.889	0.0155190
803.967	0.0155038
804.045	0.0155194
804.123	0.0155023
804.201	0.0156574
804.280	0.0153996
804.358	0.0154459
804.436	0.0154008
804.514	0.0156111
804.592	0.0154025
804.670	0.0153258
804.748	0.0153560
804.826	0.0153708
804.905	0.0153011
804.983	0.0152499
805.061	0.0153056
805.139	0.0153143
805.217	0.0154461
805.295	0.0153284
805.373	0.0152518
805.451	0.0151527
805.530	0.0151325
805.608	0.0150373
805.686	0.0150223
805.764	0.0150563
805.842	0.0150643
805.920	0.0149780
805.998	0.0149716
806.076	0.0149198
806.155	0.0149619
806.233	0.0148909
806.311	0.0147054
806.389	0.0148947
806.467	0.0149109
806.545	0.0148314
806.623	0.0149004
806.701	0.0147070
806.780	0.0148293
806.858	0.0148997
806.936	0.0147585
807.014	0.0148721
807.092	0.0147989
807.170	0.0149534
807.248	0.0149278
807.326	0.0149025
807.405	0.0150620
807.483	0.0150308
807.561	0.0150717
807.639	0.0151049
807.717	0.0149953
807.795	0.0151704
807.873	0.0152820
807.951	0.0152302
808.030	0.0152141
808.108	0.0152760
808.186	0.0151080
808.264	0.0152131
808.342	0.0152800
808.420	0.0152595
808.498	0.0152201
808.576	0.0151392
808.655	0.0151856
808.733	0.0152282
808.811	0.0151843
808.889	0.0151871
808.967	0.0150114
809.045	0.0151003
809.123	0.0150808
809.201	0.0150280
809.280	0.0150660
809.358	0.0150591
809.436	0.0150738
809.514	0.0150978
809.592	0.0150524
809.670	0.0151631
809.748	0.0151683
809.826	0.0150421
809.905	0.0150347
809.983	0.0151452
810.061	0.0151228
810.139	0.0150562
810.217	0.0150959
810.295	0.0150711
810.373	0.0150838
810.451	0.0150137
810.530	0.0149722
810.608	0.0150992
810.686	0.0151666
810.764	0.0151591
810.842	0.0150680
810.920	0.0150842
810.998	0.0150639
811.076	0.0150713
811.155	0.0150543
811.233	0.0151398
811.311	0.0152424
811.389	0.0151875
811.467	0.0151387
811.545	0.0152087
811.623	0.0152120
811.701	0.0151411
811.780	0.0151583
811.858	0.0153618
811.936	0.0151730
812.014	0.0151891
812.092	0.0152421
812.170	0.0152654
812.248	0.0152528
812.326	0.0153249
812.405	0.0153354
812.483	0.0152725
812.561	0.0152988
812.639	0.0152592
812.717	0.0153400
812.795	0.0155198
812.873	0.0152730
812.951	0.0152778
813.030	0.0154211
813.108	0.0153959
813.186	0.0154487
813.264	0.0154063
813.342	0.0152955
813.420	0.0155001
813.498	0.0155624
813.576	0.0155216
813.655	0.0154465
813.733	0.0154228
813.811	0.0155049
813.889	0.0155142
813.967	0.0156141
814.045	0.0154729
814.123	0.0153724
814.201	0.0155727
814.280	0.0154277
814.358	0.0152871
814.436	0.0154774
814.514	0.0155707
814.592	0.0153387
814.670	0.0153872
814.748	0.0153223
814.826	0.0154675
814.905	0.0154005
814.983	0.0152655
815.061	0.0152403
815.139	0.0152592
815.217	0.0153271
815.295	0.0152885
815.373	0.0153216
815.451	0.0153059
815.530	0.0154276
815.608	0.0152367
815.686	0.0153064
815.764	0.0153019
815.842	0.0154196
815.920	0.0154607
815.998	0.0154713
816.076	0.0152955
816.155	0.0152724
816.233	0.0153822
816.311	0.0154298
816.389	0.0155089
816.467	0.0154836
816.545	0.0154514
816.623	0.0154102
816.701	0.0153000
816.780	0.0153485
816.858	0.0153766
816.936	0.0154144
817.014	0.0155347
817.092	0.0152529
817.170	0.0152119
817.248	0.0154751
817.326	0.0154137
817.405	0.0154574
817.483	0.0152671
817.561	0.0153180
817.639	0.0154415
817.717	0.0151925
817.795	0.0152362
817.873	0.0153483
817.951	0.0154185
818.030	0.0152920
818.108	0.0152332
818.186	0.0153815
818.264	0.0152702
818.342	0.0153744
818.420	0.0152985
818.498	0.0151972
818.576	0.0152297
818.655	0.0153357
818.733	0.0152898
818.811	0.0152426
818.889	0.0152304
818.967	0.0151656
819.045	0.0151903
819.123	0.0153040
819.201	0.0151909
819.280	0.0151493
819.358	0.0152182
819.436	0.0150564
819.514	0.0151320
819.592	0.0151903
819.670	0.0152454
819.748	0.0152155
819.826	0.0151033
819.905	0.0152027
819.983	0.0150760
820.061	0.0151675
820.139	0.0151343
820.217	0.0151753
820.295	0.0152744
820.373	0.0153479
820.451	0.0151192
820.530	0.0150749
820.608	0.0151823
820.686	0.0150984
820.764	0.0151134
820.842	0.0151505
820.920	0.0153013
820.998	0.0152838
821.076	0.0152342
821.155	0.0151742
821.233	0.0153244
821.311	0.0152209
821.389	0.0152145
821.467	0.0153555
821.545	0.0151851
821.623	0.0153271
821.701	0.0153901
821.780	0.0153603
821.858	0.0152840
821.936	0.0152894
822.014	0.0153799
822.092	0.0153749
822.170	0.0154171
822.248	0.0154473
822.326	0.0153651
822.405	0.0153915
822.483	0.0154561
822.561	0.0153855
822.639	0.0152808
822.717	0.0152881
822.795	0.0153528
822.873	0.0153483
822.951	0.0153754
823.030	0.0153281
823.108	0.0154031
823.186	0.0152418
823.264	0.0152811
823.342	0.0152804
823.420	0.0152285
823.498	0.0152809
823.576	0.0152975
823.655	0.0151999
823.733	0.0151102
823.811	0.0151672
823.889	0.0152361
823.967	0.0151794
824.045	0.0151109
824.123	0.0151301
824.201	0.0151120
824.280	0.0150591
824.358	0.0150317
824.436	0.0151469
824.514	0.0150913
824.592	0.0150922
824.670	0.0149147
824.748	0.0148214
824.826	0.0149388
824.905	0.0149949
824.983	0.0148843
825.061	0.0149335
825.139	0.0148967
825.217	0.0148811
825.295	0.0149448
825.373	0.0150792
825.451	0.0149895
825.530	0.0149825
825.608	0.0151058
825.686	0.0149404
825.764	0.0149716
825.842	0.0149949
825.920	0.0149560
825.998	0.0151324
826.076	0.0150516
826.155	0.0150113
826.233	0.0150005
826.311	0.0150742
826.389	0.0148992
826.467	0.0148891
826.545	0.0151170
826.623	0.0149420
826.701	0.0150460
826.780	0.0150938
826.858	0.0151294
826.936	0.0151271
827.014	0.0149838
827.092	0.0149424
827.170	0.0151710
827.248	0.0151090
827.326	0.0151231
827.405	0.0150760
827.483	0.0150687
827.561	0.0149548
827.639	0.0151508
827.717	0.0151175
827.795	0.0151307
827.873	0.0151665
827.951	0.0150749
828.030	0.0149857
828.108	0.0150892
828.186	0.0151402
828.264	0.0151589
828.342	0.0152243
828.420	0.0152107
828.498	0.0150584
828.576	0.0152362
828.655	0.0152323
828.733	0.0151583
828.811	0.0152986
828.889	0.0152564
828.967	0.0152315
829.045	0.0151917
829.123	0.0152576
829.201	0.0152319
829.280	0.0151978
829.358	0.0151988
829.436	0.0153180
829.514	0.0151804
829.592	0.0151593
829.670	0.0152474
829.748	0.0152571
829.826	0.0150852
829.905	0.0153680
829.983	0.0153210
830.061	0.0152065
830.139	0.0152957
830.217	0.0153146
830.295	0.0152083
830.373	0.0152625
830.451	0.0152990
830.530	0.0152482
830.608	0.0153819
830.686	0.0151328
830.764	0.0151685
830.842	0.0152350
830.920	0.0152332
830.998	0.0151400
831.076	0.0151221
831.155	0.0152448
831.233	0.0152958
831.311	0.0151833
831.389	0.0152251
831.467	0.0152253
831.545	0.0151965
831.623	0.0151691
831.701	0.0152694
831.780	0.0152140
831.858	0.0152081
831.936	0.0152241
832.014	0.0153275
832.092	0.0154661
832.170	0.0153056
832.248	0.0152895
832.326	0.0153326
832.405	0.0153099
832.483	0.0153014
832.561	0.0153764
832.639	0.0151534
832.717	0.0150904
832.795	0.0152615
832.873	0.0152961
832.951	0.0153117
833.030	0.0152464
833.108	0.0152483
833.186	0.0152103
833.264	0.0152185
833.342	0.0152610
833.420	0.0152177
833.498	0.0153165
833.576	0.0152509
833.655	0.0151802
833.733	0.0151553
833.811	0.0152711
833.889	0.0151510
833.967	0.0152241
834.045	0.0152382
834.123	0.0152782
834.201	0.0152498
834.280	0.0152633
834.358	0.0151675
834.436	0.0152228
834.514	0.0152895
834.592	0.0151866
834.670	0.0151837
834.748	0.0150839
834.826	0.0152889
834.905	0.0153691
834.983	0.0152478
835.061	0.0151512
835.139	0.0151687
835.217	0.0152260
835.295	0.0152753
835.373	0.0153087
835.451	0.0152452
835.530	0.0153302
835.608	0.0152271
835.686	0.0152753
835.764	0.0153187
835.842	0.0152063
835.920	0.0152869
835.998	0.0151247
836.076	0.0150472
836.155	0.0150726
836.233	0.0151859
836.311	0.0152431
836.389	0.0152364
836.467	0.0151580
836.545	0.0151222
836.623	0.0151046
836.701	0.0150146
836.780	0.0150369
836.858	0.0150069
836.936	0.0151044
837.014	0.0151816
837.092	0.0151246
837.170	0.0151980
837.248	0.0151942
837.326	0.0151297
837.405	0.0151712
837.483	0.0151314
837.561	0.0151605
837.639	0.0152625
837.717	0.0152315
837.795	0.0152438
837.873	0.0151423
837.951	0.0152203
838.030	0.0151419
838.108	0.0153099
838.186	0.0152993
838.264	0.0151936
838.342	0.0151730
838.420	0.0152006
838.498	0.0152341
838.576	0.0153216
838.655	0.0152103
838.733	0.0152814
838.811	0.0152458
838.889	0.0151637
838.967	0.0153040
839.045	0.0152866
839.123	0.0152134
839.201	0.0152234
839.280	0.0150775
839.358	0.0153376
839.436	0.0152996
839.514	0.0152749
839.592	0.0150537
839.670	0.0151078
839.748	0.0153253
839.826	0.0152708
839.905	0.0153333
839.983	0.0151523
840.061	0.0153008
840.139	0.0152307
840.217	0.0151747
840.295	0.0152956
840.373	0.0152003
840.451	0.0152449
840.530	0.0153133
840.608	0.0152480
840.686	0.0152293
840.764	0.0153314
840.842	0.0151147
840.920	0.0152640
840.998	0.0152018
841.076	0.0152512
841.155	0.0152409
841.233	0.0152766
841.311	0.0152724
841.389	0.0152489
841.467	0.0151322
841.545	0.0153530
841.623	0.0152328
841.701	0.0151324
841.780	0.0152733
841.858	0.0152414
841.936	0.0152336
842.014	0.0152113
842.092	0.0152087
842.170	0.0152876
842.248	0.0152148
842.326	0.0151735
842.405	0.0152270
842.483	0.0153109
842.561	0.0152400
842.639	0.0152631
842.717	0.0152128
842.795	0.0151696
842.873	0.0151780
842.951	0.0151672
843.030	0.0151912
843.108	0.0151321
843.186	0.0152326
843.264	0.0152710
843.342	0.0150594
843.420	0.0150721
843.498	0.0152605
843.576	0.0151781
843.655	0.0151637
843.733	0.0151328
843.811	0.0152348
843.889	0.0151777
843.967	0.0152088
844.045	0.0153135
844.123	0.0150853
844.201	0.0151192
844.280	0.0154144
844.358	0.0152164
844.436	0.0152786
844.514	0.0154404
844.592	0.0153458
844.670	0.0153771
844.748	0.0154130
844.826	0.0152585
844.905	0.0154414
844.983	0.0153135
845.061	0.0154008
845.139	0.0156022
845.217	0.0153443
845.295	0.0153417
845.373	0.0154066
845.451	0.0153126
845.530	0.0154813
845.608	0.0153455
845.686	0.0153553
845.764	0.0154232
845.842	0.0153588
845.920	0.0154174
845.998	0.0154671
846.076	0.0153712
846.155	0.0153749
846.233	0.0154145
846.311	0.0153201
846.389	0.0151981
846.467	0.0152687
846.545	0.0153065
846.623	0.0152218
846.701	0.0151240
846.780	0.0151660
846.858	0.0152224
846.936	0.0151045
847.014	0.0151110
847.092	0.0151656
847.170	0.0151247
847.248	0.0151688
847.326	0.0151318
847.405	0.0150954
847.483	0.0150902
847.561	0.0151024
847.639	0.0151559
847.717	0.0150235
847.795	0.0150637
847.873	0.0150918
847.951	0.0150690
848.030	0.0150644
848.108	0.0150378
848.186	0.0150462
848.264	0.0150172
848.342	0.0151390
848.420	0.0151891
848.498	0.0151367
848.576	0.0150335
848.655	0.0149964
848.733	0.0150004
848.811	0.0150781
848.889	0.0150606
848.967	0.0150432
849.045	0.0151105
849.123	0.0150324
849.201	0.0150212
849.280	0.0151452
849.358	0.0151988
849.436	0.0152018
849.514	0.0151411
849.592	0.0151376
849.670	0.0151421
849.748	0.0152240
849.826	0.0152760
849.905	0.0151308
849.983	0.0151730
850.061	0.0151542
850.139	0.0152234
850.217	0.0152864
850.295	0.0151621
850.373	0.0152229
850.451	0.0152489
850.530	0.0152909
850.608	0.0152850
850.686	0.0152636
850.764	0.0152696
850.842	0.0152129
850.920	0.0152161
850.998	0.0152959
851.076	0.0152173
851.155	0.0152357
851.233	0.0151029
851.311	0.0152652
851.389	0.0153466
851.467	0.0153417
851.545	0.0153355
851.623	0.0155302
851.701	0.0152892
851.780	0.0153214
851.858	0.0153873
851.936	0.0153850
852.014	0.0153518
852.092	0.0151778
852.170	0.0151285
852.248	0.0152852
852.326	0.0152220
852.405	0.0152657
852.483	0.0152902
852.561	0.0154012
852.639	0.0153460
852.717	0.0151684
852.795	0.0151900
852.873	0.0154381
852.951	0.0153239
853.030	0.0153282
853.108	0.0154739
853.186	0.0153757
853.264	0.0153786
853.342	0.0153169
853.420	0.0152610
853.498	0.0154862
853.576	0.0153413
853.655	0.0153037
853.733	0.0154702
853.811	0.0153013
853.889	0.0153440
853.967	0.0153718
854.045	0.0152975
854.123	0.0154338
854.201	0.0153742
854.280	0.0154488
854.358	0.0152704
854.436	0.0154010
854.514	0.0153219
854.592	0.0152425
854.670	0.0151799
854.748	0.0152536
854.826	0.0152766
854.905	0.0153844
854.983	0.0152434
855.061	0.0152748
855.139	0.0151659
855.217	0.0151289
855.295	0.0151941
855.373	0.0152020
855.451	0.0151730
855.530	0.0153063
855.608	0.0152244
855.686	0.0152248
855.764	0.0153363
855.842	0.0153643
855.920	0.0151518
855.998	0.0152470
856.076	0.0154177
856.155	0.0153701
856.233	0.0154277
856.311	0.0153236
856.389	0.0154681
856.467	0.0153899
856.545	0.0153276
856.623	0.0154177
856.701	0.0152239
856.780	0.0152348
856.858	0.0154124
856.936	0.0153255
857.014	0.0154500
857.092	0.0152932
857.170	0.0153750
857.248	0.0153913
857.326	0.0153123
857.405	0.0153303
857.483	0.0153307
857.561	0.0152764
857.639	0.0152287
857.717	0.0152705
857.795	0.0153030
857.873	0.0152632
857.951	0.0151472
858.030	0.0152948
858.108	0.0152366
858.186	0.0150876
858.264	0.0152554
858.342	0.0152713
858.420	0.0152318
858.498	0.0151920
858.576	0.0151835
858.655	0.0152216
858.733	0.0152147
858.811	0.0152540
858.889	0.0153514
858.967	0.0152904
859.045	0.0152402
859.123	0.0152549
859.201	0.0151488
859.280	0.0153690
859.358	0.0152534
859.436	0.0152296
859.514	0.0151991
859.592	0.0152087
859.670	0.0153041
859.748	0.0152694
859.826	0.0151479
859.905	0.0153199
859.983	0.0151453
860.061	0.0150291
860.139	0.0151868
860.217	0.0152158
860.295	0.0151580
860.373	0.0153040
860.451	0.0150967
860.530	0.0151517
860.608	0.0151222
860.686	0.0152497
860.764	0.0151990
860.842	0.0151187
860.920	0.0150314
860.998	0.0150624
861.076	0.0151576
861.155	0.0151968
861.233	0.0150259
861.311	0.0150574
861.389	0.0150715
861.467	0.0151441
861.545	0.0152293
861.623	0.0150879
861.701	0.0150879
861.780	0.0150773
861.858	0.0152045
861.936	0.0152328
862.014	0.0151248
862.092	0.0152069
862.170	0.0152152
862.248	0.0153130
862.326	0.0152071
862.405	0.0151470
862.483	0.0151278
862.561	0.0152201
862.639	0.0152185
862.717	0.0152155
862.795	0.0153118
862.873	0.0152969
862.951	0.0153299
863.030	0.0150671
863.108	0.0151844
863.186	0.0152434
863.264	0.0151338
863.342	0.0151643
863.420	0.0151533
863.498	0.0151585
863.576	0.0153114
863.655	0.0151715
863.733	0.0151684
863.811	0.0150634
863.889	0.0153407
863.967	0.0152720
864.045	0.0152790
864.123	0.0151440
864.201	0.0152010
864.280	0.0152501
864.358	0.0152134
864.436	0.0152818
864.514	0.0152841
864.592	0.0153284
864.670	0.0151878
864.748	0.0151939
864.826	0.0152781
864.905	0.0152923
864.983	0.0152844
865.061	0.0153093
865.139	0.0152750
865.217	0.0153431
865.295	0.0151565
865.373	0.0153770
865.451	0.0152094
865.530	0.0151192
865.608	0.0151776
865.686	0.0153280
865.764	0.0151997
865.842	0.0152286
865.920	0.0150011
865.998	0.0151528
866.076	0.0152188
866.155	0.0150352
866.233	0.0151040
866.311	0.0151450
866.389	0.0151994
866.467	0.0151959
866.545	0.0151621
866.623	0.0152425
866.701	0.0152288
866.780	0.0152120
866.858	0.0152749
866.936	0.0153197
867.014	0.0151560
867.092	0.0152482
867.170	0.0152951
867.248	0.0152914
867.326	0.0151035
867.405	0.0150647
867.483	0.0151518
867.561	0.0151816
867.639	0.0150824
867.717	0.0151202
867.795	0.0151929
867.873	0.0150783
867.951	0.0151233
868.030	0.0151756
868.108	0.0151337
868.186	0.0150556
868.264	0.0151056
868.342	0.0150278
868.420	0.0151557
868.498	0.0151962
868.576	0.0151003
868.655	0.0151495
868.733	0.0151376
868.811	0.0151263
868.889	0.0151493
868.967	0.0152589
869.045	0.0151339
869.123	0.0151102
869.201	0.0150224
869.280	0.0150558
869.358	0.0150962
869.436	0.0151735
869.514	0.0150494
869.592	0.0150381
869.670	0.0150365
869.748	0.0150748
869.826	0.0151930
869.905	0.0151463
869.983	0.0151543
870.061	0.0149752
870.139	0.0151373
870.217	0.0150792
870.295	0.0150352
870.373	0.0151379
870.451	0.0151111
870.530	0.0151605
870.608	0.0150774
870.686	0.0151649
870.764	0.0151727
870.842	0.0151383
870.920	0.0151196
870.998	0.0153003
871.076	0.0150289
871.155	0.0150777
871.233	0.0151635
871.311	0.0152966
871.389	0.0152361
871.467	0.0153064
871.545	0.0152280
871.623	0.0152064
871.701	0.0152540
871.780	0.0152704
871.858	0.0152721
871.936	0.0153182
872.014	0.0152357
872.092	0.0152733
872.170	0.0152991
872.248	0.0152880
872.326	0.0153152
872.405	0.0153157
872.483	0.0153216
872.561	0.0152576
872.639	0.0154356
872.717	0.0152669
872.795	0.0152317
872.873	0.0153554
872.951	0.0152642
873.030	0.0152896
873.108	0.0152917
873.186	0.0152348
873.264	0.0152013
873.342	0.0153982
873.420	0.0152501
873.498	0.0153394
873.576	0.0152606
873.655	0.0153484
873.733	0.0152162
873.811	0.0151601
873.889	0.0152129
873.967	0.0151212
874.045	0.0152899
874.123	0.0152556
874.201	0.0151862
874.280	0.0152278
874.358	0.0152168
874.436	0.0152423
874.514	0.0152599
874.592	0.0151186
874.670	0.0152780
874.748	0.0152716
874.826	0.0153018
874.905	0.0151881
874.983	0.0152050
875.061	0.0153547
875.139	0.0153230
875.217	0.0154708
875.295	0.0155457
875.373	0.0154192
875.451	0.0153118
875.530	0.0153065
875.608	0.0154372
875.686	0.0154188
875.764	0.0154488
875.842	0.0153992
875.920	0.0153692
875.998	0.0155330
876.076	0.0154275
876.155	0.0153889
876.233	0.0153024
876.311	0.0154768
876.389	0.0154800
876.467	0.0153261
876.545	0.0152386
876.623	0.0152914
876.701	0.0153853
876.780	0.0154170
876.858	0.0155181
876.936	0.0154260
877.014	0.0153510
877.092	0.0153815
877.170	0.0154183
877.248	0.0152454
877.326	0.0153085
877.405	0.0152472
877.483	0.0153797
877.561	0.0153582
877.639	0.0152770
877.717	0.0153967
877.795	0.0154269
877.873	0.0154021
877.951	0.0153442
878.030	0.0154152
878.108	0.0153395
878.186	0.0152641
878.264	0.0154233
878.342	0.0154049
878.420	0.0152703
878.498	0.0153641
878.576	0.0153191
878.655	0.0154023
878.733	0.0153273
878.811	0.0153085
878.889	0.0153548
878.967	0.0152316
879.045	0.0152686
879.123	0.0152931
879.201	0.0153162
879.280	0.0153244
879.358	0.0152506
879.436	0.0151271
879.514	0.0151798
879.592	0.0152811
879.670	0.0152760
879.748	0.0153580
879.826	0.0152680
879.905	0.0152836
879.983	0.0152885
880.061	0.0152040
880.139	0.0152874
880.217	0.0152885
880.295	0.0153519
880.373	0.0152235
880.451	0.0151753
880.530	0.0153232
880.608	0.0153557
880.686	0.0153074
880.764	0.0152110
880.842	0.0153094
880.920	0.0153710
880.998	0.0152297
881.076	0.0153441
881.155	0.0153377
881.233	0.0152637
881.311	0.0152483
881.389	0.0152184
881.467	0.0152448
881.545	0.0153905
881.623	0.0153365
881.701	0.0150262
881.780	0.0150575
881.858	0.0151624
881.936	0.0152507
882.014	0.0150664
882.092	0.0149963
882.170	0.0150268
882.248	0.0150940
882.326	0.0149234
882.405	0.0150689
882.483	0.0150134
882.561	0.0150076
882.639	0.0150570
882.717	0.0150124
882.795	0.0151850
882.873	0.0150983
882.951	0.0149794
883.030	0.0152292
883.108	0.0152243
883.186	0.0150281
883.264	0.0151679
883.342	0.0152687
883.420	0.0152113
883.498	0.0151378
883.576	0.0152329
883.655	0.0152360
883.733	0.0153578
883.811	0.0153451
883.889	0.0153462
883.967	0.0153716
884.045	0.0153170
884.123	0.0152440
884.201	0.0154530
884.280	0.0152274
884.358	0.0153719
884.436	0.0153895
884.514	0.0153996
884.592	0.0152844
884.670	0.0153488
884.748	0.0152994
884.826	0.0153330
884.905	0.0154756
884.983	0.0153553
885.061	0.0153008
885.139	0.0151687
885.217	0.0152954
885.295	0.0152532
885.373	0.0151921
885.451	0.0152319
885.530	0.0152898
885.608	0.0152104
885.686	0.0151939
885.764	0.0152353
885.842	0.0152403
885.920	0.0151353
885.998	0.0151981
886.076	0.0154143
886.155	0.0152908
886.233	0.0152003
886.311	0.0152360
886.389	0.0153306
886.467	0.0151963
886.545	0.0151972
886.623	0.0152360
886.701	0.0151912
886.780	0.0153188
886.858	0.0152418
886.936	0.0151532
887.014	0.0153346
887.092	0.0152095
887.170	0.0150671
887.248	0.0152201
887.326	0.0151321
887.405	0.0152013
887.483	0.0151869
887.561	0.0150291
887.639	0.0150003
887.717	0.0152285
887.795	0.0151404
887.873	0.0150192
887.951	0.0152110
888.030	0.0151492
888.108	0.0152726
888.186	0.0152507
888.264	0.0151455
888.342	0.0151820
888.420	0.0151406
888.498	0.0152931
888.576	0.0151221
888.655	0.0152097
888.733	0.0152583
888.811	0.0151930
888.889	0.0153056
888.967	0.0151189
889.045	0.0151473
889.123	0.0150795
889.201	0.0150925
889.280	0.0150001
889.358	0.0151093
889.436	0.0152678
889.514	0.0152242
889.592	0.0151433
889.670	0.0151387
889.748	0.0153430
889.826	0.0151544
889.905	0.0150768
889.983	0.0151344
890.061	0.0151739
890.139	0.0152486
890.217	0.0152893
890.295	0.0151196
890.373	0.0150834
890.451	0.0152049
890.530	0.0150890
890.608	0.0150916
890.686	0.0150963
890.764	0.0151314
890.842	0.0152029
890.920	0.0150130
890.998	0.0150935
891.076	0.0150521
891.155	0.0151162
891.233	0.0151161
891.311	0.0151365
891.389	0.0151695
891.467	0.0150646
891.545	0.0150677
891.623	0.0151215
891.701	0.0151707
891.780	0.0151073
891.858	0.0150380
891.936	0.0150567
892.014	0.0152830
892.092	0.0151897
892.170	0.0151195
892.248	0.0151855
892.326	0.0152751
892.405	0.0151319
892.483	0.0152853
892.561	0.0152080
892.639	0.0151868
892.717	0.0151701
892.795	0.0150929
892.873	0.0152213
892.951	0.0152334
893.030	0.0151096
893.108	0.0150792
893.186	0.0150804
893.264	0.0151904
893.342	0.0150845
893.420	0.0150603
893.498	0.0151682
893.576	0.0152046
893.655	0.0151535
893.733	0.0151513
893.811	0.0151284
893.889	0.0152097
893.967	0.0151281
894.045	0.0152872
894.123	0.0151694
894.201	0.0151678
894.280	0.0151411
894.358	0.0152135
894.436	0.0151804
894.514	0.0152981
894.592	0.0151906
894.670	0.0152502
894.748	0.0152096
894.826	0.0153252
894.905	0.0152934
894.983	0.0153116
895.061	0.0151572
895.139	0.0151744
895.217	0.0152357
895.295	0.0153445
895.373	0.0153403
895.451	0.0153157
895.530	0.0152618
895.608	0.0152299
895.686	0.0152682
895.764	0.0152902
895.842	0.0151965
895.920	0.0152256
895.998	0.0151298
896.076	0.0151863
896.155	0.0152533
896.233	0.0152189
896.311	0.0152488
896.389	0.0151589
896.467	0.0152318
896.545	0.0152251
896.623	0.0152841
896.701	0.0151356
896.780	0.0152320
896.858	0.0151897
896.936	0.0151743
897.014	0.0152158
897.092	0.0153245
897.170	0.0151935
897.248	0.0153089
897.326	0.0151830
897.405	0.0152731
897.483	0.0152639
897.561	0.0154004
897.639	0.0152788
897.717	0.0152111
897.795	0.0153180
897.873	0.0153064
897.951	0.0154105
898.030	0.0153221
898.108	0.0155087
898.186	0.0154528
898.264	0.0153793
898.342	0.0155488
898.420	0.0152654
898.498	0.0153210
898.576	0.0155006
898.655	0.0154728
898.733	0.0154356
898.811	0.0154137
898.889	0.0154985
898.967	0.0153631
899.045	0.0153014
899.123	0.0154414
899.201	0.0153112
899.280	0.0153296
899.358	0.0152977
899.436	0.0152215
899.514	0.0152864
899.592	0.0152103
899.670	0.0153574
899.748	0.0154330
899.826	0.0151437
899.905	0.0152740
899.983	0.0152546
900.061	0.0153744
900.139	0.0152433
900.217	0.0152874
900.295	0.0153522
900.373	0.0153173
900.451	0.0153342
900.530	0.0152577
900.608	0.0152671
900.686	0.0153099
900.764	0.0153234
900.842	0.0154063
900.920	0.0154326
900.998	0.0152784
901.076	0.0153954
901.155	0.0153103
901.233	0.0153551
901.311	0.0153664
901.389	0.0153976
901.467	0.0155164
901.545	0.0153574
901.623	0.0153959
901.701	0.0153527
901.780	0.0155711
901.858	0.0154302
901.936	0.0154846
902.014	0.0155218
902.092	0.0154525
902.170	0.0154149
902.248	0.0155050
902.326	0.0154681
902.405	0.0155389
902.483	0.0153713
902.561	0.0153834
902.639	0.0154080
902.717	0.0153739
902.795	0.0153334
902.873	0.0153923
902.951	0.0152541
903.030	0.0152829
903.108	0.0153221
903.186	0.0153565
903.264	0.0151633
903.342	0.0150443
903.420	0.0152775
903.498	0.0152605
903.576	0.0151112
903.655	0.0150454
903.733	0.0151067
903.811	0.0152187
903.889	0.0149360
903.967	0.0150666
904.045	0.0151938
904.123	0.0151601
904.201	0.0150280
904.280	0.0150219
904.358	0.0151376
904.436	0.0149961
904.514	0.0150958
904.592	0.0151534
904.670	0.0151620
904.748	0.0152179
904.826	0.0151326
904.905	0.0151434
904.983	0.0153026
905.061	0.0151018
905.139	0.0152182
905.217	0.0152519
905.295	0.0151652
905.373	0.0152239
905.451	0.0151781
905.530	0.0152795
905.608	0.0151727
905.686	0.0153710
905.764	0.0153789
905.842	0.0153288
905.920	0.0153711
905.998	0.0153402
906.076	0.0152438
906.155	0.0153068
906.233	0.0152647
906.311	0.0153130
906.389	0.0153446
906.467	0.0152593
906.545	0.0152952
906.623	0.0153474
906.701	0.0151403
906.780	0.0152112
906.858	0.0152484
906.936	0.0152634
907.014	0.0152630
907.092	0.0151809
907.170	0.0152326
907.248	0.0151205
907.326	0.0151319
907.405	0.0150870
907.483	0.0153388
907.561	0.0152959
907.639	0.0153246
907.717	0.0151205
907.795	0.0151868
907.873	0.0151875
907.951	0.0151718
908.030	0.0151968
908.108	0.0151009
908.186	0.0152837
908.264	0.0152431
908.342	0.0152588
908.420	0.0153474
908.498	0.0152553
908.576	0.0153179
908.655	0.0151978
908.733	0.0152305
908.811	0.0150547
908.889	0.0152585
908.967	0.0152952
909.045	0.0151893
909.123	0.0152640
909.201	0.0151799
909.280	0.0153116
909.358	0.0152537
909.436	0.0152374
909.514	0.0152013
909.592	0.0153103
909.670	0.0152020
909.748	0.0152489
909.826	0.0151268
909.905	0.0151218
909.983	0.0151625
910.061	0.0152496
910.139	0.0152606
910.217	0.0152782
910.295	0.0152439
910.373	0.0153117
910.451	0.0153393
910.530	0.0153572
910.608	0.0152500
910.686	0.0152374
910.764	0.0152586
910.842	0.0153072
910.920	0.0153602
910.998	0.0152570
911.076	0.0153805
911.155	0.0153133
911.233	0.0153108
911.311	0.0152178
911.389	0.0152878
911.467	0.0152531
911.545	0.0152940
911.623	0.0151805
911.701	0.0151499
911.780	0.0152511
911.858	0.0152081
911.936	0.0152931
912.014	0.0152540
912.092	0.0151733
912.170	0.0151924
912.248	0.0152254
912.326	0.0152152
912.405	0.0152208
912.483	0.0151608
912.561	0.0151800
912.639	0.0151031
912.717	0.0151477
912.795	0.0151721
912.873	0.0151086
912.951	0.0152209
913.030	0.0151727
913.108	0.0152473
913.186	0.0151704
913.264	0.0151039
913.342	0.0152697
913.420	0.0152955
913.498	0.0152303
913.576	0.0152325
913.655	0.0152398
913.733	0.0151756
913.811	0.0153276
913.889	0.0153331
913.967	0.0153205
914.045	0.0153528
914.123	0.0153164
914.201	0.0153764
914.280	0.0154044
914.358	0.0150970
914.436	0.0152107
914.514	0.0153676
914.592	0.0153308
914.670	0.0152674
914.748	0.0152831
914.826	0.0152946
914.905	0.0154009
914.983	0.0153436
915.061	0.0153658
915.139	0.0152353
915.217	0.0152623
915.295	0.0152277
915.373	0.0151328
915.451	0.0151785
915.530	0.0151891
915.608	0.0151490
915.686	0.0152745
915.764	0.0151194
915.842	0.0151183
915.920	0.0150963
915.998	0.0150329
916.076	0.0151214
916.155	0.0150407
916.233	0.0151758
916.311	0.0152074
916.389	0.0150776
916.467	0.0150768
916.545	0.0151582
916.623	0.0150402
916.701	0.0152184
916.780	0.0151194
916.858	0.0151146
916.936	0.0151137
917.014	0.0152386
917.092	0.0151459
917.170	0.0152302
917.248	0.0152383
917.326	0.0152025
917.405	0.0152058
917.483	0.0152112
917.561	0.0152713
917.639	0.0151705
917.717	0.0153830
917.795	0.0152607
917.873	0.0152786
917.951	0.0151260
918.030	0.0152386
918.108	0.0151493
918.186	0.0152062
918.264	0.0153099
918.342	0.0152557
918.420	0.0152098
918.498	0.0152544
918.576	0.0153442
918.655	0.0152960
918.733	0.0153562
918.811	0.0152033
918.889	0.0153206
918.967	0.0153721
919.045	0.0153084
919.123	0.0153299
919.201	0.0153323
919.280	0.0153591
919.358	0.0153922
919.436	0.0153561
919.514	0.0153272
919.592	0.0153093
919.670	0.0153584
919.748	0.0154605
919.826	0.0153452
919.905	0.0153864
919.983	0.0152566
920.061	0.0154285
920.139	0.0155073
920.217	0.0154012
920.295	0.0153718
920.373	0.0154048
920.451	0.0153121
920.530	0.0153113
920.608	0.0153579
920.686	0.0152607
920.764	0.0154375
920.842	0.0153329
920.920	0.0152414
920.998	0.0152511
921.076	0.0153185
921.155	0.0153098
921.233	0.0152865
921.311	0.0152612
921.389	0.0153851
921.467	0.0154440
921.545	0.0152814
921.623	0.0153397
921.701	0.0152289
921.780	0.0153729
921.858	0.0152357
921.936	0.0153381
922.014	0.0151015
922.092	0.0152316
922.170	0.0154153
922.248	0.0152023
922.326	0.0151746
922.405	0.0151965
922.483	0.0153133
922.561	0.0151492
922.639	0.0150850
922.717	0.0151186
922.795	0.0150488
922.873	0.0149943
922.951	0.0150815
923.030	0.0150573
923.108	0.0150735
923.186	0.0151701
923.264	0.0150272
923.342	0.0149989
923.420	0.0151197
923.498	0.0150683
923.576	0.0150891
923.655	0.0151389
923.733	0.0152144
923.811	0.0151313
923.889	0.0151937
923.967	0.0151970
924.045	0.0151796
924.123	0.0152571
924.201	0.0153109
924.280	0.0153033
924.358	0.0153167
924.436	0.0152874
924.514	0.0153517
924.592	0.0151791
924.670	0.0153073
924.748	0.0153780
924.826	0.0152416
924.905	0.0152932
924.983	0.0153151
925.061	0.0152129
925.139	0.0152280
925.217	0.0153001
925.295	0.0152789
925.373	0.0153303
925.451	0.0152193
925.530	0.0152850
925.608	0.0152599
925.686	0.0152512
925.764	0.0152362
925.842	0.0152936
925.920	0.0150207
925.998	0.0151709
926.076	0.0152121
926.155	0.0151411
926.233	0.0151305
926.311	0.0152093
926.389	0.0152643
926.467	0.0151965
926.545	0.0153168
926.623	0.0154073
926.701	0.0152705
926.780	0.0153033
926.858	0.0153409
926.936	0.0152323
927.014	0.0152606
927.092	0.0153365
927.170	0.0153474
927.248	0.0153245
927.326	0.0153208
927.405	0.0152718
927.483	0.0152866
927.561	0.0153432
927.639	0.0152193
927.717	0.0153483
927.795	0.0152444
927.873	0.0154291
927.951	0.0152742
928.030	0.0153147
928.108	0.0153266
928.186	0.0152120
928.264	0.0152761
928.342	0.0152826
928.420	0.0154160
928.498	0.0152431
928.576	0.0152469
928.655	0.0153217
928.733	0.0152155
928.811	0.0152086
928.889	0.0152563
928.967	0.0152265
929.045	0.0152351
929.123	0.0152029
929.201	0.0152821
929.280	0.0152113
929.358	0.0151643
929.436	0.0152986
929.514	0.0154512
929.592	0.0153304
929.670	0.0153588
929.748	0.0152692
929.826	0.0152820
929.905	0.0152588
929.983	0.0152009
930.061	0.0153352
930.139	0.0153096
930.217	0.0153134
930.295	0.0154857
930.373	0.0152503
930.451	0.0153086
930.530	0.0153031
930.608	0.0153238
930.686	0.0151507
930.764	0.0152073
930.842	0.0153043
930.920	0.0152189
930.998	0.0152644
931.076	0.0153736
931.155	0.0151917
931.233	0.0151041
931.311	0.0150828
931.389	0.0152359
931.467	0.0151219
931.545	0.0152486
931.623	0.0153367
931.701	0.0154063
931.780	0.0151736
931.858	0.0152346
931.936	0.0152318
932.014	0.0153147
932.092	0.0153173
932.170	0.0152089
932.248	0.0152083
932.326	0.0154043
932.405	0.0152911
932.483	0.0152193
932.561	0.0151952
932.639	0.0152451
932.717	0.0152097
932.795	0.0151855
932.873	0.0153595
932.951	0.0154717
933.030	0.0151781
933.108	0.0152802
933.186	0.0153449
933.264	0.0153249
933.342	0.0152400
933.420	0.0154028
933.498	0.0153615
933.576	0.0151841
933.655	0.0153336
933.733	0.0152116
933.811	0.0152438
933.889	0.0151238
933.967	0.0152014
934.045	0.0153360
934.123	0.0152736
934.201	0.0152267
934.280	0.0151125
934.358	0.0151522
934.436	0.0151961
934.514	0.0151384
934.592	0.0152387
934.670	0.0151025
934.748	0.0150647
934.826	0.0151424
934.905	0.0151096
934.983	0.0151447
935.061	0.0152640
935.139	0.0152465
935.217	0.0150632
935.295	0.0152998
935.373	0.0153036
935.451	0.0151147
935.530	0.0151479
935.608	0.0152769
935.686	0.0151671
935.764	0.0152730
935.842	0.0152995
935.920	0.0152652
935.998	0.0153266
936.076	0.0152781
936.155	0.0153197
936.233	0.0153751
936.311	0.0153585
936.389	0.0153043
936.467	0.0152805
936.545	0.0153316
936.623	0.0154899
936.701	0.0153119
936.780	0.0155031
936.858	0.0154073
936.936	0.0152297
937.014	0.0153152
937.092	0.0152371
937.170	0.0153901
937.248	0.0154758
937.326	0.0152034
937.405	0.0152618
937.483	0.0152836
937.561	0.0154261
937.639	0.0153220
937.717	0.0151315
937.795	0.0152451
937.873	0.0154181
937.951	0.0151614
938.030	0.0153241
938.108	0.0153200
938.186	0.0152271
938.264	0.0153468
938.342	0.0153837
938.420	0.0152812
938.498	0.0152296
938.576	0.0152032
938.655	0.0151692
938.733	0.0152808
938.811	0.0151484
938.889	0.0151598
938.967	0.0152661
939.045	0.0150893
939.123	0.0152714
939.201	0.0153275
939.280	0.0151943
939.358	0.0151549
939.436	0.0151385
939.514	0.0152543
939.592	0.0153368
939.670	0.0151777
939.748	0.0153333
939.826	0.0152919
939.905	0.0151984
939.983	0.0152039
940.061	0.0151234
940.139	0.0152473
940.217	0.0151662
940.295	0.0151542
940.373	0.0151791
940.451	0.0151075
940.530	0.0152162
940.608	0.0151940
940.686	0.0150105
940.764	0.0151823
940.842	0.0152673
940.920	0.0153048
940.998	0.0151543
941.076	0.0151400
941.155	0.0152184
941.233	0.0152921
941.311	0.0152841
941.389	0.0153455
941.467	0.0152067
941.545	0.0151965
941.623	0.0155250
941.701	0.0151804
941.780	0.0152178
941.858	0.0152148
941.936	0.0152265
942.014	0.0152299
942.092	0.0153543
942.170	0.0151936
942.248	0.0152844
942.326	0.0153214
942.405	0.0152043
942.483	0.0152783
942.561	0.0152673
942.639	0.0151989
942.717	0.0152473
942.795	0.0153365
942.873	0.0152814
942.951	0.0150539
943.030	0.0151264
943.108	0.0153019
943.186	0.0151976
943.264	0.0151135
943.342	0.0152122
943.420	0.0152390
943.498	0.0151588
943.576	0.0151278
943.655	0.0152804
943.733	0.0151896
943.811	0.0151215
943.889	0.0152076
943.967	0.0152069
944.045	0.0152696
944.123	0.0150615
944.201	0.0151488
944.280	0.0150568
944.358	0.0151213
944.436	0.0150777
944.514	0.0150617
944.592	0.0150877
944.670	0.0151755
944.748	0.0150802
944.826	0.0152555
944.905	0.0150976
944.983	0.0150252
945.061	0.0150626
945.139	0.0150769
945.217	0.0150818
945.295	0.0151114
945.373	0.0150773
945.451	0.0151613
945.530	0.0152026
945.608	0.0151605
945.686	0.0152101
945.764	0.0151541
945.842	0.0151925
945.920	0.0152577
945.998	0.0152197
946.076	0.0151057
946.155	0.0151978
946.233	0.0152583
946.311	0.0152318
946.389	0.0150596
946.467	0.0151831
946.545	0.0152721
946.623	0.0154439
946.701	0.0151949
946.780	0.0152435
946.858	0.0153931
946.936	0.0152171
947.014	0.0152680
947.092	0.0152890
947.170	0.0152970
947.248	0.0150986
947.326	0.0151787
947.405	0.0150953
947.483	0.0152260
947.561	0.0150626
947.639	0.0151173
947.717	0.0152412
947.795	0.0151803
947.873	0.0150591
947.951	0.0150949
948.030	0.0151425
948.108	0.0151482
948.186	0.0150626
948.264	0.0151212
948.342	0.0151367
948.420	0.0151223
948.498	0.0152007
948.576	0.0150815
948.655	0.0151019
948.733	0.0150683
948.811	0.0151610
948.889	0.0150021
948.967	0.0149200
949.045	0.0150253
949.123	0.0151257
949.201	0.0151114
949.280	0.0150916
949.358	0.0150350
949.436	0.0151200
949.514	0.0152280
949.592	0.0152602
949.670	0.0150497
949.748	0.0151306
949.826	0.0152847
949.905	0.0153728
949.983	0.0151787
950.061	0.0151467
950.139	0.0153658
950.217	0.0153689
950.295	0.0152714
950.373	0.0152579
950.451	0.0152492
950.530	0.0152483
950.608	0.0153961
950.686	0.0153288
950.764	0.0152875
950.842	0.0154071
950.920	0.0152550
950.998	0.0153027
951.076	0.0152803
951.155	0.0152654
951.233	0.0153034
951.311	0.0154426
951.389	0.0153781
951.467	0.0152088
951.545	0.0154329
951.623	0.0152777
951.701	0.0152631
951.780	0.0153707
951.858	0.0152459
951.936	0.0151936
952.014	0.0153366
952.092	0.0152580
952.170	0.0151711
952.248	0.0151385
952.326	0.0150762
952.405	0.0150817
952.483	0.0151549
952.561	0.0152583
952.639	0.0152473
952.717	0.0151717
952.795	0.0150990
952.873	0.0152051
952.951	0.0152398
953.030	0.0151480
953.108	0.0150719
953.186	0.0151910
953.264	0.0151649
953.342	0.0151696
953.420	0.0153980
953.498	0.0150561
953.576	0.0150377
953.655	0.0149799
953.733	0.0151484
953.811	0.0151588
953.889	0.0151476
953.967	0.0150541
954.045	0.0151852
954.123	0.0150654
954.201	0.0150787
954.280	0.0150926
954.358	0.0152328
954.436	0.0151901
954.514	0.0150975
954.592	0.0150182
954.670	0.0152026
954.748	0.0151633
954.826	0.0152531
954.905	0.0151161
954.983	0.0151276
955.061	0.0152808
955.139	0.0151855
955.217	0.0152913
955.295	0.0151760
955.373	0.0152718
955.451	0.0152613
955.530	0.0153544
955.608	0.0153089
955.686	0.0152312
955.764	0.0152064
955.842	0.0154322
955.920	0.0153884
955.998	0.0153772
956.076	0.0152284
956.155	0.0153181
956.233	0.0154140
956.311	0.0153545
956.389	0.0153520
956.467	0.0154196
956.545	0.0153716
956.623	0.0152750
956.701	0.0152661
956.780	0.0153376
956.858	0.0152246
956.936	0.0153469
957.014	0.0152909
957.092	0.0151949
957.170	0.0153075
957.248	0.0151609
957.326	0.0152732
957.405	0.0151259
957.483	0.0152090
957.561	0.0151933
957.639	0.0152280
957.717	0.0151397
957.795	0.0152346
957.873	0.0152344
957.951	0.0151690
958.030	0.0154028
958.108	0.0152338
958.186	0.0151881
958.264	0.0151921
958.342	0.0151427
958.420	0.0152136
958.498	0.0153445
958.576	0.0151315
958.655	0.0152720
958.733	0.0154498
958.811	0.0152723
958.889	0.0152652
958.967	0.0150648
959.045	0.0152198
959.123	0.0153940
959.201	0.0154171
959.280	0.0152909
959.358	0.0151789
959.436	0.0153622
959.514	0.0152319
959.592	0.0153539
959.670	0.0153040
959.748	0.0151918
959.826	0.0152939
959.905	0.0152362
