05/20/2022	16:50:33	Ver.	4.1	UNKNOWN
Optical Delay	639.982744	Delta X		0.078125	Sweeps	1	Scan Rate	0/0
Coordinates	Axis 1	NaN	Axis 2	NaN	Axis 3	NaN	Axis 4	NaN	Axis 5	NaN	Axis 6	0.000000
TX Power	0.000000	RX Power	0.000000

639.983	0.0152515
640.061	0.0152027
640.139	0.0151838
640.217	0.0151798
640.295	0.0152348
640.373	0.0151575
640.451	0.0152130
640.530	0.0153630
640.608	0.0152528
640.686	0.0152263
640.764	0.0151934
640.842	0.0152837
640.920	0.0153123
640.998	0.0151797
641.076	0.0153373
641.155	0.0152670
641.233	0.0151422
641.311	0.0152634
641.389	0.0151622
641.467	0.0152106
641.545	0.0152358
641.623	0.0153031
641.701	0.0152829
641.780	0.0152686
641.858	0.0152370
641.936	0.0152276
642.014	0.0152193
642.092	0.0151341
642.170	0.0152515
642.248	0.0151694
642.326	0.0150619
642.405	0.0150608
642.483	0.0152829
642.561	0.0150765
642.639	0.0150815
642.717	0.0151189
642.795	0.0152168
642.873	0.0152168
642.951	0.0152058
643.030	0.0151933
643.108	0.0150989
643.186	0.0151739
643.264	0.0152493
643.342	0.0151135
643.420	0.0149815
643.498	0.0151378
643.576	0.0152676
643.655	0.0153263
643.733	0.0151048
643.811	0.0151280
643.889	0.0152224
643.967	0.0154185
644.045	0.0152998
644.123	0.0152768
644.201	0.0152078
644.280	0.0153013
644.358	0.0152306
644.436	0.0152244
644.514	0.0152508
644.592	0.0153199
644.670	0.0153200
644.748	0.0152440
644.826	0.0151385
644.905	0.0152706
644.983	0.0152984
645.061	0.0152928
645.139	0.0152489
645.217	0.0153804
645.295	0.0152953
645.373	0.0153536
645.451	0.0152589
645.530	0.0153419
645.608	0.0152933
645.686	0.0153574
645.764	0.0153142
645.842	0.0152378
645.920	0.0152603
645.998	0.0153510
646.076	0.0153491
646.155	0.0152670
646.233	0.0152268
646.311	0.0152921
646.389	0.0153883
646.467	0.0153707
646.545	0.0153405
646.623	0.0154122
646.701	0.0153304
646.780	0.0153598
646.858	0.0153368
646.936	0.0153050
647.014	0.0153445
647.092	0.0154091
647.170	0.0154424
647.248	0.0152419
647.326	0.0153502
647.405	0.0153326
647.483	0.0154626
647.561	0.0153117
647.639	0.0152288
647.717	0.0154542
647.795	0.0153342
647.873	0.0152973
647.951	0.0155521
648.030	0.0154540
648.108	0.0156010
648.186	0.0154350
648.264	0.0154844
648.342	0.0154863
648.420	0.0155162
648.498	0.0154913
648.576	0.0154780
648.655	0.0154421
648.733	0.0155102
648.811	0.0154404
648.889	0.0155096
648.967	0.0155341
649.045	0.0155434
649.123	0.0154843
649.201	0.0155968
649.280	0.0154633
649.358	0.0154648
649.436	0.0155365
649.514	0.0154990
649.592	0.0155354
649.670	0.0154388
649.748	0.0153999
649.826	0.0155158
649.905	0.0153573
649.983	0.0153951
650.061	0.0152801
650.139	0.0154905
650.217	0.0153214
650.295	0.0154546
650.373	0.0153690
650.451	0.0152818
650.530	0.0154085
650.608	0.0154041
650.686	0.0152333
650.764	0.0152444
650.842	0.0152952
650.920	0.0152780
650.998	0.0153333
651.076	0.0152618
651.155	0.0152885
651.233	0.0152441
651.311	0.0152953
651.389	0.0152510
651.467	0.0153255
651.545	0.0153218
651.623	0.0155626
651.701	0.0154115
651.780	0.0152216
651.858	0.0152412
651.936	0.0153699
652.014	0.0153400
652.092	0.0153017
652.170	0.0154424
652.248	0.0154602
652.326	0.0154382
652.405	0.0153937
652.483	0.0152110
652.561	0.0152388
652.639	0.0154400
652.717	0.0154025
652.795	0.0153905
652.873	0.0154333
652.951	0.0154150
653.030	0.0153690
653.108	0.0152802
653.186	0.0152177
653.264	0.0152585
653.342	0.0153397
653.420	0.0153881
653.498	0.0152859
653.576	0.0154018
653.655	0.0153840
653.733	0.0152139
653.811	0.0152935
653.889	0.0153642
653.967	0.0152522
654.045	0.0153441
654.123	0.0154406
654.201	0.0153815
654.280	0.0152607
654.358	0.0153365
654.436	0.0153724
654.514	0.0153940
654.592	0.0154878
654.670	0.0153738
654.748	0.0153989
654.826	0.0154678
654.905	0.0155357
654.983	0.0154303
655.061	0.0155282
655.139	0.0154097
655.217	0.0153673
655.295	0.0155014
655.373	0.0154687
655.451	0.0155176
655.530	0.0153709
655.608	0.0153587
655.686	0.0154575
655.764	0.0154211
655.842	0.0153221
655.920	0.0152716
655.998	0.0154240
656.076	0.0152920
656.155	0.0151618
656.233	0.0152541
656.311	0.0153869
656.389	0.0152041
656.467	0.0151831
656.545	0.0153296
656.623	0.0153766
656.701	0.0151970
656.780	0.0152621
656.858	0.0152949
656.936	0.0153125
657.014	0.0152216
657.092	0.0152694
657.170	0.0151927
657.248	0.0152588
657.326	0.0152149
657.405	0.0153008
657.483	0.0153162
657.561	0.0152192
657.639	0.0153622
657.717	0.0152405
657.795	0.0153818
657.873	0.0152299
657.951	0.0152168
658.030	0.0152517
658.108	0.0153901
658.186	0.0153086
658.264	0.0152616
658.342	0.0153294
658.420	0.0153471
658.498	0.0152695
658.576	0.0151896
658.655	0.0152791
658.733	0.0150999
658.811	0.0151419
658.889	0.0152382
658.967	0.0152287
659.045	0.0152224
659.123	0.0153210
659.201	0.0153301
659.280	0.0154369
659.358	0.0154534
659.436	0.0154005
659.514	0.0155821
659.592	0.0154100
659.670	0.0155949
659.748	0.0156268
659.826	0.0154374
659.905	0.0154361
659.983	0.0154414
660.061	0.0153048
660.139	0.0155473
660.217	0.0152509
660.295	0.0152176
660.373	0.0153775
660.451	0.0152132
660.530	0.0152352
660.608	0.0153423
660.686	0.0151939
660.764	0.0153752
660.842	0.0154006
660.920	0.0154668
660.998	0.0154612
661.076	0.0154015
661.155	0.0153416
661.233	0.0153149
661.311	0.0153456
661.389	0.0154990
661.467	0.0153889
661.545	0.0154511
661.623	0.0153234
661.701	0.0153488
661.780	0.0153806
661.858	0.0152462
661.936	0.0153002
662.014	0.0153310
662.092	0.0153230
662.170	0.0153381
662.248	0.0152254
662.326	0.0155053
662.405	0.0152776
662.483	0.0153091
662.561	0.0152744
662.639	0.0153200
662.717	0.0152763
662.795	0.0153520
662.873	0.0153046
662.951	0.0153520
663.030	0.0153673
663.108	0.0152335
663.186	0.0154027
663.264	0.0153294
663.342	0.0154174
663.420	0.0154655
663.498	0.0154680
663.576	0.0154860
663.655	0.0154846
663.733	0.0154856
663.811	0.0152799
663.889	0.0152692
663.967	0.0155779
664.045	0.0153149
664.123	0.0151495
664.201	0.0151721
664.280	0.0152607
664.358	0.0152002
664.436	0.0151189
664.514	0.0151308
664.592	0.0151595
664.670	0.0149368
664.748	0.0149823
664.826	0.0150157
664.905	0.0148974
664.983	0.0149392
665.061	0.0148642
665.139	0.0148331
665.217	0.0148855
665.295	0.0148082
665.373	0.0148938
665.451	0.0148260
665.530	0.0149317
665.608	0.0149989
665.686	0.0150213
665.764	0.0150629
665.842	0.0150808
665.920	0.0150304
665.998	0.0149815
666.076	0.0151516
666.155	0.0152667
666.233	0.0153030
666.311	0.0154004
666.389	0.0154802
666.467	0.0155499
666.545	0.0155296
666.623	0.0156299
666.701	0.0157052
666.780	0.0157974
666.858	0.0158064
666.936	0.0159991
667.014	0.0158968
667.092	0.0159608
667.170	0.0158598
667.248	0.0158987
667.326	0.0158865
667.405	0.0159505
667.483	0.0159433
667.561	0.0158307
667.639	0.0158708
667.717	0.0160249
667.795	0.0157045
667.873	0.0156953
667.951	0.0156274
668.030	0.0155917
668.108	0.0154264
668.186	0.0153108
668.264	0.0152667
668.342	0.0151186
668.420	0.0148551
668.498	0.0149083
668.576	0.0147897
668.655	0.0145958
668.733	0.0143629
668.811	0.0144054
668.889	0.0143356
668.967	0.0142260
669.045	0.0141766
669.123	0.0140728
669.201	0.0141306
669.280	0.0142574
669.358	0.0143188
669.436	0.0144392
669.514	0.0142283
669.592	0.0144534
669.670	0.0145625
669.748	0.0146924
669.826	0.0148510
669.905	0.0150489
669.983	0.0150152
670.061	0.0152455
670.139	0.0153669
670.217	0.0155242
670.295	0.0156465
670.373	0.0159303
670.451	0.0158894
670.530	0.0160520
670.608	0.0162563
670.686	0.0162159
670.764	0.0163029
670.842	0.0163572
670.920	0.0165522
670.998	0.0165605
671.076	0.0165086
671.155	0.0165079
671.233	0.0165115
671.311	0.0165201
671.389	0.0164777
671.467	0.0163856
671.545	0.0164156
671.623	0.0162181
671.701	0.0160567
671.780	0.0160150
671.858	0.0158143
671.936	0.0156525
672.014	0.0153490
672.092	0.0152036
672.170	0.0150877
672.248	0.0149590
672.326	0.0148693
672.405	0.0147756
672.483	0.0145352
672.561	0.0142667
672.639	0.0142141
672.717	0.0140450
672.795	0.0139619
672.873	0.0140247
672.951	0.0139698
673.030	0.0139703
673.108	0.0140737
673.186	0.0139845
673.264	0.0140393
673.342	0.0139371
673.420	0.0140418
673.498	0.0141777
673.576	0.0142419
673.655	0.0143673
673.733	0.0143764
673.811	0.0145701
673.889	0.0144973
673.967	0.0147274
674.045	0.0148057
674.123	0.0150406
674.201	0.0152088
674.280	0.0153661
674.358	0.0156281
674.436	0.0157130
674.514	0.0158337
674.592	0.0161136
674.670	0.0162503
674.748	0.0164785
674.826	0.0164208
674.905	0.0166058
674.983	0.0165506
675.061	0.0165955
675.139	0.0166992
675.217	0.0165732
675.295	0.0165337
675.373	0.0165184
675.451	0.0164273
675.530	0.0161511
675.608	0.0161830
675.686	0.0160450
675.764	0.0158884
675.842	0.0156516
675.920	0.0156622
675.998	0.0154087
676.076	0.0152134
676.155	0.0150588
676.233	0.0147079
676.311	0.0148286
676.389	0.0145476
676.467	0.0142275
676.545	0.0142279
676.623	0.0143120
676.701	0.0141089
676.780	0.0140828
676.858	0.0140314
676.936	0.0140179
677.014	0.0140810
677.092	0.0142863
677.170	0.0142471
677.248	0.0143110
677.326	0.0144373
677.405	0.0146862
677.483	0.0147501
677.561	0.0147970
677.639	0.0151109
677.717	0.0151501
677.795	0.0151902
677.873	0.0153387
677.951	0.0153883
678.030	0.0154260
678.108	0.0156326
678.186	0.0156778
678.264	0.0157066
678.342	0.0157695
678.420	0.0157450
678.498	0.0158170
678.576	0.0157893
678.655	0.0159763
678.733	0.0159806
678.811	0.0158315
678.889	0.0159295
678.967	0.0157415
679.045	0.0157500
679.123	0.0157079
679.201	0.0156325
679.280	0.0156469
679.358	0.0156657
679.436	0.0157086
679.514	0.0155991
679.592	0.0155605
679.670	0.0154546
679.748	0.0154544
679.826	0.0154272
679.905	0.0154352
679.983	0.0154370
680.061	0.0153642
680.139	0.0154144
680.217	0.0153877
680.295	0.0152673
680.373	0.0153918
680.451	0.0152750
680.530	0.0153462
680.608	0.0155022
680.686	0.0155920
680.764	0.0155959
680.842	0.0156366
680.920	0.0155299
680.998	0.0156874
681.076	0.0156056
681.155	0.0156572
681.233	0.0155857
681.311	0.0157404
681.389	0.0157111
681.467	0.0158768
681.545	0.0158625
681.623	0.0157318
681.701	0.0157244
681.780	0.0156933
681.858	0.0158099
681.936	0.0157413
682.014	0.0157632
682.092	0.0157106
682.170	0.0155961
682.248	0.0155695
682.326	0.0154995
682.405	0.0155011
682.483	0.0155311
682.561	0.0153204
682.639	0.0153678
682.717	0.0153371
682.795	0.0152937
682.873	0.0152213
682.951	0.0153181
683.030	0.0153490
683.108	0.0153810
683.186	0.0154082
683.264	0.0153407
683.342	0.0152829
683.420	0.0153977
683.498	0.0152572
683.576	0.0150320
683.655	0.0150979
683.733	0.0150484
683.811	0.0149422
683.889	0.0147266
683.967	0.0148835
684.045	0.0149313
684.123	0.0148176
684.201	0.0147573
684.280	0.0148755
684.358	0.0149328
684.436	0.0150370
684.514	0.0152224
684.592	0.0151640
684.670	0.0151765
684.748	0.0152764
684.826	0.0152402
684.905	0.0152930
684.983	0.0154045
685.061	0.0154124
685.139	0.0154735
685.217	0.0155145
685.295	0.0156795
685.373	0.0155414
685.451	0.0156563
685.530	0.0158401
685.608	0.0158965
685.686	0.0159832
685.764	0.0160444
685.842	0.0160780
685.920	0.0162505
685.998	0.0161285
686.076	0.0160983
686.155	0.0162130
686.233	0.0161587
686.311	0.0160921
686.389	0.0161011
686.467	0.0160508
686.545	0.0160377
686.623	0.0157648
686.701	0.0157211
686.780	0.0158663
686.858	0.0155210
686.936	0.0154646
687.014	0.0153772
687.092	0.0154870
687.170	0.0152340
687.248	0.0151293
687.326	0.0151149
687.405	0.0148846
687.483	0.0148542
687.561	0.0147672
687.639	0.0145467
687.717	0.0144809
687.795	0.0143839
687.873	0.0144038
687.951	0.0143061
688.030	0.0142042
688.108	0.0141821
688.186	0.0142519
688.264	0.0142719
688.342	0.0143655
688.420	0.0144628
688.498	0.0145088
688.576	0.0144127
688.655	0.0146226
688.733	0.0146957
688.811	0.0148422
688.889	0.0150434
688.967	0.0149324
689.045	0.0149837
689.123	0.0151406
689.201	0.0152725
689.280	0.0154256
689.358	0.0154518
689.436	0.0157864
689.514	0.0159437
689.592	0.0160405
689.670	0.0160967
689.748	0.0162693
689.826	0.0161884
689.905	0.0161697
689.983	0.0162320
690.061	0.0163274
690.139	0.0164739
690.217	0.0162560
690.295	0.0162389
690.373	0.0160686
690.451	0.0159491
690.530	0.0158421
690.608	0.0158677
690.686	0.0156746
690.764	0.0155038
690.842	0.0154360
690.920	0.0152797
690.998	0.0152172
691.076	0.0150654
691.155	0.0150097
691.233	0.0148902
691.311	0.0146573
691.389	0.0145828
691.467	0.0146041
691.545	0.0145403
691.623	0.0143559
691.701	0.0145464
691.780	0.0144788
691.858	0.0145139
691.936	0.0145125
692.014	0.0144860
692.092	0.0145706
692.170	0.0146117
692.248	0.0146781
692.326	0.0149223
692.405	0.0149081
692.483	0.0149488
692.561	0.0150316
692.639	0.0151128
692.717	0.0151390
692.795	0.0151093
692.873	0.0152735
692.951	0.0154734
693.030	0.0154548
693.108	0.0155265
693.186	0.0155814
693.264	0.0156913
693.342	0.0158273
693.420	0.0158665
693.498	0.0158016
693.576	0.0157555
693.655	0.0157155
693.733	0.0158718
693.811	0.0158621
693.889	0.0158443
693.967	0.0157619
694.045	0.0156502
694.123	0.0156128
694.201	0.0156754
694.280	0.0157218
694.358	0.0156084
694.436	0.0152829
694.514	0.0153552
694.592	0.0152984
694.670	0.0154244
694.748	0.0152557
694.826	0.0151722
694.905	0.0150241
694.983	0.0150816
695.061	0.0150948
695.139	0.0150387
695.217	0.0149049
695.295	0.0148574
695.373	0.0148235
695.451	0.0147936
695.530	0.0146840
695.608	0.0146796
695.686	0.0145720
695.764	0.0146950
695.842	0.0147958
695.920	0.0146655
695.998	0.0147366
696.076	0.0147343
696.155	0.0149388
696.233	0.0149355
696.311	0.0151615
696.389	0.0151756
696.467	0.0151505
696.545	0.0153184
696.623	0.0153179
696.701	0.0153885
696.780	0.0155521
696.858	0.0155994
696.936	0.0155370
697.014	0.0155469
697.092	0.0155610
697.170	0.0156649
697.248	0.0157388
697.326	0.0156047
697.405	0.0155840
697.483	0.0155348
697.561	0.0155667
697.639	0.0154965
697.717	0.0155080
697.795	0.0155845
697.873	0.0154778
697.951	0.0154045
698.030	0.0155409
698.108	0.0153410
698.186	0.0151562
698.264	0.0152792
698.342	0.0151460
698.420	0.0151463
698.498	0.0149940
698.576	0.0148923
698.655	0.0147770
698.733	0.0147379
698.811	0.0146891
698.889	0.0146244
698.967	0.0146288
699.045	0.0144343
699.123	0.0144649
699.201	0.0142999
699.280	0.0143780
699.358	0.0142959
699.436	0.0142575
699.514	0.0143439
699.592	0.0143037
699.670	0.0143880
699.748	0.0144979
699.826	0.0144762
699.905	0.0146718
699.983	0.0146842
700.061	0.0147652
700.139	0.0148483
700.217	0.0149164
700.295	0.0150413
700.373	0.0151740
700.451	0.0151974
700.530	0.0152969
700.608	0.0154441
700.686	0.0154824
700.764	0.0155536
700.842	0.0156722
700.920	0.0157572
700.998	0.0158099
701.076	0.0159140
701.155	0.0159784
701.233	0.0160614
701.311	0.0159908
701.389	0.0159900
701.467	0.0158410
701.545	0.0159773
701.623	0.0158436
701.701	0.0157516
701.780	0.0157189
701.858	0.0155452
701.936	0.0155206
702.014	0.0155165
702.092	0.0153346
702.170	0.0152780
702.248	0.0153469
702.326	0.0154448
702.405	0.0153907
702.483	0.0152476
702.561	0.0153414
702.639	0.0154669
702.717	0.0154676
702.795	0.0154813
702.873	0.0154815
702.951	0.0154745
703.030	0.0156042
703.108	0.0155558
703.186	0.0155527
703.264	0.0156643
703.342	0.0155513
703.420	0.0156612
703.498	0.0157226
703.576	0.0158401
703.655	0.0158118
703.733	0.0159582
703.811	0.0158650
703.889	0.0157201
703.967	0.0156392
704.045	0.0158073
704.123	0.0157642
704.201	0.0157766
704.280	0.0158867
704.358	0.0155560
704.436	0.0153995
704.514	0.0154344
704.592	0.0153162
704.670	0.0151050
704.748	0.0149776
704.826	0.0150620
704.905	0.0149955
704.983	0.0148590
705.061	0.0147738
705.139	0.0146100
705.217	0.0148314
705.295	0.0146973
705.373	0.0146152
705.451	0.0145781
705.530	0.0146901
705.608	0.0147712
705.686	0.0147944
705.764	0.0147166
705.842	0.0146335
705.920	0.0147768
705.998	0.0147768
706.076	0.0148348
706.155	0.0148293
706.233	0.0148109
706.311	0.0150487
706.389	0.0151122
706.467	0.0152554
706.545	0.0152663
706.623	0.0154678
706.701	0.0156989
706.780	0.0159198
706.858	0.0160232
706.936	0.0160324
707.014	0.0160940
707.092	0.0164076
707.170	0.0164493
707.248	0.0164341
707.326	0.0165232
707.405	0.0165408
707.483	0.0163683
707.561	0.0166290
707.639	0.0167034
707.717	0.0164952
707.795	0.0163495
707.873	0.0164964
707.951	0.0163017
708.030	0.0161423
708.108	0.0160934
708.186	0.0159647
708.264	0.0160073
708.342	0.0157742
708.420	0.0157088
708.498	0.0155191
708.576	0.0154557
708.655	0.0153367
708.733	0.0153201
708.811	0.0150610
708.889	0.0151775
708.967	0.0150372
709.045	0.0148264
709.123	0.0149099
709.201	0.0146781
709.280	0.0146064
709.358	0.0143858
709.436	0.0143803
709.514	0.0143425
709.592	0.0142518
709.670	0.0141706
709.748	0.0141266
709.826	0.0141234
709.905	0.0141445
709.983	0.0142674
710.061	0.0142840
710.139	0.0142826
710.217	0.0144880
710.295	0.0146223
710.373	0.0146048
710.451	0.0147375
710.530	0.0151144
710.608	0.0150560
710.686	0.0151538
710.764	0.0152007
710.842	0.0153892
710.920	0.0154005
710.998	0.0154308
711.076	0.0156097
711.155	0.0156799
711.233	0.0158560
711.311	0.0160246
711.389	0.0161201
711.467	0.0161512
711.545	0.0160739
711.623	0.0161825
711.701	0.0164413
711.780	0.0163930
711.858	0.0164021
711.936	0.0163468
712.014	0.0163164
712.092	0.0162820
712.170	0.0161724
712.248	0.0160895
712.326	0.0159516
712.405	0.0158917
712.483	0.0158996
712.561	0.0157259
712.639	0.0154876
712.717	0.0153888
712.795	0.0154291
712.873	0.0151739
712.951	0.0151443
713.030	0.0151105
713.108	0.0150230
713.186	0.0148454
713.264	0.0148916
713.342	0.0148425
713.420	0.0147566
713.498	0.0149151
713.576	0.0148636
713.655	0.0147852
713.733	0.0148878
713.811	0.0147293
713.889	0.0149263
713.967	0.0149415
714.045	0.0149284
714.123	0.0149298
714.201	0.0150507
714.280	0.0150994
714.358	0.0151221
714.436	0.0151417
714.514	0.0152769
714.592	0.0154469
714.670	0.0154951
714.748	0.0155920
714.826	0.0156667
714.905	0.0156367
714.983	0.0157615
715.061	0.0157236
715.139	0.0157018
715.217	0.0158322
715.295	0.0158049
715.373	0.0156426
715.451	0.0154771
715.530	0.0154548
715.608	0.0153813
715.686	0.0151402
715.764	0.0151518
715.842	0.0150623
715.920	0.0150735
715.998	0.0149159
716.076	0.0149126
716.155	0.0148213
716.233	0.0147650
716.311	0.0148204
716.389	0.0146848
716.467	0.0147038
716.545	0.0147994
716.623	0.0147858
716.701	0.0148836
716.780	0.0148947
716.858	0.0148991
716.936	0.0147338
717.014	0.0147684
717.092	0.0148232
717.170	0.0148697
717.248	0.0150730
717.326	0.0150473
717.405	0.0149467
717.483	0.0151263
717.561	0.0151157
717.639	0.0152269
717.717	0.0151447
717.795	0.0151974
717.873	0.0152171
717.951	0.0152113
718.030	0.0149733
718.108	0.0150700
718.186	0.0149976
718.264	0.0149573
718.342	0.0148459
718.420	0.0148982
718.498	0.0148347
718.576	0.0147726
718.655	0.0147648
718.733	0.0148779
718.811	0.0147668
718.889	0.0148284
718.967	0.0148493
719.045	0.0148924
719.123	0.0149006
719.201	0.0148964
719.280	0.0149627
719.358	0.0150359
719.436	0.0150988
719.514	0.0152026
719.592	0.0152810
719.670	0.0153904
719.748	0.0154085
719.826	0.0155951
719.905	0.0155470
719.983	0.0156770
720.061	0.0156364
720.139	0.0158521
720.217	0.0158838
720.295	0.0158134
720.373	0.0159286
720.451	0.0157125
720.530	0.0156902
720.608	0.0157709
720.686	0.0157701
720.764	0.0157042
720.842	0.0154946
720.920	0.0155149
720.998	0.0156618
721.076	0.0154399
721.155	0.0155062
721.233	0.0154253
721.311	0.0152793
721.389	0.0151979
721.467	0.0152045
721.545	0.0152973
721.623	0.0150311
721.701	0.0150349
721.780	0.0149926
721.858	0.0149883
721.936	0.0149540
722.014	0.0149382
722.092	0.0150599
722.170	0.0150262
722.248	0.0150817
722.326	0.0147949
722.405	0.0149771
722.483	0.0150864
722.561	0.0150305
722.639	0.0151632
722.717	0.0150934
722.795	0.0151432
722.873	0.0151045
722.951	0.0151717
723.030	0.0153497
723.108	0.0152775
723.186	0.0152180
723.264	0.0155090
723.342	0.0152805
723.420	0.0153090
723.498	0.0153392
723.576	0.0154657
723.655	0.0155228
723.733	0.0153936
723.811	0.0154342
723.889	0.0154297
723.967	0.0153082
724.045	0.0153040
724.123	0.0153394
724.201	0.0153642
724.280	0.0154109
724.358	0.0153233
724.436	0.0152798
724.514	0.0151957
724.592	0.0151513
724.670	0.0152637
724.748	0.0152381
724.826	0.0150990
724.905	0.0151053
724.983	0.0151015
725.061	0.0150561
725.139	0.0151190
725.217	0.0150878
725.295	0.0151400
725.373	0.0150394
725.451	0.0151665
725.530	0.0151445
725.608	0.0152056
725.686	0.0152403
725.764	0.0152441
725.842	0.0151082
725.920	0.0152477
725.998	0.0154453
726.076	0.0154692
726.155	0.0155229
726.233	0.0157062
726.311	0.0156564
726.389	0.0157935
726.467	0.0157660
726.545	0.0158972
726.623	0.0158935
726.701	0.0160443
726.780	0.0159880
726.858	0.0159232
726.936	0.0160000
727.014	0.0160874
727.092	0.0159650
727.170	0.0158370
727.248	0.0158668
727.326	0.0157346
727.405	0.0156976
727.483	0.0156738
727.561	0.0156209
727.639	0.0153056
727.717	0.0154735
727.795	0.0153641
727.873	0.0152716
727.951	0.0153380
728.030	0.0151721
728.108	0.0152079
728.186	0.0151809
728.264	0.0150152
728.342	0.0150368
728.420	0.0152954
728.498	0.0150037
728.576	0.0150681
728.655	0.0150504
728.733	0.0151111
728.811	0.0150130
728.889	0.0149930
728.967	0.0148267
729.045	0.0148810
729.123	0.0150081
729.201	0.0149245
729.280	0.0149086
729.358	0.0150832
729.436	0.0150700
729.514	0.0151430
729.592	0.0152973
729.670	0.0152498
729.748	0.0152735
729.826	0.0153687
729.905	0.0153809
729.983	0.0154372
730.061	0.0155714
730.139	0.0155019
730.217	0.0155022
730.295	0.0154150
730.373	0.0154024
730.451	0.0153416
730.530	0.0153560
730.608	0.0151962
730.686	0.0152338
730.764	0.0152579
730.842	0.0150736
730.920	0.0150587
730.998	0.0150623
731.076	0.0150188
731.155	0.0150012
731.233	0.0148988
731.311	0.0148970
731.389	0.0148440
731.467	0.0149586
731.545	0.0147975
731.623	0.0148035
731.701	0.0149048
731.780	0.0147926
731.858	0.0149812
731.936	0.0149993
732.014	0.0151878
732.092	0.0150214
732.170	0.0150047
732.248	0.0151963
732.326	0.0151591
732.405	0.0151505
732.483	0.0152867
732.561	0.0151906
732.639	0.0152751
732.717	0.0153660
732.795	0.0155669
732.873	0.0155421
732.951	0.0155605
733.030	0.0157278
733.108	0.0156615
733.186	0.0155820
733.264	0.0154553
733.342	0.0155775
733.420	0.0156852
733.498	0.0156484
733.576	0.0155643
733.655	0.0155910
733.733	0.0157588
733.811	0.0154699
733.889	0.0155350
733.967	0.0156742
734.045	0.0155698
734.123	0.0154299
734.201	0.0155070
734.280	0.0152798
734.358	0.0153539
734.436	0.0155225
734.514	0.0153516
734.592	0.0153261
734.670	0.0152529
734.748	0.0152070
734.826	0.0151836
734.905	0.0150817
734.983	0.0151585
735.061	0.0150906
735.139	0.0150492
735.217	0.0150894
735.295	0.0149799
735.373	0.0150570
735.451	0.0150447
735.530	0.0150600
735.608	0.0153046
735.686	0.0151575
735.764	0.0151444
735.842	0.0153633
735.920	0.0153981
735.998	0.0153951
736.076	0.0154055
736.155	0.0155865
736.233	0.0155463
736.311	0.0155325
736.389	0.0155930
736.467	0.0155050
736.545	0.0154021
736.623	0.0155022
736.701	0.0153270
736.780	0.0153330
736.858	0.0152625
736.936	0.0151935
737.014	0.0152044
737.092	0.0151840
737.170	0.0150234
737.248	0.0151705
737.326	0.0151087
737.405	0.0149876
737.483	0.0149337
737.561	0.0149023
737.639	0.0147462
737.717	0.0146879
737.795	0.0146915
737.873	0.0147511
737.951	0.0146848
738.030	0.0147598
738.108	0.0145309
738.186	0.0145386
738.264	0.0146950
738.342	0.0147432
738.420	0.0147737
738.498	0.0147400
738.576	0.0148509
738.655	0.0150027
738.733	0.0151302
738.811	0.0151387
738.889	0.0151389
738.967	0.0151972
739.045	0.0153290
739.123	0.0154017
739.201	0.0154573
739.280	0.0153381
739.358	0.0154053
739.436	0.0155699
739.514	0.0155603
739.592	0.0155778
739.670	0.0155917
739.748	0.0156890
739.826	0.0154533
739.905	0.0155450
739.983	0.0155133
740.061	0.0157669
740.139	0.0156715
740.217	0.0155676
740.295	0.0154647
740.373	0.0155756
740.451	0.0154942
740.530	0.0155716
740.608	0.0154041
740.686	0.0153937
740.764	0.0153394
740.842	0.0152549
740.920	0.0151655
740.998	0.0152410
741.076	0.0150317
741.155	0.0149943
741.233	0.0150393
741.311	0.0149953
741.389	0.0151261
741.467	0.0149455
741.545	0.0149746
741.623	0.0150871
741.701	0.0149948
741.780	0.0150008
741.858	0.0149309
741.936	0.0149314
742.014	0.0150666
742.092	0.0150921
742.170	0.0150253
742.248	0.0150317
742.326	0.0151081
742.405	0.0151613
742.483	0.0151891
742.561	0.0150898
742.639	0.0149893
742.717	0.0151083
742.795	0.0151424
742.873	0.0150597
742.951	0.0151588
743.030	0.0151921
743.108	0.0152770
743.186	0.0153729
743.264	0.0152751
743.342	0.0152920
743.420	0.0153281
743.498	0.0155017
743.576	0.0155138
743.655	0.0152843
743.733	0.0154212
743.811	0.0155385
743.889	0.0155309
743.967	0.0154749
744.045	0.0153572
744.123	0.0153797
744.201	0.0154488
744.280	0.0155037
744.358	0.0155675
744.436	0.0154376
744.514	0.0155193
744.592	0.0155321
744.670	0.0155170
744.748	0.0155640
744.826	0.0154944
744.905	0.0155157
744.983	0.0153963
745.061	0.0154549
745.139	0.0155051
745.217	0.0154362
745.295	0.0153093
745.373	0.0153762
745.451	0.0152287
745.530	0.0152408
745.608	0.0152290
745.686	0.0150948
745.764	0.0152136
745.842	0.0151997
745.920	0.0153529
745.998	0.0151249
746.076	0.0151464
746.155	0.0152914
746.233	0.0152251
746.311	0.0152630
746.389	0.0152747
746.467	0.0151029
746.545	0.0152135
746.623	0.0150700
746.701	0.0152510
746.780	0.0153763
746.858	0.0153113
746.936	0.0152180
747.014	0.0151649
747.092	0.0152270
747.170	0.0153687
747.248	0.0153445
747.326	0.0152748
747.405	0.0152893
747.483	0.0153124
747.561	0.0153106
747.639	0.0155357
747.717	0.0155121
747.795	0.0155220
747.873	0.0154937
747.951	0.0155329
748.030	0.0155069
748.108	0.0156154
748.186	0.0154919
748.264	0.0155077
748.342	0.0156604
748.420	0.0156700
748.498	0.0156071
748.576	0.0155199
748.655	0.0155207
748.733	0.0156441
748.811	0.0154894
748.889	0.0155584
748.967	0.0156097
749.045	0.0155486
749.123	0.0155640
749.201	0.0154991
749.280	0.0154334
749.358	0.0153831
749.436	0.0153667
749.514	0.0152055
749.592	0.0152174
749.670	0.0153947
749.748	0.0153531
749.826	0.0152460
749.905	0.0153872
749.983	0.0151797
750.061	0.0151736
750.139	0.0154050
750.217	0.0153368
750.295	0.0153421
750.373	0.0153675
750.451	0.0154331
750.530	0.0154261
750.608	0.0152074
750.686	0.0154168
750.764	0.0154927
750.842	0.0154346
750.920	0.0153938
750.998	0.0154263
751.076	0.0154911
751.155	0.0153439
751.233	0.0154173
751.311	0.0153893
751.389	0.0154894
751.467	0.0154458
751.545	0.0154108
751.623	0.0155763
751.701	0.0153652
751.780	0.0153400
751.858	0.0154189
751.936	0.0153894
752.014	0.0152264
752.092	0.0153462
752.170	0.0152181
752.248	0.0152673
752.326	0.0153004
752.405	0.0151795
752.483	0.0150314
752.561	0.0150372
752.639	0.0150365
752.717	0.0150394
752.795	0.0150573
752.873	0.0149576
752.951	0.0150644
753.030	0.0150393
753.108	0.0150417
753.186	0.0150037
753.264	0.0149549
753.342	0.0150832
753.420	0.0151648
753.498	0.0150942
753.576	0.0150829
753.655	0.0151624
753.733	0.0151184
753.811	0.0153239
753.889	0.0153237
753.967	0.0152672
754.045	0.0153304
754.123	0.0154527
754.201	0.0152815
754.280	0.0154871
754.358	0.0152905
754.436	0.0153934
754.514	0.0153561
754.592	0.0154440
754.670	0.0154502
754.748	0.0155296
754.826	0.0154619
754.905	0.0155560
754.983	0.0155101
755.061	0.0156290
755.139	0.0154733
755.217	0.0155997
755.295	0.0155095
755.373	0.0153651
755.451	0.0154763
755.530	0.0155483
755.608	0.0154560
755.686	0.0155183
755.764	0.0154027
755.842	0.0154610
755.920	0.0155058
755.998	0.0156071
756.076	0.0156345
756.155	0.0155638
756.233	0.0155092
756.311	0.0155115
756.389	0.0156582
756.467	0.0156190
756.545	0.0156401
756.623	0.0155711
756.701	0.0155198
756.780	0.0156203
756.858	0.0155158
756.936	0.0155131
757.014	0.0155142
757.092	0.0153881
757.170	0.0154253
757.248	0.0153239
757.326	0.0151825
757.405	0.0151122
757.483	0.0151868
757.561	0.0151977
757.639	0.0149506
757.717	0.0150288
757.795	0.0151705
757.873	0.0150180
757.951	0.0148368
758.030	0.0147040
758.108	0.0149521
758.186	0.0147496
758.264	0.0147753
758.342	0.0147852
758.420	0.0147050
758.498	0.0148127
758.576	0.0150568
758.655	0.0149828
758.733	0.0150374
758.811	0.0151229
758.889	0.0150640
758.967	0.0151368
759.045	0.0151609
759.123	0.0152636
759.201	0.0153248
759.280	0.0152181
759.358	0.0155044
759.436	0.0154721
759.514	0.0154578
759.592	0.0154243
759.670	0.0156689
759.748	0.0156705
759.826	0.0155160
759.905	0.0155479
759.983	0.0156365
760.061	0.0154825
760.139	0.0155515
760.217	0.0154564
760.295	0.0155164
760.373	0.0155771
760.451	0.0154291
760.530	0.0152499
760.608	0.0151616
760.686	0.0153399
760.764	0.0152823
760.842	0.0152366
760.920	0.0152160
760.998	0.0152498
761.076	0.0149905
761.155	0.0149882
761.233	0.0150685
761.311	0.0149429
761.389	0.0148014
761.467	0.0149130
761.545	0.0150027
761.623	0.0151251
761.701	0.0147334
761.780	0.0148898
761.858	0.0148991
761.936	0.0150318
762.014	0.0151506
762.092	0.0150993
762.170	0.0151711
762.248	0.0152290
762.326	0.0154076
762.405	0.0151379
762.483	0.0152577
762.561	0.0155765
762.639	0.0154652
762.717	0.0154075
762.795	0.0155795
762.873	0.0154374
762.951	0.0154971
763.030	0.0156752
763.108	0.0156844
763.186	0.0157243
763.264	0.0156237
763.342	0.0156513
763.420	0.0154900
763.498	0.0156588
763.576	0.0156420
763.655	0.0156493
763.733	0.0155958
763.811	0.0155590
763.889	0.0154552
763.967	0.0154968
764.045	0.0155984
764.123	0.0156652
764.201	0.0154343
764.280	0.0154021
764.358	0.0153426
764.436	0.0153841
764.514	0.0153845
764.592	0.0154211
764.670	0.0153624
764.748	0.0153519
764.826	0.0153254
764.905	0.0153207
764.983	0.0151916
765.061	0.0151923
765.139	0.0151320
765.217	0.0150816
765.295	0.0150825
765.373	0.0149639
765.451	0.0151105
765.530	0.0150769
765.608	0.0149527
765.686	0.0150636
765.764	0.0149938
765.842	0.0149023
765.920	0.0149574
765.998	0.0150156
766.076	0.0150732
766.155	0.0149506
766.233	0.0149775
766.311	0.0150936
766.389	0.0151015
766.467	0.0150562
766.545	0.0151739
766.623	0.0150561
766.701	0.0152949
766.780	0.0152470
766.858	0.0152962
766.936	0.0153355
767.014	0.0154489
767.092	0.0153505
767.170	0.0154419
767.248	0.0155225
767.326	0.0155048
767.405	0.0154823
767.483	0.0156006
767.561	0.0155769
767.639	0.0156062
767.717	0.0156282
767.795	0.0154720
767.873	0.0157659
767.951	0.0155695
768.030	0.0155415
768.108	0.0154933
768.186	0.0154295
768.264	0.0153915
768.342	0.0154121
768.420	0.0153468
768.498	0.0152847
768.576	0.0154111
768.655	0.0153551
768.733	0.0153102
768.811	0.0152074
768.889	0.0152585
768.967	0.0150952
769.045	0.0152870
769.123	0.0152604
769.201	0.0153158
769.280	0.0152886
769.358	0.0151498
769.436	0.0153040
769.514	0.0153550
769.592	0.0153240
769.670	0.0153459
769.748	0.0154520
769.826	0.0154266
769.905	0.0153978
769.983	0.0154454
770.061	0.0155668
770.139	0.0152906
770.217	0.0156194
770.295	0.0156208
770.373	0.0155204
770.451	0.0157188
770.530	0.0156692
770.608	0.0156180
770.686	0.0157613
770.764	0.0155340
770.842	0.0155247
770.920	0.0157061
770.998	0.0154836
771.076	0.0155596
771.155	0.0154687
771.233	0.0154582
771.311	0.0154302
771.389	0.0153422
771.467	0.0153567
771.545	0.0153538
771.623	0.0154967
771.701	0.0155250
771.780	0.0154987
771.858	0.0154333
771.936	0.0153901
772.014	0.0154028
772.092	0.0155052
772.170	0.0153838
772.248	0.0154891
772.326	0.0154952
772.405	0.0155175
772.483	0.0153125
772.561	0.0154715
772.639	0.0154771
772.717	0.0153414
772.795	0.0153728
772.873	0.0153772
772.951	0.0153683
773.030	0.0153745
773.108	0.0152396
773.186	0.0152419
773.264	0.0152577
773.342	0.0151215
773.420	0.0151637
773.498	0.0151324
773.576	0.0151731
773.655	0.0151437
773.733	0.0150321
773.811	0.0150490
773.889	0.0151308
773.967	0.0152914
774.045	0.0152402
774.123	0.0152358
774.201	0.0152197
774.280	0.0152481
774.358	0.0153936
774.436	0.0152711
774.514	0.0153688
774.592	0.0153320
774.670	0.0154871
774.748	0.0151591
774.826	0.0152007
774.905	0.0151718
774.983	0.0153549
775.061	0.0153410
775.139	0.0153155
775.217	0.0154467
775.295	0.0153088
775.373	0.0154033
775.451	0.0153813
775.530	0.0152485
775.608	0.0153345
775.686	0.0155239
775.764	0.0154616
775.842	0.0154475
775.920	0.0155262
775.998	0.0153979
776.076	0.0153810
776.155	0.0153512
776.233	0.0154625
776.311	0.0154372
776.389	0.0153960
776.467	0.0153172
776.545	0.0153999
776.623	0.0152802
776.701	0.0152348
776.780	0.0151393
776.858	0.0151968
776.936	0.0152122
777.014	0.0152748
777.092	0.0152413
777.170	0.0153134
777.248	0.0152469
777.326	0.0153541
777.405	0.0153956
777.483	0.0152145
777.561	0.0154839
777.639	0.0153995
777.717	0.0153618
777.795	0.0154305
777.873	0.0154305
777.951	0.0153626
778.030	0.0153684
778.108	0.0154620
778.186	0.0154536
778.264	0.0153446
778.342	0.0152877
778.420	0.0153488
778.498	0.0153379
778.576	0.0153322
778.655	0.0153542
778.733	0.0153764
778.811	0.0153161
778.889	0.0153168
778.967	0.0153786
779.045	0.0153280
779.123	0.0153479
779.201	0.0152132
779.280	0.0154300
779.358	0.0152965
779.436	0.0152889
779.514	0.0153676
779.592	0.0153320
779.670	0.0154549
779.748	0.0152731
779.826	0.0153475
779.905	0.0152896
779.983	0.0154153
780.061	0.0154794
780.139	0.0153664
780.217	0.0153360
780.295	0.0152876
780.373	0.0154462
780.451	0.0153629
780.530	0.0152964
780.608	0.0152494
780.686	0.0151971
780.764	0.0153321
780.842	0.0153278
780.920	0.0152735
780.998	0.0153587
781.076	0.0153428
781.155	0.0152832
781.233	0.0153439
781.311	0.0154070
781.389	0.0154549
781.467	0.0153512
781.545	0.0154437
781.623	0.0153658
781.701	0.0153747
781.780	0.0154127
781.858	0.0155498
781.936	0.0154113
782.014	0.0154095
782.092	0.0155370
782.170	0.0155794
782.248	0.0155589
782.326	0.0154973
782.405	0.0156343
782.483	0.0157013
782.561	0.0155782
782.639	0.0155592
782.717	0.0156511
782.795	0.0154038
782.873	0.0154595
782.951	0.0155252
783.030	0.0154650
783.108	0.0154126
783.186	0.0153496
783.264	0.0153595
783.342	0.0152969
783.420	0.0153609
783.498	0.0154738
783.576	0.0153190
783.655	0.0153898
783.733	0.0152537
783.811	0.0151626
783.889	0.0152578
783.967	0.0152622
784.045	0.0153038
784.123	0.0153009
784.201	0.0151182
784.280	0.0151657
784.358	0.0151566
784.436	0.0152651
784.514	0.0152509
784.592	0.0152266
784.670	0.0151025
784.748	0.0152460
784.826	0.0150410
784.905	0.0151968
784.983	0.0152570
785.061	0.0152720
785.139	0.0151524
785.217	0.0153677
785.295	0.0152707
785.373	0.0151269
785.451	0.0152274
785.530	0.0151979
785.608	0.0153101
785.686	0.0154163
785.764	0.0152483
785.842	0.0151913
785.920	0.0153826
785.998	0.0153637
786.076	0.0153549
786.155	0.0153325
786.233	0.0153694
786.311	0.0152972
786.389	0.0153396
786.467	0.0155447
786.545	0.0153403
786.623	0.0154349
786.701	0.0153924
786.780	0.0153867
786.858	0.0153487
786.936	0.0153685
787.014	0.0152934
787.092	0.0154482
787.170	0.0153139
787.248	0.0152760
787.326	0.0154240
787.405	0.0152677
787.483	0.0151402
787.561	0.0152401
787.639	0.0153883
787.717	0.0153117
787.795	0.0152673
787.873	0.0153870
787.951	0.0152041
788.030	0.0152890
788.108	0.0151512
788.186	0.0152726
788.264	0.0153173
788.342	0.0151812
788.420	0.0152211
788.498	0.0153294
788.576	0.0152285
788.655	0.0152227
788.733	0.0152134
788.811	0.0153268
788.889	0.0152225
788.967	0.0153355
789.045	0.0154191
789.123	0.0153241
789.201	0.0151879
789.280	0.0153334
789.358	0.0153683
789.436	0.0152982
789.514	0.0153150
789.592	0.0153437
789.670	0.0153075
789.748	0.0152625
789.826	0.0152342
789.905	0.0153042
789.983	0.0154525
790.061	0.0153748
790.139	0.0153823
790.217	0.0154564
790.295	0.0154143
790.373	0.0155283
790.451	0.0154889
790.530	0.0154906
790.608	0.0154826
790.686	0.0154584
790.764	0.0154797
790.842	0.0155020
790.920	0.0156989
790.998	0.0156165
791.076	0.0154885
791.155	0.0153597
791.233	0.0153072
791.311	0.0153487
791.389	0.0153075
791.467	0.0152299
791.545	0.0152915
791.623	0.0152542
791.701	0.0152719
791.780	0.0150672
791.858	0.0151977
791.936	0.0152905
792.014	0.0153125
792.092	0.0151077
792.170	0.0151213
792.248	0.0152798
792.326	0.0153105
792.405	0.0152297
792.483	0.0151980
792.561	0.0154360
792.639	0.0154987
792.717	0.0152326
792.795	0.0153980
792.873	0.0154457
792.951	0.0153706
793.030	0.0154550
793.108	0.0154294
793.186	0.0154641
793.264	0.0154652
793.342	0.0153890
793.420	0.0154065
793.498	0.0154090
793.576	0.0154745
793.655	0.0154924
793.733	0.0155370
793.811	0.0153979
793.889	0.0153914
793.967	0.0155171
794.045	0.0155064
794.123	0.0154736
794.201	0.0154826
794.280	0.0154788
794.358	0.0154902
794.436	0.0154025
794.514	0.0154562
794.592	0.0154086
794.670	0.0153169
794.748	0.0153905
794.826	0.0154144
794.905	0.0151859
794.983	0.0153925
795.061	0.0153730
795.139	0.0152096
795.217	0.0153353
795.295	0.0153809
795.373	0.0152376
795.451	0.0152722
795.530	0.0153657
795.608	0.0152852
795.686	0.0152148
795.764	0.0153027
795.842	0.0152040
795.920	0.0151445
795.998	0.0152003
796.076	0.0153566
796.155	0.0151509
796.233	0.0151789
796.311	0.0152019
796.389	0.0151559
796.467	0.0151846
796.545	0.0153515
796.623	0.0153486
796.701	0.0153229
796.780	0.0153300
796.858	0.0152184
796.936	0.0153072
797.014	0.0152377
797.092	0.0153242
797.170	0.0154724
797.248	0.0154448
797.326	0.0154678
797.405	0.0154338
797.483	0.0154241
797.561	0.0154189
797.639	0.0153837
797.717	0.0154198
797.795	0.0154870
797.873	0.0155215
797.951	0.0154690
798.030	0.0154485
798.108	0.0154504
798.186	0.0155249
798.264	0.0155544
798.342	0.0155847
798.420	0.0156004
798.498	0.0154848
798.576	0.0154782
798.655	0.0154388
798.733	0.0154346
798.811	0.0155922
798.889	0.0154363
798.967	0.0153817
799.045	0.0154725
799.123	0.0152924
799.201	0.0153700
799.280	0.0152634
799.358	0.0152657
799.436	0.0152994
799.514	0.0151637
799.592	0.0153076
799.670	0.0151269
799.748	0.0150626
799.826	0.0150999
799.905	0.0152837
799.983	0.0151257
800.061	0.0151514
800.139	0.0151315
800.217	0.0149614
800.295	0.0151518
800.373	0.0152257
800.451	0.0152038
800.530	0.0151189
800.608	0.0151196
800.686	0.0150527
800.764	0.0151465
800.842	0.0151052
800.920	0.0151777
800.998	0.0151168
801.076	0.0150631
801.155	0.0151059
801.233	0.0151662
801.311	0.0152548
801.389	0.0151909
801.467	0.0152316
801.545	0.0150906
801.623	0.0150600
801.701	0.0151083
801.780	0.0150011
801.858	0.0150433
801.936	0.0150883
802.014	0.0151022
802.092	0.0151889
802.170	0.0150382
802.248	0.0150555
802.326	0.0150142
802.405	0.0150092
802.483	0.0149634
802.561	0.0149522
802.639	0.0149378
802.717	0.0151264
802.795	0.0150874
802.873	0.0150166
802.951	0.0150021
803.030	0.0150037
803.108	0.0151571
803.186	0.0151587
803.264	0.0151748
803.342	0.0151866
803.420	0.0152555
803.498	0.0151617
803.576	0.0151695
803.655	0.0151283
803.733	0.0153693
803.811	0.0152287
803.889	0.0152023
803.967	0.0151931
804.045	0.0152622
804.123	0.0154349
804.201	0.0152343
804.280	0.0153076
804.358	0.0154411
804.436	0.0152927
804.514	0.0154083
804.592	0.0154182
804.670	0.0153527
804.748	0.0152661
804.826	0.0153904
804.905	0.0153822
804.983	0.0153151
805.061	0.0152688
805.139	0.0153419
805.217	0.0153009
805.295	0.0152788
805.373	0.0152441
805.451	0.0152441
805.530	0.0152694
805.608	0.0151995
805.686	0.0150876
805.764	0.0151508
805.842	0.0150446
805.920	0.0150392
805.998	0.0149988
806.076	0.0150977
806.155	0.0150962
806.233	0.0150097
806.311	0.0150426
806.389	0.0150953
806.467	0.0150744
806.545	0.0149606
806.623	0.0150542
806.701	0.0151984
806.780	0.0151328
806.858	0.0150625
806.936	0.0151295
807.014	0.0152138
807.092	0.0151588
807.170	0.0152195
807.248	0.0153087
807.326	0.0153522
807.405	0.0152695
807.483	0.0152686
807.561	0.0153590
807.639	0.0154504
807.717	0.0154736
807.795	0.0154512
807.873	0.0154290
807.951	0.0154293
808.030	0.0154099
808.108	0.0154620
808.186	0.0154219
808.264	0.0156239
808.342	0.0156515
808.420	0.0156480
808.498	0.0156170
808.576	0.0156236
808.655	0.0156364
808.733	0.0155506
808.811	0.0156759
808.889	0.0155354
808.967	0.0155798
809.045	0.0155393
809.123	0.0155329
809.201	0.0157204
809.280	0.0154873
809.358	0.0155430
809.436	0.0155281
809.514	0.0155010
809.592	0.0154038
809.670	0.0156528
809.748	0.0154871
809.826	0.0154966
809.905	0.0154425
809.983	0.0156441
810.061	0.0154568
810.139	0.0153811
810.217	0.0154124
810.295	0.0155339
810.373	0.0153773
810.451	0.0154630
810.530	0.0154511
810.608	0.0154136
810.686	0.0153543
810.764	0.0153759
810.842	0.0153242
810.920	0.0153706
810.998	0.0155204
811.076	0.0154382
811.155	0.0153952
811.233	0.0153864
811.311	0.0155193
811.389	0.0154343
811.467	0.0153902
811.545	0.0154379
811.623	0.0154402
811.701	0.0153514
811.780	0.0154934
811.858	0.0154417
811.936	0.0153669
812.014	0.0154230
812.092	0.0152979
812.170	0.0152599
812.248	0.0152966
812.326	0.0153851
812.405	0.0153964
812.483	0.0153770
812.561	0.0153544
812.639	0.0152666
812.717	0.0152959
812.795	0.0152992
812.873	0.0153146
812.951	0.0152834
813.030	0.0152586
813.108	0.0153229
813.186	0.0151823
813.264	0.0152354
813.342	0.0152363
813.420	0.0151383
813.498	0.0151136
813.576	0.0152493
813.655	0.0153588
813.733	0.0153167
813.811	0.0153812
813.889	0.0154226
813.967	0.0153037
814.045	0.0153188
814.123	0.0154190
814.201	0.0153526
814.280	0.0151917
814.358	0.0153175
814.436	0.0152545
814.514	0.0152699
814.592	0.0150903
814.670	0.0152229
814.748	0.0151500
814.826	0.0152263
814.905	0.0152344
814.983	0.0152055
815.061	0.0152316
815.139	0.0151233
815.217	0.0152705
815.295	0.0151270
815.373	0.0152804
815.451	0.0153249
815.530	0.0153659
815.608	0.0151402
815.686	0.0153514
815.764	0.0153899
815.842	0.0152454
815.920	0.0153224
815.998	0.0152208
816.076	0.0153324
816.155	0.0152640
816.233	0.0153077
816.311	0.0153944
816.389	0.0152718
816.467	0.0151756
816.545	0.0152927
816.623	0.0152797
816.701	0.0152502
816.780	0.0153055
816.858	0.0152714
816.936	0.0152750
817.014	0.0152278
817.092	0.0152284
817.170	0.0151702
817.248	0.0151892
817.326	0.0151139
817.405	0.0153178
817.483	0.0150991
817.561	0.0151654
817.639	0.0151702
817.717	0.0152226
817.795	0.0151472
817.873	0.0152249
817.951	0.0152706
818.030	0.0151421
818.108	0.0151993
818.186	0.0151455
818.264	0.0151518
818.342	0.0151922
818.420	0.0152155
818.498	0.0149807
818.576	0.0151648
818.655	0.0150222
818.733	0.0149939
818.811	0.0150685
818.889	0.0150783
818.967	0.0150658
819.045	0.0152006
819.123	0.0152077
819.201	0.0150746
819.280	0.0149636
819.358	0.0149021
819.436	0.0151170
819.514	0.0151816
819.592	0.0150861
819.670	0.0150854
819.748	0.0150991
819.826	0.0149838
819.905	0.0151363
819.983	0.0149136
820.061	0.0149918
820.139	0.0150589
820.217	0.0150848
820.295	0.0150582
820.373	0.0150267
820.451	0.0150715
820.530	0.0150975
820.608	0.0151020
820.686	0.0151653
820.764	0.0152125
820.842	0.0152025
820.920	0.0152000
820.998	0.0152470
821.076	0.0152179
821.155	0.0153286
821.233	0.0152623
821.311	0.0152016
821.389	0.0152959
821.467	0.0154213
821.545	0.0153218
821.623	0.0152583
821.701	0.0153850
821.780	0.0153478
821.858	0.0152002
821.936	0.0152789
822.014	0.0154110
822.092	0.0153506
822.170	0.0151292
822.248	0.0153857
822.326	0.0152943
822.405	0.0153299
822.483	0.0151530
822.561	0.0153190
822.639	0.0152159
822.717	0.0153053
822.795	0.0154242
822.873	0.0154842
822.951	0.0151734
823.030	0.0152818
823.108	0.0152531
823.186	0.0152952
823.264	0.0152649
823.342	0.0152353
823.420	0.0152583
823.498	0.0152666
823.576	0.0152472
823.655	0.0154028
823.733	0.0153058
823.811	0.0152528
823.889	0.0152422
823.967	0.0153699
824.045	0.0152529
824.123	0.0153671
824.201	0.0155885
824.280	0.0153375
824.358	0.0152306
824.436	0.0153856
824.514	0.0153916
824.592	0.0153909
824.670	0.0152133
824.748	0.0153253
824.826	0.0152952
824.905	0.0152849
824.983	0.0152489
825.061	0.0152573
825.139	0.0152365
825.217	0.0150734
825.295	0.0151337
825.373	0.0152052
825.451	0.0152777
825.530	0.0151508
825.608	0.0152877
825.686	0.0152792
825.764	0.0151371
825.842	0.0152286
825.920	0.0153056
825.998	0.0152252
826.076	0.0153481
826.155	0.0153237
826.233	0.0151542
826.311	0.0151705
826.389	0.0153507
826.467	0.0153928
826.545	0.0153011
826.623	0.0153188
826.701	0.0154243
826.780	0.0153654
826.858	0.0153403
826.936	0.0152708
827.014	0.0153741
827.092	0.0154829
827.170	0.0153146
827.248	0.0153349
827.326	0.0151927
827.405	0.0153497
827.483	0.0153672
827.561	0.0153147
827.639	0.0153550
827.717	0.0152417
827.795	0.0152348
827.873	0.0153908
827.951	0.0153364
828.030	0.0152748
828.108	0.0153435
828.186	0.0154266
828.264	0.0154049
828.342	0.0152764
828.420	0.0153174
828.498	0.0153480
828.576	0.0152325
828.655	0.0152982
828.733	0.0154035
828.811	0.0152673
828.889	0.0153926
828.967	0.0155209
829.045	0.0155819
829.123	0.0154827
829.201	0.0154051
829.280	0.0153276
829.358	0.0152391
829.436	0.0153831
829.514	0.0153943
829.592	0.0152821
829.670	0.0153371
829.748	0.0153034
829.826	0.0153159
829.905	0.0152365
829.983	0.0152383
830.061	0.0152273
830.139	0.0152441
830.217	0.0152593
830.295	0.0152114
830.373	0.0152359
830.451	0.0152354
830.530	0.0150917
830.608	0.0151128
830.686	0.0151727
830.764	0.0150524
830.842	0.0151592
830.920	0.0153358
830.998	0.0150948
831.076	0.0151232
831.155	0.0151908
831.233	0.0151161
831.311	0.0151835
831.389	0.0152210
831.467	0.0151779
831.545	0.0150510
831.623	0.0151508
831.701	0.0151299
831.780	0.0153835
831.858	0.0153619
831.936	0.0151215
832.014	0.0151070
832.092	0.0153119
832.170	0.0152457
832.248	0.0152576
832.326	0.0154037
832.405	0.0153107
832.483	0.0153063
832.561	0.0153165
832.639	0.0153323
832.717	0.0152428
832.795	0.0153513
832.873	0.0153085
832.951	0.0153540
833.030	0.0153396
833.108	0.0152413
833.186	0.0151274
833.264	0.0152873
833.342	0.0152737
833.420	0.0152355
833.498	0.0151953
833.576	0.0153426
833.655	0.0153808
833.733	0.0152236
833.811	0.0152456
833.889	0.0151964
833.967	0.0152302
834.045	0.0150925
834.123	0.0152395
834.201	0.0153133
834.280	0.0153221
834.358	0.0153204
834.436	0.0150927
834.514	0.0152482
834.592	0.0152513
834.670	0.0151800
834.748	0.0153237
834.826	0.0152945
834.905	0.0152715
834.983	0.0152715
835.061	0.0153382
835.139	0.0153878
835.217	0.0153059
835.295	0.0152509
835.373	0.0153684
835.451	0.0151962
835.530	0.0152850
835.608	0.0152600
835.686	0.0153329
835.764	0.0151929
835.842	0.0153971
835.920	0.0153273
835.998	0.0152611
836.076	0.0153916
836.155	0.0154156
836.233	0.0152609
836.311	0.0152883
836.389	0.0153022
836.467	0.0153824
836.545	0.0153436
836.623	0.0153796
836.701	0.0154774
836.780	0.0153667
836.858	0.0153542
836.936	0.0153437
837.014	0.0154524
837.092	0.0153867
837.170	0.0153188
837.248	0.0153755
837.326	0.0153607
837.405	0.0154449
837.483	0.0151609
837.561	0.0152196
837.639	0.0151868
837.717	0.0152657
837.795	0.0153576
837.873	0.0155217
837.951	0.0153474
838.030	0.0153994
838.108	0.0152885
838.186	0.0151832
838.264	0.0153518
838.342	0.0153322
838.420	0.0153908
838.498	0.0152455
838.576	0.0152572
838.655	0.0152357
838.733	0.0153490
838.811	0.0153465
838.889	0.0153499
838.967	0.0152277
839.045	0.0152071
839.123	0.0153198
839.201	0.0154244
839.280	0.0152515
839.358	0.0152786
839.436	0.0153891
839.514	0.0153427
839.592	0.0153410
839.670	0.0153706
839.748	0.0153365
839.826	0.0154231
839.905	0.0153934
839.983	0.0152774
840.061	0.0152899
840.139	0.0153941
840.217	0.0153484
840.295	0.0154356
840.373	0.0153011
840.451	0.0153192
840.530	0.0153500
840.608	0.0153798
840.686	0.0153195
840.764	0.0151844
840.842	0.0154068
840.920	0.0154285
840.998	0.0152910
841.076	0.0151390
841.155	0.0153139
841.233	0.0153995
841.311	0.0152927
841.389	0.0152908
841.467	0.0153413
841.545	0.0153922
841.623	0.0153085
841.701	0.0152704
841.780	0.0152029
841.858	0.0153922
841.936	0.0153574
842.014	0.0152121
842.092	0.0152654
842.170	0.0153633
842.248	0.0152502
842.326	0.0152396
842.405	0.0153416
842.483	0.0153686
842.561	0.0153143
842.639	0.0153363
842.717	0.0152048
842.795	0.0153132
842.873	0.0152891
842.951	0.0152572
843.030	0.0152087
843.108	0.0153197
843.186	0.0152699
843.264	0.0152358
843.342	0.0152591
843.420	0.0152880
843.498	0.0152563
843.576	0.0153013
843.655	0.0152080
843.733	0.0152143
843.811	0.0152209
843.889	0.0152795
843.967	0.0152242
844.045	0.0152457
844.123	0.0153386
844.201	0.0152472
844.280	0.0151159
844.358	0.0152782
844.436	0.0154440
844.514	0.0152403
844.592	0.0153252
844.670	0.0154481
844.748	0.0153072
844.826	0.0154297
844.905	0.0153117
844.983	0.0152213
845.061	0.0154215
845.139	0.0155842
845.217	0.0153593
845.295	0.0153917
845.373	0.0153598
845.451	0.0154065
845.530	0.0154643
845.608	0.0154818
845.686	0.0155261
845.764	0.0153976
845.842	0.0154646
845.920	0.0154453
845.998	0.0154624
846.076	0.0154607
846.155	0.0154059
846.233	0.0152261
846.311	0.0154578
846.389	0.0154346
846.467	0.0153214
846.545	0.0154893
846.623	0.0154687
846.701	0.0154369
846.780	0.0153129
846.858	0.0152772
846.936	0.0153682
847.014	0.0153867
847.092	0.0153104
847.170	0.0153558
847.248	0.0152359
847.326	0.0154852
847.405	0.0153225
847.483	0.0152920
847.561	0.0153481
847.639	0.0153513
847.717	0.0152431
847.795	0.0153360
847.873	0.0152984
847.951	0.0152800
848.030	0.0153769
848.108	0.0153381
848.186	0.0151853
848.264	0.0153250
848.342	0.0153250
848.420	0.0153629
848.498	0.0152454
848.576	0.0153648
848.655	0.0153597
848.733	0.0152711
848.811	0.0152989
848.889	0.0152341
848.967	0.0150959
849.045	0.0152146
849.123	0.0153580
849.201	0.0153479
849.280	0.0153063
849.358	0.0153452
849.436	0.0153777
849.514	0.0152991
849.592	0.0153580
849.670	0.0154404
849.748	0.0153751
849.826	0.0153308
849.905	0.0153732
849.983	0.0152789
850.061	0.0153852
850.139	0.0154227
850.217	0.0153611
850.295	0.0152489
850.373	0.0154480
850.451	0.0153952
850.530	0.0154681
850.608	0.0154833
850.686	0.0153772
850.764	0.0154202
850.842	0.0153796
850.920	0.0155016
850.998	0.0153455
851.076	0.0155162
851.155	0.0155135
851.233	0.0155404
851.311	0.0155545
851.389	0.0155897
851.467	0.0153376
851.545	0.0155070
851.623	0.0153599
851.701	0.0154539
851.780	0.0155118
851.858	0.0154631
851.936	0.0153175
852.014	0.0154198
852.092	0.0154906
852.170	0.0154131
852.248	0.0154852
852.326	0.0155060
852.405	0.0154087
852.483	0.0154619
852.561	0.0154685
852.639	0.0153746
852.717	0.0152555
852.795	0.0154993
852.873	0.0153644
852.951	0.0153641
853.030	0.0154114
853.108	0.0153794
853.186	0.0153572
853.264	0.0153532
853.342	0.0153924
853.420	0.0152055
853.498	0.0152908
853.576	0.0154771
853.655	0.0152444
853.733	0.0152521
853.811	0.0153071
853.889	0.0153404
853.967	0.0152340
854.045	0.0153045
854.123	0.0151891
854.201	0.0153006
854.280	0.0152119
854.358	0.0152942
854.436	0.0152743
854.514	0.0152827
854.592	0.0151011
854.670	0.0153265
854.748	0.0152364
854.826	0.0151664
854.905	0.0152523
854.983	0.0151154
855.061	0.0152671
855.139	0.0151871
855.217	0.0151107
855.295	0.0152349
855.373	0.0152592
855.451	0.0151881
855.530	0.0150901
855.608	0.0152048
855.686	0.0152064
855.764	0.0150607
855.842	0.0151598
855.920	0.0151437
855.998	0.0151171
856.076	0.0151855
856.155	0.0152384
856.233	0.0151239
856.311	0.0151230
856.389	0.0152211
856.467	0.0152048
856.545	0.0151884
856.623	0.0151604
856.701	0.0152670
856.780	0.0151943
856.858	0.0150031
856.936	0.0153492
857.014	0.0153882
857.092	0.0152322
857.170	0.0152315
857.248	0.0153979
857.326	0.0153073
857.405	0.0151229
857.483	0.0153835
857.561	0.0151954
857.639	0.0151187
857.717	0.0152678
857.795	0.0153386
857.873	0.0152724
857.951	0.0152779
858.030	0.0152608
858.108	0.0153902
858.186	0.0151823
858.264	0.0152322
858.342	0.0152152
858.420	0.0153008
858.498	0.0153294
858.576	0.0153268
858.655	0.0152515
858.733	0.0152415
858.811	0.0154975
858.889	0.0153575
858.967	0.0154131
859.045	0.0153001
859.123	0.0154466
859.201	0.0153570
859.280	0.0153757
859.358	0.0153557
859.436	0.0154016
859.514	0.0152557
859.592	0.0153780
859.670	0.0154318
859.748	0.0152841
859.826	0.0154105
859.905	0.0154722
859.983	0.0154007
860.061	0.0154387
860.139	0.0154339
860.217	0.0152849
860.295	0.0153119
860.373	0.0151930
860.451	0.0153981
860.530	0.0151889
860.608	0.0152757
860.686	0.0153460
860.764	0.0153799
860.842	0.0153348
860.920	0.0152352
860.998	0.0151647
861.076	0.0152959
861.155	0.0151978
861.233	0.0151711
861.311	0.0151910
861.389	0.0152356
861.467	0.0150632
861.545	0.0151471
861.623	0.0152192
861.701	0.0151868
861.780	0.0152744
861.858	0.0151659
861.936	0.0152444
862.014	0.0152682
862.092	0.0152507
862.170	0.0152382
862.248	0.0152157
862.326	0.0151705
862.405	0.0151772
862.483	0.0152048
862.561	0.0152541
862.639	0.0153330
862.717	0.0153250
862.795	0.0152395
862.873	0.0152031
862.951	0.0152042
863.030	0.0151681
863.108	0.0151813
863.186	0.0152691
863.264	0.0152687
863.342	0.0153619
863.420	0.0151904
863.498	0.0152587
863.576	0.0151648
863.655	0.0152061
863.733	0.0152188
863.811	0.0152953
863.889	0.0152044
863.967	0.0153131
864.045	0.0152676
864.123	0.0152474
864.201	0.0151501
864.280	0.0152968
864.358	0.0151756
864.436	0.0153539
864.514	0.0152866
864.592	0.0152521
864.670	0.0153223
864.748	0.0153353
864.826	0.0152029
864.905	0.0152491
864.983	0.0153209
865.061	0.0152263
865.139	0.0152601
865.217	0.0153236
865.295	0.0151865
865.373	0.0152759
865.451	0.0153062
865.530	0.0152459
865.608	0.0152823
865.686	0.0151844
865.764	0.0152191
865.842	0.0152204
865.920	0.0152909
865.998	0.0153758
866.076	0.0152908
866.155	0.0153254
866.233	0.0154389
866.311	0.0153805
866.389	0.0153738
866.467	0.0153477
866.545	0.0154152
866.623	0.0153265
866.701	0.0153365
866.780	0.0153282
866.858	0.0153763
866.936	0.0153159
867.014	0.0152837
867.092	0.0153465
867.170	0.0154160
867.248	0.0154348
867.326	0.0153587
867.405	0.0154150
867.483	0.0154816
867.561	0.0154021
867.639	0.0153835
867.717	0.0152897
867.795	0.0155039
867.873	0.0154291
867.951	0.0153639
868.030	0.0154116
868.108	0.0153904
868.186	0.0154871
868.264	0.0154990
868.342	0.0155822
868.420	0.0154550
868.498	0.0155627
868.576	0.0155077
868.655	0.0155831
868.733	0.0154105
868.811	0.0154783
868.889	0.0155656
868.967	0.0154775
869.045	0.0156361
869.123	0.0156378
869.201	0.0155396
869.280	0.0155402
869.358	0.0154140
869.436	0.0156190
869.514	0.0155045
869.592	0.0155798
869.670	0.0154649
869.748	0.0153961
869.826	0.0154432
869.905	0.0153686
869.983	0.0153303
870.061	0.0152905
870.139	0.0154347
870.217	0.0154047
870.295	0.0154236
870.373	0.0152288
870.451	0.0154115
870.530	0.0154897
870.608	0.0152741
870.686	0.0152934
870.764	0.0152933
870.842	0.0154930
870.920	0.0154124
870.998	0.0153059
871.076	0.0154333
871.155	0.0154569
871.233	0.0152899
871.311	0.0154445
871.389	0.0154417
871.467	0.0155452
871.545	0.0154745
871.623	0.0154275
871.701	0.0153651
871.780	0.0154553
871.858	0.0154543
871.936	0.0153906
872.014	0.0154097
872.092	0.0154631
872.170	0.0154068
872.248	0.0154216
872.326	0.0153217
872.405	0.0153900
872.483	0.0156150
872.561	0.0155149
872.639	0.0154606
872.717	0.0153939
872.795	0.0153205
872.873	0.0154770
872.951	0.0152673
873.030	0.0154933
873.108	0.0153371
873.186	0.0153220
873.264	0.0154024
873.342	0.0153072
873.420	0.0153728
873.498	0.0151995
873.576	0.0153676
873.655	0.0153415
873.733	0.0152993
873.811	0.0152402
873.889	0.0152332
873.967	0.0154268
874.045	0.0152748
874.123	0.0152579
874.201	0.0154004
874.280	0.0152373
874.358	0.0153781
874.436	0.0151999
874.514	0.0152448
874.592	0.0152617
874.670	0.0152938
874.748	0.0153069
874.826	0.0153381
874.905	0.0154176
874.983	0.0154195
875.061	0.0154356
875.139	0.0153531
875.217	0.0154314
875.295	0.0154185
875.373	0.0153928
875.451	0.0154002
875.530	0.0151263
875.608	0.0153510
875.686	0.0152561
875.764	0.0151823
875.842	0.0151969
875.920	0.0151940
875.998	0.0153101
876.076	0.0151725
876.155	0.0152290
876.233	0.0153812
876.311	0.0154022
876.389	0.0152728
876.467	0.0154028
876.545	0.0152448
876.623	0.0152386
876.701	0.0153056
876.780	0.0152515
876.858	0.0151537
876.936	0.0153168
877.014	0.0151884
877.092	0.0151579
877.170	0.0152709
877.248	0.0152190
877.326	0.0151508
877.405	0.0151939
877.483	0.0151507
877.561	0.0152448
877.639	0.0153619
877.717	0.0153046
877.795	0.0152232
877.873	0.0152057
877.951	0.0152700
878.030	0.0152786
878.108	0.0152719
878.186	0.0152090
878.264	0.0152148
878.342	0.0152013
878.420	0.0152737
878.498	0.0153146
878.576	0.0153600
878.655	0.0152213
878.733	0.0153161
878.811	0.0153221
878.889	0.0152986
878.967	0.0152178
879.045	0.0152677
879.123	0.0153217
879.201	0.0152913
879.280	0.0152683
879.358	0.0152187
879.436	0.0153089
879.514	0.0154056
879.592	0.0152916
879.670	0.0153202
879.748	0.0154115
879.826	0.0152454
879.905	0.0152920
879.983	0.0153594
880.061	0.0154551
880.139	0.0153619
880.217	0.0152122
880.295	0.0152431
880.373	0.0154356
880.451	0.0153799
880.530	0.0154591
880.608	0.0154061
880.686	0.0152723
880.764	0.0153245
880.842	0.0153716
880.920	0.0155043
880.998	0.0152421
881.076	0.0153976
881.155	0.0153744
881.233	0.0152802
881.311	0.0152625
881.389	0.0153273
881.467	0.0154478
881.545	0.0152543
881.623	0.0152830
881.701	0.0153096
881.780	0.0151267
881.858	0.0151447
881.936	0.0151506
882.014	0.0150995
882.092	0.0151535
882.170	0.0152215
882.248	0.0150780
882.326	0.0150909
882.405	0.0151339
882.483	0.0152200
882.561	0.0151753
882.639	0.0152390
882.717	0.0151266
882.795	0.0150414
882.873	0.0153062
882.951	0.0152089
883.030	0.0151067
883.108	0.0152839
883.186	0.0152211
883.264	0.0151368
883.342	0.0151192
883.420	0.0152785
883.498	0.0152129
883.576	0.0151966
883.655	0.0152342
883.733	0.0152320
883.811	0.0152209
883.889	0.0153190
883.967	0.0152340
884.045	0.0153246
884.123	0.0152330
884.201	0.0152070
884.280	0.0153300
884.358	0.0151573
884.436	0.0152869
884.514	0.0153918
884.592	0.0153130
884.670	0.0152554
884.748	0.0152499
884.826	0.0151912
884.905	0.0152692
884.983	0.0153227
885.061	0.0152208
885.139	0.0152338
885.217	0.0150947
885.295	0.0152396
885.373	0.0152028
885.451	0.0151830
885.530	0.0152857
885.608	0.0151845
885.686	0.0152379
885.764	0.0152654
885.842	0.0152234
885.920	0.0152626
885.998	0.0152887
886.076	0.0151167
886.155	0.0151192
886.233	0.0152337
886.311	0.0150611
886.389	0.0151556
886.467	0.0149888
886.545	0.0153043
886.623	0.0151976
886.701	0.0150951
886.780	0.0151030
886.858	0.0152992
886.936	0.0152981
887.014	0.0152447
887.092	0.0150986
887.170	0.0151579
887.248	0.0150069
887.326	0.0150946
887.405	0.0151070
887.483	0.0151685
887.561	0.0152802
887.639	0.0151440
887.717	0.0152007
887.795	0.0152850
887.873	0.0153300
887.951	0.0152672
888.030	0.0151783
888.108	0.0153411
888.186	0.0151732
888.264	0.0152390
888.342	0.0151969
888.420	0.0152270
888.498	0.0153806
888.576	0.0152720
888.655	0.0151259
888.733	0.0150936
888.811	0.0153571
888.889	0.0151556
888.967	0.0152071
889.045	0.0151949
889.123	0.0152306
889.201	0.0151680
889.280	0.0152167
889.358	0.0152085
889.436	0.0152561
889.514	0.0152110
889.592	0.0151998
889.670	0.0151911
889.748	0.0152100
889.826	0.0152806
889.905	0.0152429
889.983	0.0152603
890.061	0.0151634
890.139	0.0153703
890.217	0.0153239
890.295	0.0151907
890.373	0.0151826
890.451	0.0153118
890.530	0.0152935
890.608	0.0152755
890.686	0.0153314
890.764	0.0153959
890.842	0.0153702
890.920	0.0153013
890.998	0.0152401
891.076	0.0153481
891.155	0.0153342
891.233	0.0152592
891.311	0.0152419
891.389	0.0153107
891.467	0.0153989
891.545	0.0153603
891.623	0.0153716
891.701	0.0154617
891.780	0.0153616
891.858	0.0154067
891.936	0.0154057
892.014	0.0155172
892.092	0.0154798
892.170	0.0156159
892.248	0.0153842
892.326	0.0153832
892.405	0.0154599
892.483	0.0154628
892.561	0.0155175
892.639	0.0155545
892.717	0.0155829
892.795	0.0156208
892.873	0.0156564
892.951	0.0154383
893.030	0.0155131
893.108	0.0155995
893.186	0.0155445
893.264	0.0155344
893.342	0.0154902
893.420	0.0154487
893.498	0.0153901
893.576	0.0154439
893.655	0.0156202
893.733	0.0155927
893.811	0.0155006
893.889	0.0154085
893.967	0.0156132
894.045	0.0154472
894.123	0.0155875
894.201	0.0155414
894.280	0.0155170
894.358	0.0154238
894.436	0.0155077
894.514	0.0155025
894.592	0.0156242
894.670	0.0153696
894.748	0.0154895
894.826	0.0155087
894.905	0.0154243
894.983	0.0155128
895.061	0.0155355
895.139	0.0154798
895.217	0.0155186
895.295	0.0155442
895.373	0.0155092
895.451	0.0154821
895.530	0.0155461
895.608	0.0155479
895.686	0.0155350
895.764	0.0153305
895.842	0.0155115
895.920	0.0153887
895.998	0.0155286
896.076	0.0154486
896.155	0.0154551
896.233	0.0153828
896.311	0.0153200
896.389	0.0152190
896.467	0.0153479
896.545	0.0152357
896.623	0.0152869
896.701	0.0152804
896.780	0.0151189
896.858	0.0152975
896.936	0.0152295
897.014	0.0152892
897.092	0.0151601
897.170	0.0152928
897.248	0.0152243
897.326	0.0151128
897.405	0.0151840
897.483	0.0152913
897.561	0.0152660
897.639	0.0150358
897.717	0.0152169
897.795	0.0153255
897.873	0.0151952
897.951	0.0152330
898.030	0.0152165
898.108	0.0153016
898.186	0.0153339
898.264	0.0152916
898.342	0.0153448
898.420	0.0152021
898.498	0.0153118
898.576	0.0151968
898.655	0.0152826
898.733	0.0153161
898.811	0.0152164
898.889	0.0153284
898.967	0.0152548
899.045	0.0151873
899.123	0.0153518
899.201	0.0153479
899.280	0.0154231
899.358	0.0152725
899.436	0.0153181
899.514	0.0153200
899.592	0.0153223
899.670	0.0153427
899.748	0.0152397
899.826	0.0152256
899.905	0.0153730
899.983	0.0152399
900.061	0.0151511
900.139	0.0153535
900.217	0.0153432
900.295	0.0153857
900.373	0.0152686
900.451	0.0152842
900.530	0.0153181
900.608	0.0153709
900.686	0.0156098
900.764	0.0152897
900.842	0.0154790
900.920	0.0155079
900.998	0.0153886
901.076	0.0153652
901.155	0.0154112
901.233	0.0154797
901.311	0.0154018
901.389	0.0152598
901.467	0.0153368
901.545	0.0152547
901.623	0.0153555
901.701	0.0156067
901.780	0.0153600
901.858	0.0153206
901.936	0.0152921
902.014	0.0153782
902.092	0.0154642
902.170	0.0155635
902.248	0.0153871
902.326	0.0153274
902.405	0.0153395
902.483	0.0154955
902.561	0.0154183
902.639	0.0154547
902.717	0.0153159
902.795	0.0153243
902.873	0.0153884
902.951	0.0153364
903.030	0.0153058
903.108	0.0152558
903.186	0.0153702
903.264	0.0154683
903.342	0.0152663
903.420	0.0153558
903.498	0.0154648
903.576	0.0153501
903.655	0.0152856
903.733	0.0152329
903.811	0.0153156
903.889	0.0152863
903.967	0.0152248
904.045	0.0152854
904.123	0.0152971
904.201	0.0152782
904.280	0.0152980
904.358	0.0152590
904.436	0.0151683
904.514	0.0152891
904.592	0.0152592
904.670	0.0151816
904.748	0.0151720
904.826	0.0151077
904.905	0.0152193
904.983	0.0153297
905.061	0.0151790
905.139	0.0152287
905.217	0.0152484
905.295	0.0152935
905.373	0.0153060
905.451	0.0152063
905.530	0.0152783
905.608	0.0153411
905.686	0.0152003
905.764	0.0153375
905.842	0.0153391
905.920	0.0153751
905.998	0.0153606
906.076	0.0153292
906.155	0.0152568
906.233	0.0152434
906.311	0.0152647
906.389	0.0153882
906.467	0.0153423
906.545	0.0154220
906.623	0.0153032
906.701	0.0154153
906.780	0.0153674
906.858	0.0153189
906.936	0.0153364
907.014	0.0151917
907.092	0.0152272
907.170	0.0152267
907.248	0.0153254
907.326	0.0151688
907.405	0.0151869
907.483	0.0153043
907.561	0.0152373
907.639	0.0152170
907.717	0.0152979
907.795	0.0151479
907.873	0.0152577
907.951	0.0151441
908.030	0.0152418
908.108	0.0153325
908.186	0.0151906
908.264	0.0152384
908.342	0.0152605
908.420	0.0151665
908.498	0.0152427
908.576	0.0152851
908.655	0.0152164
908.733	0.0152848
908.811	0.0153635
908.889	0.0152528
908.967	0.0152589
909.045	0.0153272
909.123	0.0152780
909.201	0.0153166
909.280	0.0152895
909.358	0.0150971
909.436	0.0153362
909.514	0.0151914
909.592	0.0151510
909.670	0.0152316
909.748	0.0152045
909.826	0.0152075
909.905	0.0152602
909.983	0.0152303
910.061	0.0152291
910.139	0.0151116
910.217	0.0152731
910.295	0.0153210
910.373	0.0151116
910.451	0.0151790
910.530	0.0153958
910.608	0.0153154
910.686	0.0152582
910.764	0.0151743
910.842	0.0153648
910.920	0.0153195
910.998	0.0153359
911.076	0.0152203
911.155	0.0151828
911.233	0.0153068
911.311	0.0153842
911.389	0.0153220
911.467	0.0153910
911.545	0.0153978
911.623	0.0153689
911.701	0.0152396
911.780	0.0153903
911.858	0.0153542
911.936	0.0153855
912.014	0.0152188
912.092	0.0153137
912.170	0.0153901
912.248	0.0152782
912.326	0.0152221
912.405	0.0151028
912.483	0.0152808
912.561	0.0152916
912.639	0.0152708
912.717	0.0152177
912.795	0.0151601
912.873	0.0153667
912.951	0.0152228
913.030	0.0152094
913.108	0.0153793
913.186	0.0153161
913.264	0.0154046
913.342	0.0153571
913.420	0.0152271
913.498	0.0153129
913.576	0.0153215
913.655	0.0155080
913.733	0.0154002
913.811	0.0152372
913.889	0.0152116
913.967	0.0153202
914.045	0.0154397
914.123	0.0153292
914.201	0.0154489
914.280	0.0154129
914.358	0.0153513
914.436	0.0154015
914.514	0.0154938
914.592	0.0153182
914.670	0.0154466
914.748	0.0155819
914.826	0.0154379
914.905	0.0153004
914.983	0.0154497
915.061	0.0153345
915.139	0.0152231
915.217	0.0152616
915.295	0.0154176
915.373	0.0153749
915.451	0.0154838
915.530	0.0152383
915.608	0.0151994
915.686	0.0154137
915.764	0.0153960
915.842	0.0152151
915.920	0.0152483
915.998	0.0152156
916.076	0.0152296
916.155	0.0152479
916.233	0.0152441
916.311	0.0151819
916.389	0.0151730
916.467	0.0153302
916.545	0.0151279
916.623	0.0151521
916.701	0.0152352
916.780	0.0151968
916.858	0.0151401
916.936	0.0151382
917.014	0.0152176
917.092	0.0151885
917.170	0.0151231
917.248	0.0150985
917.326	0.0152094
917.405	0.0151628
917.483	0.0152515
917.561	0.0152230
917.639	0.0152682
917.717	0.0150713
917.795	0.0152844
917.873	0.0151105
917.951	0.0151567
918.030	0.0151974
918.108	0.0150733
918.186	0.0153580
918.264	0.0152728
918.342	0.0151863
918.420	0.0151258
918.498	0.0153136
918.576	0.0150947
918.655	0.0151208
918.733	0.0152637
918.811	0.0153061
918.889	0.0152499
918.967	0.0152562
919.045	0.0151642
919.123	0.0153168
919.201	0.0153443
919.280	0.0153075
919.358	0.0153214
919.436	0.0152395
919.514	0.0152962
919.592	0.0154149
919.670	0.0151762
919.748	0.0153545
919.826	0.0153271
919.905	0.0153207
919.983	0.0153096
920.061	0.0153050
920.139	0.0154099
920.217	0.0153959
920.295	0.0154547
920.373	0.0154350
920.451	0.0154766
920.530	0.0154935
920.608	0.0154451
920.686	0.0152949
920.764	0.0154904
920.842	0.0153784
920.920	0.0154246
920.998	0.0154948
921.076	0.0154607
921.155	0.0155635
921.233	0.0155025
921.311	0.0155282
921.389	0.0154861
921.467	0.0155073
921.545	0.0155014
921.623	0.0155811
921.701	0.0156401
921.780	0.0154369
921.858	0.0154780
921.936	0.0154995
922.014	0.0154789
922.092	0.0154343
922.170	0.0154555
922.248	0.0156153
922.326	0.0154990
922.405	0.0154453
922.483	0.0155127
922.561	0.0154789
922.639	0.0153883
922.717	0.0152934
922.795	0.0153066
922.873	0.0153339
922.951	0.0151761
923.030	0.0152209
923.108	0.0151997
923.186	0.0151971
923.264	0.0154292
923.342	0.0153226
923.420	0.0153004
923.498	0.0153760
923.576	0.0155550
923.655	0.0153625
923.733	0.0153075
923.811	0.0153445
923.889	0.0153202
923.967	0.0155261
924.045	0.0154107
924.123	0.0154636
924.201	0.0154596
924.280	0.0153969
924.358	0.0153933
924.436	0.0155800
924.514	0.0155165
924.592	0.0154493
924.670	0.0154761
924.748	0.0155379
924.826	0.0154682
924.905	0.0154783
924.983	0.0156483
925.061	0.0156055
925.139	0.0154884
925.217	0.0154321
925.295	0.0154566
925.373	0.0155290
925.451	0.0154680
925.530	0.0155547
925.608	0.0153855
925.686	0.0153803
925.764	0.0153529
925.842	0.0155135
925.920	0.0153764
925.998	0.0153840
926.076	0.0152724
926.155	0.0154166
926.233	0.0153986
926.311	0.0154568
926.389	0.0153407
926.467	0.0153436
926.545	0.0154564
926.623	0.0152911
926.701	0.0153238
926.780	0.0153194
926.858	0.0152066
926.936	0.0152927
927.014	0.0153587
927.092	0.0153786
927.170	0.0151905
927.248	0.0152554
927.326	0.0153363
927.405	0.0153343
927.483	0.0153876
927.561	0.0153714
927.639	0.0154704
927.717	0.0153761
927.795	0.0153262
927.873	0.0153130
927.951	0.0154150
928.030	0.0152953
928.108	0.0152960
928.186	0.0153606
928.264	0.0154069
928.342	0.0153271
928.420	0.0153423
928.498	0.0153321
928.576	0.0153165
928.655	0.0153482
928.733	0.0152102
928.811	0.0152568
928.889	0.0153127
928.967	0.0151094
929.045	0.0151919
929.123	0.0152259
929.201	0.0151640
929.280	0.0151748
929.358	0.0150900
929.436	0.0151003
929.514	0.0151893
929.592	0.0151643
929.670	0.0152054
929.748	0.0151104
929.826	0.0152216
929.905	0.0152110
929.983	0.0151669
930.061	0.0151741
930.139	0.0153101
930.217	0.0152442
930.295	0.0151167
930.373	0.0151884
930.451	0.0153677
930.530	0.0153934
930.608	0.0152621
930.686	0.0153105
930.764	0.0154206
930.842	0.0154198
930.920	0.0152652
930.998	0.0154305
931.076	0.0154366
931.155	0.0152564
931.233	0.0151973
931.311	0.0152754
931.389	0.0153369
931.467	0.0154433
931.545	0.0153486
931.623	0.0152708
931.701	0.0154119
931.780	0.0153510
931.858	0.0153416
931.936	0.0152856
932.014	0.0153172
932.092	0.0153279
932.170	0.0153514
932.248	0.0153792
932.326	0.0151787
932.405	0.0153848
932.483	0.0152737
932.561	0.0153933
932.639	0.0154298
932.717	0.0152454
932.795	0.0153231
932.873	0.0153061
932.951	0.0151855
933.030	0.0151866
933.108	0.0153340
933.186	0.0153473
933.264	0.0152917
933.342	0.0152699
933.420	0.0152470
933.498	0.0152761
933.576	0.0152306
933.655	0.0152270
933.733	0.0153261
933.811	0.0152073
933.889	0.0152127
933.967	0.0153419
934.045	0.0151335
934.123	0.0151893
934.201	0.0151170
934.280	0.0151447
934.358	0.0152763
934.436	0.0152219
934.514	0.0153281
934.592	0.0151559
934.670	0.0151788
934.748	0.0152269
934.826	0.0152161
934.905	0.0153083
934.983	0.0150618
935.061	0.0152515
935.139	0.0152075
935.217	0.0153710
935.295	0.0153161
935.373	0.0151902
935.451	0.0152621
935.530	0.0152959
935.608	0.0151503
935.686	0.0152535
935.764	0.0153386
935.842	0.0152814
935.920	0.0152610
935.998	0.0152401
936.076	0.0152425
936.155	0.0152782
936.233	0.0152418
936.311	0.0153456
936.389	0.0153706
936.467	0.0153094
936.545	0.0153218
936.623	0.0155135
936.701	0.0152668
936.780	0.0154764
936.858	0.0152534
936.936	0.0154419
937.014	0.0153389
937.092	0.0154057
937.170	0.0153765
937.248	0.0153598
937.326	0.0154181
937.405	0.0152496
937.483	0.0151444
937.561	0.0152615
937.639	0.0151400
937.717	0.0153664
937.795	0.0152715
937.873	0.0151779
937.951	0.0153316
938.030	0.0151385
938.108	0.0151443
938.186	0.0151994
938.264	0.0152805
938.342	0.0152180
938.420	0.0150519
938.498	0.0151944
938.576	0.0150663
938.655	0.0152967
938.733	0.0152652
938.811	0.0150994
938.889	0.0151839
938.967	0.0150721
939.045	0.0151596
939.123	0.0151875
939.201	0.0151604
939.280	0.0151432
939.358	0.0153004
939.436	0.0151306
939.514	0.0153722
939.592	0.0151604
939.670	0.0151238
939.748	0.0152448
939.826	0.0151826
939.905	0.0152377
939.983	0.0152155
940.061	0.0151845
940.139	0.0153107
940.217	0.0153020
940.295	0.0152138
940.373	0.0152329
940.451	0.0152258
940.530	0.0151607
940.608	0.0152217
940.686	0.0151154
940.764	0.0151633
940.842	0.0151950
940.920	0.0152633
940.998	0.0150418
941.076	0.0151663
941.155	0.0153050
941.233	0.0152770
941.311	0.0151828
941.389	0.0151050
941.467	0.0152531
941.545	0.0151076
941.623	0.0151832
941.701	0.0151485
941.780	0.0152518
941.858	0.0152541
941.936	0.0152311
942.014	0.0152380
942.092	0.0151445
942.170	0.0152991
942.248	0.0152412
942.326	0.0152035
942.405	0.0151276
942.483	0.0152878
942.561	0.0151949
942.639	0.0152053
942.717	0.0151852
942.795	0.0153348
942.873	0.0154508
942.951	0.0152642
943.030	0.0152650
943.108	0.0153416
943.186	0.0152904
943.264	0.0153579
943.342	0.0153554
943.420	0.0153940
943.498	0.0154941
943.576	0.0153992
943.655	0.0154488
943.733	0.0153834
943.811	0.0153732
943.889	0.0154369
943.967	0.0154826
944.045	0.0154456
944.123	0.0155540
944.201	0.0153009
944.280	0.0154590
944.358	0.0153698
944.436	0.0153690
944.514	0.0154626
944.592	0.0153214
944.670	0.0154484
944.748	0.0154427
944.826	0.0153162
944.905	0.0154245
944.983	0.0154231
945.061	0.0154362
945.139	0.0154234
945.217	0.0155083
945.295	0.0153502
945.373	0.0154495
945.451	0.0153480
945.530	0.0153980
945.608	0.0154091
945.686	0.0153168
945.764	0.0154598
945.842	0.0154346
945.920	0.0153513
945.998	0.0154291
946.076	0.0153213
946.155	0.0152148
946.233	0.0154079
946.311	0.0154227
946.389	0.0154520
946.467	0.0154559
946.545	0.0153007
946.623	0.0153457
946.701	0.0154395
946.780	0.0153866
946.858	0.0152935
946.936	0.0153909
947.014	0.0154336
947.092	0.0154159
947.170	0.0152118
947.248	0.0153698
947.326	0.0154419
947.405	0.0151305
947.483	0.0151648
947.561	0.0153835
947.639	0.0152895
947.717	0.0152627
947.795	0.0151562
947.873	0.0151639
947.951	0.0153578
948.030	0.0152864
948.108	0.0152010
948.186	0.0152235
948.264	0.0152274
948.342	0.0152928
948.420	0.0152725
948.498	0.0152000
948.576	0.0151010
948.655	0.0151404
948.733	0.0151830
948.811	0.0151170
948.889	0.0150059
948.967	0.0151385
949.045	0.0151805
949.123	0.0151466
949.201	0.0151167
949.280	0.0151510
949.358	0.0151322
949.436	0.0151266
949.514	0.0151556
949.592	0.0151369
949.670	0.0151565
949.748	0.0151744
949.826	0.0152415
949.905	0.0151478
949.983	0.0151886
950.061	0.0153493
950.139	0.0152074
950.217	0.0151740
950.295	0.0153030
950.373	0.0153307
950.451	0.0152286
950.530	0.0154192
950.608	0.0151633
950.686	0.0152749
950.764	0.0152267
950.842	0.0151701
950.920	0.0154298
950.998	0.0153551
951.076	0.0151653
951.155	0.0151817
951.233	0.0153632
951.311	0.0153797
951.389	0.0153121
951.467	0.0154477
951.545	0.0153330
951.623	0.0153410
951.701	0.0154406
951.780	0.0153738
951.858	0.0153623
951.936	0.0153671
952.014	0.0154794
952.092	0.0153861
952.170	0.0153815
952.248	0.0154276
952.326	0.0154347
952.405	0.0154568
952.483	0.0154122
952.561	0.0154211
952.639	0.0152166
952.717	0.0152853
952.795	0.0151273
952.873	0.0153983
952.951	0.0152045
953.030	0.0152641
953.108	0.0153799
953.186	0.0152442
953.264	0.0153743
953.342	0.0154235
953.420	0.0152439
953.498	0.0152027
953.576	0.0152327
953.655	0.0153186
953.733	0.0154706
953.811	0.0151991
953.889	0.0152084
953.967	0.0153316
954.045	0.0152190
954.123	0.0152890
954.201	0.0154038
954.280	0.0153848
954.358	0.0153236
954.436	0.0154302
954.514	0.0152877
954.592	0.0152531
954.670	0.0152374
954.748	0.0153696
954.826	0.0153133
954.905	0.0153649
954.983	0.0154983
955.061	0.0152591
955.139	0.0152845
955.217	0.0153113
955.295	0.0152283
955.373	0.0152028
955.451	0.0152274
955.530	0.0153224
955.608	0.0152121
955.686	0.0151606
955.764	0.0152618
955.842	0.0151779
955.920	0.0151346
955.998	0.0153278
956.076	0.0151515
956.155	0.0152344
956.233	0.0151751
956.311	0.0152061
956.389	0.0151151
956.467	0.0151836
956.545	0.0152013
956.623	0.0150943
956.701	0.0150496
956.780	0.0152454
956.858	0.0152824
956.936	0.0153452
957.014	0.0153117
957.092	0.0153004
957.170	0.0152797
957.248	0.0152933
957.326	0.0152807
957.405	0.0153975
957.483	0.0152600
957.561	0.0153649
957.639	0.0153416
957.717	0.0151728
957.795	0.0153320
957.873	0.0154312
957.951	0.0154124
958.030	0.0153716
958.108	0.0151637
958.186	0.0154351
958.264	0.0154146
958.342	0.0152932
958.420	0.0153378
958.498	0.0153391
958.576	0.0154335
958.655	0.0153294
958.733	0.0154559
958.811	0.0154536
958.889	0.0154613
958.967	0.0152976
959.045	0.0154362
959.123	0.0154788
959.201	0.0153721
959.280	0.0152708
959.358	0.0154229
959.436	0.0153656
959.514	0.0154131
959.592	0.0153480
959.670	0.0153794
959.748	0.0153966
959.826	0.0153252
959.905	0.0154249
