05/20/2022	17:08:44	Ver.	4.1	UNKNOWN
Optical Delay	639.982744	Delta X		0.078125	Sweeps	1	Scan Rate	0/0
Coordinates	Axis 1	NaN	Axis 2	NaN	Axis 3	NaN	Axis 4	NaN	Axis 5	NaN	Axis 6	0.000000
TX Power	0.000000	RX Power	0.000000

639.983	0.0153004
640.061	0.0154225
640.139	0.0155087
640.217	0.0153134
640.295	0.0153682
640.373	0.0155420
640.451	0.0155290
640.530	0.0154865
640.608	0.0154278
640.686	0.0154009
640.764	0.0154167
640.842	0.0152861
640.920	0.0153483
640.998	0.0153445
641.076	0.0153030
641.155	0.0153114
641.233	0.0153111
641.311	0.0154395
641.389	0.0152160
641.467	0.0152689
641.545	0.0153681
641.623	0.0152198
641.701	0.0153896
641.780	0.0153173
641.858	0.0153481
641.936	0.0152467
642.014	0.0152996
642.092	0.0151979
642.170	0.0153712
642.248	0.0152634
642.326	0.0152310
642.405	0.0152563
642.483	0.0152091
642.561	0.0153646
642.639	0.0153051
642.717	0.0152830
642.795	0.0151047
642.873	0.0151643
642.951	0.0152213
643.030	0.0151918
643.108	0.0151897
643.186	0.0152020
643.264	0.0152499
643.342	0.0152655
643.420	0.0151994
643.498	0.0151927
643.576	0.0153355
643.655	0.0153602
643.733	0.0152978
643.811	0.0153049
643.889	0.0153097
643.967	0.0152480
644.045	0.0152894
644.123	0.0152679
644.201	0.0153063
644.280	0.0152601
644.358	0.0150117
644.436	0.0151778
644.514	0.0153260
644.592	0.0153217
644.670	0.0150937
644.748	0.0151189
644.826	0.0151853
644.905	0.0152010
644.983	0.0151873
645.061	0.0151608
645.139	0.0152473
645.217	0.0150776
645.295	0.0152238
645.373	0.0151761
645.451	0.0151790
645.530	0.0150970
645.608	0.0150892
645.686	0.0151270
645.764	0.0151517
645.842	0.0151969
645.920	0.0151193
645.998	0.0152335
646.076	0.0150994
646.155	0.0151014
646.233	0.0150991
646.311	0.0151423
646.389	0.0151588
646.467	0.0150646
646.545	0.0150746
646.623	0.0150783
646.701	0.0150450
646.780	0.0151443
646.858	0.0150675
646.936	0.0151137
647.014	0.0152709
647.092	0.0152652
647.170	0.0151019
647.248	0.0150468
647.326	0.0152213
647.405	0.0151743
647.483	0.0151388
647.561	0.0151073
647.639	0.0150533
647.717	0.0150784
647.795	0.0149939
647.873	0.0151614
647.951	0.0153520
648.030	0.0153737
648.108	0.0152397
648.186	0.0151051
648.264	0.0152022
648.342	0.0152573
648.420	0.0152415
648.498	0.0152244
648.576	0.0151856
648.655	0.0152177
648.733	0.0150652
648.811	0.0152307
648.889	0.0152350
648.967	0.0150391
649.045	0.0152139
649.123	0.0151314
649.201	0.0151745
649.280	0.0152424
649.358	0.0152525
649.436	0.0153066
649.514	0.0150925
649.592	0.0152235
649.670	0.0152905
649.748	0.0151811
649.826	0.0152189
649.905	0.0153360
649.983	0.0152751
650.061	0.0153134
650.139	0.0152783
650.217	0.0153358
650.295	0.0153548
650.373	0.0153136
650.451	0.0153857
650.530	0.0154014
650.608	0.0152802
650.686	0.0154810
650.764	0.0153615
650.842	0.0153385
650.920	0.0152937
650.998	0.0153188
651.076	0.0152897
651.155	0.0154110
651.233	0.0153440
651.311	0.0153123
651.389	0.0153288
651.467	0.0154391
651.545	0.0153826
651.623	0.0153806
651.701	0.0152627
651.780	0.0154086
651.858	0.0153758
651.936	0.0154074
652.014	0.0152605
652.092	0.0154395
652.170	0.0153199
652.248	0.0153116
652.326	0.0154056
652.405	0.0154777
652.483	0.0152637
652.561	0.0152843
652.639	0.0152312
652.717	0.0154189
652.795	0.0153404
652.873	0.0152398
652.951	0.0151401
653.030	0.0153662
653.108	0.0153111
653.186	0.0152249
653.264	0.0152674
653.342	0.0152652
653.420	0.0151978
653.498	0.0152390
653.576	0.0153401
653.655	0.0153643
653.733	0.0152489
653.811	0.0153091
653.889	0.0152854
653.967	0.0152734
654.045	0.0151842
654.123	0.0152265
654.201	0.0153521
654.280	0.0153458
654.358	0.0153699
654.436	0.0153265
654.514	0.0153013
654.592	0.0153258
654.670	0.0154224
654.748	0.0154028
654.826	0.0154793
654.905	0.0153137
654.983	0.0154658
655.061	0.0155679
655.139	0.0155095
655.217	0.0153710
655.295	0.0153941
655.373	0.0155174
655.451	0.0153612
655.530	0.0154560
655.608	0.0153788
655.686	0.0153461
655.764	0.0152419
655.842	0.0152775
655.920	0.0152657
655.998	0.0152988
656.076	0.0152741
656.155	0.0151892
656.233	0.0152788
656.311	0.0153021
656.389	0.0153304
656.467	0.0152620
656.545	0.0153654
656.623	0.0154106
656.701	0.0153320
656.780	0.0154528
656.858	0.0154128
656.936	0.0154568
657.014	0.0155421
657.092	0.0155376
657.170	0.0156188
657.248	0.0155923
657.326	0.0156330
657.405	0.0155255
657.483	0.0154923
657.561	0.0154719
657.639	0.0152975
657.717	0.0155186
657.795	0.0153675
657.873	0.0153015
657.951	0.0153529
658.030	0.0153356
658.108	0.0152435
658.186	0.0152962
658.264	0.0152757
658.342	0.0153445
658.420	0.0152972
658.498	0.0153532
658.576	0.0153326
658.655	0.0154617
658.733	0.0154218
658.811	0.0154311
658.889	0.0154928
658.967	0.0156870
659.045	0.0154815
659.123	0.0155656
659.201	0.0155630
659.280	0.0154606
659.358	0.0154715
659.436	0.0155896
659.514	0.0155612
659.592	0.0154538
659.670	0.0155689
659.748	0.0153729
659.826	0.0153556
659.905	0.0155013
659.983	0.0153814
660.061	0.0155395
660.139	0.0154625
660.217	0.0155820
660.295	0.0155024
660.373	0.0154525
660.451	0.0154829
660.530	0.0154893
660.608	0.0155244
660.686	0.0154700
660.764	0.0154405
660.842	0.0155974
660.920	0.0153714
660.998	0.0153377
661.076	0.0154939
661.155	0.0155710
661.233	0.0155529
661.311	0.0154654
661.389	0.0154285
661.467	0.0155332
661.545	0.0155917
661.623	0.0154848
661.701	0.0154434
661.780	0.0154986
661.858	0.0155278
661.936	0.0154034
662.014	0.0153789
662.092	0.0153848
662.170	0.0151860
662.248	0.0152850
662.326	0.0152216
662.405	0.0152943
662.483	0.0151683
662.561	0.0151671
662.639	0.0151655
662.717	0.0151947
662.795	0.0152394
662.873	0.0151440
662.951	0.0152595
663.030	0.0152483
663.108	0.0152158
663.186	0.0152280
663.264	0.0153710
663.342	0.0152496
663.420	0.0153646
663.498	0.0152980
663.576	0.0153925
663.655	0.0154380
663.733	0.0154375
663.811	0.0155092
663.889	0.0155885
663.967	0.0155026
664.045	0.0155346
664.123	0.0156167
664.201	0.0155801
664.280	0.0156637
664.358	0.0157018
664.436	0.0157019
664.514	0.0158291
664.592	0.0157568
664.670	0.0158833
664.748	0.0157580
664.826	0.0156985
664.905	0.0157800
664.983	0.0158065
665.061	0.0156337
665.139	0.0156293
665.217	0.0155809
665.295	0.0154048
665.373	0.0154019
665.451	0.0154369
665.530	0.0152768
665.608	0.0152319
665.686	0.0152145
665.764	0.0152836
665.842	0.0150380
665.920	0.0148844
665.998	0.0149111
666.076	0.0147895
666.155	0.0148225
666.233	0.0146389
666.311	0.0146499
666.389	0.0145364
666.467	0.0144946
666.545	0.0144662
666.623	0.0143085
666.701	0.0143707
666.780	0.0145494
666.858	0.0145190
666.936	0.0143625
667.014	0.0143546
667.092	0.0145496
667.170	0.0146277
667.248	0.0146974
667.326	0.0148547
667.405	0.0148062
667.483	0.0150270
667.561	0.0150827
667.639	0.0152124
667.717	0.0153190
667.795	0.0154114
667.873	0.0155777
667.951	0.0156170
668.030	0.0157066
668.108	0.0156841
668.186	0.0157158
668.264	0.0158377
668.342	0.0158841
668.420	0.0160658
668.498	0.0161442
668.576	0.0162034
668.655	0.0162688
668.733	0.0162685
668.811	0.0162393
668.889	0.0163754
668.967	0.0161512
669.045	0.0162839
669.123	0.0161346
669.201	0.0160149
669.280	0.0159282
669.358	0.0158731
669.436	0.0155720
669.514	0.0155116
669.592	0.0153877
669.670	0.0152409
669.748	0.0149818
669.826	0.0150438
669.905	0.0147369
669.983	0.0146822
670.061	0.0145419
670.139	0.0144331
670.217	0.0142529
670.295	0.0141670
670.373	0.0141810
670.451	0.0139882
670.530	0.0139043
670.608	0.0139696
670.686	0.0139985
670.764	0.0139541
670.842	0.0139738
670.920	0.0139496
670.998	0.0140282
671.076	0.0140889
671.155	0.0140073
671.233	0.0141203
671.311	0.0141677
671.389	0.0142126
671.467	0.0144932
671.545	0.0144910
671.623	0.0147049
671.701	0.0148695
671.780	0.0149396
671.858	0.0150430
671.936	0.0152029
672.014	0.0152436
672.092	0.0153968
672.170	0.0153623
672.248	0.0156301
672.326	0.0158035
672.405	0.0157804
672.483	0.0160014
672.561	0.0160959
672.639	0.0162002
672.717	0.0162227
672.795	0.0164156
672.873	0.0163125
672.951	0.0165149
673.030	0.0167115
673.108	0.0165448
673.186	0.0165660
673.264	0.0166351
673.342	0.0166187
673.420	0.0165240
673.498	0.0166040
673.576	0.0161760
673.655	0.0161953
673.733	0.0160676
673.811	0.0158456
673.889	0.0157672
673.967	0.0155337
674.045	0.0153341
674.123	0.0151200
674.201	0.0149887
674.280	0.0148521
674.358	0.0146705
674.436	0.0144297
674.514	0.0145203
674.592	0.0142811
674.670	0.0142924
674.748	0.0141705
674.826	0.0139520
674.905	0.0137969
674.983	0.0140410
675.061	0.0140056
675.139	0.0139141
675.217	0.0139339
675.295	0.0139721
675.373	0.0141309
675.451	0.0142316
675.530	0.0144704
675.608	0.0145428
675.686	0.0144637
675.764	0.0147165
675.842	0.0149296
675.920	0.0150241
675.998	0.0152540
676.076	0.0153813
676.155	0.0154803
676.233	0.0156387
676.311	0.0156992
676.389	0.0159335
676.467	0.0159663
676.545	0.0160143
676.623	0.0161790
676.701	0.0162268
676.780	0.0162554
676.858	0.0162930
676.936	0.0160548
677.014	0.0163095
677.092	0.0164105
677.170	0.0161356
677.248	0.0160911
677.326	0.0160625
677.405	0.0160028
677.483	0.0159162
677.561	0.0158989
677.639	0.0156304
677.717	0.0154931
677.795	0.0153934
677.873	0.0152741
677.951	0.0150584
678.030	0.0150165
678.108	0.0150923
678.186	0.0149973
678.264	0.0149619
678.342	0.0148724
678.420	0.0148843
678.498	0.0150532
678.576	0.0150343
678.655	0.0149265
678.733	0.0149935
678.811	0.0150495
678.889	0.0151088
678.967	0.0151674
679.045	0.0151198
679.123	0.0151952
679.201	0.0152804
679.280	0.0154022
679.358	0.0154053
679.436	0.0154435
679.514	0.0154971
679.592	0.0157953
679.670	0.0156819
679.748	0.0155322
679.826	0.0157442
679.905	0.0156473
679.983	0.0157291
680.061	0.0157148
680.139	0.0157477
680.217	0.0155585
680.295	0.0155891
680.373	0.0155212
680.451	0.0154268
680.530	0.0154161
680.608	0.0153147
680.686	0.0151493
680.764	0.0152154
680.842	0.0151090
680.920	0.0150919
680.998	0.0149538
681.076	0.0149409
681.155	0.0149896
681.233	0.0148968
681.311	0.0147971
681.389	0.0145791
681.467	0.0147459
681.545	0.0145742
681.623	0.0144083
681.701	0.0143800
681.780	0.0144199
681.858	0.0145087
681.936	0.0143807
682.014	0.0143728
682.092	0.0144836
682.170	0.0145085
682.248	0.0145889
682.326	0.0146547
682.405	0.0146700
682.483	0.0149056
682.561	0.0150743
682.639	0.0150647
682.717	0.0153253
682.795	0.0152425
682.873	0.0154086
682.951	0.0156456
683.030	0.0156965
683.108	0.0156856
683.186	0.0159751
683.264	0.0159185
683.342	0.0160476
683.420	0.0161729
683.498	0.0162328
683.576	0.0160270
683.655	0.0160355
683.733	0.0162215
683.811	0.0161156
683.889	0.0161874
683.967	0.0162215
684.045	0.0160377
684.123	0.0159967
684.201	0.0161396
684.280	0.0160052
684.358	0.0160437
684.436	0.0159962
684.514	0.0159193
684.592	0.0158030
684.670	0.0158606
684.748	0.0157195
684.826	0.0156335
684.905	0.0156684
684.983	0.0155053
685.061	0.0154346
685.139	0.0152748
685.217	0.0153023
685.295	0.0153430
685.373	0.0152177
685.451	0.0151389
685.530	0.0151630
685.608	0.0150626
685.686	0.0149326
685.764	0.0149554
685.842	0.0150599
685.920	0.0150063
685.998	0.0148300
686.076	0.0148705
686.155	0.0147617
686.233	0.0147283
686.311	0.0146024
686.389	0.0144251
686.467	0.0145288
686.545	0.0143691
686.623	0.0143641
686.701	0.0144647
686.780	0.0144396
686.858	0.0144416
686.936	0.0145756
687.014	0.0147177
687.092	0.0144870
687.170	0.0147432
687.248	0.0148499
687.326	0.0147934
687.405	0.0148060
687.483	0.0149393
687.561	0.0150082
687.639	0.0148721
687.717	0.0149450
687.795	0.0151430
687.873	0.0152676
687.951	0.0153374
688.030	0.0153073
688.108	0.0154555
688.186	0.0156889
688.264	0.0157830
688.342	0.0159389
688.420	0.0161202
688.498	0.0162637
688.576	0.0163627
688.655	0.0166142
688.733	0.0165391
688.811	0.0166583
688.889	0.0167130
688.967	0.0167103
689.045	0.0166595
689.123	0.0166213
689.201	0.0166969
689.280	0.0164822
689.358	0.0163785
689.436	0.0164030
689.514	0.0163273
689.592	0.0160450
689.670	0.0158932
689.748	0.0158060
689.826	0.0154716
689.905	0.0156407
689.983	0.0152660
690.061	0.0152703
690.139	0.0150082
690.217	0.0148566
690.295	0.0147697
690.373	0.0144909
690.451	0.0144723
690.530	0.0143753
690.608	0.0141875
690.686	0.0140099
690.764	0.0140200
690.842	0.0138564
690.920	0.0138074
690.998	0.0140327
691.076	0.0138078
691.155	0.0137124
691.233	0.0140171
691.311	0.0140031
691.389	0.0139642
691.467	0.0142200
691.545	0.0142307
691.623	0.0143510
691.701	0.0144325
691.780	0.0145979
691.858	0.0146600
691.936	0.0147158
692.014	0.0148322
692.092	0.0148985
692.170	0.0150714
692.248	0.0152539
692.326	0.0151929
692.405	0.0153102
692.483	0.0154215
692.561	0.0155320
692.639	0.0154767
692.717	0.0156181
692.795	0.0156541
692.873	0.0156506
692.951	0.0159613
693.030	0.0159856
693.108	0.0159750
693.186	0.0160243
693.264	0.0159164
693.342	0.0159467
693.420	0.0160654
693.498	0.0159275
693.576	0.0159200
693.655	0.0158260
693.733	0.0159592
693.811	0.0157979
693.889	0.0156186
693.967	0.0157220
694.045	0.0157075
694.123	0.0155077
694.201	0.0153243
694.280	0.0153268
694.358	0.0152227
694.436	0.0151295
694.514	0.0152302
694.592	0.0150521
694.670	0.0150952
694.748	0.0149538
694.826	0.0149768
694.905	0.0148379
694.983	0.0147879
695.061	0.0147968
695.139	0.0148421
695.217	0.0149618
695.295	0.0149841
695.373	0.0147584
695.451	0.0147125
695.530	0.0148615
695.608	0.0147674
695.686	0.0148579
695.764	0.0149361
695.842	0.0150490
695.920	0.0149059
695.998	0.0147473
696.076	0.0149881
696.155	0.0151620
696.233	0.0149918
696.311	0.0149377
696.389	0.0151244
696.467	0.0152321
696.545	0.0152610
696.623	0.0153621
696.701	0.0152128
696.780	0.0154744
696.858	0.0153487
696.936	0.0152206
697.014	0.0153543
697.092	0.0153683
697.170	0.0153601
697.248	0.0151465
697.326	0.0152608
697.405	0.0151340
697.483	0.0150629
697.561	0.0151508
697.639	0.0150953
697.717	0.0149280
697.795	0.0149117
697.873	0.0147680
697.951	0.0149098
698.030	0.0148389
698.108	0.0147321
698.186	0.0148479
698.264	0.0148784
698.342	0.0148499
698.420	0.0147693
698.498	0.0147354
698.576	0.0149469
698.655	0.0150155
698.733	0.0149966
698.811	0.0151105
698.889	0.0151634
698.967	0.0151504
699.045	0.0151205
699.123	0.0151653
699.201	0.0152010
699.280	0.0153362
699.358	0.0153437
699.436	0.0153465
699.514	0.0154825
699.592	0.0155809
699.670	0.0155228
699.748	0.0155634
699.826	0.0156190
699.905	0.0156726
699.983	0.0156510
700.061	0.0157628
700.139	0.0156668
700.217	0.0156530
700.295	0.0156833
700.373	0.0155354
700.451	0.0155451
700.530	0.0155545
700.608	0.0153928
700.686	0.0153656
700.764	0.0153097
700.842	0.0154246
700.920	0.0154227
700.998	0.0153146
701.076	0.0153773
701.155	0.0153430
701.233	0.0153348
701.311	0.0152743
701.389	0.0153959
701.467	0.0154079
701.545	0.0153596
701.623	0.0153542
701.701	0.0153353
701.780	0.0152782
701.858	0.0152364
701.936	0.0152213
702.014	0.0152831
702.092	0.0152695
702.170	0.0152541
702.248	0.0151901
702.326	0.0150112
702.405	0.0151153
702.483	0.0151217
702.561	0.0150039
702.639	0.0147982
702.717	0.0147234
702.795	0.0147639
702.873	0.0146933
702.951	0.0145055
703.030	0.0146528
703.108	0.0146764
703.186	0.0147453
703.264	0.0147231
703.342	0.0148573
703.420	0.0148653
703.498	0.0147906
703.576	0.0150060
703.655	0.0152058
703.733	0.0151941
703.811	0.0152168
703.889	0.0154285
703.967	0.0155598
704.045	0.0157064
704.123	0.0157560
704.201	0.0158511
704.280	0.0159461
704.358	0.0161475
704.436	0.0162234
704.514	0.0162186
704.592	0.0162726
704.670	0.0162508
704.748	0.0161102
704.826	0.0163247
704.905	0.0161599
704.983	0.0161129
705.061	0.0161283
705.139	0.0159150
705.217	0.0158567
705.295	0.0157632
705.373	0.0156081
705.451	0.0155280
705.530	0.0155252
705.608	0.0152772
705.686	0.0150904
705.764	0.0150758
705.842	0.0148109
705.920	0.0146859
705.998	0.0145750
706.076	0.0143932
706.155	0.0143097
706.233	0.0144292
706.311	0.0143040
706.389	0.0141376
706.467	0.0141124
706.545	0.0142161
706.623	0.0141771
706.701	0.0140416
706.780	0.0141422
706.858	0.0143647
706.936	0.0145111
707.014	0.0145430
707.092	0.0146460
707.170	0.0147812
707.248	0.0149599
707.326	0.0150923
707.405	0.0152374
707.483	0.0154999
707.561	0.0154496
707.639	0.0156009
707.717	0.0157684
707.795	0.0159803
707.873	0.0158615
707.951	0.0158750
708.030	0.0160598
708.108	0.0160826
708.186	0.0160992
708.264	0.0160540
708.342	0.0159990
708.420	0.0160558
708.498	0.0160808
708.576	0.0159161
708.655	0.0160860
708.733	0.0159017
708.811	0.0158294
708.889	0.0156701
708.967	0.0157854
709.045	0.0157124
709.123	0.0157678
709.201	0.0155843
709.280	0.0153748
709.358	0.0152499
709.436	0.0152129
709.514	0.0151131
709.592	0.0151220
709.670	0.0151475
709.748	0.0150658
709.826	0.0147326
709.905	0.0146964
709.983	0.0146929
710.061	0.0146903
710.139	0.0145885
710.217	0.0146202
710.295	0.0146131
710.373	0.0145243
710.451	0.0143767
710.530	0.0145950
710.608	0.0145662
710.686	0.0144167
710.764	0.0144553
710.842	0.0145750
710.920	0.0146616
710.998	0.0146344
711.076	0.0145935
711.155	0.0145107
711.233	0.0146278
711.311	0.0146941
711.389	0.0148947
711.467	0.0148322
711.545	0.0148703
711.623	0.0149416
711.701	0.0152554
711.780	0.0152749
711.858	0.0154977
711.936	0.0155837
712.014	0.0157941
712.092	0.0158645
712.170	0.0159092
712.248	0.0159348
712.326	0.0160226
712.405	0.0161691
712.483	0.0162185
712.561	0.0161957
712.639	0.0161806
712.717	0.0162342
712.795	0.0163013
712.873	0.0162417
712.951	0.0161956
713.030	0.0163017
713.108	0.0160769
713.186	0.0161320
713.264	0.0161806
713.342	0.0159842
713.420	0.0158311
713.498	0.0157336
713.576	0.0156066
713.655	0.0156105
713.733	0.0154308
713.811	0.0152316
713.889	0.0151733
713.967	0.0152203
714.045	0.0151086
714.123	0.0149826
714.201	0.0148666
714.280	0.0147017
714.358	0.0147886
714.436	0.0147970
714.514	0.0145157
714.592	0.0146983
714.670	0.0145699
714.748	0.0146902
714.826	0.0146626
714.905	0.0146267
714.983	0.0145921
715.061	0.0146526
715.139	0.0148228
715.217	0.0148940
715.295	0.0148796
715.373	0.0149674
715.451	0.0148750
715.530	0.0149151
715.608	0.0150211
715.686	0.0150803
715.764	0.0152015
715.842	0.0151608
715.920	0.0152969
715.998	0.0153234
716.076	0.0153481
716.155	0.0153492
716.233	0.0154513
716.311	0.0153571
716.389	0.0154398
716.467	0.0154888
716.545	0.0154539
716.623	0.0157040
716.701	0.0155273
716.780	0.0154870
716.858	0.0155183
716.936	0.0155737
717.014	0.0156001
717.092	0.0155544
717.170	0.0154365
717.248	0.0154025
717.326	0.0154367
717.405	0.0153360
717.483	0.0151754
717.561	0.0150890
717.639	0.0150223
717.717	0.0150053
717.795	0.0149564
717.873	0.0148064
717.951	0.0147174
718.030	0.0148895
718.108	0.0147001
718.186	0.0146230
718.264	0.0145934
718.342	0.0148051
718.420	0.0148962
718.498	0.0147848
718.576	0.0148830
718.655	0.0151401
718.733	0.0149365
718.811	0.0151485
718.889	0.0151611
718.967	0.0154701
719.045	0.0155540
719.123	0.0156168
719.201	0.0156368
719.280	0.0156277
719.358	0.0156310
719.436	0.0157854
719.514	0.0158691
719.592	0.0158893
719.670	0.0158123
719.748	0.0158715
719.826	0.0159715
719.905	0.0157132
719.983	0.0158056
720.061	0.0157961
720.139	0.0157299
720.217	0.0157553
720.295	0.0155379
720.373	0.0155058
720.451	0.0153546
720.530	0.0152787
720.608	0.0150292
720.686	0.0148357
720.764	0.0149351
720.842	0.0148003
720.920	0.0145975
720.998	0.0145879
721.076	0.0145324
721.155	0.0143856
721.233	0.0144588
721.311	0.0143416
721.389	0.0143914
721.467	0.0145147
721.545	0.0145171
721.623	0.0145707
721.701	0.0146690
721.780	0.0147984
721.858	0.0146130
721.936	0.0148009
722.014	0.0148732
722.092	0.0151228
722.170	0.0150878
722.248	0.0151816
722.326	0.0152837
722.405	0.0151791
722.483	0.0153394
722.561	0.0155076
722.639	0.0155547
722.717	0.0154871
722.795	0.0154500
722.873	0.0155360
722.951	0.0157616
723.030	0.0157234
723.108	0.0156531
723.186	0.0156918
723.264	0.0156871
723.342	0.0156660
723.420	0.0156654
723.498	0.0157074
723.576	0.0156535
723.655	0.0156242
723.733	0.0155864
723.811	0.0154710
723.889	0.0156009
723.967	0.0156815
724.045	0.0153970
724.123	0.0156017
724.201	0.0155625
724.280	0.0155193
724.358	0.0155346
724.436	0.0155270
724.514	0.0153365
724.592	0.0154540
724.670	0.0153272
724.748	0.0153249
724.826	0.0152940
724.905	0.0153673
724.983	0.0152638
725.061	0.0152155
725.139	0.0152165
725.217	0.0151391
725.295	0.0152760
725.373	0.0152548
725.451	0.0151729
725.530	0.0152358
725.608	0.0152099
725.686	0.0151521
725.764	0.0151850
725.842	0.0152829
725.920	0.0152405
725.998	0.0152403
726.076	0.0152892
726.155	0.0151750
726.233	0.0151324
726.311	0.0152319
726.389	0.0152409
726.467	0.0151019
726.545	0.0150519
726.623	0.0150893
726.701	0.0150578
726.780	0.0152073
726.858	0.0150889
726.936	0.0150089
727.014	0.0151759
727.092	0.0150612
727.170	0.0149561
727.248	0.0150616
727.326	0.0151266
727.405	0.0150533
727.483	0.0152453
727.561	0.0151649
727.639	0.0152712
727.717	0.0152110
727.795	0.0153163
727.873	0.0152377
727.951	0.0153423
728.030	0.0153941
728.108	0.0154002
728.186	0.0152650
728.264	0.0152964
728.342	0.0153198
728.420	0.0153622
728.498	0.0153403
728.576	0.0153403
728.655	0.0154488
728.733	0.0153450
728.811	0.0152744
728.889	0.0154136
728.967	0.0152971
729.045	0.0153820
729.123	0.0153491
729.201	0.0154238
729.280	0.0154962
729.358	0.0154971
729.436	0.0153861
729.514	0.0154932
729.592	0.0154493
729.670	0.0155090
729.748	0.0154137
729.826	0.0154067
729.905	0.0154294
729.983	0.0154774
730.061	0.0157361
730.139	0.0155731
730.217	0.0156152
730.295	0.0154826
730.373	0.0154681
730.451	0.0155146
730.530	0.0154429
730.608	0.0154826
730.686	0.0154693
730.764	0.0152475
730.842	0.0153466
730.920	0.0152985
730.998	0.0151825
731.076	0.0151534
731.155	0.0150259
731.233	0.0149619
731.311	0.0150368
731.389	0.0150303
731.467	0.0147567
731.545	0.0148905
731.623	0.0148241
731.701	0.0149178
731.780	0.0148063
731.858	0.0148203
731.936	0.0147984
732.014	0.0149442
732.092	0.0149590
732.170	0.0148917
732.248	0.0147860
732.326	0.0149809
732.405	0.0148955
732.483	0.0151153
732.561	0.0149181
732.639	0.0151279
732.717	0.0151949
732.795	0.0153867
732.873	0.0154599
732.951	0.0153872
733.030	0.0155103
733.108	0.0156167
733.186	0.0154742
733.264	0.0157575
733.342	0.0157604
733.420	0.0158764
733.498	0.0158355
733.576	0.0157020
733.655	0.0159255
733.733	0.0159093
733.811	0.0157352
733.889	0.0158377
733.967	0.0159500
734.045	0.0158357
734.123	0.0157814
734.201	0.0158174
734.280	0.0156834
734.358	0.0156625
734.436	0.0155527
734.514	0.0154780
734.592	0.0154931
734.670	0.0154166
734.748	0.0153321
734.826	0.0153235
734.905	0.0153616
734.983	0.0152395
735.061	0.0150406
735.139	0.0150976
735.217	0.0150009
735.295	0.0152381
735.373	0.0150879
735.451	0.0149335
735.530	0.0149509
735.608	0.0149828
735.686	0.0148539
735.764	0.0149503
735.842	0.0149590
735.920	0.0148706
735.998	0.0149190
736.076	0.0151205
736.155	0.0149733
736.233	0.0149249
736.311	0.0150917
736.389	0.0151086
736.467	0.0152496
736.545	0.0151541
736.623	0.0152660
736.701	0.0153505
736.780	0.0154259
736.858	0.0154757
736.936	0.0155231
737.014	0.0156483
737.092	0.0155298
737.170	0.0156983
737.248	0.0156892
737.326	0.0154984
737.405	0.0156939
737.483	0.0154579
737.561	0.0154469
737.639	0.0156273
737.717	0.0154630
737.795	0.0154729
737.873	0.0155651
737.951	0.0155396
738.030	0.0154517
738.108	0.0154382
738.186	0.0154566
738.264	0.0154419
738.342	0.0153297
738.420	0.0154855
738.498	0.0154617
738.576	0.0155654
738.655	0.0154700
738.733	0.0155430
738.811	0.0153046
738.889	0.0154851
738.967	0.0153757
739.045	0.0153591
739.123	0.0154524
739.201	0.0156305
739.280	0.0154816
739.358	0.0153912
739.436	0.0154549
739.514	0.0154377
739.592	0.0154144
739.670	0.0153929
739.748	0.0154569
739.826	0.0154821
739.905	0.0153128
739.983	0.0154429
740.061	0.0153830
740.139	0.0154358
740.217	0.0153274
740.295	0.0153699
740.373	0.0155179
740.451	0.0152919
740.530	0.0153130
740.608	0.0154670
740.686	0.0154381
740.764	0.0152433
740.842	0.0152666
740.920	0.0153825
740.998	0.0152962
741.076	0.0152850
741.155	0.0152152
741.233	0.0153274
741.311	0.0153063
741.389	0.0153564
741.467	0.0153178
741.545	0.0150964
741.623	0.0151412
741.701	0.0151138
741.780	0.0150787
741.858	0.0150430
741.936	0.0149104
742.014	0.0148233
742.092	0.0150082
742.170	0.0149337
742.248	0.0147965
742.326	0.0147965
742.405	0.0150672
742.483	0.0150020
742.561	0.0150305
742.639	0.0151955
742.717	0.0151538
742.795	0.0152917
742.873	0.0152538
742.951	0.0154402
743.030	0.0155013
743.108	0.0156046
743.186	0.0155540
743.264	0.0156371
743.342	0.0156862
743.420	0.0156927
743.498	0.0156013
743.576	0.0155795
743.655	0.0155850
743.733	0.0154942
743.811	0.0155133
743.889	0.0153400
743.967	0.0153838
744.045	0.0152941
744.123	0.0152966
744.201	0.0152948
744.280	0.0151142
744.358	0.0150563
744.436	0.0151609
744.514	0.0151242
744.592	0.0151841
744.670	0.0151067
744.748	0.0149785
744.826	0.0149926
744.905	0.0150904
744.983	0.0151485
745.061	0.0150027
745.139	0.0150629
745.217	0.0150829
745.295	0.0150040
745.373	0.0149834
745.451	0.0152087
745.530	0.0151068
745.608	0.0152132
745.686	0.0152301
745.764	0.0151696
745.842	0.0152768
745.920	0.0153045
745.998	0.0153933
746.076	0.0154551
746.155	0.0154189
746.233	0.0155393
746.311	0.0154538
746.389	0.0153961
746.467	0.0154879
746.545	0.0155442
746.623	0.0155428
746.701	0.0156042
746.780	0.0154919
746.858	0.0155316
746.936	0.0156527
747.014	0.0156773
747.092	0.0156848
747.170	0.0155991
747.248	0.0156558
747.326	0.0156390
747.405	0.0154688
747.483	0.0155128
747.561	0.0154914
747.639	0.0155902
747.717	0.0154499
747.795	0.0152870
747.873	0.0153436
747.951	0.0154003
748.030	0.0151880
748.108	0.0152792
748.186	0.0153042
748.264	0.0151492
748.342	0.0151585
748.420	0.0152450
748.498	0.0152807
748.576	0.0151867
748.655	0.0152697
748.733	0.0152198
748.811	0.0151377
748.889	0.0153516
748.967	0.0151894
749.045	0.0152175
749.123	0.0152191
749.201	0.0152563
749.280	0.0151552
749.358	0.0153261
749.436	0.0151814
749.514	0.0151366
749.592	0.0151815
749.670	0.0152234
749.748	0.0153224
749.826	0.0152850
749.905	0.0151619
749.983	0.0151268
750.061	0.0151272
750.139	0.0152650
750.217	0.0152311
750.295	0.0153475
750.373	0.0152366
750.451	0.0151249
750.530	0.0151546
750.608	0.0152537
750.686	0.0152765
750.764	0.0151887
750.842	0.0151157
750.920	0.0150795
750.998	0.0151990
751.076	0.0151692
751.155	0.0151077
751.233	0.0153273
751.311	0.0151403
751.389	0.0152423
751.467	0.0151852
751.545	0.0152361
751.623	0.0152401
751.701	0.0151732
751.780	0.0153588
751.858	0.0152448
751.936	0.0154437
752.014	0.0155478
752.092	0.0154097
752.170	0.0155244
752.248	0.0155731
752.326	0.0156680
752.405	0.0156803
752.483	0.0156297
752.561	0.0155966
752.639	0.0155614
752.717	0.0155132
752.795	0.0156108
752.873	0.0155813
752.951	0.0155061
753.030	0.0153632
753.108	0.0156207
753.186	0.0153796
753.264	0.0154523
753.342	0.0154472
753.420	0.0153942
753.498	0.0153049
753.576	0.0152228
753.655	0.0151950
753.733	0.0152564
753.811	0.0151261
753.889	0.0151714
753.967	0.0154096
754.045	0.0152437
754.123	0.0152426
754.201	0.0153073
754.280	0.0152410
754.358	0.0153440
754.436	0.0154532
754.514	0.0153334
754.592	0.0152794
754.670	0.0154535
754.748	0.0154327
754.826	0.0156499
754.905	0.0155267
754.983	0.0154756
755.061	0.0154803
755.139	0.0155145
755.217	0.0154870
755.295	0.0155359
755.373	0.0154583
755.451	0.0153853
755.530	0.0154345
755.608	0.0153409
755.686	0.0154239
755.764	0.0154426
755.842	0.0153964
755.920	0.0153552
755.998	0.0154037
756.076	0.0153616
756.155	0.0154756
756.233	0.0153845
756.311	0.0154351
756.389	0.0152645
756.467	0.0154190
756.545	0.0154348
756.623	0.0152539
756.701	0.0153445
756.780	0.0152885
756.858	0.0152479
756.936	0.0153500
757.014	0.0153141
757.092	0.0152716
757.170	0.0152408
757.248	0.0153074
757.326	0.0153470
757.405	0.0154756
757.483	0.0153256
757.561	0.0152876
757.639	0.0153696
757.717	0.0152572
757.795	0.0154006
757.873	0.0153556
757.951	0.0152987
758.030	0.0153040
758.108	0.0154008
758.186	0.0151848
758.264	0.0152254
758.342	0.0151780
758.420	0.0150903
758.498	0.0151559
758.576	0.0152018
758.655	0.0150489
758.733	0.0151439
758.811	0.0151650
758.889	0.0151227
758.967	0.0150933
759.045	0.0152073
759.123	0.0153049
759.201	0.0152245
759.280	0.0152615
759.358	0.0152247
759.436	0.0152885
759.514	0.0153122
759.592	0.0154293
759.670	0.0152873
759.748	0.0154535
759.826	0.0154948
759.905	0.0153571
759.983	0.0153694
760.061	0.0154497
760.139	0.0154280
760.217	0.0153912
760.295	0.0154392
760.373	0.0151994
760.451	0.0153609
760.530	0.0154084
760.608	0.0151814
760.686	0.0152160
760.764	0.0153788
760.842	0.0151093
760.920	0.0150571
760.998	0.0150548
761.076	0.0151232
761.155	0.0150264
761.233	0.0150661
761.311	0.0150188
761.389	0.0149275
761.467	0.0150034
761.545	0.0150018
761.623	0.0150054
761.701	0.0150251
761.780	0.0148594
761.858	0.0149377
761.936	0.0151146
762.014	0.0150962
762.092	0.0150435
762.170	0.0149779
762.248	0.0150058
762.326	0.0152568
762.405	0.0152202
762.483	0.0152319
762.561	0.0153697
762.639	0.0153997
762.717	0.0153423
762.795	0.0152225
762.873	0.0153737
762.951	0.0152935
763.030	0.0152651
763.108	0.0152446
763.186	0.0153274
763.264	0.0152203
763.342	0.0152357
763.420	0.0153233
763.498	0.0153067
763.576	0.0152004
763.655	0.0152955
763.733	0.0153060
763.811	0.0153276
763.889	0.0153727
763.967	0.0154644
764.045	0.0152810
764.123	0.0152805
764.201	0.0154495
764.280	0.0154344
764.358	0.0154008
764.436	0.0152593
764.514	0.0153460
764.592	0.0153922
764.670	0.0154189
764.748	0.0155132
764.826	0.0154567
764.905	0.0153526
764.983	0.0152825
765.061	0.0154240
765.139	0.0155428
765.217	0.0155005
765.295	0.0154611
765.373	0.0155400
765.451	0.0155135
765.530	0.0155615
765.608	0.0153801
765.686	0.0155017
765.764	0.0155338
765.842	0.0154834
765.920	0.0154958
765.998	0.0154199
766.076	0.0152679
766.155	0.0153860
766.233	0.0152898
766.311	0.0152467
766.389	0.0150975
766.467	0.0152901
766.545	0.0151444
766.623	0.0151350
766.701	0.0150412
766.780	0.0150466
766.858	0.0151232
766.936	0.0149945
767.014	0.0149572
767.092	0.0151473
767.170	0.0151244
767.248	0.0150408
767.326	0.0152258
767.405	0.0151171
767.483	0.0152678
767.561	0.0152862
767.639	0.0152941
767.717	0.0153515
767.795	0.0152273
767.873	0.0153096
767.951	0.0154630
768.030	0.0154404
768.108	0.0154171
768.186	0.0155917
768.264	0.0156055
768.342	0.0155600
768.420	0.0155689
768.498	0.0156247
768.576	0.0155611
768.655	0.0156565
768.733	0.0155618
768.811	0.0155521
768.889	0.0156802
768.967	0.0157179
769.045	0.0156172
769.123	0.0156516
769.201	0.0155772
769.280	0.0156535
769.358	0.0155930
769.436	0.0154780
769.514	0.0155547
769.592	0.0155203
769.670	0.0157460
769.748	0.0154981
769.826	0.0155248
769.905	0.0156905
769.983	0.0156753
770.061	0.0155984
770.139	0.0156268
770.217	0.0156027
770.295	0.0155842
770.373	0.0154741
770.451	0.0155381
770.530	0.0154977
770.608	0.0155351
770.686	0.0155358
770.764	0.0153397
770.842	0.0153923
770.920	0.0153857
770.998	0.0153603
771.076	0.0152242
771.155	0.0153139
771.233	0.0152949
771.311	0.0151897
771.389	0.0151421
771.467	0.0151276
771.545	0.0150633
771.623	0.0151703
771.701	0.0150182
771.780	0.0151040
771.858	0.0150591
771.936	0.0150496
772.014	0.0150359
772.092	0.0150269
772.170	0.0152557
772.248	0.0151396
772.326	0.0149947
772.405	0.0150714
772.483	0.0150243
772.561	0.0150883
772.639	0.0151083
772.717	0.0151153
772.795	0.0150716
772.873	0.0153495
772.951	0.0151872
773.030	0.0151690
773.108	0.0152542
773.186	0.0153539
773.264	0.0152451
773.342	0.0154440
773.420	0.0153892
773.498	0.0154302
773.576	0.0154989
773.655	0.0154373
773.733	0.0154897
773.811	0.0156081
773.889	0.0154951
773.967	0.0155426
774.045	0.0155641
774.123	0.0155450
774.201	0.0155200
774.280	0.0154852
774.358	0.0155051
774.436	0.0154451
774.514	0.0154205
774.592	0.0154264
774.670	0.0154328
774.748	0.0152856
774.826	0.0153242
774.905	0.0153876
774.983	0.0151871
775.061	0.0151799
775.139	0.0151515
775.217	0.0152735
775.295	0.0151544
775.373	0.0152373
775.451	0.0152044
775.530	0.0150871
775.608	0.0152914
775.686	0.0150991
775.764	0.0152145
775.842	0.0151530
775.920	0.0151503
775.998	0.0151070
776.076	0.0151402
776.155	0.0152524
776.233	0.0151212
776.311	0.0151138
776.389	0.0152743
776.467	0.0152349
776.545	0.0151646
776.623	0.0152679
776.701	0.0153358
776.780	0.0151447
776.858	0.0152564
776.936	0.0152962
777.014	0.0152435
777.092	0.0153220
777.170	0.0152188
777.248	0.0151715
777.326	0.0152039
777.405	0.0151564
777.483	0.0152192
777.561	0.0151592
777.639	0.0152448
777.717	0.0150903
777.795	0.0151349
777.873	0.0151833
777.951	0.0151656
778.030	0.0151740
778.108	0.0152079
778.186	0.0152069
778.264	0.0151722
778.342	0.0151898
778.420	0.0151620
778.498	0.0151705
778.576	0.0151155
778.655	0.0152348
778.733	0.0150581
778.811	0.0151858
778.889	0.0151529
778.967	0.0151055
779.045	0.0151878
779.123	0.0152261
779.201	0.0154184
779.280	0.0151879
779.358	0.0152587
779.436	0.0153782
779.514	0.0152799
779.592	0.0152106
779.670	0.0152148
779.748	0.0152439
779.826	0.0151743
779.905	0.0150240
779.983	0.0150383
780.061	0.0152499
780.139	0.0152667
780.217	0.0151390
780.295	0.0150498
780.373	0.0152455
780.451	0.0151632
780.530	0.0153139
780.608	0.0151286
780.686	0.0151960
780.764	0.0152683
780.842	0.0152246
780.920	0.0152034
780.998	0.0151260
781.076	0.0152016
781.155	0.0151006
781.233	0.0153400
781.311	0.0152219
781.389	0.0151276
781.467	0.0151130
781.545	0.0150535
781.623	0.0151800
781.701	0.0152281
781.780	0.0149701
781.858	0.0149573
781.936	0.0151038
782.014	0.0150028
782.092	0.0150845
782.170	0.0150818
782.248	0.0151431
782.326	0.0150694
782.405	0.0151374
782.483	0.0149680
782.561	0.0150880
782.639	0.0151055
782.717	0.0150201
782.795	0.0149982
782.873	0.0149975
782.951	0.0150730
783.030	0.0150885
783.108	0.0150804
783.186	0.0150127
783.264	0.0151564
783.342	0.0152175
783.420	0.0152466
783.498	0.0151715
783.576	0.0151694
783.655	0.0151510
783.733	0.0153116
783.811	0.0152789
783.889	0.0151977
783.967	0.0153326
784.045	0.0152665
784.123	0.0152885
784.201	0.0151529
784.280	0.0152951
784.358	0.0154036
784.436	0.0153427
784.514	0.0152592
784.592	0.0152256
784.670	0.0152956
784.748	0.0152738
784.826	0.0153750
784.905	0.0152959
784.983	0.0152705
785.061	0.0153468
785.139	0.0153237
785.217	0.0153690
785.295	0.0154035
785.373	0.0152763
785.451	0.0153364
785.530	0.0153026
785.608	0.0155354
785.686	0.0154256
785.764	0.0153516
785.842	0.0154170
785.920	0.0153867
785.998	0.0152028
786.076	0.0154220
786.155	0.0154511
786.233	0.0153561
786.311	0.0153594
786.389	0.0153549
786.467	0.0154508
786.545	0.0154153
786.623	0.0153316
786.701	0.0153840
786.780	0.0154897
786.858	0.0152550
786.936	0.0152884
787.014	0.0152563
787.092	0.0153482
787.170	0.0152337
787.248	0.0151881
787.326	0.0151936
787.405	0.0152374
787.483	0.0151820
787.561	0.0152161
787.639	0.0151186
787.717	0.0151067
787.795	0.0151206
787.873	0.0152145
787.951	0.0152489
788.030	0.0150342
788.108	0.0151712
788.186	0.0151638
788.264	0.0152272
788.342	0.0151557
788.420	0.0152587
788.498	0.0152428
788.576	0.0152360
788.655	0.0153590
788.733	0.0153936
788.811	0.0153566
788.889	0.0152759
788.967	0.0155254
789.045	0.0155482
789.123	0.0155214
789.201	0.0155863
789.280	0.0154925
789.358	0.0157220
789.436	0.0157021
789.514	0.0155799
789.592	0.0155833
789.670	0.0156997
789.748	0.0155479
789.826	0.0155733
789.905	0.0156895
789.983	0.0155561
790.061	0.0156507
790.139	0.0156212
790.217	0.0154436
790.295	0.0154170
790.373	0.0154067
790.451	0.0157158
790.530	0.0153953
790.608	0.0153605
790.686	0.0156196
790.764	0.0155056
790.842	0.0152662
790.920	0.0154230
790.998	0.0154171
791.076	0.0153116
791.155	0.0151745
791.233	0.0151549
791.311	0.0152679
791.389	0.0151632
791.467	0.0151373
791.545	0.0153075
791.623	0.0152498
791.701	0.0151149
791.780	0.0150215
791.858	0.0152035
791.936	0.0151920
792.014	0.0151855
792.092	0.0150721
792.170	0.0151741
792.248	0.0151318
792.326	0.0152398
792.405	0.0152434
792.483	0.0151177
792.561	0.0151491
792.639	0.0151549
792.717	0.0151927
792.795	0.0151374
792.873	0.0150191
792.951	0.0150277
793.030	0.0152056
793.108	0.0152157
793.186	0.0149265
793.264	0.0149581
793.342	0.0151026
793.420	0.0151237
793.498	0.0151156
793.576	0.0150499
793.655	0.0150394
793.733	0.0149398
793.811	0.0150278
793.889	0.0150285
793.967	0.0149924
794.045	0.0149884
794.123	0.0149764
794.201	0.0150176
794.280	0.0150912
794.358	0.0150723
794.436	0.0149613
794.514	0.0149997
794.592	0.0150770
794.670	0.0150431
794.748	0.0149705
794.826	0.0152633
794.905	0.0151128
794.983	0.0151528
795.061	0.0152046
795.139	0.0152268
795.217	0.0151418
795.295	0.0152313
795.373	0.0152497
795.451	0.0153219
795.530	0.0152858
795.608	0.0153588
795.686	0.0152299
795.764	0.0153083
795.842	0.0153325
795.920	0.0153263
795.998	0.0153387
796.076	0.0155081
796.155	0.0153686
796.233	0.0152347
796.311	0.0153024
796.389	0.0153162
796.467	0.0154314
796.545	0.0154390
796.623	0.0152701
796.701	0.0152694
796.780	0.0152639
796.858	0.0153784
796.936	0.0150451
797.014	0.0152014
797.092	0.0153722
797.170	0.0152504
797.248	0.0152614
797.326	0.0152020
797.405	0.0152502
797.483	0.0152409
797.561	0.0152798
797.639	0.0152132
797.717	0.0152435
797.795	0.0152573
797.873	0.0152171
797.951	0.0153064
798.030	0.0151013
798.108	0.0151286
798.186	0.0149066
798.264	0.0151154
798.342	0.0151093
798.420	0.0150600
798.498	0.0151340
798.576	0.0149583
798.655	0.0150333
798.733	0.0150215
798.811	0.0149721
798.889	0.0150363
798.967	0.0150287
799.045	0.0150017
799.123	0.0150901
799.201	0.0152059
799.280	0.0151750
799.358	0.0150794
799.436	0.0151463
799.514	0.0152647
799.592	0.0150452
799.670	0.0149661
799.748	0.0150113
799.826	0.0151619
799.905	0.0152595
799.983	0.0152284
800.061	0.0151569
800.139	0.0151125
800.217	0.0152663
800.295	0.0153053
800.373	0.0151713
800.451	0.0150493
800.530	0.0151283
800.608	0.0152572
800.686	0.0152076
800.764	0.0151940
800.842	0.0152818
800.920	0.0151891
800.998	0.0152395
801.076	0.0152158
801.155	0.0148761
801.233	0.0151742
801.311	0.0154302
801.389	0.0153506
801.467	0.0152958
801.545	0.0153239
801.623	0.0152438
801.701	0.0152531
801.780	0.0151987
801.858	0.0154185
801.936	0.0154045
802.014	0.0152075
802.092	0.0153539
802.170	0.0152489
802.248	0.0151031
802.326	0.0153425
802.405	0.0152063
802.483	0.0152265
802.561	0.0151116
802.639	0.0152441
802.717	0.0151915
802.795	0.0150114
802.873	0.0150537
802.951	0.0151416
803.030	0.0151778
803.108	0.0150348
803.186	0.0149937
803.264	0.0149139
803.342	0.0151925
803.420	0.0150955
803.498	0.0151883
803.576	0.0151501
803.655	0.0150646
803.733	0.0151763
803.811	0.0151283
803.889	0.0152430
803.967	0.0151434
804.045	0.0152173
804.123	0.0151490
804.201	0.0151424
804.280	0.0152371
804.358	0.0150558
804.436	0.0152032
804.514	0.0152597
804.592	0.0153792
804.670	0.0152879
804.748	0.0152884
804.826	0.0153458
804.905	0.0154189
804.983	0.0154233
805.061	0.0152624
805.139	0.0154012
805.217	0.0153835
805.295	0.0153558
805.373	0.0154825
805.451	0.0155015
805.530	0.0154741
805.608	0.0154298
805.686	0.0155251
805.764	0.0154159
805.842	0.0154844
805.920	0.0154042
805.998	0.0152049
806.076	0.0152184
806.155	0.0154301
806.233	0.0152740
806.311	0.0152328
806.389	0.0152505
806.467	0.0151779
806.545	0.0150512
806.623	0.0152793
806.701	0.0153592
806.780	0.0151840
806.858	0.0149854
806.936	0.0150143
807.014	0.0151332
807.092	0.0153275
807.170	0.0150796
807.248	0.0150295
807.326	0.0150504
807.405	0.0150172
807.483	0.0151188
807.561	0.0150629
807.639	0.0150652
807.717	0.0151450
807.795	0.0151058
807.873	0.0151304
807.951	0.0151211
808.030	0.0151249
808.108	0.0151846
808.186	0.0152652
808.264	0.0151392
808.342	0.0152454
808.420	0.0152079
808.498	0.0151271
808.576	0.0153417
808.655	0.0154007
808.733	0.0155148
808.811	0.0153236
808.889	0.0153179
808.967	0.0153983
809.045	0.0153635
809.123	0.0153417
809.201	0.0154426
809.280	0.0154763
809.358	0.0153905
809.436	0.0152704
809.514	0.0153258
809.592	0.0154170
809.670	0.0153693
809.748	0.0154941
809.826	0.0153632
809.905	0.0153217
809.983	0.0152986
810.061	0.0153840
810.139	0.0152602
810.217	0.0152872
810.295	0.0152752
810.373	0.0153140
810.451	0.0152172
810.530	0.0151414
810.608	0.0152434
810.686	0.0154182
810.764	0.0153237
810.842	0.0150833
810.920	0.0153020
810.998	0.0152439
811.076	0.0152167
811.155	0.0150015
811.233	0.0151325
811.311	0.0150642
811.389	0.0150803
811.467	0.0149691
811.545	0.0150998
811.623	0.0150832
811.701	0.0150043
811.780	0.0151408
811.858	0.0150633
811.936	0.0151263
812.014	0.0151627
812.092	0.0151031
812.170	0.0151370
812.248	0.0152145
812.326	0.0151217
812.405	0.0150202
812.483	0.0151319
812.561	0.0150953
812.639	0.0152703
812.717	0.0152720
812.795	0.0152059
812.873	0.0151227
812.951	0.0152993
813.030	0.0152715
813.108	0.0152042
813.186	0.0153014
813.264	0.0152389
813.342	0.0153275
813.420	0.0152748
813.498	0.0152195
813.576	0.0152953
813.655	0.0152612
813.733	0.0151587
813.811	0.0151968
813.889	0.0152542
813.967	0.0152404
814.045	0.0153371
814.123	0.0151899
814.201	0.0152446
814.280	0.0151643
814.358	0.0151647
814.436	0.0151125
814.514	0.0151030
814.592	0.0151620
814.670	0.0151782
814.748	0.0153038
814.826	0.0152865
814.905	0.0152168
814.983	0.0153268
815.061	0.0153653
815.139	0.0152811
815.217	0.0153050
815.295	0.0154057
815.373	0.0151890
815.451	0.0154102
815.530	0.0155067
815.608	0.0153528
815.686	0.0154457
815.764	0.0152119
815.842	0.0154749
815.920	0.0154717
815.998	0.0154164
816.076	0.0154665
816.155	0.0153763
816.233	0.0154121
816.311	0.0154092
816.389	0.0154069
816.467	0.0155209
816.545	0.0153967
816.623	0.0154575
816.701	0.0153238
816.780	0.0154663
816.858	0.0153346
816.936	0.0152509
817.014	0.0152187
817.092	0.0153661
817.170	0.0152975
817.248	0.0152979
817.326	0.0152185
817.405	0.0153433
817.483	0.0151575
817.561	0.0152332
817.639	0.0153020
817.717	0.0152441
817.795	0.0150761
817.873	0.0150128
817.951	0.0150174
818.030	0.0151932
818.108	0.0149908
818.186	0.0150175
818.264	0.0151830
818.342	0.0151207
818.420	0.0150909
818.498	0.0152134
818.576	0.0150967
818.655	0.0152080
818.733	0.0152278
818.811	0.0152189
818.889	0.0152713
818.967	0.0153542
819.045	0.0152886
819.123	0.0152656
819.201	0.0153066
819.280	0.0152209
819.358	0.0153689
819.436	0.0154481
819.514	0.0152458
819.592	0.0152211
819.670	0.0153591
819.748	0.0152503
819.826	0.0153111
819.905	0.0153344
819.983	0.0154485
820.061	0.0152814
820.139	0.0154242
820.217	0.0153656
820.295	0.0154720
820.373	0.0155177
820.451	0.0152995
820.530	0.0153805
820.608	0.0154292
820.686	0.0153645
820.764	0.0153479
820.842	0.0154237
820.920	0.0153802
820.998	0.0154404
821.076	0.0154613
821.155	0.0155029
821.233	0.0154650
821.311	0.0154583
821.389	0.0153309
821.467	0.0153937
821.545	0.0155206
821.623	0.0153773
821.701	0.0153635
821.780	0.0153947
821.858	0.0155031
821.936	0.0153523
822.014	0.0153233
822.092	0.0153524
822.170	0.0153277
822.248	0.0152979
822.326	0.0152624
822.405	0.0154494
822.483	0.0153886
822.561	0.0153948
822.639	0.0153078
822.717	0.0151759
822.795	0.0152582
822.873	0.0152429
822.951	0.0150372
823.030	0.0152926
823.108	0.0152283
823.186	0.0152055
823.264	0.0153447
823.342	0.0152234
823.420	0.0152016
823.498	0.0152002
823.576	0.0152190
823.655	0.0152627
823.733	0.0153140
823.811	0.0152322
823.889	0.0153337
823.967	0.0151944
824.045	0.0151547
824.123	0.0152522
824.201	0.0152954
824.280	0.0152312
824.358	0.0151640
824.436	0.0154156
824.514	0.0153438
824.592	0.0153410
824.670	0.0153673
824.748	0.0152952
824.826	0.0151675
824.905	0.0153788
824.983	0.0153165
825.061	0.0152988
825.139	0.0154019
825.217	0.0153746
825.295	0.0153213
825.373	0.0153581
825.451	0.0152578
825.530	0.0153067
825.608	0.0155246
825.686	0.0154741
825.764	0.0154627
825.842	0.0154165
825.920	0.0154210
825.998	0.0154681
826.076	0.0154743
826.155	0.0154079
826.233	0.0154195
826.311	0.0154260
826.389	0.0155289
826.467	0.0155672
826.545	0.0154213
826.623	0.0154340
826.701	0.0155283
826.780	0.0154881
826.858	0.0154280
826.936	0.0153846
827.014	0.0154620
827.092	0.0155077
827.170	0.0154419
827.248	0.0155450
827.326	0.0154430
827.405	0.0154523
827.483	0.0154858
827.561	0.0154224
827.639	0.0154257
827.717	0.0153412
827.795	0.0153471
827.873	0.0153518
827.951	0.0153115
828.030	0.0154491
828.108	0.0154551
828.186	0.0154240
828.264	0.0153854
828.342	0.0154494
828.420	0.0153773
828.498	0.0154016
828.576	0.0152321
828.655	0.0153219
828.733	0.0154942
828.811	0.0155032
828.889	0.0153389
828.967	0.0154482
829.045	0.0153233
829.123	0.0155923
829.201	0.0154472
829.280	0.0155308
829.358	0.0154689
829.436	0.0154577
829.514	0.0154883
829.592	0.0154825
829.670	0.0154930
829.748	0.0154964
829.826	0.0154408
829.905	0.0153416
829.983	0.0154984
830.061	0.0153358
830.139	0.0155834
830.217	0.0154360
830.295	0.0153736
830.373	0.0154322
830.451	0.0153664
830.530	0.0154223
830.608	0.0154575
830.686	0.0153142
830.764	0.0153580
830.842	0.0153895
830.920	0.0153913
830.998	0.0154467
831.076	0.0153230
831.155	0.0154351
831.233	0.0153729
831.311	0.0153503
831.389	0.0154787
831.467	0.0154020
831.545	0.0154393
831.623	0.0152700
831.701	0.0152863
831.780	0.0153364
831.858	0.0153097
831.936	0.0153287
832.014	0.0153291
832.092	0.0152584
832.170	0.0152878
832.248	0.0153644
832.326	0.0152327
832.405	0.0153284
832.483	0.0153784
832.561	0.0151816
832.639	0.0152552
832.717	0.0153111
832.795	0.0150988
832.873	0.0153101
832.951	0.0152230
833.030	0.0150643
833.108	0.0151744
833.186	0.0151810
833.264	0.0152348
833.342	0.0152264
833.420	0.0151125
833.498	0.0151682
833.576	0.0151242
833.655	0.0150346
833.733	0.0151865
833.811	0.0152071
833.889	0.0151841
833.967	0.0152784
834.045	0.0152783
834.123	0.0151575
834.201	0.0150046
834.280	0.0151379
834.358	0.0152152
834.436	0.0150964
834.514	0.0151521
834.592	0.0151969
834.670	0.0151826
834.748	0.0151870
834.826	0.0152334
834.905	0.0153299
834.983	0.0152333
835.061	0.0149817
835.139	0.0151931
835.217	0.0152996
835.295	0.0152544
835.373	0.0153080
835.451	0.0153888
835.530	0.0153183
835.608	0.0153126
835.686	0.0152531
835.764	0.0151687
835.842	0.0153425
835.920	0.0152145
835.998	0.0152941
836.076	0.0153078
836.155	0.0150999
836.233	0.0150562
836.311	0.0150681
836.389	0.0151129
836.467	0.0151099
836.545	0.0151866
836.623	0.0152949
836.701	0.0152606
836.780	0.0152630
836.858	0.0151727
836.936	0.0152828
837.014	0.0151797
837.092	0.0152312
837.170	0.0152198
837.248	0.0151828
837.326	0.0152982
837.405	0.0152984
837.483	0.0151773
837.561	0.0152219
837.639	0.0152454
837.717	0.0153387
837.795	0.0151784
837.873	0.0151636
837.951	0.0151240
838.030	0.0150867
838.108	0.0153384
838.186	0.0152536
838.264	0.0152551
838.342	0.0152997
838.420	0.0151385
838.498	0.0151267
838.576	0.0151735
838.655	0.0151157
838.733	0.0152842
838.811	0.0152249
838.889	0.0152728
838.967	0.0152805
839.045	0.0153816
839.123	0.0153619
839.201	0.0153162
839.280	0.0153698
839.358	0.0152792
839.436	0.0152670
839.514	0.0154150
839.592	0.0152471
839.670	0.0153352
839.748	0.0152797
839.826	0.0153291
839.905	0.0154243
839.983	0.0153456
840.061	0.0153664
840.139	0.0153011
840.217	0.0153310
840.295	0.0153094
840.373	0.0153584
840.451	0.0152601
840.530	0.0153428
840.608	0.0153648
840.686	0.0152846
840.764	0.0155551
840.842	0.0153392
840.920	0.0153246
840.998	0.0152899
841.076	0.0151935
841.155	0.0152496
841.233	0.0153653
841.311	0.0153929
841.389	0.0152263
841.467	0.0153586
841.545	0.0153056
841.623	0.0153278
841.701	0.0152621
841.780	0.0153684
841.858	0.0153551
841.936	0.0153095
842.014	0.0154214
842.092	0.0153593
842.170	0.0153065
842.248	0.0153351
842.326	0.0154515
842.405	0.0152889
842.483	0.0153639
842.561	0.0153709
842.639	0.0152697
842.717	0.0154597
842.795	0.0153385
842.873	0.0154640
842.951	0.0154443
843.030	0.0154170
843.108	0.0154641
843.186	0.0153101
843.264	0.0154116
843.342	0.0153613
843.420	0.0152980
843.498	0.0154367
843.576	0.0155017
843.655	0.0154070
843.733	0.0154982
843.811	0.0153260
843.889	0.0151419
843.967	0.0152376
844.045	0.0153036
844.123	0.0152880
844.201	0.0154416
844.280	0.0152168
844.358	0.0152544
844.436	0.0152677
844.514	0.0152515
844.592	0.0153169
844.670	0.0154463
844.748	0.0153753
844.826	0.0151601
844.905	0.0153661
844.983	0.0152542
845.061	0.0151637
845.139	0.0152668
845.217	0.0152612
845.295	0.0152823
845.373	0.0152532
845.451	0.0153416
845.530	0.0154176
845.608	0.0153312
845.686	0.0153336
845.764	0.0152440
845.842	0.0153255
845.920	0.0152174
845.998	0.0152421
846.076	0.0153893
846.155	0.0152907
846.233	0.0153989
846.311	0.0154332
846.389	0.0154152
846.467	0.0154118
846.545	0.0153979
846.623	0.0155582
846.701	0.0154573
846.780	0.0154059
846.858	0.0154247
846.936	0.0155009
847.014	0.0154125
847.092	0.0153930
847.170	0.0153725
847.248	0.0153604
847.326	0.0154588
847.405	0.0156037
847.483	0.0153808
847.561	0.0154185
847.639	0.0155193
847.717	0.0154947
847.795	0.0154086
847.873	0.0155646
847.951	0.0155180
848.030	0.0154099
848.108	0.0155558
848.186	0.0154500
848.264	0.0154652
848.342	0.0154949
848.420	0.0154160
848.498	0.0152807
848.576	0.0154172
848.655	0.0153944
848.733	0.0154218
848.811	0.0154155
848.889	0.0155495
848.967	0.0153129
849.045	0.0153264
849.123	0.0152715
849.201	0.0153272
849.280	0.0153105
849.358	0.0153034
849.436	0.0154112
849.514	0.0155553
849.592	0.0153409
849.670	0.0153701
849.748	0.0153220
849.826	0.0153638
849.905	0.0153087
849.983	0.0154349
850.061	0.0154131
850.139	0.0153330
850.217	0.0155097
850.295	0.0153799
850.373	0.0154808
850.451	0.0154312
850.530	0.0153517
850.608	0.0153337
850.686	0.0154652
850.764	0.0154275
850.842	0.0154396
850.920	0.0153072
850.998	0.0153484
851.076	0.0153162
851.155	0.0153629
851.233	0.0153785
851.311	0.0153307
851.389	0.0153548
851.467	0.0152647
851.545	0.0153902
851.623	0.0153743
851.701	0.0153400
851.780	0.0153376
851.858	0.0153271
851.936	0.0154764
852.014	0.0152610
852.092	0.0153014
852.170	0.0154120
852.248	0.0153098
852.326	0.0153798
852.405	0.0153625
852.483	0.0154501
852.561	0.0153100
852.639	0.0153439
852.717	0.0154008
852.795	0.0153543
852.873	0.0154597
852.951	0.0155035
853.030	0.0153390
853.108	0.0154572
853.186	0.0155424
853.264	0.0155411
853.342	0.0154083
853.420	0.0155121
853.498	0.0155375
853.576	0.0155080
853.655	0.0154691
853.733	0.0154819
853.811	0.0155528
853.889	0.0154301
853.967	0.0154457
854.045	0.0154893
854.123	0.0154510
854.201	0.0153504
854.280	0.0154926
854.358	0.0153819
854.436	0.0153885
854.514	0.0153107
854.592	0.0152785
854.670	0.0152677
854.748	0.0154105
854.826	0.0154007
854.905	0.0152274
854.983	0.0154412
855.061	0.0154148
855.139	0.0153583
855.217	0.0153458
855.295	0.0153059
855.373	0.0153240
855.451	0.0152255
855.530	0.0153323
855.608	0.0154087
855.686	0.0153077
855.764	0.0152795
855.842	0.0153848
855.920	0.0154173
855.998	0.0152412
856.076	0.0154576
856.155	0.0152493
856.233	0.0153392
856.311	0.0152177
856.389	0.0151842
856.467	0.0152219
856.545	0.0151831
856.623	0.0153151
856.701	0.0151785
856.780	0.0152945
856.858	0.0153218
856.936	0.0150610
857.014	0.0151965
857.092	0.0152753
857.170	0.0151282
857.248	0.0150857
857.326	0.0150751
857.405	0.0150694
857.483	0.0150867
857.561	0.0151134
857.639	0.0152129
857.717	0.0151389
857.795	0.0151176
857.873	0.0151852
857.951	0.0151014
858.030	0.0151258
858.108	0.0152654
858.186	0.0151222
858.264	0.0150048
858.342	0.0151608
858.420	0.0151371
858.498	0.0150700
858.576	0.0151398
858.655	0.0151865
858.733	0.0150449
858.811	0.0151196
858.889	0.0150381
858.967	0.0152039
859.045	0.0150682
859.123	0.0152098
859.201	0.0150689
859.280	0.0150912
859.358	0.0151531
859.436	0.0151420
859.514	0.0150290
859.592	0.0150127
859.670	0.0151536
859.748	0.0151030
859.826	0.0151873
859.905	0.0151352
859.983	0.0151722
860.061	0.0151701
860.139	0.0151120
860.217	0.0151754
860.295	0.0152609
860.373	0.0153168
860.451	0.0151681
860.530	0.0152448
860.608	0.0153027
860.686	0.0150908
860.764	0.0153111
860.842	0.0150788
860.920	0.0153057
860.998	0.0152968
861.076	0.0151355
861.155	0.0152236
861.233	0.0152722
861.311	0.0153200
861.389	0.0152092
861.467	0.0151644
861.545	0.0151364
861.623	0.0153220
861.701	0.0151586
861.780	0.0153101
861.858	0.0151939
861.936	0.0151900
862.014	0.0152143
862.092	0.0151266
862.170	0.0151340
862.248	0.0151405
862.326	0.0152055
862.405	0.0152042
862.483	0.0150845
862.561	0.0152090
862.639	0.0151854
862.717	0.0151559
862.795	0.0151238
862.873	0.0151428
862.951	0.0150350
863.030	0.0152361
863.108	0.0151273
863.186	0.0151718
863.264	0.0150241
863.342	0.0150540
863.420	0.0150529
863.498	0.0151888
863.576	0.0151624
863.655	0.0152046
863.733	0.0151120
863.811	0.0150544
863.889	0.0151418
863.967	0.0151681
864.045	0.0153033
864.123	0.0152544
864.201	0.0152423
864.280	0.0151022
864.358	0.0150132
864.436	0.0152420
864.514	0.0155139
864.592	0.0153349
864.670	0.0152051
864.748	0.0153103
864.826	0.0152242
864.905	0.0152991
864.983	0.0152463
865.061	0.0153745
865.139	0.0153581
865.217	0.0152516
865.295	0.0152621
865.373	0.0153094
865.451	0.0152406
865.530	0.0152977
865.608	0.0153635
865.686	0.0152432
865.764	0.0152249
865.842	0.0152185
865.920	0.0152047
865.998	0.0153600
866.076	0.0153722
866.155	0.0154060
866.233	0.0152918
866.311	0.0152984
866.389	0.0153089
866.467	0.0153423
866.545	0.0154235
866.623	0.0153699
866.701	0.0153771
866.780	0.0153239
866.858	0.0154311
866.936	0.0153804
867.014	0.0153696
867.092	0.0155137
867.170	0.0152727
867.248	0.0152399
867.326	0.0153785
867.405	0.0152801
867.483	0.0152163
867.561	0.0153471
867.639	0.0152873
867.717	0.0152808
867.795	0.0153741
867.873	0.0153173
867.951	0.0151109
868.030	0.0153980
868.108	0.0153999
868.186	0.0152827
868.264	0.0152155
868.342	0.0153017
868.420	0.0152516
868.498	0.0151369
868.576	0.0151850
868.655	0.0152806
868.733	0.0151324
868.811	0.0150438
868.889	0.0152320
868.967	0.0152907
869.045	0.0152114
869.123	0.0152655
869.201	0.0152001
869.280	0.0153307
869.358	0.0153033
869.436	0.0151168
869.514	0.0151348
869.592	0.0152472
869.670	0.0152588
869.748	0.0151991
869.826	0.0152033
869.905	0.0152599
869.983	0.0152681
870.061	0.0152029
870.139	0.0152563
870.217	0.0152071
870.295	0.0152683
870.373	0.0153820
870.451	0.0152761
870.530	0.0153253
870.608	0.0152843
870.686	0.0153059
870.764	0.0153819
870.842	0.0152750
870.920	0.0153083
870.998	0.0152304
871.076	0.0153407
871.155	0.0153506
871.233	0.0153188
871.311	0.0153503
871.389	0.0152109
871.467	0.0152322
871.545	0.0153232
871.623	0.0153368
871.701	0.0152470
871.780	0.0152265
871.858	0.0152642
871.936	0.0152201
872.014	0.0152251
872.092	0.0153972
872.170	0.0151288
872.248	0.0151002
872.326	0.0151465
872.405	0.0152489
872.483	0.0151929
872.561	0.0152249
872.639	0.0153136
872.717	0.0153997
872.795	0.0152948
872.873	0.0153032
872.951	0.0152579
873.030	0.0152481
873.108	0.0153872
873.186	0.0154511
873.264	0.0153921
873.342	0.0153555
873.420	0.0153349
873.498	0.0152595
873.576	0.0153310
873.655	0.0154179
873.733	0.0153320
873.811	0.0153649
873.889	0.0153454
873.967	0.0152505
874.045	0.0154044
874.123	0.0154073
874.201	0.0154465
874.280	0.0152461
874.358	0.0153622
874.436	0.0154942
874.514	0.0154223
874.592	0.0154200
874.670	0.0154486
874.748	0.0153080
874.826	0.0154161
874.905	0.0154392
874.983	0.0153857
875.061	0.0153470
875.139	0.0153760
875.217	0.0154434
875.295	0.0154288
875.373	0.0154333
875.451	0.0153652
875.530	0.0154314
875.608	0.0152466
875.686	0.0153615
875.764	0.0154585
875.842	0.0154556
875.920	0.0153135
875.998	0.0153541
876.076	0.0154881
876.155	0.0155635
876.233	0.0153904
876.311	0.0153183
876.389	0.0152841
876.467	0.0152910
876.545	0.0153537
876.623	0.0153310
876.701	0.0153038
876.780	0.0153776
876.858	0.0152730
876.936	0.0154037
877.014	0.0152648
877.092	0.0153706
877.170	0.0153168
877.248	0.0153033
877.326	0.0154208
877.405	0.0154391
877.483	0.0153603
877.561	0.0153920
877.639	0.0154792
877.717	0.0153526
877.795	0.0152599
877.873	0.0152554
877.951	0.0153432
878.030	0.0153432
878.108	0.0152565
878.186	0.0152676
878.264	0.0152515
878.342	0.0154380
878.420	0.0154661
878.498	0.0153455
878.576	0.0152883
878.655	0.0153008
878.733	0.0153140
878.811	0.0153558
878.889	0.0153110
878.967	0.0153149
879.045	0.0151468
879.123	0.0152624
879.201	0.0152669
879.280	0.0151223
879.358	0.0153322
879.436	0.0152377
879.514	0.0152833
879.592	0.0151659
879.670	0.0151444
879.748	0.0152833
879.826	0.0153359
879.905	0.0153967
879.983	0.0152316
880.061	0.0152824
880.139	0.0152883
880.217	0.0154048
880.295	0.0153757
880.373	0.0154733
880.451	0.0153969
880.530	0.0153809
880.608	0.0153907
880.686	0.0152456
880.764	0.0153496
880.842	0.0154046
880.920	0.0153742
880.998	0.0153678
881.076	0.0153316
881.155	0.0153109
881.233	0.0153603
881.311	0.0153741
881.389	0.0152953
881.467	0.0151729
881.545	0.0154050
881.623	0.0153219
881.701	0.0150233
881.780	0.0152229
881.858	0.0153738
881.936	0.0151319
882.014	0.0150958
882.092	0.0150909
882.170	0.0152688
882.248	0.0151349
882.326	0.0151591
882.405	0.0152001
882.483	0.0151658
882.561	0.0152214
882.639	0.0152103
882.717	0.0151712
882.795	0.0151050
882.873	0.0152441
882.951	0.0152966
883.030	0.0151616
883.108	0.0152032
883.186	0.0151375
883.264	0.0151900
883.342	0.0152093
883.420	0.0152259
883.498	0.0152668
883.576	0.0152109
883.655	0.0153510
883.733	0.0153796
883.811	0.0153177
883.889	0.0151315
883.967	0.0151976
884.045	0.0152161
884.123	0.0153069
884.201	0.0152396
884.280	0.0153294
884.358	0.0151202
884.436	0.0151842
884.514	0.0152869
884.592	0.0151775
884.670	0.0152367
884.748	0.0153200
884.826	0.0152511
884.905	0.0151914
884.983	0.0151884
885.061	0.0153013
885.139	0.0152853
885.217	0.0151856
885.295	0.0152061
885.373	0.0152787
885.451	0.0151705
885.530	0.0152922
885.608	0.0151881
885.686	0.0151617
885.764	0.0152902
885.842	0.0151942
885.920	0.0151315
885.998	0.0152414
886.076	0.0151208
886.155	0.0153139
886.233	0.0152251
886.311	0.0152508
886.389	0.0151418
886.467	0.0151116
886.545	0.0150745
886.623	0.0152586
886.701	0.0150955
886.780	0.0150063
886.858	0.0153223
886.936	0.0151879
887.014	0.0151727
887.092	0.0152788
887.170	0.0153443
887.248	0.0152592
887.326	0.0153468
887.405	0.0151987
887.483	0.0153150
887.561	0.0152818
887.639	0.0151823
887.717	0.0152514
887.795	0.0151357
887.873	0.0152410
887.951	0.0152328
888.030	0.0151274
888.108	0.0152029
888.186	0.0152588
888.264	0.0152603
888.342	0.0152410
888.420	0.0152342
888.498	0.0151424
888.576	0.0151935
888.655	0.0153100
888.733	0.0152689
888.811	0.0153864
888.889	0.0154120
888.967	0.0153117
889.045	0.0153414
889.123	0.0154317
889.201	0.0153941
889.280	0.0152445
889.358	0.0153764
889.436	0.0152335
889.514	0.0152850
889.592	0.0153641
889.670	0.0153564
889.748	0.0153374
889.826	0.0154142
889.905	0.0152926
889.983	0.0154015
890.061	0.0153788
890.139	0.0152997
890.217	0.0152699
890.295	0.0154256
890.373	0.0153063
890.451	0.0154273
890.530	0.0153013
890.608	0.0152942
890.686	0.0153541
890.764	0.0153638
890.842	0.0153361
890.920	0.0153003
890.998	0.0152540
891.076	0.0151817
891.155	0.0153226
891.233	0.0153035
891.311	0.0151854
891.389	0.0152982
891.467	0.0152079
891.545	0.0152364
891.623	0.0151652
891.701	0.0153767
891.780	0.0152058
891.858	0.0151704
891.936	0.0152293
892.014	0.0151395
892.092	0.0152368
892.170	0.0151254
892.248	0.0152565
892.326	0.0153674
892.405	0.0152732
892.483	0.0151440
892.561	0.0152153
892.639	0.0152672
892.717	0.0150691
892.795	0.0152228
892.873	0.0152421
892.951	0.0152366
893.030	0.0152337
893.108	0.0152433
893.186	0.0153361
893.264	0.0153426
893.342	0.0153368
893.420	0.0152472
893.498	0.0152837
893.576	0.0153974
893.655	0.0154096
893.733	0.0153577
893.811	0.0153603
893.889	0.0152810
893.967	0.0152840
894.045	0.0152716
894.123	0.0153445
894.201	0.0152060
894.280	0.0153403
894.358	0.0152538
894.436	0.0153146
894.514	0.0152750
894.592	0.0151587
894.670	0.0152446
894.748	0.0152449
894.826	0.0152232
894.905	0.0152267
894.983	0.0151765
895.061	0.0151772
895.139	0.0152448
895.217	0.0152155
895.295	0.0153667
895.373	0.0153722
895.451	0.0151172
895.530	0.0152481
895.608	0.0153244
895.686	0.0153415
895.764	0.0153076
895.842	0.0153149
895.920	0.0153982
895.998	0.0154332
896.076	0.0152419
896.155	0.0153333
896.233	0.0152908
896.311	0.0151804
896.389	0.0153434
896.467	0.0154037
896.545	0.0151595
896.623	0.0153530
896.701	0.0152763
896.780	0.0151382
896.858	0.0152168
896.936	0.0152382
897.014	0.0152219
897.092	0.0152402
897.170	0.0151772
897.248	0.0153834
897.326	0.0153308
897.405	0.0151855
897.483	0.0151875
897.561	0.0152245
897.639	0.0151986
897.717	0.0153208
897.795	0.0153014
897.873	0.0152747
897.951	0.0154157
898.030	0.0153299
898.108	0.0151830
898.186	0.0152496
898.264	0.0153705
898.342	0.0153097
898.420	0.0153874
898.498	0.0153378
898.576	0.0152808
898.655	0.0153583
898.733	0.0155471
898.811	0.0155251
898.889	0.0155134
898.967	0.0155318
899.045	0.0154505
899.123	0.0155822
899.201	0.0154466
899.280	0.0155083
899.358	0.0153747
899.436	0.0154089
899.514	0.0154888
899.592	0.0155379
899.670	0.0154420
899.748	0.0154523
899.826	0.0153722
899.905	0.0153642
899.983	0.0154274
900.061	0.0154229
900.139	0.0153658
900.217	0.0154404
900.295	0.0153181
900.373	0.0153532
900.451	0.0155110
900.530	0.0153617
900.608	0.0154232
900.686	0.0154317
900.764	0.0155385
900.842	0.0152603
900.920	0.0153382
900.998	0.0153689
901.076	0.0154565
901.155	0.0154324
901.233	0.0154526
901.311	0.0154041
901.389	0.0155199
901.467	0.0153770
901.545	0.0152976
901.623	0.0154122
901.701	0.0155175
901.780	0.0155682
901.858	0.0154240
901.936	0.0155020
902.014	0.0155162
902.092	0.0153709
902.170	0.0153593
902.248	0.0154160
902.326	0.0154388
902.405	0.0153584
902.483	0.0153096
902.561	0.0153962
902.639	0.0153907
902.717	0.0154112
902.795	0.0153761
902.873	0.0152168
902.951	0.0153088
903.030	0.0154527
903.108	0.0154391
903.186	0.0153201
903.264	0.0154688
903.342	0.0153329
903.420	0.0153779
903.498	0.0152718
903.576	0.0153815
903.655	0.0153098
903.733	0.0154736
903.811	0.0152699
903.889	0.0152911
903.967	0.0154945
904.045	0.0154225
904.123	0.0154396
904.201	0.0154221
904.280	0.0153133
904.358	0.0153365
904.436	0.0153127
904.514	0.0152367
904.592	0.0153088
904.670	0.0153035
904.748	0.0152902
904.826	0.0152460
904.905	0.0151881
904.983	0.0152854
905.061	0.0152213
905.139	0.0152392
905.217	0.0153343
905.295	0.0152232
905.373	0.0152430
905.451	0.0152790
905.530	0.0152816
905.608	0.0152364
905.686	0.0152301
905.764	0.0151695
905.842	0.0152457
905.920	0.0153890
905.998	0.0153493
906.076	0.0151734
906.155	0.0151976
906.233	0.0154517
906.311	0.0153333
906.389	0.0153174
906.467	0.0151786
906.545	0.0152705
906.623	0.0153845
906.701	0.0153182
906.780	0.0154115
906.858	0.0153244
906.936	0.0152991
907.014	0.0152853
907.092	0.0153574
907.170	0.0152157
907.248	0.0153448
907.326	0.0153719
907.405	0.0153095
907.483	0.0152947
907.561	0.0152910
907.639	0.0153188
907.717	0.0154364
907.795	0.0153374
907.873	0.0152567
907.951	0.0154585
908.030	0.0154669
908.108	0.0153247
908.186	0.0153613
908.264	0.0154441
908.342	0.0152634
908.420	0.0153318
908.498	0.0152334
908.576	0.0152228
908.655	0.0152183
908.733	0.0153608
908.811	0.0150788
908.889	0.0152465
908.967	0.0153298
909.045	0.0154194
909.123	0.0153019
909.201	0.0153881
909.280	0.0152117
909.358	0.0154008
909.436	0.0153655
909.514	0.0152328
909.592	0.0152593
909.670	0.0152948
909.748	0.0152019
909.826	0.0152294
909.905	0.0153269
909.983	0.0152487
910.061	0.0153584
910.139	0.0152054
910.217	0.0153190
910.295	0.0153064
910.373	0.0153333
910.451	0.0153264
910.530	0.0152007
910.608	0.0152814
910.686	0.0152741
910.764	0.0151574
910.842	0.0153072
910.920	0.0153838
910.998	0.0152536
911.076	0.0151799
911.155	0.0153161
911.233	0.0151990
911.311	0.0152184
911.389	0.0152623
911.467	0.0152081
911.545	0.0152334
911.623	0.0152264
911.701	0.0153304
911.780	0.0151876
911.858	0.0152218
911.936	0.0152527
912.014	0.0153618
912.092	0.0152441
912.170	0.0152609
912.248	0.0152682
912.326	0.0153018
912.405	0.0153444
912.483	0.0151910
912.561	0.0152596
912.639	0.0152960
912.717	0.0152587
912.795	0.0152526
912.873	0.0151640
912.951	0.0152248
913.030	0.0153059
913.108	0.0153220
913.186	0.0153453
913.264	0.0154817
913.342	0.0151760
913.420	0.0151800
913.498	0.0153822
913.576	0.0153989
913.655	0.0153461
913.733	0.0151019
913.811	0.0151413
913.889	0.0152976
913.967	0.0152763
914.045	0.0153883
914.123	0.0152895
914.201	0.0152553
914.280	0.0152056
914.358	0.0153973
914.436	0.0153033
914.514	0.0152753
914.592	0.0153004
914.670	0.0152824
914.748	0.0151755
914.826	0.0151552
914.905	0.0152414
914.983	0.0153523
915.061	0.0152544
915.139	0.0151558
915.217	0.0152502
915.295	0.0152382
915.373	0.0152232
915.451	0.0151955
915.530	0.0151063
915.608	0.0150281
915.686	0.0151241
915.764	0.0151722
915.842	0.0152688
915.920	0.0151575
915.998	0.0150843
916.076	0.0151768
916.155	0.0153349
916.233	0.0152285
916.311	0.0152345
916.389	0.0151736
916.467	0.0152110
916.545	0.0151698
916.623	0.0152385
916.701	0.0152699
916.780	0.0152378
916.858	0.0152128
916.936	0.0152438
917.014	0.0152586
917.092	0.0153390
917.170	0.0151966
917.248	0.0153042
917.326	0.0152158
917.405	0.0153441
917.483	0.0152525
917.561	0.0153448
917.639	0.0153505
917.717	0.0154023
917.795	0.0154395
917.873	0.0153317
917.951	0.0153640
918.030	0.0154139
918.108	0.0153310
918.186	0.0153612
918.264	0.0154150
918.342	0.0153163
918.420	0.0153557
918.498	0.0154552
918.576	0.0152617
918.655	0.0151970
918.733	0.0154481
918.811	0.0153511
918.889	0.0153046
918.967	0.0154295
919.045	0.0154417
919.123	0.0154652
919.201	0.0152504
919.280	0.0153398
919.358	0.0151689
919.436	0.0152901
919.514	0.0153722
919.592	0.0153629
919.670	0.0152338
919.748	0.0154401
919.826	0.0152045
919.905	0.0153408
919.983	0.0151737
920.061	0.0152017
920.139	0.0151740
920.217	0.0152855
920.295	0.0152270
920.373	0.0151908
920.451	0.0152615
920.530	0.0152043
920.608	0.0152000
920.686	0.0151322
920.764	0.0152176
920.842	0.0151803
920.920	0.0152760
920.998	0.0151549
921.076	0.0151385
921.155	0.0150596
921.233	0.0152598
921.311	0.0151591
921.389	0.0151575
921.467	0.0152129
921.545	0.0152499
921.623	0.0152489
921.701	0.0151573
921.780	0.0151286
921.858	0.0152158
921.936	0.0152209
922.014	0.0153246
922.092	0.0153246
922.170	0.0153017
922.248	0.0152286
922.326	0.0152003
922.405	0.0153230
922.483	0.0152880
922.561	0.0154393
922.639	0.0153568
922.717	0.0152219
922.795	0.0152652
922.873	0.0153004
922.951	0.0153743
923.030	0.0153355
923.108	0.0154144
923.186	0.0154082
923.264	0.0153741
923.342	0.0153708
923.420	0.0153347
923.498	0.0153093
923.576	0.0152795
923.655	0.0154963
923.733	0.0155482
923.811	0.0153477
923.889	0.0154546
923.967	0.0154509
924.045	0.0153975
924.123	0.0155321
924.201	0.0154536
924.280	0.0153368
924.358	0.0154781
924.436	0.0155085
924.514	0.0154647
924.592	0.0153069
924.670	0.0153588
924.748	0.0153436
924.826	0.0153689
924.905	0.0153310
924.983	0.0153669
925.061	0.0154462
925.139	0.0154259
925.217	0.0153108
925.295	0.0153617
925.373	0.0153011
925.451	0.0154594
925.530	0.0154385
925.608	0.0153641
925.686	0.0155026
925.764	0.0153764
925.842	0.0153189
925.920	0.0154228
925.998	0.0153910
926.076	0.0153395
926.155	0.0153699
926.233	0.0154779
926.311	0.0153137
926.389	0.0154802
926.467	0.0154206
926.545	0.0152591
926.623	0.0154600
926.701	0.0154489
926.780	0.0153886
926.858	0.0153223
926.936	0.0153226
927.014	0.0152817
927.092	0.0153257
927.170	0.0152862
927.248	0.0152296
927.326	0.0152283
927.405	0.0153303
927.483	0.0153052
927.561	0.0153220
927.639	0.0152673
927.717	0.0152070
927.795	0.0152881
927.873	0.0153501
927.951	0.0153136
928.030	0.0152467
928.108	0.0152956
928.186	0.0153262
928.264	0.0153384
928.342	0.0152213
928.420	0.0153258
928.498	0.0153392
928.576	0.0152948
928.655	0.0153745
928.733	0.0151843
928.811	0.0152361
928.889	0.0152530
928.967	0.0152371
929.045	0.0151880
929.123	0.0152187
929.201	0.0154460
929.280	0.0152794
929.358	0.0152882
929.436	0.0153046
929.514	0.0152503
929.592	0.0152181
929.670	0.0151736
929.748	0.0152400
929.826	0.0152444
929.905	0.0152031
929.983	0.0152442
930.061	0.0151540
930.139	0.0151406
930.217	0.0151221
930.295	0.0151900
930.373	0.0151894
930.451	0.0151041
930.530	0.0151478
930.608	0.0150832
930.686	0.0151147
930.764	0.0151643
930.842	0.0152647
930.920	0.0150924
930.998	0.0152058
931.076	0.0151808
931.155	0.0152139
931.233	0.0151113
931.311	0.0152782
931.389	0.0153208
931.467	0.0152596
931.545	0.0152282
931.623	0.0151836
931.701	0.0153481
931.780	0.0151962
931.858	0.0152453
931.936	0.0152370
932.014	0.0153693
932.092	0.0153224
932.170	0.0153298
932.248	0.0152258
932.326	0.0153263
932.405	0.0152135
932.483	0.0153068
932.561	0.0154514
932.639	0.0154299
932.717	0.0154163
932.795	0.0153305
932.873	0.0154273
932.951	0.0153642
933.030	0.0152575
933.108	0.0153216
933.186	0.0153489
933.264	0.0153998
933.342	0.0153965
933.420	0.0153535
933.498	0.0154415
933.576	0.0154439
933.655	0.0153410
933.733	0.0153900
933.811	0.0153654
933.889	0.0152351
933.967	0.0153329
934.045	0.0153037
934.123	0.0154393
934.201	0.0154346
934.280	0.0153172
934.358	0.0152758
934.436	0.0153209
934.514	0.0152377
934.592	0.0153862
934.670	0.0154395
934.748	0.0153135
934.826	0.0152914
934.905	0.0152725
934.983	0.0152789
935.061	0.0153350
935.139	0.0152356
935.217	0.0152693
935.295	0.0154977
935.373	0.0151768
935.451	0.0152370
935.530	0.0152781
935.608	0.0151413
935.686	0.0151971
935.764	0.0152193
935.842	0.0151073
935.920	0.0151164
935.998	0.0151906
936.076	0.0151446
936.155	0.0151118
936.233	0.0151715
936.311	0.0151729
936.389	0.0152111
936.467	0.0150307
936.545	0.0152048
936.623	0.0151584
936.701	0.0150969
936.780	0.0152293
936.858	0.0151745
936.936	0.0152545
937.014	0.0151603
937.092	0.0152850
937.170	0.0153388
937.248	0.0152869
937.326	0.0153026
937.405	0.0152505
937.483	0.0152407
937.561	0.0153946
937.639	0.0152307
937.717	0.0153824
937.795	0.0153433
937.873	0.0153719
937.951	0.0151997
938.030	0.0153516
938.108	0.0153070
938.186	0.0153135
938.264	0.0153239
938.342	0.0153028
938.420	0.0152645
938.498	0.0154253
938.576	0.0152464
938.655	0.0152808
938.733	0.0152508
938.811	0.0151855
938.889	0.0152861
938.967	0.0152596
939.045	0.0152460
939.123	0.0152686
939.201	0.0152766
939.280	0.0152943
939.358	0.0153209
939.436	0.0153041
939.514	0.0152204
939.592	0.0151014
939.670	0.0151131
939.748	0.0152755
939.826	0.0151973
939.905	0.0152282
939.983	0.0153140
940.061	0.0154328
940.139	0.0151918
940.217	0.0151598
940.295	0.0152087
940.373	0.0152367
940.451	0.0152902
940.530	0.0152133
940.608	0.0150962
940.686	0.0150980
940.764	0.0151766
940.842	0.0151807
940.920	0.0152152
940.998	0.0151880
941.076	0.0151910
941.155	0.0153093
941.233	0.0151878
941.311	0.0151390
941.389	0.0150357
941.467	0.0152094
941.545	0.0151637
941.623	0.0150501
941.701	0.0151646
941.780	0.0150513
941.858	0.0151618
941.936	0.0152785
942.014	0.0150596
942.092	0.0151624
942.170	0.0152074
942.248	0.0152711
942.326	0.0151409
942.405	0.0152156
942.483	0.0151638
942.561	0.0152655
942.639	0.0150464
942.717	0.0151192
942.795	0.0152660
942.873	0.0151456
942.951	0.0151526
943.030	0.0151106
943.108	0.0153402
943.186	0.0153469
943.264	0.0151648
943.342	0.0152189
943.420	0.0152410
943.498	0.0153959
943.576	0.0154096
943.655	0.0153136
943.733	0.0153005
943.811	0.0152743
943.889	0.0153039
943.967	0.0152836
944.045	0.0151572
944.123	0.0151472
944.201	0.0153846
944.280	0.0152456
944.358	0.0152316
944.436	0.0152860
944.514	0.0151045
944.592	0.0152436
944.670	0.0151543
944.748	0.0152827
944.826	0.0151076
944.905	0.0150955
944.983	0.0151723
945.061	0.0151535
945.139	0.0151971
945.217	0.0151566
945.295	0.0152446
945.373	0.0151517
945.451	0.0151437
945.530	0.0151851
945.608	0.0152718
945.686	0.0151899
945.764	0.0152917
945.842	0.0150359
945.920	0.0152381
945.998	0.0152319
946.076	0.0152446
946.155	0.0152994
946.233	0.0152651
946.311	0.0152797
946.389	0.0152947
946.467	0.0152618
946.545	0.0152526
946.623	0.0152480
946.701	0.0152984
946.780	0.0153385
946.858	0.0152489
946.936	0.0151438
947.014	0.0152928
947.092	0.0152132
947.170	0.0151874
947.248	0.0152338
947.326	0.0152599
947.405	0.0151573
947.483	0.0152710
947.561	0.0152917
947.639	0.0153043
947.717	0.0152036
947.795	0.0152233
947.873	0.0153069
947.951	0.0151685
948.030	0.0151284
948.108	0.0152812
948.186	0.0152262
948.264	0.0152662
948.342	0.0153208
948.420	0.0152773
948.498	0.0152653
948.576	0.0152046
948.655	0.0154286
948.733	0.0152338
948.811	0.0151741
948.889	0.0151451
948.967	0.0152710
949.045	0.0153150
949.123	0.0152533
949.201	0.0151440
949.280	0.0152863
949.358	0.0152779
949.436	0.0151369
949.514	0.0152863
949.592	0.0152758
949.670	0.0151260
949.748	0.0152947
949.826	0.0153456
949.905	0.0152496
949.983	0.0152959
950.061	0.0152400
950.139	0.0153971
950.217	0.0153138
950.295	0.0154440
950.373	0.0153747
950.451	0.0153675
950.530	0.0153083
950.608	0.0152849
950.686	0.0154187
950.764	0.0154625
950.842	0.0153606
950.920	0.0153638
950.998	0.0151736
951.076	0.0152737
951.155	0.0154508
951.233	0.0153888
951.311	0.0152220
951.389	0.0152824
951.467	0.0154690
951.545	0.0154630
951.623	0.0152756
951.701	0.0153911
951.780	0.0153140
951.858	0.0153332
951.936	0.0153050
952.014	0.0153792
952.092	0.0153456
952.170	0.0153229
952.248	0.0153405
952.326	0.0154335
952.405	0.0152984
952.483	0.0153490
952.561	0.0152940
952.639	0.0152218
952.717	0.0152650
952.795	0.0153963
952.873	0.0152620
952.951	0.0152380
953.030	0.0152571
953.108	0.0154129
953.186	0.0153201
953.264	0.0153233
953.342	0.0152489
953.420	0.0153259
953.498	0.0153009
953.576	0.0153069
953.655	0.0152939
953.733	0.0152687
953.811	0.0152407
953.889	0.0152704
953.967	0.0153427
954.045	0.0152448
954.123	0.0152671
954.201	0.0152360
954.280	0.0154175
954.358	0.0153649
954.436	0.0151326
954.514	0.0151767
954.592	0.0153653
954.670	0.0151973
954.748	0.0151196
954.826	0.0153438
954.905	0.0152812
954.983	0.0151956
955.061	0.0152417
955.139	0.0151696
955.217	0.0153360
955.295	0.0152274
955.373	0.0152025
955.451	0.0152415
955.530	0.0152238
955.608	0.0153419
955.686	0.0153437
955.764	0.0153009
955.842	0.0151789
955.920	0.0151693
955.998	0.0151862
956.076	0.0151836
956.155	0.0153693
956.233	0.0153140
956.311	0.0152904
956.389	0.0152771
956.467	0.0153470
956.545	0.0153191
956.623	0.0153321
956.701	0.0154670
956.780	0.0153841
956.858	0.0154406
956.936	0.0154826
957.014	0.0154271
957.092	0.0154449
957.170	0.0154827
957.248	0.0155354
957.326	0.0154007
957.405	0.0155176
957.483	0.0155724
957.561	0.0155082
957.639	0.0154912
957.717	0.0154934
957.795	0.0154730
957.873	0.0154674
957.951	0.0154324
958.030	0.0154016
958.108	0.0153955
958.186	0.0154604
958.264	0.0153442
958.342	0.0153605
958.420	0.0154055
958.498	0.0153665
958.576	0.0153350
958.655	0.0152965
958.733	0.0153445
958.811	0.0152440
958.889	0.0152770
958.967	0.0152219
959.045	0.0151700
959.123	0.0151601
959.201	0.0152938
959.280	0.0152664
959.358	0.0151449
959.436	0.0151424
959.514	0.0152008
959.592	0.0152930
959.670	0.0150929
959.748	0.0151297
959.826	0.0152092
959.905	0.0152583
