05/20/2022	17:10:14	Ver.	4.1	UNKNOWN
Optical Delay	639.982744	Delta X		0.078125	Sweeps	1	Scan Rate	0/0
Coordinates	Axis 1	NaN	Axis 2	NaN	Axis 3	NaN	Axis 4	NaN	Axis 5	NaN	Axis 6	0.000000
TX Power	0.000000	RX Power	0.000000

639.983	0.0154005
640.061	0.0155757
640.139	0.0155264
640.217	0.0156513
640.295	0.0157585
640.373	0.0156481
640.451	0.0155959
640.530	0.0154168
640.608	0.0154773
640.686	0.0155618
640.764	0.0154372
640.842	0.0153558
640.920	0.0154469
640.998	0.0154635
641.076	0.0153629
641.155	0.0155952
641.233	0.0153736
641.311	0.0153185
641.389	0.0154842
641.467	0.0155235
641.545	0.0154987
641.623	0.0156248
641.701	0.0155211
641.780	0.0154577
641.858	0.0154832
641.936	0.0156176
642.014	0.0155420
642.092	0.0154890
642.170	0.0156380
642.248	0.0154957
642.326	0.0155172
642.405	0.0155769
642.483	0.0154530
642.561	0.0155161
642.639	0.0154907
642.717	0.0155591
642.795	0.0154360
642.873	0.0154866
642.951	0.0155532
643.030	0.0157003
643.108	0.0156138
643.186	0.0153973
643.264	0.0154425
643.342	0.0154662
643.420	0.0155388
643.498	0.0155893
643.576	0.0155331
643.655	0.0155202
643.733	0.0154827
643.811	0.0155534
643.889	0.0154281
643.967	0.0153484
644.045	0.0155280
644.123	0.0154232
644.201	0.0155624
644.280	0.0154919
644.358	0.0154401
644.436	0.0154758
644.514	0.0153212
644.592	0.0154193
644.670	0.0153971
644.748	0.0153876
644.826	0.0154069
644.905	0.0154765
644.983	0.0155602
645.061	0.0153572
645.139	0.0153490
645.217	0.0153465
645.295	0.0154463
645.373	0.0154668
645.451	0.0153656
645.530	0.0153102
645.608	0.0155252
645.686	0.0155067
645.764	0.0154056
645.842	0.0154258
645.920	0.0154874
645.998	0.0154496
646.076	0.0154457
646.155	0.0154008
646.233	0.0153670
646.311	0.0154420
646.389	0.0153211
646.467	0.0154427
646.545	0.0154787
646.623	0.0154645
646.701	0.0154761
646.780	0.0154437
646.858	0.0156065
646.936	0.0156485
647.014	0.0156087
647.092	0.0154892
647.170	0.0154563
647.248	0.0155913
647.326	0.0155456
647.405	0.0156147
647.483	0.0155342
647.561	0.0154769
647.639	0.0154303
647.717	0.0155606
647.795	0.0153152
647.873	0.0154855
647.951	0.0156085
648.030	0.0155016
648.108	0.0155197
648.186	0.0154250
648.264	0.0154295
648.342	0.0155437
648.420	0.0155483
648.498	0.0154979
648.576	0.0155329
648.655	0.0155742
648.733	0.0156055
648.811	0.0156166
648.889	0.0156354
648.967	0.0155820
649.045	0.0156304
649.123	0.0155811
649.201	0.0155408
649.280	0.0155429
649.358	0.0155745
649.436	0.0155342
649.514	0.0154475
649.592	0.0154466
649.670	0.0155930
649.748	0.0156415
649.826	0.0155021
649.905	0.0155083
649.983	0.0156702
650.061	0.0156274
650.139	0.0157146
650.217	0.0156179
650.295	0.0156537
650.373	0.0155591
650.451	0.0155868
650.530	0.0156022
650.608	0.0155643
650.686	0.0157317
650.764	0.0157390
650.842	0.0156445
650.920	0.0155596
650.998	0.0154802
651.076	0.0156259
651.155	0.0155984
651.233	0.0154089
651.311	0.0154761
651.389	0.0154455
651.467	0.0155232
651.545	0.0155610
651.623	0.0154920
651.701	0.0153582
651.780	0.0152548
651.858	0.0154469
651.936	0.0154098
652.014	0.0153520
652.092	0.0153228
652.170	0.0153443
652.248	0.0154623
652.326	0.0153825
652.405	0.0154472
652.483	0.0154077
652.561	0.0153894
652.639	0.0154204
652.717	0.0153252
652.795	0.0153258
652.873	0.0154724
652.951	0.0154266
653.030	0.0154057
653.108	0.0154145
653.186	0.0154034
653.264	0.0154661
653.342	0.0154184
653.420	0.0154188
653.498	0.0154215
653.576	0.0154263
653.655	0.0153746
653.733	0.0154242
653.811	0.0154772
653.889	0.0155510
653.967	0.0154185
654.045	0.0154210
654.123	0.0153897
654.201	0.0152518
654.280	0.0154132
654.358	0.0154667
654.436	0.0153152
654.514	0.0152558
654.592	0.0151519
654.670	0.0152685
654.748	0.0152148
654.826	0.0150944
654.905	0.0151995
654.983	0.0152061
655.061	0.0152202
655.139	0.0152082
655.217	0.0149222
655.295	0.0150912
655.373	0.0150974
655.451	0.0151614
655.530	0.0151096
655.608	0.0150671
655.686	0.0151734
655.764	0.0152885
655.842	0.0152523
655.920	0.0153151
655.998	0.0152783
656.076	0.0152883
656.155	0.0152697
656.233	0.0153585
656.311	0.0152022
656.389	0.0153747
656.467	0.0152506
656.545	0.0151803
656.623	0.0153378
656.701	0.0152625
656.780	0.0152064
656.858	0.0152116
656.936	0.0150988
657.014	0.0152711
657.092	0.0151997
657.170	0.0150257
657.248	0.0150039
657.326	0.0150414
657.405	0.0151050
657.483	0.0152115
657.561	0.0151376
657.639	0.0151765
657.717	0.0152422
657.795	0.0151328
657.873	0.0151632
657.951	0.0153085
658.030	0.0152787
658.108	0.0153706
658.186	0.0154213
658.264	0.0153194
658.342	0.0152131
658.420	0.0153386
658.498	0.0152408
658.576	0.0151794
658.655	0.0151381
658.733	0.0151735
658.811	0.0154086
658.889	0.0151817
658.967	0.0151482
659.045	0.0153407
659.123	0.0152106
659.201	0.0151772
659.280	0.0152036
659.358	0.0151831
659.436	0.0151205
659.514	0.0151579
659.592	0.0151652
659.670	0.0151670
659.748	0.0151025
659.826	0.0150768
659.905	0.0151624
659.983	0.0151952
660.061	0.0149947
660.139	0.0150751
660.217	0.0151707
660.295	0.0152091
660.373	0.0151434
660.451	0.0151864
660.530	0.0153265
660.608	0.0152167
660.686	0.0153979
660.764	0.0151936
660.842	0.0153069
660.920	0.0153674
660.998	0.0153788
661.076	0.0153902
661.155	0.0152514
661.233	0.0153056
661.311	0.0153596
661.389	0.0151737
661.467	0.0151870
661.545	0.0151392
661.623	0.0152034
661.701	0.0152934
661.780	0.0150933
661.858	0.0151076
661.936	0.0152988
662.014	0.0153800
662.092	0.0153065
662.170	0.0153384
662.248	0.0153445
662.326	0.0154865
662.405	0.0155647
662.483	0.0154729
662.561	0.0157039
662.639	0.0157322
662.717	0.0156273
662.795	0.0157800
662.873	0.0156850
662.951	0.0158035
663.030	0.0157944
663.108	0.0158123
663.186	0.0158457
663.264	0.0157436
663.342	0.0159106
663.420	0.0158630
663.498	0.0158033
663.576	0.0158752
663.655	0.0159669
663.733	0.0159643
663.811	0.0159512
663.889	0.0158782
663.967	0.0158866
664.045	0.0158311
664.123	0.0158584
664.201	0.0158059
664.280	0.0158430
664.358	0.0156399
664.436	0.0156326
664.514	0.0155259
664.592	0.0152715
664.670	0.0152852
664.748	0.0152922
664.826	0.0153936
664.905	0.0152151
664.983	0.0150465
665.061	0.0150103
665.139	0.0150241
665.217	0.0149170
665.295	0.0148669
665.373	0.0149315
665.451	0.0149571
665.530	0.0148190
665.608	0.0147865
665.686	0.0146350
665.764	0.0147721
665.842	0.0147186
665.920	0.0146667
665.998	0.0147947
666.076	0.0148733
666.155	0.0147276
666.233	0.0147555
666.311	0.0148816
666.389	0.0148293
666.467	0.0150421
666.545	0.0149766
666.623	0.0150368
666.701	0.0151392
666.780	0.0151601
666.858	0.0154602
666.936	0.0153237
667.014	0.0155693
667.092	0.0155467
667.170	0.0155095
667.248	0.0157360
667.326	0.0157361
667.405	0.0156810
667.483	0.0158678
667.561	0.0160540
667.639	0.0159922
667.717	0.0162005
667.795	0.0162366
667.873	0.0161199
667.951	0.0161514
668.030	0.0162949
668.108	0.0162120
668.186	0.0162531
668.264	0.0161166
668.342	0.0161372
668.420	0.0161263
668.498	0.0158731
668.576	0.0158513
668.655	0.0157199
668.733	0.0156894
668.811	0.0155000
668.889	0.0155319
668.967	0.0153310
669.045	0.0150617
669.123	0.0151736
669.201	0.0149737
669.280	0.0146867
669.358	0.0145131
669.436	0.0144019
669.514	0.0145125
669.592	0.0142590
669.670	0.0142446
669.748	0.0142516
669.826	0.0142529
669.905	0.0142432
669.983	0.0142609
670.061	0.0143754
670.139	0.0143967
670.217	0.0143452
670.295	0.0143847
670.373	0.0145541
670.451	0.0146029
670.530	0.0147089
670.608	0.0148116
670.686	0.0150423
670.764	0.0151393
670.842	0.0150481
670.920	0.0151048
670.998	0.0153397
671.076	0.0154855
671.155	0.0155556
671.233	0.0158110
671.311	0.0158125
671.389	0.0158527
671.467	0.0161282
671.545	0.0160944
671.623	0.0161960
671.701	0.0162487
671.780	0.0163277
671.858	0.0163452
671.936	0.0163862
672.014	0.0165265
672.092	0.0165372
672.170	0.0165514
672.248	0.0165324
672.326	0.0164515
672.405	0.0166366
672.483	0.0165982
672.561	0.0165730
672.639	0.0166949
672.717	0.0165792
672.795	0.0163642
672.873	0.0162586
672.951	0.0160903
673.030	0.0161572
673.108	0.0159993
673.186	0.0157922
673.264	0.0157493
673.342	0.0156599
673.420	0.0154922
673.498	0.0152682
673.576	0.0152287
673.655	0.0148836
673.733	0.0148983
673.811	0.0147208
673.889	0.0145728
673.967	0.0144520
674.045	0.0143768
674.123	0.0145415
674.201	0.0142334
674.280	0.0141381
674.358	0.0141691
674.436	0.0141222
674.514	0.0139700
674.592	0.0141618
674.670	0.0141251
674.748	0.0141124
674.826	0.0140636
674.905	0.0142799
674.983	0.0143543
675.061	0.0143870
675.139	0.0145802
675.217	0.0146671
675.295	0.0148792
675.373	0.0150682
675.451	0.0152456
675.530	0.0155096
675.608	0.0154968
675.686	0.0156477
675.764	0.0158285
675.842	0.0159282
675.920	0.0162302
675.998	0.0162386
676.076	0.0161760
676.155	0.0162407
676.233	0.0163013
676.311	0.0165192
676.389	0.0165375
676.467	0.0164397
676.545	0.0163779
676.623	0.0163871
676.701	0.0165329
676.780	0.0163706
676.858	0.0162614
676.936	0.0163473
677.014	0.0160622
677.092	0.0159107
677.170	0.0158917
677.248	0.0157861
677.326	0.0155508
677.405	0.0156358
677.483	0.0154298
677.561	0.0151773
677.639	0.0151754
677.717	0.0150334
677.795	0.0149746
677.873	0.0151453
677.951	0.0150350
678.030	0.0149544
678.108	0.0150767
678.186	0.0149959
678.264	0.0150227
678.342	0.0150447
678.420	0.0149320
678.498	0.0150464
678.576	0.0149663
678.655	0.0149428
678.733	0.0151809
678.811	0.0150562
678.889	0.0151093
678.967	0.0150917
679.045	0.0149590
679.123	0.0149728
679.201	0.0150617
679.280	0.0151112
679.358	0.0151482
679.436	0.0151607
679.514	0.0152995
679.592	0.0154251
679.670	0.0153645
679.748	0.0154850
679.826	0.0154130
679.905	0.0155650
679.983	0.0156202
680.061	0.0155015
680.139	0.0155684
680.217	0.0154642
680.295	0.0153880
680.373	0.0155175
680.451	0.0152648
680.530	0.0151859
680.608	0.0152605
680.686	0.0150673
680.764	0.0151158
680.842	0.0151656
680.920	0.0149113
680.998	0.0148736
681.076	0.0147691
681.155	0.0149426
681.233	0.0148902
681.311	0.0146853
681.389	0.0147742
681.467	0.0147625
681.545	0.0149316
681.623	0.0148318
681.701	0.0148641
681.780	0.0147717
681.858	0.0147815
681.936	0.0150658
682.014	0.0150986
682.092	0.0151861
682.170	0.0152778
682.248	0.0154851
682.326	0.0154446
682.405	0.0156903
682.483	0.0158331
682.561	0.0158898
682.639	0.0160863
682.717	0.0160798
682.795	0.0161397
682.873	0.0162585
682.951	0.0163611
683.030	0.0163532
683.108	0.0163102
683.186	0.0163557
683.264	0.0163227
683.342	0.0162894
683.420	0.0162761
683.498	0.0161854
683.576	0.0162525
683.655	0.0161468
683.733	0.0159238
683.811	0.0158363
683.889	0.0157990
683.967	0.0156178
684.045	0.0156688
684.123	0.0156190
684.201	0.0153687
684.280	0.0152899
684.358	0.0152133
684.436	0.0151840
684.514	0.0149405
684.592	0.0149364
684.670	0.0148498
684.748	0.0147436
684.826	0.0146756
684.905	0.0145609
684.983	0.0145156
685.061	0.0144433
685.139	0.0145408
685.217	0.0145117
685.295	0.0144339
685.373	0.0144947
685.451	0.0145036
685.530	0.0145064
685.608	0.0145673
685.686	0.0145238
685.764	0.0146211
685.842	0.0146361
685.920	0.0146153
685.998	0.0147336
686.076	0.0147413
686.155	0.0146259
686.233	0.0148946
686.311	0.0150365
686.389	0.0149106
686.467	0.0149045
686.545	0.0149339
686.623	0.0150410
686.701	0.0151975
686.780	0.0150999
686.858	0.0151711
686.936	0.0151474
687.014	0.0152139
687.092	0.0153931
687.170	0.0153786
687.248	0.0153922
687.326	0.0154656
687.405	0.0154886
687.483	0.0154601
687.561	0.0154986
687.639	0.0155886
687.717	0.0155334
687.795	0.0158035
687.873	0.0157369
687.951	0.0155918
688.030	0.0158172
688.108	0.0159190
688.186	0.0157358
688.264	0.0159861
688.342	0.0159740
688.420	0.0160194
688.498	0.0160244
688.576	0.0160632
688.655	0.0161163
688.733	0.0161143
688.811	0.0160951
688.889	0.0160399
688.967	0.0160247
689.045	0.0159993
689.123	0.0160023
689.201	0.0157676
689.280	0.0157495
689.358	0.0157123
689.436	0.0155842
689.514	0.0155255
689.592	0.0154624
689.670	0.0154120
689.748	0.0152238
689.826	0.0152666
689.905	0.0150976
689.983	0.0150917
690.061	0.0149670
690.139	0.0149947
690.217	0.0150189
690.295	0.0149002
690.373	0.0149276
690.451	0.0149378
690.530	0.0149200
690.608	0.0147646
690.686	0.0145341
690.764	0.0146556
690.842	0.0145863
690.920	0.0145065
690.998	0.0144522
691.076	0.0143443
691.155	0.0142778
691.233	0.0142331
691.311	0.0142636
691.389	0.0141262
691.467	0.0141461
691.545	0.0141451
691.623	0.0143224
691.701	0.0143191
691.780	0.0144491
691.858	0.0144450
691.936	0.0146582
692.014	0.0147906
692.092	0.0150932
692.170	0.0151591
692.248	0.0152988
692.326	0.0154700
692.405	0.0156400
692.483	0.0155700
692.561	0.0157539
692.639	0.0158693
692.717	0.0159573
692.795	0.0159538
692.873	0.0162768
692.951	0.0161275
693.030	0.0162141
693.108	0.0162318
693.186	0.0162473
693.264	0.0164184
693.342	0.0164103
693.420	0.0165002
693.498	0.0163686
693.576	0.0163680
693.655	0.0164868
693.733	0.0163036
693.811	0.0163247
693.889	0.0162180
693.967	0.0161289
694.045	0.0161449
694.123	0.0161160
694.201	0.0160977
694.280	0.0159750
694.358	0.0158638
694.436	0.0158213
694.514	0.0158620
694.592	0.0156868
694.670	0.0156572
694.748	0.0153641
694.826	0.0153835
694.905	0.0153171
694.983	0.0152391
695.061	0.0150770
695.139	0.0150488
695.217	0.0150462
695.295	0.0147985
695.373	0.0146083
695.451	0.0147192
695.530	0.0145802
695.608	0.0146514
695.686	0.0145052
695.764	0.0145329
695.842	0.0143548
695.920	0.0143802
695.998	0.0145098
696.076	0.0144340
696.155	0.0145410
696.233	0.0145718
696.311	0.0144569
696.389	0.0147202
696.467	0.0148035
696.545	0.0147930
696.623	0.0148485
696.701	0.0150129
696.780	0.0150955
696.858	0.0150407
696.936	0.0151353
697.014	0.0152055
697.092	0.0153310
697.170	0.0153477
697.248	0.0153210
697.326	0.0154677
697.405	0.0155679
697.483	0.0156697
697.561	0.0157147
697.639	0.0156917
697.717	0.0157101
697.795	0.0159585
697.873	0.0158692
697.951	0.0156608
698.030	0.0157339
698.108	0.0158032
698.186	0.0157088
698.264	0.0155402
698.342	0.0155846
698.420	0.0156209
698.498	0.0155136
698.576	0.0154799
698.655	0.0153865
698.733	0.0151849
698.811	0.0153271
698.889	0.0153126
698.967	0.0152708
699.045	0.0153009
699.123	0.0153417
699.201	0.0153487
699.280	0.0154604
699.358	0.0154842
699.436	0.0155984
699.514	0.0155428
699.592	0.0156440
699.670	0.0156349
699.748	0.0156099
699.826	0.0156805
699.905	0.0155945
699.983	0.0158021
700.061	0.0156948
700.139	0.0157485
700.217	0.0157336
700.295	0.0158488
700.373	0.0157361
700.451	0.0157599
700.530	0.0157872
700.608	0.0155581
700.686	0.0156899
700.764	0.0157996
700.842	0.0156940
700.920	0.0154501
700.998	0.0154819
701.076	0.0153706
701.155	0.0152883
701.233	0.0152807
701.311	0.0152097
701.389	0.0151884
701.467	0.0150649
701.545	0.0150183
701.623	0.0150253
701.701	0.0149312
701.780	0.0148571
701.858	0.0148321
701.936	0.0148533
702.014	0.0149146
702.092	0.0148186
702.170	0.0147543
702.248	0.0149522
702.326	0.0148427
702.405	0.0149014
702.483	0.0151430
702.561	0.0151723
702.639	0.0152024
702.717	0.0150858
702.795	0.0152007
702.873	0.0151941
702.951	0.0152436
703.030	0.0153547
703.108	0.0153813
703.186	0.0152891
703.264	0.0152190
703.342	0.0152347
703.420	0.0150680
703.498	0.0153026
703.576	0.0154128
703.655	0.0153966
703.733	0.0155661
703.811	0.0154405
703.889	0.0156136
703.967	0.0157030
704.045	0.0156852
704.123	0.0157851
704.201	0.0160187
704.280	0.0159663
704.358	0.0159225
704.436	0.0160033
704.514	0.0160247
704.592	0.0162180
704.670	0.0160659
704.748	0.0160490
704.826	0.0160828
704.905	0.0160318
704.983	0.0160214
705.061	0.0159795
705.139	0.0158417
705.217	0.0159733
705.295	0.0159797
705.373	0.0159599
705.451	0.0156323
705.530	0.0156196
705.608	0.0156625
705.686	0.0155071
705.764	0.0154465
705.842	0.0152826
705.920	0.0151435
705.998	0.0149139
706.076	0.0148596
706.155	0.0145629
706.233	0.0145936
706.311	0.0143993
706.389	0.0142825
706.467	0.0142422
706.545	0.0140515
706.623	0.0139804
706.701	0.0140423
706.780	0.0141341
706.858	0.0141563
706.936	0.0140773
707.014	0.0140924
707.092	0.0142857
707.170	0.0144859
707.248	0.0144994
707.326	0.0145549
707.405	0.0148198
707.483	0.0150299
707.561	0.0150703
707.639	0.0154222
707.717	0.0154612
707.795	0.0155483
707.873	0.0157517
707.951	0.0159161
708.030	0.0159005
708.108	0.0160893
708.186	0.0161861
708.264	0.0162733
708.342	0.0163330
708.420	0.0162645
708.498	0.0164022
708.576	0.0164756
708.655	0.0163691
708.733	0.0162727
708.811	0.0162285
708.889	0.0163603
708.967	0.0160793
709.045	0.0160395
709.123	0.0158817
709.201	0.0159273
709.280	0.0157561
709.358	0.0155782
709.436	0.0155949
709.514	0.0156367
709.592	0.0151823
709.670	0.0153107
709.748	0.0151456
709.826	0.0150357
709.905	0.0149612
709.983	0.0149770
710.061	0.0150565
710.139	0.0147272
710.217	0.0148129
710.295	0.0146623
710.373	0.0146874
710.451	0.0148908
710.530	0.0148109
710.608	0.0146704
710.686	0.0146294
710.764	0.0146021
710.842	0.0147912
710.920	0.0148757
710.998	0.0148442
711.076	0.0146907
711.155	0.0149448
711.233	0.0149829
711.311	0.0148560
711.389	0.0149758
711.467	0.0149642
711.545	0.0150064
711.623	0.0150643
711.701	0.0151857
711.780	0.0151505
711.858	0.0152579
711.936	0.0153590
712.014	0.0154374
712.092	0.0153610
712.170	0.0155699
712.248	0.0156021
712.326	0.0156334
712.405	0.0155824
712.483	0.0156123
712.561	0.0157356
712.639	0.0159053
712.717	0.0158109
712.795	0.0158339
712.873	0.0159366
712.951	0.0160268
713.030	0.0162267
713.108	0.0161377
713.186	0.0161352
713.264	0.0161266
713.342	0.0161545
713.420	0.0160329
713.498	0.0159757
713.576	0.0160553
713.655	0.0158779
713.733	0.0160114
713.811	0.0158416
713.889	0.0158473
713.967	0.0158533
714.045	0.0157693
714.123	0.0156506
714.201	0.0155677
714.280	0.0155062
714.358	0.0156406
714.436	0.0153119
714.514	0.0154012
714.592	0.0153912
714.670	0.0154114
714.748	0.0154111
714.826	0.0153222
714.905	0.0152942
714.983	0.0152355
715.061	0.0153426
715.139	0.0152200
715.217	0.0149804
715.295	0.0152449
715.373	0.0152511
715.451	0.0150624
715.530	0.0150633
715.608	0.0150489
715.686	0.0151042
715.764	0.0151347
715.842	0.0149522
715.920	0.0148038
715.998	0.0148234
716.076	0.0150085
716.155	0.0148578
716.233	0.0148483
716.311	0.0148791
716.389	0.0148999
716.467	0.0149210
716.545	0.0148882
716.623	0.0150002
716.701	0.0149221
716.780	0.0148524
716.858	0.0150823
716.936	0.0151955
717.014	0.0150420
717.092	0.0150245
717.170	0.0151962
717.248	0.0152848
717.326	0.0152473
717.405	0.0153036
717.483	0.0153768
717.561	0.0155524
717.639	0.0155132
717.717	0.0156129
717.795	0.0156514
717.873	0.0158576
717.951	0.0159653
718.030	0.0159486
718.108	0.0159208
718.186	0.0158287
718.264	0.0160218
718.342	0.0159198
718.420	0.0160822
718.498	0.0158994
718.576	0.0159842
718.655	0.0158910
718.733	0.0159884
718.811	0.0157189
718.889	0.0156266
718.967	0.0155756
719.045	0.0156186
719.123	0.0155108
719.201	0.0153480
719.280	0.0153999
719.358	0.0153091
719.436	0.0152777
719.514	0.0152081
719.592	0.0150613
719.670	0.0151472
719.748	0.0149551
719.826	0.0149547
719.905	0.0150329
719.983	0.0148521
720.061	0.0149213
720.139	0.0150581
720.217	0.0150986
720.295	0.0150180
720.373	0.0149439
720.451	0.0151151
720.530	0.0152805
720.608	0.0150763
720.686	0.0151376
720.764	0.0153631
720.842	0.0153755
720.920	0.0154416
720.998	0.0154144
721.076	0.0155197
721.155	0.0155329
721.233	0.0155414
721.311	0.0157906
721.389	0.0154936
721.467	0.0157890
721.545	0.0158469
721.623	0.0157159
721.701	0.0156235
721.780	0.0157937
721.858	0.0157761
721.936	0.0154697
722.014	0.0155542
722.092	0.0157687
722.170	0.0155157
722.248	0.0153984
722.326	0.0154182
722.405	0.0152911
722.483	0.0153063
722.561	0.0152531
722.639	0.0151336
722.717	0.0151814
722.795	0.0150277
722.873	0.0150451
722.951	0.0150097
723.030	0.0150480
723.108	0.0151661
723.186	0.0149786
723.264	0.0150985
723.342	0.0150731
723.420	0.0152557
723.498	0.0153015
723.576	0.0151935
723.655	0.0152769
723.733	0.0153576
723.811	0.0152663
723.889	0.0154578
723.967	0.0154903
724.045	0.0153690
724.123	0.0155334
724.201	0.0156306
724.280	0.0155183
724.358	0.0156390
724.436	0.0158305
724.514	0.0158337
724.592	0.0158706
724.670	0.0157188
724.748	0.0158734
724.826	0.0159274
724.905	0.0159383
724.983	0.0160438
725.061	0.0160866
725.139	0.0160734
725.217	0.0162080
725.295	0.0161088
725.373	0.0161584
725.451	0.0162271
725.530	0.0161502
725.608	0.0162978
725.686	0.0161076
725.764	0.0159901
725.842	0.0159264
725.920	0.0157332
725.998	0.0156569
726.076	0.0156232
726.155	0.0155273
726.233	0.0155035
726.311	0.0153990
726.389	0.0151538
726.467	0.0150200
726.545	0.0152593
726.623	0.0150665
726.701	0.0149338
726.780	0.0148765
726.858	0.0148753
726.936	0.0149310
727.014	0.0149535
727.092	0.0147952
727.170	0.0148180
727.248	0.0148743
727.326	0.0148035
727.405	0.0148194
727.483	0.0147790
727.561	0.0148898
727.639	0.0149201
727.717	0.0149179
727.795	0.0151228
727.873	0.0150470
727.951	0.0150006
728.030	0.0152145
728.108	0.0152248
728.186	0.0152166
728.264	0.0154609
728.342	0.0155992
728.420	0.0157526
728.498	0.0158241
728.576	0.0157435
728.655	0.0158625
728.733	0.0158447
728.811	0.0158617
728.889	0.0158843
728.967	0.0160025
729.045	0.0158344
729.123	0.0158969
729.201	0.0158893
729.280	0.0158189
729.358	0.0158046
729.436	0.0156602
729.514	0.0157626
729.592	0.0156740
729.670	0.0156492
729.748	0.0155163
729.826	0.0155102
729.905	0.0157227
729.983	0.0155504
730.061	0.0154070
730.139	0.0154583
730.217	0.0153772
730.295	0.0151869
730.373	0.0152523
730.451	0.0152061
730.530	0.0150935
730.608	0.0150824
730.686	0.0151974
730.764	0.0151224
730.842	0.0148043
730.920	0.0149580
730.998	0.0149393
731.076	0.0150055
731.155	0.0149725
731.233	0.0149812
731.311	0.0149421
731.389	0.0149213
731.467	0.0150234
731.545	0.0149383
731.623	0.0149075
731.701	0.0152917
731.780	0.0153046
731.858	0.0154184
731.936	0.0155007
732.014	0.0156066
732.092	0.0155412
732.170	0.0154568
732.248	0.0154890
732.326	0.0155804
732.405	0.0156388
732.483	0.0156495
732.561	0.0157797
732.639	0.0156403
732.717	0.0156796
732.795	0.0156483
732.873	0.0156685
732.951	0.0155973
733.030	0.0156379
733.108	0.0156751
733.186	0.0156735
733.264	0.0155450
733.342	0.0154951
733.420	0.0154838
733.498	0.0154660
733.576	0.0154758
733.655	0.0154385
733.733	0.0153619
733.811	0.0152732
733.889	0.0154099
733.967	0.0152355
734.045	0.0151670
734.123	0.0151125
734.201	0.0151399
734.280	0.0151791
734.358	0.0152086
734.436	0.0150233
734.514	0.0149580
734.592	0.0150755
734.670	0.0150572
734.748	0.0150932
734.826	0.0150844
734.905	0.0150613
734.983	0.0149698
735.061	0.0151665
735.139	0.0151571
735.217	0.0152635
735.295	0.0151936
735.373	0.0154501
735.451	0.0153646
735.530	0.0153078
735.608	0.0153300
735.686	0.0155563
735.764	0.0154713
735.842	0.0156127
735.920	0.0156660
735.998	0.0158060
736.076	0.0156927
736.155	0.0156805
736.233	0.0158553
736.311	0.0157452
736.389	0.0159393
736.467	0.0157619
736.545	0.0157808
736.623	0.0156242
736.701	0.0156754
736.780	0.0157575
736.858	0.0156120
736.936	0.0154469
737.014	0.0155246
737.092	0.0155463
737.170	0.0154521
737.248	0.0152934
737.326	0.0152429
737.405	0.0152699
737.483	0.0154202
737.561	0.0152095
737.639	0.0152811
737.717	0.0154322
737.795	0.0151492
737.873	0.0152869
737.951	0.0153871
738.030	0.0154541
738.108	0.0154526
738.186	0.0154801
738.264	0.0153946
738.342	0.0155453
738.420	0.0156462
738.498	0.0154660
738.576	0.0153685
738.655	0.0153765
738.733	0.0154427
738.811	0.0154906
738.889	0.0153966
738.967	0.0154964
739.045	0.0153112
739.123	0.0153947
739.201	0.0153555
739.280	0.0153969
739.358	0.0154563
739.436	0.0155695
739.514	0.0155952
739.592	0.0156438
739.670	0.0153788
739.748	0.0155675
739.826	0.0156803
739.905	0.0155002
739.983	0.0154801
740.061	0.0154714
740.139	0.0155439
740.217	0.0154613
740.295	0.0155946
740.373	0.0154087
740.451	0.0155104
740.530	0.0155199
740.608	0.0154430
740.686	0.0154913
740.764	0.0153940
740.842	0.0155431
740.920	0.0155249
740.998	0.0154198
741.076	0.0155775
741.155	0.0154928
741.233	0.0154762
741.311	0.0156631
741.389	0.0155942
741.467	0.0155785
741.545	0.0155169
741.623	0.0156213
741.701	0.0154195
741.780	0.0156054
741.858	0.0154251
741.936	0.0154395
742.014	0.0155281
742.092	0.0154381
742.170	0.0154290
742.248	0.0155318
742.326	0.0152720
742.405	0.0153764
742.483	0.0154762
742.561	0.0154831
742.639	0.0155242
742.717	0.0153832
742.795	0.0154894
742.873	0.0154931
742.951	0.0153592
743.030	0.0154009
743.108	0.0153432
743.186	0.0154924
743.264	0.0155022
743.342	0.0153928
743.420	0.0153250
743.498	0.0153019
743.576	0.0152740
743.655	0.0153017
743.733	0.0153792
743.811	0.0153502
743.889	0.0152092
743.967	0.0152895
744.045	0.0153333
744.123	0.0153453
744.201	0.0154382
744.280	0.0150562
744.358	0.0150968
744.436	0.0152354
744.514	0.0151649
744.592	0.0151012
744.670	0.0151370
744.748	0.0151514
744.826	0.0152034
744.905	0.0151884
744.983	0.0151952
745.061	0.0151722
745.139	0.0151851
745.217	0.0152911
745.295	0.0152090
745.373	0.0152947
745.451	0.0152693
745.530	0.0152979
745.608	0.0153331
745.686	0.0154732
745.764	0.0155950
745.842	0.0155705
745.920	0.0155392
745.998	0.0156051
746.076	0.0155389
746.155	0.0156076
746.233	0.0156678
746.311	0.0155588
746.389	0.0157027
746.467	0.0157005
746.545	0.0156550
746.623	0.0156552
746.701	0.0157145
746.780	0.0155344
746.858	0.0154716
746.936	0.0155381
747.014	0.0156940
747.092	0.0156666
747.170	0.0155142
747.248	0.0154703
747.326	0.0154603
747.405	0.0154308
747.483	0.0154188
747.561	0.0152973
747.639	0.0153731
747.717	0.0154500
747.795	0.0153178
747.873	0.0151909
747.951	0.0153359
748.030	0.0153130
748.108	0.0153620
748.186	0.0152335
748.264	0.0152870
748.342	0.0152961
748.420	0.0152953
748.498	0.0153412
748.576	0.0152288
748.655	0.0151862
748.733	0.0152917
748.811	0.0152547
748.889	0.0151963
748.967	0.0151979
749.045	0.0151907
749.123	0.0151232
749.201	0.0151075
749.280	0.0150163
749.358	0.0149443
749.436	0.0150111
749.514	0.0150248
749.592	0.0149706
749.670	0.0150648
749.748	0.0150149
749.826	0.0148606
749.905	0.0149001
749.983	0.0149692
750.061	0.0150414
750.139	0.0151417
750.217	0.0150866
750.295	0.0152036
750.373	0.0153267
750.451	0.0150748
750.530	0.0151685
750.608	0.0152181
750.686	0.0152915
750.764	0.0152377
750.842	0.0152805
750.920	0.0152032
750.998	0.0153256
751.076	0.0151583
751.155	0.0153499
751.233	0.0154414
751.311	0.0154698
751.389	0.0153307
751.467	0.0153156
751.545	0.0154658
751.623	0.0153173
751.701	0.0153409
751.780	0.0153526
751.858	0.0152374
751.936	0.0153265
752.014	0.0153445
752.092	0.0153320
752.170	0.0151357
752.248	0.0152016
752.326	0.0152437
752.405	0.0151817
752.483	0.0152429
752.561	0.0151707
752.639	0.0152238
752.717	0.0152616
752.795	0.0153310
752.873	0.0153217
752.951	0.0153232
753.030	0.0152772
753.108	0.0154588
753.186	0.0154897
753.264	0.0155411
753.342	0.0154871
753.420	0.0155836
753.498	0.0157186
753.576	0.0157614
753.655	0.0159007
753.733	0.0158850
753.811	0.0159251
753.889	0.0159350
753.967	0.0159543
754.045	0.0160376
754.123	0.0160207
754.201	0.0160663
754.280	0.0160733
754.358	0.0160812
754.436	0.0161273
754.514	0.0161153
754.592	0.0161465
754.670	0.0160278
754.748	0.0159069
754.826	0.0157997
754.905	0.0157626
754.983	0.0158270
755.061	0.0155576
755.139	0.0155099
755.217	0.0154415
755.295	0.0153082
755.373	0.0152510
755.451	0.0150667
755.530	0.0150224
755.608	0.0150243
755.686	0.0149738
755.764	0.0150043
755.842	0.0150961
755.920	0.0149409
755.998	0.0150360
756.076	0.0150555
756.155	0.0151041
756.233	0.0151019
756.311	0.0150161
756.389	0.0152177
756.467	0.0153253
756.545	0.0153011
756.623	0.0152956
756.701	0.0153680
756.780	0.0153450
756.858	0.0153822
756.936	0.0154091
757.014	0.0155910
757.092	0.0155926
757.170	0.0155820
757.248	0.0156439
757.326	0.0157988
757.405	0.0156625
757.483	0.0156395
757.561	0.0157549
757.639	0.0157879
757.717	0.0158607
757.795	0.0156886
757.873	0.0157320
757.951	0.0157217
758.030	0.0157036
758.108	0.0156759
758.186	0.0157281
758.264	0.0156753
758.342	0.0156510
758.420	0.0158041
758.498	0.0155773
758.576	0.0156230
758.655	0.0154896
758.733	0.0155224
758.811	0.0155465
758.889	0.0155073
758.967	0.0154560
759.045	0.0153205
759.123	0.0154698
759.201	0.0153932
759.280	0.0154442
759.358	0.0153226
759.436	0.0153331
759.514	0.0153530
759.592	0.0153878
759.670	0.0152494
759.748	0.0153532
759.826	0.0152316
759.905	0.0150783
759.983	0.0151283
760.061	0.0151668
760.139	0.0151553
760.217	0.0150810
760.295	0.0150223
760.373	0.0152332
760.451	0.0151618
760.530	0.0150328
760.608	0.0150662
760.686	0.0150753
760.764	0.0151502
760.842	0.0150941
760.920	0.0151395
760.998	0.0151567
761.076	0.0151858
761.155	0.0151255
761.233	0.0152198
761.311	0.0153195
761.389	0.0152579
761.467	0.0152197
761.545	0.0152488
761.623	0.0155247
761.701	0.0156270
761.780	0.0155392
761.858	0.0154910
761.936	0.0156001
762.014	0.0155872
762.092	0.0156482
762.170	0.0157842
762.248	0.0155824
762.326	0.0156783
762.405	0.0156258
762.483	0.0156945
762.561	0.0157436
762.639	0.0155744
762.717	0.0155948
762.795	0.0157697
762.873	0.0155875
762.951	0.0154824
763.030	0.0154822
763.108	0.0154349
763.186	0.0152626
763.264	0.0152564
763.342	0.0153459
763.420	0.0152537
763.498	0.0151214
763.576	0.0152620
763.655	0.0150752
763.733	0.0148771
763.811	0.0149429
763.889	0.0149957
763.967	0.0149975
764.045	0.0150655
764.123	0.0149654
764.201	0.0151319
764.280	0.0150600
764.358	0.0150391
764.436	0.0150988
764.514	0.0151544
764.592	0.0151346
764.670	0.0152073
764.748	0.0151668
764.826	0.0152403
764.905	0.0153588
764.983	0.0153622
765.061	0.0152975
765.139	0.0152888
765.217	0.0153098
765.295	0.0154785
765.373	0.0153695
765.451	0.0153657
765.530	0.0153752
765.608	0.0154346
765.686	0.0153979
765.764	0.0153883
765.842	0.0153411
765.920	0.0153697
765.998	0.0152350
766.076	0.0153563
766.155	0.0152570
766.233	0.0151897
766.311	0.0154240
766.389	0.0153169
766.467	0.0153139
766.545	0.0151607
766.623	0.0153149
766.701	0.0153812
766.780	0.0151710
766.858	0.0153335
766.936	0.0152535
767.014	0.0152990
767.092	0.0152863
767.170	0.0153662
767.248	0.0153949
767.326	0.0153204
767.405	0.0152832
767.483	0.0153634
767.561	0.0154487
767.639	0.0154199
767.717	0.0153417
767.795	0.0152806
767.873	0.0152608
767.951	0.0154322
768.030	0.0154557
768.108	0.0154359
768.186	0.0154342
768.264	0.0154079
768.342	0.0154471
768.420	0.0153706
768.498	0.0154548
768.576	0.0153814
768.655	0.0155582
768.733	0.0154600
768.811	0.0153232
768.889	0.0153960
768.967	0.0154199
769.045	0.0154219
769.123	0.0153106
769.201	0.0152332
769.280	0.0154388
769.358	0.0152917
769.436	0.0153911
769.514	0.0153072
769.592	0.0151154
769.670	0.0152066
769.748	0.0151868
769.826	0.0151759
769.905	0.0151510
769.983	0.0150898
770.061	0.0151965
770.139	0.0151966
770.217	0.0151987
770.295	0.0150676
770.373	0.0152522
770.451	0.0151521
770.530	0.0151230
770.608	0.0149673
770.686	0.0150265
770.764	0.0151700
770.842	0.0151322
770.920	0.0151278
770.998	0.0151267
771.076	0.0151100
771.155	0.0150928
771.233	0.0150740
771.311	0.0151805
771.389	0.0150282
771.467	0.0150985
771.545	0.0150912
771.623	0.0149137
771.701	0.0150617
771.780	0.0152370
771.858	0.0151367
771.936	0.0152186
772.014	0.0154145
772.092	0.0151421
772.170	0.0152597
772.248	0.0153346
772.326	0.0153927
772.405	0.0154029
772.483	0.0153492
772.561	0.0154146
772.639	0.0154797
772.717	0.0156136
772.795	0.0156097
772.873	0.0155583
772.951	0.0154195
773.030	0.0155818
773.108	0.0155603
773.186	0.0154340
773.264	0.0156146
773.342	0.0155717
773.420	0.0154072
773.498	0.0154565
773.576	0.0156474
773.655	0.0154175
773.733	0.0153697
773.811	0.0152972
773.889	0.0154710
773.967	0.0154112
774.045	0.0153963
774.123	0.0152477
774.201	0.0153471
774.280	0.0153284
774.358	0.0153146
774.436	0.0153599
774.514	0.0154361
774.592	0.0153966
774.670	0.0153778
774.748	0.0154228
774.826	0.0153259
774.905	0.0153188
774.983	0.0154778
775.061	0.0154754
775.139	0.0154947
775.217	0.0153893
775.295	0.0152636
775.373	0.0154864
775.451	0.0154771
775.530	0.0153066
775.608	0.0154969
775.686	0.0154282
775.764	0.0152583
775.842	0.0154062
775.920	0.0152835
775.998	0.0153075
776.076	0.0155219
776.155	0.0153209
776.233	0.0154047
776.311	0.0153567
776.389	0.0154227
776.467	0.0153282
776.545	0.0152750
776.623	0.0154691
776.701	0.0153854
776.780	0.0155067
776.858	0.0155003
776.936	0.0154165
777.014	0.0154671
777.092	0.0153241
777.170	0.0152100
777.248	0.0153262
777.326	0.0153720
777.405	0.0154677
777.483	0.0153088
777.561	0.0152547
777.639	0.0153238
777.717	0.0152106
777.795	0.0153490
777.873	0.0153467
777.951	0.0153276
778.030	0.0154290
778.108	0.0155145
778.186	0.0155538
778.264	0.0154869
778.342	0.0155025
778.420	0.0154498
778.498	0.0155812
778.576	0.0154961
778.655	0.0153831
778.733	0.0156487
778.811	0.0157488
778.889	0.0157478
778.967	0.0155645
779.045	0.0155186
779.123	0.0156096
779.201	0.0155568
779.280	0.0157071
779.358	0.0157355
779.436	0.0156421
779.514	0.0156371
779.592	0.0155478
779.670	0.0155722
779.748	0.0156750
779.826	0.0154249
779.905	0.0155319
779.983	0.0155445
780.061	0.0154632
780.139	0.0154705
780.217	0.0154145
780.295	0.0154758
780.373	0.0154729
780.451	0.0154051
780.530	0.0154236
780.608	0.0154007
780.686	0.0152995
780.764	0.0154791
780.842	0.0153145
780.920	0.0152974
780.998	0.0152808
781.076	0.0152225
781.155	0.0150683
781.233	0.0151028
781.311	0.0149595
781.389	0.0149401
781.467	0.0150177
781.545	0.0151266
781.623	0.0151582
781.701	0.0150058
781.780	0.0150215
781.858	0.0151218
781.936	0.0150392
782.014	0.0150845
782.092	0.0149472
782.170	0.0150665
782.248	0.0151834
782.326	0.0152181
782.405	0.0151125
782.483	0.0151833
782.561	0.0151158
782.639	0.0153159
782.717	0.0152895
782.795	0.0152750
782.873	0.0153214
782.951	0.0152735
783.030	0.0154206
783.108	0.0153912
783.186	0.0153893
783.264	0.0153851
783.342	0.0155029
783.420	0.0154356
783.498	0.0155000
783.576	0.0154721
783.655	0.0152967
783.733	0.0153600
783.811	0.0155264
783.889	0.0154952
783.967	0.0153324
784.045	0.0154450
784.123	0.0155125
784.201	0.0154884
784.280	0.0154893
784.358	0.0154585
784.436	0.0156212
784.514	0.0155327
784.592	0.0155352
784.670	0.0154649
784.748	0.0153117
784.826	0.0155142
784.905	0.0154849
784.983	0.0154513
785.061	0.0154673
785.139	0.0155380
785.217	0.0155556
785.295	0.0154203
785.373	0.0154574
785.451	0.0154195
785.530	0.0154403
785.608	0.0154291
785.686	0.0153750
785.764	0.0153817
785.842	0.0152528
785.920	0.0154131
785.998	0.0152917
786.076	0.0152032
786.155	0.0151675
786.233	0.0151817
786.311	0.0151646
786.389	0.0152869
786.467	0.0153094
786.545	0.0150921
786.623	0.0151734
786.701	0.0151200
786.780	0.0151365
786.858	0.0153074
786.936	0.0150716
787.014	0.0151202
787.092	0.0151762
787.170	0.0151617
787.248	0.0150984
787.326	0.0152091
787.405	0.0152085
787.483	0.0151778
787.561	0.0151614
787.639	0.0154028
787.717	0.0152223
787.795	0.0151472
787.873	0.0152930
787.951	0.0151781
788.030	0.0152535
788.108	0.0152143
788.186	0.0152417
788.264	0.0152115
788.342	0.0151649
788.420	0.0154575
788.498	0.0151818
788.576	0.0152407
788.655	0.0153513
788.733	0.0153665
788.811	0.0152642
788.889	0.0154115
788.967	0.0153891
789.045	0.0152961
789.123	0.0154123
789.201	0.0154256
789.280	0.0153281
789.358	0.0154897
789.436	0.0154909
789.514	0.0153999
789.592	0.0154557
789.670	0.0154263
789.748	0.0154497
789.826	0.0155082
789.905	0.0154259
789.983	0.0155276
790.061	0.0156686
790.139	0.0154571
790.217	0.0154664
790.295	0.0154698
790.373	0.0154786
790.451	0.0153569
790.530	0.0153407
790.608	0.0154305
790.686	0.0154240
790.764	0.0154382
790.842	0.0152654
790.920	0.0152849
790.998	0.0154456
791.076	0.0153535
791.155	0.0152273
791.233	0.0152940
791.311	0.0153461
791.389	0.0152682
791.467	0.0153089
791.545	0.0152028
791.623	0.0152679
791.701	0.0152966
791.780	0.0152747
791.858	0.0151822
791.936	0.0152416
792.014	0.0152098
792.092	0.0152755
792.170	0.0152022
792.248	0.0151720
792.326	0.0153098
792.405	0.0152394
792.483	0.0152133
792.561	0.0151466
792.639	0.0152123
792.717	0.0151737
792.795	0.0152320
792.873	0.0152139
792.951	0.0151950
793.030	0.0153046
793.108	0.0152123
793.186	0.0151686
793.264	0.0153043
793.342	0.0154432
793.420	0.0154788
793.498	0.0153208
793.576	0.0154136
793.655	0.0153970
793.733	0.0155161
793.811	0.0155966
793.889	0.0155270
793.967	0.0153833
794.045	0.0155537
794.123	0.0156930
794.201	0.0156341
794.280	0.0156244
794.358	0.0155898
794.436	0.0156618
794.514	0.0156395
794.592	0.0157343
794.670	0.0156500
794.748	0.0154866
794.826	0.0154401
794.905	0.0157515
794.983	0.0155064
795.061	0.0155993
795.139	0.0154972
795.217	0.0155672
795.295	0.0154880
795.373	0.0155634
795.451	0.0155621
795.530	0.0154138
795.608	0.0153412
795.686	0.0152944
795.764	0.0152847
795.842	0.0152864
795.920	0.0154136
795.998	0.0152912
796.076	0.0152958
796.155	0.0153471
796.233	0.0153225
796.311	0.0152868
796.389	0.0151601
796.467	0.0153535
796.545	0.0154695
796.623	0.0154069
796.701	0.0153313
796.780	0.0153795
796.858	0.0154221
796.936	0.0153427
797.014	0.0153423
797.092	0.0154869
797.170	0.0154183
797.248	0.0154668
797.326	0.0154242
797.405	0.0152848
797.483	0.0155209
797.561	0.0154407
797.639	0.0153748
797.717	0.0154058
797.795	0.0154008
797.873	0.0153242
797.951	0.0154005
798.030	0.0155324
798.108	0.0152874
798.186	0.0153042
798.264	0.0154427
798.342	0.0153983
798.420	0.0154581
798.498	0.0154410
798.576	0.0154118
798.655	0.0153031
798.733	0.0154009
798.811	0.0153635
798.889	0.0154397
798.967	0.0153484
799.045	0.0154695
799.123	0.0153142
799.201	0.0152714
799.280	0.0154468
799.358	0.0152477
799.436	0.0151578
799.514	0.0153053
799.592	0.0153284
799.670	0.0152541
799.748	0.0152787
799.826	0.0152684
799.905	0.0153539
799.983	0.0154063
800.061	0.0154503
800.139	0.0154019
800.217	0.0153288
800.295	0.0153556
800.373	0.0157097
800.451	0.0154752
800.530	0.0153945
800.608	0.0154854
800.686	0.0155175
800.764	0.0154863
800.842	0.0156129
800.920	0.0156541
800.998	0.0153437
801.076	0.0155704
801.155	0.0157824
801.233	0.0156261
801.311	0.0154753
801.389	0.0155278
801.467	0.0156153
801.545	0.0156844
801.623	0.0156860
801.701	0.0156931
801.780	0.0155698
801.858	0.0154978
801.936	0.0155412
802.014	0.0156216
802.092	0.0157433
802.170	0.0153522
802.248	0.0152798
802.326	0.0154774
802.405	0.0154691
802.483	0.0151922
802.561	0.0153699
802.639	0.0152798
802.717	0.0153175
802.795	0.0152932
802.873	0.0151392
802.951	0.0151851
803.030	0.0152843
803.108	0.0152597
803.186	0.0152414
803.264	0.0151543
803.342	0.0150941
803.420	0.0152629
803.498	0.0151807
803.576	0.0151745
803.655	0.0151971
803.733	0.0153333
803.811	0.0151901
803.889	0.0153471
803.967	0.0154590
804.045	0.0152645
804.123	0.0154510
804.201	0.0154579
804.280	0.0152058
804.358	0.0153318
804.436	0.0152954
804.514	0.0153757
804.592	0.0154417
804.670	0.0153958
804.748	0.0154308
804.826	0.0153825
804.905	0.0153749
804.983	0.0154479
805.061	0.0154925
805.139	0.0155502
805.217	0.0156153
805.295	0.0154511
805.373	0.0154173
805.451	0.0155338
805.530	0.0154724
805.608	0.0154053
805.686	0.0155366
805.764	0.0153698
805.842	0.0155646
805.920	0.0155158
805.998	0.0154087
806.076	0.0155133
806.155	0.0155734
806.233	0.0155492
806.311	0.0153652
806.389	0.0154231
806.467	0.0155026
806.545	0.0154571
806.623	0.0152254
806.701	0.0154493
806.780	0.0154478
806.858	0.0153345
806.936	0.0154612
807.014	0.0153301
807.092	0.0152747
807.170	0.0153986
807.248	0.0152982
807.326	0.0150268
807.405	0.0152514
807.483	0.0151842
807.561	0.0152380
807.639	0.0151701
807.717	0.0151307
807.795	0.0152666
807.873	0.0152393
807.951	0.0152045
808.030	0.0151766
808.108	0.0151668
808.186	0.0151751
808.264	0.0152621
808.342	0.0152442
808.420	0.0152121
808.498	0.0152784
808.576	0.0153227
808.655	0.0152712
808.733	0.0153070
808.811	0.0153848
808.889	0.0154266
808.967	0.0153680
809.045	0.0154710
809.123	0.0153889
809.201	0.0154862
809.280	0.0155195
809.358	0.0155122
809.436	0.0156131
809.514	0.0154992
809.592	0.0155389
809.670	0.0155576
809.748	0.0157339
809.826	0.0155555
809.905	0.0155165
809.983	0.0157869
810.061	0.0157520
810.139	0.0157333
810.217	0.0155819
810.295	0.0155832
810.373	0.0156340
810.451	0.0155772
810.530	0.0154810
810.608	0.0154531
810.686	0.0155561
810.764	0.0155702
810.842	0.0153860
810.920	0.0153510
810.998	0.0152145
811.076	0.0154102
811.155	0.0154526
811.233	0.0153812
811.311	0.0153776
811.389	0.0152842
811.467	0.0152338
811.545	0.0152149
811.623	0.0153642
811.701	0.0152240
811.780	0.0152011
811.858	0.0152057
811.936	0.0151539
812.014	0.0151759
812.092	0.0153503
812.170	0.0151814
812.248	0.0151835
812.326	0.0152818
812.405	0.0152147
812.483	0.0152338
812.561	0.0151903
812.639	0.0152957
812.717	0.0153622
812.795	0.0152885
812.873	0.0152321
812.951	0.0152151
813.030	0.0152618
813.108	0.0152901
813.186	0.0154086
813.264	0.0152129
813.342	0.0152906
813.420	0.0153048
813.498	0.0153567
813.576	0.0152703
813.655	0.0153306
813.733	0.0152961
813.811	0.0152965
813.889	0.0154278
813.967	0.0155197
814.045	0.0155027
814.123	0.0152822
814.201	0.0154939
814.280	0.0154194
814.358	0.0153259
814.436	0.0154882
814.514	0.0155645
814.592	0.0154729
814.670	0.0155833
814.748	0.0156738
814.826	0.0155704
814.905	0.0155545
814.983	0.0155981
815.061	0.0155766
815.139	0.0157275
815.217	0.0156641
815.295	0.0156835
815.373	0.0157339
815.451	0.0156027
815.530	0.0155869
815.608	0.0155873
815.686	0.0154977
815.764	0.0156565
815.842	0.0155908
815.920	0.0153898
815.998	0.0153047
816.076	0.0153667
816.155	0.0154135
816.233	0.0151946
816.311	0.0152608
816.389	0.0152646
816.467	0.0152914
816.545	0.0154185
816.623	0.0154208
816.701	0.0153292
816.780	0.0153314
816.858	0.0151884
816.936	0.0152567
817.014	0.0153014
817.092	0.0153307
817.170	0.0153410
817.248	0.0152922
817.326	0.0154020
817.405	0.0153908
817.483	0.0153736
817.561	0.0153464
817.639	0.0154380
817.717	0.0155571
817.795	0.0155054
817.873	0.0153538
817.951	0.0155694
818.030	0.0154684
818.108	0.0156052
818.186	0.0156027
818.264	0.0155441
818.342	0.0155620
818.420	0.0155023
818.498	0.0155444
818.576	0.0155846
818.655	0.0155148
818.733	0.0155953
818.811	0.0155413
818.889	0.0155550
818.967	0.0156960
819.045	0.0154948
819.123	0.0153427
819.201	0.0154812
819.280	0.0157013
819.358	0.0154714
819.436	0.0154105
819.514	0.0155846
819.592	0.0156500
819.670	0.0154462
819.748	0.0154979
819.826	0.0156073
819.905	0.0154259
819.983	0.0153912
820.061	0.0155289
820.139	0.0154578
820.217	0.0154221
820.295	0.0154785
820.373	0.0154935
820.451	0.0155963
820.530	0.0155501
820.608	0.0156332
820.686	0.0155173
820.764	0.0155108
820.842	0.0154941
820.920	0.0153727
820.998	0.0155581
821.076	0.0155006
821.155	0.0155849
821.233	0.0155149
821.311	0.0154079
821.389	0.0153456
821.467	0.0154517
821.545	0.0153473
821.623	0.0154292
821.701	0.0153681
821.780	0.0154781
821.858	0.0154363
821.936	0.0153069
822.014	0.0154729
822.092	0.0153515
822.170	0.0153461
822.248	0.0152985
822.326	0.0152496
822.405	0.0152412
822.483	0.0151926
822.561	0.0152309
822.639	0.0152338
822.717	0.0151408
822.795	0.0152635
822.873	0.0152183
822.951	0.0154273
823.030	0.0153391
823.108	0.0151580
823.186	0.0151742
823.264	0.0150812
823.342	0.0151649
823.420	0.0152787
823.498	0.0151112
823.576	0.0151352
823.655	0.0152762
823.733	0.0151249
823.811	0.0150849
823.889	0.0151853
823.967	0.0151707
824.045	0.0151218
824.123	0.0150414
824.201	0.0150516
824.280	0.0150864
824.358	0.0152193
824.436	0.0152251
824.514	0.0152132
824.592	0.0152917
824.670	0.0152740
824.748	0.0152861
824.826	0.0153683
824.905	0.0153277
824.983	0.0154439
825.061	0.0154365
825.139	0.0154330
825.217	0.0154119
825.295	0.0154303
825.373	0.0154010
825.451	0.0153977
825.530	0.0155118
825.608	0.0154771
825.686	0.0153690
825.764	0.0155863
825.842	0.0154893
825.920	0.0155643
825.998	0.0156022
826.076	0.0156530
826.155	0.0154635
826.233	0.0155903
826.311	0.0156924
826.389	0.0155566
826.467	0.0154402
826.545	0.0155480
826.623	0.0154955
826.701	0.0153909
826.780	0.0155096
826.858	0.0156075
826.936	0.0154278
827.014	0.0153168
827.092	0.0155434
827.170	0.0153715
827.248	0.0154695
827.326	0.0153027
827.405	0.0154285
827.483	0.0154115
827.561	0.0155712
827.639	0.0155382
827.717	0.0153428
827.795	0.0153400
827.873	0.0151673
827.951	0.0155493
828.030	0.0155296
828.108	0.0154093
828.186	0.0154553
828.264	0.0152923
828.342	0.0153526
828.420	0.0154410
828.498	0.0154208
828.576	0.0153007
828.655	0.0153165
828.733	0.0154557
828.811	0.0153757
828.889	0.0154721
828.967	0.0152883
829.045	0.0153371
829.123	0.0153846
829.201	0.0152665
829.280	0.0153111
829.358	0.0156055
829.436	0.0154069
829.514	0.0153701
829.592	0.0152566
829.670	0.0152790
829.748	0.0154345
829.826	0.0154284
829.905	0.0153907
829.983	0.0153510
830.061	0.0152664
830.139	0.0154958
830.217	0.0154276
830.295	0.0154836
830.373	0.0155537
830.451	0.0155534
830.530	0.0153698
830.608	0.0154524
830.686	0.0154710
830.764	0.0154014
830.842	0.0154068
830.920	0.0155807
830.998	0.0154408
831.076	0.0154061
831.155	0.0152879
831.233	0.0153755
831.311	0.0153786
831.389	0.0154106
831.467	0.0154567
831.545	0.0151929
831.623	0.0152959
831.701	0.0153549
831.780	0.0153560
831.858	0.0154514
831.936	0.0153779
832.014	0.0153519
832.092	0.0154353
832.170	0.0154033
832.248	0.0153954
832.326	0.0153719
832.405	0.0152518
832.483	0.0153537
832.561	0.0153709
832.639	0.0154208
832.717	0.0153176
832.795	0.0154230
832.873	0.0153841
832.951	0.0151461
833.030	0.0152074
833.108	0.0153111
833.186	0.0153573
833.264	0.0152105
833.342	0.0152705
833.420	0.0151694
833.498	0.0152935
833.576	0.0152586
833.655	0.0152493
833.733	0.0151852
833.811	0.0151265
833.889	0.0151563
833.967	0.0151443
834.045	0.0152136
834.123	0.0151363
834.201	0.0151800
834.280	0.0152290
834.358	0.0151899
834.436	0.0151638
834.514	0.0151376
834.592	0.0151307
834.670	0.0151991
834.748	0.0152843
834.826	0.0152045
834.905	0.0153196
834.983	0.0153928
835.061	0.0153118
835.139	0.0153214
835.217	0.0152970
835.295	0.0152827
835.373	0.0153699
835.451	0.0152898
835.530	0.0153244
835.608	0.0152654
835.686	0.0153019
835.764	0.0153001
835.842	0.0155088
835.920	0.0153441
835.998	0.0153056
836.076	0.0154945
836.155	0.0154823
836.233	0.0153508
836.311	0.0154490
836.389	0.0154739
836.467	0.0153967
836.545	0.0154292
836.623	0.0155122
836.701	0.0156993
836.780	0.0156219
836.858	0.0155817
836.936	0.0155624
837.014	0.0156993
837.092	0.0156999
837.170	0.0157899
837.248	0.0157061
837.326	0.0156080
837.405	0.0157100
837.483	0.0156033
837.561	0.0156738
837.639	0.0157627
837.717	0.0156067
837.795	0.0156083
837.873	0.0156779
837.951	0.0155045
838.030	0.0154871
838.108	0.0156339
838.186	0.0153189
838.264	0.0155782
838.342	0.0155291
838.420	0.0155853
838.498	0.0154848
838.576	0.0155928
838.655	0.0155063
838.733	0.0154687
838.811	0.0154716
838.889	0.0154070
838.967	0.0154675
839.045	0.0153236
839.123	0.0154845
839.201	0.0155004
839.280	0.0154048
839.358	0.0154811
839.436	0.0154079
839.514	0.0153318
839.592	0.0155492
839.670	0.0154607
839.748	0.0154210
839.826	0.0154956
839.905	0.0154359
839.983	0.0154709
840.061	0.0154759
840.139	0.0154780
840.217	0.0155079
840.295	0.0155406
840.373	0.0153374
840.451	0.0155058
840.530	0.0154206
840.608	0.0154525
840.686	0.0155536
840.764	0.0153690
840.842	0.0154478
840.920	0.0154062
840.998	0.0155197
841.076	0.0154680
841.155	0.0153499
841.233	0.0153457
841.311	0.0154030
841.389	0.0152583
841.467	0.0153457
841.545	0.0154170
841.623	0.0154091
841.701	0.0153619
841.780	0.0154219
841.858	0.0152782
841.936	0.0152720
842.014	0.0153414
842.092	0.0154465
842.170	0.0154933
842.248	0.0153321
842.326	0.0151994
842.405	0.0153339
842.483	0.0152628
842.561	0.0151488
842.639	0.0152878
842.717	0.0153225
842.795	0.0152854
842.873	0.0153258
842.951	0.0150755
843.030	0.0153690
843.108	0.0152831
843.186	0.0153646
843.264	0.0153185
843.342	0.0153012
843.420	0.0153075
843.498	0.0153726
843.576	0.0152526
843.655	0.0152477
843.733	0.0152601
843.811	0.0152456
843.889	0.0153640
843.967	0.0155236
844.045	0.0152428
844.123	0.0153035
844.201	0.0152482
844.280	0.0154161
844.358	0.0151889
844.436	0.0151421
844.514	0.0152338
844.592	0.0153097
844.670	0.0152634
844.748	0.0152174
844.826	0.0152919
844.905	0.0152890
844.983	0.0152605
845.061	0.0153095
845.139	0.0152415
845.217	0.0152589
845.295	0.0152236
845.373	0.0153079
845.451	0.0152431
845.530	0.0152360
845.608	0.0152491
845.686	0.0151430
845.764	0.0151810
845.842	0.0152280
845.920	0.0151591
845.998	0.0151054
846.076	0.0151987
846.155	0.0152444
846.233	0.0153012
846.311	0.0152676
846.389	0.0152586
846.467	0.0152098
846.545	0.0151770
846.623	0.0154034
846.701	0.0152434
846.780	0.0153974
846.858	0.0152904
846.936	0.0151836
847.014	0.0154073
847.092	0.0153001
847.170	0.0152712
847.248	0.0152348
847.326	0.0152455
847.405	0.0152602
847.483	0.0151920
847.561	0.0154234
847.639	0.0152935
847.717	0.0153211
847.795	0.0151933
847.873	0.0153311
847.951	0.0152647
848.030	0.0154450
848.108	0.0153045
848.186	0.0153252
848.264	0.0153620
848.342	0.0152603
848.420	0.0152869
848.498	0.0152956
848.576	0.0153455
848.655	0.0151218
848.733	0.0152212
848.811	0.0152580
848.889	0.0152295
848.967	0.0152242
849.045	0.0151440
849.123	0.0153292
849.201	0.0152720
849.280	0.0153184
849.358	0.0152492
849.436	0.0152255
849.514	0.0152651
849.592	0.0153027
849.670	0.0153914
849.748	0.0153917
849.826	0.0153532
849.905	0.0153390
849.983	0.0152814
850.061	0.0153889
850.139	0.0152621
850.217	0.0152190
850.295	0.0153493
850.373	0.0152467
850.451	0.0153130
850.530	0.0153861
850.608	0.0152792
850.686	0.0153973
850.764	0.0153946
850.842	0.0152639
850.920	0.0154712
850.998	0.0154425
851.076	0.0154559
851.155	0.0153903
851.233	0.0154807
851.311	0.0154735
851.389	0.0153802
851.467	0.0152693
851.545	0.0154555
851.623	0.0154834
851.701	0.0154046
851.780	0.0153750
851.858	0.0153461
851.936	0.0153474
852.014	0.0153558
852.092	0.0154176
852.170	0.0154235
852.248	0.0155210
852.326	0.0152602
852.405	0.0153797
852.483	0.0154100
852.561	0.0152804
852.639	0.0153520
852.717	0.0153222
852.795	0.0154092
852.873	0.0152972
852.951	0.0152916
853.030	0.0154169
853.108	0.0153361
853.186	0.0153572
853.264	0.0152290
853.342	0.0152007
853.420	0.0153846
853.498	0.0152952
853.576	0.0153653
853.655	0.0152837
853.733	0.0154029
853.811	0.0154210
853.889	0.0153939
853.967	0.0154095
854.045	0.0154778
854.123	0.0153909
854.201	0.0154476
854.280	0.0155053
854.358	0.0153215
854.436	0.0154667
854.514	0.0154756
854.592	0.0154406
854.670	0.0154261
854.748	0.0154410
854.826	0.0153909
854.905	0.0154440
854.983	0.0154501
855.061	0.0154044
855.139	0.0154353
855.217	0.0155618
855.295	0.0154714
855.373	0.0152905
855.451	0.0155362
855.530	0.0153913
855.608	0.0153748
855.686	0.0155164
855.764	0.0154246
855.842	0.0154609
855.920	0.0153672
855.998	0.0153451
856.076	0.0153741
856.155	0.0153749
856.233	0.0153549
856.311	0.0153778
856.389	0.0152592
856.467	0.0152425
856.545	0.0153664
856.623	0.0152752
856.701	0.0153079
856.780	0.0153434
856.858	0.0152730
856.936	0.0152296
857.014	0.0153570
857.092	0.0153377
857.170	0.0152385
857.248	0.0152805
857.326	0.0152399
857.405	0.0152520
857.483	0.0151487
857.561	0.0153058
857.639	0.0153430
857.717	0.0152750
857.795	0.0151112
857.873	0.0152364
857.951	0.0153009
858.030	0.0152435
858.108	0.0152062
858.186	0.0151601
858.264	0.0152504
858.342	0.0152054
858.420	0.0152795
858.498	0.0153193
858.576	0.0153614
858.655	0.0153542
858.733	0.0152762
858.811	0.0154217
858.889	0.0154362
858.967	0.0152999
859.045	0.0154962
859.123	0.0153853
859.201	0.0153520
859.280	0.0154079
859.358	0.0154482
859.436	0.0153835
859.514	0.0154904
859.592	0.0153809
859.670	0.0154468
859.748	0.0154552
859.826	0.0153338
859.905	0.0155950
859.983	0.0154473
860.061	0.0154118
860.139	0.0152523
860.217	0.0153955
860.295	0.0154570
860.373	0.0152954
860.451	0.0153029
860.530	0.0153279
860.608	0.0153300
860.686	0.0152921
860.764	0.0152812
860.842	0.0153780
860.920	0.0153650
860.998	0.0154588
861.076	0.0153574
861.155	0.0153448
861.233	0.0154835
861.311	0.0153461
861.389	0.0153159
861.467	0.0154297
861.545	0.0155159
861.623	0.0154380
861.701	0.0154166
861.780	0.0153832
861.858	0.0155003
861.936	0.0155085
862.014	0.0154404
862.092	0.0155566
862.170	0.0155004
862.248	0.0155333
862.326	0.0155113
862.405	0.0156326
862.483	0.0155166
862.561	0.0155856
862.639	0.0156285
862.717	0.0156685
862.795	0.0154697
862.873	0.0154716
862.951	0.0156841
863.030	0.0156913
863.108	0.0155847
863.186	0.0155247
863.264	0.0155244
863.342	0.0156007
863.420	0.0155032
863.498	0.0154797
863.576	0.0154701
863.655	0.0154229
863.733	0.0153848
863.811	0.0154469
863.889	0.0156071
863.967	0.0155378
864.045	0.0154808
864.123	0.0154435
864.201	0.0154749
864.280	0.0154495
864.358	0.0154208
864.436	0.0155622
864.514	0.0154003
864.592	0.0155596
864.670	0.0154768
864.748	0.0153896
864.826	0.0154667
864.905	0.0155329
864.983	0.0153760
865.061	0.0154352
865.139	0.0153638
865.217	0.0154787
865.295	0.0153584
865.373	0.0154318
865.451	0.0153433
865.530	0.0152991
865.608	0.0152917
865.686	0.0153300
865.764	0.0153465
865.842	0.0152982
865.920	0.0152090
865.998	0.0153401
866.076	0.0152993
866.155	0.0154056
866.233	0.0154002
866.311	0.0153598
866.389	0.0152855
866.467	0.0152021
866.545	0.0153284
866.623	0.0152605
866.701	0.0150295
866.780	0.0153505
866.858	0.0152933
866.936	0.0153310
867.014	0.0153809
867.092	0.0152003
867.170	0.0152357
867.248	0.0153109
867.326	0.0152555
867.405	0.0153761
867.483	0.0152888
867.561	0.0153007
867.639	0.0152729
867.717	0.0152475
867.795	0.0153137
867.873	0.0154126
867.951	0.0152746
868.030	0.0151699
868.108	0.0152943
868.186	0.0153941
868.264	0.0151455
868.342	0.0152578
868.420	0.0152948
868.498	0.0153293
868.576	0.0154561
868.655	0.0153162
868.733	0.0153466
868.811	0.0153693
868.889	0.0153146
868.967	0.0152756
869.045	0.0153146
869.123	0.0151997
869.201	0.0152869
869.280	0.0153334
869.358	0.0151556
869.436	0.0153175
869.514	0.0152542
869.592	0.0152863
869.670	0.0153270
869.748	0.0154207
869.826	0.0152850
869.905	0.0152499
869.983	0.0152738
870.061	0.0152555
870.139	0.0153786
870.217	0.0154336
870.295	0.0154423
870.373	0.0153600
870.451	0.0153430
870.530	0.0154445
870.608	0.0154379
870.686	0.0153944
870.764	0.0154721
870.842	0.0154035
870.920	0.0154491
870.998	0.0152767
871.076	0.0154223
871.155	0.0154797
871.233	0.0154783
871.311	0.0154229
871.389	0.0154638
871.467	0.0154163
871.545	0.0153982
871.623	0.0155316
871.701	0.0154478
871.780	0.0154434
871.858	0.0155128
871.936	0.0154021
872.014	0.0153367
872.092	0.0154253
872.170	0.0155070
872.248	0.0153291
872.326	0.0152624
872.405	0.0153498
872.483	0.0154439
872.561	0.0152756
872.639	0.0153455
872.717	0.0153518
872.795	0.0154243
872.873	0.0154401
872.951	0.0153973
873.030	0.0153674
873.108	0.0154027
873.186	0.0154053
873.264	0.0152879
873.342	0.0153587
873.420	0.0154137
873.498	0.0153872
873.576	0.0154047
873.655	0.0152975
873.733	0.0153130
873.811	0.0155341
873.889	0.0153352
873.967	0.0152975
874.045	0.0152392
874.123	0.0151487
874.201	0.0151950
874.280	0.0153767
874.358	0.0152733
874.436	0.0153377
874.514	0.0153883
874.592	0.0152469
874.670	0.0151717
874.748	0.0153519
874.826	0.0152296
874.905	0.0153320
874.983	0.0153059
875.061	0.0153401
875.139	0.0152477
875.217	0.0151954
875.295	0.0153645
875.373	0.0152695
875.451	0.0154533
875.530	0.0152420
875.608	0.0152670
875.686	0.0153638
875.764	0.0153629
875.842	0.0153258
875.920	0.0151874
875.998	0.0152036
876.076	0.0153171
876.155	0.0153246
876.233	0.0151598
876.311	0.0152839
876.389	0.0155048
876.467	0.0153340
876.545	0.0153245
876.623	0.0152391
876.701	0.0152853
876.780	0.0153088
876.858	0.0155035
876.936	0.0153983
877.014	0.0152976
877.092	0.0153081
877.170	0.0155047
877.248	0.0153785
877.326	0.0153044
877.405	0.0152560
877.483	0.0154008
877.561	0.0153299
877.639	0.0153572
877.717	0.0153051
877.795	0.0153580
877.873	0.0154450
877.951	0.0152998
878.030	0.0152130
878.108	0.0152478
878.186	0.0153729
878.264	0.0153570
878.342	0.0152179
878.420	0.0151768
878.498	0.0153352
878.576	0.0152538
878.655	0.0151756
878.733	0.0152309
878.811	0.0154282
878.889	0.0152076
878.967	0.0152509
879.045	0.0153576
879.123	0.0152361
879.201	0.0151835
879.280	0.0152825
879.358	0.0153413
879.436	0.0152866
879.514	0.0153993
879.592	0.0154266
879.670	0.0154955
879.748	0.0154436
879.826	0.0154482
879.905	0.0155090
879.983	0.0155270
880.061	0.0155142
880.139	0.0154593
880.217	0.0153731
880.295	0.0154912
880.373	0.0155596
880.451	0.0154843
880.530	0.0155706
880.608	0.0153877
880.686	0.0154005
880.764	0.0156528
880.842	0.0155106
880.920	0.0153478
880.998	0.0155174
881.076	0.0155284
881.155	0.0153625
881.233	0.0155112
881.311	0.0154565
881.389	0.0153207
881.467	0.0153461
881.545	0.0154156
881.623	0.0154246
881.701	0.0154031
881.780	0.0153625
881.858	0.0154488
881.936	0.0153825
882.014	0.0154729
882.092	0.0153745
882.170	0.0153631
882.248	0.0153899
882.326	0.0153876
882.405	0.0153954
882.483	0.0154617
882.561	0.0153102
882.639	0.0153172
882.717	0.0151907
882.795	0.0153057
882.873	0.0153737
882.951	0.0152982
883.030	0.0153399
883.108	0.0153120
883.186	0.0153144
883.264	0.0153089
883.342	0.0153267
883.420	0.0152618
883.498	0.0152865
883.576	0.0153810
883.655	0.0153664
883.733	0.0153329
883.811	0.0154010
883.889	0.0153065
883.967	0.0154160
884.045	0.0155511
884.123	0.0154075
884.201	0.0155511
884.280	0.0153959
884.358	0.0154114
884.436	0.0154525
884.514	0.0153346
884.592	0.0154443
884.670	0.0153769
884.748	0.0152882
884.826	0.0152039
884.905	0.0153503
884.983	0.0152710
885.061	0.0152805
885.139	0.0153167
885.217	0.0153357
885.295	0.0153517
885.373	0.0153399
885.451	0.0152731
885.530	0.0152979
885.608	0.0153400
885.686	0.0153693
885.764	0.0152612
885.842	0.0152557
885.920	0.0153212
885.998	0.0152148
886.076	0.0152316
886.155	0.0151330
886.233	0.0152348
886.311	0.0152209
886.389	0.0152850
886.467	0.0151650
886.545	0.0152234
886.623	0.0152772
886.701	0.0151625
886.780	0.0152132
886.858	0.0152807
886.936	0.0152308
887.014	0.0151714
887.092	0.0152841
887.170	0.0152620
887.248	0.0153625
887.326	0.0152272
887.405	0.0150886
887.483	0.0152456
887.561	0.0152745
887.639	0.0153026
887.717	0.0152481
887.795	0.0154176
887.873	0.0153115
887.951	0.0153545
888.030	0.0154198
888.108	0.0154445
888.186	0.0153654
888.264	0.0153709
888.342	0.0154800
888.420	0.0154767
888.498	0.0153337
888.576	0.0154987
888.655	0.0153703
888.733	0.0153464
888.811	0.0153706
888.889	0.0154510
888.967	0.0154387
889.045	0.0154007
889.123	0.0154663
889.201	0.0155163
889.280	0.0154762
889.358	0.0154943
889.436	0.0154661
889.514	0.0153661
889.592	0.0153651
889.670	0.0152832
889.748	0.0153609
889.826	0.0154905
889.905	0.0154147
889.983	0.0152448
890.061	0.0154425
890.139	0.0155708
890.217	0.0155063
890.295	0.0153918
890.373	0.0154031
890.451	0.0153457
890.530	0.0154906
890.608	0.0154810
890.686	0.0153806
890.764	0.0153125
890.842	0.0154568
890.920	0.0154173
890.998	0.0155639
891.076	0.0154559
891.155	0.0155737
891.233	0.0155122
891.311	0.0154160
891.389	0.0154049
891.467	0.0154791
891.545	0.0155930
891.623	0.0154653
891.701	0.0154955
891.780	0.0156243
891.858	0.0156564
891.936	0.0154666
892.014	0.0153846
892.092	0.0156482
892.170	0.0155080
892.248	0.0154363
892.326	0.0154646
892.405	0.0155317
892.483	0.0156113
892.561	0.0155365
892.639	0.0154977
892.717	0.0155165
892.795	0.0155733
892.873	0.0153677
892.951	0.0153954
893.030	0.0154245
893.108	0.0154964
893.186	0.0154182
893.264	0.0154692
893.342	0.0153499
893.420	0.0153243
893.498	0.0153910
893.576	0.0153593
893.655	0.0153301
893.733	0.0152767
893.811	0.0153777
893.889	0.0152882
893.967	0.0154224
894.045	0.0153671
894.123	0.0152943
894.201	0.0151152
894.280	0.0152293
894.358	0.0152509
894.436	0.0152530
894.514	0.0153211
894.592	0.0153460
894.670	0.0152159
894.748	0.0152544
894.826	0.0152744
894.905	0.0152906
894.983	0.0153056
895.061	0.0152631
895.139	0.0151731
895.217	0.0152550
895.295	0.0153436
895.373	0.0154498
895.451	0.0152249
895.530	0.0154858
895.608	0.0153582
895.686	0.0153210
895.764	0.0153194
895.842	0.0153517
895.920	0.0153342
895.998	0.0153404
896.076	0.0151612
896.155	0.0152979
896.233	0.0153225
896.311	0.0153047
896.389	0.0154137
896.467	0.0153435
896.545	0.0154742
896.623	0.0155137
896.701	0.0154686
896.780	0.0155248
896.858	0.0154475
896.936	0.0153726
897.014	0.0154185
897.092	0.0153387
897.170	0.0153387
897.248	0.0154106
897.326	0.0154397
897.405	0.0153552
897.483	0.0153306
897.561	0.0154765
897.639	0.0154510
897.717	0.0154058
897.795	0.0154372
897.873	0.0152575
897.951	0.0152776
898.030	0.0154647
898.108	0.0153670
898.186	0.0152695
898.264	0.0152750
898.342	0.0154604
898.420	0.0153639
898.498	0.0152588
898.576	0.0153398
898.655	0.0153767
898.733	0.0153104
898.811	0.0153477
898.889	0.0154326
898.967	0.0155177
899.045	0.0154350
899.123	0.0154074
899.201	0.0156195
899.280	0.0154378
899.358	0.0154716
899.436	0.0154015
899.514	0.0154608
899.592	0.0154209
899.670	0.0154159
899.748	0.0153738
899.826	0.0154405
899.905	0.0154716
899.983	0.0152980
900.061	0.0152863
900.139	0.0153616
900.217	0.0154558
900.295	0.0151754
900.373	0.0151650
900.451	0.0152551
900.530	0.0154210
900.608	0.0152486
900.686	0.0151340
900.764	0.0153927
900.842	0.0151888
900.920	0.0153049
900.998	0.0153216
901.076	0.0152808
901.155	0.0152841
901.233	0.0152881
901.311	0.0152598
901.389	0.0152135
901.467	0.0152198
901.545	0.0153352
901.623	0.0151568
901.701	0.0151964
901.780	0.0152573
901.858	0.0152621
901.936	0.0151921
902.014	0.0151299
902.092	0.0153155
902.170	0.0151888
902.248	0.0151683
902.326	0.0153143
902.405	0.0153777
902.483	0.0151994
902.561	0.0152185
902.639	0.0151738
902.717	0.0152607
902.795	0.0153085
902.873	0.0152970
902.951	0.0152804
903.030	0.0154334
903.108	0.0154512
903.186	0.0154955
903.264	0.0153455
903.342	0.0153410
903.420	0.0153276
903.498	0.0153868
903.576	0.0154395
903.655	0.0154231
903.733	0.0155077
903.811	0.0153670
903.889	0.0154475
903.967	0.0154755
904.045	0.0155453
904.123	0.0154743
904.201	0.0154286
904.280	0.0153458
904.358	0.0155531
904.436	0.0155108
904.514	0.0153888
904.592	0.0154214
904.670	0.0154301
904.748	0.0153708
904.826	0.0154002
904.905	0.0153740
904.983	0.0155450
905.061	0.0154951
905.139	0.0155228
905.217	0.0155798
905.295	0.0155250
905.373	0.0155700
905.451	0.0154445
905.530	0.0154814
905.608	0.0154488
905.686	0.0155242
905.764	0.0155945
905.842	0.0154616
905.920	0.0154465
905.998	0.0154638
906.076	0.0154754
906.155	0.0153515
906.233	0.0155820
906.311	0.0154533
906.389	0.0154761
906.467	0.0155069
906.545	0.0154447
906.623	0.0154577
906.701	0.0154790
906.780	0.0155007
906.858	0.0154337
906.936	0.0153770
907.014	0.0154176
907.092	0.0153897
907.170	0.0154197
907.248	0.0152362
907.326	0.0152657
907.405	0.0152548
907.483	0.0151863
907.561	0.0152836
907.639	0.0152168
907.717	0.0153207
907.795	0.0152489
907.873	0.0153809
907.951	0.0153381
908.030	0.0152261
908.108	0.0153171
908.186	0.0153317
908.264	0.0152766
908.342	0.0151491
908.420	0.0152789
908.498	0.0152898
908.576	0.0153291
908.655	0.0153183
908.733	0.0154604
908.811	0.0152167
908.889	0.0151677
908.967	0.0153429
909.045	0.0153011
909.123	0.0153115
909.201	0.0153632
909.280	0.0152443
909.358	0.0152248
909.436	0.0152882
909.514	0.0152666
909.592	0.0152486
909.670	0.0152949
909.748	0.0151942
909.826	0.0152537
909.905	0.0152650
909.983	0.0152334
910.061	0.0153183
910.139	0.0153315
910.217	0.0154000
910.295	0.0153712
910.373	0.0153732
910.451	0.0153208
910.530	0.0152935
910.608	0.0152566
910.686	0.0152017
910.764	0.0152364
910.842	0.0153013
910.920	0.0153808
910.998	0.0153221
911.076	0.0151618
911.155	0.0154639
911.233	0.0152966
911.311	0.0153014
911.389	0.0152088
911.467	0.0153596
911.545	0.0153222
911.623	0.0153900
911.701	0.0154666
911.780	0.0154665
911.858	0.0153484
911.936	0.0155472
912.014	0.0154747
912.092	0.0154813
912.170	0.0154549
912.248	0.0155879
912.326	0.0155796
912.405	0.0155688
912.483	0.0153917
912.561	0.0155092
912.639	0.0153904
912.717	0.0156071
912.795	0.0155264
912.873	0.0154012
912.951	0.0156100
913.030	0.0155351
913.108	0.0155499
913.186	0.0155181
913.264	0.0153946
913.342	0.0154472
913.420	0.0154822
913.498	0.0154285
913.576	0.0153749
913.655	0.0155107
913.733	0.0155046
913.811	0.0154843
913.889	0.0155379
913.967	0.0154478
914.045	0.0154765
914.123	0.0154085
914.201	0.0153687
914.280	0.0154942
914.358	0.0154979
914.436	0.0154565
914.514	0.0154411
914.592	0.0154170
914.670	0.0155132
914.748	0.0154359
914.826	0.0155264
914.905	0.0152888
914.983	0.0154012
915.061	0.0155494
915.139	0.0154582
915.217	0.0154595
915.295	0.0154379
915.373	0.0154658
915.451	0.0153373
915.530	0.0152393
915.608	0.0153648
915.686	0.0154904
915.764	0.0152851
915.842	0.0153671
915.920	0.0152718
915.998	0.0153593
916.076	0.0152763
916.155	0.0152378
916.233	0.0153420
916.311	0.0152518
916.389	0.0153175
916.467	0.0153419
916.545	0.0153645
916.623	0.0152560
916.701	0.0153180
916.780	0.0154959
916.858	0.0153428
916.936	0.0154650
917.014	0.0154131
917.092	0.0154133
917.170	0.0152542
917.248	0.0154247
917.326	0.0154621
917.405	0.0151564
917.483	0.0153314
917.561	0.0154140
917.639	0.0153453
917.717	0.0152353
917.795	0.0152911
917.873	0.0153749
917.951	0.0153568
918.030	0.0153164
918.108	0.0153664
918.186	0.0153808
918.264	0.0153322
918.342	0.0154728
918.420	0.0152843
918.498	0.0154646
918.576	0.0153490
918.655	0.0153812
918.733	0.0153539
918.811	0.0153995
918.889	0.0153011
918.967	0.0153862
919.045	0.0153274
919.123	0.0154130
919.201	0.0152997
919.280	0.0151790
919.358	0.0152186
919.436	0.0151507
919.514	0.0153764
919.592	0.0152112
919.670	0.0151406
919.748	0.0151635
919.826	0.0154343
919.905	0.0152815
919.983	0.0153261
920.061	0.0151441
920.139	0.0151719
920.217	0.0152934
920.295	0.0153220
920.373	0.0152622
920.451	0.0152407
920.530	0.0152753
920.608	0.0151670
920.686	0.0153513
920.764	0.0152161
920.842	0.0153874
920.920	0.0153346
920.998	0.0154262
921.076	0.0154162
921.155	0.0152863
921.233	0.0154133
921.311	0.0153933
921.389	0.0153182
921.467	0.0153838
921.545	0.0153517
921.623	0.0153635
921.701	0.0153794
921.780	0.0154337
921.858	0.0152507
921.936	0.0152625
922.014	0.0153993
922.092	0.0153060
922.170	0.0155215
922.248	0.0154673
922.326	0.0153588
922.405	0.0153831
922.483	0.0154871
922.561	0.0154121
922.639	0.0152805
922.717	0.0155072
922.795	0.0154743
922.873	0.0154462
922.951	0.0153984
923.030	0.0155315
923.108	0.0154259
923.186	0.0154178
923.264	0.0153224
923.342	0.0154121
923.420	0.0154680
923.498	0.0154076
923.576	0.0155122
923.655	0.0154153
923.733	0.0155025
923.811	0.0155526
923.889	0.0154469
923.967	0.0153764
924.045	0.0153487
924.123	0.0153890
924.201	0.0152972
924.280	0.0153232
924.358	0.0152525
924.436	0.0154060
924.514	0.0153359
924.592	0.0152684
924.670	0.0152567
924.748	0.0153530
924.826	0.0152691
924.905	0.0152353
924.983	0.0153063
925.061	0.0153870
925.139	0.0153663
925.217	0.0151839
925.295	0.0153532
925.373	0.0153263
925.451	0.0152901
925.530	0.0153595
925.608	0.0154922
925.686	0.0154184
925.764	0.0153352
925.842	0.0153388
925.920	0.0154254
925.998	0.0154102
926.076	0.0153870
926.155	0.0152605
926.233	0.0154041
926.311	0.0154482
926.389	0.0153540
926.467	0.0153677
926.545	0.0154077
926.623	0.0153111
926.701	0.0153490
926.780	0.0153751
926.858	0.0153870
926.936	0.0153098
927.014	0.0153915
927.092	0.0154831
927.170	0.0154001
927.248	0.0152145
927.326	0.0153084
927.405	0.0153271
927.483	0.0154461
927.561	0.0153601
927.639	0.0154803
927.717	0.0154652
927.795	0.0155728
927.873	0.0154186
927.951	0.0154095
928.030	0.0153203
928.108	0.0154646
928.186	0.0153371
928.264	0.0154908
928.342	0.0154510
928.420	0.0154003
928.498	0.0155157
928.576	0.0152689
928.655	0.0154021
928.733	0.0153732
928.811	0.0153654
928.889	0.0153588
928.967	0.0153372
929.045	0.0153384
929.123	0.0152915
929.201	0.0154380
929.280	0.0152106
929.358	0.0152975
929.436	0.0153673
929.514	0.0152358
929.592	0.0152390
929.670	0.0151745
929.748	0.0153724
929.826	0.0152290
929.905	0.0152341
929.983	0.0151501
930.061	0.0153112
930.139	0.0151207
930.217	0.0151346
930.295	0.0152927
930.373	0.0150233
930.451	0.0152262
930.530	0.0152136
930.608	0.0153075
930.686	0.0152728
930.764	0.0151943
930.842	0.0151575
930.920	0.0153559
930.998	0.0153336
931.076	0.0152854
931.155	0.0151962
931.233	0.0154199
931.311	0.0152217
931.389	0.0153555
931.467	0.0153166
931.545	0.0152703
931.623	0.0154276
931.701	0.0152283
931.780	0.0151981
931.858	0.0153419
931.936	0.0152821
932.014	0.0153646
932.092	0.0152960
932.170	0.0152471
932.248	0.0152013
932.326	0.0153049
932.405	0.0153857
932.483	0.0153228
932.561	0.0152462
932.639	0.0153805
932.717	0.0153667
932.795	0.0153636
932.873	0.0153999
932.951	0.0153392
933.030	0.0154666
933.108	0.0153844
933.186	0.0153166
933.264	0.0152444
933.342	0.0154680
933.420	0.0153165
933.498	0.0154935
933.576	0.0152966
933.655	0.0154431
933.733	0.0155230
933.811	0.0154047
933.889	0.0154475
933.967	0.0155418
934.045	0.0154809
934.123	0.0152784
934.201	0.0153156
934.280	0.0154799
934.358	0.0154485
934.436	0.0154083
934.514	0.0153628
934.592	0.0153184
934.670	0.0152792
934.748	0.0152651
934.826	0.0152287
934.905	0.0152633
934.983	0.0151101
935.061	0.0152264
935.139	0.0152327
935.217	0.0152350
935.295	0.0151659
935.373	0.0151682
935.451	0.0150921
935.530	0.0151573
935.608	0.0152116
935.686	0.0152610
935.764	0.0151778
935.842	0.0151280
935.920	0.0153493
935.998	0.0151332
936.076	0.0152027
936.155	0.0151380
936.233	0.0151191
936.311	0.0151852
936.389	0.0151592
936.467	0.0152512
936.545	0.0153773
936.623	0.0151582
936.701	0.0152005
936.780	0.0152157
936.858	0.0150704
936.936	0.0152122
937.014	0.0151985
937.092	0.0152422
937.170	0.0152090
937.248	0.0151718
937.326	0.0151540
937.405	0.0151234
937.483	0.0152588
937.561	0.0151607
937.639	0.0151315
937.717	0.0152480
937.795	0.0152525
937.873	0.0151436
937.951	0.0152502
938.030	0.0152501
938.108	0.0151813
938.186	0.0153593
938.264	0.0152588
938.342	0.0152566
938.420	0.0152475
938.498	0.0152982
938.576	0.0152744
938.655	0.0152808
938.733	0.0152869
938.811	0.0152699
938.889	0.0153577
938.967	0.0153489
939.045	0.0152710
939.123	0.0153258
939.201	0.0153472
939.280	0.0153774
939.358	0.0153311
939.436	0.0152503
939.514	0.0152734
939.592	0.0152963
939.670	0.0153454
939.748	0.0152054
939.826	0.0154024
939.905	0.0152960
939.983	0.0153678
940.061	0.0153182
940.139	0.0154167
940.217	0.0153763
940.295	0.0153416
940.373	0.0155489
940.451	0.0153015
940.530	0.0151730
940.608	0.0154408
940.686	0.0153468
940.764	0.0153786
940.842	0.0152949
940.920	0.0152920
940.998	0.0153304
941.076	0.0152624
941.155	0.0154133
941.233	0.0154661
941.311	0.0152998
941.389	0.0153471
941.467	0.0153419
941.545	0.0153076
941.623	0.0153033
941.701	0.0155278
941.780	0.0154861
941.858	0.0153173
941.936	0.0153579
942.014	0.0154356
942.092	0.0152863
942.170	0.0154269
942.248	0.0153611
942.326	0.0153659
942.405	0.0154667
942.483	0.0153831
942.561	0.0153934
942.639	0.0153303
942.717	0.0153821
942.795	0.0153427
942.873	0.0153754
942.951	0.0153282
943.030	0.0153143
943.108	0.0155011
943.186	0.0154610
943.264	0.0153133
943.342	0.0153321
943.420	0.0154935
943.498	0.0152845
943.576	0.0153104
943.655	0.0155328
943.733	0.0154749
943.811	0.0153580
943.889	0.0153231
943.967	0.0152602
944.045	0.0154883
944.123	0.0153290
944.201	0.0153796
944.280	0.0153763
944.358	0.0153635
944.436	0.0153868
944.514	0.0153934
944.592	0.0153883
944.670	0.0153462
944.748	0.0153580
944.826	0.0154626
944.905	0.0152789
944.983	0.0152505
945.061	0.0153378
945.139	0.0154140
945.217	0.0152130
945.295	0.0152489
945.373	0.0152429
945.451	0.0152778
945.530	0.0151905
945.608	0.0151986
945.686	0.0153577
945.764	0.0153240
945.842	0.0153020
945.920	0.0154170
945.998	0.0154376
946.076	0.0153487
946.155	0.0153422
946.233	0.0154116
946.311	0.0155649
946.389	0.0154333
946.467	0.0154253
946.545	0.0154510
946.623	0.0155598
946.701	0.0154605
946.780	0.0154823
946.858	0.0154521
946.936	0.0155350
947.014	0.0154720
947.092	0.0154145
947.170	0.0155119
947.248	0.0153960
947.326	0.0154920
947.405	0.0154312
947.483	0.0154095
947.561	0.0153380
947.639	0.0153317
947.717	0.0153301
947.795	0.0152264
947.873	0.0153288
947.951	0.0152806
948.030	0.0154804
948.108	0.0152986
948.186	0.0153120
948.264	0.0152397
948.342	0.0153608
948.420	0.0152854
948.498	0.0151767
948.576	0.0151672
948.655	0.0150986
948.733	0.0152975
948.811	0.0152478
948.889	0.0151855
948.967	0.0150861
949.045	0.0152991
949.123	0.0152704
949.201	0.0152279
949.280	0.0151790
949.358	0.0152293
949.436	0.0152422
949.514	0.0151409
949.592	0.0152727
949.670	0.0151946
949.748	0.0151798
949.826	0.0152320
949.905	0.0152639
949.983	0.0151496
950.061	0.0151836
950.139	0.0152098
950.217	0.0152089
950.295	0.0153407
950.373	0.0153683
950.451	0.0154217
950.530	0.0153287
950.608	0.0152769
950.686	0.0152907
950.764	0.0153946
950.842	0.0152279
950.920	0.0153403
950.998	0.0152642
951.076	0.0153745
951.155	0.0153358
951.233	0.0152428
951.311	0.0153265
951.389	0.0154615
951.467	0.0155163
951.545	0.0153306
951.623	0.0153758
951.701	0.0153790
951.780	0.0153654
951.858	0.0155405
951.936	0.0155215
952.014	0.0153925
952.092	0.0153812
952.170	0.0154418
952.248	0.0154310
952.326	0.0155212
952.405	0.0155476
952.483	0.0155962
952.561	0.0155429
952.639	0.0154809
952.717	0.0154997
952.795	0.0153849
952.873	0.0153979
952.951	0.0153614
953.030	0.0155759
953.108	0.0155020
953.186	0.0153665
953.264	0.0154626
953.342	0.0154693
953.420	0.0154952
953.498	0.0153838
953.576	0.0154671
953.655	0.0154084
953.733	0.0154283
953.811	0.0155260
953.889	0.0155803
953.967	0.0155936
954.045	0.0155038
954.123	0.0154520
954.201	0.0154836
954.280	0.0154079
954.358	0.0155293
954.436	0.0155774
954.514	0.0155852
954.592	0.0153753
954.670	0.0154182
954.748	0.0152649
954.826	0.0154684
954.905	0.0154966
954.983	0.0153883
955.061	0.0155848
955.139	0.0155087
955.217	0.0152875
955.295	0.0153939
955.373	0.0154290
955.451	0.0155524
955.530	0.0154080
955.608	0.0153540
955.686	0.0153999
955.764	0.0153911
955.842	0.0152709
955.920	0.0153477
955.998	0.0153111
956.076	0.0153047
956.155	0.0153807
956.233	0.0153886
956.311	0.0153075
956.389	0.0153255
956.467	0.0154343
956.545	0.0153229
956.623	0.0153262
956.701	0.0153391
956.780	0.0151789
956.858	0.0153075
956.936	0.0153344
957.014	0.0152660
957.092	0.0151569
957.170	0.0153616
957.248	0.0154165
957.326	0.0154002
957.405	0.0153226
957.483	0.0153252
957.561	0.0152657
957.639	0.0153072
957.717	0.0152647
957.795	0.0152958
957.873	0.0152820
957.951	0.0153603
958.030	0.0153134
958.108	0.0152478
958.186	0.0151478
958.264	0.0153519
958.342	0.0153909
958.420	0.0154655
958.498	0.0153599
958.576	0.0153023
958.655	0.0154543
958.733	0.0154240
958.811	0.0153065
958.889	0.0154245
958.967	0.0152965
959.045	0.0153954
959.123	0.0152625
959.201	0.0153766
959.280	0.0154387
959.358	0.0154465
959.436	0.0155103
959.514	0.0153165
959.592	0.0153080
959.670	0.0154967
959.748	0.0154121
959.826	0.0154728
959.905	0.0155062
