05/20/2022	17:12:54	Ver.	4.1	UNKNOWN
Optical Delay	639.982744	Delta X		0.078125	Sweeps	1	Scan Rate	0/0
Coordinates	Axis 1	NaN	Axis 2	NaN	Axis 3	NaN	Axis 4	NaN	Axis 5	NaN	Axis 6	0.000000
TX Power	0.000000	RX Power	0.000000

639.983	0.0150819
640.061	0.0150528
640.139	0.0150554
640.217	0.0150208
640.295	0.0151595
640.373	0.0151719
640.451	0.0151172
640.530	0.0151348
640.608	0.0150045
640.686	0.0151975
640.764	0.0150959
640.842	0.0151635
640.920	0.0149796
640.998	0.0151344
641.076	0.0151963
641.155	0.0152234
641.233	0.0149957
641.311	0.0151844
641.389	0.0152139
641.467	0.0152023
641.545	0.0151569
641.623	0.0150707
641.701	0.0151055
641.780	0.0151897
641.858	0.0152073
641.936	0.0152350
642.014	0.0151610
642.092	0.0151302
642.170	0.0151237
642.248	0.0152153
642.326	0.0150642
642.405	0.0151629
642.483	0.0152206
642.561	0.0151496
642.639	0.0151701
642.717	0.0151036
642.795	0.0151743
642.873	0.0151710
642.951	0.0151259
643.030	0.0152037
643.108	0.0152575
643.186	0.0151404
643.264	0.0153201
643.342	0.0152291
643.420	0.0152891
643.498	0.0151853
643.576	0.0150726
643.655	0.0151803
643.733	0.0151570
643.811	0.0152972
643.889	0.0152814
643.967	0.0151319
644.045	0.0152300
644.123	0.0151414
644.201	0.0152007
644.280	0.0151802
644.358	0.0152866
644.436	0.0152361
644.514	0.0151228
644.592	0.0152823
644.670	0.0153159
644.748	0.0153445
644.826	0.0151878
644.905	0.0153169
644.983	0.0151717
645.061	0.0151816
645.139	0.0153397
645.217	0.0152583
645.295	0.0152583
645.373	0.0153203
645.451	0.0152636
645.530	0.0152493
645.608	0.0152473
645.686	0.0152471
645.764	0.0153196
645.842	0.0152770
645.920	0.0152101
645.998	0.0151329
646.076	0.0152193
646.155	0.0152983
646.233	0.0152551
646.311	0.0153274
646.389	0.0153344
646.467	0.0151643
646.545	0.0151772
646.623	0.0152136
646.701	0.0151644
646.780	0.0153047
646.858	0.0153078
646.936	0.0151869
647.014	0.0152063
647.092	0.0150790
647.170	0.0152303
647.248	0.0152558
647.326	0.0151390
647.405	0.0151537
647.483	0.0151585
647.561	0.0151646
647.639	0.0151942
647.717	0.0152272
647.795	0.0151897
647.873	0.0151402
647.951	0.0150591
648.030	0.0150566
648.108	0.0149974
648.186	0.0151327
648.264	0.0151364
648.342	0.0150492
648.420	0.0150695
648.498	0.0150555
648.576	0.0151405
648.655	0.0152126
648.733	0.0150488
648.811	0.0150918
648.889	0.0151642
648.967	0.0151219
649.045	0.0150990
649.123	0.0150246
649.201	0.0150483
649.280	0.0151413
649.358	0.0150896
649.436	0.0149196
649.514	0.0149166
649.592	0.0150108
649.670	0.0149931
649.748	0.0149921
649.826	0.0149722
649.905	0.0149799
649.983	0.0152316
650.061	0.0149635
650.139	0.0148069
650.217	0.0150004
650.295	0.0149309
650.373	0.0149845
650.451	0.0151782
650.530	0.0150494
650.608	0.0150658
650.686	0.0149796
650.764	0.0150983
650.842	0.0151183
650.920	0.0151546
650.998	0.0151934
651.076	0.0152391
651.155	0.0151922
651.233	0.0151003
651.311	0.0152168
651.389	0.0152418
651.467	0.0151783
651.545	0.0151479
651.623	0.0151895
651.701	0.0153124
651.780	0.0152097
651.858	0.0153196
651.936	0.0153538
652.014	0.0153078
652.092	0.0152379
652.170	0.0152582
652.248	0.0152993
652.326	0.0152517
652.405	0.0152381
652.483	0.0151562
652.561	0.0154117
652.639	0.0153222
652.717	0.0153006
652.795	0.0152032
652.873	0.0151915
652.951	0.0151286
653.030	0.0152570
653.108	0.0151978
653.186	0.0151563
653.264	0.0152129
653.342	0.0151394
653.420	0.0151411
653.498	0.0152467
653.576	0.0152398
653.655	0.0152715
653.733	0.0153302
653.811	0.0153101
653.889	0.0152454
653.967	0.0153735
654.045	0.0153202
654.123	0.0152081
654.201	0.0153072
654.280	0.0153053
654.358	0.0153251
654.436	0.0154598
654.514	0.0153689
654.592	0.0155069
654.670	0.0153268
654.748	0.0152657
654.826	0.0153082
654.905	0.0152256
654.983	0.0152576
655.061	0.0152268
655.139	0.0150597
655.217	0.0152819
655.295	0.0152901
655.373	0.0151466
655.451	0.0151691
655.530	0.0151612
655.608	0.0151325
655.686	0.0150564
655.764	0.0150797
655.842	0.0151080
655.920	0.0151645
655.998	0.0151678
656.076	0.0153426
656.155	0.0150114
656.233	0.0150926
656.311	0.0152904
656.389	0.0152697
656.467	0.0152062
656.545	0.0152491
656.623	0.0153149
656.701	0.0152565
656.780	0.0151991
656.858	0.0150723
656.936	0.0153727
657.014	0.0152478
657.092	0.0152504
657.170	0.0152808
657.248	0.0151910
657.326	0.0152819
657.405	0.0152307
657.483	0.0151051
657.561	0.0152003
657.639	0.0152353
657.717	0.0151373
657.795	0.0150831
657.873	0.0152826
657.951	0.0151954
658.030	0.0150161
658.108	0.0150684
658.186	0.0151844
658.264	0.0150805
658.342	0.0150153
658.420	0.0150462
658.498	0.0150732
658.576	0.0150758
658.655	0.0151812
658.733	0.0151467
658.811	0.0151784
658.889	0.0152003
658.967	0.0152298
659.045	0.0151664
659.123	0.0150675
659.201	0.0152139
659.280	0.0152882
659.358	0.0152859
659.436	0.0152859
659.514	0.0152061
659.592	0.0150674
659.670	0.0150437
659.748	0.0152004
659.826	0.0151933
659.905	0.0151179
659.983	0.0150349
660.061	0.0151018
660.139	0.0150830
660.217	0.0150296
660.295	0.0149883
660.373	0.0150428
660.451	0.0150792
660.530	0.0151518
660.608	0.0152335
660.686	0.0151115
660.764	0.0151901
660.842	0.0151369
660.920	0.0151970
660.998	0.0151852
661.076	0.0152985
661.155	0.0152364
661.233	0.0153442
661.311	0.0152023
661.389	0.0152859
661.467	0.0153723
661.545	0.0152126
661.623	0.0154515
661.701	0.0152751
661.780	0.0153177
661.858	0.0153113
661.936	0.0152477
662.014	0.0151353
662.092	0.0152242
662.170	0.0153525
662.248	0.0153941
662.326	0.0152479
662.405	0.0152555
662.483	0.0153590
662.561	0.0152801
662.639	0.0153078
662.717	0.0152103
662.795	0.0152708
662.873	0.0150890
662.951	0.0151743
663.030	0.0152556
663.108	0.0152030
663.186	0.0151991
663.264	0.0150207
663.342	0.0150299
663.420	0.0149886
663.498	0.0150181
663.576	0.0150382
663.655	0.0149809
663.733	0.0149552
663.811	0.0149581
663.889	0.0149072
663.967	0.0148683
664.045	0.0149046
664.123	0.0150458
664.201	0.0150249
664.280	0.0150694
664.358	0.0151127
664.436	0.0150070
664.514	0.0150698
664.592	0.0151722
664.670	0.0150966
664.748	0.0152045
664.826	0.0152332
664.905	0.0152395
664.983	0.0151358
665.061	0.0152164
665.139	0.0153819
665.217	0.0152871
665.295	0.0153986
665.373	0.0155529
665.451	0.0155879
665.530	0.0155772
665.608	0.0154484
665.686	0.0155148
665.764	0.0157111
665.842	0.0157635
665.920	0.0156949
665.998	0.0156863
666.076	0.0158638
666.155	0.0158085
666.233	0.0158926
666.311	0.0159118
666.389	0.0158826
666.467	0.0157787
666.545	0.0157899
666.623	0.0158546
666.701	0.0158341
666.780	0.0157043
666.858	0.0157130
666.936	0.0156826
667.014	0.0154837
667.092	0.0154901
667.170	0.0153934
667.248	0.0152850
667.326	0.0152156
667.405	0.0150792
667.483	0.0150640
667.561	0.0148757
667.639	0.0148065
667.717	0.0148431
667.795	0.0146981
667.873	0.0145174
667.951	0.0144413
668.030	0.0144377
668.108	0.0143398
668.186	0.0144009
668.264	0.0142340
668.342	0.0142596
668.420	0.0142579
668.498	0.0140392
668.576	0.0141285
668.655	0.0143268
668.733	0.0143033
668.811	0.0144730
668.889	0.0145185
668.967	0.0144454
669.045	0.0144263
669.123	0.0148457
669.201	0.0148692
669.280	0.0148347
669.358	0.0150644
669.436	0.0151438
669.514	0.0152561
669.592	0.0153327
669.670	0.0155521
669.748	0.0155128
669.826	0.0157669
669.905	0.0158965
669.983	0.0157631
670.061	0.0158706
670.139	0.0159208
670.217	0.0159367
670.295	0.0158694
670.373	0.0160691
670.451	0.0159776
670.530	0.0159020
670.608	0.0156741
670.686	0.0158256
670.764	0.0158310
670.842	0.0157604
670.920	0.0158049
670.998	0.0157043
671.076	0.0157513
671.155	0.0157401
671.233	0.0155959
671.311	0.0156393
671.389	0.0153768
671.467	0.0154209
671.545	0.0152356
671.623	0.0151441
671.701	0.0151391
671.780	0.0150231
671.858	0.0150111
671.936	0.0149300
672.014	0.0146749
672.092	0.0146562
672.170	0.0147623
672.248	0.0146851
672.326	0.0145089
672.405	0.0145575
672.483	0.0145573
672.561	0.0143842
672.639	0.0142548
672.717	0.0142700
672.795	0.0141131
672.873	0.0140916
672.951	0.0141231
673.030	0.0139592
673.108	0.0140638
673.186	0.0140383
673.264	0.0140143
673.342	0.0140659
673.420	0.0140485
673.498	0.0141901
673.576	0.0142431
673.655	0.0142164
673.733	0.0144036
673.811	0.0144684
673.889	0.0144919
673.967	0.0146171
674.045	0.0149059
674.123	0.0151185
674.201	0.0152680
674.280	0.0152358
674.358	0.0154610
674.436	0.0156168
674.514	0.0157825
674.592	0.0158282
674.670	0.0160529
674.748	0.0160741
674.826	0.0161733
674.905	0.0162261
674.983	0.0161999
675.061	0.0163660
675.139	0.0163499
675.217	0.0164892
675.295	0.0164316
675.373	0.0165324
675.451	0.0165907
675.530	0.0164021
675.608	0.0163893
675.686	0.0165485
675.764	0.0163589
675.842	0.0163822
675.920	0.0164057
675.998	0.0161723
676.076	0.0161632
676.155	0.0159140
676.233	0.0158471
676.311	0.0156461
676.389	0.0154822
676.467	0.0153187
676.545	0.0151975
676.623	0.0151536
676.701	0.0150143
676.780	0.0149831
676.858	0.0146353
676.936	0.0147878
677.014	0.0145014
677.092	0.0144785
677.170	0.0144027
677.248	0.0144006
677.326	0.0142793
677.405	0.0142258
677.483	0.0141656
677.561	0.0142627
677.639	0.0141434
677.717	0.0141058
677.795	0.0140474
677.873	0.0142783
677.951	0.0143482
678.030	0.0144669
678.108	0.0145010
678.186	0.0146186
678.264	0.0148396
678.342	0.0149018
678.420	0.0149592
678.498	0.0150973
678.576	0.0152113
678.655	0.0153356
678.733	0.0153242
678.811	0.0155944
678.889	0.0155525
678.967	0.0155437
679.045	0.0155946
679.123	0.0156043
679.201	0.0156535
679.280	0.0156391
679.358	0.0156364
679.436	0.0157293
679.514	0.0157056
679.592	0.0157030
679.670	0.0156988
679.748	0.0156239
679.826	0.0156578
679.905	0.0155370
679.983	0.0155154
680.061	0.0156210
680.139	0.0154881
680.217	0.0155008
680.295	0.0153815
680.373	0.0154084
680.451	0.0153082
680.530	0.0151453
680.608	0.0152007
680.686	0.0151373
680.764	0.0151143
680.842	0.0151787
680.920	0.0151641
680.998	0.0152139
681.076	0.0149990
681.155	0.0151492
681.233	0.0151839
681.311	0.0151056
681.389	0.0152586
681.467	0.0153810
681.545	0.0153337
681.623	0.0154369
681.701	0.0153320
681.780	0.0154041
681.858	0.0153286
681.936	0.0155305
682.014	0.0154249
682.092	0.0154337
682.170	0.0154501
682.248	0.0152850
682.326	0.0153864
682.405	0.0152976
682.483	0.0154299
682.561	0.0153887
682.639	0.0155377
682.717	0.0152673
682.795	0.0153816
682.873	0.0153246
682.951	0.0151199
683.030	0.0152135
683.108	0.0149552
683.186	0.0150350
683.264	0.0148396
683.342	0.0149700
683.420	0.0148848
683.498	0.0148352
683.576	0.0146173
683.655	0.0146774
683.733	0.0145165
683.811	0.0145715
683.889	0.0145026
683.967	0.0143356
684.045	0.0143287
684.123	0.0144329
684.201	0.0144435
684.280	0.0144242
684.358	0.0146310
684.436	0.0147242
684.514	0.0146994
684.592	0.0146367
684.670	0.0148409
684.748	0.0148919
684.826	0.0151323
684.905	0.0150689
684.983	0.0151683
685.061	0.0151757
685.139	0.0150961
685.217	0.0152223
685.295	0.0152882
685.373	0.0154292
685.451	0.0154901
685.530	0.0153890
685.608	0.0155399
685.686	0.0155271
685.764	0.0156548
685.842	0.0157717
685.920	0.0158616
685.998	0.0157822
686.076	0.0159769
686.155	0.0157949
686.233	0.0157667
686.311	0.0159321
686.389	0.0159284
686.467	0.0158665
686.545	0.0157014
686.623	0.0158214
686.701	0.0156219
686.780	0.0156756
686.858	0.0156731
686.936	0.0157515
687.014	0.0157162
687.092	0.0156039
687.170	0.0155696
687.248	0.0155191
687.326	0.0154222
687.405	0.0153886
687.483	0.0153769
687.561	0.0154058
687.639	0.0151154
687.717	0.0151300
687.795	0.0150388
687.873	0.0149681
687.951	0.0148296
688.030	0.0148371
688.108	0.0148039
688.186	0.0148830
688.264	0.0147832
688.342	0.0148892
688.420	0.0147827
688.498	0.0149377
688.576	0.0150498
688.655	0.0149837
688.733	0.0150179
688.811	0.0151282
688.889	0.0153407
688.967	0.0152834
689.045	0.0152636
689.123	0.0152125
689.201	0.0152524
689.280	0.0153001
689.358	0.0154175
689.436	0.0152334
689.514	0.0153621
689.592	0.0152737
689.670	0.0151797
689.748	0.0150942
689.826	0.0151379
689.905	0.0151189
689.983	0.0150201
690.061	0.0149527
690.139	0.0150051
690.217	0.0148302
690.295	0.0146590
690.373	0.0147177
690.451	0.0146733
690.530	0.0145760
690.608	0.0145110
690.686	0.0144360
690.764	0.0144332
690.842	0.0144595
690.920	0.0143752
690.998	0.0143424
691.076	0.0144477
691.155	0.0144772
691.233	0.0144897
691.311	0.0146365
691.389	0.0144304
691.467	0.0145657
691.545	0.0147227
691.623	0.0147332
691.701	0.0148922
691.780	0.0149837
691.858	0.0149901
691.936	0.0151112
692.014	0.0152105
692.092	0.0153039
692.170	0.0154578
692.248	0.0155458
692.326	0.0157818
692.405	0.0158070
692.483	0.0159232
692.561	0.0160616
692.639	0.0160104
692.717	0.0160659
692.795	0.0162165
692.873	0.0164462
692.951	0.0163317
693.030	0.0162907
693.108	0.0162959
693.186	0.0164094
693.264	0.0163400
693.342	0.0162466
693.420	0.0162112
693.498	0.0160207
693.576	0.0159515
693.655	0.0157716
693.733	0.0156496
693.811	0.0155389
693.889	0.0154186
693.967	0.0153218
694.045	0.0150407
694.123	0.0150271
694.201	0.0149709
694.280	0.0148610
694.358	0.0145625
694.436	0.0146365
694.514	0.0145590
694.592	0.0145266
694.670	0.0145396
694.748	0.0144849
694.826	0.0144466
694.905	0.0143392
694.983	0.0142033
695.061	0.0143679
695.139	0.0143409
695.217	0.0141607
695.295	0.0142802
695.373	0.0141880
695.451	0.0141537
695.530	0.0142916
695.608	0.0143256
695.686	0.0143658
695.764	0.0144081
695.842	0.0145797
695.920	0.0147440
695.998	0.0149511
696.076	0.0150687
696.155	0.0152336
696.233	0.0152277
696.311	0.0154150
696.389	0.0153874
696.467	0.0154340
696.545	0.0156350
696.623	0.0156752
696.701	0.0156827
696.780	0.0157657
696.858	0.0157381
696.936	0.0158179
697.014	0.0156956
697.092	0.0158810
697.170	0.0158246
697.248	0.0160530
697.326	0.0159835
697.405	0.0159054
697.483	0.0160346
697.561	0.0160708
697.639	0.0162222
697.717	0.0160876
697.795	0.0161958
697.873	0.0162826
697.951	0.0160957
698.030	0.0160619
698.108	0.0161236
698.186	0.0159837
698.264	0.0157524
698.342	0.0158099
698.420	0.0158179
698.498	0.0156153
698.576	0.0155535
698.655	0.0153339
698.733	0.0152722
698.811	0.0152254
698.889	0.0150119
698.967	0.0149469
699.045	0.0147766
699.123	0.0148546
699.201	0.0147966
699.280	0.0146710
699.358	0.0146562
699.436	0.0146387
699.514	0.0147802
699.592	0.0147481
699.670	0.0147112
699.748	0.0147381
699.826	0.0148491
699.905	0.0149196
699.983	0.0148080
700.061	0.0147944
700.139	0.0148624
700.217	0.0148331
700.295	0.0148554
700.373	0.0149033
700.451	0.0150700
700.530	0.0148759
700.608	0.0150915
700.686	0.0150943
700.764	0.0149477
700.842	0.0148192
700.920	0.0148850
700.998	0.0148303
701.076	0.0147879
701.155	0.0149129
701.233	0.0148439
701.311	0.0146664
701.389	0.0146358
701.467	0.0148082
701.545	0.0148188
701.623	0.0147934
701.701	0.0148143
701.780	0.0146783
701.858	0.0146918
701.936	0.0147641
702.014	0.0148250
702.092	0.0148019
702.170	0.0149550
702.248	0.0149912
702.326	0.0150723
702.405	0.0151178
702.483	0.0151724
702.561	0.0152334
702.639	0.0153580
702.717	0.0155455
702.795	0.0155602
702.873	0.0156509
702.951	0.0156851
703.030	0.0158302
703.108	0.0158540
703.186	0.0160413
703.264	0.0160815
703.342	0.0161325
703.420	0.0161832
703.498	0.0162308
703.576	0.0162613
703.655	0.0161020
703.733	0.0160880
703.811	0.0160675
703.889	0.0160911
703.967	0.0160040
704.045	0.0159404
704.123	0.0159043
704.201	0.0156574
704.280	0.0156124
704.358	0.0154314
704.436	0.0152545
704.514	0.0151885
704.592	0.0150832
704.670	0.0149932
704.748	0.0150352
704.826	0.0150809
704.905	0.0149203
704.983	0.0148235
705.061	0.0147239
705.139	0.0149325
705.217	0.0148678
705.295	0.0148037
705.373	0.0148696
705.451	0.0148785
705.530	0.0149043
705.608	0.0148686
705.686	0.0147994
705.764	0.0147889
705.842	0.0148277
705.920	0.0149017
705.998	0.0149297
706.076	0.0148127
706.155	0.0148363
706.233	0.0148711
706.311	0.0148674
706.389	0.0150795
706.467	0.0151825
706.545	0.0150869
706.623	0.0151035
706.701	0.0150558
706.780	0.0151745
706.858	0.0149641
706.936	0.0149784
707.014	0.0150198
707.092	0.0151464
707.170	0.0150699
707.248	0.0152011
707.326	0.0150718
707.405	0.0149848
707.483	0.0150100
707.561	0.0151488
707.639	0.0151677
707.717	0.0151662
707.795	0.0152067
707.873	0.0153249
707.951	0.0152321
708.030	0.0153809
708.108	0.0153575
708.186	0.0155800
708.264	0.0154884
708.342	0.0154642
708.420	0.0155399
708.498	0.0155656
708.576	0.0156547
708.655	0.0156867
708.733	0.0158273
708.811	0.0156934
708.889	0.0155923
708.967	0.0157516
709.045	0.0158438
709.123	0.0157966
709.201	0.0156895
709.280	0.0156827
709.358	0.0156525
709.436	0.0157015
709.514	0.0155848
709.592	0.0155676
709.670	0.0156052
709.748	0.0157575
709.826	0.0156648
709.905	0.0155990
709.983	0.0155208
710.061	0.0154743
710.139	0.0156264
710.217	0.0156232
710.295	0.0153899
710.373	0.0154862
710.451	0.0153480
710.530	0.0152396
710.608	0.0152491
710.686	0.0151338
710.764	0.0151492
710.842	0.0150694
710.920	0.0150717
710.998	0.0149352
711.076	0.0150694
711.155	0.0149682
711.233	0.0149597
711.311	0.0149825
711.389	0.0149374
711.467	0.0149756
711.545	0.0149239
711.623	0.0147967
711.701	0.0145494
711.780	0.0146080
711.858	0.0144904
711.936	0.0144073
712.014	0.0144606
712.092	0.0142992
712.170	0.0143929
712.248	0.0142731
712.326	0.0142303
712.405	0.0145356
712.483	0.0145208
712.561	0.0145134
712.639	0.0146816
712.717	0.0148412
712.795	0.0149877
712.873	0.0149510
712.951	0.0152830
713.030	0.0153532
713.108	0.0155275
713.186	0.0155615
713.264	0.0157676
713.342	0.0156902
713.420	0.0158150
713.498	0.0159444
713.576	0.0158525
713.655	0.0160366
713.733	0.0159782
713.811	0.0158867
713.889	0.0160451
713.967	0.0160128
714.045	0.0159142
714.123	0.0158229
714.201	0.0157427
714.280	0.0157562
714.358	0.0155633
714.436	0.0154948
714.514	0.0155489
714.592	0.0153636
714.670	0.0151025
714.748	0.0152116
714.826	0.0150423
714.905	0.0150275
714.983	0.0148198
715.061	0.0146937
715.139	0.0146551
715.217	0.0145666
715.295	0.0147449
715.373	0.0146521
715.451	0.0147127
715.530	0.0146355
715.608	0.0146621
715.686	0.0147002
715.764	0.0147953
715.842	0.0150227
715.920	0.0148715
715.998	0.0150142
716.076	0.0149168
716.155	0.0149485
716.233	0.0151549
716.311	0.0150285
716.389	0.0150498
716.467	0.0149322
716.545	0.0150745
716.623	0.0151118
716.701	0.0150897
716.780	0.0150861
716.858	0.0151642
716.936	0.0150874
717.014	0.0149655
717.092	0.0150544
717.170	0.0149982
717.248	0.0150388
717.326	0.0148154
717.405	0.0150817
717.483	0.0149384
717.561	0.0148736
717.639	0.0150611
717.717	0.0149046
717.795	0.0149025
717.873	0.0151032
717.951	0.0148913
718.030	0.0149934
718.108	0.0149895
718.186	0.0149274
718.264	0.0150346
718.342	0.0150933
718.420	0.0150925
718.498	0.0150787
718.576	0.0152149
718.655	0.0152615
718.733	0.0152751
718.811	0.0154581
718.889	0.0155845
718.967	0.0155664
719.045	0.0157109
719.123	0.0157302
719.201	0.0158514
719.280	0.0158604
719.358	0.0158744
719.436	0.0159308
719.514	0.0159577
719.592	0.0159251
719.670	0.0159161
719.748	0.0159721
719.826	0.0159412
719.905	0.0158304
719.983	0.0159785
720.061	0.0159796
720.139	0.0159182
720.217	0.0158769
720.295	0.0159008
720.373	0.0158089
720.451	0.0157640
720.530	0.0157150
720.608	0.0155092
720.686	0.0154626
720.764	0.0152925
720.842	0.0152624
720.920	0.0152310
720.998	0.0150632
721.076	0.0148550
721.155	0.0148128
721.233	0.0149016
721.311	0.0147108
721.389	0.0146906
721.467	0.0147394
721.545	0.0147076
721.623	0.0146400
721.701	0.0145242
721.780	0.0146090
721.858	0.0146461
721.936	0.0147402
722.014	0.0146925
722.092	0.0146176
722.170	0.0145731
722.248	0.0146659
722.326	0.0147474
722.405	0.0146926
722.483	0.0148229
722.561	0.0149407
722.639	0.0147459
722.717	0.0147655
722.795	0.0149358
722.873	0.0150689
722.951	0.0152604
723.030	0.0153867
723.108	0.0154158
723.186	0.0154251
723.264	0.0156331
723.342	0.0156794
723.420	0.0156260
723.498	0.0156388
723.576	0.0158752
723.655	0.0158405
723.733	0.0159092
723.811	0.0158810
723.889	0.0159274
723.967	0.0158043
724.045	0.0157893
724.123	0.0156714
724.201	0.0155319
724.280	0.0155032
724.358	0.0154362
724.436	0.0153477
724.514	0.0153167
724.592	0.0153764
724.670	0.0151856
724.748	0.0151435
724.826	0.0150384
724.905	0.0150791
724.983	0.0150278
725.061	0.0149837
725.139	0.0150233
725.217	0.0150375
725.295	0.0150710
725.373	0.0150613
725.451	0.0150832
725.530	0.0151730
725.608	0.0151405
725.686	0.0150787
725.764	0.0151865
725.842	0.0151229
725.920	0.0152942
725.998	0.0152637
726.076	0.0152760
726.155	0.0153623
726.233	0.0152216
726.311	0.0151403
726.389	0.0153179
726.467	0.0154366
726.545	0.0153809
726.623	0.0153390
726.701	0.0153234
726.780	0.0154158
726.858	0.0152776
726.936	0.0154026
727.014	0.0150732
727.092	0.0152505
727.170	0.0152335
727.248	0.0150221
727.326	0.0149737
727.405	0.0150748
727.483	0.0148721
727.561	0.0148223
727.639	0.0149831
727.717	0.0147953
727.795	0.0146348
727.873	0.0146566
727.951	0.0146812
728.030	0.0147641
728.108	0.0148129
728.186	0.0146801
728.264	0.0147960
728.342	0.0148568
728.420	0.0147358
728.498	0.0148444
728.576	0.0148058
728.655	0.0147729
728.733	0.0149443
728.811	0.0151196
728.889	0.0152948
728.967	0.0152267
729.045	0.0152541
729.123	0.0153231
729.201	0.0154222
729.280	0.0154787
729.358	0.0155881
729.436	0.0156593
729.514	0.0154797
729.592	0.0155573
729.670	0.0157520
729.748	0.0156174
729.826	0.0155299
729.905	0.0155457
729.983	0.0154264
730.061	0.0153201
730.139	0.0153255
730.217	0.0154576
730.295	0.0152940
730.373	0.0152756
730.451	0.0150879
730.530	0.0152180
730.608	0.0153015
730.686	0.0151809
730.764	0.0151774
730.842	0.0151815
730.920	0.0151192
730.998	0.0150319
731.076	0.0151370
731.155	0.0152045
731.233	0.0151099
731.311	0.0150835
731.389	0.0150579
731.467	0.0150157
731.545	0.0150301
731.623	0.0149337
731.701	0.0149740
731.780	0.0150233
731.858	0.0151753
731.936	0.0151143
732.014	0.0149788
732.092	0.0150908
732.170	0.0149492
732.248	0.0149016
732.326	0.0150739
732.405	0.0150555
732.483	0.0151340
732.561	0.0152055
732.639	0.0151101
732.717	0.0149775
732.795	0.0152348
732.873	0.0150718
732.951	0.0153920
733.030	0.0151787
733.108	0.0151688
733.186	0.0152157
733.264	0.0151260
733.342	0.0150835
733.420	0.0152266
733.498	0.0151173
733.576	0.0150204
733.655	0.0150927
733.733	0.0151727
733.811	0.0150114
733.889	0.0149569
733.967	0.0149802
734.045	0.0149959
734.123	0.0150105
734.201	0.0150195
734.280	0.0149501
734.358	0.0150280
734.436	0.0149910
734.514	0.0150622
734.592	0.0151405
734.670	0.0151347
734.748	0.0151525
734.826	0.0152186
734.905	0.0151184
734.983	0.0152006
735.061	0.0151543
735.139	0.0151135
735.217	0.0153424
735.295	0.0152801
735.373	0.0151606
735.451	0.0152706
735.530	0.0151392
735.608	0.0151928
735.686	0.0152634
735.764	0.0151640
735.842	0.0151358
735.920	0.0150492
735.998	0.0151550
736.076	0.0151469
736.155	0.0150182
736.233	0.0152462
736.311	0.0151115
736.389	0.0151485
736.467	0.0152113
736.545	0.0151910
736.623	0.0153729
736.701	0.0156650
736.780	0.0157023
736.858	0.0155940
736.936	0.0155361
737.014	0.0155066
737.092	0.0155563
737.170	0.0154670
737.248	0.0154832
737.326	0.0156184
737.405	0.0155643
737.483	0.0155321
737.561	0.0156427
737.639	0.0156119
737.717	0.0154218
737.795	0.0155276
737.873	0.0156074
737.951	0.0154872
738.030	0.0155357
738.108	0.0154938
738.186	0.0155599
738.264	0.0155009
738.342	0.0153875
738.420	0.0155993
738.498	0.0154050
738.576	0.0153058
738.655	0.0151307
738.733	0.0151691
738.811	0.0152290
738.889	0.0152338
738.967	0.0152164
739.045	0.0152770
739.123	0.0150734
739.201	0.0151408
739.280	0.0150854
739.358	0.0153295
739.436	0.0154044
739.514	0.0151071
739.592	0.0151449
739.670	0.0153064
739.748	0.0153484
739.826	0.0151804
739.905	0.0150201
739.983	0.0150818
740.061	0.0151072
740.139	0.0149950
740.217	0.0148740
740.295	0.0150234
740.373	0.0151492
740.451	0.0150207
740.530	0.0149825
740.608	0.0150504
740.686	0.0151155
740.764	0.0151337
740.842	0.0151074
740.920	0.0150767
740.998	0.0153411
741.076	0.0154544
741.155	0.0153582
741.233	0.0155380
741.311	0.0154510
741.389	0.0154130
741.467	0.0155467
741.545	0.0155845
741.623	0.0155729
741.701	0.0155740
741.780	0.0154713
741.858	0.0155263
741.936	0.0156201
742.014	0.0155207
742.092	0.0154594
742.170	0.0154757
742.248	0.0153822
742.326	0.0153773
742.405	0.0154436
742.483	0.0154287
742.561	0.0152525
742.639	0.0152233
742.717	0.0153017
742.795	0.0151141
742.873	0.0152575
742.951	0.0149988
743.030	0.0150556
743.108	0.0148870
743.186	0.0149883
743.264	0.0149313
743.342	0.0147828
743.420	0.0148026
743.498	0.0147396
743.576	0.0145766
743.655	0.0147514
743.733	0.0146705
743.811	0.0144776
743.889	0.0146289
743.967	0.0148277
744.045	0.0147869
744.123	0.0148304
744.201	0.0149241
744.280	0.0149837
744.358	0.0150663
744.436	0.0151572
744.514	0.0150907
744.592	0.0151949
744.670	0.0151317
744.748	0.0151710
744.826	0.0151550
744.905	0.0149960
744.983	0.0151369
745.061	0.0152770
745.139	0.0151583
745.217	0.0151817
745.295	0.0149529
745.373	0.0150837
745.451	0.0150190
745.530	0.0150476
745.608	0.0149413
745.686	0.0151231
745.764	0.0149987
745.842	0.0150325
745.920	0.0149803
745.998	0.0150874
746.076	0.0152064
746.155	0.0151699
746.233	0.0150561
746.311	0.0151261
746.389	0.0152054
746.467	0.0149279
746.545	0.0151483
746.623	0.0151724
746.701	0.0149467
746.780	0.0151905
746.858	0.0151965
746.936	0.0150761
747.014	0.0153485
747.092	0.0152887
747.170	0.0153396
747.248	0.0152013
747.326	0.0152278
747.405	0.0152581
747.483	0.0152903
747.561	0.0153819
747.639	0.0153309
747.717	0.0154006
747.795	0.0153751
747.873	0.0153916
747.951	0.0154647
748.030	0.0154410
748.108	0.0154788
748.186	0.0155221
748.264	0.0154706
748.342	0.0154461
748.420	0.0153897
748.498	0.0152190
748.576	0.0152740
748.655	0.0152267
748.733	0.0152980
748.811	0.0152892
748.889	0.0153164
748.967	0.0153512
749.045	0.0152483
749.123	0.0152911
749.201	0.0152240
749.280	0.0152554
749.358	0.0153570
749.436	0.0154718
749.514	0.0153772
749.592	0.0153588
749.670	0.0152311
749.748	0.0154027
749.826	0.0153977
749.905	0.0152543
749.983	0.0152567
750.061	0.0151633
750.139	0.0152395
750.217	0.0150332
750.295	0.0150407
750.373	0.0147514
750.451	0.0148932
750.530	0.0148042
750.608	0.0146390
750.686	0.0146702
750.764	0.0147112
750.842	0.0145832
750.920	0.0146960
750.998	0.0144485
751.076	0.0144661
751.155	0.0146195
751.233	0.0144457
751.311	0.0145968
751.389	0.0147734
751.467	0.0147075
751.545	0.0147536
751.623	0.0148820
751.701	0.0148530
751.780	0.0149914
751.858	0.0150134
751.936	0.0151012
752.014	0.0151230
752.092	0.0151080
752.170	0.0150256
752.248	0.0151554
752.326	0.0152512
752.405	0.0152491
752.483	0.0152343
752.561	0.0151871
752.639	0.0152614
752.717	0.0152090
752.795	0.0152812
752.873	0.0152744
752.951	0.0154610
753.030	0.0153751
753.108	0.0153530
753.186	0.0153371
753.264	0.0154088
753.342	0.0154379
753.420	0.0154441
753.498	0.0154807
753.576	0.0153127
753.655	0.0154967
753.733	0.0153310
753.811	0.0154072
753.889	0.0152214
753.967	0.0153754
754.045	0.0152076
754.123	0.0151517
754.201	0.0151669
754.280	0.0150843
754.358	0.0150396
754.436	0.0151418
754.514	0.0150685
754.592	0.0148496
754.670	0.0151051
754.748	0.0149425
754.826	0.0150633
754.905	0.0149516
754.983	0.0149790
755.061	0.0148669
755.139	0.0147572
755.217	0.0146378
755.295	0.0148126
755.373	0.0148375
755.451	0.0147393
755.530	0.0148946
755.608	0.0147628
755.686	0.0147916
755.764	0.0149139
755.842	0.0149322
755.920	0.0148730
755.998	0.0150529
756.076	0.0151096
756.155	0.0149232
756.233	0.0149811
756.311	0.0151797
756.389	0.0150935
756.467	0.0151590
756.545	0.0150289
756.623	0.0150044
756.701	0.0152103
756.780	0.0151679
756.858	0.0152199
756.936	0.0152863
757.014	0.0151452
757.092	0.0153465
757.170	0.0153488
757.248	0.0153063
757.326	0.0153136
757.405	0.0153076
757.483	0.0153747
757.561	0.0153750
757.639	0.0152577
757.717	0.0153261
757.795	0.0154004
757.873	0.0153393
757.951	0.0152747
758.030	0.0152257
758.108	0.0152760
758.186	0.0151990
758.264	0.0152149
758.342	0.0153294
758.420	0.0150160
758.498	0.0151724
758.576	0.0152251
758.655	0.0150411
758.733	0.0150410
758.811	0.0150205
758.889	0.0148933
758.967	0.0148887
759.045	0.0149167
759.123	0.0149825
759.201	0.0150204
759.280	0.0148392
759.358	0.0149896
759.436	0.0150092
759.514	0.0150681
759.592	0.0150162
759.670	0.0150282
759.748	0.0148795
759.826	0.0151235
759.905	0.0151240
759.983	0.0150439
760.061	0.0151836
760.139	0.0152274
760.217	0.0152057
760.295	0.0152831
760.373	0.0152953
760.451	0.0152570
760.530	0.0153106
760.608	0.0153745
760.686	0.0153313
760.764	0.0154205
760.842	0.0153974
760.920	0.0154844
760.998	0.0155104
761.076	0.0155531
761.155	0.0155140
761.233	0.0155494
761.311	0.0155783
761.389	0.0157276
761.467	0.0157346
761.545	0.0156128
761.623	0.0155877
761.701	0.0155552
761.780	0.0155000
761.858	0.0155363
761.936	0.0155039
762.014	0.0153646
762.092	0.0153329
762.170	0.0152898
762.248	0.0152924
762.326	0.0153504
762.405	0.0153017
762.483	0.0152866
762.561	0.0152843
762.639	0.0152471
762.717	0.0151579
762.795	0.0151702
762.873	0.0151025
762.951	0.0150383
763.030	0.0150910
763.108	0.0149789
763.186	0.0149561
763.264	0.0149599
763.342	0.0150063
763.420	0.0149327
763.498	0.0148664
763.576	0.0150980
763.655	0.0150753
763.733	0.0149033
763.811	0.0148162
763.889	0.0150027
763.967	0.0149658
764.045	0.0149422
764.123	0.0150420
764.201	0.0149519
764.280	0.0149751
764.358	0.0150150
764.436	0.0149865
764.514	0.0149046
764.592	0.0149284
764.670	0.0150664
764.748	0.0150183
764.826	0.0149271
764.905	0.0150056
764.983	0.0150524
765.061	0.0150925
765.139	0.0151528
765.217	0.0151742
765.295	0.0153126
765.373	0.0153494
765.451	0.0153880
765.530	0.0151701
765.608	0.0152659
765.686	0.0151670
765.764	0.0153212
765.842	0.0151635
765.920	0.0153431
765.998	0.0153390
766.076	0.0153223
766.155	0.0152850
766.233	0.0150785
766.311	0.0152131
766.389	0.0152945
766.467	0.0152508
766.545	0.0152464
766.623	0.0152585
766.701	0.0153202
766.780	0.0151756
766.858	0.0152618
766.936	0.0153204
767.014	0.0153133
767.092	0.0152573
767.170	0.0151346
767.248	0.0151413
767.326	0.0151747
767.405	0.0153642
767.483	0.0151530
767.561	0.0149876
767.639	0.0150909
767.717	0.0152202
767.795	0.0150330
767.873	0.0150085
767.951	0.0150780
768.030	0.0149308
768.108	0.0150471
768.186	0.0150618
768.264	0.0151303
768.342	0.0151110
768.420	0.0151297
768.498	0.0151476
768.576	0.0151578
768.655	0.0151039
768.733	0.0152999
768.811	0.0153088
768.889	0.0152696
768.967	0.0151408
769.045	0.0153011
769.123	0.0152376
769.201	0.0151788
769.280	0.0152554
769.358	0.0152596
769.436	0.0152896
769.514	0.0151333
769.592	0.0151608
769.670	0.0151060
769.748	0.0151519
769.826	0.0151968
769.905	0.0150967
769.983	0.0150587
770.061	0.0149512
770.139	0.0149860
770.217	0.0150003
770.295	0.0148600
770.373	0.0148430
770.451	0.0150096
770.530	0.0148373
770.608	0.0148584
770.686	0.0147925
770.764	0.0148345
770.842	0.0149179
770.920	0.0148802
770.998	0.0149431
771.076	0.0150208
771.155	0.0149484
771.233	0.0149786
771.311	0.0151321
771.389	0.0151961
771.467	0.0151422
771.545	0.0151786
771.623	0.0152306
771.701	0.0151780
771.780	0.0152998
771.858	0.0154237
771.936	0.0153977
772.014	0.0154507
772.092	0.0154665
772.170	0.0155247
772.248	0.0155637
772.326	0.0152839
772.405	0.0155362
772.483	0.0155267
772.561	0.0155441
772.639	0.0153506
772.717	0.0155101
772.795	0.0154883
772.873	0.0154974
772.951	0.0152598
773.030	0.0154595
773.108	0.0153850
773.186	0.0153139
773.264	0.0152768
773.342	0.0150986
773.420	0.0151781
773.498	0.0151639
773.576	0.0151436
773.655	0.0150703
773.733	0.0149620
773.811	0.0149252
773.889	0.0149342
773.967	0.0151468
774.045	0.0148685
774.123	0.0148154
774.201	0.0148274
774.280	0.0148083
774.358	0.0146980
774.436	0.0148737
774.514	0.0149261
774.592	0.0149305
774.670	0.0147807
774.748	0.0149612
774.826	0.0150362
774.905	0.0149783
774.983	0.0149339
775.061	0.0148886
775.139	0.0150397
775.217	0.0151460
775.295	0.0150904
775.373	0.0151000
775.451	0.0151099
775.530	0.0152685
775.608	0.0151794
775.686	0.0152155
775.764	0.0153017
775.842	0.0151960
775.920	0.0151886
775.998	0.0151817
776.076	0.0151967
776.155	0.0151199
776.233	0.0152577
776.311	0.0153144
776.389	0.0152087
776.467	0.0152303
776.545	0.0154293
776.623	0.0153857
776.701	0.0153773
776.780	0.0154249
776.858	0.0154254
776.936	0.0155482
777.014	0.0154157
777.092	0.0153823
777.170	0.0153835
777.248	0.0155298
777.326	0.0156643
777.405	0.0155598
777.483	0.0154319
777.561	0.0154709
777.639	0.0155306
777.717	0.0154839
777.795	0.0154405
777.873	0.0154893
777.951	0.0154255
778.030	0.0153252
778.108	0.0152666
778.186	0.0152505
778.264	0.0151804
778.342	0.0152026
778.420	0.0151112
778.498	0.0151781
778.576	0.0152569
778.655	0.0150089
778.733	0.0149688
778.811	0.0149446
778.889	0.0151338
778.967	0.0149788
779.045	0.0149577
779.123	0.0150002
779.201	0.0149920
779.280	0.0148717
779.358	0.0148292
779.436	0.0149730
779.514	0.0149673
779.592	0.0150179
779.670	0.0152070
779.748	0.0151601
779.826	0.0152161
779.905	0.0153117
779.983	0.0151871
780.061	0.0152144
780.139	0.0152417
780.217	0.0153072
780.295	0.0151247
780.373	0.0152998
780.451	0.0152642
780.530	0.0153017
780.608	0.0152409
780.686	0.0151513
780.764	0.0152464
780.842	0.0152067
780.920	0.0153149
780.998	0.0154033
781.076	0.0152142
781.155	0.0151878
781.233	0.0151258
781.311	0.0151781
781.389	0.0150788
781.467	0.0152847
781.545	0.0151559
781.623	0.0150928
781.701	0.0151765
781.780	0.0151648
781.858	0.0151241
781.936	0.0151249
782.014	0.0151624
782.092	0.0152225
782.170	0.0151822
782.248	0.0150736
782.326	0.0151377
782.405	0.0152357
782.483	0.0151907
782.561	0.0151685
782.639	0.0151777
782.717	0.0152148
782.795	0.0151504
782.873	0.0151157
782.951	0.0151001
783.030	0.0150929
783.108	0.0151688
783.186	0.0149880
783.264	0.0150317
783.342	0.0149658
783.420	0.0150887
783.498	0.0150916
783.576	0.0150135
783.655	0.0149277
783.733	0.0151460
783.811	0.0151032
783.889	0.0149031
783.967	0.0148577
784.045	0.0149191
784.123	0.0148387
784.201	0.0149512
784.280	0.0149657
784.358	0.0148439
784.436	0.0147987
784.514	0.0147961
784.592	0.0148680
784.670	0.0150616
784.748	0.0149755
784.826	0.0149525
784.905	0.0150493
784.983	0.0151262
785.061	0.0151473
785.139	0.0149841
785.217	0.0151005
785.295	0.0152067
785.373	0.0152221
785.451	0.0152547
785.530	0.0152125
785.608	0.0151593
785.686	0.0153150
785.764	0.0153107
785.842	0.0151129
785.920	0.0152164
785.998	0.0153738
786.076	0.0153155
786.155	0.0152229
786.233	0.0151506
786.311	0.0152890
786.389	0.0152269
786.467	0.0152306
786.545	0.0152989
786.623	0.0152287
786.701	0.0151631
786.780	0.0151425
786.858	0.0152037
786.936	0.0152366
787.014	0.0149544
787.092	0.0150835
787.170	0.0150285
787.248	0.0150652
787.326	0.0149157
787.405	0.0149687
787.483	0.0149183
787.561	0.0150111
787.639	0.0150002
787.717	0.0148780
787.795	0.0148209
787.873	0.0151578
787.951	0.0151028
788.030	0.0151284
788.108	0.0151899
788.186	0.0151460
788.264	0.0152154
788.342	0.0152438
788.420	0.0153237
788.498	0.0152935
788.576	0.0153522
788.655	0.0154388
788.733	0.0152606
788.811	0.0153327
788.889	0.0153789
788.967	0.0154106
789.045	0.0154884
789.123	0.0154887
789.201	0.0154790
789.280	0.0157299
789.358	0.0156628
789.436	0.0156089
789.514	0.0155209
789.592	0.0155023
789.670	0.0156642
789.748	0.0155466
789.826	0.0156243
789.905	0.0156300
789.983	0.0156034
790.061	0.0155814
790.139	0.0155099
790.217	0.0155389
790.295	0.0153952
790.373	0.0154178
790.451	0.0153875
790.530	0.0152658
790.608	0.0154340
790.686	0.0151939
790.764	0.0151009
790.842	0.0153209
790.920	0.0151128
790.998	0.0151813
791.076	0.0149760
791.155	0.0151087
791.233	0.0151458
791.311	0.0151346
791.389	0.0151802
791.467	0.0151718
791.545	0.0150419
791.623	0.0149855
791.701	0.0150105
791.780	0.0150476
791.858	0.0151254
791.936	0.0153214
792.014	0.0150631
792.092	0.0150175
792.170	0.0151468
792.248	0.0151813
792.326	0.0150629
792.405	0.0152588
792.483	0.0151277
792.561	0.0153977
792.639	0.0151566
792.717	0.0152267
792.795	0.0153175
792.873	0.0152901
792.951	0.0153374
793.030	0.0152599
793.108	0.0153993
793.186	0.0154606
793.264	0.0153545
793.342	0.0154256
793.420	0.0154785
793.498	0.0154452
793.576	0.0153778
793.655	0.0153302
793.733	0.0153928
793.811	0.0153927
793.889	0.0153279
793.967	0.0153687
794.045	0.0152763
794.123	0.0152570
794.201	0.0153088
794.280	0.0154446
794.358	0.0153838
794.436	0.0153725
794.514	0.0153784
794.592	0.0154610
794.670	0.0152103
794.748	0.0151649
794.826	0.0152504
794.905	0.0151312
794.983	0.0151547
795.061	0.0151187
795.139	0.0149727
795.217	0.0151242
795.295	0.0150133
795.373	0.0148606
795.451	0.0149157
795.530	0.0148680
795.608	0.0150019
795.686	0.0148985
795.764	0.0148859
795.842	0.0149362
795.920	0.0149364
795.998	0.0149818
796.076	0.0147321
796.155	0.0150135
796.233	0.0148850
796.311	0.0148037
796.389	0.0149775
796.467	0.0148708
796.545	0.0149821
796.623	0.0151054
796.701	0.0150267
796.780	0.0150110
796.858	0.0150552
796.936	0.0151735
797.014	0.0152206
797.092	0.0152229
797.170	0.0151025
797.248	0.0151817
797.326	0.0152332
797.405	0.0153090
797.483	0.0152079
797.561	0.0153034
797.639	0.0153194
797.717	0.0153068
797.795	0.0154128
797.873	0.0154274
797.951	0.0152705
798.030	0.0154772
798.108	0.0153240
798.186	0.0154087
798.264	0.0154413
798.342	0.0153175
798.420	0.0154874
798.498	0.0153176
798.576	0.0153349
798.655	0.0153645
798.733	0.0154218
798.811	0.0154536
798.889	0.0153291
798.967	0.0153476
799.045	0.0152415
799.123	0.0154106
799.201	0.0154698
799.280	0.0154440
799.358	0.0152779
799.436	0.0155071
799.514	0.0154399
799.592	0.0153747
799.670	0.0154012
799.748	0.0154702
799.826	0.0154909
799.905	0.0154352
799.983	0.0155328
800.061	0.0153570
800.139	0.0153956
800.217	0.0153727
800.295	0.0153353
800.373	0.0153612
800.451	0.0153355
800.530	0.0155389
800.608	0.0155772
800.686	0.0156583
800.764	0.0154339
800.842	0.0155360
800.920	0.0154782
800.998	0.0155225
801.076	0.0154578
801.155	0.0152999
801.233	0.0152374
801.311	0.0154820
801.389	0.0154443
801.467	0.0151927
801.545	0.0153490
801.623	0.0152281
801.701	0.0151417
801.780	0.0152409
801.858	0.0152792
801.936	0.0152416
802.014	0.0151580
802.092	0.0151942
802.170	0.0150955
802.248	0.0152379
802.326	0.0150319
802.405	0.0151259
802.483	0.0151527
802.561	0.0151592
802.639	0.0151394
802.717	0.0150691
802.795	0.0150337
802.873	0.0151816
802.951	0.0151482
803.030	0.0151994
803.108	0.0152187
803.186	0.0152541
803.264	0.0151893
803.342	0.0152235
803.420	0.0151081
803.498	0.0151141
803.576	0.0150780
803.655	0.0151073
803.733	0.0151477
803.811	0.0151752
803.889	0.0150880
803.967	0.0151240
804.045	0.0150441
804.123	0.0149765
804.201	0.0149071
804.280	0.0150628
804.358	0.0148692
804.436	0.0148833
804.514	0.0149147
804.592	0.0148487
804.670	0.0150140
804.748	0.0150336
804.826	0.0148335
804.905	0.0150397
804.983	0.0150340
805.061	0.0149631
805.139	0.0150846
805.217	0.0150188
805.295	0.0150146
805.373	0.0150406
805.451	0.0150320
805.530	0.0151297
805.608	0.0151711
805.686	0.0151237
805.764	0.0151268
805.842	0.0152180
805.920	0.0151530
805.998	0.0151422
806.076	0.0152786
806.155	0.0152995
806.233	0.0151806
806.311	0.0152368
806.389	0.0154208
806.467	0.0153432
806.545	0.0151842
806.623	0.0152424
806.701	0.0152045
806.780	0.0151550
806.858	0.0151887
806.936	0.0150069
807.014	0.0151527
807.092	0.0151611
807.170	0.0151550
807.248	0.0151003
807.326	0.0150826
807.405	0.0151368
807.483	0.0150204
807.561	0.0151234
807.639	0.0150964
807.717	0.0150417
807.795	0.0151181
807.873	0.0151550
807.951	0.0151801
808.030	0.0150433
808.108	0.0150338
808.186	0.0151910
808.264	0.0151288
808.342	0.0151958
808.420	0.0151420
808.498	0.0151711
808.576	0.0152681
808.655	0.0151649
808.733	0.0151309
808.811	0.0152529
808.889	0.0153215
808.967	0.0153841
809.045	0.0151984
809.123	0.0152672
809.201	0.0151394
809.280	0.0152939
809.358	0.0152288
809.436	0.0151308
809.514	0.0151923
809.592	0.0153301
809.670	0.0151456
809.748	0.0152936
809.826	0.0153758
809.905	0.0153207
809.983	0.0151343
810.061	0.0151904
810.139	0.0154587
810.217	0.0152823
810.295	0.0153146
810.373	0.0154575
810.451	0.0153944
810.530	0.0152929
810.608	0.0154290
810.686	0.0153206
810.764	0.0152596
810.842	0.0153387
810.920	0.0153242
810.998	0.0151749
811.076	0.0150848
811.155	0.0153417
811.233	0.0152382
811.311	0.0152063
811.389	0.0152542
811.467	0.0151801
811.545	0.0151398
811.623	0.0152212
811.701	0.0151234
811.780	0.0152271
811.858	0.0152107
811.936	0.0151187
812.014	0.0151334
812.092	0.0151041
812.170	0.0152505
812.248	0.0149946
812.326	0.0149523
812.405	0.0150932
812.483	0.0151685
812.561	0.0149323
812.639	0.0148959
812.717	0.0151289
812.795	0.0148674
812.873	0.0148062
812.951	0.0148969
813.030	0.0150217
813.108	0.0148299
813.186	0.0150600
813.264	0.0150924
813.342	0.0149488
813.420	0.0150182
813.498	0.0148843
813.576	0.0149802
813.655	0.0151455
813.733	0.0151163
813.811	0.0150357
813.889	0.0149354
813.967	0.0152305
814.045	0.0150351
814.123	0.0151653
814.201	0.0149599
814.280	0.0150235
814.358	0.0151585
814.436	0.0150093
814.514	0.0150242
814.592	0.0150327
814.670	0.0151337
814.748	0.0151241
814.826	0.0152294
814.905	0.0151138
814.983	0.0151274
815.061	0.0150900
815.139	0.0151363
815.217	0.0151418
815.295	0.0151088
815.373	0.0151121
815.451	0.0150159
815.530	0.0150475
815.608	0.0150865
815.686	0.0152078
815.764	0.0149893
815.842	0.0150353
815.920	0.0151669
815.998	0.0150430
816.076	0.0151608
816.155	0.0151257
816.233	0.0152568
816.311	0.0151852
816.389	0.0151272
816.467	0.0151892
816.545	0.0152808
816.623	0.0152429
816.701	0.0154015
816.780	0.0152485
816.858	0.0151839
816.936	0.0153739
817.014	0.0153963
817.092	0.0152380
817.170	0.0154623
817.248	0.0153824
817.326	0.0153591
817.405	0.0154211
817.483	0.0154697
817.561	0.0153414
817.639	0.0155166
817.717	0.0151971
817.795	0.0154239
817.873	0.0154501
817.951	0.0153259
818.030	0.0153331
818.108	0.0152354
818.186	0.0153490
818.264	0.0152089
818.342	0.0153194
818.420	0.0152681
818.498	0.0152753
818.576	0.0152320
818.655	0.0152541
818.733	0.0152730
818.811	0.0152296
818.889	0.0152054
818.967	0.0153246
819.045	0.0152158
819.123	0.0153667
819.201	0.0152911
819.280	0.0154039
819.358	0.0153142
819.436	0.0153717
819.514	0.0153708
819.592	0.0154554
819.670	0.0153534
819.748	0.0153634
819.826	0.0153726
819.905	0.0154380
819.983	0.0154961
820.061	0.0154012
820.139	0.0154413
820.217	0.0156054
820.295	0.0153561
820.373	0.0152967
820.451	0.0153429
820.530	0.0151829
820.608	0.0153393
820.686	0.0153268
820.764	0.0153979
820.842	0.0152175
820.920	0.0153160
820.998	0.0151707
821.076	0.0153002
821.155	0.0152214
821.233	0.0152728
821.311	0.0151917
821.389	0.0152416
821.467	0.0151753
821.545	0.0152892
821.623	0.0152398
821.701	0.0151567
821.780	0.0152826
821.858	0.0152012
821.936	0.0151487
822.014	0.0152001
822.092	0.0152889
822.170	0.0151436
822.248	0.0151996
822.326	0.0152672
822.405	0.0152112
822.483	0.0152015
822.561	0.0152468
822.639	0.0151906
822.717	0.0151267
822.795	0.0152785
822.873	0.0150591
822.951	0.0151550
823.030	0.0152760
823.108	0.0152000
823.186	0.0152268
823.264	0.0152243
823.342	0.0151839
823.420	0.0153145
823.498	0.0152292
823.576	0.0152589
823.655	0.0151584
823.733	0.0151856
823.811	0.0153550
823.889	0.0151506
823.967	0.0149971
824.045	0.0151155
824.123	0.0150524
824.201	0.0151003
824.280	0.0150415
824.358	0.0150714
824.436	0.0150916
824.514	0.0150461
824.592	0.0151176
824.670	0.0151501
824.748	0.0151471
824.826	0.0151461
824.905	0.0151226
824.983	0.0151965
825.061	0.0150415
825.139	0.0151743
825.217	0.0151634
825.295	0.0151552
825.373	0.0150600
825.451	0.0151781
825.530	0.0152421
825.608	0.0152982
825.686	0.0152772
825.764	0.0151842
825.842	0.0151521
825.920	0.0153608
825.998	0.0153419
826.076	0.0152512
826.155	0.0153850
826.233	0.0152278
826.311	0.0151593
826.389	0.0152438
826.467	0.0152086
826.545	0.0152966
826.623	0.0153137
826.701	0.0155084
826.780	0.0152795
826.858	0.0152680
826.936	0.0152419
827.014	0.0153188
827.092	0.0152431
827.170	0.0152504
827.248	0.0151901
827.326	0.0152426
827.405	0.0151360
827.483	0.0152473
827.561	0.0152594
827.639	0.0151524
827.717	0.0151855
827.795	0.0152639
827.873	0.0153149
827.951	0.0152232
828.030	0.0150584
828.108	0.0150452
828.186	0.0149879
828.264	0.0152187
828.342	0.0151219
828.420	0.0150817
828.498	0.0151010
828.576	0.0151875
828.655	0.0152588
828.733	0.0151952
828.811	0.0151378
828.889	0.0150761
828.967	0.0151871
829.045	0.0150709
829.123	0.0152791
829.201	0.0151368
829.280	0.0150968
829.358	0.0152705
829.436	0.0150471
829.514	0.0151856
829.592	0.0151506
829.670	0.0152133
829.748	0.0151109
829.826	0.0151707
829.905	0.0151773
829.983	0.0151046
830.061	0.0151643
830.139	0.0151180
830.217	0.0152055
830.295	0.0150998
830.373	0.0150648
830.451	0.0150421
830.530	0.0150667
830.608	0.0151215
830.686	0.0150164
830.764	0.0150122
830.842	0.0150474
830.920	0.0151466
830.998	0.0150410
831.076	0.0149626
831.155	0.0150214
831.233	0.0150217
831.311	0.0150901
831.389	0.0150172
831.467	0.0151148
831.545	0.0150790
831.623	0.0150837
831.701	0.0150076
831.780	0.0150120
831.858	0.0150846
831.936	0.0151923
832.014	0.0150231
832.092	0.0148538
832.170	0.0150302
832.248	0.0150119
832.326	0.0149993
832.405	0.0150701
832.483	0.0149202
832.561	0.0151318
832.639	0.0150460
832.717	0.0153013
832.795	0.0151246
832.873	0.0151421
832.951	0.0150980
833.030	0.0150368
833.108	0.0152367
833.186	0.0151047
833.264	0.0151981
833.342	0.0152155
833.420	0.0150706
833.498	0.0151444
833.576	0.0152995
833.655	0.0153179
833.733	0.0151613
833.811	0.0151781
833.889	0.0153794
833.967	0.0152499
834.045	0.0152261
834.123	0.0154089
834.201	0.0152889
834.280	0.0152874
834.358	0.0153574
834.436	0.0152912
834.514	0.0153089
834.592	0.0152669
834.670	0.0152267
834.748	0.0152254
834.826	0.0153063
834.905	0.0151907
834.983	0.0150887
835.061	0.0153638
835.139	0.0151880
835.217	0.0151365
835.295	0.0152915
835.373	0.0152490
835.451	0.0151940
835.530	0.0152073
835.608	0.0152764
835.686	0.0153468
835.764	0.0152250
835.842	0.0152672
835.920	0.0152757
835.998	0.0152344
836.076	0.0152341
836.155	0.0151365
836.233	0.0152744
836.311	0.0153522
836.389	0.0152608
836.467	0.0151331
836.545	0.0151759
836.623	0.0152043
836.701	0.0151886
836.780	0.0152639
836.858	0.0151923
836.936	0.0152221
837.014	0.0152495
837.092	0.0151399
837.170	0.0150825
837.248	0.0150935
837.326	0.0151390
837.405	0.0151525
837.483	0.0150402
837.561	0.0151556
837.639	0.0151268
837.717	0.0151857
837.795	0.0150612
837.873	0.0151088
837.951	0.0150584
838.030	0.0150717
838.108	0.0151495
838.186	0.0151124
838.264	0.0151715
838.342	0.0150546
838.420	0.0152525
838.498	0.0151463
838.576	0.0150941
838.655	0.0151299
838.733	0.0151673
838.811	0.0151315
838.889	0.0151359
838.967	0.0151168
839.045	0.0150327
839.123	0.0153189
839.201	0.0150874
839.280	0.0152332
839.358	0.0150501
839.436	0.0150574
839.514	0.0152647
839.592	0.0151641
839.670	0.0151380
839.748	0.0153297
839.826	0.0151894
839.905	0.0151594
839.983	0.0153651
840.061	0.0152742
840.139	0.0152216
840.217	0.0152635
840.295	0.0152358
840.373	0.0153931
840.451	0.0152803
840.530	0.0152197
840.608	0.0152311
840.686	0.0152729
840.764	0.0152923
840.842	0.0153102
840.920	0.0152596
840.998	0.0152702
841.076	0.0152403
841.155	0.0153207
841.233	0.0152988
841.311	0.0151931
841.389	0.0151352
841.467	0.0151090
841.545	0.0152333
841.623	0.0153162
841.701	0.0151858
841.780	0.0151321
841.858	0.0153106
841.936	0.0152034
842.014	0.0152426
842.092	0.0152370
842.170	0.0152329
842.248	0.0151250
842.326	0.0151767
842.405	0.0151815
842.483	0.0151823
842.561	0.0152088
842.639	0.0152534
842.717	0.0152975
842.795	0.0152729
842.873	0.0151316
842.951	0.0152527
843.030	0.0151643
843.108	0.0151054
843.186	0.0151318
843.264	0.0152935
843.342	0.0151310
843.420	0.0151151
843.498	0.0151999
843.576	0.0151680
843.655	0.0151931
843.733	0.0151180
843.811	0.0151729
843.889	0.0150176
843.967	0.0151666
844.045	0.0150755
844.123	0.0150433
844.201	0.0151329
844.280	0.0150964
844.358	0.0151868
844.436	0.0152792
844.514	0.0151941
844.592	0.0151434
844.670	0.0150356
844.748	0.0152028
844.826	0.0152620
844.905	0.0152232
844.983	0.0151820
845.061	0.0151601
845.139	0.0152306
845.217	0.0152854
845.295	0.0151615
845.373	0.0151612
845.451	0.0152107
845.530	0.0151995
845.608	0.0153033
845.686	0.0151460
845.764	0.0152279
845.842	0.0152715
845.920	0.0152633
845.998	0.0154365
846.076	0.0152390
846.155	0.0152938
846.233	0.0154233
846.311	0.0154048
846.389	0.0152353
846.467	0.0152169
846.545	0.0153644
846.623	0.0153677
846.701	0.0151540
846.780	0.0153625
846.858	0.0152191
846.936	0.0151138
847.014	0.0151611
847.092	0.0151699
847.170	0.0152110
847.248	0.0151408
847.326	0.0150462
847.405	0.0150685
847.483	0.0152850
847.561	0.0152547
847.639	0.0151422
847.717	0.0151869
847.795	0.0150443
847.873	0.0151253
847.951	0.0152158
848.030	0.0150506
848.108	0.0151859
848.186	0.0151804
848.264	0.0150934
848.342	0.0151714
848.420	0.0151031
848.498	0.0151139
848.576	0.0150883
848.655	0.0153200
848.733	0.0150275
848.811	0.0151238
848.889	0.0152010
848.967	0.0151387
849.045	0.0151442
849.123	0.0152046
849.201	0.0151648
849.280	0.0150218
849.358	0.0151073
849.436	0.0150660
849.514	0.0150504
849.592	0.0151587
849.670	0.0151705
849.748	0.0150594
849.826	0.0151183
849.905	0.0150900
849.983	0.0152584
850.061	0.0152364
850.139	0.0150607
850.217	0.0150801
850.295	0.0152094
850.373	0.0151743
850.451	0.0150985
850.530	0.0152393
850.608	0.0151976
850.686	0.0151561
850.764	0.0151910
850.842	0.0152256
850.920	0.0152638
850.998	0.0150103
851.076	0.0151202
851.155	0.0151697
851.233	0.0151772
851.311	0.0151343
851.389	0.0150986
851.467	0.0150723
851.545	0.0151143
851.623	0.0150580
851.701	0.0151126
851.780	0.0151104
851.858	0.0151298
851.936	0.0150080
852.014	0.0150763
852.092	0.0150620
852.170	0.0150219
852.248	0.0152378
852.326	0.0150319
852.405	0.0150191
852.483	0.0150486
852.561	0.0151174
852.639	0.0151498
852.717	0.0151165
852.795	0.0151540
852.873	0.0151907
852.951	0.0150005
853.030	0.0151932
853.108	0.0151285
853.186	0.0152306
853.264	0.0150310
853.342	0.0151538
853.420	0.0150854
853.498	0.0150908
853.576	0.0150788
853.655	0.0151629
853.733	0.0152369
853.811	0.0151968
853.889	0.0151250
853.967	0.0151390
854.045	0.0152378
854.123	0.0152151
854.201	0.0151530
854.280	0.0151520
854.358	0.0152487
854.436	0.0152377
854.514	0.0151976
854.592	0.0151441
854.670	0.0151665
854.748	0.0151038
854.826	0.0150722
854.905	0.0151339
854.983	0.0149885
855.061	0.0150861
855.139	0.0150301
855.217	0.0151136
855.295	0.0151736
855.373	0.0150967
855.451	0.0151770
855.530	0.0151907
855.608	0.0151084
855.686	0.0151580
855.764	0.0150955
855.842	0.0152499
855.920	0.0151800
855.998	0.0150990
856.076	0.0151595
856.155	0.0153238
856.233	0.0152809
856.311	0.0151389
856.389	0.0152982
856.467	0.0152040
856.545	0.0151791
856.623	0.0152040
856.701	0.0151372
856.780	0.0152013
856.858	0.0152436
856.936	0.0151430
857.014	0.0152666
857.092	0.0153420
857.170	0.0152926
857.248	0.0151436
857.326	0.0153210
857.405	0.0152010
857.483	0.0150698
857.561	0.0152072
857.639	0.0153352
857.717	0.0152717
857.795	0.0150942
857.873	0.0153152
857.951	0.0152167
858.030	0.0151519
858.108	0.0151424
858.186	0.0151100
858.264	0.0152320
858.342	0.0150609
858.420	0.0151865
858.498	0.0150572
858.576	0.0151775
858.655	0.0152106
858.733	0.0151633
858.811	0.0150824
858.889	0.0151214
858.967	0.0150050
859.045	0.0150817
859.123	0.0150006
859.201	0.0149834
859.280	0.0149429
859.358	0.0149905
859.436	0.0149428
859.514	0.0149545
859.592	0.0150174
859.670	0.0151510
859.748	0.0149995
859.826	0.0150613
859.905	0.0149948
859.983	0.0150343
860.061	0.0150053
860.139	0.0151161
860.217	0.0150782
860.295	0.0149105
860.373	0.0151567
860.451	0.0150962
860.530	0.0150847
860.608	0.0150993
860.686	0.0149030
860.764	0.0150606
860.842	0.0151273
860.920	0.0151395
860.998	0.0151590
861.076	0.0152665
861.155	0.0151689
861.233	0.0152760
861.311	0.0151715
861.389	0.0151685
861.467	0.0152560
861.545	0.0153325
861.623	0.0152264
861.701	0.0151913
861.780	0.0151445
861.858	0.0152302
861.936	0.0152321
862.014	0.0152082
862.092	0.0152618
862.170	0.0152614
862.248	0.0153527
862.326	0.0152581
862.405	0.0152354
862.483	0.0153264
862.561	0.0153101
862.639	0.0152898
862.717	0.0153770
862.795	0.0153101
862.873	0.0154366
862.951	0.0152154
863.030	0.0152871
863.108	0.0153207
863.186	0.0153937
863.264	0.0152681
863.342	0.0153306
863.420	0.0152643
863.498	0.0152840
863.576	0.0152621
863.655	0.0153032
863.733	0.0153577
863.811	0.0153535
863.889	0.0151974
863.967	0.0153667
864.045	0.0151913
864.123	0.0152589
864.201	0.0151516
864.280	0.0151245
864.358	0.0151497
864.436	0.0153037
864.514	0.0152131
864.592	0.0151143
864.670	0.0152425
864.748	0.0151934
864.826	0.0152731
864.905	0.0153589
864.983	0.0152457
865.061	0.0153408
865.139	0.0152666
865.217	0.0152656
865.295	0.0152473
865.373	0.0154200
865.451	0.0153786
865.530	0.0151853
865.608	0.0151204
865.686	0.0151760
865.764	0.0153724
865.842	0.0152817
865.920	0.0152897
865.998	0.0153851
866.076	0.0153810
866.155	0.0153554
866.233	0.0152930
866.311	0.0153186
866.389	0.0152930
866.467	0.0151682
866.545	0.0153239
866.623	0.0152384
866.701	0.0151489
866.780	0.0150804
866.858	0.0152466
866.936	0.0152413
867.014	0.0151101
867.092	0.0150745
867.170	0.0152142
867.248	0.0152510
867.326	0.0152386
867.405	0.0151022
867.483	0.0150128
867.561	0.0152734
867.639	0.0153249
867.717	0.0153577
867.795	0.0152720
867.873	0.0151474
867.951	0.0150906
868.030	0.0151589
868.108	0.0150604
868.186	0.0152428
868.264	0.0151009
868.342	0.0149995
868.420	0.0150137
868.498	0.0150310
868.576	0.0150437
868.655	0.0151340
868.733	0.0150582
868.811	0.0150961
868.889	0.0151126
868.967	0.0151602
869.045	0.0151015
869.123	0.0151431
869.201	0.0151920
869.280	0.0152054
869.358	0.0151810
869.436	0.0150370
869.514	0.0150137
869.592	0.0151212
869.670	0.0151279
869.748	0.0151492
869.826	0.0152554
869.905	0.0152085
869.983	0.0153192
870.061	0.0152102
870.139	0.0150434
870.217	0.0150681
870.295	0.0151897
870.373	0.0152203
870.451	0.0151685
870.530	0.0151192
870.608	0.0152446
870.686	0.0152006
870.764	0.0151314
870.842	0.0150548
870.920	0.0151296
870.998	0.0152936
871.076	0.0151113
871.155	0.0151118
871.233	0.0150755
871.311	0.0150163
871.389	0.0151398
871.467	0.0151882
871.545	0.0151423
871.623	0.0151596
871.701	0.0151121
871.780	0.0150487
871.858	0.0150624
871.936	0.0150923
872.014	0.0151559
872.092	0.0150594
872.170	0.0152366
872.248	0.0152171
872.326	0.0151878
872.405	0.0151011
872.483	0.0151688
872.561	0.0151202
872.639	0.0152123
872.717	0.0150949
872.795	0.0151530
872.873	0.0152554
872.951	0.0153078
873.030	0.0153530
873.108	0.0152410
873.186	0.0151385
873.264	0.0152888
873.342	0.0153343
873.420	0.0151940
873.498	0.0152365
873.576	0.0151777
873.655	0.0152613
873.733	0.0153145
873.811	0.0152963
873.889	0.0151417
873.967	0.0151930
874.045	0.0152848
874.123	0.0154319
874.201	0.0152918
874.280	0.0152493
874.358	0.0151593
874.436	0.0153629
874.514	0.0150789
874.592	0.0153240
874.670	0.0153944
874.748	0.0153319
874.826	0.0151848
874.905	0.0152248
874.983	0.0151964
875.061	0.0153213
875.139	0.0152039
875.217	0.0153508
875.295	0.0151163
875.373	0.0152451
875.451	0.0152465
875.530	0.0153540
875.608	0.0152629
875.686	0.0153802
875.764	0.0152541
875.842	0.0152610
875.920	0.0152868
875.998	0.0153134
876.076	0.0152888
876.155	0.0153358
876.233	0.0153851
876.311	0.0153240
876.389	0.0152382
876.467	0.0152537
876.545	0.0152596
876.623	0.0151933
876.701	0.0152955
876.780	0.0153861
876.858	0.0152298
876.936	0.0152438
877.014	0.0151669
877.092	0.0151961
877.170	0.0151725
877.248	0.0151913
877.326	0.0150220
877.405	0.0151233
877.483	0.0151807
877.561	0.0151102
877.639	0.0151629
877.717	0.0150095
877.795	0.0151465
877.873	0.0152579
877.951	0.0150565
878.030	0.0150276
878.108	0.0150996
878.186	0.0151803
878.264	0.0150686
878.342	0.0149497
878.420	0.0151171
878.498	0.0151357
878.576	0.0150594
878.655	0.0151652
878.733	0.0150733
878.811	0.0150331
878.889	0.0152982
878.967	0.0151562
879.045	0.0151466
879.123	0.0151608
879.201	0.0151296
879.280	0.0151385
879.358	0.0151953
879.436	0.0151618
879.514	0.0151632
879.592	0.0152174
879.670	0.0151496
879.748	0.0150989
879.826	0.0152156
879.905	0.0151807
879.983	0.0149611
880.061	0.0150563
880.139	0.0151951
880.217	0.0151743
880.295	0.0150320
880.373	0.0151547
880.451	0.0153342
880.530	0.0151417
880.608	0.0151656
880.686	0.0151204
880.764	0.0152074
880.842	0.0151130
880.920	0.0151637
880.998	0.0151542
881.076	0.0150043
881.155	0.0151060
881.233	0.0152055
881.311	0.0150475
881.389	0.0151701
881.467	0.0150348
881.545	0.0150273
881.623	0.0150385
881.701	0.0150060
881.780	0.0150580
881.858	0.0150377
881.936	0.0151495
882.014	0.0148813
882.092	0.0150826
882.170	0.0149360
882.248	0.0150579
882.326	0.0150977
882.405	0.0150317
882.483	0.0150043
882.561	0.0151028
882.639	0.0151070
882.717	0.0151437
882.795	0.0151697
882.873	0.0150922
882.951	0.0150871
883.030	0.0151698
883.108	0.0151582
883.186	0.0151213
883.264	0.0151655
883.342	0.0151408
883.420	0.0152573
883.498	0.0152234
883.576	0.0153289
883.655	0.0152566
883.733	0.0154430
883.811	0.0153159
883.889	0.0152685
883.967	0.0151267
884.045	0.0152863
884.123	0.0154897
884.201	0.0153603
884.280	0.0154613
884.358	0.0153329
884.436	0.0154262
884.514	0.0152738
884.592	0.0154378
884.670	0.0153088
884.748	0.0151543
884.826	0.0153067
884.905	0.0151554
884.983	0.0152388
885.061	0.0151392
885.139	0.0150462
885.217	0.0151476
885.295	0.0151591
885.373	0.0151857
885.451	0.0150061
885.530	0.0150392
885.608	0.0150677
885.686	0.0150247
885.764	0.0150336
885.842	0.0150667
885.920	0.0150352
885.998	0.0150219
886.076	0.0150560
886.155	0.0150673
886.233	0.0152524
886.311	0.0151482
886.389	0.0151465
886.467	0.0150370
886.545	0.0149708
886.623	0.0150693
886.701	0.0149743
886.780	0.0150500
886.858	0.0150697
886.936	0.0150379
887.014	0.0150446
887.092	0.0152826
887.170	0.0150855
887.248	0.0151043
887.326	0.0151469
887.405	0.0152347
887.483	0.0150432
887.561	0.0152364
887.639	0.0152614
887.717	0.0152174
887.795	0.0152222
887.873	0.0151970
887.951	0.0152174
888.030	0.0150800
888.108	0.0152705
888.186	0.0152546
888.264	0.0152071
888.342	0.0152664
888.420	0.0153170
888.498	0.0153142
888.576	0.0153497
888.655	0.0152377
888.733	0.0153900
888.811	0.0153058
888.889	0.0151591
888.967	0.0152966
889.045	0.0152874
889.123	0.0153603
889.201	0.0154191
889.280	0.0152786
889.358	0.0151586
889.436	0.0152386
889.514	0.0152797
889.592	0.0153132
889.670	0.0151673
889.748	0.0151676
889.826	0.0153198
889.905	0.0151601
889.983	0.0152322
890.061	0.0151720
890.139	0.0152528
890.217	0.0151122
890.295	0.0151454
890.373	0.0150983
890.451	0.0151759
890.530	0.0151216
890.608	0.0150154
890.686	0.0151243
890.764	0.0150658
890.842	0.0150249
890.920	0.0150758
890.998	0.0150992
891.076	0.0151374
891.155	0.0149944
891.233	0.0151264
891.311	0.0151591
891.389	0.0150151
891.467	0.0150459
891.545	0.0150931
891.623	0.0151210
891.701	0.0151646
891.780	0.0151530
891.858	0.0150537
891.936	0.0149500
892.014	0.0150435
892.092	0.0150494
892.170	0.0150578
892.248	0.0151361
892.326	0.0150021
892.405	0.0149705
892.483	0.0149683
892.561	0.0150283
892.639	0.0150048
892.717	0.0150996
892.795	0.0150166
892.873	0.0151737
892.951	0.0150224
893.030	0.0149792
893.108	0.0149587
893.186	0.0149950
893.264	0.0151695
893.342	0.0149755
893.420	0.0150822
893.498	0.0150945
893.576	0.0152036
893.655	0.0151433
893.733	0.0151139
893.811	0.0152552
893.889	0.0152135
893.967	0.0152940
894.045	0.0151859
894.123	0.0152136
894.201	0.0153634
894.280	0.0151766
894.358	0.0153294
894.436	0.0153384
894.514	0.0153555
894.592	0.0153533
894.670	0.0152036
894.748	0.0152851
894.826	0.0152261
894.905	0.0152148
894.983	0.0152494
895.061	0.0153275
895.139	0.0152982
895.217	0.0154312
895.295	0.0154266
895.373	0.0152726
895.451	0.0152478
895.530	0.0153163
895.608	0.0153619
895.686	0.0152672
895.764	0.0152679
895.842	0.0154031
895.920	0.0152761
895.998	0.0152077
896.076	0.0153912
896.155	0.0153125
896.233	0.0152991
896.311	0.0152942
896.389	0.0154053
896.467	0.0152978
896.545	0.0152569
896.623	0.0154160
896.701	0.0153683
896.780	0.0152991
896.858	0.0153182
896.936	0.0154369
897.014	0.0153550
897.092	0.0152959
897.170	0.0153368
897.248	0.0152505
897.326	0.0151917
897.405	0.0153064
897.483	0.0152542
897.561	0.0153166
897.639	0.0152430
897.717	0.0150446
897.795	0.0151379
897.873	0.0153585
897.951	0.0151416
898.030	0.0150780
898.108	0.0151734
898.186	0.0153515
898.264	0.0151427
898.342	0.0151688
898.420	0.0151923
898.498	0.0152087
898.576	0.0151309
898.655	0.0151424
898.733	0.0151981
898.811	0.0152269
898.889	0.0151155
898.967	0.0151020
899.045	0.0150655
899.123	0.0151435
899.201	0.0152456
899.280	0.0151047
899.358	0.0151215
899.436	0.0151791
899.514	0.0150407
899.592	0.0150908
899.670	0.0150499
899.748	0.0151520
899.826	0.0151172
899.905	0.0151321
899.983	0.0151317
900.061	0.0151093
900.139	0.0152538
900.217	0.0150541
900.295	0.0151749
900.373	0.0150721
900.451	0.0151264
900.530	0.0152545
900.608	0.0151077
900.686	0.0150923
900.764	0.0150420
900.842	0.0150513
900.920	0.0151904
900.998	0.0151900
901.076	0.0151793
901.155	0.0151851
901.233	0.0151239
901.311	0.0152050
901.389	0.0152033
901.467	0.0150234
901.545	0.0150792
901.623	0.0152487
901.701	0.0152695
901.780	0.0152065
901.858	0.0151715
901.936	0.0152766
902.014	0.0152802
902.092	0.0151299
902.170	0.0152995
902.248	0.0152792
902.326	0.0152070
902.405	0.0151508
902.483	0.0152382
902.561	0.0151852
902.639	0.0151888
902.717	0.0152325
902.795	0.0152728
902.873	0.0153018
902.951	0.0151707
903.030	0.0151585
903.108	0.0154493
903.186	0.0152070
903.264	0.0149830
903.342	0.0153765
903.420	0.0154125
903.498	0.0152587
903.576	0.0152659
903.655	0.0152323
903.733	0.0153432
903.811	0.0154221
903.889	0.0152061
903.967	0.0151545
904.045	0.0152824
904.123	0.0153420
904.201	0.0152959
904.280	0.0153644
904.358	0.0153085
904.436	0.0153025
904.514	0.0153702
904.592	0.0153476
904.670	0.0152852
904.748	0.0152953
904.826	0.0152447
904.905	0.0154517
904.983	0.0152717
905.061	0.0153772
905.139	0.0154073
905.217	0.0153680
905.295	0.0154040
905.373	0.0153996
905.451	0.0152866
905.530	0.0152502
905.608	0.0152367
905.686	0.0153014
905.764	0.0151906
905.842	0.0152593
905.920	0.0151987
905.998	0.0153223
906.076	0.0152433
906.155	0.0151387
906.233	0.0150882
906.311	0.0150741
906.389	0.0152110
906.467	0.0150500
906.545	0.0151553
906.623	0.0150688
906.701	0.0151463
906.780	0.0151522
906.858	0.0149609
906.936	0.0151701
907.014	0.0151364
907.092	0.0150907
907.170	0.0150885
907.248	0.0152158
907.326	0.0151633
907.405	0.0153027
907.483	0.0151775
907.561	0.0150790
907.639	0.0152454
907.717	0.0153207
907.795	0.0152669
907.873	0.0151392
907.951	0.0153633
908.030	0.0153669
908.108	0.0151714
908.186	0.0150840
908.264	0.0151646
908.342	0.0153049
908.420	0.0153149
908.498	0.0150990
908.576	0.0153084
908.655	0.0152678
908.733	0.0154371
908.811	0.0153237
908.889	0.0152991
908.967	0.0152440
909.045	0.0152356
909.123	0.0151980
909.201	0.0152294
909.280	0.0153262
909.358	0.0153279
909.436	0.0152364
909.514	0.0152907
909.592	0.0152608
909.670	0.0151069
909.748	0.0152538
909.826	0.0152901
909.905	0.0151176
909.983	0.0151499
910.061	0.0152669
910.139	0.0150867
910.217	0.0150977
910.295	0.0151505
910.373	0.0152031
910.451	0.0151590
910.530	0.0151519
910.608	0.0151801
910.686	0.0152174
910.764	0.0151394
910.842	0.0152893
910.920	0.0153709
910.998	0.0152130
911.076	0.0152092
911.155	0.0151579
911.233	0.0151464
911.311	0.0151593
911.389	0.0150261
911.467	0.0152370
911.545	0.0152108
911.623	0.0150083
911.701	0.0151227
911.780	0.0151463
911.858	0.0150166
911.936	0.0150436
912.014	0.0152765
912.092	0.0151292
912.170	0.0149798
912.248	0.0150670
912.326	0.0151905
912.405	0.0151380
912.483	0.0150340
912.561	0.0151328
912.639	0.0150388
912.717	0.0149760
912.795	0.0151608
912.873	0.0151048
912.951	0.0149069
913.030	0.0151108
913.108	0.0150441
913.186	0.0149992
913.264	0.0149068
913.342	0.0152306
913.420	0.0151318
913.498	0.0149809
913.576	0.0151720
913.655	0.0151684
913.733	0.0152595
913.811	0.0151438
913.889	0.0152128
913.967	0.0152074
914.045	0.0152042
914.123	0.0151731
914.201	0.0152192
914.280	0.0152454
914.358	0.0151926
914.436	0.0153087
914.514	0.0152762
914.592	0.0153907
914.670	0.0153469
914.748	0.0153420
914.826	0.0152367
914.905	0.0153443
914.983	0.0151920
915.061	0.0152476
915.139	0.0155152
915.217	0.0152550
915.295	0.0153636
915.373	0.0152735
915.451	0.0154324
915.530	0.0153595
915.608	0.0153349
915.686	0.0151559
915.764	0.0152211
915.842	0.0152045
915.920	0.0152090
915.998	0.0149962
916.076	0.0150918
916.155	0.0152268
916.233	0.0151949
916.311	0.0151508
916.389	0.0150169
916.467	0.0151859
916.545	0.0152106
916.623	0.0151765
916.701	0.0151965
916.780	0.0151572
916.858	0.0150823
916.936	0.0151906
917.014	0.0150746
917.092	0.0151257
917.170	0.0151363
917.248	0.0152911
917.326	0.0152303
917.405	0.0150790
917.483	0.0150409
917.561	0.0151070
917.639	0.0151266
917.717	0.0150467
917.795	0.0151005
917.873	0.0151802
917.951	0.0151134
918.030	0.0152229
918.108	0.0150330
918.186	0.0151093
918.264	0.0151925
918.342	0.0149522
918.420	0.0150535
918.498	0.0150697
918.576	0.0150790
918.655	0.0150406
918.733	0.0151060
918.811	0.0151484
918.889	0.0148751
918.967	0.0150697
919.045	0.0151421
919.123	0.0151998
919.201	0.0152174
919.280	0.0150906
919.358	0.0151554
919.436	0.0152242
919.514	0.0151146
919.592	0.0151523
919.670	0.0152113
919.748	0.0151379
919.826	0.0153034
919.905	0.0152306
919.983	0.0153441
920.061	0.0150750
920.139	0.0151672
920.217	0.0151676
920.295	0.0151637
920.373	0.0152431
920.451	0.0152388
920.530	0.0152319
920.608	0.0152007
920.686	0.0152271
920.764	0.0151681
920.842	0.0152193
920.920	0.0151143
920.998	0.0152542
921.076	0.0152086
921.155	0.0151801
921.233	0.0152238
921.311	0.0152232
921.389	0.0151571
921.467	0.0150427
921.545	0.0150684
921.623	0.0151448
921.701	0.0152693
921.780	0.0151827
921.858	0.0152195
921.936	0.0152185
922.014	0.0152409
922.092	0.0152415
922.170	0.0152551
922.248	0.0152206
922.326	0.0151511
922.405	0.0151297
922.483	0.0152139
922.561	0.0150550
922.639	0.0151579
922.717	0.0152850
922.795	0.0152045
922.873	0.0149260
922.951	0.0150941
923.030	0.0152007
923.108	0.0152137
923.186	0.0150680
923.264	0.0150928
923.342	0.0152066
923.420	0.0151881
923.498	0.0152042
923.576	0.0152638
923.655	0.0151630
923.733	0.0152955
923.811	0.0152673
923.889	0.0151455
923.967	0.0152093
924.045	0.0152401
924.123	0.0152470
924.201	0.0151662
924.280	0.0152193
924.358	0.0152491
924.436	0.0153217
924.514	0.0151531
924.592	0.0154298
924.670	0.0153339
924.748	0.0151983
924.826	0.0152428
924.905	0.0153442
924.983	0.0152278
925.061	0.0152937
925.139	0.0151955
925.217	0.0152148
925.295	0.0151720
925.373	0.0151705
925.451	0.0151733
925.530	0.0150960
925.608	0.0151458
925.686	0.0151270
925.764	0.0151662
925.842	0.0151725
925.920	0.0151855
925.998	0.0150639
926.076	0.0150112
926.155	0.0151369
926.233	0.0152107
926.311	0.0150952
926.389	0.0151009
926.467	0.0151460
926.545	0.0151272
926.623	0.0151508
926.701	0.0152096
926.780	0.0151396
926.858	0.0150823
926.936	0.0151334
927.014	0.0151845
927.092	0.0151350
927.170	0.0151595
927.248	0.0150764
927.326	0.0152912
927.405	0.0153335
927.483	0.0151889
927.561	0.0153098
927.639	0.0152274
927.717	0.0151290
927.795	0.0150320
927.873	0.0150619
927.951	0.0152432
928.030	0.0153335
928.108	0.0150755
928.186	0.0152544
928.264	0.0151960
928.342	0.0151643
928.420	0.0150414
928.498	0.0150822
928.576	0.0151718
928.655	0.0151595
928.733	0.0151524
928.811	0.0152239
928.889	0.0151130
928.967	0.0149627
929.045	0.0151185
929.123	0.0150430
929.201	0.0151140
929.280	0.0151501
929.358	0.0151689
929.436	0.0151018
929.514	0.0150330
929.592	0.0150272
929.670	0.0149400
929.748	0.0151339
929.826	0.0152267
929.905	0.0151797
929.983	0.0150523
930.061	0.0152173
930.139	0.0152434
930.217	0.0152392
930.295	0.0152467
930.373	0.0151437
930.451	0.0152828
930.530	0.0151842
930.608	0.0153778
930.686	0.0152621
930.764	0.0152903
930.842	0.0151465
930.920	0.0151830
930.998	0.0152871
931.076	0.0151933
931.155	0.0152132
931.233	0.0152046
931.311	0.0151418
931.389	0.0151968
931.467	0.0152325
931.545	0.0152054
931.623	0.0151460
931.701	0.0151836
931.780	0.0153307
931.858	0.0153095
931.936	0.0152059
932.014	0.0152287
932.092	0.0152584
932.170	0.0151436
932.248	0.0151832
932.326	0.0153614
932.405	0.0152280
932.483	0.0151985
932.561	0.0152372
932.639	0.0153837
932.717	0.0152411
932.795	0.0152013
932.873	0.0151919
932.951	0.0152638
933.030	0.0151899
933.108	0.0153694
933.186	0.0152061
933.264	0.0151290
933.342	0.0152038
933.420	0.0152542
933.498	0.0153226
933.576	0.0152163
933.655	0.0152885
933.733	0.0151321
933.811	0.0151249
933.889	0.0151993
933.967	0.0152589
934.045	0.0152495
934.123	0.0152371
934.201	0.0153365
934.280	0.0152648
934.358	0.0151598
934.436	0.0153109
934.514	0.0153964
934.592	0.0154471
934.670	0.0152356
934.748	0.0152807
934.826	0.0152914
934.905	0.0152306
934.983	0.0152093
935.061	0.0153168
935.139	0.0152734
935.217	0.0152483
935.295	0.0151315
935.373	0.0154144
935.451	0.0152083
935.530	0.0152156
935.608	0.0153539
935.686	0.0154021
935.764	0.0153013
935.842	0.0153387
935.920	0.0155563
935.998	0.0152581
936.076	0.0154327
936.155	0.0153687
936.233	0.0153653
936.311	0.0153358
936.389	0.0153954
936.467	0.0153695
936.545	0.0153043
936.623	0.0152911
936.701	0.0153046
936.780	0.0153337
936.858	0.0153581
936.936	0.0153329
937.014	0.0152277
937.092	0.0153687
937.170	0.0152657
937.248	0.0153107
937.326	0.0153368
937.405	0.0152745
937.483	0.0152082
937.561	0.0153036
937.639	0.0152258
937.717	0.0152515
937.795	0.0150732
937.873	0.0152190
937.951	0.0151209
938.030	0.0151660
938.108	0.0151723
938.186	0.0151180
938.264	0.0151871
938.342	0.0151128
938.420	0.0150008
938.498	0.0150506
938.576	0.0151189
938.655	0.0151064
938.733	0.0151297
938.811	0.0151258
938.889	0.0150922
938.967	0.0152059
939.045	0.0151637
939.123	0.0151435
939.201	0.0151552
939.280	0.0151505
939.358	0.0152085
939.436	0.0151728
939.514	0.0151622
939.592	0.0152058
939.670	0.0151516
939.748	0.0150995
939.826	0.0150430
939.905	0.0150310
939.983	0.0150916
940.061	0.0150719
940.139	0.0149472
940.217	0.0150297
940.295	0.0150925
940.373	0.0150874
940.451	0.0150661
940.530	0.0150825
940.608	0.0150005
940.686	0.0152020
940.764	0.0149946
940.842	0.0149957
940.920	0.0149675
940.998	0.0151276
941.076	0.0150618
941.155	0.0151183
941.233	0.0151704
941.311	0.0151246
941.389	0.0149951
941.467	0.0151882
941.545	0.0152047
941.623	0.0151946
941.701	0.0152286
941.780	0.0151501
941.858	0.0151939
941.936	0.0151528
942.014	0.0151880
942.092	0.0152303
942.170	0.0152826
942.248	0.0151818
942.326	0.0151509
942.405	0.0153408
942.483	0.0151279
942.561	0.0152234
942.639	0.0152980
942.717	0.0151289
942.795	0.0152399
942.873	0.0151489
942.951	0.0152962
943.030	0.0151242
943.108	0.0152066
943.186	0.0152097
943.264	0.0152045
943.342	0.0152170
943.420	0.0153452
943.498	0.0152252
943.576	0.0153629
943.655	0.0152522
943.733	0.0150893
943.811	0.0153150
943.889	0.0152487
943.967	0.0152470
944.045	0.0151250
944.123	0.0152710
944.201	0.0150961
944.280	0.0153477
944.358	0.0152431
944.436	0.0151635
944.514	0.0150462
944.592	0.0153146
944.670	0.0153702
944.748	0.0151996
944.826	0.0151828
944.905	0.0151221
944.983	0.0153139
945.061	0.0151694
945.139	0.0151254
945.217	0.0151925
945.295	0.0152109
945.373	0.0152235
945.451	0.0152183
945.530	0.0150167
945.608	0.0152076
945.686	0.0151530
945.764	0.0151397
945.842	0.0152668
945.920	0.0151748
945.998	0.0149757
946.076	0.0151418
946.155	0.0151279
946.233	0.0151542
946.311	0.0152864
946.389	0.0152361
946.467	0.0152076
946.545	0.0150662
946.623	0.0151027
946.701	0.0153014
946.780	0.0151998
946.858	0.0150645
946.936	0.0152240
947.014	0.0153196
947.092	0.0151027
947.170	0.0152479
947.248	0.0150825
947.326	0.0151268
947.405	0.0151558
947.483	0.0151954
947.561	0.0151981
947.639	0.0151569
947.717	0.0151809
947.795	0.0152515
947.873	0.0152003
947.951	0.0151769
948.030	0.0151910
948.108	0.0152590
948.186	0.0152478
948.264	0.0152037
948.342	0.0151244
948.420	0.0152373
948.498	0.0151382
948.576	0.0151797
948.655	0.0152200
948.733	0.0153105
948.811	0.0151364
948.889	0.0150956
948.967	0.0152612
949.045	0.0153152
949.123	0.0151128
949.201	0.0151350
949.280	0.0152386
949.358	0.0152457
949.436	0.0151881
949.514	0.0150648
949.592	0.0151173
949.670	0.0150008
949.748	0.0150957
949.826	0.0151622
949.905	0.0152179
949.983	0.0150717
950.061	0.0149270
950.139	0.0148978
950.217	0.0150119
950.295	0.0150883
950.373	0.0150205
950.451	0.0150134
950.530	0.0150594
950.608	0.0149847
950.686	0.0150919
950.764	0.0150454
950.842	0.0150143
950.920	0.0151873
950.998	0.0150574
951.076	0.0150403
951.155	0.0151299
951.233	0.0152472
951.311	0.0151466
951.389	0.0150532
951.467	0.0151740
951.545	0.0150398
951.623	0.0152428
951.701	0.0152973
951.780	0.0150768
951.858	0.0150784
951.936	0.0152998
952.014	0.0153327
952.092	0.0152401
952.170	0.0151633
952.248	0.0152938
952.326	0.0152863
952.405	0.0152646
952.483	0.0153472
952.561	0.0153281
952.639	0.0153522
952.717	0.0152274
952.795	0.0153794
952.873	0.0153488
952.951	0.0152192
953.030	0.0152966
953.108	0.0152252
953.186	0.0153150
953.264	0.0152608
953.342	0.0151976
953.420	0.0153677
953.498	0.0153165
953.576	0.0153787
953.655	0.0152450
953.733	0.0151992
953.811	0.0153582
953.889	0.0153478
953.967	0.0153285
954.045	0.0153791
954.123	0.0153973
954.201	0.0151845
954.280	0.0152939
954.358	0.0152882
954.436	0.0153764
954.514	0.0153757
954.592	0.0154076
954.670	0.0153513
954.748	0.0152983
954.826	0.0152204
954.905	0.0153613
954.983	0.0151766
955.061	0.0152834
955.139	0.0152263
955.217	0.0151414
955.295	0.0152094
955.373	0.0152293
955.451	0.0151090
955.530	0.0151765
955.608	0.0151499
955.686	0.0151688
955.764	0.0151655
955.842	0.0151943
955.920	0.0152830
955.998	0.0152495
956.076	0.0151049
956.155	0.0152100
956.233	0.0150642
956.311	0.0149966
956.389	0.0150838
956.467	0.0152054
956.545	0.0149010
956.623	0.0150090
956.701	0.0150211
956.780	0.0150866
956.858	0.0150029
956.936	0.0149929
957.014	0.0149905
957.092	0.0149612
957.170	0.0150218
957.248	0.0150433
957.326	0.0151051
957.405	0.0151102
957.483	0.0149415
957.561	0.0151515
957.639	0.0151834
957.717	0.0149811
957.795	0.0149873
957.873	0.0150089
957.951	0.0151393
958.030	0.0151333
958.108	0.0151911
958.186	0.0152597
958.264	0.0151260
958.342	0.0152417
958.420	0.0152078
958.498	0.0152815
958.576	0.0151931
958.655	0.0150631
958.733	0.0152213
958.811	0.0153399
958.889	0.0152963
958.967	0.0151702
959.045	0.0152145
959.123	0.0152380
959.201	0.0153828
959.280	0.0152097
959.358	0.0152143
959.436	0.0151959
959.514	0.0153909
959.592	0.0154234
959.670	0.0152616
959.748	0.0153200
959.826	0.0153904
959.905	0.0152617
