05/20/2022	16:05:46	Ver.	4.1	UNKNOWN
Optical Delay	639.989416	Delta X		0.078125	Sweeps	1	Scan Rate	0/0
Coordinates	Axis 1	NaN	Axis 2	NaN	Axis 3	NaN	Axis 4	NaN	Axis 5	NaN	Axis 6	0.000000
TX Power	0.000000	RX Power	0.000000

639.989	0.0152493
640.068	0.0152110
640.146	0.0154099
640.224	0.0151972
640.302	0.0152482
640.380	0.0153008
640.458	0.0153848
640.536	0.0153134
640.614	0.0152410
640.693	0.0152587
640.771	0.0152975
640.849	0.0151228
640.927	0.0151292
641.005	0.0152198
641.083	0.0152080
641.161	0.0152057
641.239	0.0152907
641.318	0.0151653
641.396	0.0152605
641.474	0.0151704
641.552	0.0151891
641.630	0.0152740
641.708	0.0152696
641.786	0.0152977
641.864	0.0153411
641.943	0.0152544
642.021	0.0151725
642.099	0.0152169
642.177	0.0153389
642.255	0.0152168
642.333	0.0152484
642.411	0.0153697
642.489	0.0152779
642.568	0.0152946
642.646	0.0151851
642.724	0.0152840
642.802	0.0152374
642.880	0.0153302
642.958	0.0152278
643.036	0.0152203
643.114	0.0151852
643.193	0.0153069
643.271	0.0153705
643.349	0.0153609
643.427	0.0153336
643.505	0.0152875
643.583	0.0153228
643.661	0.0150928
643.739	0.0152245
643.818	0.0154698
643.896	0.0152706
643.974	0.0153296
644.052	0.0151612
644.130	0.0151636
644.208	0.0153070
644.286	0.0152412
644.364	0.0152077
644.443	0.0153495
644.521	0.0150959
644.599	0.0152009
644.677	0.0153277
644.755	0.0153384
644.833	0.0154602
644.911	0.0153323
644.989	0.0152110
645.068	0.0153052
645.146	0.0152979
645.224	0.0152097
645.302	0.0153638
645.380	0.0151820
645.458	0.0152193
645.536	0.0153693
645.614	0.0154148
645.693	0.0153079
645.771	0.0153092
645.849	0.0153215
645.927	0.0151904
646.005	0.0152020
646.083	0.0152934
646.161	0.0152755
646.239	0.0153644
646.318	0.0154752
646.396	0.0152530
646.474	0.0153063
646.552	0.0153323
646.630	0.0153258
646.708	0.0151686
646.786	0.0151530
646.864	0.0153402
646.943	0.0153353
647.021	0.0153349
647.099	0.0152915
647.177	0.0153306
647.255	0.0152883
647.333	0.0152654
647.411	0.0153486
647.489	0.0152552
647.568	0.0151413
647.646	0.0153473
647.724	0.0154858
647.802	0.0152439
647.880	0.0153511
647.958	0.0152206
648.036	0.0152070
648.114	0.0151927
648.193	0.0153235
648.271	0.0153513
648.349	0.0153703
648.427	0.0152896
648.505	0.0152016
648.583	0.0152078
648.661	0.0151894
648.739	0.0152892
648.818	0.0152419
648.896	0.0151313
648.974	0.0151767
649.052	0.0154047
649.130	0.0152816
649.208	0.0152275
649.286	0.0153768
649.364	0.0152832
649.443	0.0153240
649.521	0.0153040
649.599	0.0151283
649.677	0.0152339
649.755	0.0152681
649.833	0.0153289
649.911	0.0153130
649.989	0.0152676
650.068	0.0152576
650.146	0.0153145
650.224	0.0152148
650.302	0.0152649
650.380	0.0153820
650.458	0.0152126
650.536	0.0153958
650.614	0.0152833
650.693	0.0153198
650.771	0.0152112
650.849	0.0152342
650.927	0.0152293
651.005	0.0152576
651.083	0.0151907
651.161	0.0152843
651.239	0.0152227
651.318	0.0152591
651.396	0.0153168
651.474	0.0153490
651.552	0.0151836
651.630	0.0151460
651.708	0.0151274
651.786	0.0151696
651.864	0.0152667
651.943	0.0153764
652.021	0.0152441
652.099	0.0152611
652.177	0.0153341
652.255	0.0153392
652.333	0.0153438
652.411	0.0153214
652.489	0.0152607
652.568	0.0152122
652.646	0.0153395
652.724	0.0153334
652.802	0.0151343
652.880	0.0152019
652.958	0.0151436
653.036	0.0152008
653.114	0.0151524
653.193	0.0152994
653.271	0.0152988
653.349	0.0151482
653.427	0.0151432
653.505	0.0152258
653.583	0.0152884
653.661	0.0153693
653.739	0.0152694
653.818	0.0151540
653.896	0.0151815
653.974	0.0152892
654.052	0.0152705
654.130	0.0152274
654.208	0.0153575
654.286	0.0152995
654.364	0.0153490
654.443	0.0152383
654.521	0.0152259
654.599	0.0152923
654.677	0.0152583
654.755	0.0152303
654.833	0.0152565
654.911	0.0152498
654.989	0.0151783
655.068	0.0153167
655.146	0.0151509
655.224	0.0150826
655.302	0.0152640
655.380	0.0152687
655.458	0.0153072
655.536	0.0151617
655.614	0.0152177
655.693	0.0152757
655.771	0.0152496
655.849	0.0151997
655.927	0.0151299
656.005	0.0152110
656.083	0.0153818
656.161	0.0150928
656.239	0.0151693
656.318	0.0153117
656.396	0.0153024
656.474	0.0151842
656.552	0.0151675
656.630	0.0152824
656.708	0.0151802
656.786	0.0152044
656.864	0.0153421
656.943	0.0152927
657.021	0.0152247
657.099	0.0152047
657.177	0.0152101
657.255	0.0152251
657.333	0.0152194
657.411	0.0151298
657.489	0.0152106
657.568	0.0151383
657.646	0.0151945
657.724	0.0152953
657.802	0.0151814
657.880	0.0152309
657.958	0.0154057
658.036	0.0151519
658.114	0.0153368
658.193	0.0153444
658.271	0.0152886
658.349	0.0152918
658.427	0.0153383
658.505	0.0152934
658.583	0.0152384
658.661	0.0152019
658.739	0.0151887
658.818	0.0153000
658.896	0.0153795
658.974	0.0151878
659.052	0.0152731
659.130	0.0153698
659.208	0.0152240
659.286	0.0151170
659.364	0.0154462
659.443	0.0151555
659.521	0.0152100
659.599	0.0153722
659.677	0.0152287
659.755	0.0153518
659.833	0.0152850
659.911	0.0152940
659.989	0.0151912
660.068	0.0153058
660.146	0.0153419
660.224	0.0152215
660.302	0.0152412
660.380	0.0153214
660.458	0.0151319
660.536	0.0152009
660.614	0.0153316
660.693	0.0153744
660.771	0.0152162
660.849	0.0151167
660.927	0.0153938
661.005	0.0155118
661.083	0.0154013
661.161	0.0151823
661.239	0.0151512
661.318	0.0153780
661.396	0.0152649
661.474	0.0152517
661.552	0.0151183
661.630	0.0152289
661.708	0.0152451
661.786	0.0152917
661.864	0.0153374
661.943	0.0153149
662.021	0.0152573
662.099	0.0153669
662.177	0.0153516
662.255	0.0151692
662.333	0.0153478
662.411	0.0153847
662.489	0.0153443
662.568	0.0151844
662.646	0.0152834
662.724	0.0152396
662.802	0.0152543
662.880	0.0152055
662.958	0.0152431
663.036	0.0152380
663.114	0.0151379
663.193	0.0152589
663.271	0.0152847
663.349	0.0152316
663.427	0.0152323
663.505	0.0151370
663.583	0.0153334
663.661	0.0151102
663.739	0.0152716
663.818	0.0151518
663.896	0.0151744
663.974	0.0153841
664.052	0.0154771
664.130	0.0152212
664.208	0.0153349
664.286	0.0152452
664.364	0.0151488
664.443	0.0151092
664.521	0.0151682
664.599	0.0153790
664.677	0.0152997
664.755	0.0153832
664.833	0.0153173
664.911	0.0151963
664.989	0.0151556
665.068	0.0152014
665.146	0.0152291
665.224	0.0152053
665.302	0.0151485
665.380	0.0151469
665.458	0.0152658
665.536	0.0151822
665.614	0.0152752
665.693	0.0151782
665.771	0.0151455
665.849	0.0151491
665.927	0.0150121
666.005	0.0151108
666.083	0.0151054
666.161	0.0151863
666.239	0.0152068
666.318	0.0151804
666.396	0.0152822
666.474	0.0151717
666.552	0.0152564
666.630	0.0151437
666.708	0.0151521
666.786	0.0152454
666.864	0.0151321
666.943	0.0151563
667.021	0.0151926
667.099	0.0152149
667.177	0.0151927
667.255	0.0152443
667.333	0.0152518
667.411	0.0151944
667.489	0.0152982
667.568	0.0151746
667.646	0.0151201
667.724	0.0153136
667.802	0.0149266
667.880	0.0151506
667.958	0.0152104
668.036	0.0152277
668.114	0.0151888
668.193	0.0151348
668.271	0.0152497
668.349	0.0149760
668.427	0.0151603
668.505	0.0151656
668.583	0.0150906
668.661	0.0151490
668.739	0.0152081
668.818	0.0152952
668.896	0.0152168
668.974	0.0151212
669.052	0.0150955
669.130	0.0152126
669.208	0.0152811
669.286	0.0151688
669.364	0.0153074
669.443	0.0151543
669.521	0.0151373
669.599	0.0151633
669.677	0.0151524
669.755	0.0151952
669.833	0.0150060
669.911	0.0151929
669.989	0.0151556
670.068	0.0152512
670.146	0.0151816
670.224	0.0152905
670.302	0.0150198
670.380	0.0151877
670.458	0.0153752
670.536	0.0151578
670.614	0.0151241
670.693	0.0151823
670.771	0.0151730
670.849	0.0152937
670.927	0.0153295
671.005	0.0152912
671.083	0.0150308
671.161	0.0152086
671.239	0.0152459
671.318	0.0152701
671.396	0.0152356
671.474	0.0152991
671.552	0.0152037
671.630	0.0151526
671.708	0.0152288
671.786	0.0152271
671.864	0.0153255
671.943	0.0152674
672.021	0.0151801
672.099	0.0152170
672.177	0.0153404
672.255	0.0150848
672.333	0.0153270
672.411	0.0152431
672.489	0.0151802
672.568	0.0152818
672.646	0.0151894
672.724	0.0153163
672.802	0.0151624
672.880	0.0150890
672.958	0.0153229
673.036	0.0153369
673.114	0.0151900
673.193	0.0153448
673.271	0.0151850
673.349	0.0153541
673.427	0.0153430
673.505	0.0152758
673.583	0.0154224
673.661	0.0152573
673.739	0.0153667
673.818	0.0153308
673.896	0.0154192
673.974	0.0154148
674.052	0.0154015
674.130	0.0154057
674.208	0.0154534
674.286	0.0152564
674.364	0.0153394
674.443	0.0155309
674.521	0.0153890
674.599	0.0154025
674.677	0.0153867
674.755	0.0154035
674.833	0.0154306
674.911	0.0154121
674.989	0.0154514
675.068	0.0153556
675.146	0.0152423
675.224	0.0153953
675.302	0.0154153
675.380	0.0154973
675.458	0.0155424
675.536	0.0153692
675.614	0.0154415
675.693	0.0154521
675.771	0.0155162
675.849	0.0153816
675.927	0.0153139
676.005	0.0154136
676.083	0.0153759
676.161	0.0153452
676.239	0.0154153
676.318	0.0154507
676.396	0.0154048
676.474	0.0154866
676.552	0.0153905
676.630	0.0153262
676.708	0.0154308
676.786	0.0155299
676.864	0.0155152
676.943	0.0153786
677.021	0.0155096
677.099	0.0154888
677.177	0.0155038
677.255	0.0154307
677.333	0.0154109
677.411	0.0154763
677.489	0.0154296
677.568	0.0152952
677.646	0.0154382
677.724	0.0154498
677.802	0.0152547
677.880	0.0152617
677.958	0.0154159
678.036	0.0154238
678.114	0.0154768
678.193	0.0152956
678.271	0.0153321
678.349	0.0153170
678.427	0.0152655
678.505	0.0152651
678.583	0.0152354
678.661	0.0152605
678.739	0.0153723
678.818	0.0153442
678.896	0.0153935
678.974	0.0151849
679.052	0.0152553
679.130	0.0152709
679.208	0.0152912
679.286	0.0152853
679.364	0.0152654
679.443	0.0152154
679.521	0.0152422
679.599	0.0153390
679.677	0.0152559
679.755	0.0151560
679.833	0.0151370
679.911	0.0152321
679.989	0.0152089
680.068	0.0150512
680.146	0.0152616
680.224	0.0152689
680.302	0.0152821
680.380	0.0151476
680.458	0.0152115
680.536	0.0152294
680.614	0.0151513
680.693	0.0152154
680.771	0.0151164
680.849	0.0152055
680.927	0.0151128
681.005	0.0151476
681.083	0.0151684
681.161	0.0151196
681.239	0.0151961
681.318	0.0151611
681.396	0.0150941
681.474	0.0150421
681.552	0.0153062
681.630	0.0151033
681.708	0.0151381
681.786	0.0152946
681.864	0.0153890
681.943	0.0152859
682.021	0.0151643
682.099	0.0151183
682.177	0.0152269
682.255	0.0152544
682.333	0.0151731
682.411	0.0150961
682.489	0.0152374
682.568	0.0152491
682.646	0.0152362
682.724	0.0150775
682.802	0.0151633
682.880	0.0151508
682.958	0.0152613
683.036	0.0152009
683.114	0.0152898
683.193	0.0153617
683.271	0.0151956
683.349	0.0152824
683.427	0.0151972
683.505	0.0151953
683.583	0.0153225
683.661	0.0152452
683.739	0.0152202
683.818	0.0153088
683.896	0.0153498
683.974	0.0152185
684.052	0.0152293
684.130	0.0151927
684.208	0.0153311
684.286	0.0153186
684.364	0.0152348
684.443	0.0152561
684.521	0.0152749
684.599	0.0152332
684.677	0.0151218
684.755	0.0153078
684.833	0.0152038
684.911	0.0152481
684.989	0.0152965
685.068	0.0152297
685.146	0.0151887
685.224	0.0152226
685.302	0.0152637
685.380	0.0153145
685.458	0.0151558
685.536	0.0152031
685.614	0.0152953
685.693	0.0151337
685.771	0.0153598
685.849	0.0153390
685.927	0.0153535
686.005	0.0151951
686.083	0.0152617
686.161	0.0153345
686.239	0.0153614
686.318	0.0151911
686.396	0.0153088
686.474	0.0152724
686.552	0.0151763
686.630	0.0152081
686.708	0.0152866
686.786	0.0153070
686.864	0.0153127
686.943	0.0153319
687.021	0.0151853
687.099	0.0153120
687.177	0.0154043
687.255	0.0152940
687.333	0.0152845
687.411	0.0152827
687.489	0.0151320
687.568	0.0151890
687.646	0.0153221
687.724	0.0153932
687.802	0.0154067
687.880	0.0152818
687.958	0.0153939
688.036	0.0154447
688.114	0.0153741
688.193	0.0154582
688.271	0.0153384
688.349	0.0152764
688.427	0.0151810
688.505	0.0151501
688.583	0.0148977
688.661	0.0149052
688.739	0.0147854
688.818	0.0145519
688.896	0.0146538
688.974	0.0147059
689.052	0.0147510
689.130	0.0150036
689.208	0.0154258
689.286	0.0156189
689.364	0.0160512
689.443	0.0165024
689.521	0.0167483
689.599	0.0170096
689.677	0.0172125
689.755	0.0171791
689.833	0.0170613
689.911	0.0166675
689.989	0.0160002
690.068	0.0154023
690.146	0.0146342
690.224	0.0137473
690.302	0.0129149
690.380	0.0120972
690.458	0.0114989
690.536	0.0111880
690.614	0.0110397
690.693	0.0113084
690.771	0.0118048
690.849	0.0126720
690.927	0.0137074
691.005	0.0148958
691.083	0.0161987
691.161	0.0174816
691.239	0.0187281
691.318	0.0197627
691.396	0.0205886
691.474	0.0211652
691.552	0.0214107
691.630	0.0213316
691.708	0.0210612
691.786	0.0203703
691.864	0.0194334
691.943	0.0181936
692.021	0.0170872
692.099	0.0156334
692.177	0.0141129
692.255	0.0126869
692.333	0.0112518
692.411	0.00984146
692.489	0.00855988
692.568	0.00760361
692.646	0.00696106
692.724	0.00675018
692.802	0.00666916
692.880	0.00708969
692.958	0.00792137
693.036	0.00938324
693.114	0.0108077
693.193	0.0126712
693.271	0.0145929
693.349	0.0167702
693.427	0.0187545
693.505	0.0205980
693.583	0.0222845
693.661	0.0237359
693.739	0.0248652
693.818	0.0253301
693.896	0.0256305
693.974	0.0251752
694.052	0.0243839
694.130	0.0234569
694.208	0.0219984
694.286	0.0204639
694.364	0.0187914
694.443	0.0169424
694.521	0.0151746
694.599	0.0134834
694.677	0.0119176
694.755	0.0104939
694.833	0.00920326
694.911	0.00826042
694.989	0.00744041
695.068	0.00691895
695.146	0.00667763
695.224	0.00677399
695.302	0.00704933
695.380	0.00772072
695.458	0.00855598
695.536	0.00953720
695.614	0.0106557
695.693	0.0119137
695.771	0.0133070
695.849	0.0147104
695.927	0.0160053
696.005	0.0175172
696.083	0.0186217
696.161	0.0197501
696.239	0.0205037
696.318	0.0212177
696.396	0.0217748
696.474	0.0218611
696.552	0.0219811
696.630	0.0217733
696.708	0.0212695
696.786	0.0207976
696.864	0.0199108
696.943	0.0191730
697.021	0.0182629
697.099	0.0174600
697.177	0.0164742
697.255	0.0155006
697.333	0.0146391
697.411	0.0140218
697.489	0.0133794
697.568	0.0128267
697.646	0.0124100
697.724	0.0121721
697.802	0.0118967
697.880	0.0119076
697.958	0.0120209
698.036	0.0118407
698.114	0.0121672
698.193	0.0123573
698.271	0.0124576
698.349	0.0130129
698.427	0.0133881
698.505	0.0136449
698.583	0.0141637
698.661	0.0146542
698.739	0.0150311
698.818	0.0154291
698.896	0.0158410
698.974	0.0160994
699.052	0.0163266
699.130	0.0165781
699.208	0.0168362
699.286	0.0166157
699.364	0.0167479
699.443	0.0165485
699.521	0.0164021
699.599	0.0162794
699.677	0.0161315
699.755	0.0158755
699.833	0.0156905
699.911	0.0154607
699.989	0.0154356
700.068	0.0152184
700.146	0.0150266
700.224	0.0149378
700.302	0.0149239
700.380	0.0148589
700.458	0.0147732
700.536	0.0149551
700.614	0.0151243
700.693	0.0149779
700.771	0.0150247
700.849	0.0151811
700.927	0.0152410
701.005	0.0153898
701.083	0.0155212
701.161	0.0155508
701.239	0.0157002
701.318	0.0158975
701.396	0.0158855
701.474	0.0160391
701.552	0.0161120
701.630	0.0161925
701.708	0.0161236
701.786	0.0164836
701.864	0.0163645
701.943	0.0164729
702.021	0.0162809
702.099	0.0162241
702.177	0.0163515
702.255	0.0160381
702.333	0.0158827
702.411	0.0159982
702.489	0.0156125
702.568	0.0152918
702.646	0.0148160
702.724	0.0146708
702.802	0.0144666
702.880	0.0141749
702.958	0.0140986
703.036	0.0137643
703.114	0.0136518
703.193	0.0136987
703.271	0.0135034
703.349	0.0134692
703.427	0.0135818
703.505	0.0135825
703.583	0.0136156
703.661	0.0137652
703.739	0.0138186
703.818	0.0140621
703.896	0.0141544
703.974	0.0145388
704.052	0.0147127
704.130	0.0148952
704.208	0.0152837
704.286	0.0157690
704.364	0.0159534
704.443	0.0162601
704.521	0.0165722
704.599	0.0169125
704.677	0.0170742
704.755	0.0170679
704.833	0.0170930
704.911	0.0171662
704.989	0.0171084
705.068	0.0169501
705.146	0.0166773
705.224	0.0165540
705.302	0.0163020
705.380	0.0160255
705.458	0.0156610
705.536	0.0154492
705.614	0.0153647
705.693	0.0151170
705.771	0.0149257
705.849	0.0147356
705.927	0.0146357
706.005	0.0145349
706.083	0.0144920
706.161	0.0145460
706.239	0.0144753
706.318	0.0143594
706.396	0.0145815
706.474	0.0147045
706.552	0.0146428
706.630	0.0147169
706.708	0.0147878
706.786	0.0149452
706.864	0.0149844
706.943	0.0152725
707.021	0.0152503
707.099	0.0152197
707.177	0.0152819
707.255	0.0154247
707.333	0.0154587
707.411	0.0153519
707.489	0.0154156
707.568	0.0152920
707.646	0.0151923
707.724	0.0151793
707.802	0.0151843
707.880	0.0149399
707.958	0.0151167
708.036	0.0148025
708.114	0.0146818
708.193	0.0147685
708.271	0.0149701
708.349	0.0149638
708.427	0.0149767
708.505	0.0149129
708.583	0.0150681
708.661	0.0152712
708.739	0.0155525
708.818	0.0156160
708.896	0.0159048
708.974	0.0157989
709.052	0.0158847
709.130	0.0159036
709.208	0.0159316
709.286	0.0159149
709.364	0.0159174
709.443	0.0157301
709.521	0.0157176
709.599	0.0154494
709.677	0.0152368
709.755	0.0151962
709.833	0.0151417
709.911	0.0151106
709.989	0.0149158
710.068	0.0149919
710.146	0.0148323
710.224	0.0147279
710.302	0.0147523
710.380	0.0149863
710.458	0.0149939
710.536	0.0149689
710.614	0.0149929
710.693	0.0151610
710.771	0.0150755
710.849	0.0150291
710.927	0.0152496
711.005	0.0152460
711.083	0.0152181
711.161	0.0154754
711.239	0.0154546
711.318	0.0153855
711.396	0.0155305
711.474	0.0154823
711.552	0.0156291
711.630	0.0157098
711.708	0.0156068
711.786	0.0157942
711.864	0.0157472
711.943	0.0156408
712.021	0.0157437
712.099	0.0155614
712.177	0.0155038
712.255	0.0155778
712.333	0.0154459
712.411	0.0153855
712.489	0.0152900
712.568	0.0152944
712.646	0.0152250
712.724	0.0151873
712.802	0.0151277
712.880	0.0149547
712.958	0.0150117
713.036	0.0151225
713.114	0.0149771
713.193	0.0150890
713.271	0.0151632
713.349	0.0150733
713.427	0.0151892
713.505	0.0152676
713.583	0.0151413
713.661	0.0151880
713.739	0.0152292
713.818	0.0155645
713.896	0.0154512
713.974	0.0154828
714.052	0.0156377
714.130	0.0155810
714.208	0.0156628
714.286	0.0155595
714.364	0.0155507
714.443	0.0155077
714.521	0.0153860
714.599	0.0152689
714.677	0.0150189
714.755	0.0150111
714.833	0.0150073
714.911	0.0148560
714.989	0.0147083
715.068	0.0147157
715.146	0.0146971
715.224	0.0146087
715.302	0.0147694
715.380	0.0150040
715.458	0.0150378
715.536	0.0151379
715.614	0.0153731
715.693	0.0154823
715.771	0.0157231
715.849	0.0155838
715.927	0.0157362
716.005	0.0156973
716.083	0.0158553
716.161	0.0158092
716.239	0.0157012
716.318	0.0157283
716.396	0.0155697
716.474	0.0155269
716.552	0.0154594
716.630	0.0152510
716.708	0.0152449
716.786	0.0152051
716.864	0.0150237
716.943	0.0151154
717.021	0.0151437
717.099	0.0152131
717.177	0.0150849
717.255	0.0149625
717.333	0.0151202
717.411	0.0151261
717.489	0.0152630
717.568	0.0152585
717.646	0.0152397
717.724	0.0153329
717.802	0.0154056
717.880	0.0156325
717.958	0.0157082
718.036	0.0154837
718.114	0.0155132
718.193	0.0155592
718.271	0.0156339
718.349	0.0155698
718.427	0.0154779
718.505	0.0155700
718.583	0.0153876
718.661	0.0154013
718.739	0.0154269
718.818	0.0155032
718.896	0.0152739
718.974	0.0152286
719.052	0.0153892
719.130	0.0154565
719.208	0.0153223
719.286	0.0153336
719.364	0.0152206
719.443	0.0153953
719.521	0.0153809
719.599	0.0151451
719.677	0.0149531
719.755	0.0150484
719.833	0.0149006
719.911	0.0147272
719.989	0.0146495
720.068	0.0145301
720.146	0.0145885
720.224	0.0145668
720.302	0.0144949
720.380	0.0144583
720.458	0.0143835
720.536	0.0145914
720.614	0.0145529
720.693	0.0148433
720.771	0.0146951
720.849	0.0150784
720.927	0.0151057
721.005	0.0153245
721.083	0.0154719
721.161	0.0154202
721.239	0.0157137
721.318	0.0156868
721.396	0.0158570
721.474	0.0159114
721.552	0.0159675
721.630	0.0159659
721.708	0.0160780
721.786	0.0161337
721.864	0.0159629
721.943	0.0158843
722.021	0.0158791
722.099	0.0159140
722.177	0.0157037
722.255	0.0154637
722.333	0.0154536
722.411	0.0154774
722.489	0.0153343
722.568	0.0152348
722.646	0.0151441
722.724	0.0151565
722.802	0.0151438
722.880	0.0150719
722.958	0.0151664
723.036	0.0150239
723.114	0.0150582
723.193	0.0150567
723.271	0.0151437
723.349	0.0151746
723.427	0.0151232
723.505	0.0150989
723.583	0.0151028
723.661	0.0152108
723.739	0.0152973
723.818	0.0150325
723.896	0.0150638
723.974	0.0152290
724.052	0.0151800
724.130	0.0151457
724.208	0.0152111
724.286	0.0152270
724.364	0.0153278
724.443	0.0153879
724.521	0.0154987
724.599	0.0154797
724.677	0.0154471
724.755	0.0155389
724.833	0.0154699
724.911	0.0156045
724.989	0.0155320
725.068	0.0156029
725.146	0.0154794
725.224	0.0154416
725.302	0.0154083
725.380	0.0153246
725.458	0.0152214
725.536	0.0152345
725.614	0.0152293
725.693	0.0150109
725.771	0.0150696
725.849	0.0149612
725.927	0.0149525
726.005	0.0150206
726.083	0.0148776
726.161	0.0148353
726.239	0.0149163
726.318	0.0150388
726.396	0.0152114
726.474	0.0151656
726.552	0.0150153
726.630	0.0151312
726.708	0.0154441
726.786	0.0153756
726.864	0.0153494
726.943	0.0154834
727.021	0.0153981
727.099	0.0155154
727.177	0.0152886
727.255	0.0155251
727.333	0.0156501
727.411	0.0156100
727.489	0.0154465
727.568	0.0155836
727.646	0.0155435
727.724	0.0155736
727.802	0.0154800
727.880	0.0153110
727.958	0.0153886
728.036	0.0154914
728.114	0.0151783
728.193	0.0152189
728.271	0.0152106
728.349	0.0153896
728.427	0.0151931
728.505	0.0152863
728.583	0.0152218
728.661	0.0151370
728.739	0.0152187
728.818	0.0153962
728.896	0.0153078
728.974	0.0154212
729.052	0.0152796
729.130	0.0153909
729.208	0.0154475
729.286	0.0154051
729.364	0.0153866
729.443	0.0154478
729.521	0.0155227
729.599	0.0153471
729.677	0.0153388
729.755	0.0153688
729.833	0.0152571
729.911	0.0153138
729.989	0.0153790
730.068	0.0154001
730.146	0.0152126
730.224	0.0153413
730.302	0.0152992
730.380	0.0152190
730.458	0.0151950
730.536	0.0151662
730.614	0.0151955
730.693	0.0151271
730.771	0.0149400
730.849	0.0148585
730.927	0.0147169
731.005	0.0148628
731.083	0.0145890
731.161	0.0146415
731.239	0.0145995
731.318	0.0146027
731.396	0.0148698
731.474	0.0148032
731.552	0.0148071
731.630	0.0150134
731.708	0.0150630
731.786	0.0151283
731.864	0.0153858
731.943	0.0153641
732.021	0.0152983
732.099	0.0154701
732.177	0.0154978
732.255	0.0154864
732.333	0.0155445
732.411	0.0153860
732.489	0.0154484
732.568	0.0154038
732.646	0.0153855
732.724	0.0152177
732.802	0.0153003
732.880	0.0153358
732.958	0.0153178
733.036	0.0151437
733.114	0.0151838
733.193	0.0151714
733.271	0.0152358
733.349	0.0152710
733.427	0.0153127
733.505	0.0154561
733.583	0.0154551
733.661	0.0153866
733.739	0.0154019
733.818	0.0154895
733.896	0.0155606
733.974	0.0153281
734.052	0.0153425
734.130	0.0155843
734.208	0.0154554
734.286	0.0156024
734.364	0.0154289
734.443	0.0154604
734.521	0.0153751
734.599	0.0155673
734.677	0.0155637
734.755	0.0154377
734.833	0.0154504
734.911	0.0154659
734.989	0.0154948
735.068	0.0156642
735.146	0.0155886
735.224	0.0154703
735.302	0.0153815
735.380	0.0153664
735.458	0.0154124
735.536	0.0152657
735.614	0.0152137
735.693	0.0151118
735.771	0.0150671
735.849	0.0150604
735.927	0.0152159
736.005	0.0149533
736.083	0.0148743
736.161	0.0149170
736.239	0.0149164
736.318	0.0149356
736.396	0.0147488
736.474	0.0148556
736.552	0.0148679
736.630	0.0148158
736.708	0.0149764
736.786	0.0149977
736.864	0.0150769
736.943	0.0152129
737.021	0.0153152
737.099	0.0151997
737.177	0.0154093
737.255	0.0154854
737.333	0.0155531
737.411	0.0157950
737.489	0.0156283
737.568	0.0157442
737.646	0.0158236
737.724	0.0156996
737.802	0.0157288
737.880	0.0156035
737.958	0.0155898
738.036	0.0155680
738.114	0.0154980
738.193	0.0155705
738.271	0.0155067
738.349	0.0153248
738.427	0.0152930
738.505	0.0153232
738.583	0.0153288
738.661	0.0152038
738.739	0.0151311
738.818	0.0152589
738.896	0.0152383
738.974	0.0151689
739.052	0.0150301
739.130	0.0151694
739.208	0.0151490
739.286	0.0151978
739.364	0.0152046
739.443	0.0151841
739.521	0.0151667
739.599	0.0151843
739.677	0.0150970
739.755	0.0150236
739.833	0.0151363
739.911	0.0153285
739.989	0.0152457
740.068	0.0151554
740.146	0.0153275
740.224	0.0153104
740.302	0.0152888
740.380	0.0152785
740.458	0.0153355
740.536	0.0153625
740.614	0.0155630
740.693	0.0155909
740.771	0.0155457
740.849	0.0156115
740.927	0.0154743
741.005	0.0154902
741.083	0.0154736
741.161	0.0154522
741.239	0.0153611
741.318	0.0151826
741.396	0.0152815
741.474	0.0150929
741.552	0.0150937
741.630	0.0150350
741.708	0.0150716
741.786	0.0148956
741.864	0.0150320
741.943	0.0150589
742.021	0.0150237
742.099	0.0150158
742.177	0.0152237
742.255	0.0152251
742.333	0.0151978
742.411	0.0152345
742.489	0.0152583
742.568	0.0154405
742.646	0.0154911
742.724	0.0155516
742.802	0.0154520
742.880	0.0154915
742.958	0.0155648
743.036	0.0155801
743.114	0.0155068
743.193	0.0155051
743.271	0.0155172
743.349	0.0153838
743.427	0.0152775
743.505	0.0152686
743.583	0.0152296
743.661	0.0151527
743.739	0.0150798
743.818	0.0149872
743.896	0.0150733
743.974	0.0150971
744.052	0.0149643
744.130	0.0150473
744.208	0.0150946
744.286	0.0151421
744.364	0.0150248
744.443	0.0149749
744.521	0.0151292
744.599	0.0151789
744.677	0.0153421
744.755	0.0153790
744.833	0.0153383
744.911	0.0153567
744.989	0.0153118
745.068	0.0152203
745.146	0.0152601
745.224	0.0152384
745.302	0.0153998
745.380	0.0155433
745.458	0.0154182
745.536	0.0152896
745.614	0.0153942
745.693	0.0154979
745.771	0.0154313
745.849	0.0153556
745.927	0.0153339
746.005	0.0153904
746.083	0.0154026
746.161	0.0154842
746.239	0.0152767
746.318	0.0153034
746.396	0.0154233
746.474	0.0152792
746.552	0.0151939
746.630	0.0152551
746.708	0.0150928
746.786	0.0152454
746.864	0.0150777
746.943	0.0151723
747.021	0.0150949
747.099	0.0149490
747.177	0.0149645
747.255	0.0150343
747.333	0.0151400
747.411	0.0149779
747.489	0.0151730
747.568	0.0152894
747.646	0.0150557
747.724	0.0153123
747.802	0.0153360
747.880	0.0155889
747.958	0.0157321
748.036	0.0154934
748.114	0.0155812
748.193	0.0156075
748.271	0.0156034
748.349	0.0156366
748.427	0.0156841
748.505	0.0155554
748.583	0.0154210
748.661	0.0154883
748.739	0.0154487
748.818	0.0152531
748.896	0.0153328
748.974	0.0152712
749.052	0.0151225
749.130	0.0151958
749.208	0.0152537
749.286	0.0152547
749.364	0.0152352
749.443	0.0150726
749.521	0.0150857
749.599	0.0152855
749.677	0.0152612
749.755	0.0152386
749.833	0.0151675
749.911	0.0152398
749.989	0.0154072
750.068	0.0153841
750.146	0.0155209
750.224	0.0153402
750.302	0.0155463
750.380	0.0154541
750.458	0.0153698
750.536	0.0154451
750.614	0.0154010
750.693	0.0152734
750.771	0.0153023
750.849	0.0154351
750.927	0.0153277
751.005	0.0152442
751.083	0.0153998
751.161	0.0154061
751.239	0.0150717
751.318	0.0152698
751.396	0.0152802
751.474	0.0154130
751.552	0.0154073
751.630	0.0153639
751.708	0.0151051
751.786	0.0151344
751.864	0.0152570
751.943	0.0151977
752.021	0.0150095
752.099	0.0151827
752.177	0.0151475
752.255	0.0150047
752.333	0.0149610
752.411	0.0151575
752.489	0.0149911
752.568	0.0150915
752.646	0.0152110
752.724	0.0150327
752.802	0.0152242
752.880	0.0151527
752.958	0.0152141
753.036	0.0152724
753.114	0.0152825
753.193	0.0151559
753.271	0.0153099
753.349	0.0152740
753.427	0.0153085
753.505	0.0154826
753.583	0.0153723
753.661	0.0153173
753.739	0.0153298
753.818	0.0154205
753.896	0.0152991
753.974	0.0153530
754.052	0.0151828
754.130	0.0153123
754.208	0.0153741
754.286	0.0152669
754.364	0.0152304
754.443	0.0152370
754.521	0.0150591
754.599	0.0151183
754.677	0.0151579
754.755	0.0149867
754.833	0.0149091
754.911	0.0151051
754.989	0.0150007
755.068	0.0149197
755.146	0.0150475
755.224	0.0150687
755.302	0.0151177
755.380	0.0150519
755.458	0.0150565
755.536	0.0151889
755.614	0.0152455
755.693	0.0152992
755.771	0.0152753
755.849	0.0151852
755.927	0.0152672
756.005	0.0153597
756.083	0.0154385
756.161	0.0153413
756.239	0.0153596
756.318	0.0153534
756.396	0.0152457
756.474	0.0152931
756.552	0.0152798
756.630	0.0153464
756.708	0.0153476
756.786	0.0152317
756.864	0.0153023
756.943	0.0153329
757.021	0.0152843
757.099	0.0153736
757.177	0.0153644
757.255	0.0153486
757.333	0.0152796
757.411	0.0154263
757.489	0.0151949
757.568	0.0152992
757.646	0.0152832
757.724	0.0150785
757.802	0.0151472
757.880	0.0151263
757.958	0.0149957
758.036	0.0149868
758.114	0.0150976
758.193	0.0150876
758.271	0.0148951
758.349	0.0150769
758.427	0.0150110
758.505	0.0150868
758.583	0.0151687
758.661	0.0150951
758.739	0.0152404
758.818	0.0153986
758.896	0.0153481
758.974	0.0152531
759.052	0.0152855
759.130	0.0154182
759.208	0.0153533
759.286	0.0152888
759.364	0.0152793
759.443	0.0154652
759.521	0.0153902
759.599	0.0152658
759.677	0.0152792
759.755	0.0153230
759.833	0.0151077
759.911	0.0150975
759.989	0.0152626
760.068	0.0151512
760.146	0.0151337
760.224	0.0152009
760.302	0.0151691
760.380	0.0153049
760.458	0.0152676
760.536	0.0152518
760.614	0.0151823
760.693	0.0154685
760.771	0.0152932
760.849	0.0153222
760.927	0.0153307
761.005	0.0152330
761.083	0.0153618
761.161	0.0154115
761.239	0.0152393
761.318	0.0152566
761.396	0.0153403
761.474	0.0153320
761.552	0.0153027
761.630	0.0153211
761.708	0.0153077
761.786	0.0152372
761.864	0.0153548
761.943	0.0155196
762.021	0.0154929
762.099	0.0154838
762.177	0.0154713
762.255	0.0155995
762.333	0.0154721
762.411	0.0155837
762.489	0.0156651
762.568	0.0155627
762.646	0.0155845
762.724	0.0156483
762.802	0.0155132
762.880	0.0155028
762.958	0.0156033
763.036	0.0154204
763.114	0.0153658
763.193	0.0153436
763.271	0.0153099
763.349	0.0154678
763.427	0.0153168
763.505	0.0154153
763.583	0.0153548
763.661	0.0152596
763.739	0.0152686
763.818	0.0151940
763.896	0.0154073
763.974	0.0152003
764.052	0.0152061
764.130	0.0152339
764.208	0.0152415
764.286	0.0151459
764.364	0.0152018
764.443	0.0151185
764.521	0.0152327
764.599	0.0151686
764.677	0.0151871
764.755	0.0153195
764.833	0.0151601
764.911	0.0151627
764.989	0.0150499
765.068	0.0151567
765.146	0.0151191
765.224	0.0150339
765.302	0.0149504
765.380	0.0149493
765.458	0.0150224
765.536	0.0149338
765.614	0.0150521
765.693	0.0150484
765.771	0.0149348
765.849	0.0150671
765.927	0.0151571
766.005	0.0151552
766.083	0.0150941
766.161	0.0150973
766.239	0.0152106
766.318	0.0152647
766.396	0.0154435
766.474	0.0153077
766.552	0.0154455
766.630	0.0154397
766.708	0.0156638
766.786	0.0155808
766.864	0.0156731
766.943	0.0156512
767.021	0.0155356
767.099	0.0155177
767.177	0.0156734
767.255	0.0155042
767.333	0.0155255
767.411	0.0155426
767.489	0.0155926
767.568	0.0154770
767.646	0.0153608
767.724	0.0155135
767.802	0.0154023
767.880	0.0154003
767.958	0.0153101
768.036	0.0153397
768.114	0.0152341
768.193	0.0151389
768.271	0.0152349
768.349	0.0151891
768.427	0.0151368
768.505	0.0152496
768.583	0.0153368
768.661	0.0152164
768.739	0.0151704
768.818	0.0152863
768.896	0.0153559
768.974	0.0153591
769.052	0.0153167
769.130	0.0153406
769.208	0.0152532
769.286	0.0153374
769.364	0.0152738
769.443	0.0152195
769.521	0.0152287
769.599	0.0153895
769.677	0.0152679
769.755	0.0153183
769.833	0.0154311
769.911	0.0152161
769.989	0.0154250
770.068	0.0153854
770.146	0.0153021
770.224	0.0154003
770.302	0.0152139
770.380	0.0152087
770.458	0.0152163
770.536	0.0152550
770.614	0.0152162
770.693	0.0152575
770.771	0.0151942
770.849	0.0151399
770.927	0.0151671
771.005	0.0151229
771.083	0.0149847
771.161	0.0149870
771.239	0.0152818
771.318	0.0151970
771.396	0.0151749
771.474	0.0151530
771.552	0.0152863
771.630	0.0153472
771.708	0.0152653
771.786	0.0153493
771.864	0.0154642
771.943	0.0156416
772.021	0.0155173
772.099	0.0153800
772.177	0.0154927
772.255	0.0154953
772.333	0.0155786
772.411	0.0153930
772.489	0.0154501
772.568	0.0155294
772.646	0.0156174
772.724	0.0156494
772.802	0.0157000
772.880	0.0157294
772.958	0.0155772
773.036	0.0155344
773.114	0.0156168
773.193	0.0155451
773.271	0.0156480
773.349	0.0154245
773.427	0.0154524
773.505	0.0153535
773.583	0.0153934
773.661	0.0152649
773.739	0.0152715
773.818	0.0152392
773.896	0.0153233
773.974	0.0152617
774.052	0.0152020
774.130	0.0150429
774.208	0.0152734
774.286	0.0151653
774.364	0.0151786
774.443	0.0152775
774.521	0.0152402
774.599	0.0151772
774.677	0.0152922
774.755	0.0153763
774.833	0.0154048
774.911	0.0151876
774.989	0.0153748
775.068	0.0153765
775.146	0.0153929
775.224	0.0153831
775.302	0.0154890
775.380	0.0154011
775.458	0.0153391
775.536	0.0153673
775.614	0.0154067
775.693	0.0153451
775.771	0.0152612
775.849	0.0152202
775.927	0.0151547
776.005	0.0152013
776.083	0.0152733
776.161	0.0151374
776.239	0.0151294
776.318	0.0152028
776.396	0.0151384
776.474	0.0151480
776.552	0.0151443
776.630	0.0151957
776.708	0.0152785
776.786	0.0152044
776.864	0.0152216
776.943	0.0152605
777.021	0.0153649
777.099	0.0153510
777.177	0.0154365
777.255	0.0153905
777.333	0.0152634
777.411	0.0152690
777.489	0.0153484
777.568	0.0153829
777.646	0.0152853
777.724	0.0152459
777.802	0.0153890
777.880	0.0154441
777.958	0.0152809
778.036	0.0151732
778.114	0.0151550
778.193	0.0153368
778.271	0.0152264
778.349	0.0152404
778.427	0.0152679
778.505	0.0151978
778.583	0.0152312
778.661	0.0152459
778.739	0.0152001
778.818	0.0151368
778.896	0.0151997
778.974	0.0152173
779.052	0.0152332
779.130	0.0152658
779.208	0.0150994
779.286	0.0152790
779.364	0.0152016
779.443	0.0152026
779.521	0.0151726
779.599	0.0152703
779.677	0.0153145
779.755	0.0152527
779.833	0.0152733
779.911	0.0153006
779.989	0.0154276
780.068	0.0153783
780.146	0.0153979
780.224	0.0153524
780.302	0.0153405
780.380	0.0153772
780.458	0.0153484
780.536	0.0154303
780.614	0.0153449
780.693	0.0154117
780.771	0.0152602
780.849	0.0151601
780.927	0.0153374
781.005	0.0152969
781.083	0.0152674
781.161	0.0151032
781.239	0.0151924
781.318	0.0151885
781.396	0.0150948
781.474	0.0152117
781.552	0.0152181
781.630	0.0152388
781.708	0.0152299
781.786	0.0151494
781.864	0.0151765
781.943	0.0151434
782.021	0.0152238
782.099	0.0153352
782.177	0.0152740
782.255	0.0152821
782.333	0.0153150
782.411	0.0151891
782.489	0.0152509
782.568	0.0152534
782.646	0.0153407
782.724	0.0153816
782.802	0.0152425
782.880	0.0152040
782.958	0.0152426
783.036	0.0152440
783.114	0.0153694
783.193	0.0152419
783.271	0.0152940
783.349	0.0151790
783.427	0.0152558
783.505	0.0153416
783.583	0.0152643
783.661	0.0153434
783.739	0.0152371
783.818	0.0151785
783.896	0.0151491
783.974	0.0153270
784.052	0.0153043
784.130	0.0153737
784.208	0.0152750
784.286	0.0151987
784.364	0.0152309
784.443	0.0152944
784.521	0.0153701
784.599	0.0154137
784.677	0.0154984
784.755	0.0153233
784.833	0.0154357
784.911	0.0155155
784.989	0.0154917
785.068	0.0154348
785.146	0.0153862
785.224	0.0155058
785.302	0.0154674
785.380	0.0153772
785.458	0.0152933
785.536	0.0154954
785.614	0.0152977
785.693	0.0153093
785.771	0.0153493
785.849	0.0152728
785.927	0.0153207
786.005	0.0153476
786.083	0.0152929
786.161	0.0151349
786.239	0.0153392
786.318	0.0154334
786.396	0.0152419
786.474	0.0150447
786.552	0.0150654
786.630	0.0150635
786.708	0.0150185
786.786	0.0148223
786.864	0.0148412
786.943	0.0148363
787.021	0.0148317
787.099	0.0147897
787.177	0.0149271
787.255	0.0150986
787.333	0.0151329
787.411	0.0152169
787.489	0.0153410
787.568	0.0154617
787.646	0.0155018
787.724	0.0154957
787.802	0.0155530
787.880	0.0157764
787.958	0.0158604
788.036	0.0157259
788.114	0.0157635
788.193	0.0158090
788.271	0.0156826
788.349	0.0157740
788.427	0.0156163
788.505	0.0155102
788.583	0.0153612
788.661	0.0151175
788.739	0.0149204
788.818	0.0148674
788.896	0.0146884
788.974	0.0145217
789.052	0.0144882
789.130	0.0144794
789.208	0.0143812
789.286	0.0144864
789.364	0.0145021
789.443	0.0145729
789.521	0.0147356
789.599	0.0148077
789.677	0.0150923
789.755	0.0151939
789.833	0.0155045
789.911	0.0155984
789.989	0.0158536
790.068	0.0160044
790.146	0.0161620
790.224	0.0162197
790.302	0.0161658
790.380	0.0161636
790.458	0.0160617
790.536	0.0161025
790.614	0.0161074
790.693	0.0158896
790.771	0.0157858
790.849	0.0158472
790.927	0.0156806
791.005	0.0153151
791.083	0.0151932
791.161	0.0151669
791.239	0.0150755
791.318	0.0149102
791.396	0.0148534
791.474	0.0146378
791.552	0.0144459
791.630	0.0145574
791.708	0.0143443
791.786	0.0143266
791.864	0.0143265
791.943	0.0143675
792.021	0.0143121
792.099	0.0145670
792.177	0.0146555
792.255	0.0147755
792.333	0.0148829
792.411	0.0150382
792.489	0.0150668
792.568	0.0155298
792.646	0.0154071
792.724	0.0153813
792.802	0.0157170
792.880	0.0157742
792.958	0.0157688
793.036	0.0159270
793.114	0.0158864
793.193	0.0157861
793.271	0.0158102
793.349	0.0157560
793.427	0.0158068
793.505	0.0157101
793.583	0.0157603
793.661	0.0155407
793.739	0.0155083
793.818	0.0154201
793.896	0.0152255
793.974	0.0153308
794.052	0.0153735
794.130	0.0152490
794.208	0.0151330
794.286	0.0151403
794.364	0.0152696
794.443	0.0152344
794.521	0.0151518
794.599	0.0150878
794.677	0.0152899
794.755	0.0153544
794.833	0.0153531
794.911	0.0154171
794.989	0.0153366
795.068	0.0152596
795.146	0.0153373
795.224	0.0153270
795.302	0.0152581
795.380	0.0154047
795.458	0.0151398
795.536	0.0151077
795.614	0.0151028
795.693	0.0149489
795.771	0.0150786
795.849	0.0149408
795.927	0.0151294
796.005	0.0149804
796.083	0.0150603
796.161	0.0152264
796.239	0.0150830
796.318	0.0150163
796.396	0.0152468
796.474	0.0153442
796.552	0.0152949
796.630	0.0155471
796.708	0.0155079
796.786	0.0156735
796.864	0.0155060
796.943	0.0155453
797.021	0.0155816
797.099	0.0156791
797.177	0.0155729
797.255	0.0156468
797.333	0.0155871
797.411	0.0154578
797.489	0.0156488
797.568	0.0154591
797.646	0.0153191
797.724	0.0153790
797.802	0.0154556
797.880	0.0152005
797.958	0.0152312
798.036	0.0152567
798.114	0.0152689
798.193	0.0151797
798.271	0.0151494
798.349	0.0150389
798.427	0.0151602
798.505	0.0151791
798.583	0.0149989
798.661	0.0149918
798.739	0.0152162
798.818	0.0151591
798.896	0.0151492
798.974	0.0150257
799.052	0.0150468
799.130	0.0151297
799.208	0.0152885
799.286	0.0151614
799.364	0.0151817
799.443	0.0152544
799.521	0.0152739
799.599	0.0152853
799.677	0.0153202
799.755	0.0152649
799.833	0.0153241
799.911	0.0152631
799.989	0.0152443
800.068	0.0153258
800.146	0.0154697
800.224	0.0153057
800.302	0.0153711
800.380	0.0153379
800.458	0.0153653
800.536	0.0153310
800.614	0.0154939
800.693	0.0153922
800.771	0.0154120
800.849	0.0151991
800.927	0.0152223
801.005	0.0152795
801.083	0.0152360
801.161	0.0152043
801.239	0.0153431
801.318	0.0153427
801.396	0.0153123
801.474	0.0151210
801.552	0.0152464
801.630	0.0152303
801.708	0.0152802
801.786	0.0151264
801.864	0.0152586
801.943	0.0151356
802.021	0.0151414
802.099	0.0151584
802.177	0.0151959
802.255	0.0150389
802.333	0.0152383
802.411	0.0151655
802.489	0.0153741
802.568	0.0152515
802.646	0.0152454
802.724	0.0153458
802.802	0.0153323
802.880	0.0153565
802.958	0.0153725
803.036	0.0152827
803.114	0.0151900
803.193	0.0154511
803.271	0.0154385
803.349	0.0153694
803.427	0.0154070
803.505	0.0153434
803.583	0.0153415
803.661	0.0153789
803.739	0.0151785
803.818	0.0150579
803.896	0.0151550
803.974	0.0152293
804.052	0.0152512
804.130	0.0150794
804.208	0.0151099
804.286	0.0152069
804.364	0.0152110
804.443	0.0150832
804.521	0.0151201
804.599	0.0152515
804.677	0.0152112
804.755	0.0151819
804.833	0.0150986
804.911	0.0152875
804.989	0.0152438
805.068	0.0151869
805.146	0.0153101
805.224	0.0152340
805.302	0.0152462
805.380	0.0152515
805.458	0.0154309
805.536	0.0153754
805.614	0.0153322
805.693	0.0152856
805.771	0.0154085
805.849	0.0154170
805.927	0.0154444
806.005	0.0155409
806.083	0.0154929
806.161	0.0154945
806.239	0.0153838
806.318	0.0154019
806.396	0.0154613
806.474	0.0154309
806.552	0.0154886
806.630	0.0154922
806.708	0.0155438
806.786	0.0153484
806.864	0.0152708
806.943	0.0152233
807.021	0.0153746
807.099	0.0151341
807.177	0.0150476
807.255	0.0151699
807.333	0.0152642
807.411	0.0151315
807.489	0.0151142
807.568	0.0150391
807.646	0.0150581
807.724	0.0151323
807.802	0.0151514
807.880	0.0150536
807.958	0.0153152
808.036	0.0151495
808.114	0.0151579
808.193	0.0152666
808.271	0.0152894
808.349	0.0153628
808.427	0.0151713
808.505	0.0152779
808.583	0.0154924
808.661	0.0153533
808.739	0.0153562
808.818	0.0154762
808.896	0.0154789
808.974	0.0154545
809.052	0.0154506
809.130	0.0154325
809.208	0.0155235
809.286	0.0155041
809.364	0.0153204
809.443	0.0153289
809.521	0.0152673
809.599	0.0153078
809.677	0.0153303
809.755	0.0151408
809.833	0.0153233
809.911	0.0151418
809.989	0.0151739
810.068	0.0151839
810.146	0.0151863
810.224	0.0151753
810.302	0.0152403
810.380	0.0152912
810.458	0.0151331
810.536	0.0150713
810.614	0.0152051
810.693	0.0152478
810.771	0.0152520
810.849	0.0152497
810.927	0.0151859
811.005	0.0153104
811.083	0.0153027
811.161	0.0153204
811.239	0.0153617
811.318	0.0155074
811.396	0.0155159
811.474	0.0154668
811.552	0.0154424
811.630	0.0154820
811.708	0.0153228
811.786	0.0154919
811.864	0.0154631
811.943	0.0152848
812.021	0.0154505
812.099	0.0153420
812.177	0.0152715
812.255	0.0152769
812.333	0.0153277
812.411	0.0153191
812.489	0.0152436
812.568	0.0152065
812.646	0.0151386
812.724	0.0151959
812.802	0.0150260
812.880	0.0150470
812.958	0.0151246
813.036	0.0151576
813.114	0.0151546
813.193	0.0150865
813.271	0.0148579
813.349	0.0151280
813.427	0.0150111
813.505	0.0150430
813.583	0.0149857
813.661	0.0150431
813.739	0.0151794
813.818	0.0150674
813.896	0.0151025
813.974	0.0153412
814.052	0.0153110
814.130	0.0153040
814.208	0.0153302
814.286	0.0153472
814.364	0.0155343
814.443	0.0154898
814.521	0.0153043
814.599	0.0154162
814.677	0.0154802
814.755	0.0153579
814.833	0.0153977
814.911	0.0154276
814.989	0.0152581
815.068	0.0151832
815.146	0.0154013
815.224	0.0153751
815.302	0.0152142
815.380	0.0151357
815.458	0.0150509
815.536	0.0150491
815.614	0.0150787
815.693	0.0151364
815.771	0.0151200
815.849	0.0151059
815.927	0.0150336
816.005	0.0151106
816.083	0.0151097
816.161	0.0151334
816.239	0.0153307
816.318	0.0153175
816.396	0.0153371
816.474	0.0152724
816.552	0.0154169
816.630	0.0152634
816.708	0.0153075
816.786	0.0152817
816.864	0.0154687
816.943	0.0153242
817.021	0.0153400
817.099	0.0152957
817.177	0.0153030
817.255	0.0152814
817.333	0.0152069
817.411	0.0152006
817.489	0.0153163
817.568	0.0152084
817.646	0.0150908
817.724	0.0151670
817.802	0.0152691
817.880	0.0153535
817.958	0.0152589
818.036	0.0153365
818.114	0.0151875
818.193	0.0152123
818.271	0.0153925
818.349	0.0153721
818.427	0.0153132
818.505	0.0153013
818.583	0.0151827
818.661	0.0152036
818.739	0.0152637
818.818	0.0152725
818.896	0.0150705
818.974	0.0151000
819.052	0.0150401
819.130	0.0150145
819.208	0.0149882
819.286	0.0150624
819.364	0.0148904
819.443	0.0148796
819.521	0.0149386
819.599	0.0150049
819.677	0.0150898
819.755	0.0150896
819.833	0.0149813
819.911	0.0150906
819.989	0.0150336
820.068	0.0150560
820.146	0.0152126
820.224	0.0152711
820.302	0.0151759
820.380	0.0152956
820.458	0.0154797
820.536	0.0154072
820.614	0.0152810
820.693	0.0153005
820.771	0.0154408
820.849	0.0153145
820.927	0.0153004
821.005	0.0153209
821.083	0.0153574
821.161	0.0154630
821.239	0.0152708
821.318	0.0154153
821.396	0.0154756
821.474	0.0153990
821.552	0.0154749
821.630	0.0155268
821.708	0.0154875
821.786	0.0154735
821.864	0.0152936
821.943	0.0152834
822.021	0.0152094
822.099	0.0152991
822.177	0.0153277
822.255	0.0152947
822.333	0.0154538
822.411	0.0153193
822.489	0.0153851
822.568	0.0153431
822.646	0.0152711
822.724	0.0152448
822.802	0.0151998
822.880	0.0153274
822.958	0.0152328
823.036	0.0151431
823.114	0.0153013
823.193	0.0151886
823.271	0.0152833
823.349	0.0151907
823.427	0.0151414
823.505	0.0151997
823.583	0.0152538
823.661	0.0150966
823.739	0.0150686
823.818	0.0151672
823.896	0.0150485
823.974	0.0152052
824.052	0.0152214
824.130	0.0152402
824.208	0.0150864
824.286	0.0151753
824.364	0.0151564
824.443	0.0152293
824.521	0.0150652
824.599	0.0150381
824.677	0.0150810
824.755	0.0150090
824.833	0.0151576
824.911	0.0151398
824.989	0.0150295
825.068	0.0151101
825.146	0.0151180
825.224	0.0149657
825.302	0.0150079
825.380	0.0152554
825.458	0.0151163
825.536	0.0152256
825.614	0.0151324
825.693	0.0152685
825.771	0.0153923
825.849	0.0153069
825.927	0.0153371
826.005	0.0153663
826.083	0.0153168
826.161	0.0155271
826.239	0.0155172
826.318	0.0155285
826.396	0.0155259
826.474	0.0156258
826.552	0.0155004
826.630	0.0155055
826.708	0.0155020
826.786	0.0154605
826.864	0.0155358
826.943	0.0155365
827.021	0.0154964
827.099	0.0153568
827.177	0.0154308
827.255	0.0154295
827.333	0.0153931
827.411	0.0152935
827.489	0.0153461
827.568	0.0152069
827.646	0.0151841
827.724	0.0151321
827.802	0.0149484
827.880	0.0151119
827.958	0.0151766
828.036	0.0150332
828.114	0.0151052
828.193	0.0150802
828.271	0.0148880
828.349	0.0148365
828.427	0.0149153
828.505	0.0149582
828.583	0.0151221
828.661	0.0150090
828.739	0.0149730
828.818	0.0149849
828.896	0.0150262
828.974	0.0150920
829.052	0.0151033
829.130	0.0151502
829.208	0.0150047
829.286	0.0150420
829.364	0.0151197
829.443	0.0152761
829.521	0.0151164
829.599	0.0152135
829.677	0.0153428
829.755	0.0153871
829.833	0.0154450
829.911	0.0153525
829.989	0.0151330
830.068	0.0152911
830.146	0.0154883
830.224	0.0153365
830.302	0.0155129
830.380	0.0154187
830.458	0.0152286
830.536	0.0152070
830.614	0.0153964
830.693	0.0152474
830.771	0.0151121
830.849	0.0152402
830.927	0.0152719
831.005	0.0152682
831.083	0.0151733
831.161	0.0151520
831.239	0.0153825
831.318	0.0153671
831.396	0.0153532
831.474	0.0153133
831.552	0.0153862
831.630	0.0152326
831.708	0.0152817
831.786	0.0153888
831.864	0.0152921
831.943	0.0152515
832.021	0.0152887
832.099	0.0152427
832.177	0.0152149
832.255	0.0152553
832.333	0.0152293
832.411	0.0151521
832.489	0.0153563
832.568	0.0151583
832.646	0.0151010
832.724	0.0151269
832.802	0.0150930
832.880	0.0152332
832.958	0.0151436
833.036	0.0150208
833.114	0.0151328
833.193	0.0149708
833.271	0.0150962
833.349	0.0150099
833.427	0.0151687
833.505	0.0150771
833.583	0.0152015
833.661	0.0150832
833.739	0.0151814
833.818	0.0152580
833.896	0.0152470
833.974	0.0152344
834.052	0.0152925
834.130	0.0152802
834.208	0.0153258
834.286	0.0153577
834.364	0.0155010
834.443	0.0154416
834.521	0.0156097
834.599	0.0155189
834.677	0.0155463
834.755	0.0154076
834.833	0.0155670
834.911	0.0155450
834.989	0.0156151
835.068	0.0155231
835.146	0.0156738
835.224	0.0155001
835.302	0.0154924
835.380	0.0155440
835.458	0.0156335
835.536	0.0156219
835.614	0.0154527
835.693	0.0153843
835.771	0.0154731
835.849	0.0152850
835.927	0.0154176
836.005	0.0151883
836.083	0.0150993
836.161	0.0152494
836.239	0.0152859
836.318	0.0152107
836.396	0.0150928
836.474	0.0152510
836.552	0.0152042
836.630	0.0150661
836.708	0.0150701
836.786	0.0152389
836.864	0.0151199
836.943	0.0151128
837.021	0.0150623
837.099	0.0150111
837.177	0.0152119
837.255	0.0151009
837.333	0.0151407
837.411	0.0150926
837.489	0.0150251
837.568	0.0149453
837.646	0.0151483
837.724	0.0150697
837.802	0.0150999
837.880	0.0150491
837.958	0.0151201
838.036	0.0150455
838.114	0.0150178
838.193	0.0151408
838.271	0.0151557
838.349	0.0150136
838.427	0.0152998
838.505	0.0152217
838.583	0.0152216
838.661	0.0153542
838.739	0.0152139
838.818	0.0151703
838.896	0.0152571
838.974	0.0152347
839.052	0.0153561
839.130	0.0152786
839.208	0.0153910
839.286	0.0153310
839.364	0.0152602
839.443	0.0153410
839.521	0.0152885
839.599	0.0154146
839.677	0.0154042
839.755	0.0153365
839.833	0.0154723
839.911	0.0154219
839.989	0.0153940
840.068	0.0153755
840.146	0.0154047
840.224	0.0153779
840.302	0.0153752
840.380	0.0154549
840.458	0.0154279
840.536	0.0154456
840.614	0.0154039
840.693	0.0155740
840.771	0.0154353
840.849	0.0153687
840.927	0.0153603
841.005	0.0152740
841.083	0.0152050
841.161	0.0152284
841.239	0.0152372
841.318	0.0152415
841.396	0.0150893
841.474	0.0152343
841.552	0.0152707
841.630	0.0152654
841.708	0.0152025
841.786	0.0152885
841.864	0.0151755
841.943	0.0152151
842.021	0.0150414
842.099	0.0151752
842.177	0.0151829
842.255	0.0151954
842.333	0.0151624
842.411	0.0151748
842.489	0.0153817
842.568	0.0152472
842.646	0.0152712
842.724	0.0152412
842.802	0.0152877
842.880	0.0153653
842.958	0.0153315
843.036	0.0153787
843.114	0.0152877
843.193	0.0153201
843.271	0.0151769
843.349	0.0152673
843.427	0.0153620
843.505	0.0152106
843.583	0.0151938
843.661	0.0151774
843.739	0.0150883
843.818	0.0151681
843.896	0.0152766
843.974	0.0151293
844.052	0.0151168
844.130	0.0151786
844.208	0.0151512
844.286	0.0151717
844.364	0.0151403
844.443	0.0152473
844.521	0.0151610
844.599	0.0153004
844.677	0.0151902
844.755	0.0151787
844.833	0.0151587
844.911	0.0151231
844.989	0.0151398
845.068	0.0151111
845.146	0.0152273
845.224	0.0152605
845.302	0.0151803
845.380	0.0152612
845.458	0.0153000
845.536	0.0153204
845.614	0.0153297
845.693	0.0152900
845.771	0.0153374
845.849	0.0152665
845.927	0.0152786
846.005	0.0152387
846.083	0.0153300
846.161	0.0153662
846.239	0.0152714
846.318	0.0152779
846.396	0.0153221
846.474	0.0152948
846.552	0.0154249
846.630	0.0154685
846.708	0.0153468
846.786	0.0153018
846.864	0.0153431
846.943	0.0153947
847.021	0.0153239
847.099	0.0152916
847.177	0.0154092
847.255	0.0153065
847.333	0.0154120
847.411	0.0154430
847.489	0.0152750
847.568	0.0153994
847.646	0.0154546
847.724	0.0153419
847.802	0.0154160
847.880	0.0153472
847.958	0.0153934
848.036	0.0154140
848.114	0.0153327
848.193	0.0154239
848.271	0.0153732
848.349	0.0154753
848.427	0.0153660
848.505	0.0152012
848.583	0.0153256
848.661	0.0154229
848.739	0.0153635
848.818	0.0154070
848.896	0.0153641
848.974	0.0153696
849.052	0.0153387
849.130	0.0153531
849.208	0.0151907
849.286	0.0152728
849.364	0.0152124
849.443	0.0151065
849.521	0.0152609
849.599	0.0152570
849.677	0.0151202
849.755	0.0151216
849.833	0.0150670
849.911	0.0150401
849.989	0.0151086
850.068	0.0151044
850.146	0.0150878
850.224	0.0152591
850.302	0.0151376
850.380	0.0151473
850.458	0.0152411
850.536	0.0152676
850.614	0.0154300
850.693	0.0152920
850.771	0.0151871
850.849	0.0153344
850.927	0.0154651
851.005	0.0152531
851.083	0.0153572
851.161	0.0154120
851.239	0.0154298
851.318	0.0152337
851.396	0.0152691
851.474	0.0151737
851.552	0.0151849
851.630	0.0151947
851.708	0.0152304
851.786	0.0151709
851.864	0.0150839
851.943	0.0151893
852.021	0.0151725
852.099	0.0151738
852.177	0.0151671
852.255	0.0151107
852.333	0.0151681
852.411	0.0152377
852.489	0.0150587
852.568	0.0152303
852.646	0.0151598
852.724	0.0151949
852.802	0.0151087
852.880	0.0151659
852.958	0.0151943
853.036	0.0151727
853.114	0.0153500
853.193	0.0152524
853.271	0.0153346
853.349	0.0153146
853.427	0.0152959
853.505	0.0154377
853.583	0.0154266
853.661	0.0154901
853.739	0.0154203
853.818	0.0152657
853.896	0.0154042
853.974	0.0155232
854.052	0.0155569
854.130	0.0157140
854.208	0.0154974
854.286	0.0154349
854.364	0.0155529
854.443	0.0155047
854.521	0.0154479
854.599	0.0154545
854.677	0.0155187
854.755	0.0155957
854.833	0.0153754
854.911	0.0154996
854.989	0.0152798
855.068	0.0153477
855.146	0.0153604
855.224	0.0153123
855.302	0.0152676
855.380	0.0152657
855.458	0.0151114
855.536	0.0152985
855.614	0.0152877
855.693	0.0152293
855.771	0.0151376
855.849	0.0151884
855.927	0.0152276
856.005	0.0152063
856.083	0.0151128
856.161	0.0151291
856.239	0.0154369
856.318	0.0154111
856.396	0.0153770
856.474	0.0155230
856.552	0.0153654
856.630	0.0153351
856.708	0.0153436
856.786	0.0154558
856.864	0.0153201
856.943	0.0153429
857.021	0.0153362
857.099	0.0154897
857.177	0.0154440
857.255	0.0154445
857.333	0.0153329
857.411	0.0153043
857.489	0.0153822
857.568	0.0153751
857.646	0.0152333
857.724	0.0153439
857.802	0.0152345
857.880	0.0152953
857.958	0.0152765
858.036	0.0152607
858.114	0.0151781
858.193	0.0152044
858.271	0.0153577
858.349	0.0153942
858.427	0.0152624
858.505	0.0152613
858.583	0.0152469
858.661	0.0154295
858.739	0.0153545
858.818	0.0153326
858.896	0.0152054
858.974	0.0152032
859.052	0.0152357
859.130	0.0152836
859.208	0.0153109
859.286	0.0153022
859.364	0.0152774
859.443	0.0151357
859.521	0.0153608
859.599	0.0153565
859.677	0.0153053
859.755	0.0151842
859.833	0.0153889
859.911	0.0153780
859.989	0.0153293
860.068	0.0153705
860.146	0.0153834
860.224	0.0152769
860.302	0.0154063
860.380	0.0152552
860.458	0.0152843
860.536	0.0152291
860.614	0.0154270
860.693	0.0153607
860.771	0.0151975
860.849	0.0152483
860.927	0.0151236
861.005	0.0153037
861.083	0.0152131
861.161	0.0153001
861.239	0.0153136
861.318	0.0152673
861.396	0.0154937
861.474	0.0153954
861.552	0.0153101
861.630	0.0152711
861.708	0.0153613
861.786	0.0154767
861.864	0.0155056
861.943	0.0154008
862.021	0.0153790
862.099	0.0154554
862.177	0.0154539
862.255	0.0152177
862.333	0.0154741
862.411	0.0153263
862.489	0.0152732
862.568	0.0154877
862.646	0.0152351
862.724	0.0153749
862.802	0.0152010
862.880	0.0152622
862.958	0.0153222
863.036	0.0152132
863.114	0.0152204
863.193	0.0150347
863.271	0.0151042
863.349	0.0151640
863.427	0.0150642
863.505	0.0152588
863.583	0.0152232
863.661	0.0151871
863.739	0.0151189
863.818	0.0153955
863.896	0.0154095
863.974	0.0153343
864.052	0.0152541
864.130	0.0152678
864.208	0.0153944
864.286	0.0153215
864.364	0.0154615
864.443	0.0153442
864.521	0.0153207
864.599	0.0152507
864.677	0.0153241
864.755	0.0153618
864.833	0.0153442
864.911	0.0152513
864.989	0.0152750
865.068	0.0152935
865.146	0.0153362
865.224	0.0153865
865.302	0.0153315
865.380	0.0154090
865.458	0.0152907
865.536	0.0153075
865.614	0.0152119
865.693	0.0151942
865.771	0.0151513
865.849	0.0153495
865.927	0.0151398
866.005	0.0151864
866.083	0.0152362
866.161	0.0152199
866.239	0.0152639
866.318	0.0151273
866.396	0.0150864
866.474	0.0153719
866.552	0.0153923
866.630	0.0152806
866.708	0.0152097
866.786	0.0153053
866.864	0.0152367
866.943	0.0153850
867.021	0.0153405
867.099	0.0151574
867.177	0.0152094
867.255	0.0154711
867.333	0.0153999
867.411	0.0153086
867.489	0.0152766
867.568	0.0152232
867.646	0.0152208
867.724	0.0152973
867.802	0.0153239
867.880	0.0152921
867.958	0.0152815
868.036	0.0153108
868.114	0.0152605
868.193	0.0152444
868.271	0.0152743
868.349	0.0151872
868.427	0.0151732
868.505	0.0154379
868.583	0.0153765
868.661	0.0153471
868.739	0.0153064
868.818	0.0152868
868.896	0.0152654
868.974	0.0153719
869.052	0.0154972
869.130	0.0154523
869.208	0.0153645
869.286	0.0154053
869.364	0.0154752
869.443	0.0155386
869.521	0.0154660
869.599	0.0155375
869.677	0.0155814
869.755	0.0154583
869.833	0.0155577
869.911	0.0154839
869.989	0.0154795
870.068	0.0153850
870.146	0.0154323
870.224	0.0153595
870.302	0.0153618
870.380	0.0152740
870.458	0.0152112
870.536	0.0152803
870.614	0.0151997
870.693	0.0152269
870.771	0.0151838
870.849	0.0151779
870.927	0.0152592
871.005	0.0152038
871.083	0.0152364
871.161	0.0151762
871.239	0.0151267
871.318	0.0150974
871.396	0.0152534
871.474	0.0152948
871.552	0.0152956
871.630	0.0153693
871.708	0.0153330
871.786	0.0154229
871.864	0.0152811
871.943	0.0151241
872.021	0.0152618
872.099	0.0154125
872.177	0.0153633
872.255	0.0152215
872.333	0.0152217
872.411	0.0153337
872.489	0.0154803
872.568	0.0153852
872.646	0.0153589
872.724	0.0153976
872.802	0.0153361
872.880	0.0153757
872.958	0.0153324
873.036	0.0153728
873.114	0.0154741
873.193	0.0154552
873.271	0.0152774
873.349	0.0152229
873.427	0.0152880
873.505	0.0152287
873.583	0.0151686
873.661	0.0153683
873.739	0.0151717
873.818	0.0153706
873.896	0.0151573
873.974	0.0151343
874.052	0.0151939
874.130	0.0151665
874.208	0.0153806
874.286	0.0152340
874.364	0.0151400
874.443	0.0152369
874.521	0.0152158
874.599	0.0151344
874.677	0.0151176
874.755	0.0152766
874.833	0.0153243
874.911	0.0152823
874.989	0.0153109
875.068	0.0152725
875.146	0.0153053
875.224	0.0152430
875.302	0.0152943
875.380	0.0153224
875.458	0.0152616
875.536	0.0153629
875.614	0.0153133
875.693	0.0152613
875.771	0.0153526
875.849	0.0152862
875.927	0.0151859
876.005	0.0152589
876.083	0.0152931
876.161	0.0152234
876.239	0.0153114
876.318	0.0153925
876.396	0.0152834
876.474	0.0153493
876.552	0.0151343
876.630	0.0152240
876.708	0.0152039
876.786	0.0150383
876.864	0.0152638
876.943	0.0152537
877.021	0.0151630
877.099	0.0151965
877.177	0.0151479
877.255	0.0152131
877.333	0.0152128
877.411	0.0152020
877.489	0.0152747
877.568	0.0152689
877.646	0.0152955
877.724	0.0152091
877.802	0.0153349
877.880	0.0153406
877.958	0.0152575
878.036	0.0152410
878.114	0.0152702
878.193	0.0153008
878.271	0.0153930
878.349	0.0153741
878.427	0.0154069
878.505	0.0154404
878.583	0.0154044
878.661	0.0152768
878.739	0.0152218
878.818	0.0152465
878.896	0.0154401
878.974	0.0153747
879.052	0.0152292
879.130	0.0151896
879.208	0.0153004
879.286	0.0153245
879.364	0.0153548
879.443	0.0152138
879.521	0.0153175
879.599	0.0152786
879.677	0.0152998
879.755	0.0152945
879.833	0.0153798
879.911	0.0152666
879.989	0.0152084
880.068	0.0153440
880.146	0.0152047
880.224	0.0152828
880.302	0.0152642
880.380	0.0151426
880.458	0.0152598
880.536	0.0150739
880.614	0.0151972
880.693	0.0151722
880.771	0.0153073
880.849	0.0153294
880.927	0.0154977
881.005	0.0153087
881.083	0.0155432
881.161	0.0156564
881.239	0.0156876
881.318	0.0155649
881.396	0.0155547
881.474	0.0154516
881.552	0.0154584
881.630	0.0154828
881.708	0.0154214
881.786	0.0152424
881.864	0.0150845
881.943	0.0149358
882.021	0.0148771
882.099	0.0147794
882.177	0.0146567
882.255	0.0147906
882.333	0.0147843
882.411	0.0148306
882.489	0.0148006
882.568	0.0149716
882.646	0.0151317
882.724	0.0152010
882.802	0.0154981
882.880	0.0157121
882.958	0.0156041
883.036	0.0157594
883.114	0.0158955
883.193	0.0157998
883.271	0.0158292
883.349	0.0158064
883.427	0.0156122
883.505	0.0156126
883.583	0.0155135
883.661	0.0152119
883.739	0.0151767
883.818	0.0148370
883.896	0.0148203
883.974	0.0147093
884.052	0.0145113
884.130	0.0144810
884.208	0.0144528
884.286	0.0144994
884.364	0.0145385
884.443	0.0144553
884.521	0.0147140
884.599	0.0147814
884.677	0.0148618
884.755	0.0149646
884.833	0.0152811
884.911	0.0155315
884.989	0.0157984
885.068	0.0159683
885.146	0.0161146
885.224	0.0163962
885.302	0.0164282
885.380	0.0164262
885.458	0.0163634
885.536	0.0163121
885.614	0.0163362
885.693	0.0162321
885.771	0.0159821
885.849	0.0158123
885.927	0.0154115
886.005	0.0152706
886.083	0.0150529
886.161	0.0148434
886.239	0.0146618
886.318	0.0143668
886.396	0.0143426
886.474	0.0143115
886.552	0.0141387
886.630	0.0142403
886.708	0.0142747
886.786	0.0143443
886.864	0.0144202
886.943	0.0147334
887.021	0.0147453
887.099	0.0148986
887.177	0.0149765
887.255	0.0153071
887.333	0.0154234
887.411	0.0153770
887.489	0.0157291
887.568	0.0158002
887.646	0.0157708
887.724	0.0159730
887.802	0.0158592
887.880	0.0160589
887.958	0.0159177
888.036	0.0157746
888.114	0.0158480
888.193	0.0157658
888.271	0.0156672
888.349	0.0154882
888.427	0.0153343
888.505	0.0152338
888.583	0.0152005
888.661	0.0150780
888.739	0.0150093
888.818	0.0149318
888.896	0.0146944
888.974	0.0146902
889.052	0.0146843
889.130	0.0147125
889.208	0.0146458
889.286	0.0147318
889.364	0.0146975
889.443	0.0148497
889.521	0.0149418
889.599	0.0148094
889.677	0.0148622
889.755	0.0150974
889.833	0.0151556
889.911	0.0152085
889.989	0.0152912
890.068	0.0154380
890.146	0.0153755
890.224	0.0153812
890.302	0.0155399
890.380	0.0155214
890.458	0.0155029
890.536	0.0156044
890.614	0.0156331
890.693	0.0155324
890.771	0.0155228
890.849	0.0154333
890.927	0.0154190
891.005	0.0154563
891.083	0.0153195
891.161	0.0152879
891.239	0.0152744
891.318	0.0153627
891.396	0.0151917
891.474	0.0152197
891.552	0.0152945
891.630	0.0151057
891.708	0.0150437
891.786	0.0150923
891.864	0.0151062
891.943	0.0151428
892.021	0.0151144
892.099	0.0151302
892.177	0.0152962
892.255	0.0152533
892.333	0.0153683
892.411	0.0154311
892.489	0.0153323
892.568	0.0154145
892.646	0.0154279
892.724	0.0153470
892.802	0.0154270
892.880	0.0154910
892.958	0.0155298
893.036	0.0155190
893.114	0.0153882
893.193	0.0155177
893.271	0.0154944
893.349	0.0154015
893.427	0.0153812
893.505	0.0152589
893.583	0.0151631
893.661	0.0152432
893.739	0.0151123
893.818	0.0150569
893.896	0.0150834
893.974	0.0150662
894.052	0.0150723
894.130	0.0149917
894.208	0.0149285
894.286	0.0150823
894.364	0.0149705
894.443	0.0149403
894.521	0.0150260
894.599	0.0149138
894.677	0.0149765
894.755	0.0150761
894.833	0.0151375
894.911	0.0152148
894.989	0.0152420
895.068	0.0152604
895.146	0.0154034
895.224	0.0154396
895.302	0.0154074
895.380	0.0154057
895.458	0.0154431
895.536	0.0155753
895.614	0.0154039
895.693	0.0153652
895.771	0.0155060
895.849	0.0152975
895.927	0.0153608
896.005	0.0152969
896.083	0.0152825
896.161	0.0152170
896.239	0.0153905
896.318	0.0153000
896.396	0.0153500
896.474	0.0152387
896.552	0.0151507
896.630	0.0152218
896.708	0.0152457
896.786	0.0152184
896.864	0.0152335
896.943	0.0149753
897.021	0.0151183
897.099	0.0152161
897.177	0.0151729
897.255	0.0150639
897.333	0.0150099
897.411	0.0150912
897.489	0.0151569
897.568	0.0149783
897.646	0.0150837
897.724	0.0151753
897.802	0.0151914
897.880	0.0151599
897.958	0.0151661
898.036	0.0151244
898.114	0.0152023
898.193	0.0150980
898.271	0.0152699
898.349	0.0153965
898.427	0.0153362
898.505	0.0152325
898.583	0.0152849
898.661	0.0152203
898.739	0.0152004
898.818	0.0153271
898.896	0.0152905
898.974	0.0152186
899.052	0.0152246
899.130	0.0151220
899.208	0.0152061
899.286	0.0151528
899.364	0.0150962
899.443	0.0150735
899.521	0.0152111
899.599	0.0151356
899.677	0.0150338
899.755	0.0150963
899.833	0.0151818
899.911	0.0153005
899.989	0.0151915
900.068	0.0151334
900.146	0.0153127
900.224	0.0152795
900.302	0.0150277
900.380	0.0151687
900.458	0.0153376
900.536	0.0153581
900.614	0.0153443
900.693	0.0152046
900.771	0.0152238
900.849	0.0154080
900.927	0.0151852
901.005	0.0152571
901.083	0.0153342
901.161	0.0151412
901.239	0.0152038
901.318	0.0151199
901.396	0.0151745
901.474	0.0151619
901.552	0.0152162
901.630	0.0151435
901.708	0.0151807
901.786	0.0150783
901.864	0.0151823
901.943	0.0151888
902.021	0.0152328
902.099	0.0151424
902.177	0.0151173
902.255	0.0151463
902.333	0.0151625
902.411	0.0151027
902.489	0.0152204
902.568	0.0153096
902.646	0.0150017
902.724	0.0150036
902.802	0.0151091
902.880	0.0149772
902.958	0.0149719
903.036	0.0150252
903.114	0.0150371
903.193	0.0150435
903.271	0.0151275
903.349	0.0151503
903.427	0.0152857
903.505	0.0152250
903.583	0.0152718
903.661	0.0152128
903.739	0.0152957
903.818	0.0153207
903.896	0.0154494
903.974	0.0154266
904.052	0.0153922
904.130	0.0154408
904.208	0.0155189
904.286	0.0153977
904.364	0.0152520
904.443	0.0153523
904.521	0.0154550
904.599	0.0153519
904.677	0.0153069
904.755	0.0152676
904.833	0.0152975
904.911	0.0152847
904.989	0.0153183
905.068	0.0151431
905.146	0.0152383
905.224	0.0151577
905.302	0.0152110
905.380	0.0152519
905.458	0.0150619
905.536	0.0151652
905.614	0.0152660
905.693	0.0153347
905.771	0.0152546
905.849	0.0154343
905.927	0.0153471
906.005	0.0152844
906.083	0.0152335
906.161	0.0154060
906.239	0.0153847
906.318	0.0153745
906.396	0.0154080
906.474	0.0153035
906.552	0.0153767
906.630	0.0153006
906.708	0.0152006
906.786	0.0151321
906.864	0.0152132
906.943	0.0152134
907.021	0.0152907
907.099	0.0152818
907.177	0.0152200
907.255	0.0152871
907.333	0.0153099
907.411	0.0151298
907.489	0.0151286
907.568	0.0151849
907.646	0.0152760
907.724	0.0151994
907.802	0.0151671
907.880	0.0152721
907.958	0.0152193
908.036	0.0152685
908.114	0.0151321
908.193	0.0153202
908.271	0.0153549
908.349	0.0153199
908.427	0.0152724
908.505	0.0152255
908.583	0.0153944
908.661	0.0154288
908.739	0.0152589
908.818	0.0153194
908.896	0.0154325
908.974	0.0153217
909.052	0.0154298
909.130	0.0154678
909.208	0.0153819
909.286	0.0154433
909.364	0.0154557
909.443	0.0153691
909.521	0.0154350
909.599	0.0153676
909.677	0.0151423
909.755	0.0152957
909.833	0.0150788
909.911	0.0150246
909.989	0.0151620
910.068	0.0150742
910.146	0.0149721
910.224	0.0149798
910.302	0.0150665
910.380	0.0150635
910.458	0.0149559
910.536	0.0149153
910.614	0.0149737
910.693	0.0149892
910.771	0.0150201
910.849	0.0150964
910.927	0.0151505
911.005	0.0151865
911.083	0.0151067
911.161	0.0150674
911.239	0.0152551
911.318	0.0151450
911.396	0.0151154
911.474	0.0152262
911.552	0.0152882
911.630	0.0151662
911.708	0.0153636
911.786	0.0152004
911.864	0.0153387
911.943	0.0153580
912.021	0.0153735
912.099	0.0152640
912.177	0.0152493
912.255	0.0153333
912.333	0.0152795
912.411	0.0153110
912.489	0.0153564
912.568	0.0154082
912.646	0.0153265
912.724	0.0153815
912.802	0.0153220
912.880	0.0153450
912.958	0.0153291
913.036	0.0153117
913.114	0.0152997
913.193	0.0151191
913.271	0.0152374
913.349	0.0153156
913.427	0.0151276
913.505	0.0150880
913.583	0.0150450
913.661	0.0151723
913.739	0.0151985
913.818	0.0150158
913.896	0.0150584
913.974	0.0152762
914.052	0.0150751
914.130	0.0152547
914.208	0.0152823
914.286	0.0151073
914.364	0.0150537
914.443	0.0152383
914.521	0.0152640
914.599	0.0152105
914.677	0.0152721
914.755	0.0153431
914.833	0.0151647
914.911	0.0152460
914.989	0.0152541
915.068	0.0152637
915.146	0.0153298
915.224	0.0152253
915.302	0.0152052
915.380	0.0153279
915.458	0.0152012
915.536	0.0152336
915.614	0.0151460
915.693	0.0152336
915.771	0.0151298
915.849	0.0151258
915.927	0.0151073
916.005	0.0150025
916.083	0.0151168
916.161	0.0151913
916.239	0.0151547
916.318	0.0150810
916.396	0.0151990
916.474	0.0151621
916.552	0.0150596
916.630	0.0153560
916.708	0.0151899
916.786	0.0151562
916.864	0.0153015
916.943	0.0151482
917.021	0.0152161
917.099	0.0152618
917.177	0.0152590
917.255	0.0150429
917.333	0.0152305
917.411	0.0152145
917.489	0.0151032
917.568	0.0151566
917.646	0.0151319
917.724	0.0152507
917.802	0.0152175
917.880	0.0152164
917.958	0.0152618
918.036	0.0150584
918.114	0.0150681
918.193	0.0150848
918.271	0.0151162
918.349	0.0152991
918.427	0.0151321
918.505	0.0151398
918.583	0.0152911
918.661	0.0153222
918.739	0.0151267
918.818	0.0151495
918.896	0.0150629
918.974	0.0154493
919.052	0.0153025
919.130	0.0153165
919.208	0.0150904
919.286	0.0151936
919.364	0.0152013
919.443	0.0152274
919.521	0.0151953
919.599	0.0151405
919.677	0.0153469
919.755	0.0152809
919.833	0.0152622
919.911	0.0152725
919.989	0.0151572
920.068	0.0152642
920.146	0.0152509
920.224	0.0152299
920.302	0.0153346
920.380	0.0153618
920.458	0.0153081
920.536	0.0151865
920.614	0.0152847
920.693	0.0152394
920.771	0.0152729
920.849	0.0152239
920.927	0.0151846
921.005	0.0153583
921.083	0.0152995
921.161	0.0152743
921.239	0.0152788
921.318	0.0152686
921.396	0.0151668
921.474	0.0151373
921.552	0.0152390
921.630	0.0152110
921.708	0.0151663
921.786	0.0151588
921.864	0.0152290
921.943	0.0153396
922.021	0.0154272
922.099	0.0153185
922.177	0.0152503
922.255	0.0152569
922.333	0.0152686
922.411	0.0153447
922.489	0.0153881
922.568	0.0151581
922.646	0.0153505
922.724	0.0153920
922.802	0.0153080
922.880	0.0153319
922.958	0.0153184
923.036	0.0155068
923.114	0.0152224
923.193	0.0155687
923.271	0.0153275
923.349	0.0153396
923.427	0.0154558
923.505	0.0153715
923.583	0.0153859
923.661	0.0153203
923.739	0.0153410
923.818	0.0153380
923.896	0.0152184
923.974	0.0152695
924.052	0.0151723
924.130	0.0152524
924.208	0.0150710
924.286	0.0152166
924.364	0.0150571
924.443	0.0152221
924.521	0.0152278
924.599	0.0150382
924.677	0.0152430
924.755	0.0153399
924.833	0.0151785
924.911	0.0153006
924.989	0.0151460
925.068	0.0152536
925.146	0.0155328
925.224	0.0153658
925.302	0.0154211
925.380	0.0153408
925.458	0.0153544
925.536	0.0155469
925.614	0.0155718
925.693	0.0153495
925.771	0.0153517
925.849	0.0154412
925.927	0.0153433
926.005	0.0153646
926.083	0.0152660
926.161	0.0151926
926.239	0.0153721
926.318	0.0154718
926.396	0.0151543
926.474	0.0151949
926.552	0.0152400
926.630	0.0152960
926.708	0.0152292
926.786	0.0151448
926.864	0.0152171
926.943	0.0151336
927.021	0.0152717
927.099	0.0152467
927.177	0.0150891
927.255	0.0153660
927.333	0.0152434
927.411	0.0152618
927.489	0.0151881
927.568	0.0152875
927.646	0.0152568
927.724	0.0153718
927.802	0.0152373
927.880	0.0153265
927.958	0.0153544
928.036	0.0154839
928.114	0.0154275
928.193	0.0153867
928.271	0.0153824
928.349	0.0152685
928.427	0.0153747
928.505	0.0152689
928.583	0.0152431
928.661	0.0151666
928.739	0.0151318
928.818	0.0153935
928.896	0.0153358
928.974	0.0152775
929.052	0.0152560
929.130	0.0152173
929.208	0.0152588
929.286	0.0153625
929.364	0.0154039
929.443	0.0153498
929.521	0.0153243
929.599	0.0154005
929.677	0.0154588
929.755	0.0153983
929.833	0.0152331
929.911	0.0153334
929.989	0.0152747
930.068	0.0154112
930.146	0.0153632
930.224	0.0152505
930.302	0.0152633
930.380	0.0151978
930.458	0.0153201
930.536	0.0153695
930.614	0.0152329
930.693	0.0152440
930.771	0.0152061
930.849	0.0153046
930.927	0.0153467
931.005	0.0151331
931.083	0.0152917
931.161	0.0153156
931.239	0.0152219
931.318	0.0151816
931.396	0.0152475
931.474	0.0152486
931.552	0.0152726
931.630	0.0153698
931.708	0.0151318
931.786	0.0152427
931.864	0.0153337
931.943	0.0152377
932.021	0.0153333
932.099	0.0151460
932.177	0.0152542
932.255	0.0152879
932.333	0.0152265
932.411	0.0152717
932.489	0.0153257
932.568	0.0153946
932.646	0.0153563
932.724	0.0151770
932.802	0.0151930
932.880	0.0152468
932.958	0.0152047
933.036	0.0153775
933.114	0.0152737
933.193	0.0153589
933.271	0.0152578
933.349	0.0152340
933.427	0.0152174
933.505	0.0152258
933.583	0.0152275
933.661	0.0152035
933.739	0.0151878
933.818	0.0152026
933.896	0.0151754
933.974	0.0150916
934.052	0.0151466
934.130	0.0152900
934.208	0.0152654
934.286	0.0152727
934.364	0.0152179
934.443	0.0151983
934.521	0.0153320
934.599	0.0151307
934.677	0.0151185
934.755	0.0152522
934.833	0.0151945
934.911	0.0152194
934.989	0.0153162
935.068	0.0152162
935.146	0.0151899
935.224	0.0151049
935.302	0.0153389
935.380	0.0152379
935.458	0.0152743
935.536	0.0152270
935.614	0.0152911
935.693	0.0153831
935.771	0.0152244
935.849	0.0152089
935.927	0.0151919
936.005	0.0152216
936.083	0.0152936
936.161	0.0153078
936.239	0.0152306
936.318	0.0150938
936.396	0.0151883
936.474	0.0154113
936.552	0.0155378
936.630	0.0153088
936.708	0.0151037
936.786	0.0153019
936.864	0.0151837
936.943	0.0152324
937.021	0.0151933
937.099	0.0153481
937.177	0.0152570
937.255	0.0152224
937.333	0.0152066
937.411	0.0152452
937.489	0.0152889
937.568	0.0153368
937.646	0.0153126
937.724	0.0153529
937.802	0.0154302
937.880	0.0153052
937.958	0.0152819
938.036	0.0152438
938.114	0.0155135
938.193	0.0154750
938.271	0.0152337
938.349	0.0153931
938.427	0.0153987
938.505	0.0153741
938.583	0.0154038
938.661	0.0152479
938.739	0.0152798
938.818	0.0152358
938.896	0.0152869
938.974	0.0151866
939.052	0.0151472
939.130	0.0151336
939.208	0.0151121
939.286	0.0152971
939.364	0.0150075
939.443	0.0152018
939.521	0.0152454
939.599	0.0151447
939.677	0.0150605
939.755	0.0150972
939.833	0.0152011
939.911	0.0151572
939.989	0.0151611
940.068	0.0151082
940.146	0.0152487
940.224	0.0153650
940.302	0.0153592
940.380	0.0152160
940.458	0.0155099
940.536	0.0154237
940.614	0.0153403
940.693	0.0153951
940.771	0.0154964
940.849	0.0153844
940.927	0.0154466
941.005	0.0155214
941.083	0.0154913
941.161	0.0155448
941.239	0.0154858
941.318	0.0153937
941.396	0.0153983
941.474	0.0153258
941.552	0.0153575
941.630	0.0152163
941.708	0.0151488
941.786	0.0151400
941.864	0.0151218
941.943	0.0151237
942.021	0.0150506
942.099	0.0150602
942.177	0.0149397
942.255	0.0148961
942.333	0.0150967
942.411	0.0151178
942.489	0.0150425
942.568	0.0150589
942.646	0.0150597
942.724	0.0152115
942.802	0.0154498
942.880	0.0153646
942.958	0.0153885
943.036	0.0152959
943.114	0.0153294
943.193	0.0153739
943.271	0.0154940
943.349	0.0154825
943.427	0.0153326
943.505	0.0155204
943.583	0.0154691
943.661	0.0154317
943.739	0.0153946
943.818	0.0153301
943.896	0.0155513
943.974	0.0154393
944.052	0.0153407
944.130	0.0153380
944.208	0.0153761
944.286	0.0153849
944.364	0.0154426
944.443	0.0152486
944.521	0.0153773
944.599	0.0154029
944.677	0.0153546
944.755	0.0152438
944.833	0.0152357
944.911	0.0152978
944.989	0.0152868
945.068	0.0152009
945.146	0.0151809
945.224	0.0151424
945.302	0.0153107
945.380	0.0152779
945.458	0.0151813
945.536	0.0152560
945.614	0.0153567
945.693	0.0153215
945.771	0.0152432
945.849	0.0150675
945.927	0.0153217
946.005	0.0153139
946.083	0.0152988
946.161	0.0153023
946.239	0.0153319
946.318	0.0152598
946.396	0.0152049
946.474	0.0153532
946.552	0.0152632
946.630	0.0152955
946.708	0.0153076
946.786	0.0152213
946.864	0.0153226
946.943	0.0152539
947.021	0.0151399
947.099	0.0151667
947.177	0.0151874
947.255	0.0152973
947.333	0.0152670
947.411	0.0152774
947.489	0.0153029
947.568	0.0152776
947.646	0.0153809
947.724	0.0152635
947.802	0.0154432
947.880	0.0154459
947.958	0.0154399
948.036	0.0152908
948.114	0.0154050
948.193	0.0153549
948.271	0.0152195
948.349	0.0153224
948.427	0.0152292
948.505	0.0153225
948.583	0.0153326
948.661	0.0153516
948.739	0.0153956
948.818	0.0152684
948.896	0.0153300
948.974	0.0152380
949.052	0.0153368
949.130	0.0154874
949.208	0.0153041
949.286	0.0154892
949.364	0.0155370
949.443	0.0153243
949.521	0.0153419
949.599	0.0153138
949.677	0.0152299
949.755	0.0152367
949.833	0.0153336
949.911	0.0152735
949.989	0.0152792
950.068	0.0152421
950.146	0.0153713
950.224	0.0153358
950.302	0.0152473
950.380	0.0150765
950.458	0.0153194
950.536	0.0152256
950.614	0.0152148
950.693	0.0152308
950.771	0.0151208
950.849	0.0151264
950.927	0.0152518
951.005	0.0152438
951.083	0.0152023
951.161	0.0153145
951.239	0.0151939
951.318	0.0153741
951.396	0.0151937
951.474	0.0153566
951.552	0.0153810
951.630	0.0154010
951.708	0.0153950
951.786	0.0153876
951.864	0.0154431
951.943	0.0154114
952.021	0.0154469
952.099	0.0153631
952.177	0.0154335
952.255	0.0154475
952.333	0.0154416
952.411	0.0153697
952.489	0.0153794
952.568	0.0153134
952.646	0.0153273
952.724	0.0151907
952.802	0.0152200
952.880	0.0153102
952.958	0.0151447
953.036	0.0150807
953.114	0.0151889
953.193	0.0151250
953.271	0.0153503
953.349	0.0153346
953.427	0.0152016
953.505	0.0152704
953.583	0.0151415
953.661	0.0152351
953.739	0.0152397
953.818	0.0150695
953.896	0.0151705
953.974	0.0152985
954.052	0.0153996
954.130	0.0152693
954.208	0.0153587
954.286	0.0152740
954.364	0.0153490
954.443	0.0154749
954.521	0.0153478
954.599	0.0153516
954.677	0.0153196
954.755	0.0153950
954.833	0.0154333
954.911	0.0152354
954.989	0.0153873
955.068	0.0152524
955.146	0.0152235
955.224	0.0153341
955.302	0.0152909
955.380	0.0153862
955.458	0.0152632
955.536	0.0152866
955.614	0.0153055
955.693	0.0152824
955.771	0.0152712
955.849	0.0152956
955.927	0.0152985
956.005	0.0152569
956.083	0.0152200
956.161	0.0152613
956.239	0.0152605
956.318	0.0152419
956.396	0.0151838
956.474	0.0152642
956.552	0.0152285
956.630	0.0153965
956.708	0.0153123
956.786	0.0154108
956.864	0.0153771
956.943	0.0152758
957.021	0.0153745
957.099	0.0153646
957.177	0.0153024
957.255	0.0153233
957.333	0.0153973
957.411	0.0152212
957.489	0.0154952
957.568	0.0153274
957.646	0.0154034
957.724	0.0153418
957.802	0.0152988
957.880	0.0153339
957.958	0.0153210
958.036	0.0153014
958.114	0.0153813
958.193	0.0153312
958.271	0.0152697
958.349	0.0152689
958.427	0.0152586
958.505	0.0153070
958.583	0.0152129
958.661	0.0152909
958.739	0.0152740
958.818	0.0151646
958.896	0.0151598
958.974	0.0151348
959.052	0.0153916
959.130	0.0152689
959.208	0.0153070
959.286	0.0152741
959.364	0.0153974
959.443	0.0153114
959.521	0.0152741
959.599	0.0152885
959.677	0.0152104
959.755	0.0152962
959.833	0.0152837
959.911	0.0152057
