05/20/2022	17:16:20	Ver.	4.1	UNKNOWN
Optical Delay	639.982744	Delta X		0.078125	Sweeps	1	Scan Rate	0/0
Coordinates	Axis 1	NaN	Axis 2	NaN	Axis 3	NaN	Axis 4	NaN	Axis 5	NaN	Axis 6	0.000000
TX Power	0.000000	RX Power	0.000000

639.983	0.0154453
640.061	0.0154090
640.139	0.0154404
640.217	0.0152869
640.295	0.0154570
640.373	0.0154043
640.451	0.0154269
640.530	0.0154214
640.608	0.0154782
640.686	0.0154634
640.764	0.0154700
640.842	0.0155050
640.920	0.0155798
640.998	0.0155515
641.076	0.0153844
641.155	0.0155530
641.233	0.0154658
641.311	0.0155446
641.389	0.0153951
641.467	0.0154823
641.545	0.0154409
641.623	0.0154875
641.701	0.0153819
641.780	0.0154569
641.858	0.0155949
641.936	0.0153916
642.014	0.0155263
642.092	0.0154505
642.170	0.0156310
642.248	0.0154309
642.326	0.0152673
642.405	0.0151555
642.483	0.0153228
642.561	0.0154603
642.639	0.0153603
642.717	0.0152365
642.795	0.0152698
642.873	0.0153466
642.951	0.0154681
643.030	0.0154491
643.108	0.0153480
643.186	0.0153610
643.264	0.0153970
643.342	0.0154755
643.420	0.0153236
643.498	0.0153810
643.576	0.0155113
643.655	0.0153794
643.733	0.0154199
643.811	0.0155565
643.889	0.0154944
643.967	0.0153553
644.045	0.0153590
644.123	0.0154628
644.201	0.0154254
644.280	0.0154562
644.358	0.0154333
644.436	0.0154731
644.514	0.0154283
644.592	0.0153699
644.670	0.0153812
644.748	0.0153288
644.826	0.0153844
644.905	0.0154859
644.983	0.0154672
645.061	0.0154078
645.139	0.0153503
645.217	0.0153913
645.295	0.0154732
645.373	0.0153483
645.451	0.0155353
645.530	0.0152929
645.608	0.0153093
645.686	0.0154882
645.764	0.0154077
645.842	0.0154047
645.920	0.0152579
645.998	0.0153752
646.076	0.0154630
646.155	0.0152762
646.233	0.0153270
646.311	0.0153221
646.389	0.0152570
646.467	0.0153172
646.545	0.0151968
646.623	0.0152095
646.701	0.0151854
646.780	0.0152480
646.858	0.0151991
646.936	0.0151396
647.014	0.0151995
647.092	0.0150919
647.170	0.0152075
647.248	0.0152235
647.326	0.0151633
647.405	0.0152274
647.483	0.0152831
647.561	0.0152383
647.639	0.0152419
647.717	0.0152416
647.795	0.0153891
647.873	0.0154225
647.951	0.0153212
648.030	0.0153942
648.108	0.0153896
648.186	0.0154063
648.264	0.0154128
648.342	0.0153870
648.420	0.0153201
648.498	0.0152505
648.576	0.0154499
648.655	0.0155011
648.733	0.0154687
648.811	0.0154710
648.889	0.0154672
648.967	0.0153730
649.045	0.0153391
649.123	0.0152506
649.201	0.0153524
649.280	0.0154064
649.358	0.0154360
649.436	0.0153868
649.514	0.0154460
649.592	0.0154574
649.670	0.0155544
649.748	0.0153821
649.826	0.0153656
649.905	0.0153551
649.983	0.0155328
650.061	0.0155701
650.139	0.0154309
650.217	0.0154327
650.295	0.0153903
650.373	0.0155324
650.451	0.0153797
650.530	0.0154076
650.608	0.0154126
650.686	0.0153268
650.764	0.0154921
650.842	0.0155147
650.920	0.0155284
650.998	0.0155493
651.076	0.0156039
651.155	0.0155180
651.233	0.0154492
651.311	0.0154646
651.389	0.0155981
651.467	0.0155509
651.545	0.0156129
651.623	0.0157191
651.701	0.0156133
651.780	0.0158284
651.858	0.0155879
651.936	0.0157023
652.014	0.0157619
652.092	0.0157149
652.170	0.0156855
652.248	0.0156503
652.326	0.0153998
652.405	0.0154709
652.483	0.0155522
652.561	0.0154988
652.639	0.0153746
652.717	0.0153714
652.795	0.0152085
652.873	0.0151518
652.951	0.0152787
653.030	0.0152534
653.108	0.0151318
653.186	0.0151700
653.264	0.0151907
653.342	0.0152946
653.420	0.0151553
653.498	0.0153524
653.576	0.0153574
653.655	0.0154216
653.733	0.0153989
653.811	0.0154042
653.889	0.0153532
653.967	0.0155115
654.045	0.0155070
654.123	0.0154697
654.201	0.0155939
654.280	0.0156788
654.358	0.0155624
654.436	0.0155640
654.514	0.0154387
654.592	0.0154091
654.670	0.0155156
654.748	0.0154789
654.826	0.0155181
654.905	0.0152940
654.983	0.0153596
655.061	0.0153963
655.139	0.0153603
655.217	0.0152055
655.295	0.0152378
655.373	0.0153513
655.451	0.0151780
655.530	0.0152640
655.608	0.0151871
655.686	0.0153683
655.764	0.0153038
655.842	0.0152934
655.920	0.0153619
655.998	0.0152888
656.076	0.0153198
656.155	0.0154437
656.233	0.0154780
656.311	0.0154806
656.389	0.0155470
656.467	0.0155017
656.545	0.0155564
656.623	0.0155703
656.701	0.0157059
656.780	0.0157868
656.858	0.0155642
656.936	0.0155704
657.014	0.0156857
657.092	0.0156038
657.170	0.0156547
657.248	0.0157610
657.326	0.0155643
657.405	0.0155060
657.483	0.0155488
657.561	0.0155098
657.639	0.0153429
657.717	0.0153517
657.795	0.0153186
657.873	0.0152859
657.951	0.0153303
658.030	0.0153181
658.108	0.0153284
658.186	0.0152055
658.264	0.0153168
658.342	0.0154166
658.420	0.0154893
658.498	0.0152471
658.576	0.0153043
658.655	0.0153433
658.733	0.0153590
658.811	0.0154185
658.889	0.0155476
658.967	0.0155170
659.045	0.0156565
659.123	0.0156787
659.201	0.0156658
659.280	0.0155657
659.358	0.0155173
659.436	0.0156756
659.514	0.0157046
659.592	0.0156989
659.670	0.0157619
659.748	0.0156567
659.826	0.0156609
659.905	0.0155621
659.983	0.0153780
660.061	0.0154158
660.139	0.0154230
660.217	0.0153352
660.295	0.0154258
660.373	0.0154289
660.451	0.0152827
660.530	0.0153016
660.608	0.0152802
660.686	0.0153101
660.764	0.0153304
660.842	0.0152328
660.920	0.0152983
660.998	0.0153905
661.076	0.0151396
661.155	0.0152975
661.233	0.0152029
661.311	0.0152116
661.389	0.0153724
661.467	0.0152990
661.545	0.0152434
661.623	0.0153699
661.701	0.0153624
661.780	0.0154340
661.858	0.0154871
661.936	0.0154198
662.014	0.0154443
662.092	0.0155936
662.170	0.0154475
662.248	0.0155267
662.326	0.0155722
662.405	0.0156521
662.483	0.0156400
662.561	0.0156424
662.639	0.0155007
662.717	0.0155260
662.795	0.0154443
662.873	0.0155439
662.951	0.0153830
663.030	0.0154928
663.108	0.0155505
663.186	0.0155700
663.264	0.0154776
663.342	0.0154850
663.420	0.0154372
663.498	0.0155715
663.576	0.0155499
663.655	0.0155938
663.733	0.0155405
663.811	0.0154655
663.889	0.0155154
663.967	0.0155834
664.045	0.0157495
664.123	0.0156038
664.201	0.0155123
664.280	0.0154916
664.358	0.0155624
664.436	0.0155331
664.514	0.0155778
664.592	0.0154773
664.670	0.0154354
664.748	0.0153497
664.826	0.0152970
664.905	0.0152996
664.983	0.0153261
665.061	0.0153689
665.139	0.0151524
665.217	0.0150302
665.295	0.0150371
665.373	0.0149609
665.451	0.0149991
665.530	0.0149418
665.608	0.0147741
665.686	0.0148442
665.764	0.0148843
665.842	0.0149161
665.920	0.0146857
665.998	0.0147930
666.076	0.0149023
666.155	0.0148774
666.233	0.0147898
666.311	0.0148675
666.389	0.0149947
666.467	0.0150525
666.545	0.0148707
666.623	0.0150367
666.701	0.0150938
666.780	0.0152953
666.858	0.0152668
666.936	0.0154622
667.014	0.0155507
667.092	0.0155832
667.170	0.0156422
667.248	0.0157201
667.326	0.0157854
667.405	0.0157999
667.483	0.0159697
667.561	0.0160217
667.639	0.0159974
667.717	0.0160761
667.795	0.0161900
667.873	0.0159937
667.951	0.0160222
668.030	0.0160661
668.108	0.0160297
668.186	0.0158495
668.264	0.0158830
668.342	0.0160034
668.420	0.0158673
668.498	0.0158671
668.576	0.0157955
668.655	0.0157352
668.733	0.0157838
668.811	0.0158541
668.889	0.0156633
668.967	0.0157095
669.045	0.0156510
669.123	0.0154819
669.201	0.0155801
669.280	0.0154816
669.358	0.0154140
669.436	0.0154746
669.514	0.0154181
669.592	0.0153587
669.670	0.0153643
669.748	0.0152862
669.826	0.0149895
669.905	0.0149970
669.983	0.0151531
670.061	0.0149879
670.139	0.0149787
670.217	0.0149466
670.295	0.0148374
670.373	0.0148164
670.451	0.0148113
670.530	0.0147329
670.608	0.0146883
670.686	0.0147764
670.764	0.0148296
670.842	0.0145356
670.920	0.0146690
670.998	0.0148015
671.076	0.0147310
671.155	0.0148676
671.233	0.0147801
671.311	0.0147887
671.389	0.0148289
671.467	0.0148689
671.545	0.0149517
671.623	0.0150372
671.701	0.0150938
671.780	0.0150985
671.858	0.0152142
671.936	0.0153330
672.014	0.0153287
672.092	0.0153910
672.170	0.0154951
672.248	0.0155885
672.326	0.0155322
672.405	0.0156769
672.483	0.0155872
672.561	0.0159513
672.639	0.0159108
672.717	0.0157500
672.795	0.0159863
672.873	0.0159188
672.951	0.0159753
673.030	0.0160516
673.108	0.0160348
673.186	0.0163013
673.264	0.0162988
673.342	0.0163448
673.420	0.0163953
673.498	0.0161732
673.576	0.0163026
673.655	0.0161240
673.733	0.0161028
673.811	0.0161887
673.889	0.0161857
673.967	0.0160809
674.045	0.0159714
674.123	0.0158408
674.201	0.0159084
674.280	0.0158064
674.358	0.0155247
674.436	0.0154556
674.514	0.0154684
674.592	0.0153737
674.670	0.0150681
674.748	0.0150046
674.826	0.0147806
674.905	0.0145876
674.983	0.0145625
675.061	0.0144067
675.139	0.0144424
675.217	0.0142123
675.295	0.0141325
675.373	0.0141522
675.451	0.0139730
675.530	0.0139935
675.608	0.0138845
675.686	0.0140466
675.764	0.0140073
675.842	0.0141389
675.920	0.0142598
675.998	0.0143123
676.076	0.0143123
676.155	0.0143105
676.233	0.0144845
676.311	0.0147904
676.389	0.0148160
676.467	0.0149735
676.545	0.0151978
676.623	0.0153964
676.701	0.0153825
676.780	0.0156729
676.858	0.0158889
676.936	0.0159854
677.014	0.0161384
677.092	0.0164713
677.170	0.0163776
677.248	0.0164473
677.326	0.0167193
677.405	0.0166747
677.483	0.0166393
677.561	0.0166051
677.639	0.0166120
677.717	0.0166225
677.795	0.0165620
677.873	0.0163555
677.951	0.0164549
678.030	0.0164868
678.108	0.0163548
678.186	0.0161613
678.264	0.0161005
678.342	0.0161230
678.420	0.0159678
678.498	0.0158868
678.576	0.0158099
678.655	0.0159460
678.733	0.0157939
678.811	0.0155560
678.889	0.0155442
678.967	0.0155730
679.045	0.0154746
679.123	0.0153454
679.201	0.0153364
679.280	0.0152033
679.358	0.0151683
679.436	0.0152362
679.514	0.0151447
679.592	0.0149419
679.670	0.0148578
679.748	0.0149668
679.826	0.0148638
679.905	0.0148833
679.983	0.0148945
680.061	0.0148843
680.139	0.0148795
680.217	0.0149046
680.295	0.0148470
680.373	0.0147527
680.451	0.0148320
680.530	0.0149162
680.608	0.0147642
680.686	0.0149583
680.764	0.0149026
680.842	0.0148467
680.920	0.0148253
680.998	0.0148907
681.076	0.0148942
681.155	0.0150414
681.233	0.0151728
681.311	0.0151745
681.389	0.0152063
681.467	0.0153729
681.545	0.0152281
681.623	0.0153747
681.701	0.0155273
681.780	0.0156467
681.858	0.0155198
681.936	0.0156272
682.014	0.0155888
682.092	0.0157684
682.170	0.0155851
682.248	0.0156717
682.326	0.0157058
682.405	0.0157076
682.483	0.0156617
682.561	0.0155692
682.639	0.0156988
682.717	0.0155311
682.795	0.0156286
682.873	0.0156268
682.951	0.0155915
683.030	0.0154482
683.108	0.0154184
683.186	0.0154526
683.264	0.0155041
683.342	0.0155434
683.420	0.0154615
683.498	0.0154916
683.576	0.0154091
683.655	0.0154221
683.733	0.0154118
683.811	0.0154338
683.889	0.0153767
683.967	0.0155344
684.045	0.0157027
684.123	0.0155743
684.201	0.0157256
684.280	0.0157610
684.358	0.0158829
684.436	0.0158707
684.514	0.0158649
684.592	0.0159972
684.670	0.0159626
684.748	0.0158823
684.826	0.0160094
684.905	0.0160218
684.983	0.0159315
685.061	0.0158392
685.139	0.0157680
685.217	0.0157042
685.295	0.0158241
685.373	0.0158652
685.451	0.0154840
685.530	0.0155003
685.608	0.0154589
685.686	0.0154513
685.764	0.0154045
685.842	0.0152848
685.920	0.0153003
685.998	0.0152483
686.076	0.0152798
686.155	0.0151656
686.233	0.0152309
686.311	0.0152169
686.389	0.0152397
686.467	0.0152754
686.545	0.0151655
686.623	0.0151811
686.701	0.0151589
686.780	0.0151570
686.858	0.0151292
686.936	0.0150577
687.014	0.0150063
687.092	0.0149982
687.170	0.0150034
687.248	0.0149438
687.326	0.0149409
687.405	0.0150359
687.483	0.0149921
687.561	0.0148470
687.639	0.0148953
687.717	0.0149866
687.795	0.0151613
687.873	0.0151404
687.951	0.0151759
688.030	0.0153089
688.108	0.0153011
688.186	0.0153892
688.264	0.0154221
688.342	0.0154030
688.420	0.0154122
688.498	0.0154579
688.576	0.0155219
688.655	0.0154318
688.733	0.0154646
688.811	0.0155906
688.889	0.0154572
688.967	0.0156860
689.045	0.0155997
689.123	0.0155620
689.201	0.0156637
689.280	0.0157668
689.358	0.0156010
689.436	0.0157249
689.514	0.0157748
689.592	0.0156459
689.670	0.0157018
689.748	0.0156174
689.826	0.0156548
689.905	0.0155354
689.983	0.0155861
690.061	0.0155300
690.139	0.0155295
690.217	0.0155226
690.295	0.0154553
690.373	0.0154292
690.451	0.0153381
690.530	0.0153604
690.608	0.0152872
690.686	0.0154535
690.764	0.0153730
690.842	0.0153442
690.920	0.0154594
690.998	0.0152339
691.076	0.0154147
691.155	0.0154989
691.233	0.0152769
691.311	0.0154630
691.389	0.0155398
691.467	0.0154496
691.545	0.0155162
691.623	0.0155325
691.701	0.0154683
691.780	0.0154038
691.858	0.0155277
691.936	0.0156088
692.014	0.0156526
692.092	0.0155752
692.170	0.0154788
692.248	0.0154053
692.326	0.0156352
692.405	0.0156800
692.483	0.0156349
692.561	0.0155428
692.639	0.0157354
692.717	0.0156921
692.795	0.0157812
692.873	0.0156767
692.951	0.0156856
693.030	0.0156905
693.108	0.0155791
693.186	0.0155936
693.264	0.0154913
693.342	0.0154111
693.420	0.0154617
693.498	0.0154912
693.576	0.0153755
693.655	0.0150945
693.733	0.0151714
693.811	0.0150777
693.889	0.0149986
693.967	0.0150676
694.045	0.0149100
694.123	0.0149319
694.201	0.0149409
694.280	0.0148768
694.358	0.0149191
694.436	0.0148364
694.514	0.0149188
694.592	0.0150758
694.670	0.0151237
694.748	0.0151155
694.826	0.0150439
694.905	0.0149868
694.983	0.0151751
695.061	0.0152457
695.139	0.0152696
695.217	0.0152048
695.295	0.0153003
695.373	0.0152973
695.451	0.0153304
695.530	0.0154324
695.608	0.0154019
695.686	0.0155247
695.764	0.0154724
695.842	0.0155810
695.920	0.0155698
695.998	0.0155216
696.076	0.0155506
696.155	0.0155632
696.233	0.0156464
696.311	0.0156013
696.389	0.0155709
696.467	0.0157933
696.545	0.0157463
696.623	0.0157915
696.701	0.0158193
696.780	0.0158396
696.858	0.0158559
696.936	0.0159873
697.014	0.0160494
697.092	0.0160243
697.170	0.0160672
697.248	0.0161777
697.326	0.0161407
697.405	0.0160509
697.483	0.0160707
697.561	0.0160626
697.639	0.0160158
697.717	0.0158524
697.795	0.0158090
697.873	0.0157912
697.951	0.0156587
698.030	0.0154958
698.108	0.0154420
698.186	0.0152796
698.264	0.0151788
698.342	0.0151516
698.420	0.0148745
698.498	0.0149317
698.576	0.0149593
698.655	0.0146178
698.733	0.0146772
698.811	0.0146543
698.889	0.0143737
698.967	0.0143318
699.045	0.0143890
699.123	0.0145289
699.201	0.0144402
699.280	0.0142797
699.358	0.0142870
699.436	0.0144486
699.514	0.0143604
699.592	0.0143891
699.670	0.0146021
699.748	0.0145927
699.826	0.0146486
699.905	0.0146198
699.983	0.0147449
700.061	0.0149609
700.139	0.0151926
700.217	0.0150113
700.295	0.0152184
700.373	0.0152210
700.451	0.0152725
700.530	0.0154845
700.608	0.0155610
700.686	0.0156078
700.764	0.0155865
700.842	0.0157529
700.920	0.0157177
700.998	0.0159860
701.076	0.0158533
701.155	0.0159563
701.233	0.0160556
701.311	0.0159759
701.389	0.0160159
701.467	0.0160085
701.545	0.0159388
701.623	0.0161580
701.701	0.0160284
701.780	0.0160670
701.858	0.0160853
701.936	0.0160423
702.014	0.0158827
702.092	0.0159205
702.170	0.0159237
702.248	0.0157854
702.326	0.0158474
702.405	0.0157072
702.483	0.0156454
702.561	0.0156542
702.639	0.0155708
702.717	0.0156306
702.795	0.0155511
702.873	0.0154925
702.951	0.0153714
703.030	0.0153175
703.108	0.0154584
703.186	0.0153749
703.264	0.0155129
703.342	0.0153400
703.420	0.0153132
703.498	0.0152910
703.576	0.0154054
703.655	0.0154157
703.733	0.0153852
703.811	0.0153398
703.889	0.0152747
703.967	0.0152832
704.045	0.0152174
704.123	0.0153155
704.201	0.0154001
704.280	0.0151339
704.358	0.0151180
704.436	0.0151556
704.514	0.0151232
704.592	0.0149728
704.670	0.0149290
704.748	0.0148503
704.826	0.0147945
704.905	0.0148124
704.983	0.0149047
705.061	0.0147946
705.139	0.0147151
705.217	0.0148367
705.295	0.0149313
705.373	0.0148450
705.451	0.0149168
705.530	0.0148845
705.608	0.0149286
705.686	0.0150346
705.764	0.0152679
705.842	0.0151951
705.920	0.0152632
705.998	0.0153565
706.076	0.0153376
706.155	0.0154926
706.233	0.0155553
706.311	0.0157793
706.389	0.0156802
706.467	0.0157809
706.545	0.0157508
706.623	0.0158104
706.701	0.0159004
706.780	0.0159895
706.858	0.0160689
706.936	0.0158822
707.014	0.0159164
707.092	0.0158437
707.170	0.0157409
707.248	0.0156715
707.326	0.0157778
707.405	0.0157045
707.483	0.0154817
707.561	0.0155048
707.639	0.0154633
707.717	0.0154082
707.795	0.0154051
707.873	0.0152759
707.951	0.0151397
708.030	0.0152502
708.108	0.0152817
708.186	0.0151046
708.264	0.0152445
708.342	0.0151567
708.420	0.0152374
708.498	0.0150381
708.576	0.0152662
708.655	0.0152802
708.733	0.0152656
708.811	0.0152045
708.889	0.0152908
708.967	0.0154453
709.045	0.0153997
709.123	0.0151985
709.201	0.0154755
709.280	0.0153907
709.358	0.0155127
709.436	0.0155132
709.514	0.0154380
709.592	0.0155816
709.670	0.0157509
709.748	0.0155512
709.826	0.0158434
709.905	0.0158101
709.983	0.0155238
710.061	0.0155607
710.139	0.0155553
710.217	0.0154382
710.295	0.0154765
710.373	0.0154006
710.451	0.0152909
710.530	0.0153050
710.608	0.0153532
710.686	0.0151232
710.764	0.0152782
710.842	0.0152601
710.920	0.0151188
710.998	0.0150821
711.076	0.0151536
711.155	0.0152097
711.233	0.0150907
711.311	0.0151496
711.389	0.0153026
711.467	0.0153769
711.545	0.0154122
711.623	0.0153513
711.701	0.0153899
711.780	0.0156449
711.858	0.0155598
711.936	0.0156693
712.014	0.0156045
712.092	0.0156036
712.170	0.0155760
712.248	0.0156432
712.326	0.0156254
712.405	0.0156840
712.483	0.0157229
712.561	0.0155830
712.639	0.0154704
712.717	0.0156992
712.795	0.0157549
712.873	0.0156470
712.951	0.0156480
713.030	0.0157576
713.108	0.0157880
713.186	0.0158180
713.264	0.0156999
713.342	0.0156773
713.420	0.0157332
713.498	0.0155778
713.576	0.0156999
713.655	0.0157737
713.733	0.0157248
713.811	0.0155733
713.889	0.0155321
713.967	0.0156893
714.045	0.0156290
714.123	0.0155801
714.201	0.0156865
714.280	0.0156213
714.358	0.0156368
714.436	0.0155358
714.514	0.0154987
714.592	0.0156333
714.670	0.0156264
714.748	0.0156490
714.826	0.0154353
714.905	0.0155968
714.983	0.0156216
715.061	0.0153662
715.139	0.0154662
715.217	0.0155036
715.295	0.0154265
715.373	0.0153779
715.451	0.0153226
715.530	0.0154121
715.608	0.0152699
715.686	0.0153728
715.764	0.0152615
715.842	0.0153223
715.920	0.0152797
715.998	0.0152085
716.076	0.0151725
716.155	0.0151118
716.233	0.0151166
716.311	0.0150925
716.389	0.0150937
716.467	0.0151202
716.545	0.0150751
716.623	0.0150809
716.701	0.0149893
716.780	0.0149551
716.858	0.0150410
716.936	0.0150643
717.014	0.0151109
717.092	0.0151398
717.170	0.0150494
717.248	0.0150855
717.326	0.0152039
717.405	0.0152770
717.483	0.0153865
717.561	0.0153300
717.639	0.0153777
717.717	0.0152999
717.795	0.0154446
717.873	0.0154302
717.951	0.0153568
718.030	0.0154141
718.108	0.0154739
718.186	0.0155848
718.264	0.0156537
718.342	0.0156435
718.420	0.0156474
718.498	0.0156338
718.576	0.0155369
718.655	0.0157563
718.733	0.0158741
718.811	0.0157336
718.889	0.0158845
718.967	0.0158411
719.045	0.0158173
719.123	0.0159264
719.201	0.0157836
719.280	0.0157932
719.358	0.0159721
719.436	0.0158399
719.514	0.0157687
719.592	0.0159497
719.670	0.0157205
719.748	0.0157220
719.826	0.0154678
719.905	0.0155508
719.983	0.0153442
720.061	0.0152383
720.139	0.0152789
720.217	0.0151410
720.295	0.0151192
720.373	0.0150465
720.451	0.0149358
720.530	0.0150142
720.608	0.0151425
720.686	0.0150607
720.764	0.0150398
720.842	0.0151913
720.920	0.0150931
720.998	0.0151388
721.076	0.0152587
721.155	0.0154080
721.233	0.0152803
721.311	0.0155110
721.389	0.0153832
721.467	0.0153616
721.545	0.0153957
721.623	0.0154084
721.701	0.0152968
721.780	0.0154040
721.858	0.0153372
721.936	0.0153004
722.014	0.0153661
722.092	0.0152437
722.170	0.0152934
722.248	0.0151781
722.326	0.0153180
722.405	0.0152483
722.483	0.0151070
722.561	0.0154237
722.639	0.0152483
722.717	0.0150437
722.795	0.0151163
722.873	0.0153852
722.951	0.0151619
723.030	0.0153800
723.108	0.0155424
723.186	0.0155634
723.264	0.0155904
723.342	0.0155762
723.420	0.0156216
723.498	0.0155713
723.576	0.0156673
723.655	0.0154901
723.733	0.0157342
723.811	0.0158360
723.889	0.0156734
723.967	0.0156593
724.045	0.0156174
724.123	0.0157151
724.201	0.0155690
724.280	0.0153947
724.358	0.0155069
724.436	0.0155214
724.514	0.0155556
724.592	0.0155389
724.670	0.0155550
724.748	0.0156644
724.826	0.0156052
724.905	0.0156667
724.983	0.0157594
725.061	0.0157968
725.139	0.0157331
725.217	0.0157434
725.295	0.0156975
725.373	0.0155610
725.451	0.0155788
725.530	0.0157744
725.608	0.0156750
725.686	0.0157199
725.764	0.0157029
725.842	0.0156927
725.920	0.0158041
725.998	0.0157181
726.076	0.0154865
726.155	0.0153221
726.233	0.0154823
726.311	0.0152152
726.389	0.0154134
726.467	0.0153543
726.545	0.0151806
726.623	0.0151730
726.701	0.0151785
726.780	0.0149840
726.858	0.0149607
726.936	0.0149670
727.014	0.0150441
727.092	0.0149953
727.170	0.0147787
727.248	0.0150054
727.326	0.0149893
727.405	0.0148997
727.483	0.0150272
727.561	0.0149190
727.639	0.0151037
727.717	0.0150618
727.795	0.0151614
727.873	0.0152998
727.951	0.0151894
728.030	0.0153268
728.108	0.0154115
728.186	0.0153491
728.264	0.0153426
728.342	0.0154248
728.420	0.0155032
728.498	0.0154613
728.576	0.0154014
728.655	0.0153729
728.733	0.0155002
728.811	0.0156712
728.889	0.0154795
728.967	0.0155011
729.045	0.0155925
729.123	0.0157520
729.201	0.0157236
729.280	0.0156970
729.358	0.0156400
729.436	0.0157220
729.514	0.0156640
729.592	0.0158036
729.670	0.0157522
729.748	0.0159151
729.826	0.0157235
729.905	0.0156957
729.983	0.0156013
730.061	0.0155314
730.139	0.0154916
730.217	0.0154363
730.295	0.0153674
730.373	0.0152013
730.451	0.0153053
730.530	0.0153072
730.608	0.0152346
730.686	0.0151958
730.764	0.0152103
730.842	0.0152467
730.920	0.0152601
730.998	0.0150491
731.076	0.0152824
731.155	0.0154435
731.233	0.0152886
731.311	0.0153549
731.389	0.0152505
731.467	0.0153121
731.545	0.0152733
731.623	0.0153390
731.701	0.0154340
731.780	0.0154581
731.858	0.0154695
731.936	0.0153877
732.014	0.0154067
732.092	0.0154535
732.170	0.0154520
732.248	0.0155732
732.326	0.0154958
732.405	0.0153662
732.483	0.0155786
732.561	0.0154620
732.639	0.0155065
732.717	0.0154371
732.795	0.0153848
732.873	0.0154159
732.951	0.0155114
733.030	0.0154651
733.108	0.0154443
733.186	0.0155344
733.264	0.0152726
733.342	0.0153961
733.420	0.0153339
733.498	0.0153809
733.576	0.0153804
733.655	0.0153184
733.733	0.0154961
733.811	0.0154369
733.889	0.0155965
733.967	0.0155245
734.045	0.0153986
734.123	0.0154801
734.201	0.0154723
734.280	0.0154008
734.358	0.0155434
734.436	0.0154848
734.514	0.0155331
734.592	0.0154723
734.670	0.0153285
734.748	0.0153158
734.826	0.0154281
734.905	0.0154292
734.983	0.0154142
735.061	0.0150653
735.139	0.0153705
735.217	0.0155492
735.295	0.0154362
735.373	0.0155029
735.451	0.0154173
735.530	0.0153152
735.608	0.0154836
735.686	0.0153955
735.764	0.0155106
735.842	0.0155471
735.920	0.0154437
735.998	0.0155137
736.076	0.0155859
736.155	0.0155698
736.233	0.0153981
736.311	0.0154291
736.389	0.0154265
736.467	0.0157024
736.545	0.0155974
736.623	0.0154401
736.701	0.0155397
736.780	0.0156016
736.858	0.0155192
736.936	0.0153749
737.014	0.0155751
737.092	0.0157245
737.170	0.0156377
737.248	0.0156387
737.326	0.0157336
737.405	0.0155936
737.483	0.0155172
737.561	0.0155206
737.639	0.0155775
737.717	0.0157108
737.795	0.0154671
737.873	0.0155779
737.951	0.0156994
738.030	0.0155464
738.108	0.0154716
738.186	0.0155328
738.264	0.0154779
738.342	0.0154986
738.420	0.0155286
738.498	0.0153992
738.576	0.0154178
738.655	0.0153428
738.733	0.0152140
738.811	0.0154129
738.889	0.0152133
738.967	0.0151044
739.045	0.0151096
739.123	0.0150317
739.201	0.0151460
739.280	0.0150500
739.358	0.0150598
739.436	0.0149593
739.514	0.0151183
739.592	0.0151155
739.670	0.0151389
739.748	0.0152404
739.826	0.0153195
739.905	0.0152918
739.983	0.0152959
740.061	0.0153235
740.139	0.0154510
740.217	0.0154555
740.295	0.0155559
740.373	0.0155035
740.451	0.0155917
740.530	0.0155950
740.608	0.0154656
740.686	0.0153999
740.764	0.0156017
740.842	0.0155175
740.920	0.0154971
740.998	0.0154654
741.076	0.0153290
741.155	0.0154327
741.233	0.0154865
741.311	0.0154105
741.389	0.0152699
741.467	0.0153222
741.545	0.0153474
741.623	0.0153192
741.701	0.0153537
741.780	0.0154356
741.858	0.0152908
741.936	0.0154591
742.014	0.0153619
742.092	0.0154385
742.170	0.0155360
742.248	0.0154543
742.326	0.0154404
742.405	0.0154092
742.483	0.0153830
742.561	0.0154127
742.639	0.0154950
742.717	0.0153251
742.795	0.0153661
742.873	0.0154436
742.951	0.0152340
743.030	0.0153435
743.108	0.0153922
743.186	0.0152908
743.264	0.0154108
743.342	0.0154427
743.420	0.0152582
743.498	0.0153761
743.576	0.0155393
743.655	0.0154082
743.733	0.0153230
743.811	0.0153936
743.889	0.0153374
743.967	0.0154692
744.045	0.0153139
744.123	0.0154092
744.201	0.0154063
744.280	0.0154102
744.358	0.0153358
744.436	0.0155948
744.514	0.0155824
744.592	0.0155070
744.670	0.0158205
744.748	0.0156129
744.826	0.0155045
744.905	0.0157085
744.983	0.0158135
745.061	0.0156342
745.139	0.0157426
745.217	0.0156516
745.295	0.0157224
745.373	0.0157755
745.451	0.0157528
745.530	0.0155266
745.608	0.0154811
745.686	0.0157159
745.764	0.0156023
745.842	0.0154054
745.920	0.0152319
745.998	0.0153532
746.076	0.0153376
746.155	0.0152483
746.233	0.0153049
746.311	0.0151172
746.389	0.0151316
746.467	0.0152490
746.545	0.0150577
746.623	0.0149882
746.701	0.0151106
746.780	0.0151584
746.858	0.0152592
746.936	0.0151707
747.014	0.0151588
747.092	0.0151072
747.170	0.0151937
747.248	0.0152249
747.326	0.0152608
747.405	0.0153015
747.483	0.0152321
747.561	0.0152216
747.639	0.0152003
747.717	0.0152071
747.795	0.0152715
747.873	0.0155401
747.951	0.0153889
748.030	0.0155286
748.108	0.0152629
748.186	0.0154488
748.264	0.0156577
748.342	0.0157475
748.420	0.0156247
748.498	0.0156120
748.576	0.0155069
748.655	0.0154756
748.733	0.0155370
748.811	0.0157304
748.889	0.0156679
748.967	0.0156205
749.045	0.0157597
749.123	0.0155529
749.201	0.0155725
749.280	0.0155801
749.358	0.0155015
749.436	0.0154903
749.514	0.0154758
749.592	0.0155813
749.670	0.0155617
749.748	0.0154562
749.826	0.0153619
749.905	0.0154334
749.983	0.0153646
750.061	0.0153590
750.139	0.0152471
750.217	0.0154118
750.295	0.0153722
750.373	0.0151768
750.451	0.0151972
750.530	0.0153122
750.608	0.0152953
750.686	0.0152264
750.764	0.0152085
750.842	0.0153003
750.920	0.0153407
750.998	0.0153754
751.076	0.0154539
751.155	0.0154113
751.233	0.0154378
751.311	0.0153927
751.389	0.0155028
751.467	0.0155663
751.545	0.0155824
751.623	0.0156147
751.701	0.0155711
751.780	0.0154963
751.858	0.0155941
751.936	0.0153902
752.014	0.0156507
752.092	0.0155618
752.170	0.0152492
752.248	0.0153842
752.326	0.0154191
752.405	0.0155460
752.483	0.0155170
752.561	0.0153962
752.639	0.0154150
752.717	0.0155160
752.795	0.0156342
752.873	0.0153596
752.951	0.0154403
753.030	0.0155314
753.108	0.0154724
753.186	0.0154108
753.264	0.0155910
753.342	0.0154935
753.420	0.0154635
753.498	0.0155361
753.576	0.0154805
753.655	0.0155379
753.733	0.0153549
753.811	0.0155363
753.889	0.0155219
753.967	0.0155621
754.045	0.0156448
754.123	0.0155083
754.201	0.0154494
754.280	0.0156158
754.358	0.0154834
754.436	0.0154984
754.514	0.0155398
754.592	0.0154929
754.670	0.0155025
754.748	0.0154448
754.826	0.0154021
754.905	0.0153209
754.983	0.0154740
755.061	0.0154632
755.139	0.0154021
755.217	0.0153857
755.295	0.0154215
755.373	0.0155067
755.451	0.0154852
755.530	0.0155846
755.608	0.0155647
755.686	0.0155553
755.764	0.0155766
755.842	0.0156818
755.920	0.0158218
755.998	0.0158056
756.076	0.0156223
756.155	0.0156345
756.233	0.0157057
756.311	0.0157063
756.389	0.0157556
756.467	0.0157938
756.545	0.0156926
756.623	0.0156805
756.701	0.0157102
756.780	0.0155427
756.858	0.0155653
756.936	0.0156727
757.014	0.0156621
757.092	0.0155568
757.170	0.0154488
757.248	0.0153705
757.326	0.0152657
757.405	0.0154162
757.483	0.0151798
757.561	0.0153713
757.639	0.0152122
757.717	0.0151162
757.795	0.0151721
757.873	0.0150859
757.951	0.0150531
758.030	0.0149836
758.108	0.0149361
758.186	0.0149941
758.264	0.0149701
758.342	0.0149715
758.420	0.0148583
758.498	0.0149557
758.576	0.0149080
758.655	0.0150265
758.733	0.0151054
758.811	0.0150753
758.889	0.0151279
758.967	0.0151054
759.045	0.0150744
759.123	0.0153245
759.201	0.0152099
759.280	0.0151257
759.358	0.0152799
759.436	0.0151942
759.514	0.0152922
759.592	0.0153098
759.670	0.0152149
759.748	0.0152827
759.826	0.0153111
759.905	0.0153416
759.983	0.0154286
760.061	0.0154720
760.139	0.0154705
760.217	0.0154523
760.295	0.0153949
760.373	0.0154058
760.451	0.0155333
760.530	0.0154795
760.608	0.0155131
760.686	0.0155872
760.764	0.0155238
760.842	0.0154204
760.920	0.0155876
760.998	0.0155806
761.076	0.0157207
761.155	0.0157660
761.233	0.0155560
761.311	0.0157430
761.389	0.0155858
761.467	0.0156824
761.545	0.0158121
761.623	0.0157400
761.701	0.0157517
761.780	0.0157265
761.858	0.0157130
761.936	0.0156731
762.014	0.0156508
762.092	0.0155215
762.170	0.0154130
762.248	0.0153671
762.326	0.0155479
762.405	0.0155774
762.483	0.0153486
762.561	0.0153796
762.639	0.0153874
762.717	0.0153085
762.795	0.0153687
762.873	0.0152573
762.951	0.0152599
763.030	0.0152305
763.108	0.0152013
763.186	0.0151656
763.264	0.0154008
763.342	0.0152746
763.420	0.0152788
763.498	0.0151184
763.576	0.0151470
763.655	0.0152417
763.733	0.0152483
763.811	0.0152412
763.889	0.0153545
763.967	0.0152586
764.045	0.0153540
764.123	0.0154559
764.201	0.0154607
764.280	0.0154414
764.358	0.0154292
764.436	0.0154707
764.514	0.0154733
764.592	0.0154678
764.670	0.0157122
764.748	0.0158374
764.826	0.0157235
764.905	0.0157548
764.983	0.0158241
765.061	0.0156993
765.139	0.0156669
765.217	0.0157779
765.295	0.0159311
765.373	0.0157556
765.451	0.0157980
765.530	0.0159882
765.608	0.0158756
765.686	0.0157181
765.764	0.0157851
765.842	0.0158189
765.920	0.0157818
765.998	0.0156924
766.076	0.0155904
766.155	0.0155981
766.233	0.0156061
766.311	0.0156009
766.389	0.0155583
766.467	0.0155852
766.545	0.0153880
766.623	0.0154414
766.701	0.0152489
766.780	0.0152279
766.858	0.0154076
766.936	0.0152328
767.014	0.0151540
767.092	0.0151804
767.170	0.0151096
767.248	0.0152090
767.326	0.0151434
767.405	0.0151813
767.483	0.0151637
767.561	0.0151446
767.639	0.0152912
767.717	0.0152161
767.795	0.0151345
767.873	0.0152116
767.951	0.0153049
768.030	0.0153738
768.108	0.0152351
768.186	0.0151763
768.264	0.0152638
768.342	0.0154276
768.420	0.0153584
768.498	0.0153812
768.576	0.0152451
768.655	0.0152786
768.733	0.0154112
768.811	0.0154871
768.889	0.0154205
768.967	0.0155840
769.045	0.0154186
769.123	0.0155476
769.201	0.0154664
769.280	0.0154733
769.358	0.0156245
769.436	0.0156242
769.514	0.0156728
769.592	0.0155314
769.670	0.0155338
769.748	0.0154928
769.826	0.0155106
769.905	0.0156572
769.983	0.0154829
770.061	0.0155648
770.139	0.0153428
770.217	0.0153410
770.295	0.0153802
770.373	0.0155477
770.451	0.0155618
770.530	0.0154368
770.608	0.0153219
770.686	0.0155106
770.764	0.0152913
770.842	0.0154063
770.920	0.0153700
770.998	0.0153564
771.076	0.0152305
771.155	0.0152835
771.233	0.0153159
771.311	0.0153380
771.389	0.0152946
771.467	0.0154104
771.545	0.0151956
771.623	0.0152064
771.701	0.0152747
771.780	0.0151803
771.858	0.0151099
771.936	0.0150254
772.014	0.0150694
772.092	0.0151633
772.170	0.0150495
772.248	0.0150221
772.326	0.0150485
772.405	0.0149641
772.483	0.0150832
772.561	0.0151399
772.639	0.0150471
772.717	0.0152840
772.795	0.0150375
772.873	0.0151767
772.951	0.0153332
773.030	0.0154346
773.108	0.0155193
773.186	0.0154064
773.264	0.0153953
773.342	0.0154421
773.420	0.0157651
773.498	0.0156977
773.576	0.0156854
773.655	0.0156694
773.733	0.0156238
773.811	0.0157356
773.889	0.0158821
773.967	0.0157700
774.045	0.0158180
774.123	0.0156941
774.201	0.0157174
774.280	0.0157668
774.358	0.0156239
774.436	0.0158729
774.514	0.0157689
774.592	0.0157235
774.670	0.0157165
774.748	0.0156374
774.826	0.0157732
774.905	0.0156763
774.983	0.0156919
775.061	0.0154585
775.139	0.0154770
775.217	0.0155062
775.295	0.0154354
775.373	0.0153261
775.451	0.0153662
775.530	0.0153478
775.608	0.0153265
775.686	0.0153574
775.764	0.0152668
775.842	0.0154507
775.920	0.0153457
775.998	0.0152489
776.076	0.0152771
776.155	0.0151240
776.233	0.0152502
776.311	0.0154689
776.389	0.0151634
776.467	0.0152672
776.545	0.0153313
776.623	0.0152051
776.701	0.0152283
776.780	0.0152303
776.858	0.0152322
776.936	0.0152728
777.014	0.0152458
777.092	0.0151392
777.170	0.0151985
777.248	0.0151604
777.326	0.0152046
777.405	0.0152285
777.483	0.0151804
777.561	0.0151286
777.639	0.0153104
777.717	0.0153670
777.795	0.0152628
777.873	0.0153551
777.951	0.0152279
778.030	0.0152262
778.108	0.0152235
778.186	0.0154079
778.264	0.0154333
778.342	0.0153577
778.420	0.0153916
778.498	0.0154322
778.576	0.0153651
778.655	0.0153320
778.733	0.0154956
778.811	0.0155322
778.889	0.0156288
778.967	0.0155455
779.045	0.0154705
779.123	0.0156179
779.201	0.0155984
779.280	0.0155907
779.358	0.0154452
779.436	0.0156402
779.514	0.0156159
779.592	0.0155059
779.670	0.0155963
779.748	0.0155778
779.826	0.0154865
779.905	0.0155048
779.983	0.0154274
780.061	0.0155292
780.139	0.0156019
780.217	0.0154990
780.295	0.0154624
780.373	0.0154294
780.451	0.0155601
780.530	0.0156046
780.608	0.0155833
780.686	0.0155931
780.764	0.0154942
780.842	0.0154706
780.920	0.0155440
780.998	0.0155219
781.076	0.0153918
781.155	0.0154723
781.233	0.0154031
781.311	0.0153154
781.389	0.0154382
781.467	0.0153853
781.545	0.0153312
781.623	0.0154536
781.701	0.0153419
781.780	0.0152983
781.858	0.0153675
781.936	0.0153990
782.014	0.0153597
782.092	0.0152779
782.170	0.0153040
782.248	0.0153128
782.326	0.0153079
782.405	0.0154073
782.483	0.0152965
782.561	0.0153471
782.639	0.0153678
782.717	0.0153793
782.795	0.0154839
782.873	0.0154644
782.951	0.0155122
783.030	0.0152879
783.108	0.0154162
783.186	0.0154967
783.264	0.0155083
783.342	0.0154360
783.420	0.0155473
783.498	0.0154248
783.576	0.0155227
783.655	0.0156021
783.733	0.0156200
783.811	0.0155400
783.889	0.0155392
783.967	0.0155709
784.045	0.0156355
784.123	0.0156069
784.201	0.0155319
784.280	0.0155062
784.358	0.0155384
784.436	0.0154865
784.514	0.0154446
784.592	0.0154720
784.670	0.0156164
784.748	0.0155354
784.826	0.0154762
784.905	0.0154958
784.983	0.0155527
785.061	0.0154238
785.139	0.0154744
785.217	0.0154598
785.295	0.0154175
785.373	0.0155080
785.451	0.0154778
785.530	0.0153447
785.608	0.0154910
785.686	0.0155276
785.764	0.0153498
785.842	0.0153678
785.920	0.0153567
785.998	0.0154033
786.076	0.0155151
786.155	0.0153649
786.233	0.0153293
786.311	0.0155715
786.389	0.0154168
786.467	0.0153449
786.545	0.0153954
786.623	0.0153873
786.701	0.0153548
786.780	0.0153426
786.858	0.0153754
786.936	0.0152516
787.014	0.0155763
787.092	0.0153149
787.170	0.0154028
787.248	0.0153790
787.326	0.0155217
787.405	0.0153888
787.483	0.0154284
787.561	0.0154697
787.639	0.0154167
787.717	0.0153515
787.795	0.0155029
787.873	0.0154495
787.951	0.0155666
788.030	0.0154659
788.108	0.0153519
788.186	0.0152997
788.264	0.0154311
788.342	0.0153982
788.420	0.0153360
788.498	0.0152853
788.576	0.0153440
788.655	0.0153082
788.733	0.0155410
788.811	0.0152384
788.889	0.0152795
788.967	0.0152879
789.045	0.0152267
789.123	0.0153099
789.201	0.0152307
789.280	0.0154359
789.358	0.0152746
789.436	0.0153400
789.514	0.0154247
789.592	0.0154559
789.670	0.0154773
789.748	0.0155494
789.826	0.0154079
789.905	0.0153404
789.983	0.0152569
790.061	0.0155377
790.139	0.0152937
790.217	0.0153078
790.295	0.0154732
790.373	0.0153671
790.451	0.0154530
790.530	0.0154684
790.608	0.0154138
790.686	0.0155617
790.764	0.0155457
790.842	0.0153579
790.920	0.0155235
790.998	0.0155523
791.076	0.0154150
791.155	0.0154282
791.233	0.0155502
791.311	0.0154237
791.389	0.0154155
791.467	0.0153984
791.545	0.0153783
791.623	0.0155448
791.701	0.0155092
791.780	0.0153996
791.858	0.0155373
791.936	0.0153676
792.014	0.0154313
792.092	0.0155503
792.170	0.0155009
792.248	0.0153969
792.326	0.0153264
792.405	0.0154829
792.483	0.0155377
792.561	0.0154308
792.639	0.0153745
792.717	0.0154174
792.795	0.0154007
792.873	0.0154588
792.951	0.0155106
793.030	0.0155187
793.108	0.0155221
793.186	0.0155486
793.264	0.0153761
793.342	0.0155490
793.420	0.0154870
793.498	0.0155605
793.576	0.0154859
793.655	0.0155180
793.733	0.0156226
793.811	0.0156403
793.889	0.0155753
793.967	0.0155141
794.045	0.0155547
794.123	0.0154697
794.201	0.0153487
794.280	0.0154179
794.358	0.0154078
794.436	0.0153226
794.514	0.0154852
794.592	0.0155111
794.670	0.0154005
794.748	0.0153554
794.826	0.0151804
794.905	0.0152988
794.983	0.0152854
795.061	0.0152538
795.139	0.0153891
795.217	0.0153387
795.295	0.0152163
795.373	0.0151353
795.451	0.0152277
795.530	0.0152243
795.608	0.0150724
795.686	0.0152171
795.764	0.0150815
795.842	0.0153497
795.920	0.0152190
795.998	0.0149232
796.076	0.0151225
796.155	0.0151114
796.233	0.0151674
796.311	0.0152499
796.389	0.0152525
796.467	0.0152943
796.545	0.0151652
796.623	0.0151963
796.701	0.0152686
796.780	0.0153944
796.858	0.0153476
796.936	0.0153074
797.014	0.0152860
797.092	0.0154436
797.170	0.0153784
797.248	0.0152194
797.326	0.0153143
797.405	0.0154088
797.483	0.0154430
797.561	0.0154252
797.639	0.0154768
797.717	0.0154918
797.795	0.0153830
797.873	0.0153667
797.951	0.0154811
798.030	0.0154877
798.108	0.0154917
798.186	0.0153238
798.264	0.0154889
798.342	0.0153271
798.420	0.0153954
798.498	0.0154074
798.576	0.0155004
798.655	0.0154498
798.733	0.0155421
798.811	0.0155665
798.889	0.0154594
798.967	0.0153722
799.045	0.0154644
799.123	0.0154978
799.201	0.0154984
799.280	0.0153851
799.358	0.0154599
799.436	0.0155144
799.514	0.0153222
799.592	0.0152711
799.670	0.0153413
799.748	0.0154420
799.826	0.0154668
799.905	0.0154307
799.983	0.0154270
800.061	0.0153206
800.139	0.0155225
800.217	0.0154965
800.295	0.0154491
800.373	0.0154649
800.451	0.0155403
800.530	0.0155663
800.608	0.0155883
800.686	0.0156417
800.764	0.0155666
800.842	0.0155090
800.920	0.0155392
800.998	0.0153303
801.076	0.0154720
801.155	0.0155537
801.233	0.0155174
801.311	0.0154710
801.389	0.0154010
801.467	0.0153515
801.545	0.0154675
801.623	0.0153928
801.701	0.0153164
801.780	0.0153706
801.858	0.0152272
801.936	0.0152767
802.014	0.0154784
802.092	0.0154343
802.170	0.0153517
802.248	0.0154482
802.326	0.0153288
802.405	0.0154707
802.483	0.0152676
802.561	0.0152988
802.639	0.0154575
802.717	0.0154504
802.795	0.0154188
802.873	0.0153953
802.951	0.0153971
803.030	0.0154421
803.108	0.0153548
803.186	0.0153783
803.264	0.0154279
803.342	0.0154626
803.420	0.0154585
803.498	0.0156363
803.576	0.0155599
803.655	0.0154764
803.733	0.0155655
803.811	0.0155509
803.889	0.0155745
803.967	0.0155244
804.045	0.0154036
804.123	0.0154803
804.201	0.0155051
804.280	0.0154779
804.358	0.0155137
804.436	0.0154335
804.514	0.0155022
804.592	0.0155647
804.670	0.0154221
804.748	0.0153458
804.826	0.0154448
804.905	0.0153520
804.983	0.0152663
805.061	0.0153304
805.139	0.0154214
805.217	0.0154007
805.295	0.0153835
805.373	0.0152788
805.451	0.0153223
805.530	0.0153127
805.608	0.0152654
805.686	0.0153285
805.764	0.0152196
805.842	0.0151804
805.920	0.0153783
805.998	0.0151704
806.076	0.0151714
806.155	0.0152829
806.233	0.0153812
806.311	0.0153484
806.389	0.0151900
806.467	0.0152182
806.545	0.0153601
806.623	0.0151756
806.701	0.0150518
806.780	0.0152874
806.858	0.0153479
806.936	0.0153054
807.014	0.0152789
807.092	0.0152219
807.170	0.0152237
807.248	0.0153047
807.326	0.0152335
807.405	0.0153719
807.483	0.0152987
807.561	0.0152142
807.639	0.0153691
807.717	0.0152863
807.795	0.0153498
807.873	0.0154298
807.951	0.0152769
808.030	0.0151859
808.108	0.0152593
808.186	0.0152795
808.264	0.0152773
808.342	0.0154086
808.420	0.0152335
808.498	0.0153080
808.576	0.0153638
808.655	0.0151579
808.733	0.0153481
808.811	0.0154510
808.889	0.0153085
808.967	0.0153462
809.045	0.0154995
809.123	0.0154573
809.201	0.0153735
809.280	0.0154826
809.358	0.0154945
809.436	0.0153596
809.514	0.0154286
809.592	0.0156358
809.670	0.0156176
809.748	0.0154263
809.826	0.0155845
809.905	0.0154526
809.983	0.0155089
810.061	0.0156377
810.139	0.0155463
810.217	0.0155079
810.295	0.0154857
810.373	0.0156163
810.451	0.0155482
810.530	0.0155983
810.608	0.0157560
810.686	0.0154442
810.764	0.0155489
810.842	0.0155486
810.920	0.0155773
810.998	0.0154702
811.076	0.0155540
811.155	0.0156525
811.233	0.0156207
811.311	0.0153285
811.389	0.0154164
811.467	0.0156080
811.545	0.0154980
811.623	0.0154985
811.701	0.0154696
811.780	0.0155791
811.858	0.0154710
811.936	0.0153848
812.014	0.0154453
812.092	0.0154512
812.170	0.0154053
812.248	0.0154264
812.326	0.0153671
812.405	0.0153401
812.483	0.0152087
812.561	0.0153663
812.639	0.0152021
812.717	0.0152744
812.795	0.0152303
812.873	0.0152572
812.951	0.0152480
813.030	0.0153014
813.108	0.0153346
813.186	0.0153644
813.264	0.0152209
813.342	0.0153525
813.420	0.0153522
813.498	0.0152739
813.576	0.0152608
813.655	0.0153519
813.733	0.0152905
813.811	0.0153130
813.889	0.0154046
813.967	0.0153453
814.045	0.0153583
814.123	0.0154074
814.201	0.0151933
814.280	0.0153907
814.358	0.0153300
814.436	0.0152765
814.514	0.0154936
814.592	0.0155257
814.670	0.0153976
814.748	0.0153728
814.826	0.0153996
814.905	0.0156494
814.983	0.0156013
815.061	0.0154666
815.139	0.0155708
815.217	0.0154989
815.295	0.0155929
815.373	0.0154221
815.451	0.0156695
815.530	0.0156299
815.608	0.0156138
815.686	0.0155250
815.764	0.0155500
815.842	0.0157504
815.920	0.0155769
815.998	0.0154549
816.076	0.0157071
816.155	0.0155222
816.233	0.0155551
816.311	0.0156538
816.389	0.0155652
816.467	0.0154722
816.545	0.0154637
816.623	0.0156386
816.701	0.0154591
816.780	0.0155573
816.858	0.0155705
816.936	0.0154315
817.014	0.0154541
817.092	0.0155997
817.170	0.0155099
817.248	0.0153889
817.326	0.0153412
817.405	0.0153719
817.483	0.0153651
817.561	0.0153719
817.639	0.0154810
817.717	0.0153992
817.795	0.0152868
817.873	0.0153040
817.951	0.0153690
818.030	0.0153014
818.108	0.0152489
818.186	0.0152959
818.264	0.0152647
818.342	0.0152766
818.420	0.0150967
818.498	0.0151960
818.576	0.0153532
818.655	0.0154063
818.733	0.0151740
818.811	0.0152286
818.889	0.0152253
818.967	0.0152360
819.045	0.0153835
819.123	0.0153671
819.201	0.0152655
819.280	0.0152754
819.358	0.0153336
819.436	0.0152859
819.514	0.0153646
819.592	0.0153220
819.670	0.0153144
819.748	0.0153534
819.826	0.0152795
819.905	0.0152927
819.983	0.0154693
820.061	0.0153117
820.139	0.0153466
820.217	0.0153272
820.295	0.0153126
820.373	0.0152472
820.451	0.0152704
820.530	0.0153462
820.608	0.0153447
820.686	0.0152478
820.764	0.0153291
820.842	0.0153284
820.920	0.0154062
820.998	0.0153427
821.076	0.0153777
821.155	0.0154001
821.233	0.0153542
821.311	0.0154440
821.389	0.0153732
821.467	0.0153850
821.545	0.0155333
821.623	0.0155905
821.701	0.0154385
821.780	0.0155424
821.858	0.0154551
821.936	0.0155711
822.014	0.0155009
822.092	0.0155454
822.170	0.0156270
822.248	0.0155371
822.326	0.0156977
822.405	0.0156729
822.483	0.0155748
822.561	0.0157023
822.639	0.0155545
822.717	0.0157062
822.795	0.0156136
822.873	0.0155737
822.951	0.0154675
823.030	0.0155064
823.108	0.0154165
823.186	0.0155176
823.264	0.0156548
823.342	0.0155781
823.420	0.0154369
823.498	0.0155350
823.576	0.0155542
823.655	0.0156258
823.733	0.0156226
823.811	0.0154180
823.889	0.0154990
823.967	0.0155109
824.045	0.0155928
824.123	0.0153870
824.201	0.0154982
824.280	0.0154332
824.358	0.0154846
824.436	0.0156230
824.514	0.0154477
824.592	0.0154570
824.670	0.0155568
824.748	0.0154337
824.826	0.0155246
824.905	0.0154860
824.983	0.0154618
825.061	0.0154497
825.139	0.0155431
825.217	0.0155350
825.295	0.0154857
825.373	0.0154622
825.451	0.0155608
825.530	0.0154880
825.608	0.0154189
825.686	0.0154540
825.764	0.0155870
825.842	0.0157537
825.920	0.0156004
825.998	0.0155463
826.076	0.0154329
826.155	0.0154491
826.233	0.0155009
826.311	0.0154699
826.389	0.0155489
826.467	0.0155670
826.545	0.0155414
826.623	0.0154450
826.701	0.0156147
826.780	0.0154908
826.858	0.0154141
826.936	0.0154575
827.014	0.0154205
827.092	0.0155276
827.170	0.0152962
827.248	0.0154591
827.326	0.0153654
827.405	0.0154860
827.483	0.0154825
827.561	0.0152348
827.639	0.0154230
827.717	0.0153127
827.795	0.0153657
827.873	0.0154727
827.951	0.0153451
828.030	0.0154313
828.108	0.0153906
828.186	0.0151935
828.264	0.0151495
828.342	0.0152808
828.420	0.0154533
828.498	0.0153817
828.576	0.0153234
828.655	0.0152008
828.733	0.0152712
828.811	0.0153143
828.889	0.0153854
828.967	0.0151671
829.045	0.0151975
829.123	0.0152338
829.201	0.0153297
829.280	0.0151151
829.358	0.0151319
829.436	0.0153985
829.514	0.0151816
829.592	0.0151164
829.670	0.0151311
829.748	0.0153282
829.826	0.0152785
829.905	0.0152079
829.983	0.0152032
830.061	0.0153293
830.139	0.0153808
830.217	0.0153701
830.295	0.0153025
830.373	0.0153771
830.451	0.0152200
830.530	0.0152654
830.608	0.0152986
830.686	0.0153834
830.764	0.0154888
830.842	0.0153317
830.920	0.0152744
830.998	0.0152851
831.076	0.0152985
831.155	0.0153328
831.233	0.0153733
831.311	0.0154022
831.389	0.0153851
831.467	0.0153291
831.545	0.0154022
831.623	0.0153232
831.701	0.0153843
831.780	0.0154391
831.858	0.0155068
831.936	0.0154817
832.014	0.0154182
832.092	0.0154659
832.170	0.0154352
832.248	0.0155119
832.326	0.0155333
832.405	0.0155209
832.483	0.0153661
832.561	0.0154697
832.639	0.0155092
832.717	0.0155894
832.795	0.0156084
832.873	0.0156281
832.951	0.0155368
833.030	0.0155666
833.108	0.0155888
833.186	0.0154723
833.264	0.0155161
833.342	0.0155524
833.420	0.0153984
833.498	0.0155251
833.576	0.0155996
833.655	0.0155116
833.733	0.0154969
833.811	0.0153922
833.889	0.0154575
833.967	0.0154317
834.045	0.0153846
834.123	0.0154718
834.201	0.0153922
834.280	0.0152605
834.358	0.0154232
834.436	0.0154520
834.514	0.0153510
834.592	0.0154124
834.670	0.0153417
834.748	0.0154106
834.826	0.0153870
834.905	0.0153105
834.983	0.0153299
835.061	0.0154095
835.139	0.0153283
835.217	0.0152763
835.295	0.0155534
835.373	0.0153587
835.451	0.0152610
835.530	0.0153469
835.608	0.0154237
835.686	0.0154509
835.764	0.0152458
835.842	0.0153735
835.920	0.0154668
835.998	0.0153320
836.076	0.0153319
836.155	0.0155614
836.233	0.0155407
836.311	0.0154373
836.389	0.0154107
836.467	0.0154651
836.545	0.0153987
836.623	0.0154463
836.701	0.0154945
836.780	0.0154768
836.858	0.0153549
836.936	0.0155226
837.014	0.0154155
837.092	0.0154760
837.170	0.0153442
837.248	0.0154167
837.326	0.0155996
837.405	0.0153606
837.483	0.0154518
837.561	0.0153983
837.639	0.0153105
837.717	0.0153541
837.795	0.0154433
837.873	0.0153064
837.951	0.0154674
838.030	0.0154454
838.108	0.0154079
838.186	0.0153683
838.264	0.0152763
838.342	0.0153801
838.420	0.0153915
838.498	0.0154841
838.576	0.0154774
838.655	0.0155175
838.733	0.0153783
838.811	0.0155606
838.889	0.0155288
838.967	0.0154257
839.045	0.0153961
839.123	0.0153543
839.201	0.0154610
839.280	0.0154918
839.358	0.0155105
839.436	0.0154406
839.514	0.0153761
839.592	0.0155033
839.670	0.0155214
839.748	0.0154846
839.826	0.0154529
839.905	0.0155859
839.983	0.0154958
840.061	0.0154776
840.139	0.0155608
840.217	0.0155418
840.295	0.0154367
840.373	0.0155806
840.451	0.0155268
840.530	0.0154688
840.608	0.0154042
840.686	0.0154951
840.764	0.0154630
840.842	0.0155691
840.920	0.0156223
840.998	0.0155615
841.076	0.0154362
841.155	0.0154308
841.233	0.0156631
841.311	0.0155305
841.389	0.0154536
841.467	0.0154610
841.545	0.0155534
841.623	0.0155651
841.701	0.0153654
841.780	0.0154874
841.858	0.0154987
841.936	0.0154760
842.014	0.0155687
842.092	0.0153892
842.170	0.0154211
842.248	0.0153257
842.326	0.0154961
842.405	0.0154673
842.483	0.0154285
842.561	0.0154503
842.639	0.0154179
842.717	0.0154842
842.795	0.0154618
842.873	0.0155537
842.951	0.0154575
843.030	0.0153749
843.108	0.0154089
843.186	0.0154141
843.264	0.0154117
843.342	0.0155524
843.420	0.0155147
843.498	0.0154527
843.576	0.0156100
843.655	0.0155386
843.733	0.0155314
843.811	0.0154206
843.889	0.0154802
843.967	0.0154597
844.045	0.0154921
844.123	0.0154337
844.201	0.0153356
844.280	0.0154566
844.358	0.0156242
844.436	0.0157140
844.514	0.0154388
844.592	0.0153695
844.670	0.0155861
844.748	0.0155577
844.826	0.0155590
844.905	0.0154591
844.983	0.0155513
845.061	0.0154559
845.139	0.0153947
845.217	0.0155504
845.295	0.0153913
845.373	0.0154710
845.451	0.0154819
845.530	0.0154078
845.608	0.0154436
845.686	0.0154894
845.764	0.0155513
845.842	0.0155450
845.920	0.0155045
845.998	0.0152534
846.076	0.0153962
846.155	0.0154788
846.233	0.0154185
846.311	0.0152536
846.389	0.0153937
846.467	0.0154308
846.545	0.0154107
846.623	0.0155282
846.701	0.0154766
846.780	0.0155002
846.858	0.0154578
846.936	0.0154345
847.014	0.0153577
847.092	0.0153528
847.170	0.0154316
847.248	0.0153993
847.326	0.0154910
847.405	0.0154117
847.483	0.0154407
847.561	0.0154788
847.639	0.0152846
847.717	0.0154709
847.795	0.0155489
847.873	0.0154390
847.951	0.0153608
848.030	0.0153912
848.108	0.0154682
848.186	0.0154945
848.264	0.0153842
848.342	0.0154286
848.420	0.0154685
848.498	0.0153110
848.576	0.0155817
848.655	0.0154335
848.733	0.0153895
848.811	0.0155101
848.889	0.0156251
848.967	0.0156004
849.045	0.0155281
849.123	0.0154768
849.201	0.0155312
849.280	0.0153976
849.358	0.0156339
849.436	0.0155433
849.514	0.0156675
849.592	0.0156026
849.670	0.0154999
849.748	0.0155237
849.826	0.0156188
849.905	0.0156297
849.983	0.0155299
850.061	0.0153475
850.139	0.0154781
850.217	0.0154967
850.295	0.0156010
850.373	0.0154857
850.451	0.0156343
850.530	0.0154446
850.608	0.0154316
850.686	0.0154549
850.764	0.0153877
850.842	0.0153652
850.920	0.0153722
850.998	0.0155261
851.076	0.0154885
851.155	0.0154704
851.233	0.0153919
851.311	0.0154397
851.389	0.0154132
851.467	0.0152707
851.545	0.0153094
851.623	0.0152972
851.701	0.0152674
851.780	0.0153803
851.858	0.0152281
851.936	0.0153896
852.014	0.0154120
852.092	0.0154094
852.170	0.0154575
852.248	0.0153270
852.326	0.0153091
852.405	0.0154629
852.483	0.0155365
852.561	0.0154261
852.639	0.0153985
852.717	0.0153236
852.795	0.0154426
852.873	0.0153342
852.951	0.0153089
853.030	0.0152756
853.108	0.0154293
853.186	0.0153082
853.264	0.0152644
853.342	0.0152415
853.420	0.0153625
853.498	0.0154876
853.576	0.0154241
853.655	0.0152908
853.733	0.0154584
853.811	0.0152402
853.889	0.0152859
853.967	0.0153544
854.045	0.0151888
854.123	0.0152662
854.201	0.0152432
854.280	0.0153950
854.358	0.0153481
854.436	0.0152698
854.514	0.0152477
854.592	0.0153689
854.670	0.0152775
854.748	0.0153918
854.826	0.0153764
854.905	0.0153696
854.983	0.0153400
855.061	0.0153116
855.139	0.0154258
855.217	0.0153327
855.295	0.0152782
855.373	0.0152938
855.451	0.0153488
855.530	0.0153757
855.608	0.0153728
855.686	0.0153288
855.764	0.0155308
855.842	0.0155455
855.920	0.0154956
855.998	0.0151963
856.076	0.0154844
856.155	0.0154053
856.233	0.0152663
856.311	0.0154328
856.389	0.0152654
856.467	0.0153080
856.545	0.0152634
856.623	0.0153014
856.701	0.0154057
856.780	0.0153391
856.858	0.0151859
856.936	0.0153168
857.014	0.0153681
857.092	0.0155446
857.170	0.0154565
857.248	0.0154552
857.326	0.0155127
857.405	0.0153534
857.483	0.0155427
857.561	0.0155738
857.639	0.0155035
857.717	0.0154462
857.795	0.0155405
857.873	0.0156896
857.951	0.0156641
858.030	0.0155299
858.108	0.0156044
858.186	0.0154156
858.264	0.0155714
858.342	0.0155730
858.420	0.0156303
858.498	0.0155813
858.576	0.0155295
858.655	0.0154812
858.733	0.0155142
858.811	0.0153987
858.889	0.0154078
858.967	0.0154060
859.045	0.0155041
859.123	0.0155431
859.201	0.0153703
859.280	0.0154137
859.358	0.0154289
859.436	0.0154984
859.514	0.0153474
859.592	0.0154855
859.670	0.0153916
859.748	0.0154218
859.826	0.0154031
859.905	0.0154879
859.983	0.0155534
860.061	0.0154086
860.139	0.0154383
860.217	0.0154942
860.295	0.0154871
860.373	0.0154934
860.451	0.0156023
860.530	0.0155564
860.608	0.0154748
860.686	0.0155589
860.764	0.0154591
860.842	0.0155778
860.920	0.0154636
860.998	0.0154729
861.076	0.0155598
861.155	0.0153246
861.233	0.0153868
861.311	0.0155178
861.389	0.0155259
861.467	0.0154097
861.545	0.0154369
861.623	0.0154931
861.701	0.0154678
861.780	0.0154829
861.858	0.0154527
861.936	0.0153965
862.014	0.0155247
862.092	0.0154340
862.170	0.0152906
862.248	0.0153453
862.326	0.0153465
862.405	0.0154782
862.483	0.0153314
862.561	0.0154337
862.639	0.0152537
862.717	0.0153440
862.795	0.0153136
862.873	0.0152436
862.951	0.0153142
863.030	0.0153232
863.108	0.0152989
863.186	0.0151693
863.264	0.0153490
863.342	0.0152630
863.420	0.0152353
863.498	0.0153622
863.576	0.0152515
863.655	0.0152703
863.733	0.0153705
863.811	0.0153214
863.889	0.0153815
863.967	0.0154060
864.045	0.0154661
864.123	0.0153926
864.201	0.0154819
864.280	0.0155224
864.358	0.0154089
864.436	0.0154491
864.514	0.0154388
864.592	0.0154578
864.670	0.0154683
864.748	0.0155482
864.826	0.0155003
864.905	0.0155820
864.983	0.0154749
865.061	0.0154702
865.139	0.0155053
865.217	0.0155616
865.295	0.0154558
865.373	0.0155608
865.451	0.0154697
865.530	0.0154800
865.608	0.0155101
865.686	0.0154616
865.764	0.0155585
865.842	0.0155315
865.920	0.0155544
865.998	0.0155356
866.076	0.0155541
866.155	0.0156445
866.233	0.0155251
866.311	0.0155524
866.389	0.0155689
866.467	0.0154998
866.545	0.0155164
866.623	0.0156857
866.701	0.0156939
866.780	0.0156306
866.858	0.0155650
866.936	0.0155968
867.014	0.0155773
867.092	0.0155521
867.170	0.0155788
867.248	0.0155168
867.326	0.0154673
867.405	0.0153449
867.483	0.0154636
867.561	0.0154557
867.639	0.0154373
867.717	0.0154824
867.795	0.0154956
867.873	0.0154932
867.951	0.0154133
868.030	0.0154707
868.108	0.0153310
868.186	0.0154078
868.264	0.0153453
868.342	0.0153730
868.420	0.0153935
868.498	0.0154243
868.576	0.0154420
868.655	0.0153236
868.733	0.0153930
868.811	0.0153579
868.889	0.0152483
868.967	0.0152138
869.045	0.0153905
869.123	0.0154865
869.201	0.0154202
869.280	0.0154156
869.358	0.0152583
869.436	0.0151876
869.514	0.0153243
869.592	0.0153888
869.670	0.0152545
869.748	0.0153625
869.826	0.0154119
869.905	0.0152348
869.983	0.0153864
870.061	0.0153263
870.139	0.0152982
870.217	0.0153916
870.295	0.0153169
870.373	0.0153336
870.451	0.0153283
870.530	0.0154131
870.608	0.0154374
870.686	0.0154925
870.764	0.0154185
870.842	0.0153123
870.920	0.0153518
870.998	0.0154250
871.076	0.0153379
871.155	0.0154729
871.233	0.0155133
871.311	0.0154772
871.389	0.0154329
871.467	0.0154079
871.545	0.0155167
871.623	0.0154838
871.701	0.0154428
871.780	0.0153726
871.858	0.0153465
871.936	0.0154229
872.014	0.0154323
872.092	0.0153879
872.170	0.0153085
872.248	0.0154304
872.326	0.0153553
872.405	0.0154095
872.483	0.0155543
872.561	0.0153973
872.639	0.0154569
872.717	0.0154900
872.795	0.0153348
872.873	0.0154951
872.951	0.0154041
873.030	0.0153242
873.108	0.0154508
873.186	0.0154005
873.264	0.0154279
873.342	0.0154807
873.420	0.0154687
873.498	0.0153368
873.576	0.0153102
873.655	0.0153127
873.733	0.0153304
873.811	0.0153796
873.889	0.0154158
873.967	0.0154166
874.045	0.0153234
874.123	0.0152955
874.201	0.0154021
874.280	0.0151757
874.358	0.0152010
874.436	0.0152048
874.514	0.0153054
874.592	0.0153484
874.670	0.0153609
874.748	0.0154620
874.826	0.0154265
874.905	0.0153321
874.983	0.0152774
875.061	0.0153532
875.139	0.0153699
875.217	0.0154267
875.295	0.0154005
875.373	0.0154399
875.451	0.0154417
875.530	0.0153508
875.608	0.0154548
875.686	0.0153818
875.764	0.0154457
875.842	0.0155683
875.920	0.0155408
875.998	0.0154200
876.076	0.0154223
876.155	0.0155178
876.233	0.0153841
876.311	0.0154528
876.389	0.0155897
876.467	0.0155105
876.545	0.0155424
876.623	0.0155112
876.701	0.0155063
876.780	0.0154131
876.858	0.0154582
876.936	0.0153872
877.014	0.0155161
877.092	0.0155676
877.170	0.0154776
877.248	0.0154203
877.326	0.0153879
877.405	0.0154751
877.483	0.0154665
877.561	0.0155132
877.639	0.0155586
877.717	0.0155543
877.795	0.0154792
877.873	0.0154509
877.951	0.0153950
878.030	0.0154363
878.108	0.0153908
878.186	0.0153788
878.264	0.0153740
878.342	0.0154839
878.420	0.0154731
878.498	0.0154763
878.576	0.0154134
878.655	0.0155531
878.733	0.0154042
878.811	0.0153406
878.889	0.0155119
878.967	0.0155588
879.045	0.0155092
879.123	0.0154188
879.201	0.0155775
879.280	0.0154797
879.358	0.0154367
879.436	0.0154230
879.514	0.0154480
879.592	0.0154456
879.670	0.0154921
879.748	0.0154577
879.826	0.0153891
879.905	0.0154636
879.983	0.0154489
880.061	0.0153977
880.139	0.0154682
880.217	0.0154233
880.295	0.0153622
880.373	0.0154430
880.451	0.0154590
880.530	0.0154829
880.608	0.0154118
880.686	0.0153235
880.764	0.0154558
880.842	0.0154614
880.920	0.0153490
880.998	0.0154117
881.076	0.0154238
881.155	0.0155962
881.233	0.0154786
881.311	0.0154351
881.389	0.0155995
881.467	0.0153815
881.545	0.0154813
881.623	0.0154896
881.701	0.0154317
881.780	0.0153675
881.858	0.0155016
881.936	0.0154208
882.014	0.0154339
882.092	0.0154375
882.170	0.0154813
882.248	0.0155383
882.326	0.0154910
882.405	0.0156226
882.483	0.0154148
882.561	0.0154849
882.639	0.0155489
882.717	0.0155293
882.795	0.0155349
882.873	0.0153912
882.951	0.0154520
883.030	0.0154338
883.108	0.0154965
883.186	0.0155519
883.264	0.0154744
883.342	0.0154362
883.420	0.0155852
883.498	0.0155453
883.576	0.0155187
883.655	0.0156043
883.733	0.0155637
883.811	0.0155677
883.889	0.0155421
883.967	0.0154991
884.045	0.0156813
884.123	0.0156026
884.201	0.0154089
884.280	0.0153613
884.358	0.0156166
884.436	0.0154936
884.514	0.0154772
884.592	0.0154597
884.670	0.0155099
884.748	0.0155776
884.826	0.0154735
884.905	0.0156832
884.983	0.0155655
885.061	0.0154698
885.139	0.0155162
885.217	0.0153815
885.295	0.0154379
885.373	0.0154823
885.451	0.0155928
885.530	0.0156531
885.608	0.0155205
885.686	0.0154601
885.764	0.0155771
885.842	0.0155396
885.920	0.0155497
885.998	0.0154585
886.076	0.0154691
886.155	0.0154498
886.233	0.0155384
886.311	0.0156258
886.389	0.0155726
886.467	0.0155506
886.545	0.0155183
886.623	0.0154211
886.701	0.0154281
886.780	0.0154865
886.858	0.0154482
886.936	0.0154562
887.014	0.0154810
887.092	0.0154204
887.170	0.0156088
887.248	0.0154641
887.326	0.0152696
887.405	0.0154324
887.483	0.0153840
887.561	0.0154042
887.639	0.0154001
887.717	0.0152847
887.795	0.0154081
887.873	0.0153226
887.951	0.0152977
888.030	0.0154202
888.108	0.0152784
888.186	0.0153151
888.264	0.0153303
888.342	0.0155336
888.420	0.0154617
888.498	0.0154456
888.576	0.0154730
888.655	0.0154034
888.733	0.0154538
888.811	0.0153719
888.889	0.0154494
888.967	0.0153901
889.045	0.0154089
889.123	0.0153202
889.201	0.0153703
889.280	0.0153823
889.358	0.0155636
889.436	0.0153570
889.514	0.0154309
889.592	0.0154140
889.670	0.0155313
889.748	0.0153933
889.826	0.0154498
889.905	0.0155098
889.983	0.0155675
890.061	0.0154995
890.139	0.0155454
890.217	0.0156789
890.295	0.0155713
890.373	0.0155489
890.451	0.0155170
890.530	0.0155775
890.608	0.0155585
890.686	0.0154661
890.764	0.0153811
890.842	0.0153951
890.920	0.0155122
890.998	0.0154498
891.076	0.0154702
891.155	0.0155325
891.233	0.0153790
891.311	0.0153970
891.389	0.0154276
891.467	0.0154063
891.545	0.0154282
891.623	0.0154310
891.701	0.0155523
891.780	0.0155438
891.858	0.0154523
891.936	0.0153751
892.014	0.0155225
892.092	0.0155325
892.170	0.0155946
892.248	0.0156036
892.326	0.0154676
892.405	0.0154643
892.483	0.0155087
892.561	0.0154462
892.639	0.0154782
892.717	0.0154478
892.795	0.0154424
892.873	0.0154974
892.951	0.0155362
893.030	0.0154125
893.108	0.0154756
893.186	0.0153915
893.264	0.0153886
893.342	0.0154651
893.420	0.0155460
893.498	0.0154974
893.576	0.0154281
893.655	0.0155071
893.733	0.0153339
893.811	0.0154129
893.889	0.0152937
893.967	0.0153906
894.045	0.0154481
894.123	0.0155602
894.201	0.0153984
894.280	0.0153846
894.358	0.0153468
894.436	0.0154270
894.514	0.0153865
894.592	0.0153219
894.670	0.0152618
894.748	0.0154415
894.826	0.0152792
894.905	0.0153689
894.983	0.0154887
895.061	0.0154057
895.139	0.0153115
895.217	0.0152805
895.295	0.0154638
895.373	0.0153117
895.451	0.0153893
895.530	0.0154948
895.608	0.0154430
895.686	0.0154230
895.764	0.0154140
895.842	0.0154561
895.920	0.0152858
895.998	0.0153819
896.076	0.0153303
896.155	0.0152465
896.233	0.0152627
896.311	0.0153630
896.389	0.0152835
896.467	0.0152930
896.545	0.0153969
896.623	0.0152856
896.701	0.0152782
896.780	0.0153072
896.858	0.0154006
896.936	0.0153977
897.014	0.0153488
897.092	0.0152709
897.170	0.0153940
897.248	0.0154669
897.326	0.0155032
897.405	0.0153764
897.483	0.0154195
897.561	0.0155054
897.639	0.0155350
897.717	0.0155733
897.795	0.0155510
897.873	0.0155246
897.951	0.0155626
898.030	0.0154739
898.108	0.0155527
898.186	0.0155484
898.264	0.0155654
898.342	0.0155323
898.420	0.0153151
898.498	0.0155099
898.576	0.0156525
898.655	0.0153770
898.733	0.0154653
898.811	0.0154595
898.889	0.0153917
898.967	0.0153685
899.045	0.0155009
899.123	0.0154170
899.201	0.0153993
899.280	0.0153576
899.358	0.0154027
899.436	0.0154913
899.514	0.0154684
899.592	0.0151542
899.670	0.0153273
899.748	0.0154366
899.826	0.0153684
899.905	0.0153825
899.983	0.0153625
900.061	0.0154446
900.139	0.0153111
900.217	0.0154426
900.295	0.0154552
900.373	0.0153213
900.451	0.0153424
900.530	0.0153610
900.608	0.0153600
900.686	0.0153593
900.764	0.0153719
900.842	0.0154282
900.920	0.0153453
900.998	0.0153555
901.076	0.0153521
901.155	0.0152927
901.233	0.0153602
901.311	0.0153185
901.389	0.0152743
901.467	0.0153535
901.545	0.0153564
901.623	0.0152682
901.701	0.0153446
901.780	0.0153987
901.858	0.0153062
901.936	0.0153269
902.014	0.0152668
902.092	0.0152167
902.170	0.0154224
902.248	0.0153459
902.326	0.0152775
902.405	0.0151669
902.483	0.0152898
902.561	0.0152463
902.639	0.0152980
902.717	0.0152578
902.795	0.0153139
902.873	0.0152773
902.951	0.0153812
903.030	0.0153413
903.108	0.0153561
903.186	0.0154415
903.264	0.0155499
903.342	0.0152598
903.420	0.0155749
903.498	0.0154601
903.576	0.0156275
903.655	0.0154692
903.733	0.0154910
903.811	0.0155235
903.889	0.0155197
903.967	0.0154607
904.045	0.0154165
904.123	0.0155418
904.201	0.0154106
904.280	0.0154104
904.358	0.0155048
904.436	0.0153883
904.514	0.0152742
904.592	0.0153934
904.670	0.0153338
904.748	0.0153069
904.826	0.0154459
904.905	0.0152726
904.983	0.0152615
905.061	0.0154070
905.139	0.0153481
905.217	0.0153287
905.295	0.0152266
905.373	0.0153157
905.451	0.0153900
905.530	0.0152304
905.608	0.0154887
905.686	0.0152944
905.764	0.0152913
905.842	0.0151353
905.920	0.0153745
905.998	0.0152103
906.076	0.0153310
906.155	0.0153837
906.233	0.0154280
906.311	0.0154222
906.389	0.0153030
906.467	0.0154514
906.545	0.0156213
906.623	0.0154637
906.701	0.0153014
906.780	0.0153639
906.858	0.0154727
906.936	0.0153478
907.014	0.0154078
907.092	0.0155046
907.170	0.0153912
907.248	0.0153973
907.326	0.0154779
907.405	0.0154788
907.483	0.0155115
907.561	0.0155091
907.639	0.0155399
907.717	0.0154866
907.795	0.0155650
907.873	0.0154989
907.951	0.0155268
908.030	0.0154980
908.108	0.0156065
908.186	0.0155548
908.264	0.0154329
908.342	0.0156417
908.420	0.0156008
908.498	0.0154832
908.576	0.0154833
908.655	0.0155215
908.733	0.0155832
908.811	0.0154939
908.889	0.0154591
908.967	0.0154007
909.045	0.0155375
909.123	0.0155149
909.201	0.0157847
909.280	0.0155000
909.358	0.0155279
909.436	0.0156332
909.514	0.0154317
909.592	0.0155378
909.670	0.0155614
909.748	0.0155689
909.826	0.0156375
909.905	0.0156799
909.983	0.0156248
910.061	0.0156718
910.139	0.0155213
910.217	0.0156008
910.295	0.0156229
910.373	0.0155434
910.451	0.0156451
910.530	0.0154976
910.608	0.0155257
910.686	0.0155862
910.764	0.0156255
910.842	0.0155268
910.920	0.0156075
910.998	0.0155210
911.076	0.0154784
911.155	0.0154484
911.233	0.0154800
911.311	0.0155415
911.389	0.0154864
911.467	0.0156103
911.545	0.0154495
911.623	0.0154311
911.701	0.0154530
911.780	0.0155669
911.858	0.0154144
911.936	0.0154835
912.014	0.0153114
912.092	0.0154592
912.170	0.0154733
912.248	0.0154270
912.326	0.0154797
912.405	0.0153616
912.483	0.0154996
912.561	0.0155260
912.639	0.0154220
912.717	0.0153720
912.795	0.0154750
912.873	0.0155385
912.951	0.0155264
913.030	0.0155911
913.108	0.0153954
913.186	0.0155186
913.264	0.0155780
913.342	0.0154205
913.420	0.0153312
913.498	0.0153602
913.576	0.0153837
913.655	0.0153507
913.733	0.0155985
913.811	0.0155015
913.889	0.0153918
913.967	0.0154972
914.045	0.0153703
914.123	0.0154583
914.201	0.0154252
914.280	0.0155017
914.358	0.0154878
914.436	0.0154698
914.514	0.0153520
914.592	0.0154279
914.670	0.0154353
914.748	0.0153752
914.826	0.0154297
914.905	0.0154269
914.983	0.0153620
915.061	0.0155532
915.139	0.0153872
915.217	0.0152784
915.295	0.0153684
915.373	0.0153526
915.451	0.0154265
915.530	0.0154295
915.608	0.0154441
915.686	0.0153843
915.764	0.0151879
915.842	0.0153406
915.920	0.0153851
915.998	0.0154360
916.076	0.0154699
916.155	0.0154965
916.233	0.0153780
916.311	0.0154081
916.389	0.0154582
916.467	0.0153922
916.545	0.0154907
916.623	0.0153863
916.701	0.0153400
916.780	0.0154725
916.858	0.0154613
916.936	0.0155054
917.014	0.0154881
917.092	0.0156179
917.170	0.0156204
917.248	0.0155364
917.326	0.0157085
917.405	0.0154498
917.483	0.0154493
917.561	0.0153866
917.639	0.0155328
917.717	0.0154042
917.795	0.0154895
917.873	0.0154205
917.951	0.0156268
918.030	0.0155580
918.108	0.0155337
918.186	0.0155154
918.264	0.0154468
918.342	0.0154404
918.420	0.0154011
918.498	0.0154725
918.576	0.0155237
918.655	0.0154230
918.733	0.0155077
918.811	0.0155107
918.889	0.0156833
918.967	0.0155331
919.045	0.0155806
919.123	0.0153804
919.201	0.0155756
919.280	0.0154971
919.358	0.0154226
919.436	0.0154440
919.514	0.0155034
919.592	0.0154437
919.670	0.0156255
919.748	0.0154359
919.826	0.0155205
919.905	0.0154068
919.983	0.0154797
920.061	0.0154955
920.139	0.0154430
920.217	0.0155624
920.295	0.0154570
920.373	0.0155116
920.451	0.0154028
920.530	0.0153583
920.608	0.0154827
920.686	0.0155701
920.764	0.0154000
920.842	0.0153677
920.920	0.0154287
920.998	0.0154912
921.076	0.0154346
921.155	0.0154546
921.233	0.0154454
921.311	0.0153309
921.389	0.0154720
921.467	0.0153670
921.545	0.0154929
921.623	0.0153842
921.701	0.0152858
921.780	0.0153767
921.858	0.0154298
921.936	0.0154233
922.014	0.0153229
922.092	0.0153157
922.170	0.0155087
922.248	0.0152908
922.326	0.0152224
922.405	0.0153896
922.483	0.0155085
922.561	0.0154252
922.639	0.0153239
922.717	0.0152071
922.795	0.0154331
922.873	0.0152898
922.951	0.0153761
923.030	0.0155859
923.108	0.0154568
923.186	0.0154543
923.264	0.0153934
923.342	0.0153780
923.420	0.0153487
923.498	0.0154511
923.576	0.0155148
923.655	0.0154743
923.733	0.0154021
923.811	0.0154435
923.889	0.0154601
923.967	0.0154388
924.045	0.0153857
924.123	0.0154510
924.201	0.0154217
924.280	0.0153692
924.358	0.0154492
924.436	0.0153313
924.514	0.0153593
924.592	0.0153593
924.670	0.0153826
924.748	0.0154471
924.826	0.0154388
924.905	0.0152970
924.983	0.0154519
925.061	0.0153178
925.139	0.0153638
925.217	0.0153972
925.295	0.0153271
925.373	0.0152367
925.451	0.0152481
925.530	0.0153988
925.608	0.0153067
925.686	0.0153606
925.764	0.0153444
925.842	0.0152780
925.920	0.0153921
925.998	0.0154647
926.076	0.0152957
926.155	0.0153456
926.233	0.0152923
926.311	0.0153149
926.389	0.0153191
926.467	0.0153117
926.545	0.0155117
926.623	0.0153622
926.701	0.0153193
926.780	0.0153912
926.858	0.0153101
926.936	0.0154185
927.014	0.0153824
927.092	0.0154876
927.170	0.0154552
927.248	0.0154671
927.326	0.0154165
927.405	0.0153481
927.483	0.0154565
927.561	0.0153847
927.639	0.0154564
927.717	0.0152957
927.795	0.0154365
927.873	0.0153696
927.951	0.0155044
928.030	0.0155114
928.108	0.0154781
928.186	0.0154990
928.264	0.0154754
928.342	0.0155338
928.420	0.0153730
928.498	0.0153843
928.576	0.0155514
928.655	0.0155824
928.733	0.0155696
928.811	0.0152929
928.889	0.0152649
928.967	0.0155811
929.045	0.0155248
929.123	0.0154752
929.201	0.0154271
929.280	0.0153239
929.358	0.0153429
929.436	0.0153030
929.514	0.0154066
929.592	0.0154884
929.670	0.0153654
929.748	0.0153165
929.826	0.0152708
929.905	0.0153004
929.983	0.0153166
930.061	0.0152217
930.139	0.0151421
930.217	0.0153415
930.295	0.0152335
930.373	0.0153571
930.451	0.0153532
930.530	0.0151837
930.608	0.0151969
930.686	0.0153738
930.764	0.0153156
930.842	0.0151991
930.920	0.0151111
930.998	0.0152293
931.076	0.0152772
931.155	0.0151793
931.233	0.0152449
931.311	0.0151246
931.389	0.0151748
931.467	0.0153506
931.545	0.0152862
931.623	0.0152850
931.701	0.0153613
931.780	0.0153418
931.858	0.0153465
931.936	0.0153976
932.014	0.0153783
932.092	0.0152732
932.170	0.0155193
932.248	0.0154884
932.326	0.0154288
932.405	0.0154253
932.483	0.0153301
932.561	0.0154444
932.639	0.0153993
932.717	0.0153724
932.795	0.0153818
932.873	0.0153887
932.951	0.0151883
933.030	0.0154028
933.108	0.0153733
933.186	0.0155072
933.264	0.0154556
933.342	0.0152947
933.420	0.0154730
933.498	0.0154227
933.576	0.0154540
933.655	0.0154701
933.733	0.0154617
933.811	0.0154768
933.889	0.0154901
933.967	0.0155009
934.045	0.0156017
934.123	0.0154357
934.201	0.0155661
934.280	0.0154220
934.358	0.0154808
934.436	0.0154988
934.514	0.0154720
934.592	0.0154687
934.670	0.0155464
934.748	0.0155495
934.826	0.0155508
934.905	0.0154651
934.983	0.0154545
935.061	0.0156536
935.139	0.0154561
935.217	0.0154926
935.295	0.0154232
935.373	0.0154904
935.451	0.0154816
935.530	0.0154951
935.608	0.0154302
935.686	0.0153889
935.764	0.0155670
935.842	0.0156426
935.920	0.0153232
935.998	0.0156049
936.076	0.0155029
936.155	0.0154623
936.233	0.0153540
936.311	0.0154686
936.389	0.0155090
936.467	0.0155714
936.545	0.0155415
936.623	0.0154484
936.701	0.0155302
936.780	0.0156802
936.858	0.0154987
936.936	0.0156039
937.014	0.0156145
937.092	0.0155738
937.170	0.0155686
937.248	0.0155431
937.326	0.0155249
937.405	0.0155419
937.483	0.0157059
937.561	0.0156354
937.639	0.0154829
937.717	0.0154654
937.795	0.0154655
937.873	0.0155856
937.951	0.0156074
938.030	0.0154144
938.108	0.0154865
938.186	0.0155457
938.264	0.0154462
938.342	0.0154878
938.420	0.0155002
938.498	0.0156259
938.576	0.0155339
938.655	0.0154695
938.733	0.0155476
938.811	0.0154796
938.889	0.0153414
938.967	0.0154089
939.045	0.0153936
939.123	0.0154906
939.201	0.0154024
939.280	0.0154279
939.358	0.0153870
939.436	0.0153840
939.514	0.0153821
939.592	0.0153535
939.670	0.0154673
939.748	0.0154026
939.826	0.0154773
939.905	0.0154341
939.983	0.0154488
940.061	0.0154549
940.139	0.0155183
940.217	0.0155448
940.295	0.0155941
940.373	0.0156184
940.451	0.0154050
940.530	0.0154135
940.608	0.0155444
940.686	0.0154467
940.764	0.0154907
940.842	0.0155792
940.920	0.0155113
940.998	0.0154652
941.076	0.0154867
941.155	0.0154751
941.233	0.0156372
941.311	0.0155851
941.389	0.0155196
941.467	0.0155507
941.545	0.0155878
941.623	0.0154639
941.701	0.0155302
941.780	0.0154716
941.858	0.0155225
941.936	0.0153999
942.014	0.0153744
942.092	0.0154829
942.170	0.0153525
942.248	0.0152763
942.326	0.0154123
942.405	0.0154743
942.483	0.0154736
942.561	0.0154072
942.639	0.0154002
942.717	0.0153445
942.795	0.0155032
942.873	0.0153312
942.951	0.0154538
943.030	0.0154990
943.108	0.0154816
943.186	0.0154107
943.264	0.0153059
943.342	0.0153796
943.420	0.0153848
943.498	0.0154171
943.576	0.0153698
943.655	0.0153645
943.733	0.0154389
943.811	0.0154137
943.889	0.0154074
943.967	0.0153902
944.045	0.0154211
944.123	0.0154919
944.201	0.0153924
944.280	0.0153846
944.358	0.0152946
944.436	0.0154005
944.514	0.0154161
944.592	0.0153459
944.670	0.0152790
944.748	0.0153255
944.826	0.0153095
944.905	0.0152562
944.983	0.0153809
945.061	0.0153264
945.139	0.0154358
945.217	0.0152648
945.295	0.0153606
945.373	0.0153354
945.451	0.0153944
945.530	0.0153458
945.608	0.0153439
945.686	0.0153893
945.764	0.0153847
945.842	0.0152283
945.920	0.0153469
945.998	0.0153695
946.076	0.0152814
946.155	0.0153876
946.233	0.0153111
946.311	0.0153020
946.389	0.0153545
946.467	0.0152699
946.545	0.0153065
946.623	0.0154151
946.701	0.0154581
946.780	0.0153896
946.858	0.0154786
946.936	0.0155183
947.014	0.0154720
947.092	0.0155135
947.170	0.0154567
947.248	0.0154662
947.326	0.0155318
947.405	0.0155363
947.483	0.0154089
947.561	0.0153986
947.639	0.0154398
947.717	0.0155173
947.795	0.0155239
947.873	0.0155619
947.951	0.0154917
948.030	0.0154967
948.108	0.0153909
948.186	0.0154952
948.264	0.0153574
948.342	0.0154727
948.420	0.0155115
948.498	0.0153585
948.576	0.0154424
948.655	0.0153223
948.733	0.0154334
948.811	0.0153262
948.889	0.0153470
948.967	0.0153352
949.045	0.0154045
949.123	0.0153853
949.201	0.0152909
949.280	0.0153907
949.358	0.0153823
949.436	0.0153362
949.514	0.0153781
949.592	0.0153027
949.670	0.0155682
949.748	0.0154639
949.826	0.0152869
949.905	0.0153343
949.983	0.0152633
950.061	0.0153880
950.139	0.0153035
950.217	0.0153133
950.295	0.0154291
950.373	0.0154442
950.451	0.0153229
950.530	0.0151930
950.608	0.0153825
950.686	0.0153914
950.764	0.0152890
950.842	0.0153957
950.920	0.0152986
950.998	0.0152431
951.076	0.0151772
951.155	0.0154220
951.233	0.0153646
951.311	0.0152708
951.389	0.0152943
951.467	0.0153337
951.545	0.0153582
951.623	0.0154314
951.701	0.0152763
951.780	0.0153680
951.858	0.0155574
951.936	0.0154530
952.014	0.0153619
952.092	0.0153012
952.170	0.0154796
952.248	0.0154534
952.326	0.0153809
952.405	0.0152878
952.483	0.0153788
952.561	0.0154841
952.639	0.0154243
952.717	0.0155312
952.795	0.0154587
952.873	0.0154916
952.951	0.0154944
953.030	0.0155081
953.108	0.0153441
953.186	0.0153246
953.264	0.0154799
953.342	0.0157552
953.420	0.0154513
953.498	0.0155547
953.576	0.0156171
953.655	0.0155775
953.733	0.0156192
953.811	0.0154961
953.889	0.0155384
953.967	0.0157138
954.045	0.0156964
954.123	0.0154353
954.201	0.0154275
954.280	0.0156275
954.358	0.0154220
954.436	0.0154272
954.514	0.0155138
954.592	0.0154592
954.670	0.0155052
954.748	0.0155048
954.826	0.0154502
954.905	0.0154148
954.983	0.0154771
955.061	0.0153887
955.139	0.0154530
955.217	0.0154237
955.295	0.0153508
955.373	0.0153598
955.451	0.0154482
955.530	0.0154032
955.608	0.0153991
955.686	0.0153941
955.764	0.0154210
955.842	0.0152870
955.920	0.0154712
955.998	0.0154826
956.076	0.0153589
956.155	0.0155618
956.233	0.0154286
956.311	0.0153673
956.389	0.0154813
956.467	0.0154472
956.545	0.0155045
956.623	0.0154266
956.701	0.0154876
956.780	0.0154420
956.858	0.0154793
956.936	0.0154386
957.014	0.0154410
957.092	0.0153872
957.170	0.0153335
957.248	0.0153725
957.326	0.0154585
957.405	0.0153798
957.483	0.0154252
957.561	0.0153208
957.639	0.0154156
957.717	0.0153719
957.795	0.0154877
957.873	0.0153965
957.951	0.0154575
958.030	0.0154083
958.108	0.0152175
958.186	0.0152850
958.264	0.0154034
958.342	0.0153709
958.420	0.0153765
958.498	0.0154324
958.576	0.0154105
958.655	0.0154871
958.733	0.0153574
958.811	0.0153349
958.889	0.0153090
958.967	0.0154304
959.045	0.0154848
959.123	0.0153568
959.201	0.0155709
959.280	0.0153205
959.358	0.0154327
959.436	0.0154610
959.514	0.0153702
959.592	0.0153639
959.670	0.0153244
959.748	0.0154234
959.826	0.0153836
959.905	0.0154164
