05/20/2022	17:17:00	Ver.	4.1	UNKNOWN
Optical Delay	639.982744	Delta X		0.078125	Sweeps	1	Scan Rate	0/0
Coordinates	Axis 1	NaN	Axis 2	NaN	Axis 3	NaN	Axis 4	NaN	Axis 5	NaN	Axis 6	0.000000
TX Power	0.000000	RX Power	0.000000

639.983	0.0151684
640.061	0.0151981
640.139	0.0151861
640.217	0.0150649
640.295	0.0149668
640.373	0.0152356
640.451	0.0150925
640.530	0.0150419
640.608	0.0150853
640.686	0.0150264
640.764	0.0149587
640.842	0.0149792
640.920	0.0149781
640.998	0.0151326
641.076	0.0150518
641.155	0.0148928
641.233	0.0149523
641.311	0.0149796
641.389	0.0151984
641.467	0.0151353
641.545	0.0150966
641.623	0.0151709
641.701	0.0151704
641.780	0.0150117
641.858	0.0151012
641.936	0.0150359
642.014	0.0151271
642.092	0.0150983
642.170	0.0151962
642.248	0.0151958
642.326	0.0151282
642.405	0.0151473
642.483	0.0150726
642.561	0.0151408
642.639	0.0152059
642.717	0.0151405
642.795	0.0150865
642.873	0.0153710
642.951	0.0152439
643.030	0.0150955
643.108	0.0150869
643.186	0.0151192
643.264	0.0153143
643.342	0.0152734
643.420	0.0152170
643.498	0.0151546
643.576	0.0152394
643.655	0.0151152
643.733	0.0150822
643.811	0.0153193
643.889	0.0153459
643.967	0.0153578
644.045	0.0153145
644.123	0.0150425
644.201	0.0151357
644.280	0.0153698
644.358	0.0153243
644.436	0.0153609
644.514	0.0152581
644.592	0.0152834
644.670	0.0151732
644.748	0.0152259
644.826	0.0153075
644.905	0.0153175
644.983	0.0151744
645.061	0.0152138
645.139	0.0152914
645.217	0.0152459
645.295	0.0153617
645.373	0.0153443
645.451	0.0152432
645.530	0.0151427
645.608	0.0152573
645.686	0.0151815
645.764	0.0152617
645.842	0.0154073
645.920	0.0153184
645.998	0.0152334
646.076	0.0151965
646.155	0.0153525
646.233	0.0153329
646.311	0.0152623
646.389	0.0153700
646.467	0.0154638
646.545	0.0152985
646.623	0.0153687
646.701	0.0152969
646.780	0.0153892
646.858	0.0154359
646.936	0.0154124
647.014	0.0153137
647.092	0.0151858
647.170	0.0151063
647.248	0.0152106
647.326	0.0151969
647.405	0.0151362
647.483	0.0151165
647.561	0.0151752
647.639	0.0151891
647.717	0.0152943
647.795	0.0150597
647.873	0.0150264
647.951	0.0151835
648.030	0.0151283
648.108	0.0150391
648.186	0.0151163
648.264	0.0153078
648.342	0.0152959
648.420	0.0151130
648.498	0.0152232
648.576	0.0152316
648.655	0.0151402
648.733	0.0152261
648.811	0.0151215
648.889	0.0152515
648.967	0.0150360
649.045	0.0150282
649.123	0.0152701
649.201	0.0150699
649.280	0.0152072
649.358	0.0151867
649.436	0.0152195
649.514	0.0154102
649.592	0.0152688
649.670	0.0153521
649.748	0.0155031
649.826	0.0154924
649.905	0.0154630
649.983	0.0153175
650.061	0.0153970
650.139	0.0154202
650.217	0.0154139
650.295	0.0154097
650.373	0.0153894
650.451	0.0153508
650.530	0.0154173
650.608	0.0155284
650.686	0.0152248
650.764	0.0151122
650.842	0.0151830
650.920	0.0151302
650.998	0.0152046
651.076	0.0151410
651.155	0.0150047
651.233	0.0151302
651.311	0.0149979
651.389	0.0150926
651.467	0.0150310
651.545	0.0150820
651.623	0.0151090
651.701	0.0150591
651.780	0.0152639
651.858	0.0152487
651.936	0.0152492
652.014	0.0152744
652.092	0.0152060
652.170	0.0152760
652.248	0.0153331
652.326	0.0153362
652.405	0.0153503
652.483	0.0154208
652.561	0.0153191
652.639	0.0153806
652.717	0.0153063
652.795	0.0153058
652.873	0.0152034
652.951	0.0151595
653.030	0.0151488
653.108	0.0150715
653.186	0.0151363
653.264	0.0149574
653.342	0.0151064
653.420	0.0151145
653.498	0.0149844
653.576	0.0150394
653.655	0.0151164
653.733	0.0151402
653.811	0.0151431
653.889	0.0151561
653.967	0.0151017
654.045	0.0152744
654.123	0.0151116
654.201	0.0150729
654.280	0.0153368
654.358	0.0153197
654.436	0.0151833
654.514	0.0153995
654.592	0.0153848
654.670	0.0153953
654.748	0.0154430
654.826	0.0154617
654.905	0.0154253
654.983	0.0154904
655.061	0.0154838
655.139	0.0155184
655.217	0.0154909
655.295	0.0154236
655.373	0.0154001
655.451	0.0154506
655.530	0.0153255
655.608	0.0152545
655.686	0.0152329
655.764	0.0153070
655.842	0.0151666
655.920	0.0152466
655.998	0.0150517
656.076	0.0151081
656.155	0.0152167
656.233	0.0151727
656.311	0.0150235
656.389	0.0149310
656.467	0.0148922
656.545	0.0150986
656.623	0.0149696
656.701	0.0148923
656.780	0.0150459
656.858	0.0151212
656.936	0.0151746
657.014	0.0151015
657.092	0.0150292
657.170	0.0151333
657.248	0.0153093
657.326	0.0153667
657.405	0.0153806
657.483	0.0152625
657.561	0.0153374
657.639	0.0153430
657.717	0.0152223
657.795	0.0153159
657.873	0.0153458
657.951	0.0152619
658.030	0.0152824
658.108	0.0152518
658.186	0.0151874
658.264	0.0149706
658.342	0.0150699
658.420	0.0151568
658.498	0.0150685
658.576	0.0150222
658.655	0.0149531
658.733	0.0150815
658.811	0.0150463
658.889	0.0148818
658.967	0.0149301
659.045	0.0150330
659.123	0.0150810
659.201	0.0149850
659.280	0.0149773
659.358	0.0149413
659.436	0.0149084
659.514	0.0150240
659.592	0.0149997
659.670	0.0149010
659.748	0.0150237
659.826	0.0150870
659.905	0.0151054
659.983	0.0150568
660.061	0.0153207
660.139	0.0152042
660.217	0.0153091
660.295	0.0153422
660.373	0.0152617
660.451	0.0154514
660.530	0.0152901
660.608	0.0153078
660.686	0.0152070
660.764	0.0153043
660.842	0.0152036
660.920	0.0152514
660.998	0.0152344
661.076	0.0151517
661.155	0.0151874
661.233	0.0152437
661.311	0.0150999
661.389	0.0151412
661.467	0.0151675
661.545	0.0151084
661.623	0.0151344
661.701	0.0150832
661.780	0.0151719
661.858	0.0152171
661.936	0.0152377
662.014	0.0152151
662.092	0.0151283
662.170	0.0152314
662.248	0.0153267
662.326	0.0154100
662.405	0.0153030
662.483	0.0151405
662.561	0.0152797
662.639	0.0152717
662.717	0.0153561
662.795	0.0152107
662.873	0.0152765
662.951	0.0151539
663.030	0.0151684
663.108	0.0150947
663.186	0.0151612
663.264	0.0150515
663.342	0.0150909
663.420	0.0151405
663.498	0.0150805
663.576	0.0148460
663.655	0.0147478
663.733	0.0147277
663.811	0.0148424
663.889	0.0147246
663.967	0.0148022
664.045	0.0146410
664.123	0.0145341
664.201	0.0147243
664.280	0.0146973
664.358	0.0146396
664.436	0.0147237
664.514	0.0148780
664.592	0.0148376
664.670	0.0151147
664.748	0.0151187
664.826	0.0148701
664.905	0.0151037
664.983	0.0152644
665.061	0.0152222
665.139	0.0153874
665.217	0.0154631
665.295	0.0155018
665.373	0.0157631
665.451	0.0156455
665.530	0.0157297
665.608	0.0156226
665.686	0.0155450
665.764	0.0157623
665.842	0.0156342
665.920	0.0156391
665.998	0.0158006
666.076	0.0156828
666.155	0.0157216
666.233	0.0156538
666.311	0.0156685
666.389	0.0156033
666.467	0.0155715
666.545	0.0155673
666.623	0.0154903
666.701	0.0155489
666.780	0.0155028
666.858	0.0154170
666.936	0.0152547
667.014	0.0153641
667.092	0.0153437
667.170	0.0152695
667.248	0.0150770
667.326	0.0151968
667.405	0.0151112
667.483	0.0150530
667.561	0.0151666
667.639	0.0150739
667.717	0.0149129
667.795	0.0151080
667.873	0.0147582
667.951	0.0147820
668.030	0.0146314
668.108	0.0146902
668.186	0.0147089
668.264	0.0145988
668.342	0.0145531
668.420	0.0144830
668.498	0.0144683
668.576	0.0145490
668.655	0.0143120
668.733	0.0143519
668.811	0.0144259
668.889	0.0143778
668.967	0.0143489
669.045	0.0142093
669.123	0.0143939
669.201	0.0144324
669.280	0.0145882
669.358	0.0145828
669.436	0.0145142
669.514	0.0146594
669.592	0.0148244
669.670	0.0148184
669.748	0.0149656
669.826	0.0150204
669.905	0.0150387
669.983	0.0151157
670.061	0.0152525
670.139	0.0153497
670.217	0.0153977
670.295	0.0155102
670.373	0.0154978
670.451	0.0155689
670.530	0.0157018
670.608	0.0157684
670.686	0.0157531
670.764	0.0157935
670.842	0.0157972
670.920	0.0155910
670.998	0.0158097
671.076	0.0158849
671.155	0.0158875
671.233	0.0157258
671.311	0.0156447
671.389	0.0160125
671.467	0.0159586
671.545	0.0159229
671.623	0.0159057
671.701	0.0160228
671.780	0.0159359
671.858	0.0157899
671.936	0.0159221
672.014	0.0159809
672.092	0.0158689
672.170	0.0159108
672.248	0.0158398
672.326	0.0157860
672.405	0.0158280
672.483	0.0156778
672.561	0.0154883
672.639	0.0153671
672.717	0.0154011
672.795	0.0154478
672.873	0.0151690
672.951	0.0149521
673.030	0.0148078
673.108	0.0147753
673.186	0.0145615
673.264	0.0143974
673.342	0.0143245
673.420	0.0142277
673.498	0.0142245
673.576	0.0141045
673.655	0.0139283
673.733	0.0137247
673.811	0.0137700
673.889	0.0138178
673.967	0.0139611
674.045	0.0137587
674.123	0.0137582
674.201	0.0139793
674.280	0.0141376
674.358	0.0140327
674.436	0.0142515
674.514	0.0142819
674.592	0.0144627
674.670	0.0146385
674.748	0.0148257
674.826	0.0147900
674.905	0.0148920
674.983	0.0151270
675.061	0.0152535
675.139	0.0156512
675.217	0.0157665
675.295	0.0158167
675.373	0.0160408
675.451	0.0161150
675.530	0.0162277
675.608	0.0162894
675.686	0.0161890
675.764	0.0163496
675.842	0.0163895
675.920	0.0164872
675.998	0.0163292
676.076	0.0164690
676.155	0.0163580
676.233	0.0163692
676.311	0.0163174
676.389	0.0164017
676.467	0.0161868
676.545	0.0161270
676.623	0.0160625
676.701	0.0161210
676.780	0.0159455
676.858	0.0158540
676.936	0.0156814
677.014	0.0156254
677.092	0.0155878
677.170	0.0154491
677.248	0.0152877
677.326	0.0152280
677.405	0.0151083
677.483	0.0151517
677.561	0.0150334
677.639	0.0149670
677.717	0.0150211
677.795	0.0148249
677.873	0.0147339
677.951	0.0147877
678.030	0.0147362
678.108	0.0146187
678.186	0.0145595
678.264	0.0145933
678.342	0.0144332
678.420	0.0145854
678.498	0.0144981
678.576	0.0143965
678.655	0.0145147
678.733	0.0143965
678.811	0.0146624
678.889	0.0147152
678.967	0.0145731
679.045	0.0146380
679.123	0.0146585
679.201	0.0147694
679.280	0.0147534
679.358	0.0147889
679.436	0.0149274
679.514	0.0149337
679.592	0.0149761
679.670	0.0149425
679.748	0.0150622
679.826	0.0152870
679.905	0.0153634
679.983	0.0153586
680.061	0.0152931
680.139	0.0154497
680.217	0.0155466
680.295	0.0156435
680.373	0.0156045
680.451	0.0156403
680.530	0.0155732
680.608	0.0156128
680.686	0.0156333
680.764	0.0155420
680.842	0.0154178
680.920	0.0153859
680.998	0.0154191
681.076	0.0154539
681.155	0.0154475
681.233	0.0153502
681.311	0.0152722
681.389	0.0152845
681.467	0.0151914
681.545	0.0151861
681.623	0.0151171
681.701	0.0151282
681.780	0.0150900
681.858	0.0149641
681.936	0.0149757
682.014	0.0150216
682.092	0.0150049
682.170	0.0150130
682.248	0.0149525
682.326	0.0150131
682.405	0.0149837
682.483	0.0150635
682.561	0.0151131
682.639	0.0151830
682.717	0.0151488
682.795	0.0152202
682.873	0.0152567
682.951	0.0153535
683.030	0.0155010
683.108	0.0154103
683.186	0.0153805
683.264	0.0153570
683.342	0.0154906
683.420	0.0154912
683.498	0.0153439
683.576	0.0153782
683.655	0.0151620
683.733	0.0152337
683.811	0.0151917
683.889	0.0151460
683.967	0.0150412
684.045	0.0149142
684.123	0.0151479
684.201	0.0150163
684.280	0.0149811
684.358	0.0149180
684.436	0.0150330
684.514	0.0150604
684.592	0.0149378
684.670	0.0149113
684.748	0.0148794
684.826	0.0149236
684.905	0.0149480
684.983	0.0148923
685.061	0.0148776
685.139	0.0148727
685.217	0.0149096
685.295	0.0148116
685.373	0.0149489
685.451	0.0146761
685.530	0.0145720
685.608	0.0147465
685.686	0.0147609
685.764	0.0148208
685.842	0.0146825
685.920	0.0145978
685.998	0.0148082
686.076	0.0148286
686.155	0.0148138
686.233	0.0148597
686.311	0.0148266
686.389	0.0150254
686.467	0.0149274
686.545	0.0151765
686.623	0.0152045
686.701	0.0151375
686.780	0.0152312
686.858	0.0152809
686.936	0.0153820
687.014	0.0153105
687.092	0.0152943
687.170	0.0153291
687.248	0.0153380
687.326	0.0154804
687.405	0.0155029
687.483	0.0154153
687.561	0.0155290
687.639	0.0155603
687.717	0.0154464
687.795	0.0155488
687.873	0.0155959
687.951	0.0154634
688.030	0.0154858
688.108	0.0156134
688.186	0.0156225
688.264	0.0156538
688.342	0.0154330
688.420	0.0155083
688.498	0.0156813
688.576	0.0154984
688.655	0.0156150
688.733	0.0154414
688.811	0.0153734
688.889	0.0153548
688.967	0.0152588
689.045	0.0151512
689.123	0.0150574
689.201	0.0151775
689.280	0.0151884
689.358	0.0150507
689.436	0.0150394
689.514	0.0150508
689.592	0.0150958
689.670	0.0149837
689.748	0.0150008
689.826	0.0149643
689.905	0.0150013
689.983	0.0150131
690.061	0.0149645
690.139	0.0149281
690.217	0.0151322
690.295	0.0150569
690.373	0.0152407
690.451	0.0151646
690.530	0.0151442
690.608	0.0151343
690.686	0.0152859
690.764	0.0151952
690.842	0.0151121
690.920	0.0153169
690.998	0.0153041
691.076	0.0153200
691.155	0.0152248
691.233	0.0153099
691.311	0.0152801
691.389	0.0153181
691.467	0.0153291
691.545	0.0152242
691.623	0.0152631
691.701	0.0151758
691.780	0.0151811
691.858	0.0150875
691.936	0.0150898
692.014	0.0149003
692.092	0.0149467
692.170	0.0149490
692.248	0.0147954
692.326	0.0147078
692.405	0.0146885
692.483	0.0146488
692.561	0.0144634
692.639	0.0145093
692.717	0.0145206
692.795	0.0143620
692.873	0.0143463
692.951	0.0143855
693.030	0.0144239
693.108	0.0144078
693.186	0.0144473
693.264	0.0144711
693.342	0.0146275
693.420	0.0146189
693.498	0.0148211
693.576	0.0148492
693.655	0.0147540
693.733	0.0148946
693.811	0.0149410
693.889	0.0150072
693.967	0.0150446
694.045	0.0151351
694.123	0.0151958
694.201	0.0151801
694.280	0.0152393
694.358	0.0152658
694.436	0.0154193
694.514	0.0153903
694.592	0.0153526
694.670	0.0154047
694.748	0.0155136
694.826	0.0156240
694.905	0.0156882
694.983	0.0155981
695.061	0.0155825
695.139	0.0157594
695.217	0.0158377
695.295	0.0158834
695.373	0.0159077
695.451	0.0159493
695.530	0.0161309
695.608	0.0161405
695.686	0.0161887
695.764	0.0159687
695.842	0.0160199
695.920	0.0160632
695.998	0.0159698
696.076	0.0159077
696.155	0.0158363
696.233	0.0155802
696.311	0.0155559
696.389	0.0155195
696.467	0.0154770
696.545	0.0153825
696.623	0.0152279
696.701	0.0149615
696.780	0.0150112
696.858	0.0149194
696.936	0.0148186
697.014	0.0148548
697.092	0.0146770
697.170	0.0145559
697.248	0.0145415
697.326	0.0144154
697.405	0.0144007
697.483	0.0143435
697.561	0.0144727
697.639	0.0143052
697.717	0.0143745
697.795	0.0142648
697.873	0.0143109
697.951	0.0142830
698.030	0.0143797
698.108	0.0142927
698.186	0.0143758
698.264	0.0144046
698.342	0.0144315
698.420	0.0145023
698.498	0.0145759
698.576	0.0145022
698.655	0.0146230
698.733	0.0148617
698.811	0.0148438
698.889	0.0150876
698.967	0.0151736
699.045	0.0151027
699.123	0.0151296
699.201	0.0152322
699.280	0.0153580
699.358	0.0154210
699.436	0.0156059
699.514	0.0155613
699.592	0.0155194
699.670	0.0156818
699.748	0.0157352
699.826	0.0157579
699.905	0.0159036
699.983	0.0158858
700.061	0.0158916
700.139	0.0159676
700.217	0.0159743
700.295	0.0158826
700.373	0.0158592
700.451	0.0158108
700.530	0.0158965
700.608	0.0157341
700.686	0.0156858
700.764	0.0157585
700.842	0.0155444
700.920	0.0156654
700.998	0.0154367
701.076	0.0154088
701.155	0.0153169
701.233	0.0152277
701.311	0.0151192
701.389	0.0152189
701.467	0.0151662
701.545	0.0150919
701.623	0.0150548
701.701	0.0148830
701.780	0.0149807
701.858	0.0150069
701.936	0.0149295
702.014	0.0148727
702.092	0.0147902
702.170	0.0149866
702.248	0.0149569
702.326	0.0151156
702.405	0.0148546
702.483	0.0149293
702.561	0.0150867
702.639	0.0149625
702.717	0.0150558
702.795	0.0150546
702.873	0.0151123
702.951	0.0149379
703.030	0.0148608
703.108	0.0149622
703.186	0.0149366
703.264	0.0148934
703.342	0.0149096
703.420	0.0146468
703.498	0.0145897
703.576	0.0146621
703.655	0.0145106
703.733	0.0145662
703.811	0.0145693
703.889	0.0145361
703.967	0.0146467
704.045	0.0146813
704.123	0.0148035
704.201	0.0148333
704.280	0.0147894
704.358	0.0148607
704.436	0.0150595
704.514	0.0152065
704.592	0.0152562
704.670	0.0153181
704.748	0.0155384
704.826	0.0154704
704.905	0.0156147
704.983	0.0157161
705.061	0.0157221
705.139	0.0158101
705.217	0.0156160
705.295	0.0157919
705.373	0.0158962
705.451	0.0158069
705.530	0.0157340
705.608	0.0158482
705.686	0.0156821
705.764	0.0156023
705.842	0.0155334
705.920	0.0154611
705.998	0.0154858
706.076	0.0153829
706.155	0.0153107
706.233	0.0153709
706.311	0.0151760
706.389	0.0152012
706.467	0.0152740
706.545	0.0151277
706.623	0.0151186
706.701	0.0151012
706.780	0.0150122
706.858	0.0150197
706.936	0.0150786
707.014	0.0149986
707.092	0.0150130
707.170	0.0151320
707.248	0.0151151
707.326	0.0151089
707.405	0.0150095
707.483	0.0150037
707.561	0.0149965
707.639	0.0151491
707.717	0.0152798
707.795	0.0151560
707.873	0.0152251
707.951	0.0151924
708.030	0.0152621
708.108	0.0152599
708.186	0.0154729
708.264	0.0152920
708.342	0.0152119
708.420	0.0153085
708.498	0.0152693
708.576	0.0153430
708.655	0.0154295
708.733	0.0152074
708.811	0.0152323
708.889	0.0151994
708.967	0.0152831
709.045	0.0151401
709.123	0.0150529
709.201	0.0150869
709.280	0.0150602
709.358	0.0150038
709.436	0.0150867
709.514	0.0150459
709.592	0.0150005
709.670	0.0151611
709.748	0.0149318
709.826	0.0150986
709.905	0.0150571
709.983	0.0150309
710.061	0.0150634
710.139	0.0149476
710.217	0.0150089
710.295	0.0151540
710.373	0.0151191
710.451	0.0152113
710.530	0.0153690
710.608	0.0153165
710.686	0.0152790
710.764	0.0154549
710.842	0.0154335
710.920	0.0154246
710.998	0.0154383
711.076	0.0153279
711.155	0.0153914
711.233	0.0153773
711.311	0.0152635
711.389	0.0152948
711.467	0.0152456
711.545	0.0152650
711.623	0.0151990
711.701	0.0153053
711.780	0.0152026
711.858	0.0151793
711.936	0.0152067
712.014	0.0152782
712.092	0.0152834
712.170	0.0151516
712.248	0.0153030
712.326	0.0151979
712.405	0.0152090
712.483	0.0151202
712.561	0.0151666
712.639	0.0150963
712.717	0.0150439
712.795	0.0151939
712.873	0.0150919
712.951	0.0151720
713.030	0.0151128
713.108	0.0151803
713.186	0.0151194
713.264	0.0151353
713.342	0.0151715
713.420	0.0150502
713.498	0.0151241
713.576	0.0150452
713.655	0.0151174
713.733	0.0151980
713.811	0.0150211
713.889	0.0151952
713.967	0.0152764
714.045	0.0151943
714.123	0.0152202
714.201	0.0151274
714.280	0.0151013
714.358	0.0153013
714.436	0.0153298
714.514	0.0153165
714.592	0.0153051
714.670	0.0153021
714.748	0.0151757
714.826	0.0152018
714.905	0.0151527
714.983	0.0150568
715.061	0.0150979
715.139	0.0150267
715.217	0.0148640
715.295	0.0149693
715.373	0.0149250
715.451	0.0148456
715.530	0.0148663
715.608	0.0148808
715.686	0.0148362
715.764	0.0148792
715.842	0.0149077
715.920	0.0149631
715.998	0.0147675
716.076	0.0149605
716.155	0.0149830
716.233	0.0150203
716.311	0.0148724
716.389	0.0150847
716.467	0.0150945
716.545	0.0151092
716.623	0.0150975
716.701	0.0152271
716.780	0.0152349
716.858	0.0152484
716.936	0.0153759
717.014	0.0153225
717.092	0.0153827
717.170	0.0155507
717.248	0.0153424
717.326	0.0155262
717.405	0.0156704
717.483	0.0157327
717.561	0.0156278
717.639	0.0156136
717.717	0.0156583
717.795	0.0157087
717.873	0.0155845
717.951	0.0155859
718.030	0.0156306
718.108	0.0157236
718.186	0.0155209
718.264	0.0153796
718.342	0.0154214
718.420	0.0153294
718.498	0.0152717
718.576	0.0152409
718.655	0.0151478
718.733	0.0150800
718.811	0.0150076
718.889	0.0149526
718.967	0.0148915
719.045	0.0149388
719.123	0.0149057
719.201	0.0149165
719.280	0.0147832
719.358	0.0148803
719.436	0.0148156
719.514	0.0146693
719.592	0.0148307
719.670	0.0148693
719.748	0.0147019
719.826	0.0149079
719.905	0.0149378
719.983	0.0149386
720.061	0.0150094
720.139	0.0149834
720.217	0.0152135
720.295	0.0151746
720.373	0.0151176
720.451	0.0152389
720.530	0.0151644
720.608	0.0152079
720.686	0.0151708
720.764	0.0150607
720.842	0.0151327
720.920	0.0151715
720.998	0.0150517
721.076	0.0149802
721.155	0.0151134
721.233	0.0149976
721.311	0.0150841
721.389	0.0149282
721.467	0.0150383
721.545	0.0150754
721.623	0.0149690
721.701	0.0149484
721.780	0.0149538
721.858	0.0151480
721.936	0.0152670
722.014	0.0151099
722.092	0.0151595
722.170	0.0151051
722.248	0.0151985
722.326	0.0151308
722.405	0.0153014
722.483	0.0151830
722.561	0.0151327
722.639	0.0153535
722.717	0.0154151
722.795	0.0152512
722.873	0.0152214
722.951	0.0153677
723.030	0.0152618
723.108	0.0151520
723.186	0.0153608
723.264	0.0153048
723.342	0.0153900
723.420	0.0154544
723.498	0.0154552
723.576	0.0154195
723.655	0.0156212
723.733	0.0155770
723.811	0.0154174
723.889	0.0155315
723.967	0.0155692
724.045	0.0156153
724.123	0.0155242
724.201	0.0154306
724.280	0.0154790
724.358	0.0154519
724.436	0.0153591
724.514	0.0152907
724.592	0.0153703
724.670	0.0154575
724.748	0.0153539
724.826	0.0153107
724.905	0.0152344
724.983	0.0151514
725.061	0.0152205
725.139	0.0150606
725.217	0.0150179
725.295	0.0150198
725.373	0.0148268
725.451	0.0149353
725.530	0.0149770
725.608	0.0147066
725.686	0.0144419
725.764	0.0145418
725.842	0.0144897
725.920	0.0143407
725.998	0.0142668
726.076	0.0143442
726.155	0.0143728
726.233	0.0144538
726.311	0.0145680
726.389	0.0145494
726.467	0.0146402
726.545	0.0147261
726.623	0.0148639
726.701	0.0149419
726.780	0.0150034
726.858	0.0149647
726.936	0.0151469
727.014	0.0152926
727.092	0.0153211
727.170	0.0152687
727.248	0.0152808
727.326	0.0152885
727.405	0.0154166
727.483	0.0154546
727.561	0.0156581
727.639	0.0155365
727.717	0.0155325
727.795	0.0155457
727.873	0.0155119
727.951	0.0154972
728.030	0.0156673
728.108	0.0155880
728.186	0.0156074
728.264	0.0157082
728.342	0.0157580
728.420	0.0157175
728.498	0.0155910
728.576	0.0157351
728.655	0.0155007
728.733	0.0155303
728.811	0.0155841
728.889	0.0155113
728.967	0.0153678
729.045	0.0154064
729.123	0.0152492
729.201	0.0153278
729.280	0.0152227
729.358	0.0152678
729.436	0.0151194
729.514	0.0150700
729.592	0.0152563
729.670	0.0150957
729.748	0.0149794
729.826	0.0149959
729.905	0.0150753
729.983	0.0151749
730.061	0.0151393
730.139	0.0150533
730.217	0.0150598
730.295	0.0150010
730.373	0.0150279
730.451	0.0150954
730.530	0.0151141
730.608	0.0151530
730.686	0.0151141
730.764	0.0152347
730.842	0.0151907
730.920	0.0152385
730.998	0.0152551
731.076	0.0153742
731.155	0.0153467
731.233	0.0154001
731.311	0.0152459
731.389	0.0153111
731.467	0.0152424
731.545	0.0152337
731.623	0.0152685
731.701	0.0152525
731.780	0.0151118
731.858	0.0151025
731.936	0.0152103
732.014	0.0152176
732.092	0.0151172
732.170	0.0150394
732.248	0.0151506
732.326	0.0151769
732.405	0.0151913
732.483	0.0150968
732.561	0.0151635
732.639	0.0152343
732.717	0.0150072
732.795	0.0150974
732.873	0.0152345
732.951	0.0150766
733.030	0.0151053
733.108	0.0150401
733.186	0.0151708
733.264	0.0150829
733.342	0.0150840
733.420	0.0151339
733.498	0.0150359
733.576	0.0150368
733.655	0.0149983
733.733	0.0150397
733.811	0.0150760
733.889	0.0151898
733.967	0.0149873
734.045	0.0150730
734.123	0.0150118
734.201	0.0151069
734.280	0.0150153
734.358	0.0150834
734.436	0.0152384
734.514	0.0149888
734.592	0.0152133
734.670	0.0153107
734.748	0.0152015
734.826	0.0151114
734.905	0.0151682
734.983	0.0152464
735.061	0.0151671
735.139	0.0149966
735.217	0.0152994
735.295	0.0151746
735.373	0.0153065
735.451	0.0152959
735.530	0.0152723
735.608	0.0152071
735.686	0.0152988
735.764	0.0152629
735.842	0.0153156
735.920	0.0152412
735.998	0.0153862
736.076	0.0150865
736.155	0.0151940
736.233	0.0151141
736.311	0.0152490
736.389	0.0152815
736.467	0.0152418
736.545	0.0151134
736.623	0.0151028
736.701	0.0152571
736.780	0.0152000
736.858	0.0151975
736.936	0.0150269
737.014	0.0152129
737.092	0.0153595
737.170	0.0151839
737.248	0.0150446
737.326	0.0151988
737.405	0.0151922
737.483	0.0151778
737.561	0.0151012
737.639	0.0151665
737.717	0.0152512
737.795	0.0151442
737.873	0.0150733
737.951	0.0151516
738.030	0.0150195
738.108	0.0151660
738.186	0.0152360
738.264	0.0150069
738.342	0.0149923
738.420	0.0150725
738.498	0.0149644
738.576	0.0151006
738.655	0.0151391
738.733	0.0152232
738.811	0.0152607
738.889	0.0152715
738.967	0.0153129
739.045	0.0153942
739.123	0.0155648
739.201	0.0154638
739.280	0.0153663
739.358	0.0155383
739.436	0.0157905
739.514	0.0155479
739.592	0.0156374
739.670	0.0155635
739.748	0.0156617
739.826	0.0154446
739.905	0.0154491
739.983	0.0154767
740.061	0.0153483
740.139	0.0151762
740.217	0.0151920
740.295	0.0151411
740.373	0.0150116
740.451	0.0151608
740.530	0.0149557
740.608	0.0148792
740.686	0.0150026
740.764	0.0150490
740.842	0.0147990
740.920	0.0148879
740.998	0.0150125
741.076	0.0149162
741.155	0.0150597
741.233	0.0149700
741.311	0.0148403
741.389	0.0149071
741.467	0.0148376
741.545	0.0149821
741.623	0.0150054
741.701	0.0150259
741.780	0.0149643
741.858	0.0149596
741.936	0.0151308
742.014	0.0150913
742.092	0.0151104
742.170	0.0151569
742.248	0.0151366
742.326	0.0152264
742.405	0.0152851
742.483	0.0151146
742.561	0.0150460
742.639	0.0153386
742.717	0.0151479
742.795	0.0150978
742.873	0.0150872
742.951	0.0150752
743.030	0.0150734
743.108	0.0151658
743.186	0.0151498
743.264	0.0152370
743.342	0.0152247
743.420	0.0151572
743.498	0.0152940
743.576	0.0153237
743.655	0.0152882
743.733	0.0153127
743.811	0.0153963
743.889	0.0153397
743.967	0.0153600
744.045	0.0153809
744.123	0.0154659
744.201	0.0152544
744.280	0.0153342
744.358	0.0152651
744.436	0.0153577
744.514	0.0152402
744.592	0.0151956
744.670	0.0152000
744.748	0.0151971
744.826	0.0151337
744.905	0.0151879
744.983	0.0150602
745.061	0.0151167
745.139	0.0150497
745.217	0.0149557
745.295	0.0149141
745.373	0.0148493
745.451	0.0150095
745.530	0.0149097
745.608	0.0147545
745.686	0.0148456
745.764	0.0149689
745.842	0.0147371
745.920	0.0148594
745.998	0.0149599
746.076	0.0150147
746.155	0.0150142
746.233	0.0151784
746.311	0.0151519
746.389	0.0149928
746.467	0.0151803
746.545	0.0150888
746.623	0.0151614
746.701	0.0152625
746.780	0.0152381
746.858	0.0152079
746.936	0.0151629
747.014	0.0153455
747.092	0.0153522
747.170	0.0151906
747.248	0.0153678
747.326	0.0154819
747.405	0.0153603
747.483	0.0153711
747.561	0.0154416
747.639	0.0155340
747.717	0.0155386
747.795	0.0155020
747.873	0.0154333
747.951	0.0156063
748.030	0.0156133
748.108	0.0154400
748.186	0.0153734
748.264	0.0154873
748.342	0.0155373
748.420	0.0152244
748.498	0.0153809
748.576	0.0153804
748.655	0.0152734
748.733	0.0152251
748.811	0.0152468
748.889	0.0151778
748.967	0.0151118
749.045	0.0152109
749.123	0.0151150
749.201	0.0150477
749.280	0.0152015
749.358	0.0151146
749.436	0.0151762
749.514	0.0150653
749.592	0.0150227
749.670	0.0151254
749.748	0.0152596
749.826	0.0150529
749.905	0.0151112
749.983	0.0151712
750.061	0.0152098
750.139	0.0152188
750.217	0.0154699
750.295	0.0153799
750.373	0.0152362
750.451	0.0153778
750.530	0.0152396
750.608	0.0152654
750.686	0.0153648
750.764	0.0153194
750.842	0.0151744
750.920	0.0152161
750.998	0.0153049
751.076	0.0152116
751.155	0.0151590
751.233	0.0151876
751.311	0.0152536
751.389	0.0152405
751.467	0.0151733
751.545	0.0152295
751.623	0.0152605
751.701	0.0151864
751.780	0.0151833
751.858	0.0150980
751.936	0.0152786
752.014	0.0151125
752.092	0.0151382
752.170	0.0151819
752.248	0.0150960
752.326	0.0152371
752.405	0.0151151
752.483	0.0151095
752.561	0.0152088
752.639	0.0152219
752.717	0.0152014
752.795	0.0151006
752.873	0.0151174
752.951	0.0151950
753.030	0.0150069
753.108	0.0150436
753.186	0.0151771
753.264	0.0150679
753.342	0.0152170
753.420	0.0150931
753.498	0.0150938
753.576	0.0151199
753.655	0.0151313
753.733	0.0150462
753.811	0.0149535
753.889	0.0150246
753.967	0.0151310
754.045	0.0150837
754.123	0.0149692
754.201	0.0149135
754.280	0.0149245
754.358	0.0149139
754.436	0.0148937
754.514	0.0148363
754.592	0.0148383
754.670	0.0149644
754.748	0.0149314
754.826	0.0149129
754.905	0.0149844
754.983	0.0150764
755.061	0.0150414
755.139	0.0150131
755.217	0.0151335
755.295	0.0152206
755.373	0.0152834
755.451	0.0154389
755.530	0.0153931
755.608	0.0152436
755.686	0.0152862
755.764	0.0153529
755.842	0.0152808
755.920	0.0151861
755.998	0.0152520
756.076	0.0154108
756.155	0.0152660
756.233	0.0153474
756.311	0.0152208
756.389	0.0151862
756.467	0.0150905
756.545	0.0151520
756.623	0.0151149
756.701	0.0150802
756.780	0.0150810
756.858	0.0149772
756.936	0.0148321
757.014	0.0147295
757.092	0.0149104
757.170	0.0150007
757.248	0.0148685
757.326	0.0149102
757.405	0.0149593
757.483	0.0149593
757.561	0.0151852
757.639	0.0151247
757.717	0.0150314
757.795	0.0150872
757.873	0.0150934
757.951	0.0150152
758.030	0.0152352
758.108	0.0152117
758.186	0.0152162
758.264	0.0153091
758.342	0.0152845
758.420	0.0151878
758.498	0.0151716
758.576	0.0152143
758.655	0.0151476
758.733	0.0153005
758.811	0.0153080
758.889	0.0151252
758.967	0.0152345
759.045	0.0151721
759.123	0.0153481
759.201	0.0152843
759.280	0.0152850
759.358	0.0153600
759.436	0.0152864
759.514	0.0153146
759.592	0.0154565
759.670	0.0152917
759.748	0.0153770
759.826	0.0154400
759.905	0.0154150
759.983	0.0154182
760.061	0.0153387
760.139	0.0154910
760.217	0.0153152
760.295	0.0152483
760.373	0.0153014
760.451	0.0153508
760.530	0.0154192
760.608	0.0152877
760.686	0.0153721
760.764	0.0153458
760.842	0.0153636
760.920	0.0152920
760.998	0.0153165
761.076	0.0153290
761.155	0.0151662
761.233	0.0152160
761.311	0.0152857
761.389	0.0154028
761.467	0.0151835
761.545	0.0150784
761.623	0.0151950
761.701	0.0149926
761.780	0.0151125
761.858	0.0152675
761.936	0.0151159
762.014	0.0150432
762.092	0.0149880
762.170	0.0151234
762.248	0.0150809
762.326	0.0148610
762.405	0.0149272
762.483	0.0149901
762.561	0.0150329
762.639	0.0149913
762.717	0.0148829
762.795	0.0149020
762.873	0.0148425
762.951	0.0150959
763.030	0.0148695
763.108	0.0147803
763.186	0.0149339
763.264	0.0150227
763.342	0.0149104
763.420	0.0148974
763.498	0.0149002
763.576	0.0151235
763.655	0.0150494
763.733	0.0151449
763.811	0.0151276
763.889	0.0149077
763.967	0.0150948
764.045	0.0151708
764.123	0.0151807
764.201	0.0152071
764.280	0.0151814
764.358	0.0152272
764.436	0.0151139
764.514	0.0151771
764.592	0.0153067
764.670	0.0153764
764.748	0.0152168
764.826	0.0152345
764.905	0.0152740
764.983	0.0152373
765.061	0.0153079
765.139	0.0152886
765.217	0.0153403
765.295	0.0153085
765.373	0.0152567
765.451	0.0153782
765.530	0.0153110
765.608	0.0151859
765.686	0.0151962
765.764	0.0150700
765.842	0.0149989
765.920	0.0151028
765.998	0.0151979
766.076	0.0148421
766.155	0.0150739
766.233	0.0152103
766.311	0.0151087
766.389	0.0151327
766.467	0.0150349
766.545	0.0150361
766.623	0.0151337
766.701	0.0150857
766.780	0.0151208
766.858	0.0152248
766.936	0.0150938
767.014	0.0150210
767.092	0.0151740
767.170	0.0152500
767.248	0.0150916
767.326	0.0152892
767.405	0.0151392
767.483	0.0151812
767.561	0.0152467
767.639	0.0154175
767.717	0.0153745
767.795	0.0153039
767.873	0.0154338
767.951	0.0153786
768.030	0.0153695
768.108	0.0153299
768.186	0.0153338
768.264	0.0153856
768.342	0.0153263
768.420	0.0153978
768.498	0.0154182
768.576	0.0153893
768.655	0.0153827
768.733	0.0154434
768.811	0.0152990
768.889	0.0154507
768.967	0.0154666
769.045	0.0153409
769.123	0.0152792
769.201	0.0151446
769.280	0.0151618
769.358	0.0151955
769.436	0.0152579
769.514	0.0152174
769.592	0.0151525
769.670	0.0151647
769.748	0.0152576
769.826	0.0151437
769.905	0.0150475
769.983	0.0149808
770.061	0.0151652
770.139	0.0150546
770.217	0.0150064
770.295	0.0150600
770.373	0.0151521
770.451	0.0151246
770.530	0.0150350
770.608	0.0148505
770.686	0.0148505
770.764	0.0150379
770.842	0.0150287
770.920	0.0148801
770.998	0.0148386
771.076	0.0148798
771.155	0.0147908
771.233	0.0147900
771.311	0.0148529
771.389	0.0147910
771.467	0.0146832
771.545	0.0148177
771.623	0.0150185
771.701	0.0149781
771.780	0.0149285
771.858	0.0150204
771.936	0.0151858
772.014	0.0152570
772.092	0.0152191
772.170	0.0150909
772.248	0.0152254
772.326	0.0152216
772.405	0.0152740
772.483	0.0153067
772.561	0.0153963
772.639	0.0153334
772.717	0.0153503
772.795	0.0152163
772.873	0.0153445
772.951	0.0155005
773.030	0.0153179
773.108	0.0153846
773.186	0.0154341
773.264	0.0154014
773.342	0.0153612
773.420	0.0154697
773.498	0.0154752
773.576	0.0155655
773.655	0.0152874
773.733	0.0152766
773.811	0.0151736
773.889	0.0153542
773.967	0.0154352
774.045	0.0152125
774.123	0.0151596
774.201	0.0152020
774.280	0.0152007
774.358	0.0149402
774.436	0.0151168
774.514	0.0151177
774.592	0.0150340
774.670	0.0150834
774.748	0.0150584
774.826	0.0148619
774.905	0.0150239
774.983	0.0150390
775.061	0.0149867
775.139	0.0149864
775.217	0.0149747
775.295	0.0149274
775.373	0.0149052
775.451	0.0149587
775.530	0.0151744
775.608	0.0150278
775.686	0.0151617
775.764	0.0150317
775.842	0.0151183
775.920	0.0151227
775.998	0.0150646
776.076	0.0151615
776.155	0.0151228
776.233	0.0151369
776.311	0.0151501
776.389	0.0151109
776.467	0.0151871
776.545	0.0152483
776.623	0.0151768
776.701	0.0152937
776.780	0.0152041
776.858	0.0152748
776.936	0.0151929
777.014	0.0152524
777.092	0.0152338
777.170	0.0151907
777.248	0.0152641
777.326	0.0152370
777.405	0.0152174
777.483	0.0152242
777.561	0.0153440
777.639	0.0153045
777.717	0.0154147
777.795	0.0152860
777.873	0.0153581
777.951	0.0153539
778.030	0.0154162
778.108	0.0152361
778.186	0.0151991
778.264	0.0153513
778.342	0.0153477
778.420	0.0153632
778.498	0.0153030
778.576	0.0151256
778.655	0.0152006
778.733	0.0152505
778.811	0.0152489
778.889	0.0152527
778.967	0.0152890
779.045	0.0151888
779.123	0.0152200
779.201	0.0153524
779.280	0.0152991
779.358	0.0151166
779.436	0.0153760
779.514	0.0153599
779.592	0.0152786
779.670	0.0152222
779.748	0.0151855
779.826	0.0152410
779.905	0.0153214
779.983	0.0152008
780.061	0.0151797
780.139	0.0150840
780.217	0.0151320
780.295	0.0150285
780.373	0.0149661
780.451	0.0149649
780.530	0.0150048
780.608	0.0151024
780.686	0.0149997
780.764	0.0150570
780.842	0.0149749
780.920	0.0148761
780.998	0.0150105
781.076	0.0149331
781.155	0.0149610
781.233	0.0150596
781.311	0.0149226
781.389	0.0148483
781.467	0.0151291
781.545	0.0149523
781.623	0.0150024
781.701	0.0150115
781.780	0.0150867
781.858	0.0148960
781.936	0.0150624
782.014	0.0151945
782.092	0.0149602
782.170	0.0150259
782.248	0.0150700
782.326	0.0149535
782.405	0.0149835
782.483	0.0150605
782.561	0.0151148
782.639	0.0150446
782.717	0.0151667
782.795	0.0151843
782.873	0.0151939
782.951	0.0151841
783.030	0.0152688
783.108	0.0151645
783.186	0.0150212
783.264	0.0153758
783.342	0.0153330
783.420	0.0152640
783.498	0.0152149
783.576	0.0152576
783.655	0.0153202
783.733	0.0153779
783.811	0.0151266
783.889	0.0151400
783.967	0.0151288
784.045	0.0152298
784.123	0.0152889
784.201	0.0151875
784.280	0.0150836
784.358	0.0151414
784.436	0.0152708
784.514	0.0152138
784.592	0.0152319
784.670	0.0152079
784.748	0.0151953
784.826	0.0151577
784.905	0.0150721
784.983	0.0151554
785.061	0.0151249
785.139	0.0152380
785.217	0.0151070
785.295	0.0150877
785.373	0.0150499
785.451	0.0150875
785.530	0.0150162
785.608	0.0151295
785.686	0.0150688
785.764	0.0151452
785.842	0.0151068
785.920	0.0150406
785.998	0.0150205
786.076	0.0152355
786.155	0.0151230
786.233	0.0152211
786.311	0.0151211
786.389	0.0152883
786.467	0.0151223
786.545	0.0151391
786.623	0.0152712
786.701	0.0152283
786.780	0.0152254
786.858	0.0152704
786.936	0.0152903
787.014	0.0151172
787.092	0.0151954
787.170	0.0151940
787.248	0.0152538
787.326	0.0152599
787.405	0.0152069
787.483	0.0152855
787.561	0.0151981
787.639	0.0151828
787.717	0.0150958
787.795	0.0150760
787.873	0.0149929
787.951	0.0152092
788.030	0.0152662
788.108	0.0151335
788.186	0.0151118
788.264	0.0150389
788.342	0.0151355
788.420	0.0151323
788.498	0.0150628
788.576	0.0151578
788.655	0.0151945
788.733	0.0150732
788.811	0.0152820
788.889	0.0150985
788.967	0.0152876
789.045	0.0153686
789.123	0.0154134
789.201	0.0152616
789.280	0.0151823
789.358	0.0153001
789.436	0.0152757
789.514	0.0151618
789.592	0.0152063
789.670	0.0152386
789.748	0.0152369
789.826	0.0152137
789.905	0.0152703
789.983	0.0152594
790.061	0.0151152
790.139	0.0151471
790.217	0.0150956
790.295	0.0151252
790.373	0.0150992
790.451	0.0152052
790.530	0.0153042
790.608	0.0153369
790.686	0.0150791
790.764	0.0152253
790.842	0.0151141
790.920	0.0151579
790.998	0.0151606
791.076	0.0152262
791.155	0.0151427
791.233	0.0151656
791.311	0.0152177
791.389	0.0151469
791.467	0.0151782
791.545	0.0151911
791.623	0.0151470
791.701	0.0152052
791.780	0.0152426
791.858	0.0152838
791.936	0.0151093
792.014	0.0152709
792.092	0.0152024
792.170	0.0152038
792.248	0.0153479
792.326	0.0152790
792.405	0.0152798
792.483	0.0154765
792.561	0.0153485
792.639	0.0152998
792.717	0.0152560
792.795	0.0152609
792.873	0.0152748
792.951	0.0153415
793.030	0.0153773
793.108	0.0151173
793.186	0.0151934
793.264	0.0151852
793.342	0.0151464
793.420	0.0149825
793.498	0.0149808
793.576	0.0150298
793.655	0.0151480
793.733	0.0149545
793.811	0.0149705
793.889	0.0150232
793.967	0.0149131
794.045	0.0148849
794.123	0.0149321
794.201	0.0149455
794.280	0.0149165
794.358	0.0150064
794.436	0.0148743
794.514	0.0148213
794.592	0.0150524
794.670	0.0148978
794.748	0.0150305
794.826	0.0149490
794.905	0.0149459
794.983	0.0150735
795.061	0.0149104
795.139	0.0151160
795.217	0.0151743
795.295	0.0150218
795.373	0.0150296
795.451	0.0150900
795.530	0.0150504
795.608	0.0152670
795.686	0.0153702
795.764	0.0153139
795.842	0.0152287
795.920	0.0151894
795.998	0.0153835
796.076	0.0152700
796.155	0.0152774
796.233	0.0152960
796.311	0.0152569
796.389	0.0151943
796.467	0.0154498
796.545	0.0153249
796.623	0.0153722
796.701	0.0153479
796.780	0.0153088
796.858	0.0153465
796.936	0.0152692
797.014	0.0154129
797.092	0.0154159
797.170	0.0154285
797.248	0.0152652
797.326	0.0153593
797.405	0.0155154
797.483	0.0151830
797.561	0.0152146
797.639	0.0151949
797.717	0.0152354
797.795	0.0153698
797.873	0.0152941
797.951	0.0152103
798.030	0.0152076
798.108	0.0153708
798.186	0.0152596
798.264	0.0151286
798.342	0.0151093
798.420	0.0152981
798.498	0.0152533
798.576	0.0151266
798.655	0.0151978
798.733	0.0152437
798.811	0.0151319
798.889	0.0150982
798.967	0.0151452
799.045	0.0151412
799.123	0.0152400
799.201	0.0151394
799.280	0.0150847
799.358	0.0150478
799.436	0.0150934
799.514	0.0151244
799.592	0.0150043
799.670	0.0150861
799.748	0.0150063
799.826	0.0149516
799.905	0.0149825
799.983	0.0150001
800.061	0.0148257
800.139	0.0149963
800.217	0.0150043
800.295	0.0149590
800.373	0.0148788
800.451	0.0150788
800.530	0.0150868
800.608	0.0148996
800.686	0.0149526
800.764	0.0149686
800.842	0.0147729
800.920	0.0149867
800.998	0.0150583
801.076	0.0150198
801.155	0.0149820
801.233	0.0150056
801.311	0.0149078
801.389	0.0150614
801.467	0.0151230
801.545	0.0151013
801.623	0.0150327
801.701	0.0149895
801.780	0.0151048
801.858	0.0152045
801.936	0.0151431
802.014	0.0152750
802.092	0.0151148
802.170	0.0149953
802.248	0.0152418
802.326	0.0152178
802.405	0.0151067
802.483	0.0152177
802.561	0.0151938
802.639	0.0152218
802.717	0.0152575
802.795	0.0151659
802.873	0.0151350
802.951	0.0151653
803.030	0.0151829
803.108	0.0152088
803.186	0.0152410
803.264	0.0152406
803.342	0.0150768
803.420	0.0152178
803.498	0.0154289
803.576	0.0153494
803.655	0.0152685
803.733	0.0152060
803.811	0.0151946
803.889	0.0152254
803.967	0.0153943
804.045	0.0152351
804.123	0.0152290
804.201	0.0153107
804.280	0.0151694
804.358	0.0151261
804.436	0.0152217
804.514	0.0151888
804.592	0.0151672
804.670	0.0151553
804.748	0.0153362
804.826	0.0152202
804.905	0.0151228
804.983	0.0152999
805.061	0.0152165
805.139	0.0151122
805.217	0.0150674
805.295	0.0151928
805.373	0.0153078
805.451	0.0152637
805.530	0.0153442
805.608	0.0153710
805.686	0.0152367
805.764	0.0152665
805.842	0.0152737
805.920	0.0152924
805.998	0.0151761
806.076	0.0152503
806.155	0.0151115
806.233	0.0151255
806.311	0.0152080
806.389	0.0152271
806.467	0.0150538
806.545	0.0150270
806.623	0.0152173
806.701	0.0151697
806.780	0.0150766
806.858	0.0150923
806.936	0.0151665
807.014	0.0151167
807.092	0.0150714
807.170	0.0150620
807.248	0.0150616
807.326	0.0150806
807.405	0.0149841
807.483	0.0151696
807.561	0.0151841
807.639	0.0150367
807.717	0.0151367
807.795	0.0151466
807.873	0.0151187
807.951	0.0150241
808.030	0.0151068
808.108	0.0150831
808.186	0.0150520
808.264	0.0151220
808.342	0.0150696
808.420	0.0152932
808.498	0.0152640
808.576	0.0151122
808.655	0.0150902
808.733	0.0151984
808.811	0.0151357
808.889	0.0152789
808.967	0.0152176
809.045	0.0149918
809.123	0.0152933
809.201	0.0152863
809.280	0.0151907
809.358	0.0151471
809.436	0.0151800
809.514	0.0151867
809.592	0.0152296
809.670	0.0151582
809.748	0.0153430
809.826	0.0153703
809.905	0.0152059
809.983	0.0151377
810.061	0.0152692
810.139	0.0153288
810.217	0.0150783
810.295	0.0151989
810.373	0.0151727
810.451	0.0150391
810.530	0.0152177
810.608	0.0151582
810.686	0.0152306
810.764	0.0152367
810.842	0.0150700
810.920	0.0150759
810.998	0.0152033
811.076	0.0152792
811.155	0.0153007
811.233	0.0151985
811.311	0.0151534
811.389	0.0151439
811.467	0.0152702
811.545	0.0151751
811.623	0.0152135
811.701	0.0152014
811.780	0.0152525
811.858	0.0152103
811.936	0.0151382
812.014	0.0152402
812.092	0.0153585
812.170	0.0153448
812.248	0.0152440
812.326	0.0150990
812.405	0.0151517
812.483	0.0153169
812.561	0.0153913
812.639	0.0151933
812.717	0.0152200
812.795	0.0152774
812.873	0.0151835
812.951	0.0152696
813.030	0.0152686
813.108	0.0151821
813.186	0.0152299
813.264	0.0152692
813.342	0.0151959
813.420	0.0151423
813.498	0.0153445
813.576	0.0152037
813.655	0.0153931
813.733	0.0152692
813.811	0.0152798
813.889	0.0152056
813.967	0.0152316
814.045	0.0152876
814.123	0.0152525
814.201	0.0153744
814.280	0.0151835
814.358	0.0152085
814.436	0.0153487
814.514	0.0151420
814.592	0.0152174
814.670	0.0152522
814.748	0.0152045
814.826	0.0152959
814.905	0.0151478
814.983	0.0150794
815.061	0.0149561
815.139	0.0151157
815.217	0.0150888
815.295	0.0150008
815.373	0.0149155
815.451	0.0149171
815.530	0.0148724
815.608	0.0150142
815.686	0.0148953
815.764	0.0149331
815.842	0.0151417
815.920	0.0149985
815.998	0.0150372
816.076	0.0151172
816.155	0.0150507
816.233	0.0150829
816.311	0.0150426
816.389	0.0150676
816.467	0.0150590
816.545	0.0150567
816.623	0.0152067
816.701	0.0152023
816.780	0.0151253
816.858	0.0150845
816.936	0.0151854
817.014	0.0151963
817.092	0.0153155
817.170	0.0151419
817.248	0.0152881
817.326	0.0153032
817.405	0.0152604
817.483	0.0151910
817.561	0.0153976
817.639	0.0151134
817.717	0.0154239
817.795	0.0151981
817.873	0.0152816
817.951	0.0152930
818.030	0.0153175
818.108	0.0152571
818.186	0.0153749
818.264	0.0153189
818.342	0.0152923
818.420	0.0152977
818.498	0.0153241
818.576	0.0154359
818.655	0.0153873
818.733	0.0153072
818.811	0.0154915
818.889	0.0153279
818.967	0.0154249
819.045	0.0152718
819.123	0.0152880
819.201	0.0153550
819.280	0.0152805
819.358	0.0152229
819.436	0.0153493
819.514	0.0152324
819.592	0.0152245
819.670	0.0150832
819.748	0.0151373
819.826	0.0151398
819.905	0.0152706
819.983	0.0151871
820.061	0.0150187
820.139	0.0152100
820.217	0.0153230
820.295	0.0150944
820.373	0.0153716
820.451	0.0153358
820.530	0.0152810
820.608	0.0152798
820.686	0.0152933
820.764	0.0152515
820.842	0.0151756
820.920	0.0152582
820.998	0.0151993
821.076	0.0153098
821.155	0.0152587
821.233	0.0151475
821.311	0.0153217
821.389	0.0151000
821.467	0.0152042
821.545	0.0151077
821.623	0.0151830
821.701	0.0152883
821.780	0.0151781
821.858	0.0151369
821.936	0.0150467
822.014	0.0150249
822.092	0.0150072
822.170	0.0149793
822.248	0.0149010
822.326	0.0150123
822.405	0.0150231
822.483	0.0149618
822.561	0.0148555
822.639	0.0148388
822.717	0.0148623
822.795	0.0148879
822.873	0.0149288
822.951	0.0148589
823.030	0.0147717
823.108	0.0149308
823.186	0.0149514
823.264	0.0150818
823.342	0.0149258
823.420	0.0150305
823.498	0.0149302
823.576	0.0149870
823.655	0.0149651
823.733	0.0150891
823.811	0.0150939
823.889	0.0150981
823.967	0.0151180
824.045	0.0149726
824.123	0.0150533
824.201	0.0152387
824.280	0.0151842
824.358	0.0149384
824.436	0.0150593
824.514	0.0151247
824.592	0.0150861
824.670	0.0150906
824.748	0.0151910
824.826	0.0151206
824.905	0.0151180
824.983	0.0152660
825.061	0.0151294
825.139	0.0151560
825.217	0.0151151
825.295	0.0149661
825.373	0.0150479
825.451	0.0151057
825.530	0.0151981
825.608	0.0150652
825.686	0.0150425
825.764	0.0151131
825.842	0.0150831
825.920	0.0152788
825.998	0.0151953
826.076	0.0150789
826.155	0.0150899
826.233	0.0152727
826.311	0.0151781
826.389	0.0152505
826.467	0.0153172
826.545	0.0152538
826.623	0.0152082
826.701	0.0152245
826.780	0.0152027
826.858	0.0152658
826.936	0.0152431
827.014	0.0152103
827.092	0.0152816
827.170	0.0154042
827.248	0.0153925
827.326	0.0153314
827.405	0.0152450
827.483	0.0152250
827.561	0.0152872
827.639	0.0152699
827.717	0.0152290
827.795	0.0152394
827.873	0.0151902
827.951	0.0152112
828.030	0.0151307
828.108	0.0151266
828.186	0.0151330
828.264	0.0151263
828.342	0.0151379
828.420	0.0149684
828.498	0.0150522
828.576	0.0151754
828.655	0.0150208
828.733	0.0150046
828.811	0.0149831
828.889	0.0151707
828.967	0.0151451
829.045	0.0150436
829.123	0.0150509
829.201	0.0150682
829.280	0.0151614
829.358	0.0149694
829.436	0.0150496
829.514	0.0150219
829.592	0.0150478
829.670	0.0152119
829.748	0.0151054
829.826	0.0150677
829.905	0.0151619
829.983	0.0150547
830.061	0.0151207
830.139	0.0152574
830.217	0.0151631
830.295	0.0151880
830.373	0.0152567
830.451	0.0151437
830.530	0.0152521
830.608	0.0152716
830.686	0.0151994
830.764	0.0149166
830.842	0.0150163
830.920	0.0152257
830.998	0.0152099
831.076	0.0152044
831.155	0.0150951
831.233	0.0153172
831.311	0.0152307
831.389	0.0152054
831.467	0.0151190
831.545	0.0151333
831.623	0.0152036
831.701	0.0152806
831.780	0.0152265
831.858	0.0151575
831.936	0.0152994
832.014	0.0152930
832.092	0.0150707
832.170	0.0152524
832.248	0.0152665
832.326	0.0151859
832.405	0.0151846
832.483	0.0152857
832.561	0.0152007
832.639	0.0152638
832.717	0.0152012
832.795	0.0153149
832.873	0.0153524
832.951	0.0152607
833.030	0.0152405
833.108	0.0152472
833.186	0.0152679
833.264	0.0152567
833.342	0.0153114
833.420	0.0153624
833.498	0.0152480
833.576	0.0152596
833.655	0.0151581
833.733	0.0152820
833.811	0.0152604
833.889	0.0152177
833.967	0.0152628
834.045	0.0151883
834.123	0.0151520
834.201	0.0153316
834.280	0.0152248
834.358	0.0151212
834.436	0.0152763
834.514	0.0151420
834.592	0.0150871
834.670	0.0152578
834.748	0.0152804
834.826	0.0151127
834.905	0.0151451
834.983	0.0152075
835.061	0.0151884
835.139	0.0152507
835.217	0.0152376
835.295	0.0151646
835.373	0.0153008
835.451	0.0152023
835.530	0.0152854
835.608	0.0150964
835.686	0.0152225
835.764	0.0152029
835.842	0.0152540
835.920	0.0153757
835.998	0.0154217
836.076	0.0151263
836.155	0.0152556
836.233	0.0153079
836.311	0.0154039
836.389	0.0152393
836.467	0.0151913
836.545	0.0152412
836.623	0.0152582
836.701	0.0151817
836.780	0.0151667
836.858	0.0152349
836.936	0.0152757
837.014	0.0153308
837.092	0.0152789
837.170	0.0151255
837.248	0.0152844
837.326	0.0151282
837.405	0.0152214
837.483	0.0153336
837.561	0.0152613
837.639	0.0153983
837.717	0.0153307
837.795	0.0152706
837.873	0.0154044
837.951	0.0153861
838.030	0.0152232
838.108	0.0152683
838.186	0.0153992
838.264	0.0152792
838.342	0.0152177
838.420	0.0152729
838.498	0.0152805
838.576	0.0152665
838.655	0.0151144
838.733	0.0152268
838.811	0.0151754
838.889	0.0151228
838.967	0.0152946
839.045	0.0152352
839.123	0.0151629
839.201	0.0152411
839.280	0.0151389
839.358	0.0151866
839.436	0.0153604
839.514	0.0152192
839.592	0.0151473
839.670	0.0151670
839.748	0.0151170
839.826	0.0151619
839.905	0.0151656
839.983	0.0150769
840.061	0.0151792
840.139	0.0151311
840.217	0.0151842
840.295	0.0150431
840.373	0.0152809
840.451	0.0151163
840.530	0.0151958
840.608	0.0152394
840.686	0.0151248
840.764	0.0150739
840.842	0.0151559
840.920	0.0151616
840.998	0.0151912
841.076	0.0150120
841.155	0.0151199
841.233	0.0153149
841.311	0.0153476
841.389	0.0152230
841.467	0.0151532
841.545	0.0152313
841.623	0.0151514
841.701	0.0151124
841.780	0.0152391
841.858	0.0152565
841.936	0.0153328
842.014	0.0151290
842.092	0.0151582
842.170	0.0152628
842.248	0.0151257
842.326	0.0151778
842.405	0.0152251
842.483	0.0152347
842.561	0.0153809
842.639	0.0153032
842.717	0.0153135
842.795	0.0152760
842.873	0.0153187
842.951	0.0154047
843.030	0.0152553
843.108	0.0153027
843.186	0.0154015
843.264	0.0153414
843.342	0.0154529
843.420	0.0153188
843.498	0.0153577
843.576	0.0153249
843.655	0.0154623
843.733	0.0153108
843.811	0.0154298
843.889	0.0153508
843.967	0.0153413
844.045	0.0152614
844.123	0.0152819
844.201	0.0152923
844.280	0.0152956
844.358	0.0150758
844.436	0.0151792
844.514	0.0150798
844.592	0.0152892
844.670	0.0151746
844.748	0.0152217
844.826	0.0151553
844.905	0.0152124
844.983	0.0150384
845.061	0.0151347
845.139	0.0151640
845.217	0.0150716
845.295	0.0150883
845.373	0.0151488
845.451	0.0151815
845.530	0.0151458
845.608	0.0151823
845.686	0.0152573
845.764	0.0150597
845.842	0.0151349
845.920	0.0150213
845.998	0.0150660
846.076	0.0150763
846.155	0.0150979
846.233	0.0150327
846.311	0.0151492
846.389	0.0150455
846.467	0.0150114
846.545	0.0150897
846.623	0.0150751
846.701	0.0151373
846.780	0.0151286
846.858	0.0151372
846.936	0.0151267
847.014	0.0151286
847.092	0.0151205
847.170	0.0151697
847.248	0.0151905
847.326	0.0151441
847.405	0.0150642
847.483	0.0150992
847.561	0.0151602
847.639	0.0151182
847.717	0.0150710
847.795	0.0151604
847.873	0.0151206
847.951	0.0150688
848.030	0.0149385
848.108	0.0151332
848.186	0.0151145
848.264	0.0151299
848.342	0.0151220
848.420	0.0149629
848.498	0.0150504
848.576	0.0150861
848.655	0.0151749
848.733	0.0150068
848.811	0.0150127
848.889	0.0150387
848.967	0.0149351
849.045	0.0150126
849.123	0.0151820
849.201	0.0149802
849.280	0.0150750
849.358	0.0150317
849.436	0.0149930
849.514	0.0150581
849.592	0.0151192
849.670	0.0149464
849.748	0.0151604
849.826	0.0150630
849.905	0.0149801
849.983	0.0150134
850.061	0.0150230
850.139	0.0150349
850.217	0.0149939
850.295	0.0152155
850.373	0.0150098
850.451	0.0150600
850.530	0.0150996
850.608	0.0151043
850.686	0.0151605
850.764	0.0150831
850.842	0.0151616
850.920	0.0152435
850.998	0.0151322
851.076	0.0152052
851.155	0.0151101
851.233	0.0151546
851.311	0.0152039
851.389	0.0152422
851.467	0.0153323
851.545	0.0152709
851.623	0.0152063
851.701	0.0151917
851.780	0.0151918
851.858	0.0153483
851.936	0.0152085
852.014	0.0152720
852.092	0.0152490
852.170	0.0152025
852.248	0.0152084
852.326	0.0151966
852.405	0.0153000
852.483	0.0152160
852.561	0.0153978
852.639	0.0152384
852.717	0.0151665
852.795	0.0152269
852.873	0.0153345
852.951	0.0152679
853.030	0.0151167
853.108	0.0151196
853.186	0.0151501
853.264	0.0153350
853.342	0.0154144
853.420	0.0152576
853.498	0.0151810
853.576	0.0152839
853.655	0.0152515
853.733	0.0151745
853.811	0.0153838
853.889	0.0153337
853.967	0.0153227
854.045	0.0151604
854.123	0.0153407
854.201	0.0153002
854.280	0.0153938
854.358	0.0153622
854.436	0.0152687
854.514	0.0154046
854.592	0.0154224
854.670	0.0154068
854.748	0.0154562
854.826	0.0153916
854.905	0.0153715
854.983	0.0153237
855.061	0.0153694
855.139	0.0152869
855.217	0.0152502
855.295	0.0152850
855.373	0.0153952
855.451	0.0152814
855.530	0.0152895
855.608	0.0153222
855.686	0.0152706
855.764	0.0153010
855.842	0.0153609
855.920	0.0153061
855.998	0.0152887
856.076	0.0152483
856.155	0.0153141
856.233	0.0153932
856.311	0.0151729
856.389	0.0152800
856.467	0.0152974
856.545	0.0151654
856.623	0.0152659
856.701	0.0152426
856.780	0.0152959
856.858	0.0152665
856.936	0.0153177
857.014	0.0153194
857.092	0.0152033
857.170	0.0151635
857.248	0.0152556
857.326	0.0152398
857.405	0.0151333
857.483	0.0152354
857.561	0.0150867
857.639	0.0150536
857.717	0.0151350
857.795	0.0149860
857.873	0.0150267
857.951	0.0150018
858.030	0.0149661
858.108	0.0149828
858.186	0.0149276
858.264	0.0149793
858.342	0.0151470
858.420	0.0150954
858.498	0.0151532
858.576	0.0150967
858.655	0.0151788
858.733	0.0150256
858.811	0.0150715
858.889	0.0151656
858.967	0.0150999
859.045	0.0151493
859.123	0.0152151
859.201	0.0152047
859.280	0.0151688
859.358	0.0150385
859.436	0.0151830
859.514	0.0151620
859.592	0.0152287
859.670	0.0151829
859.748	0.0152418
859.826	0.0151779
859.905	0.0152070
859.983	0.0153040
860.061	0.0152675
860.139	0.0152528
860.217	0.0152551
860.295	0.0151881
860.373	0.0154061
860.451	0.0152555
860.530	0.0152454
860.608	0.0153725
860.686	0.0152114
860.764	0.0153518
860.842	0.0152384
860.920	0.0153611
860.998	0.0152892
861.076	0.0153273
861.155	0.0153117
861.233	0.0154098
861.311	0.0153551
861.389	0.0154060
861.467	0.0152907
861.545	0.0154037
861.623	0.0154612
861.701	0.0153386
861.780	0.0153946
861.858	0.0153088
861.936	0.0153205
862.014	0.0152637
862.092	0.0152654
862.170	0.0153394
862.248	0.0152257
862.326	0.0151736
862.405	0.0153541
862.483	0.0151601
862.561	0.0151582
862.639	0.0152261
862.717	0.0151392
862.795	0.0150887
862.873	0.0151709
862.951	0.0151997
863.030	0.0151813
863.108	0.0151987
863.186	0.0152170
863.264	0.0151129
863.342	0.0151888
863.420	0.0150459
863.498	0.0152314
863.576	0.0151945
863.655	0.0149995
863.733	0.0152516
863.811	0.0151459
863.889	0.0151371
863.967	0.0150281
864.045	0.0151772
864.123	0.0151631
864.201	0.0151321
864.280	0.0150995
864.358	0.0151202
864.436	0.0151644
864.514	0.0150872
864.592	0.0150272
864.670	0.0151505
864.748	0.0152368
864.826	0.0151797
864.905	0.0152331
864.983	0.0150810
865.061	0.0151613
865.139	0.0152990
865.217	0.0152508
865.295	0.0152946
865.373	0.0151676
865.451	0.0152045
865.530	0.0152973
865.608	0.0152728
865.686	0.0152966
865.764	0.0152763
865.842	0.0153816
865.920	0.0152178
865.998	0.0150121
866.076	0.0151624
866.155	0.0152602
866.233	0.0153107
866.311	0.0153375
866.389	0.0153230
866.467	0.0152836
866.545	0.0151884
866.623	0.0153627
866.701	0.0153495
866.780	0.0153125
866.858	0.0151223
866.936	0.0152519
867.014	0.0153040
867.092	0.0154346
867.170	0.0152461
867.248	0.0151540
867.326	0.0151927
867.405	0.0152836
867.483	0.0153567
867.561	0.0151710
867.639	0.0151101
867.717	0.0152093
867.795	0.0153034
867.873	0.0151401
867.951	0.0151432
868.030	0.0150984
868.108	0.0150944
868.186	0.0151869
868.264	0.0150742
868.342	0.0150764
868.420	0.0150312
868.498	0.0153502
868.576	0.0151735
868.655	0.0151533
868.733	0.0149589
868.811	0.0149885
868.889	0.0148827
868.967	0.0150416
869.045	0.0151807
869.123	0.0150412
869.201	0.0152001
869.280	0.0151826
869.358	0.0150956
869.436	0.0151991
869.514	0.0151154
869.592	0.0150613
869.670	0.0151005
869.748	0.0151992
869.826	0.0151962
869.905	0.0151855
869.983	0.0150356
870.061	0.0151290
870.139	0.0151350
870.217	0.0153159
870.295	0.0151814
870.373	0.0150021
870.451	0.0151134
870.530	0.0151181
870.608	0.0151530
870.686	0.0150246
870.764	0.0151492
870.842	0.0152641
870.920	0.0151506
870.998	0.0152209
871.076	0.0151582
871.155	0.0151841
871.233	0.0151417
871.311	0.0151826
871.389	0.0151923
871.467	0.0151527
871.545	0.0152367
871.623	0.0152515
871.701	0.0151816
871.780	0.0152434
871.858	0.0151962
871.936	0.0153368
872.014	0.0152353
872.092	0.0151962
872.170	0.0152232
872.248	0.0152824
872.326	0.0152720
872.405	0.0152113
872.483	0.0152769
872.561	0.0153765
872.639	0.0152211
872.717	0.0150769
872.795	0.0152126
872.873	0.0151644
872.951	0.0152649
873.030	0.0151608
873.108	0.0150797
873.186	0.0152061
873.264	0.0151347
873.342	0.0152652
873.420	0.0151068
873.498	0.0152837
873.576	0.0151935
873.655	0.0151454
873.733	0.0151074
873.811	0.0150706
873.889	0.0150797
873.967	0.0152148
874.045	0.0152050
874.123	0.0151529
874.201	0.0150136
874.280	0.0152820
874.358	0.0151612
874.436	0.0151792
874.514	0.0151911
874.592	0.0153220
874.670	0.0152792
874.748	0.0153423
874.826	0.0152161
874.905	0.0152714
874.983	0.0153543
875.061	0.0152219
875.139	0.0152489
875.217	0.0153096
875.295	0.0152419
875.373	0.0152252
875.451	0.0152448
875.530	0.0152130
875.608	0.0152546
875.686	0.0152245
875.764	0.0152541
875.842	0.0152046
875.920	0.0151858
875.998	0.0152370
876.076	0.0152461
876.155	0.0152287
876.233	0.0152871
876.311	0.0150652
876.389	0.0151443
876.467	0.0152758
876.545	0.0151125
876.623	0.0151083
876.701	0.0151487
876.780	0.0151225
876.858	0.0153185
876.936	0.0151696
877.014	0.0151196
877.092	0.0152090
877.170	0.0151957
877.248	0.0151454
877.326	0.0151299
877.405	0.0152470
877.483	0.0151727
877.561	0.0152602
877.639	0.0151479
877.717	0.0152732
877.795	0.0152728
877.873	0.0153385
877.951	0.0153728
878.030	0.0152676
878.108	0.0153600
878.186	0.0153109
878.264	0.0152618
878.342	0.0151896
878.420	0.0152570
878.498	0.0154138
878.576	0.0153381
878.655	0.0151949
878.733	0.0153580
878.811	0.0152723
878.889	0.0152236
878.967	0.0151874
879.045	0.0152190
879.123	0.0153574
879.201	0.0154556
879.280	0.0152274
879.358	0.0151760
879.436	0.0152326
879.514	0.0154286
879.592	0.0154177
879.670	0.0151838
879.748	0.0151844
879.826	0.0151761
879.905	0.0152599
879.983	0.0152256
880.061	0.0152972
880.139	0.0154109
880.217	0.0150832
880.295	0.0151942
880.373	0.0152431
880.451	0.0154649
880.530	0.0151288
880.608	0.0152103
880.686	0.0152924
880.764	0.0153391
880.842	0.0153342
880.920	0.0152475
880.998	0.0152250
881.076	0.0152161
881.155	0.0150155
881.233	0.0151769
881.311	0.0151646
881.389	0.0150821
881.467	0.0152774
881.545	0.0152981
881.623	0.0152732
881.701	0.0150599
881.780	0.0151867
881.858	0.0151556
881.936	0.0152203
882.014	0.0152703
882.092	0.0151344
882.170	0.0150994
882.248	0.0151569
882.326	0.0152094
882.405	0.0151842
882.483	0.0150700
882.561	0.0152479
882.639	0.0150927
882.717	0.0151810
882.795	0.0152341
882.873	0.0151634
882.951	0.0151591
883.030	0.0152229
883.108	0.0152383
883.186	0.0151726
883.264	0.0150584
883.342	0.0150700
883.420	0.0150431
883.498	0.0151388
883.576	0.0149242
883.655	0.0151044
883.733	0.0150828
883.811	0.0151971
883.889	0.0150983
883.967	0.0151063
884.045	0.0152103
884.123	0.0152589
884.201	0.0151426
884.280	0.0152597
884.358	0.0151636
884.436	0.0151799
884.514	0.0152250
884.592	0.0151766
884.670	0.0153717
884.748	0.0152248
884.826	0.0151953
884.905	0.0151934
884.983	0.0153231
885.061	0.0152203
885.139	0.0152480
885.217	0.0151745
885.295	0.0152979
885.373	0.0152728
885.451	0.0152801
885.530	0.0153426
885.608	0.0152065
885.686	0.0152829
885.764	0.0152866
885.842	0.0150163
885.920	0.0151967
885.998	0.0153289
886.076	0.0151912
886.155	0.0152655
886.233	0.0151187
886.311	0.0152778
886.389	0.0151748
886.467	0.0151978
886.545	0.0151987
886.623	0.0152539
886.701	0.0151619
886.780	0.0150884
886.858	0.0151342
886.936	0.0149928
887.014	0.0150882
887.092	0.0150589
887.170	0.0150194
887.248	0.0152011
887.326	0.0150761
887.405	0.0150723
887.483	0.0151540
887.561	0.0150115
887.639	0.0151079
887.717	0.0152464
887.795	0.0151070
887.873	0.0150785
887.951	0.0151112
888.030	0.0150945
888.108	0.0151627
888.186	0.0151147
888.264	0.0151910
888.342	0.0151942
888.420	0.0150923
888.498	0.0151656
888.576	0.0150829
888.655	0.0150319
888.733	0.0151334
888.811	0.0152523
888.889	0.0153144
888.967	0.0150978
889.045	0.0152161
889.123	0.0150931
889.201	0.0151137
889.280	0.0152773
889.358	0.0151159
889.436	0.0152629
889.514	0.0152258
889.592	0.0150520
889.670	0.0151737
889.748	0.0152287
889.826	0.0151303
889.905	0.0151103
889.983	0.0150253
890.061	0.0152425
890.139	0.0153226
890.217	0.0151205
890.295	0.0150472
890.373	0.0151180
890.451	0.0150897
890.530	0.0150888
890.608	0.0150690
890.686	0.0150710
890.764	0.0151623
890.842	0.0151290
890.920	0.0150341
890.998	0.0150403
891.076	0.0151466
891.155	0.0151151
891.233	0.0151871
891.311	0.0150551
891.389	0.0150629
891.467	0.0150405
891.545	0.0151162
891.623	0.0151880
891.701	0.0150124
891.780	0.0150919
891.858	0.0150978
891.936	0.0150266
892.014	0.0150535
892.092	0.0152245
892.170	0.0150689
892.248	0.0149953
892.326	0.0151060
892.405	0.0149859
892.483	0.0151494
892.561	0.0150595
892.639	0.0150399
892.717	0.0151147
892.795	0.0152464
892.873	0.0150638
892.951	0.0151524
893.030	0.0150986
893.108	0.0151394
893.186	0.0151479
893.264	0.0151102
893.342	0.0152691
893.420	0.0152805
893.498	0.0152026
893.576	0.0151318
893.655	0.0152000
893.733	0.0151578
893.811	0.0150906
893.889	0.0152115
893.967	0.0151141
894.045	0.0151921
894.123	0.0152879
894.201	0.0152260
894.280	0.0151500
894.358	0.0150668
894.436	0.0150807
894.514	0.0152086
894.592	0.0150523
894.670	0.0151790
894.748	0.0152210
894.826	0.0151933
894.905	0.0151881
894.983	0.0151687
895.061	0.0151640
895.139	0.0151396
895.217	0.0151005
895.295	0.0151055
895.373	0.0151884
895.451	0.0150247
895.530	0.0151106
895.608	0.0151692
895.686	0.0150788
895.764	0.0151151
895.842	0.0151353
895.920	0.0152007
895.998	0.0152719
896.076	0.0151151
896.155	0.0151556
896.233	0.0153936
896.311	0.0152592
896.389	0.0152509
896.467	0.0152360
896.545	0.0153143
896.623	0.0153329
896.701	0.0152906
896.780	0.0152575
896.858	0.0151756
896.936	0.0152136
897.014	0.0152312
897.092	0.0153210
897.170	0.0150921
897.248	0.0150201
897.326	0.0152030
897.405	0.0151896
897.483	0.0151353
897.561	0.0152035
897.639	0.0150688
897.717	0.0151632
897.795	0.0152073
897.873	0.0152173
897.951	0.0151698
898.030	0.0150832
898.108	0.0152216
898.186	0.0151740
898.264	0.0151915
898.342	0.0152560
898.420	0.0152436
898.498	0.0151934
898.576	0.0152146
898.655	0.0152460
898.733	0.0152103
898.811	0.0152831
898.889	0.0153095
898.967	0.0153192
899.045	0.0152447
899.123	0.0152260
899.201	0.0150980
899.280	0.0153329
899.358	0.0151621
899.436	0.0151392
899.514	0.0152536
899.592	0.0151189
899.670	0.0153384
899.748	0.0151361
899.826	0.0151281
899.905	0.0150842
899.983	0.0151081
900.061	0.0151752
900.139	0.0152043
900.217	0.0151788
900.295	0.0152062
900.373	0.0151692
900.451	0.0151004
900.530	0.0151473
900.608	0.0151348
900.686	0.0152177
900.764	0.0152807
900.842	0.0151005
900.920	0.0150611
900.998	0.0151129
901.076	0.0151941
901.155	0.0151835
901.233	0.0151294
901.311	0.0151931
901.389	0.0151833
901.467	0.0151565
901.545	0.0152296
901.623	0.0152518
901.701	0.0152903
901.780	0.0153536
901.858	0.0153320
901.936	0.0151607
902.014	0.0153049
902.092	0.0153713
902.170	0.0152446
902.248	0.0152640
902.326	0.0152313
902.405	0.0152773
902.483	0.0152426
902.561	0.0154051
902.639	0.0153223
902.717	0.0152315
902.795	0.0153018
902.873	0.0153620
902.951	0.0151421
903.030	0.0152686
903.108	0.0152532
903.186	0.0151273
903.264	0.0151975
903.342	0.0153132
903.420	0.0151962
903.498	0.0152628
903.576	0.0152728
903.655	0.0152935
903.733	0.0151648
903.811	0.0152523
903.889	0.0153178
903.967	0.0153497
904.045	0.0153180
904.123	0.0153223
904.201	0.0153552
904.280	0.0152628
904.358	0.0152795
904.436	0.0154147
904.514	0.0152337
904.592	0.0152945
904.670	0.0152184
904.748	0.0152180
904.826	0.0153785
904.905	0.0154063
904.983	0.0152761
905.061	0.0153349
905.139	0.0151674
905.217	0.0152539
905.295	0.0152940
905.373	0.0152438
905.451	0.0152964
905.530	0.0152556
905.608	0.0152908
905.686	0.0152599
905.764	0.0151078
905.842	0.0152374
905.920	0.0152738
905.998	0.0153291
906.076	0.0153220
906.155	0.0151951
906.233	0.0151261
906.311	0.0152435
906.389	0.0152898
906.467	0.0153539
906.545	0.0152253
906.623	0.0152109
906.701	0.0152432
906.780	0.0151238
906.858	0.0153152
906.936	0.0153669
907.014	0.0152233
907.092	0.0150623
907.170	0.0151241
907.248	0.0151760
907.326	0.0151296
907.405	0.0151989
907.483	0.0152944
907.561	0.0151860
907.639	0.0151087
907.717	0.0150751
907.795	0.0152124
907.873	0.0151725
907.951	0.0151629
908.030	0.0151956
908.108	0.0151786
908.186	0.0150856
908.264	0.0151511
908.342	0.0150484
908.420	0.0151102
908.498	0.0150820
908.576	0.0150600
908.655	0.0151548
908.733	0.0152272
908.811	0.0151917
908.889	0.0151685
908.967	0.0151450
909.045	0.0151897
909.123	0.0152869
909.201	0.0151711
909.280	0.0151760
909.358	0.0152204
909.436	0.0152639
909.514	0.0151762
909.592	0.0151679
909.670	0.0152164
909.748	0.0152986
909.826	0.0151523
909.905	0.0150946
909.983	0.0152800
910.061	0.0152139
910.139	0.0151346
910.217	0.0152611
910.295	0.0151864
910.373	0.0150414
910.451	0.0151435
910.530	0.0150656
910.608	0.0151574
910.686	0.0151057
910.764	0.0151868
910.842	0.0152560
910.920	0.0152317
910.998	0.0150419
911.076	0.0151638
911.155	0.0151410
911.233	0.0152339
911.311	0.0153040
911.389	0.0152635
911.467	0.0153242
911.545	0.0152010
911.623	0.0151631
911.701	0.0152570
911.780	0.0152390
911.858	0.0153584
911.936	0.0153522
912.014	0.0153726
912.092	0.0153623
912.170	0.0152614
912.248	0.0153472
912.326	0.0152766
912.405	0.0154089
912.483	0.0153419
912.561	0.0152310
912.639	0.0152724
912.717	0.0152484
912.795	0.0152448
912.873	0.0153357
912.951	0.0152164
913.030	0.0152014
913.108	0.0153766
913.186	0.0151294
913.264	0.0151585
913.342	0.0150107
913.420	0.0151682
913.498	0.0150735
913.576	0.0152060
913.655	0.0151668
913.733	0.0151653
913.811	0.0151245
913.889	0.0151498
913.967	0.0151723
914.045	0.0151338
914.123	0.0152019
914.201	0.0152044
914.280	0.0151116
914.358	0.0152725
914.436	0.0150530
914.514	0.0151994
914.592	0.0154060
914.670	0.0153362
914.748	0.0152543
914.826	0.0152540
914.905	0.0151585
914.983	0.0152076
915.061	0.0152654
915.139	0.0152651
915.217	0.0151842
915.295	0.0151651
915.373	0.0152077
915.451	0.0152219
915.530	0.0153053
915.608	0.0152906
915.686	0.0153396
915.764	0.0151810
915.842	0.0153629
915.920	0.0153216
915.998	0.0151829
916.076	0.0152299
916.155	0.0151475
916.233	0.0152589
916.311	0.0152190
916.389	0.0152651
916.467	0.0153201
916.545	0.0152467
916.623	0.0152348
916.701	0.0153210
916.780	0.0152458
916.858	0.0151650
916.936	0.0152914
917.014	0.0152167
917.092	0.0151220
917.170	0.0151912
917.248	0.0151502
917.326	0.0152236
917.405	0.0150625
917.483	0.0151149
917.561	0.0149931
917.639	0.0151353
917.717	0.0150974
917.795	0.0150554
917.873	0.0151474
917.951	0.0150597
918.030	0.0151870
918.108	0.0151852
918.186	0.0149345
918.264	0.0150112
918.342	0.0150295
918.420	0.0152275
918.498	0.0151633
918.576	0.0152158
918.655	0.0151160
918.733	0.0150763
918.811	0.0150843
918.889	0.0151655
918.967	0.0150110
919.045	0.0150686
919.123	0.0150679
919.201	0.0150574
919.280	0.0150269
919.358	0.0150778
919.436	0.0151668
919.514	0.0150018
919.592	0.0150629
919.670	0.0150547
919.748	0.0149844
919.826	0.0152443
919.905	0.0150109
919.983	0.0150443
920.061	0.0151247
920.139	0.0150982
920.217	0.0151436
920.295	0.0150662
920.373	0.0149893
920.451	0.0151859
920.530	0.0151607
920.608	0.0150848
920.686	0.0151303
920.764	0.0151991
920.842	0.0150842
920.920	0.0150051
920.998	0.0150248
921.076	0.0152229
921.155	0.0153107
921.233	0.0151987
921.311	0.0151842
921.389	0.0150666
921.467	0.0151898
921.545	0.0152264
921.623	0.0151664
921.701	0.0153448
921.780	0.0151666
921.858	0.0152062
921.936	0.0151229
922.014	0.0152904
922.092	0.0152523
922.170	0.0153168
922.248	0.0152795
922.326	0.0152457
922.405	0.0151960
922.483	0.0151797
922.561	0.0152460
922.639	0.0151540
922.717	0.0153115
922.795	0.0151963
922.873	0.0152029
922.951	0.0151529
923.030	0.0151671
923.108	0.0149986
923.186	0.0151675
923.264	0.0150884
923.342	0.0150997
923.420	0.0151797
923.498	0.0150271
923.576	0.0149810
923.655	0.0150365
923.733	0.0149725
923.811	0.0149527
923.889	0.0150220
923.967	0.0150352
924.045	0.0150162
924.123	0.0148670
924.201	0.0150378
924.280	0.0150271
924.358	0.0148738
924.436	0.0150082
924.514	0.0151114
924.592	0.0149992
924.670	0.0150191
924.748	0.0151017
924.826	0.0149834
924.905	0.0150146
924.983	0.0149684
925.061	0.0151390
925.139	0.0151124
925.217	0.0150897
925.295	0.0151019
925.373	0.0149321
925.451	0.0150349
925.530	0.0150160
925.608	0.0150223
925.686	0.0150823
925.764	0.0150203
925.842	0.0150639
925.920	0.0150265
925.998	0.0149664
926.076	0.0149507
926.155	0.0149837
926.233	0.0151147
926.311	0.0150465
926.389	0.0150419
926.467	0.0150961
926.545	0.0151727
926.623	0.0151084
926.701	0.0151235
926.780	0.0150477
926.858	0.0151752
926.936	0.0151260
927.014	0.0150717
927.092	0.0151051
927.170	0.0150832
927.248	0.0151957
927.326	0.0150494
927.405	0.0150478
927.483	0.0152515
927.561	0.0152502
927.639	0.0151021
927.717	0.0151701
927.795	0.0151003
927.873	0.0151434
927.951	0.0152682
928.030	0.0151315
928.108	0.0150899
928.186	0.0150547
928.264	0.0151842
928.342	0.0153479
928.420	0.0153062
928.498	0.0151672
928.576	0.0151351
928.655	0.0151672
928.733	0.0151848
928.811	0.0150999
928.889	0.0152751
928.967	0.0152754
929.045	0.0153481
929.123	0.0152272
929.201	0.0152335
929.280	0.0153461
929.358	0.0152575
929.436	0.0154233
929.514	0.0152541
929.592	0.0153742
929.670	0.0153151
929.748	0.0152408
929.826	0.0152435
929.905	0.0153004
929.983	0.0152540
930.061	0.0153267
930.139	0.0155029
930.217	0.0153075
930.295	0.0152704
930.373	0.0153076
930.451	0.0153233
930.530	0.0152116
930.608	0.0151108
930.686	0.0153139
930.764	0.0151884
930.842	0.0152281
930.920	0.0152865
930.998	0.0152192
931.076	0.0153325
931.155	0.0153944
931.233	0.0152373
931.311	0.0152311
931.389	0.0152805
931.467	0.0152179
931.545	0.0152409
931.623	0.0151249
931.701	0.0151170
931.780	0.0151469
931.858	0.0150960
931.936	0.0152161
932.014	0.0152515
932.092	0.0152101
932.170	0.0152360
932.248	0.0152684
932.326	0.0151697
932.405	0.0152363
932.483	0.0152968
932.561	0.0152186
932.639	0.0152139
932.717	0.0152803
932.795	0.0153728
932.873	0.0152763
932.951	0.0152294
933.030	0.0153621
933.108	0.0152611
933.186	0.0152506
933.264	0.0153297
933.342	0.0153308
933.420	0.0154108
933.498	0.0152176
933.576	0.0152274
933.655	0.0153373
933.733	0.0152335
933.811	0.0153508
933.889	0.0153289
933.967	0.0152769
934.045	0.0152553
934.123	0.0152705
934.201	0.0153065
934.280	0.0152761
934.358	0.0152371
934.436	0.0153362
934.514	0.0153732
934.592	0.0153743
934.670	0.0153316
934.748	0.0153726
934.826	0.0152056
934.905	0.0153419
934.983	0.0152006
935.061	0.0152146
935.139	0.0153600
935.217	0.0153092
935.295	0.0153688
935.373	0.0153022
935.451	0.0153705
935.530	0.0152203
935.608	0.0151908
935.686	0.0152267
935.764	0.0152398
935.842	0.0152668
935.920	0.0152207
935.998	0.0151268
936.076	0.0152859
936.155	0.0151649
936.233	0.0152271
936.311	0.0152065
936.389	0.0151163
936.467	0.0151821
936.545	0.0151856
936.623	0.0150646
936.701	0.0151184
936.780	0.0150370
936.858	0.0151849
936.936	0.0151184
937.014	0.0151583
937.092	0.0152369
937.170	0.0151976
937.248	0.0150316
937.326	0.0150695
937.405	0.0149702
937.483	0.0152286
937.561	0.0151024
937.639	0.0149736
937.717	0.0151205
937.795	0.0151919
937.873	0.0150854
937.951	0.0150806
938.030	0.0150724
938.108	0.0151176
938.186	0.0149864
938.264	0.0150584
938.342	0.0151038
938.420	0.0150116
938.498	0.0148901
938.576	0.0150369
938.655	0.0149982
938.733	0.0148793
938.811	0.0150855
938.889	0.0152283
938.967	0.0150320
939.045	0.0150729
939.123	0.0151284
939.201	0.0150051
939.280	0.0149889
939.358	0.0150652
939.436	0.0151232
939.514	0.0150815
939.592	0.0151099
939.670	0.0150086
939.748	0.0151190
939.826	0.0151486
939.905	0.0151685
939.983	0.0151302
940.061	0.0150291
940.139	0.0152205
940.217	0.0150917
940.295	0.0152128
940.373	0.0150906
940.451	0.0150544
940.530	0.0150645
940.608	0.0150111
940.686	0.0150633
940.764	0.0151739
940.842	0.0151853
940.920	0.0150705
940.998	0.0151362
941.076	0.0150922
941.155	0.0150854
941.233	0.0152042
941.311	0.0151398
941.389	0.0151736
941.467	0.0152280
941.545	0.0151997
941.623	0.0152432
941.701	0.0150761
941.780	0.0153239
941.858	0.0152448
941.936	0.0154038
942.014	0.0152502
942.092	0.0152287
942.170	0.0151926
942.248	0.0152775
942.326	0.0152258
942.405	0.0152170
942.483	0.0152459
942.561	0.0152343
942.639	0.0152961
942.717	0.0150769
942.795	0.0151392
942.873	0.0151390
942.951	0.0152121
943.030	0.0151871
943.108	0.0150906
943.186	0.0151311
943.264	0.0152537
943.342	0.0150962
943.420	0.0150999
943.498	0.0151547
943.576	0.0150751
943.655	0.0151131
943.733	0.0149236
943.811	0.0150200
943.889	0.0150237
943.967	0.0150099
944.045	0.0151418
944.123	0.0150540
944.201	0.0152335
944.280	0.0150238
944.358	0.0151235
944.436	0.0152827
944.514	0.0151023
944.592	0.0150317
944.670	0.0151621
944.748	0.0150668
944.826	0.0151389
944.905	0.0153667
944.983	0.0151585
945.061	0.0151261
945.139	0.0153186
945.217	0.0152192
945.295	0.0153346
945.373	0.0150674
945.451	0.0151640
945.530	0.0152664
945.608	0.0152067
945.686	0.0151550
945.764	0.0152120
945.842	0.0153319
945.920	0.0152737
945.998	0.0151580
946.076	0.0154215
946.155	0.0152539
946.233	0.0152124
946.311	0.0152026
946.389	0.0152331
946.467	0.0152700
946.545	0.0151922
946.623	0.0151381
946.701	0.0153157
946.780	0.0153857
946.858	0.0152644
946.936	0.0152940
947.014	0.0154144
947.092	0.0152875
947.170	0.0152020
947.248	0.0151796
947.326	0.0152174
947.405	0.0153033
947.483	0.0152419
947.561	0.0151520
947.639	0.0152547
947.717	0.0153001
947.795	0.0151032
947.873	0.0153822
947.951	0.0151562
948.030	0.0151380
948.108	0.0150660
948.186	0.0150976
948.264	0.0151373
948.342	0.0151701
948.420	0.0151866
948.498	0.0150948
948.576	0.0151637
948.655	0.0151054
948.733	0.0151244
948.811	0.0152013
948.889	0.0150249
948.967	0.0150410
949.045	0.0152083
949.123	0.0152358
949.201	0.0152274
949.280	0.0150276
949.358	0.0152717
949.436	0.0151748
949.514	0.0151566
949.592	0.0151153
949.670	0.0151671
949.748	0.0152563
949.826	0.0151437
949.905	0.0150591
949.983	0.0151485
950.061	0.0152211
950.139	0.0150963
950.217	0.0151582
950.295	0.0151718
950.373	0.0151714
950.451	0.0150007
950.530	0.0152938
950.608	0.0150320
950.686	0.0150977
950.764	0.0150528
950.842	0.0150780
950.920	0.0151791
950.998	0.0151781
951.076	0.0151066
951.155	0.0150740
951.233	0.0151492
951.311	0.0151143
951.389	0.0150926
951.467	0.0149767
951.545	0.0150881
951.623	0.0150452
951.701	0.0151726
951.780	0.0152597
951.858	0.0151851
951.936	0.0150202
952.014	0.0152449
952.092	0.0150708
952.170	0.0151061
952.248	0.0151389
952.326	0.0152769
952.405	0.0151761
952.483	0.0150987
952.561	0.0152172
952.639	0.0151405
952.717	0.0151741
952.795	0.0152109
952.873	0.0151383
952.951	0.0151540
953.030	0.0152517
953.108	0.0151667
953.186	0.0152784
953.264	0.0152103
953.342	0.0150833
953.420	0.0151431
953.498	0.0151429
953.576	0.0150797
953.655	0.0152848
953.733	0.0151652
953.811	0.0150982
953.889	0.0151321
953.967	0.0152565
954.045	0.0150818
954.123	0.0151040
954.201	0.0150924
954.280	0.0152120
954.358	0.0151371
954.436	0.0150019
954.514	0.0152392
954.592	0.0153288
954.670	0.0151680
954.748	0.0150614
954.826	0.0150597
954.905	0.0152368
954.983	0.0152363
955.061	0.0153974
955.139	0.0152350
955.217	0.0151855
955.295	0.0152705
955.373	0.0153036
955.451	0.0152493
955.530	0.0153280
955.608	0.0153632
955.686	0.0153010
955.764	0.0153130
955.842	0.0152808
955.920	0.0152618
955.998	0.0153948
956.076	0.0153584
956.155	0.0152776
956.233	0.0151667
956.311	0.0151697
956.389	0.0151279
956.467	0.0152940
956.545	0.0153564
956.623	0.0152232
956.701	0.0152843
956.780	0.0153138
956.858	0.0152364
956.936	0.0153440
957.014	0.0153582
957.092	0.0152955
957.170	0.0153116
957.248	0.0152381
957.326	0.0153023
957.405	0.0152648
957.483	0.0151043
957.561	0.0151647
957.639	0.0153287
957.717	0.0151566
957.795	0.0153161
957.873	0.0154276
957.951	0.0153466
958.030	0.0152326
958.108	0.0153118
958.186	0.0154493
958.264	0.0153178
958.342	0.0152255
958.420	0.0153719
958.498	0.0153488
958.576	0.0154092
958.655	0.0153750
958.733	0.0152046
958.811	0.0153085
958.889	0.0153483
958.967	0.0154277
959.045	0.0154115
959.123	0.0153465
959.201	0.0153416
959.280	0.0153233
959.358	0.0153509
959.436	0.0153422
959.514	0.0153709
959.592	0.0152968
959.670	0.0152328
959.748	0.0153564
959.826	0.0152919
959.905	0.0152325
