05/20/2022	17:18:00	Ver.	4.1	UNKNOWN
Optical Delay	639.982744	Delta X		0.078125	Sweeps	1	Scan Rate	0/0
Coordinates	Axis 1	NaN	Axis 2	NaN	Axis 3	NaN	Axis 4	NaN	Axis 5	NaN	Axis 6	0.000000
TX Power	0.000000	RX Power	0.000000

639.983	0.0154456
640.061	0.0151714
640.139	0.0152910
640.217	0.0152905
640.295	0.0152930
640.373	0.0154494
640.451	0.0153899
640.530	0.0153249
640.608	0.0153117
640.686	0.0153987
640.764	0.0152706
640.842	0.0153458
640.920	0.0153115
640.998	0.0151795
641.076	0.0153628
641.155	0.0153191
641.233	0.0152616
641.311	0.0152125
641.389	0.0153772
641.467	0.0153886
641.545	0.0152902
641.623	0.0151559
641.701	0.0152074
641.780	0.0153220
641.858	0.0152977
641.936	0.0153692
642.014	0.0153228
642.092	0.0154005
642.170	0.0153530
642.248	0.0153617
642.326	0.0153404
642.405	0.0152809
642.483	0.0154192
642.561	0.0153718
642.639	0.0153236
642.717	0.0153744
642.795	0.0154295
642.873	0.0151360
642.951	0.0152969
643.030	0.0152910
643.108	0.0154520
643.186	0.0152471
643.264	0.0152427
643.342	0.0152298
643.420	0.0154311
643.498	0.0153598
643.576	0.0152711
643.655	0.0153802
643.733	0.0152802
643.811	0.0153166
643.889	0.0152569
643.967	0.0154649
644.045	0.0152425
644.123	0.0152591
644.201	0.0153372
644.280	0.0152408
644.358	0.0153442
644.436	0.0151826
644.514	0.0153219
644.592	0.0152544
644.670	0.0152752
644.748	0.0153177
644.826	0.0153625
644.905	0.0153194
644.983	0.0154079
645.061	0.0151971
645.139	0.0153292
645.217	0.0153485
645.295	0.0154051
645.373	0.0153310
645.451	0.0153895
645.530	0.0154344
645.608	0.0154231
645.686	0.0153688
645.764	0.0153830
645.842	0.0154733
645.920	0.0154688
645.998	0.0155016
646.076	0.0155192
646.155	0.0154677
646.233	0.0155346
646.311	0.0155261
646.389	0.0154579
646.467	0.0154974
646.545	0.0155170
646.623	0.0154031
646.701	0.0154716
646.780	0.0154387
646.858	0.0154681
646.936	0.0154883
647.014	0.0153997
647.092	0.0153905
647.170	0.0155158
647.248	0.0153696
647.326	0.0152912
647.405	0.0153700
647.483	0.0154010
647.561	0.0153352
647.639	0.0153860
647.717	0.0154596
647.795	0.0153406
647.873	0.0152809
647.951	0.0153566
648.030	0.0154667
648.108	0.0153371
648.186	0.0152192
648.264	0.0153870
648.342	0.0154229
648.420	0.0152998
648.498	0.0151270
648.576	0.0153555
648.655	0.0153358
648.733	0.0152664
648.811	0.0152743
648.889	0.0152354
648.967	0.0154147
649.045	0.0153110
649.123	0.0152882
649.201	0.0153507
649.280	0.0155125
649.358	0.0154019
649.436	0.0154134
649.514	0.0153114
649.592	0.0154398
649.670	0.0155208
649.748	0.0154764
649.826	0.0154392
649.905	0.0155614
649.983	0.0156207
650.061	0.0153859
650.139	0.0155322
650.217	0.0155010
650.295	0.0153943
650.373	0.0152694
650.451	0.0153842
650.530	0.0153494
650.608	0.0153368
650.686	0.0154825
650.764	0.0153055
650.842	0.0152561
650.920	0.0151803
650.998	0.0151997
651.076	0.0151787
651.155	0.0150323
651.233	0.0150824
651.311	0.0149715
651.389	0.0150016
651.467	0.0151065
651.545	0.0149536
651.623	0.0150903
651.701	0.0152216
651.780	0.0152703
651.858	0.0152046
651.936	0.0153404
652.014	0.0151886
652.092	0.0153239
652.170	0.0153318
652.248	0.0153976
652.326	0.0153863
652.405	0.0154455
652.483	0.0154749
652.561	0.0153683
652.639	0.0154752
652.717	0.0154259
652.795	0.0152973
652.873	0.0154568
652.951	0.0155002
653.030	0.0153551
653.108	0.0151810
653.186	0.0153008
653.264	0.0151955
653.342	0.0152538
653.420	0.0151762
653.498	0.0153217
653.576	0.0152234
653.655	0.0152112
653.733	0.0151925
653.811	0.0149927
653.889	0.0149798
653.967	0.0151396
654.045	0.0152827
654.123	0.0152838
654.201	0.0151287
654.280	0.0153236
654.358	0.0153477
654.436	0.0153277
654.514	0.0154641
654.592	0.0154594
654.670	0.0154054
654.748	0.0153860
654.826	0.0155346
654.905	0.0154173
654.983	0.0154768
655.061	0.0154189
655.139	0.0154027
655.217	0.0154752
655.295	0.0154641
655.373	0.0155370
655.451	0.0155078
655.530	0.0154131
655.608	0.0152642
655.686	0.0154108
655.764	0.0154256
655.842	0.0152402
655.920	0.0151441
655.998	0.0152862
656.076	0.0152083
656.155	0.0153516
656.233	0.0152161
656.311	0.0151826
656.389	0.0151590
656.467	0.0151865
656.545	0.0152179
656.623	0.0152428
656.701	0.0152000
656.780	0.0152588
656.858	0.0152601
656.936	0.0151994
657.014	0.0151763
657.092	0.0153372
657.170	0.0152306
657.248	0.0153304
657.326	0.0154386
657.405	0.0152715
657.483	0.0153989
657.561	0.0155374
657.639	0.0153802
657.717	0.0155814
657.795	0.0154846
657.873	0.0156097
657.951	0.0156512
658.030	0.0155403
658.108	0.0155804
658.186	0.0154821
658.264	0.0154976
658.342	0.0155311
658.420	0.0155268
658.498	0.0154054
658.576	0.0155115
658.655	0.0153256
658.733	0.0152325
658.811	0.0153677
658.889	0.0153771
658.967	0.0152960
659.045	0.0151062
659.123	0.0151990
659.201	0.0151976
659.280	0.0152133
659.358	0.0152728
659.436	0.0153436
659.514	0.0151584
659.592	0.0152657
659.670	0.0152245
659.748	0.0153040
659.826	0.0152112
659.905	0.0152265
659.983	0.0154698
660.061	0.0153649
660.139	0.0152296
660.217	0.0154282
660.295	0.0154395
660.373	0.0153712
660.451	0.0152087
660.530	0.0155100
660.608	0.0155367
660.686	0.0154893
660.764	0.0155142
660.842	0.0152945
660.920	0.0154411
660.998	0.0154757
661.076	0.0153844
661.155	0.0153331
661.233	0.0153903
661.311	0.0153371
661.389	0.0152405
661.467	0.0152950
661.545	0.0153909
661.623	0.0153748
661.701	0.0153320
661.780	0.0151424
661.858	0.0153623
661.936	0.0152575
662.014	0.0153395
662.092	0.0154051
662.170	0.0153635
662.248	0.0155505
662.326	0.0153873
662.405	0.0154589
662.483	0.0155455
662.561	0.0155787
662.639	0.0153631
662.717	0.0155129
662.795	0.0154812
662.873	0.0154564
662.951	0.0154736
663.030	0.0153468
663.108	0.0153841
663.186	0.0153851
663.264	0.0152175
663.342	0.0151396
663.420	0.0152654
663.498	0.0151807
663.576	0.0151373
663.655	0.0150304
663.733	0.0150937
663.811	0.0150743
663.889	0.0150538
663.967	0.0149213
664.045	0.0150246
664.123	0.0149300
664.201	0.0149485
664.280	0.0148669
664.358	0.0149728
664.436	0.0150443
664.514	0.0151250
664.592	0.0149726
664.670	0.0150092
664.748	0.0151284
664.826	0.0151097
664.905	0.0151412
664.983	0.0150553
665.061	0.0151783
665.139	0.0154285
665.217	0.0153849
665.295	0.0154518
665.373	0.0154803
665.451	0.0156349
665.530	0.0156234
665.608	0.0156934
665.686	0.0157241
665.764	0.0157784
665.842	0.0157976
665.920	0.0156732
665.998	0.0157290
666.076	0.0158449
666.155	0.0159029
666.233	0.0156542
666.311	0.0158137
666.389	0.0158257
666.467	0.0158249
666.545	0.0156635
666.623	0.0156460
666.701	0.0157080
666.780	0.0157735
666.858	0.0155942
666.936	0.0156516
667.014	0.0155114
667.092	0.0155034
667.170	0.0156799
667.248	0.0155215
667.326	0.0154541
667.405	0.0153106
667.483	0.0154393
667.561	0.0155240
667.639	0.0155470
667.717	0.0152586
667.795	0.0154028
667.873	0.0153899
667.951	0.0151707
668.030	0.0152460
668.108	0.0153421
668.186	0.0150045
668.264	0.0149925
668.342	0.0150735
668.420	0.0150874
668.498	0.0148051
668.576	0.0147176
668.655	0.0147143
668.733	0.0148082
668.811	0.0146185
668.889	0.0147134
668.967	0.0146829
669.045	0.0145164
669.123	0.0146407
669.201	0.0146880
669.280	0.0146371
669.358	0.0145941
669.436	0.0147352
669.514	0.0150337
669.592	0.0149570
669.670	0.0147691
669.748	0.0149489
669.826	0.0150860
669.905	0.0151581
669.983	0.0152859
670.061	0.0151868
670.139	0.0155664
670.217	0.0155703
670.295	0.0155558
670.373	0.0156107
670.451	0.0157124
670.530	0.0158049
670.608	0.0157325
670.686	0.0158810
670.764	0.0157907
670.842	0.0157320
670.920	0.0158346
670.998	0.0158988
671.076	0.0159017
671.155	0.0157738
671.233	0.0158059
671.311	0.0157908
671.389	0.0158795
671.467	0.0157599
671.545	0.0157986
671.623	0.0157528
671.701	0.0158424
671.780	0.0158492
671.858	0.0157922
671.936	0.0159056
672.014	0.0159867
672.092	0.0160300
672.170	0.0160140
672.248	0.0159869
672.326	0.0159572
672.405	0.0158295
672.483	0.0157086
672.561	0.0158689
672.639	0.0159339
672.717	0.0158201
672.795	0.0155109
672.873	0.0155183
672.951	0.0155190
673.030	0.0153652
673.108	0.0154713
673.186	0.0152431
673.264	0.0150571
673.342	0.0151514
673.420	0.0148716
673.498	0.0148009
673.576	0.0147445
673.655	0.0146441
673.733	0.0143613
673.811	0.0142640
673.889	0.0143528
673.967	0.0141948
674.045	0.0141951
674.123	0.0140363
674.201	0.0140630
674.280	0.0140874
674.358	0.0140720
674.436	0.0140751
674.514	0.0142525
674.592	0.0142483
674.670	0.0142105
674.748	0.0144392
674.826	0.0144170
674.905	0.0145517
674.983	0.0147597
675.061	0.0148578
675.139	0.0148866
675.217	0.0151295
675.295	0.0153786
675.373	0.0153921
675.451	0.0157006
675.530	0.0156065
675.608	0.0158584
675.686	0.0159832
675.764	0.0160405
675.842	0.0162431
675.920	0.0162210
675.998	0.0163057
676.076	0.0165102
676.155	0.0163064
676.233	0.0163949
676.311	0.0165916
676.389	0.0165049
676.467	0.0164037
676.545	0.0165399
676.623	0.0164013
676.701	0.0162558
676.780	0.0161665
676.858	0.0161613
676.936	0.0161185
677.014	0.0160315
677.092	0.0158949
677.170	0.0157653
677.248	0.0155001
677.326	0.0154503
677.405	0.0155103
677.483	0.0154335
677.561	0.0152469
677.639	0.0151990
677.717	0.0150360
677.795	0.0149966
677.873	0.0148207
677.951	0.0146936
678.030	0.0148616
678.108	0.0146179
678.186	0.0146502
678.264	0.0146606
678.342	0.0146478
678.420	0.0145144
678.498	0.0143605
678.576	0.0142666
678.655	0.0143599
678.733	0.0144320
678.811	0.0144006
678.889	0.0143768
678.967	0.0144947
679.045	0.0145519
679.123	0.0145270
679.201	0.0143802
679.280	0.0147601
679.358	0.0146351
679.436	0.0147405
679.514	0.0148372
679.592	0.0148178
679.670	0.0148547
679.748	0.0149522
679.826	0.0150748
679.905	0.0151651
679.983	0.0153334
680.061	0.0153682
680.139	0.0154221
680.217	0.0154668
680.295	0.0155540
680.373	0.0157969
680.451	0.0158730
680.530	0.0158287
680.608	0.0159552
680.686	0.0158901
680.764	0.0158843
680.842	0.0158797
680.920	0.0159495
680.998	0.0159252
681.076	0.0159692
681.155	0.0159195
681.233	0.0157514
681.311	0.0157626
681.389	0.0158636
681.467	0.0156592
681.545	0.0156715
681.623	0.0155797
681.701	0.0155888
681.780	0.0154853
681.858	0.0154958
681.936	0.0155227
682.014	0.0154720
682.092	0.0152995
682.170	0.0152957
682.248	0.0152245
682.326	0.0152982
682.405	0.0151590
682.483	0.0150347
682.561	0.0151043
682.639	0.0151122
682.717	0.0151069
682.795	0.0148412
682.873	0.0150140
682.951	0.0150768
683.030	0.0150535
683.108	0.0150723
683.186	0.0152467
683.264	0.0152357
683.342	0.0151990
683.420	0.0153309
683.498	0.0153854
683.576	0.0153252
683.655	0.0153743
683.733	0.0156329
683.811	0.0156487
683.889	0.0155159
683.967	0.0155002
684.045	0.0155697
684.123	0.0155731
684.201	0.0156075
684.280	0.0154769
684.358	0.0155380
684.436	0.0153527
684.514	0.0153924
684.592	0.0154348
684.670	0.0154106
684.748	0.0153869
684.826	0.0152737
684.905	0.0151997
684.983	0.0153294
685.061	0.0152837
685.139	0.0150705
685.217	0.0151277
685.295	0.0152157
685.373	0.0152448
685.451	0.0151165
685.530	0.0151734
685.608	0.0152952
685.686	0.0150128
685.764	0.0150600
685.842	0.0150520
685.920	0.0150544
685.998	0.0151154
686.076	0.0151308
686.155	0.0150064
686.233	0.0150565
686.311	0.0150108
686.389	0.0150380
686.467	0.0150845
686.545	0.0150941
686.623	0.0150961
686.701	0.0152013
686.780	0.0150646
686.858	0.0152224
686.936	0.0151236
687.014	0.0152491
687.092	0.0153121
687.170	0.0152903
687.248	0.0152888
687.326	0.0155302
687.405	0.0153393
687.483	0.0155297
687.561	0.0154987
687.639	0.0155878
687.717	0.0154553
687.795	0.0156161
687.873	0.0156216
687.951	0.0155746
688.030	0.0155144
688.108	0.0156562
688.186	0.0154799
688.264	0.0155450
688.342	0.0157571
688.420	0.0155746
688.498	0.0156326
688.576	0.0156647
688.655	0.0157278
688.733	0.0157268
688.811	0.0155567
688.889	0.0156233
688.967	0.0156235
689.045	0.0156721
689.123	0.0155544
689.201	0.0155802
689.280	0.0155656
689.358	0.0154426
689.436	0.0153624
689.514	0.0153197
689.592	0.0151163
689.670	0.0150866
689.748	0.0149393
689.826	0.0149696
689.905	0.0150092
689.983	0.0148096
690.061	0.0148090
690.139	0.0147512
690.217	0.0147895
690.295	0.0147271
690.373	0.0148882
690.451	0.0148022
690.530	0.0147844
690.608	0.0149381
690.686	0.0149212
690.764	0.0149860
690.842	0.0151368
690.920	0.0151388
690.998	0.0151955
691.076	0.0152205
691.155	0.0152238
691.233	0.0154910
691.311	0.0155478
691.389	0.0156150
691.467	0.0155933
691.545	0.0154332
691.623	0.0155592
691.701	0.0155244
691.780	0.0154931
691.858	0.0155471
691.936	0.0154708
692.014	0.0155668
692.092	0.0155428
692.170	0.0155064
692.248	0.0153455
692.326	0.0153088
692.405	0.0155627
692.483	0.0153474
692.561	0.0154032
692.639	0.0154355
692.717	0.0153857
692.795	0.0154358
692.873	0.0154866
692.951	0.0152158
693.030	0.0152124
693.108	0.0150794
693.186	0.0150362
693.264	0.0149601
693.342	0.0151407
693.420	0.0149747
693.498	0.0147675
693.576	0.0148246
693.655	0.0147630
693.733	0.0147933
693.811	0.0148806
693.889	0.0147868
693.967	0.0147129
694.045	0.0147948
694.123	0.0146027
694.201	0.0147663
694.280	0.0148409
694.358	0.0148316
694.436	0.0149229
694.514	0.0150573
694.592	0.0150748
694.670	0.0153372
694.748	0.0151160
694.826	0.0154379
694.905	0.0155452
694.983	0.0156659
695.061	0.0155316
695.139	0.0156947
695.217	0.0156567
695.295	0.0157595
695.373	0.0156602
695.451	0.0157061
695.530	0.0157770
695.608	0.0158717
695.686	0.0159642
695.764	0.0158687
695.842	0.0158734
695.920	0.0159624
695.998	0.0158769
696.076	0.0159975
696.155	0.0158960
696.233	0.0158023
696.311	0.0158439
696.389	0.0159624
696.467	0.0157413
696.545	0.0157687
696.623	0.0157899
696.701	0.0156953
696.780	0.0156203
696.858	0.0154642
696.936	0.0155330
697.014	0.0153409
697.092	0.0153532
697.170	0.0153740
697.248	0.0152869
697.326	0.0153707
697.405	0.0151763
697.483	0.0149910
697.561	0.0152197
697.639	0.0152896
697.717	0.0151765
697.795	0.0151929
697.873	0.0150420
697.951	0.0149932
698.030	0.0150119
698.108	0.0148970
698.186	0.0149505
698.264	0.0148856
698.342	0.0147195
698.420	0.0148539
698.498	0.0147243
698.576	0.0144764
698.655	0.0147359
698.733	0.0146998
698.811	0.0147302
698.889	0.0147079
698.967	0.0145813
699.045	0.0147924
699.123	0.0147180
699.201	0.0147186
699.280	0.0148479
699.358	0.0149277
699.436	0.0149757
699.514	0.0150400
699.592	0.0150985
699.670	0.0152922
699.748	0.0154240
699.826	0.0155721
699.905	0.0156177
699.983	0.0155789
700.061	0.0157306
700.139	0.0158567
700.217	0.0159882
700.295	0.0160327
700.373	0.0160342
700.451	0.0161517
700.530	0.0162080
700.608	0.0162132
700.686	0.0162288
700.764	0.0162901
700.842	0.0161391
700.920	0.0163596
700.998	0.0163464
701.076	0.0162427
701.155	0.0163000
701.233	0.0161478
701.311	0.0160059
701.389	0.0159323
701.467	0.0160326
701.545	0.0159443
701.623	0.0159704
701.701	0.0159789
701.780	0.0156312
701.858	0.0156650
701.936	0.0155898
702.014	0.0156973
702.092	0.0154765
702.170	0.0155263
702.248	0.0154561
702.326	0.0152321
702.405	0.0152569
702.483	0.0150783
702.561	0.0152197
702.639	0.0150549
702.717	0.0150885
702.795	0.0151258
702.873	0.0150069
702.951	0.0150191
703.030	0.0149368
703.108	0.0150275
703.186	0.0150018
703.264	0.0151065
703.342	0.0149860
703.420	0.0150037
703.498	0.0149009
703.576	0.0149657
703.655	0.0149506
703.733	0.0149403
703.811	0.0150046
703.889	0.0149930
703.967	0.0149152
704.045	0.0149815
704.123	0.0149829
704.201	0.0148927
704.280	0.0150266
704.358	0.0150365
704.436	0.0149504
704.514	0.0149871
704.592	0.0151698
704.670	0.0152216
704.748	0.0150842
704.826	0.0150936
704.905	0.0152522
704.983	0.0153049
705.061	0.0153436
705.139	0.0153139
705.217	0.0153548
705.295	0.0155901
705.373	0.0155504
705.451	0.0155051
705.530	0.0156953
705.608	0.0156707
705.686	0.0157315
705.764	0.0157819
705.842	0.0156491
705.920	0.0158511
705.998	0.0157440
706.076	0.0157253
706.155	0.0158157
706.233	0.0158688
706.311	0.0157649
706.389	0.0157082
706.467	0.0157871
706.545	0.0156391
706.623	0.0155853
706.701	0.0155684
706.780	0.0157307
706.858	0.0156509
706.936	0.0155579
707.014	0.0156129
707.092	0.0155212
707.170	0.0154236
707.248	0.0155127
707.326	0.0156060
707.405	0.0155309
707.483	0.0153322
707.561	0.0152355
707.639	0.0153049
707.717	0.0153028
707.795	0.0152330
707.873	0.0153474
707.951	0.0151952
708.030	0.0152754
708.108	0.0153912
708.186	0.0153477
708.264	0.0152177
708.342	0.0151693
708.420	0.0152180
708.498	0.0152288
708.576	0.0152467
708.655	0.0152939
708.733	0.0152414
708.811	0.0152989
708.889	0.0152238
708.967	0.0153033
709.045	0.0153701
709.123	0.0154340
709.201	0.0154211
709.280	0.0153184
709.358	0.0152311
709.436	0.0153008
709.514	0.0154794
709.592	0.0154243
709.670	0.0153112
709.748	0.0153277
709.826	0.0152911
709.905	0.0151950
709.983	0.0152580
710.061	0.0153860
710.139	0.0151952
710.217	0.0150874
710.295	0.0152119
710.373	0.0150957
710.451	0.0150998
710.530	0.0151891
710.608	0.0150787
710.686	0.0152504
710.764	0.0149566
710.842	0.0150344
710.920	0.0151124
710.998	0.0151127
711.076	0.0152259
711.155	0.0154635
711.233	0.0153937
711.311	0.0152929
711.389	0.0154306
711.467	0.0156924
711.545	0.0156084
711.623	0.0156455
711.701	0.0155968
711.780	0.0155828
711.858	0.0157740
711.936	0.0157650
712.014	0.0158277
712.092	0.0156350
712.170	0.0154992
712.248	0.0154969
712.326	0.0156122
712.405	0.0153951
712.483	0.0152204
712.561	0.0152415
712.639	0.0155287
712.717	0.0152998
712.795	0.0151413
712.873	0.0152504
712.951	0.0152500
713.030	0.0150526
713.108	0.0150936
713.186	0.0151405
713.264	0.0151794
713.342	0.0152509
713.420	0.0150721
713.498	0.0151299
713.576	0.0149980
713.655	0.0150494
713.733	0.0151512
713.811	0.0150410
713.889	0.0150536
713.967	0.0150143
714.045	0.0151311
714.123	0.0151488
714.201	0.0151105
714.280	0.0151932
714.358	0.0153065
714.436	0.0154044
714.514	0.0153824
714.592	0.0155489
714.670	0.0156702
714.748	0.0156786
714.826	0.0155039
714.905	0.0156463
714.983	0.0157253
715.061	0.0158067
715.139	0.0157594
715.217	0.0157957
715.295	0.0156902
715.373	0.0158079
715.451	0.0158223
715.530	0.0157500
715.608	0.0157614
715.686	0.0157414
715.764	0.0156105
715.842	0.0155843
715.920	0.0155216
715.998	0.0154154
716.076	0.0153686
716.155	0.0152410
716.233	0.0152567
716.311	0.0150883
716.389	0.0150260
716.467	0.0151138
716.545	0.0150055
716.623	0.0149113
716.701	0.0150590
716.780	0.0151408
716.858	0.0150319
716.936	0.0150575
717.014	0.0150252
717.092	0.0150496
717.170	0.0152460
717.248	0.0152061
717.326	0.0152370
717.405	0.0152216
717.483	0.0151062
717.561	0.0151283
717.639	0.0152569
717.717	0.0152463
717.795	0.0153085
717.873	0.0152560
717.951	0.0154137
718.030	0.0152352
718.108	0.0154266
718.186	0.0155887
718.264	0.0154131
718.342	0.0154865
718.420	0.0155695
718.498	0.0154737
718.576	0.0155933
718.655	0.0156285
718.733	0.0155054
718.811	0.0155399
718.889	0.0156329
718.967	0.0155738
719.045	0.0157154
719.123	0.0156237
719.201	0.0154984
719.280	0.0156700
719.358	0.0154685
719.436	0.0154706
719.514	0.0154942
719.592	0.0154241
719.670	0.0152736
719.748	0.0153146
719.826	0.0151854
719.905	0.0150967
719.983	0.0151785
720.061	0.0153255
720.139	0.0152470
720.217	0.0151733
720.295	0.0151482
720.373	0.0151896
720.451	0.0151562
720.530	0.0153398
720.608	0.0152316
720.686	0.0151024
720.764	0.0152338
720.842	0.0153433
720.920	0.0152091
720.998	0.0152892
721.076	0.0153487
721.155	0.0153674
721.233	0.0152792
721.311	0.0152905
721.389	0.0153061
721.467	0.0153810
721.545	0.0153178
721.623	0.0156497
721.701	0.0154999
721.780	0.0155192
721.858	0.0155341
721.936	0.0154938
722.014	0.0155436
722.092	0.0154134
722.170	0.0155302
722.248	0.0154046
722.326	0.0155407
722.405	0.0155347
722.483	0.0153892
722.561	0.0153445
722.639	0.0154563
722.717	0.0153159
722.795	0.0151173
722.873	0.0152474
722.951	0.0153118
723.030	0.0150069
723.108	0.0152207
723.186	0.0151864
723.264	0.0150834
723.342	0.0151118
723.420	0.0152143
723.498	0.0149929
723.576	0.0152805
723.655	0.0153728
723.733	0.0152359
723.811	0.0154408
723.889	0.0154639
723.967	0.0154285
724.045	0.0155009
724.123	0.0156007
724.201	0.0154720
724.280	0.0155357
724.358	0.0156533
724.436	0.0154632
724.514	0.0157159
724.592	0.0157788
724.670	0.0155452
724.748	0.0158259
724.826	0.0157862
724.905	0.0157973
724.983	0.0158157
725.061	0.0157549
725.139	0.0158804
725.217	0.0158535
725.295	0.0158434
725.373	0.0157938
725.451	0.0156496
725.530	0.0158640
725.608	0.0158192
725.686	0.0157282
725.764	0.0156700
725.842	0.0157643
725.920	0.0156262
725.998	0.0157174
726.076	0.0155602
726.155	0.0156281
726.233	0.0155292
726.311	0.0154288
726.389	0.0153903
726.467	0.0154146
726.545	0.0152267
726.623	0.0152309
726.701	0.0151632
726.780	0.0150900
726.858	0.0150473
726.936	0.0149503
727.014	0.0148963
727.092	0.0149096
727.170	0.0148872
727.248	0.0148807
727.326	0.0147358
727.405	0.0147708
727.483	0.0148235
727.561	0.0146493
727.639	0.0147476
727.717	0.0147817
727.795	0.0147937
727.873	0.0147719
727.951	0.0148618
728.030	0.0149259
728.108	0.0151550
728.186	0.0152274
728.264	0.0151440
728.342	0.0152718
728.420	0.0152057
728.498	0.0153212
728.576	0.0154179
728.655	0.0154137
728.733	0.0155975
728.811	0.0157072
728.889	0.0155861
728.967	0.0157243
729.045	0.0157151
729.123	0.0156729
729.201	0.0159258
729.280	0.0159098
729.358	0.0157004
729.436	0.0158362
729.514	0.0159331
729.592	0.0157954
729.670	0.0157281
729.748	0.0158386
729.826	0.0158419
729.905	0.0156951
729.983	0.0155811
730.061	0.0155956
730.139	0.0154960
730.217	0.0155773
730.295	0.0153466
730.373	0.0152690
730.451	0.0153269
730.530	0.0150856
730.608	0.0151139
730.686	0.0150245
730.764	0.0149660
730.842	0.0152155
730.920	0.0151258
730.998	0.0150790
731.076	0.0149580
731.155	0.0150518
731.233	0.0151453
731.311	0.0150382
731.389	0.0150349
731.467	0.0152337
731.545	0.0152273
731.623	0.0153220
731.701	0.0153329
731.780	0.0153647
731.858	0.0154249
731.936	0.0155540
732.014	0.0153712
732.092	0.0154633
732.170	0.0155278
732.248	0.0154973
732.326	0.0155899
732.405	0.0156144
732.483	0.0156128
732.561	0.0155479
732.639	0.0153593
732.717	0.0154261
732.795	0.0153701
732.873	0.0152187
732.951	0.0151704
733.030	0.0152499
733.108	0.0152660
733.186	0.0153918
733.264	0.0153489
733.342	0.0151831
733.420	0.0151789
733.498	0.0152142
733.576	0.0151852
733.655	0.0151593
733.733	0.0152012
733.811	0.0151780
733.889	0.0152157
733.967	0.0152385
734.045	0.0153567
734.123	0.0154420
734.201	0.0153052
734.280	0.0153271
734.358	0.0153705
734.436	0.0154214
734.514	0.0153865
734.592	0.0153415
734.670	0.0153949
734.748	0.0153630
734.826	0.0155222
734.905	0.0155568
734.983	0.0154208
735.061	0.0154225
735.139	0.0154656
735.217	0.0153747
735.295	0.0154045
735.373	0.0153574
735.451	0.0153288
735.530	0.0154091
735.608	0.0154504
735.686	0.0154270
735.764	0.0154179
735.842	0.0154455
735.920	0.0153827
735.998	0.0155841
736.076	0.0153350
736.155	0.0154561
736.233	0.0154435
736.311	0.0154660
736.389	0.0155214
736.467	0.0156044
736.545	0.0153633
736.623	0.0153724
736.701	0.0154174
736.780	0.0152740
736.858	0.0153759
736.936	0.0153384
737.014	0.0153362
737.092	0.0154393
737.170	0.0154543
737.248	0.0153542
737.326	0.0154205
737.405	0.0153219
737.483	0.0153360
737.561	0.0154703
737.639	0.0153783
737.717	0.0153252
737.795	0.0154265
737.873	0.0154647
737.951	0.0154982
738.030	0.0151785
738.108	0.0152209
738.186	0.0152995
738.264	0.0152480
738.342	0.0152612
738.420	0.0153209
738.498	0.0152282
738.576	0.0150529
738.655	0.0153590
738.733	0.0153176
738.811	0.0152368
738.889	0.0152814
738.967	0.0154230
739.045	0.0153687
739.123	0.0153915
739.201	0.0154708
739.280	0.0155154
739.358	0.0153838
739.436	0.0155576
739.514	0.0155917
739.592	0.0153522
739.670	0.0154867
739.748	0.0155849
739.826	0.0155869
739.905	0.0154303
739.983	0.0153881
740.061	0.0154475
740.139	0.0153182
740.217	0.0154304
740.295	0.0153449
740.373	0.0152357
740.451	0.0153094
740.530	0.0153516
740.608	0.0153170
740.686	0.0153361
740.764	0.0153442
740.842	0.0153518
740.920	0.0153896
740.998	0.0153124
741.076	0.0153611
741.155	0.0153091
741.233	0.0153873
741.311	0.0153776
741.389	0.0152143
741.467	0.0153438
741.545	0.0152931
741.623	0.0152733
741.701	0.0153912
741.780	0.0152901
741.858	0.0153082
741.936	0.0152895
742.014	0.0152979
742.092	0.0151914
742.170	0.0150965
742.248	0.0151938
742.326	0.0150411
742.405	0.0150214
742.483	0.0149738
742.561	0.0150732
742.639	0.0151669
742.717	0.0150256
742.795	0.0150281
742.873	0.0152016
742.951	0.0152027
743.030	0.0151957
743.108	0.0152157
743.186	0.0152672
743.264	0.0155498
743.342	0.0155160
743.420	0.0155936
743.498	0.0154303
743.576	0.0155579
743.655	0.0155207
743.733	0.0156874
743.811	0.0156656
743.889	0.0158089
743.967	0.0158204
744.045	0.0156361
744.123	0.0157444
744.201	0.0157311
744.280	0.0158300
744.358	0.0155828
744.436	0.0155688
744.514	0.0156232
744.592	0.0156381
744.670	0.0154025
744.748	0.0154212
744.826	0.0155152
744.905	0.0154467
744.983	0.0153003
745.061	0.0154125
745.139	0.0152913
745.217	0.0153381
745.295	0.0152727
745.373	0.0152731
745.451	0.0152898
745.530	0.0152031
745.608	0.0153263
745.686	0.0154208
745.764	0.0153235
745.842	0.0153907
745.920	0.0153554
745.998	0.0151974
746.076	0.0155034
746.155	0.0153407
746.233	0.0153552
746.311	0.0152158
746.389	0.0151839
746.467	0.0152908
746.545	0.0152569
746.623	0.0152820
746.701	0.0152238
746.780	0.0153619
746.858	0.0153588
746.936	0.0151983
747.014	0.0152276
747.092	0.0152045
747.170	0.0152168
747.248	0.0151483
747.326	0.0151685
747.405	0.0151565
747.483	0.0152147
747.561	0.0149714
747.639	0.0149210
747.717	0.0150318
747.795	0.0149953
747.873	0.0149946
747.951	0.0148918
748.030	0.0149299
748.108	0.0151266
748.186	0.0150704
748.264	0.0150853
748.342	0.0150426
748.420	0.0152217
748.498	0.0151503
748.576	0.0151449
748.655	0.0152316
748.733	0.0152676
748.811	0.0152159
748.889	0.0151497
748.967	0.0152895
749.045	0.0152957
749.123	0.0154917
749.201	0.0156146
749.280	0.0154065
749.358	0.0153533
749.436	0.0153934
749.514	0.0156707
749.592	0.0156310
749.670	0.0156601
749.748	0.0158192
749.826	0.0157481
749.905	0.0156176
749.983	0.0157984
750.061	0.0156588
750.139	0.0156287
750.217	0.0156165
750.295	0.0156470
750.373	0.0156389
750.451	0.0155083
750.530	0.0153464
750.608	0.0154010
750.686	0.0152718
750.764	0.0152010
750.842	0.0152210
750.920	0.0150768
750.998	0.0151153
751.076	0.0151604
751.155	0.0150217
751.233	0.0151391
751.311	0.0151205
751.389	0.0152176
751.467	0.0151894
751.545	0.0152585
751.623	0.0152576
751.701	0.0151972
751.780	0.0152123
751.858	0.0153448
751.936	0.0153454
752.014	0.0153240
752.092	0.0154279
752.170	0.0154881
752.248	0.0154515
752.326	0.0152755
752.405	0.0153780
752.483	0.0154307
752.561	0.0154631
752.639	0.0154478
752.717	0.0155047
752.795	0.0153219
752.873	0.0152896
752.951	0.0152554
753.030	0.0152809
753.108	0.0154655
753.186	0.0153362
753.264	0.0153937
753.342	0.0153619
753.420	0.0151501
753.498	0.0153458
753.576	0.0153302
753.655	0.0153356
753.733	0.0154365
753.811	0.0153757
753.889	0.0152937
753.967	0.0153497
754.045	0.0156345
754.123	0.0154830
754.201	0.0156050
754.280	0.0156590
754.358	0.0156316
754.436	0.0154583
754.514	0.0155634
754.592	0.0156642
754.670	0.0156514
754.748	0.0156196
754.826	0.0155428
754.905	0.0155887
754.983	0.0155892
755.061	0.0154552
755.139	0.0154153
755.217	0.0155357
755.295	0.0155868
755.373	0.0153624
755.451	0.0153851
755.530	0.0155286
755.608	0.0153954
755.686	0.0154755
755.764	0.0152863
755.842	0.0153680
755.920	0.0153023
755.998	0.0153045
756.076	0.0151766
756.155	0.0152734
756.233	0.0151894
756.311	0.0152779
756.389	0.0152601
756.467	0.0151962
756.545	0.0150898
756.623	0.0150758
756.701	0.0150796
756.780	0.0151414
756.858	0.0150515
756.936	0.0150028
757.014	0.0150741
757.092	0.0151703
757.170	0.0151199
757.248	0.0152435
757.326	0.0152907
757.405	0.0155133
757.483	0.0153687
757.561	0.0153733
757.639	0.0154463
757.717	0.0154488
757.795	0.0154572
757.873	0.0155579
757.951	0.0155396
758.030	0.0155089
758.108	0.0155912
758.186	0.0155053
758.264	0.0156270
758.342	0.0157029
758.420	0.0155212
758.498	0.0155052
758.576	0.0154308
758.655	0.0154831
758.733	0.0155080
758.811	0.0154887
758.889	0.0154182
758.967	0.0154578
759.045	0.0153789
759.123	0.0151418
759.201	0.0152090
759.280	0.0151875
759.358	0.0150865
759.436	0.0151482
759.514	0.0151073
759.592	0.0151269
759.670	0.0150697
759.748	0.0151470
759.826	0.0151457
759.905	0.0151364
759.983	0.0150455
760.061	0.0152064
760.139	0.0153376
760.217	0.0151762
760.295	0.0151387
760.373	0.0151395
760.451	0.0151048
760.530	0.0152012
760.608	0.0150669
760.686	0.0151254
760.764	0.0151096
760.842	0.0152415
760.920	0.0153233
760.998	0.0151958
761.076	0.0153512
761.155	0.0153884
761.233	0.0152773
761.311	0.0153767
761.389	0.0155116
761.467	0.0156757
761.545	0.0155975
761.623	0.0157565
761.701	0.0156973
761.780	0.0156258
761.858	0.0157152
761.936	0.0157621
762.014	0.0157717
762.092	0.0157193
762.170	0.0157288
762.248	0.0157152
762.326	0.0156152
762.405	0.0156627
762.483	0.0155487
762.561	0.0155183
762.639	0.0154729
762.717	0.0154208
762.795	0.0153469
762.873	0.0153138
762.951	0.0154495
763.030	0.0153193
763.108	0.0152277
763.186	0.0152340
763.264	0.0153403
763.342	0.0151765
763.420	0.0153071
763.498	0.0152184
763.576	0.0152110
763.655	0.0152152
763.733	0.0152900
763.811	0.0152706
763.889	0.0153369
763.967	0.0153199
764.045	0.0152949
764.123	0.0152777
764.201	0.0153320
764.280	0.0152453
764.358	0.0152493
764.436	0.0152197
764.514	0.0152341
764.592	0.0152477
764.670	0.0152447
764.748	0.0151284
764.826	0.0152857
764.905	0.0152357
764.983	0.0152163
765.061	0.0151307
765.139	0.0152089
765.217	0.0151270
765.295	0.0150493
765.373	0.0151313
765.451	0.0152306
765.530	0.0152724
765.608	0.0151593
765.686	0.0151682
765.764	0.0152633
765.842	0.0152602
765.920	0.0153482
765.998	0.0153487
766.076	0.0153644
766.155	0.0154065
766.233	0.0153883
766.311	0.0152493
766.389	0.0154033
766.467	0.0152262
766.545	0.0154053
766.623	0.0154844
766.701	0.0155647
766.780	0.0155660
766.858	0.0153904
766.936	0.0155333
767.014	0.0156450
767.092	0.0156866
767.170	0.0156113
767.248	0.0155972
767.326	0.0156297
767.405	0.0158788
767.483	0.0157114
767.561	0.0157253
767.639	0.0156317
767.717	0.0156930
767.795	0.0155856
767.873	0.0155369
767.951	0.0153568
768.030	0.0156168
768.108	0.0154318
768.186	0.0153956
768.264	0.0152975
768.342	0.0152194
768.420	0.0151225
768.498	0.0150977
768.576	0.0150389
768.655	0.0151771
768.733	0.0150256
768.811	0.0150061
768.889	0.0151076
768.967	0.0151959
769.045	0.0150486
769.123	0.0151414
769.201	0.0151399
769.280	0.0151628
769.358	0.0150296
769.436	0.0150900
769.514	0.0152993
769.592	0.0152294
769.670	0.0152564
769.748	0.0152502
769.826	0.0152675
769.905	0.0152474
769.983	0.0154891
770.061	0.0152384
770.139	0.0151190
770.217	0.0153709
770.295	0.0154687
770.373	0.0153260
770.451	0.0151926
770.530	0.0154326
770.608	0.0153488
770.686	0.0153785
770.764	0.0152941
770.842	0.0152442
770.920	0.0153955
770.998	0.0152306
771.076	0.0152927
771.155	0.0154623
771.233	0.0152724
771.311	0.0153127
771.389	0.0154191
771.467	0.0152979
771.545	0.0152003
771.623	0.0152828
771.701	0.0154456
771.780	0.0154758
771.858	0.0153872
771.936	0.0153130
772.014	0.0154079
772.092	0.0154272
772.170	0.0152439
772.248	0.0154044
772.326	0.0153381
772.405	0.0153278
772.483	0.0153784
772.561	0.0153983
772.639	0.0155146
772.717	0.0153276
772.795	0.0153799
772.873	0.0153282
772.951	0.0152604
773.030	0.0153222
773.108	0.0153748
773.186	0.0154007
773.264	0.0153165
773.342	0.0153289
773.420	0.0153710
773.498	0.0154021
773.576	0.0153477
773.655	0.0152613
773.733	0.0153826
773.811	0.0153052
773.889	0.0151041
773.967	0.0150523
774.045	0.0152920
774.123	0.0151167
774.201	0.0152311
774.280	0.0153320
774.358	0.0152348
774.436	0.0152139
774.514	0.0151714
774.592	0.0150828
774.670	0.0151945
774.748	0.0153014
774.826	0.0151858
774.905	0.0151051
774.983	0.0150933
775.061	0.0152375
775.139	0.0152691
775.217	0.0152438
775.295	0.0152639
775.373	0.0152646
775.451	0.0152794
775.530	0.0153457
775.608	0.0153360
775.686	0.0153191
775.764	0.0152142
775.842	0.0153069
775.920	0.0153258
775.998	0.0154418
776.076	0.0154043
776.155	0.0153651
776.233	0.0153965
776.311	0.0153714
776.389	0.0154417
776.467	0.0153710
776.545	0.0153703
776.623	0.0154865
776.701	0.0152873
776.780	0.0153407
776.858	0.0153861
776.936	0.0152975
777.014	0.0153068
777.092	0.0153873
777.170	0.0152743
777.248	0.0153406
777.326	0.0153785
777.405	0.0153092
777.483	0.0154523
777.561	0.0153453
777.639	0.0154310
777.717	0.0154165
777.795	0.0154005
777.873	0.0153946
777.951	0.0154691
778.030	0.0154064
778.108	0.0153109
778.186	0.0155161
778.264	0.0153738
778.342	0.0153990
778.420	0.0153568
778.498	0.0153938
778.576	0.0153428
778.655	0.0153597
778.733	0.0152384
778.811	0.0152475
778.889	0.0152753
778.967	0.0152917
779.045	0.0152728
779.123	0.0152356
779.201	0.0151802
779.280	0.0152611
779.358	0.0152429
779.436	0.0150518
779.514	0.0151780
779.592	0.0153217
779.670	0.0152203
779.748	0.0153817
779.826	0.0152199
779.905	0.0151920
779.983	0.0153093
780.061	0.0153401
780.139	0.0154723
780.217	0.0155491
780.295	0.0155125
780.373	0.0154779
780.451	0.0155323
780.530	0.0154523
780.608	0.0156066
780.686	0.0156069
780.764	0.0154577
780.842	0.0156776
780.920	0.0157015
780.998	0.0156586
781.076	0.0156172
781.155	0.0156229
781.233	0.0155247
781.311	0.0155289
781.389	0.0155910
781.467	0.0155437
781.545	0.0155644
781.623	0.0155341
781.701	0.0153944
781.780	0.0153540
781.858	0.0155339
781.936	0.0153975
782.014	0.0154743
782.092	0.0153715
782.170	0.0154397
782.248	0.0153664
782.326	0.0153431
782.405	0.0154830
782.483	0.0153883
782.561	0.0152469
782.639	0.0154129
782.717	0.0155125
782.795	0.0154169
782.873	0.0155060
782.951	0.0152937
783.030	0.0153104
783.108	0.0154939
783.186	0.0153707
783.264	0.0154127
783.342	0.0152988
783.420	0.0153102
783.498	0.0154678
783.576	0.0154962
783.655	0.0155242
783.733	0.0153201
783.811	0.0154497
783.889	0.0153929
783.967	0.0154049
784.045	0.0154330
784.123	0.0153656
784.201	0.0153903
784.280	0.0155630
784.358	0.0153473
784.436	0.0152366
784.514	0.0153719
784.592	0.0154205
784.670	0.0152377
784.748	0.0153478
784.826	0.0152915
784.905	0.0152853
784.983	0.0153215
785.061	0.0154251
785.139	0.0152876
785.217	0.0153679
785.295	0.0153699
785.373	0.0153238
785.451	0.0154125
785.530	0.0152821
785.608	0.0154345
785.686	0.0153898
785.764	0.0154116
785.842	0.0153912
785.920	0.0153569
785.998	0.0153878
786.076	0.0154757
786.155	0.0154047
786.233	0.0154573
786.311	0.0154268
786.389	0.0152821
786.467	0.0155156
786.545	0.0154026
786.623	0.0153209
786.701	0.0154330
786.780	0.0153316
786.858	0.0153521
786.936	0.0152799
787.014	0.0153207
787.092	0.0153745
787.170	0.0153174
787.248	0.0152923
787.326	0.0152169
787.405	0.0152802
787.483	0.0153468
787.561	0.0152045
787.639	0.0152854
787.717	0.0153027
787.795	0.0152652
787.873	0.0152316
787.951	0.0154100
788.030	0.0153983
788.108	0.0152200
788.186	0.0152732
788.264	0.0152555
788.342	0.0153130
788.420	0.0154070
788.498	0.0152507
788.576	0.0152540
788.655	0.0154389
788.733	0.0152960
788.811	0.0153729
788.889	0.0154216
788.967	0.0152583
789.045	0.0153088
789.123	0.0155839
789.201	0.0153651
789.280	0.0153611
789.358	0.0155135
789.436	0.0152418
789.514	0.0152715
789.592	0.0153937
789.670	0.0152543
789.748	0.0151321
789.826	0.0152502
789.905	0.0153880
789.983	0.0151718
790.061	0.0151793
790.139	0.0152648
790.217	0.0153706
790.295	0.0152391
790.373	0.0151352
790.451	0.0152762
790.530	0.0149989
790.608	0.0152109
790.686	0.0152493
790.764	0.0152403
790.842	0.0151921
790.920	0.0152743
790.998	0.0153745
791.076	0.0154034
791.155	0.0152518
791.233	0.0152848
791.311	0.0152774
791.389	0.0153747
791.467	0.0153651
791.545	0.0153844
791.623	0.0154054
791.701	0.0155695
791.780	0.0154785
791.858	0.0154103
791.936	0.0154052
792.014	0.0154230
792.092	0.0154498
792.170	0.0154939
792.248	0.0154796
792.326	0.0155306
792.405	0.0155310
792.483	0.0154641
792.561	0.0155135
792.639	0.0155403
792.717	0.0153831
792.795	0.0154662
792.873	0.0155881
792.951	0.0153425
793.030	0.0153267
793.108	0.0153719
793.186	0.0155473
793.264	0.0152946
793.342	0.0152542
793.420	0.0152373
793.498	0.0153564
793.576	0.0153744
793.655	0.0154356
793.733	0.0152670
793.811	0.0154140
793.889	0.0153895
793.967	0.0152578
794.045	0.0153541
794.123	0.0153942
794.201	0.0151881
794.280	0.0153256
794.358	0.0153683
794.436	0.0154027
794.514	0.0151408
794.592	0.0151479
794.670	0.0150887
794.748	0.0151947
794.826	0.0152513
794.905	0.0150387
794.983	0.0151987
795.061	0.0150785
795.139	0.0151546
795.217	0.0151285
795.295	0.0151035
795.373	0.0150746
795.451	0.0151846
795.530	0.0151002
795.608	0.0151273
795.686	0.0152308
795.764	0.0151032
795.842	0.0152208
795.920	0.0151868
795.998	0.0153139
796.076	0.0151318
796.155	0.0152857
796.233	0.0152216
796.311	0.0153376
796.389	0.0152721
796.467	0.0152162
796.545	0.0152285
796.623	0.0154770
796.701	0.0154492
796.780	0.0154598
796.858	0.0153897
796.936	0.0153768
797.014	0.0153974
797.092	0.0154445
797.170	0.0155042
797.248	0.0154101
797.326	0.0155483
797.405	0.0154482
797.483	0.0156437
797.561	0.0154864
797.639	0.0155427
797.717	0.0154488
797.795	0.0155958
797.873	0.0154825
797.951	0.0154354
798.030	0.0154953
798.108	0.0155060
798.186	0.0153986
798.264	0.0156054
798.342	0.0156143
798.420	0.0155074
798.498	0.0155132
798.576	0.0154929
798.655	0.0153981
798.733	0.0154324
798.811	0.0155205
798.889	0.0154523
798.967	0.0153616
799.045	0.0154254
799.123	0.0153851
799.201	0.0153585
799.280	0.0153334
799.358	0.0153539
799.436	0.0153815
799.514	0.0151737
799.592	0.0152358
799.670	0.0152898
799.748	0.0151234
799.826	0.0150911
799.905	0.0152792
799.983	0.0152161
800.061	0.0152874
800.139	0.0152222
800.217	0.0152120
800.295	0.0153380
800.373	0.0149671
800.451	0.0151269
800.530	0.0151643
800.608	0.0150648
800.686	0.0151832
800.764	0.0152431
800.842	0.0151982
800.920	0.0151749
800.998	0.0151350
801.076	0.0152121
801.155	0.0153203
801.233	0.0152139
801.311	0.0153147
801.389	0.0152538
801.467	0.0154062
801.545	0.0152779
801.623	0.0153644
801.701	0.0153129
801.780	0.0154839
801.858	0.0153892
801.936	0.0155121
802.014	0.0155095
802.092	0.0154198
802.170	0.0153053
802.248	0.0154582
802.326	0.0153192
802.405	0.0154137
802.483	0.0153331
802.561	0.0154594
802.639	0.0153112
802.717	0.0154239
802.795	0.0153687
802.873	0.0154470
802.951	0.0154254
803.030	0.0152747
803.108	0.0153828
803.186	0.0154130
803.264	0.0153681
803.342	0.0153603
803.420	0.0153078
803.498	0.0153680
803.576	0.0152457
803.655	0.0154435
803.733	0.0152650
803.811	0.0152889
803.889	0.0154173
803.967	0.0153429
804.045	0.0154492
804.123	0.0153320
804.201	0.0152564
804.280	0.0153252
804.358	0.0154046
804.436	0.0154672
804.514	0.0153660
804.592	0.0154249
804.670	0.0153397
804.748	0.0152841
804.826	0.0154527
804.905	0.0154073
804.983	0.0154001
805.061	0.0152649
805.139	0.0153120
805.217	0.0154681
805.295	0.0153847
805.373	0.0154008
805.451	0.0153239
805.530	0.0153702
805.608	0.0153808
805.686	0.0152861
805.764	0.0153879
805.842	0.0153427
805.920	0.0152300
805.998	0.0153001
806.076	0.0153518
806.155	0.0154394
806.233	0.0153329
806.311	0.0153379
806.389	0.0154779
806.467	0.0153659
806.545	0.0153403
806.623	0.0154104
806.701	0.0153179
806.780	0.0152869
806.858	0.0153415
806.936	0.0153012
807.014	0.0153533
807.092	0.0153642
807.170	0.0153296
807.248	0.0152469
807.326	0.0152491
807.405	0.0152869
807.483	0.0154157
807.561	0.0152360
807.639	0.0152187
807.717	0.0153561
807.795	0.0154006
807.873	0.0153355
807.951	0.0153678
808.030	0.0153885
808.108	0.0153293
808.186	0.0153913
808.264	0.0154420
808.342	0.0155787
808.420	0.0152788
808.498	0.0153945
808.576	0.0153596
808.655	0.0152602
808.733	0.0154439
808.811	0.0153919
808.889	0.0153030
808.967	0.0153344
809.045	0.0154343
809.123	0.0154184
809.201	0.0152016
809.280	0.0153405
809.358	0.0153490
809.436	0.0153932
809.514	0.0152222
809.592	0.0153194
809.670	0.0153324
809.748	0.0152273
809.826	0.0152946
809.905	0.0153130
809.983	0.0152673
810.061	0.0154084
810.139	0.0151746
810.217	0.0153022
810.295	0.0153719
810.373	0.0152499
810.451	0.0153277
810.530	0.0153497
810.608	0.0152972
810.686	0.0152771
810.764	0.0153029
810.842	0.0153397
810.920	0.0152912
810.998	0.0152625
811.076	0.0152492
811.155	0.0154516
811.233	0.0155443
811.311	0.0152715
811.389	0.0152573
811.467	0.0155121
811.545	0.0153355
811.623	0.0154057
811.701	0.0152818
811.780	0.0153410
811.858	0.0153442
811.936	0.0153626
812.014	0.0155389
812.092	0.0154254
812.170	0.0154793
812.248	0.0154510
812.326	0.0153715
812.405	0.0152938
812.483	0.0153477
812.561	0.0153163
812.639	0.0153557
812.717	0.0153506
812.795	0.0153106
812.873	0.0151665
812.951	0.0153057
813.030	0.0153975
813.108	0.0153235
813.186	0.0152950
813.264	0.0153538
813.342	0.0153881
813.420	0.0152659
813.498	0.0152512
813.576	0.0152827
813.655	0.0152975
813.733	0.0153002
813.811	0.0152999
813.889	0.0154002
813.967	0.0154016
814.045	0.0153689
814.123	0.0153442
814.201	0.0153960
814.280	0.0153483
814.358	0.0154179
814.436	0.0155424
814.514	0.0153731
814.592	0.0152757
814.670	0.0154748
814.748	0.0154587
814.826	0.0153982
814.905	0.0154878
814.983	0.0154732
815.061	0.0153696
815.139	0.0154115
815.217	0.0154229
815.295	0.0154341
815.373	0.0154267
815.451	0.0154002
815.530	0.0153886
815.608	0.0152753
815.686	0.0153813
815.764	0.0153790
815.842	0.0153159
815.920	0.0152752
815.998	0.0151355
816.076	0.0152728
816.155	0.0152188
816.233	0.0151384
816.311	0.0150899
816.389	0.0152044
816.467	0.0151172
816.545	0.0151814
816.623	0.0151086
816.701	0.0151419
816.780	0.0151638
816.858	0.0151446
816.936	0.0151279
817.014	0.0150436
817.092	0.0152036
817.170	0.0153503
817.248	0.0151920
817.326	0.0151256
817.405	0.0152184
817.483	0.0153270
817.561	0.0152182
817.639	0.0151390
817.717	0.0153226
817.795	0.0151904
817.873	0.0151897
817.951	0.0152480
818.030	0.0153751
818.108	0.0154159
818.186	0.0152780
818.264	0.0153036
818.342	0.0154189
818.420	0.0152791
818.498	0.0153083
818.576	0.0154396
818.655	0.0153549
818.733	0.0152036
818.811	0.0152757
818.889	0.0154264
818.967	0.0153877
819.045	0.0153266
819.123	0.0154694
819.201	0.0153435
819.280	0.0152996
819.358	0.0153528
819.436	0.0152732
819.514	0.0152666
819.592	0.0152728
819.670	0.0153130
819.748	0.0153033
819.826	0.0151599
819.905	0.0151405
819.983	0.0153091
820.061	0.0152254
820.139	0.0152644
820.217	0.0152824
820.295	0.0153642
820.373	0.0154021
820.451	0.0152942
820.530	0.0153532
820.608	0.0154860
820.686	0.0152827
820.764	0.0152548
820.842	0.0153008
820.920	0.0153706
820.998	0.0154955
821.076	0.0153757
821.155	0.0154278
821.233	0.0153191
821.311	0.0152811
821.389	0.0154527
821.467	0.0153620
821.545	0.0153400
821.623	0.0152997
821.701	0.0153461
821.780	0.0154524
821.858	0.0153288
821.936	0.0154187
822.014	0.0153223
822.092	0.0153382
822.170	0.0151524
822.248	0.0153197
822.326	0.0153682
822.405	0.0152197
822.483	0.0152955
822.561	0.0152658
822.639	0.0153503
822.717	0.0152349
822.795	0.0152875
822.873	0.0152198
822.951	0.0152282
823.030	0.0152158
823.108	0.0153622
823.186	0.0151924
823.264	0.0153114
823.342	0.0152100
823.420	0.0151347
823.498	0.0151618
823.576	0.0152309
823.655	0.0152692
823.733	0.0152119
823.811	0.0151218
823.889	0.0151763
823.967	0.0151086
824.045	0.0151592
824.123	0.0151389
824.201	0.0150983
824.280	0.0150032
824.358	0.0152798
824.436	0.0152519
824.514	0.0151733
824.592	0.0152229
824.670	0.0153002
824.748	0.0151718
824.826	0.0150877
824.905	0.0153335
824.983	0.0155086
825.061	0.0153503
825.139	0.0153864
825.217	0.0154173
825.295	0.0154736
825.373	0.0154923
825.451	0.0153551
825.530	0.0154408
825.608	0.0155443
825.686	0.0156049
825.764	0.0155192
825.842	0.0154252
825.920	0.0153867
825.998	0.0154531
826.076	0.0154731
826.155	0.0155271
826.233	0.0154855
826.311	0.0154542
826.389	0.0153729
826.467	0.0153139
826.545	0.0153261
826.623	0.0154998
826.701	0.0154196
826.780	0.0153728
826.858	0.0154403
826.936	0.0154558
827.014	0.0154185
827.092	0.0153446
827.170	0.0154548
827.248	0.0154185
827.326	0.0153270
827.405	0.0153871
827.483	0.0154905
827.561	0.0152304
827.639	0.0153415
827.717	0.0152746
827.795	0.0152753
827.873	0.0153576
827.951	0.0154218
828.030	0.0153777
828.108	0.0153264
828.186	0.0152757
828.264	0.0153641
828.342	0.0154353
828.420	0.0152461
828.498	0.0153140
828.576	0.0153429
828.655	0.0152897
828.733	0.0151807
828.811	0.0152882
828.889	0.0151987
828.967	0.0153719
829.045	0.0152829
829.123	0.0152266
829.201	0.0152876
829.280	0.0152840
829.358	0.0153191
829.436	0.0152000
829.514	0.0152309
829.592	0.0155099
829.670	0.0152849
829.748	0.0152568
829.826	0.0152753
829.905	0.0154348
829.983	0.0154736
830.061	0.0154048
830.139	0.0153970
830.217	0.0153786
830.295	0.0153852
830.373	0.0154903
830.451	0.0154309
830.530	0.0153589
830.608	0.0153555
830.686	0.0154385
830.764	0.0153867
830.842	0.0154030
830.920	0.0155096
830.998	0.0152849
831.076	0.0152882
831.155	0.0153677
831.233	0.0154867
831.311	0.0154127
831.389	0.0153540
831.467	0.0153111
831.545	0.0152620
831.623	0.0154597
831.701	0.0154733
831.780	0.0152996
831.858	0.0154356
831.936	0.0153222
832.014	0.0153380
832.092	0.0151833
832.170	0.0153401
832.248	0.0153416
832.326	0.0152662
832.405	0.0152773
832.483	0.0152596
832.561	0.0152493
832.639	0.0153940
832.717	0.0153274
832.795	0.0152387
832.873	0.0153854
832.951	0.0155038
833.030	0.0152910
833.108	0.0153800
833.186	0.0152186
833.264	0.0154256
833.342	0.0154128
833.420	0.0151985
833.498	0.0153489
833.576	0.0152354
833.655	0.0154258
833.733	0.0154198
833.811	0.0151582
833.889	0.0153336
833.967	0.0154919
834.045	0.0154887
834.123	0.0152493
834.201	0.0154076
834.280	0.0153943
834.358	0.0153946
834.436	0.0152545
834.514	0.0151475
834.592	0.0153221
834.670	0.0153432
834.748	0.0153294
834.826	0.0152290
834.905	0.0152255
834.983	0.0154428
835.061	0.0154134
835.139	0.0151239
835.217	0.0152928
835.295	0.0153404
835.373	0.0152755
835.451	0.0153795
835.530	0.0152959
835.608	0.0153891
835.686	0.0153737
835.764	0.0152876
835.842	0.0154689
835.920	0.0152581
835.998	0.0151955
836.076	0.0152864
836.155	0.0153171
836.233	0.0152953
836.311	0.0152795
836.389	0.0152341
836.467	0.0153526
836.545	0.0151330
836.623	0.0152229
836.701	0.0152770
836.780	0.0152715
836.858	0.0153423
836.936	0.0152182
837.014	0.0153115
837.092	0.0153958
837.170	0.0153432
837.248	0.0152711
837.326	0.0151991
837.405	0.0152605
837.483	0.0153569
837.561	0.0153842
837.639	0.0152709
837.717	0.0153931
837.795	0.0153662
837.873	0.0153883
837.951	0.0154613
838.030	0.0153556
838.108	0.0154379
838.186	0.0153329
838.264	0.0153384
838.342	0.0153736
838.420	0.0154305
838.498	0.0153162
838.576	0.0152209
838.655	0.0151879
838.733	0.0153625
838.811	0.0153444
838.889	0.0152822
838.967	0.0152808
839.045	0.0152254
839.123	0.0153333
839.201	0.0153831
839.280	0.0152728
839.358	0.0151202
839.436	0.0152405
839.514	0.0154460
839.592	0.0152527
839.670	0.0152298
839.748	0.0153142
839.826	0.0153362
839.905	0.0152788
839.983	0.0153144
840.061	0.0153583
840.139	0.0153155
840.217	0.0152751
840.295	0.0153700
840.373	0.0153578
840.451	0.0152204
840.530	0.0151488
840.608	0.0153777
840.686	0.0155252
840.764	0.0153513
840.842	0.0153160
840.920	0.0153996
840.998	0.0153413
841.076	0.0153625
841.155	0.0153030
841.233	0.0153550
841.311	0.0152760
841.389	0.0152921
841.467	0.0152157
841.545	0.0152771
841.623	0.0153182
841.701	0.0153249
841.780	0.0152393
841.858	0.0152503
841.936	0.0151946
842.014	0.0152750
842.092	0.0152344
842.170	0.0151359
842.248	0.0153798
842.326	0.0152863
842.405	0.0150905
842.483	0.0151228
842.561	0.0152867
842.639	0.0151962
842.717	0.0152850
842.795	0.0151924
842.873	0.0152921
842.951	0.0151614
843.030	0.0153223
843.108	0.0151405
843.186	0.0152284
843.264	0.0154295
843.342	0.0153195
843.420	0.0153378
843.498	0.0153148
843.576	0.0152252
843.655	0.0153603
843.733	0.0153333
843.811	0.0153168
843.889	0.0154014
843.967	0.0153307
844.045	0.0151814
844.123	0.0153280
844.201	0.0153783
844.280	0.0154202
844.358	0.0154289
844.436	0.0153275
844.514	0.0153371
844.592	0.0152502
844.670	0.0152448
844.748	0.0152757
844.826	0.0153800
844.905	0.0152769
844.983	0.0152219
845.061	0.0151301
845.139	0.0150816
845.217	0.0153097
845.295	0.0152151
845.373	0.0153944
845.451	0.0153083
845.530	0.0153468
845.608	0.0152595
845.686	0.0153653
845.764	0.0153423
845.842	0.0152646
845.920	0.0152077
845.998	0.0151949
846.076	0.0153190
846.155	0.0152467
846.233	0.0154092
846.311	0.0153467
846.389	0.0153117
846.467	0.0152658
846.545	0.0154196
846.623	0.0153991
846.701	0.0154736
846.780	0.0154076
846.858	0.0151543
846.936	0.0152799
847.014	0.0153786
847.092	0.0153429
847.170	0.0153178
847.248	0.0153630
847.326	0.0153215
847.405	0.0154241
847.483	0.0153508
847.561	0.0153556
847.639	0.0152364
847.717	0.0153593
847.795	0.0154253
847.873	0.0153873
847.951	0.0152628
848.030	0.0153031
848.108	0.0153899
848.186	0.0154332
848.264	0.0153953
848.342	0.0155834
848.420	0.0153423
848.498	0.0152853
848.576	0.0154217
848.655	0.0154301
848.733	0.0154179
848.811	0.0154407
848.889	0.0153994
848.967	0.0154900
849.045	0.0154803
849.123	0.0153606
849.201	0.0153401
849.280	0.0152780
849.358	0.0151746
849.436	0.0153271
849.514	0.0155029
849.592	0.0153870
849.670	0.0154215
849.748	0.0152821
849.826	0.0152937
849.905	0.0153511
849.983	0.0152587
850.061	0.0154237
850.139	0.0152666
850.217	0.0154508
850.295	0.0152756
850.373	0.0153223
850.451	0.0154281
850.530	0.0153458
850.608	0.0152564
850.686	0.0151990
850.764	0.0153698
850.842	0.0154411
850.920	0.0153091
850.998	0.0153741
851.076	0.0152515
851.155	0.0154083
851.233	0.0152891
851.311	0.0154211
851.389	0.0153708
851.467	0.0153001
851.545	0.0153173
851.623	0.0153520
851.701	0.0155018
851.780	0.0153442
851.858	0.0152689
851.936	0.0153033
852.014	0.0152190
852.092	0.0151680
852.170	0.0153661
852.248	0.0152924
852.326	0.0151968
852.405	0.0152942
852.483	0.0150634
852.561	0.0151753
852.639	0.0153786
852.717	0.0152259
852.795	0.0152242
852.873	0.0152397
852.951	0.0152928
853.030	0.0152622
853.108	0.0150994
853.186	0.0153791
853.264	0.0151164
853.342	0.0152103
853.420	0.0153702
853.498	0.0152103
853.576	0.0152126
853.655	0.0152917
853.733	0.0152084
853.811	0.0152502
853.889	0.0152761
853.967	0.0151382
854.045	0.0152668
854.123	0.0153208
854.201	0.0152721
854.280	0.0153490
854.358	0.0153822
854.436	0.0152916
854.514	0.0152847
854.592	0.0152959
854.670	0.0153664
854.748	0.0153721
854.826	0.0153610
854.905	0.0153774
854.983	0.0155231
855.061	0.0153944
855.139	0.0152763
855.217	0.0153020
855.295	0.0153792
855.373	0.0154170
855.451	0.0154088
855.530	0.0155157
855.608	0.0153117
855.686	0.0153725
855.764	0.0152583
855.842	0.0154540
855.920	0.0154693
855.998	0.0152438
856.076	0.0153167
856.155	0.0154237
856.233	0.0153197
856.311	0.0154269
856.389	0.0153822
856.467	0.0152800
856.545	0.0154063
856.623	0.0153962
856.701	0.0154051
856.780	0.0152818
856.858	0.0154063
856.936	0.0153375
857.014	0.0153328
857.092	0.0153816
857.170	0.0152856
857.248	0.0154188
857.326	0.0154999
857.405	0.0153976
857.483	0.0153864
857.561	0.0153762
857.639	0.0154252
857.717	0.0153329
857.795	0.0154737
857.873	0.0153763
857.951	0.0154421
858.030	0.0154327
858.108	0.0154657
858.186	0.0154005
858.264	0.0154132
858.342	0.0153996
858.420	0.0155169
858.498	0.0153929
858.576	0.0154200
858.655	0.0153732
858.733	0.0155046
858.811	0.0155899
858.889	0.0153137
858.967	0.0154108
859.045	0.0153852
859.123	0.0154355
859.201	0.0154014
859.280	0.0152910
859.358	0.0153472
859.436	0.0153424
859.514	0.0152966
859.592	0.0153351
859.670	0.0153706
859.748	0.0154755
859.826	0.0153252
859.905	0.0153652
859.983	0.0152973
860.061	0.0151871
860.139	0.0154022
860.217	0.0153996
860.295	0.0152988
860.373	0.0153092
860.451	0.0154114
860.530	0.0153141
860.608	0.0152901
860.686	0.0152552
860.764	0.0152505
860.842	0.0152573
860.920	0.0152650
860.998	0.0152303
861.076	0.0152641
861.155	0.0153168
861.233	0.0152941
861.311	0.0152650
861.389	0.0153416
861.467	0.0153648
861.545	0.0151865
861.623	0.0151611
861.701	0.0153571
861.780	0.0153119
861.858	0.0152613
861.936	0.0154232
862.014	0.0153016
862.092	0.0153014
862.170	0.0153835
862.248	0.0154213
862.326	0.0153983
862.405	0.0154683
862.483	0.0153552
862.561	0.0152510
862.639	0.0153059
862.717	0.0152160
862.795	0.0150974
862.873	0.0151683
862.951	0.0152533
863.030	0.0153141
863.108	0.0153107
863.186	0.0152853
863.264	0.0153882
863.342	0.0153255
863.420	0.0153114
863.498	0.0151575
863.576	0.0152541
863.655	0.0152946
863.733	0.0153493
863.811	0.0152519
863.889	0.0153203
863.967	0.0152944
864.045	0.0154016
864.123	0.0155022
864.201	0.0152932
864.280	0.0153548
864.358	0.0154584
864.436	0.0153693
864.514	0.0153897
864.592	0.0153321
864.670	0.0152428
864.748	0.0153014
864.826	0.0153472
864.905	0.0154331
864.983	0.0153459
865.061	0.0153051
865.139	0.0152998
865.217	0.0153893
865.295	0.0151654
865.373	0.0152362
865.451	0.0151855
865.530	0.0153005
865.608	0.0152257
865.686	0.0152180
865.764	0.0152754
865.842	0.0153302
865.920	0.0152554
865.998	0.0152525
866.076	0.0154220
866.155	0.0151360
866.233	0.0151889
866.311	0.0152349
866.389	0.0154125
866.467	0.0152791
866.545	0.0152668
866.623	0.0153784
866.701	0.0152961
866.780	0.0153207
866.858	0.0153961
866.936	0.0153322
867.014	0.0154658
867.092	0.0154742
867.170	0.0153320
867.248	0.0153476
867.326	0.0154348
867.405	0.0152049
867.483	0.0152602
867.561	0.0154550
867.639	0.0153612
867.717	0.0154416
867.795	0.0154931
867.873	0.0155009
867.951	0.0153735
868.030	0.0153941
868.108	0.0155039
868.186	0.0154512
868.264	0.0154451
868.342	0.0154325
868.420	0.0153523
868.498	0.0153468
868.576	0.0153674
868.655	0.0151839
868.733	0.0152293
868.811	0.0152972
868.889	0.0153259
868.967	0.0151719
869.045	0.0151878
869.123	0.0152966
869.201	0.0151189
869.280	0.0151884
869.358	0.0151336
869.436	0.0152417
869.514	0.0152856
869.592	0.0153441
869.670	0.0152917
869.748	0.0152732
869.826	0.0152657
869.905	0.0152473
869.983	0.0152449
870.061	0.0151868
870.139	0.0152390
870.217	0.0153162
870.295	0.0152688
870.373	0.0153532
870.451	0.0153230
870.530	0.0154246
870.608	0.0153519
870.686	0.0153907
870.764	0.0152495
870.842	0.0152181
870.920	0.0153213
870.998	0.0153072
871.076	0.0152841
871.155	0.0152625
871.233	0.0152947
871.311	0.0153942
871.389	0.0153197
871.467	0.0153509
871.545	0.0153868
871.623	0.0152652
871.701	0.0153094
871.780	0.0154562
871.858	0.0153986
871.936	0.0153204
872.014	0.0154195
872.092	0.0153699
872.170	0.0154098
872.248	0.0154584
872.326	0.0153450
872.405	0.0153193
872.483	0.0153809
872.561	0.0154328
872.639	0.0154483
872.717	0.0153827
872.795	0.0153635
872.873	0.0153213
872.951	0.0154460
873.030	0.0152841
873.108	0.0153097
873.186	0.0152817
873.264	0.0153289
873.342	0.0154258
873.420	0.0153468
873.498	0.0153316
873.576	0.0153014
873.655	0.0153445
873.733	0.0154089
873.811	0.0153822
873.889	0.0152505
873.967	0.0153463
874.045	0.0153812
874.123	0.0153154
874.201	0.0153634
874.280	0.0152586
874.358	0.0152560
874.436	0.0153421
874.514	0.0152397
874.592	0.0153142
874.670	0.0154529
874.748	0.0153680
874.826	0.0152941
874.905	0.0152725
874.983	0.0153776
875.061	0.0153824
875.139	0.0154859
875.217	0.0153882
875.295	0.0153221
875.373	0.0153762
875.451	0.0153510
875.530	0.0153954
875.608	0.0152653
875.686	0.0154974
875.764	0.0154427
875.842	0.0153433
875.920	0.0153967
875.998	0.0152355
876.076	0.0152225
876.155	0.0152937
876.233	0.0153976
876.311	0.0153198
876.389	0.0152028
876.467	0.0153161
876.545	0.0153265
876.623	0.0152316
876.701	0.0153596
876.780	0.0151949
876.858	0.0153522
876.936	0.0153822
877.014	0.0153340
877.092	0.0153738
877.170	0.0154560
877.248	0.0152628
877.326	0.0152887
877.405	0.0152369
877.483	0.0152795
877.561	0.0153355
877.639	0.0152773
877.717	0.0152436
877.795	0.0152395
877.873	0.0152944
877.951	0.0151571
878.030	0.0152721
878.108	0.0152330
878.186	0.0152505
878.264	0.0152940
878.342	0.0152470
878.420	0.0152243
878.498	0.0152390
878.576	0.0153422
878.655	0.0154293
878.733	0.0153291
878.811	0.0154179
878.889	0.0152278
878.967	0.0152972
879.045	0.0152577
879.123	0.0152535
879.201	0.0154259
879.280	0.0153593
879.358	0.0154079
879.436	0.0152954
879.514	0.0152258
879.592	0.0154241
879.670	0.0152689
879.748	0.0153182
879.826	0.0153354
879.905	0.0153702
879.983	0.0154048
880.061	0.0154258
880.139	0.0152298
880.217	0.0152821
880.295	0.0154043
880.373	0.0153415
880.451	0.0152547
880.530	0.0154356
880.608	0.0153255
880.686	0.0153705
880.764	0.0153493
880.842	0.0154304
880.920	0.0152859
880.998	0.0150972
881.076	0.0152926
881.155	0.0154904
881.233	0.0151968
881.311	0.0151890
881.389	0.0153129
881.467	0.0152901
881.545	0.0153263
881.623	0.0152358
881.701	0.0152225
881.780	0.0151640
881.858	0.0153239
881.936	0.0152847
882.014	0.0152949
882.092	0.0153378
882.170	0.0153966
882.248	0.0154751
882.326	0.0153716
882.405	0.0153931
882.483	0.0152531
882.561	0.0154483
882.639	0.0153815
882.717	0.0154327
882.795	0.0154228
882.873	0.0153431
882.951	0.0153922
883.030	0.0153336
883.108	0.0152219
883.186	0.0153691
883.264	0.0154034
883.342	0.0153038
883.420	0.0153068
883.498	0.0152385
883.576	0.0153344
883.655	0.0153482
883.733	0.0152847
883.811	0.0154136
883.889	0.0152248
883.967	0.0151360
884.045	0.0153278
884.123	0.0153419
884.201	0.0152680
884.280	0.0152675
884.358	0.0153688
884.436	0.0153382
884.514	0.0152347
884.592	0.0152405
884.670	0.0152950
884.748	0.0153415
884.826	0.0151476
884.905	0.0152044
884.983	0.0154131
885.061	0.0153645
885.139	0.0151928
885.217	0.0152929
885.295	0.0152463
885.373	0.0152151
885.451	0.0153128
885.530	0.0153249
885.608	0.0153609
885.686	0.0154138
885.764	0.0152740
885.842	0.0153507
885.920	0.0152400
885.998	0.0152986
886.076	0.0154145
886.155	0.0154029
886.233	0.0154133
886.311	0.0152774
886.389	0.0153300
886.467	0.0152619
886.545	0.0153991
886.623	0.0153141
886.701	0.0153796
886.780	0.0153277
886.858	0.0153163
886.936	0.0152506
887.014	0.0154543
887.092	0.0153751
887.170	0.0153915
887.248	0.0154713
887.326	0.0154647
887.405	0.0153486
887.483	0.0154500
887.561	0.0153088
887.639	0.0153503
887.717	0.0154810
887.795	0.0153061
887.873	0.0152909
887.951	0.0154359
888.030	0.0153457
888.108	0.0153890
888.186	0.0152744
888.264	0.0154734
888.342	0.0155016
888.420	0.0154221
888.498	0.0153703
888.576	0.0154744
888.655	0.0153216
888.733	0.0154760
888.811	0.0154718
888.889	0.0153191
888.967	0.0153555
889.045	0.0154763
889.123	0.0153491
889.201	0.0153239
889.280	0.0154219
889.358	0.0155747
889.436	0.0153902
889.514	0.0153658
889.592	0.0153214
889.670	0.0153334
889.748	0.0153323
889.826	0.0152575
889.905	0.0153251
889.983	0.0153069
890.061	0.0153592
890.139	0.0153004
890.217	0.0153358
890.295	0.0153053
890.373	0.0152428
890.451	0.0152230
890.530	0.0152174
890.608	0.0152721
890.686	0.0153285
890.764	0.0154260
890.842	0.0155223
890.920	0.0151694
890.998	0.0151517
891.076	0.0153974
891.155	0.0152678
891.233	0.0152158
891.311	0.0154060
891.389	0.0153492
891.467	0.0152624
891.545	0.0152238
891.623	0.0152188
891.701	0.0154065
891.780	0.0154411
891.858	0.0153623
891.936	0.0152980
892.014	0.0153625
892.092	0.0153109
892.170	0.0152843
892.248	0.0153422
892.326	0.0152764
892.405	0.0153407
892.483	0.0153843
892.561	0.0152908
892.639	0.0153016
892.717	0.0152969
892.795	0.0152141
892.873	0.0153571
892.951	0.0152753
893.030	0.0153059
893.108	0.0152470
893.186	0.0153112
893.264	0.0151385
893.342	0.0151246
893.420	0.0152071
893.498	0.0153611
893.576	0.0152016
893.655	0.0152028
893.733	0.0152604
893.811	0.0151570
893.889	0.0151781
893.967	0.0152557
894.045	0.0152499
894.123	0.0153350
894.201	0.0152624
894.280	0.0151577
894.358	0.0152628
894.436	0.0153781
894.514	0.0154586
894.592	0.0155248
894.670	0.0152917
894.748	0.0153054
894.826	0.0153139
894.905	0.0153934
894.983	0.0153162
895.061	0.0154095
895.139	0.0152943
895.217	0.0151997
895.295	0.0153838
895.373	0.0153963
895.451	0.0152429
895.530	0.0154340
895.608	0.0153896
895.686	0.0154179
895.764	0.0154211
895.842	0.0153152
895.920	0.0154113
895.998	0.0153453
896.076	0.0154709
896.155	0.0153009
896.233	0.0153758
896.311	0.0153529
896.389	0.0152470
896.467	0.0154622
896.545	0.0154532
896.623	0.0153305
896.701	0.0154629
896.780	0.0155145
896.858	0.0154041
896.936	0.0153056
897.014	0.0154376
897.092	0.0155894
897.170	0.0154993
897.248	0.0153960
897.326	0.0153699
897.405	0.0152634
897.483	0.0153843
897.561	0.0154292
897.639	0.0155190
897.717	0.0154591
897.795	0.0153992
897.873	0.0154420
897.951	0.0153577
898.030	0.0153608
898.108	0.0154548
898.186	0.0154109
898.264	0.0153511
898.342	0.0154230
898.420	0.0154907
898.498	0.0153515
898.576	0.0153485
898.655	0.0152894
898.733	0.0153211
898.811	0.0152477
898.889	0.0153864
898.967	0.0153291
899.045	0.0154041
899.123	0.0151942
899.201	0.0152956
899.280	0.0153226
899.358	0.0153507
899.436	0.0153239
899.514	0.0153423
899.592	0.0152679
899.670	0.0152780
899.748	0.0153812
899.826	0.0153779
899.905	0.0153072
899.983	0.0153529
900.061	0.0153917
900.139	0.0153791
900.217	0.0152919
900.295	0.0153062
900.373	0.0152331
900.451	0.0153688
900.530	0.0153551
900.608	0.0154130
900.686	0.0154814
900.764	0.0154687
900.842	0.0152995
900.920	0.0153375
900.998	0.0153830
901.076	0.0153571
901.155	0.0152548
901.233	0.0153257
901.311	0.0152522
901.389	0.0153970
901.467	0.0154898
901.545	0.0153072
901.623	0.0152802
901.701	0.0152956
901.780	0.0154347
901.858	0.0154927
901.936	0.0152040
902.014	0.0152895
902.092	0.0153183
902.170	0.0153853
902.248	0.0153785
902.326	0.0153078
902.405	0.0151871
902.483	0.0154914
902.561	0.0153251
902.639	0.0152750
902.717	0.0153830
902.795	0.0153036
902.873	0.0153632
902.951	0.0152700
903.030	0.0154621
903.108	0.0153964
903.186	0.0153101
903.264	0.0152395
903.342	0.0154373
903.420	0.0154797
903.498	0.0152189
903.576	0.0153259
903.655	0.0153148
903.733	0.0155930
903.811	0.0152681
903.889	0.0151881
903.967	0.0152791
904.045	0.0152827
904.123	0.0153008
904.201	0.0153056
904.280	0.0153543
904.358	0.0154102
904.436	0.0154396
904.514	0.0154807
904.592	0.0155144
904.670	0.0152729
904.748	0.0153200
904.826	0.0154396
904.905	0.0154062
904.983	0.0153236
905.061	0.0154486
905.139	0.0154238
905.217	0.0152923
905.295	0.0153890
905.373	0.0153727
905.451	0.0155183
905.530	0.0153624
905.608	0.0153809
905.686	0.0152942
905.764	0.0154474
905.842	0.0154790
905.920	0.0153224
905.998	0.0154556
906.076	0.0153374
906.155	0.0152675
906.233	0.0153601
906.311	0.0154205
906.389	0.0153684
906.467	0.0151966
906.545	0.0153790
906.623	0.0154118
906.701	0.0153763
906.780	0.0151653
906.858	0.0153131
906.936	0.0152129
907.014	0.0152367
907.092	0.0153277
907.170	0.0152141
907.248	0.0152621
907.326	0.0153320
907.405	0.0152333
907.483	0.0152972
907.561	0.0151800
907.639	0.0151611
907.717	0.0152969
907.795	0.0154319
907.873	0.0153331
907.951	0.0152505
908.030	0.0153477
908.108	0.0152422
908.186	0.0153318
908.264	0.0153358
908.342	0.0152465
908.420	0.0152963
908.498	0.0153088
908.576	0.0152459
908.655	0.0152504
908.733	0.0154440
908.811	0.0152415
908.889	0.0152225
908.967	0.0153705
909.045	0.0152061
909.123	0.0153372
909.201	0.0153304
909.280	0.0151855
909.358	0.0154542
909.436	0.0154095
909.514	0.0153321
909.592	0.0151769
909.670	0.0153132
909.748	0.0154790
909.826	0.0152177
909.905	0.0151935
909.983	0.0153700
910.061	0.0154356
910.139	0.0153825
910.217	0.0153588
910.295	0.0153190
910.373	0.0152981
910.451	0.0153497
910.530	0.0152228
910.608	0.0153852
910.686	0.0153133
910.764	0.0152796
910.842	0.0153356
910.920	0.0152894
910.998	0.0152939
911.076	0.0152615
911.155	0.0153049
911.233	0.0152222
911.311	0.0151980
911.389	0.0152044
911.467	0.0153212
911.545	0.0152155
911.623	0.0151630
911.701	0.0153423
911.780	0.0151996
911.858	0.0152951
911.936	0.0152571
912.014	0.0153594
912.092	0.0154591
912.170	0.0151868
912.248	0.0152689
912.326	0.0151905
912.405	0.0151506
912.483	0.0152688
912.561	0.0153928
912.639	0.0152251
912.717	0.0151833
912.795	0.0152962
912.873	0.0153153
912.951	0.0152038
913.030	0.0152461
913.108	0.0152734
913.186	0.0154267
913.264	0.0152872
913.342	0.0152442
913.420	0.0152666
913.498	0.0152920
913.576	0.0152271
913.655	0.0154518
913.733	0.0152850
913.811	0.0152660
913.889	0.0151620
913.967	0.0152979
914.045	0.0152027
914.123	0.0151540
914.201	0.0153861
914.280	0.0151614
914.358	0.0152441
914.436	0.0151662
914.514	0.0152615
914.592	0.0152592
914.670	0.0153825
914.748	0.0153135
914.826	0.0152068
914.905	0.0151981
914.983	0.0151580
915.061	0.0152509
915.139	0.0151432
915.217	0.0152299
915.295	0.0151937
915.373	0.0152323
915.451	0.0152751
915.530	0.0151698
915.608	0.0152192
915.686	0.0153580
915.764	0.0153639
915.842	0.0152495
915.920	0.0152233
915.998	0.0152689
916.076	0.0153032
916.155	0.0154068
916.233	0.0152588
916.311	0.0152390
916.389	0.0152255
916.467	0.0153250
916.545	0.0152309
916.623	0.0153090
916.701	0.0152392
916.780	0.0153477
916.858	0.0151920
916.936	0.0153427
917.014	0.0153244
917.092	0.0152439
917.170	0.0153613
917.248	0.0153494
917.326	0.0153183
917.405	0.0153398
917.483	0.0151733
917.561	0.0151577
917.639	0.0152809
917.717	0.0153634
917.795	0.0153181
917.873	0.0152458
917.951	0.0152982
918.030	0.0150484
918.108	0.0151530
918.186	0.0152140
918.264	0.0152315
918.342	0.0152794
918.420	0.0152804
918.498	0.0152895
918.576	0.0153090
918.655	0.0152319
918.733	0.0151722
918.811	0.0151694
918.889	0.0153155
918.967	0.0151579
919.045	0.0152583
919.123	0.0152964
919.201	0.0153737
919.280	0.0153158
919.358	0.0151897
919.436	0.0151165
919.514	0.0153226
919.592	0.0153374
919.670	0.0151704
919.748	0.0152269
919.826	0.0150249
919.905	0.0151367
919.983	0.0153098
920.061	0.0153276
920.139	0.0151487
920.217	0.0153030
920.295	0.0152635
920.373	0.0151250
920.451	0.0152360
920.530	0.0153387
920.608	0.0151844
920.686	0.0152370
920.764	0.0152673
920.842	0.0152148
920.920	0.0153542
920.998	0.0153854
921.076	0.0152664
921.155	0.0153235
921.233	0.0153143
921.311	0.0153656
921.389	0.0152463
921.467	0.0152081
921.545	0.0152698
921.623	0.0153657
921.701	0.0153706
921.780	0.0153189
921.858	0.0152612
921.936	0.0153571
922.014	0.0153659
922.092	0.0153650
922.170	0.0153410
922.248	0.0152819
922.326	0.0155870
922.405	0.0154357
922.483	0.0153116
922.561	0.0153674
922.639	0.0152819
922.717	0.0154197
922.795	0.0153313
922.873	0.0152043
922.951	0.0153955
923.030	0.0154176
923.108	0.0154075
923.186	0.0153902
923.264	0.0155084
923.342	0.0154368
923.420	0.0152924
923.498	0.0153151
923.576	0.0154338
923.655	0.0154072
923.733	0.0153419
923.811	0.0152869
923.889	0.0152651
923.967	0.0153570
924.045	0.0154025
924.123	0.0150880
924.201	0.0152832
924.280	0.0153614
924.358	0.0152201
924.436	0.0153233
924.514	0.0151286
924.592	0.0151560
924.670	0.0153783
924.748	0.0153214
924.826	0.0152914
924.905	0.0152433
924.983	0.0153377
925.061	0.0151064
925.139	0.0153384
925.217	0.0152054
925.295	0.0152103
925.373	0.0153384
925.451	0.0152991
925.530	0.0152509
925.608	0.0153188
925.686	0.0153125
925.764	0.0153374
925.842	0.0154708
925.920	0.0153060
925.998	0.0152030
926.076	0.0152761
926.155	0.0155412
926.233	0.0152819
926.311	0.0153658
926.389	0.0153120
926.467	0.0153320
926.545	0.0152586
926.623	0.0153308
926.701	0.0153483
926.780	0.0153915
926.858	0.0153349
926.936	0.0153815
927.014	0.0152522
927.092	0.0152258
927.170	0.0152884
927.248	0.0153196
927.326	0.0153945
927.405	0.0152538
927.483	0.0153055
927.561	0.0152294
927.639	0.0152610
927.717	0.0152134
927.795	0.0152287
927.873	0.0151994
927.951	0.0152819
928.030	0.0152684
928.108	0.0152875
928.186	0.0152882
928.264	0.0152931
928.342	0.0152342
928.420	0.0152934
928.498	0.0153635
928.576	0.0152767
928.655	0.0153083
928.733	0.0153358
928.811	0.0153292
928.889	0.0153768
928.967	0.0152347
929.045	0.0151915
929.123	0.0152258
929.201	0.0151463
929.280	0.0153523
929.358	0.0154073
929.436	0.0152568
929.514	0.0153833
929.592	0.0153587
929.670	0.0153846
929.748	0.0153110
929.826	0.0152745
929.905	0.0152335
929.983	0.0152727
930.061	0.0153400
930.139	0.0152892
930.217	0.0152942
930.295	0.0152037
930.373	0.0152927
930.451	0.0153764
930.530	0.0153826
930.608	0.0153893
930.686	0.0153005
930.764	0.0152443
930.842	0.0152842
930.920	0.0153464
930.998	0.0154244
931.076	0.0154648
931.155	0.0152277
931.233	0.0152579
931.311	0.0152702
931.389	0.0153238
931.467	0.0153736
931.545	0.0153227
931.623	0.0152828
931.701	0.0152927
931.780	0.0153535
931.858	0.0153852
931.936	0.0153400
932.014	0.0152567
932.092	0.0152058
932.170	0.0152946
932.248	0.0152854
932.326	0.0152540
932.405	0.0152805
932.483	0.0152422
932.561	0.0153544
932.639	0.0153870
932.717	0.0151453
932.795	0.0152591
932.873	0.0152848
932.951	0.0152602
933.030	0.0151726
933.108	0.0152843
933.186	0.0153516
933.264	0.0152333
933.342	0.0151759
933.420	0.0151911
933.498	0.0153283
933.576	0.0152604
933.655	0.0151817
933.733	0.0153217
933.811	0.0152200
933.889	0.0152021
933.967	0.0152544
934.045	0.0153846
934.123	0.0153156
934.201	0.0153350
934.280	0.0152646
934.358	0.0153600
934.436	0.0153124
934.514	0.0154127
934.592	0.0153626
934.670	0.0154140
934.748	0.0153157
934.826	0.0152530
934.905	0.0153736
934.983	0.0152637
935.061	0.0152736
935.139	0.0153808
935.217	0.0153349
935.295	0.0154509
935.373	0.0152705
935.451	0.0153548
935.530	0.0153976
935.608	0.0153049
935.686	0.0153099
935.764	0.0152353
935.842	0.0152552
935.920	0.0153952
935.998	0.0153747
936.076	0.0153076
936.155	0.0152451
936.233	0.0152610
936.311	0.0152575
936.389	0.0153799
936.467	0.0153189
936.545	0.0152310
936.623	0.0151454
936.701	0.0152454
936.780	0.0153598
936.858	0.0153493
936.936	0.0153919
937.014	0.0151749
937.092	0.0152134
937.170	0.0153387
937.248	0.0151962
937.326	0.0152110
937.405	0.0151006
937.483	0.0152283
937.561	0.0152143
937.639	0.0151489
937.717	0.0152436
937.795	0.0152706
937.873	0.0152595
937.951	0.0153240
938.030	0.0151821
938.108	0.0151624
938.186	0.0152338
938.264	0.0151870
938.342	0.0153036
938.420	0.0153082
938.498	0.0152143
938.576	0.0152128
938.655	0.0151531
938.733	0.0152519
938.811	0.0152761
938.889	0.0151810
938.967	0.0152836
939.045	0.0152718
939.123	0.0152821
939.201	0.0151534
939.280	0.0152659
939.358	0.0153178
939.436	0.0152978
939.514	0.0153352
939.592	0.0152280
939.670	0.0152074
939.748	0.0153605
939.826	0.0152805
939.905	0.0153262
939.983	0.0152762
940.061	0.0153233
940.139	0.0152863
940.217	0.0154182
940.295	0.0153759
940.373	0.0152283
940.451	0.0152988
940.530	0.0154284
940.608	0.0154932
940.686	0.0153568
940.764	0.0152716
940.842	0.0151852
940.920	0.0154523
940.998	0.0155083
941.076	0.0154510
941.155	0.0153799
941.233	0.0154626
941.311	0.0154210
941.389	0.0153426
941.467	0.0154248
941.545	0.0153893
941.623	0.0154595
941.701	0.0152719
941.780	0.0154510
941.858	0.0154084
941.936	0.0152704
942.014	0.0154044
942.092	0.0153809
942.170	0.0153416
942.248	0.0154333
942.326	0.0152013
942.405	0.0152786
942.483	0.0152779
942.561	0.0153027
942.639	0.0153564
942.717	0.0152120
942.795	0.0152539
942.873	0.0152586
942.951	0.0153752
943.030	0.0152639
943.108	0.0153971
943.186	0.0151661
943.264	0.0152213
943.342	0.0152612
943.420	0.0153639
943.498	0.0151112
943.576	0.0153895
943.655	0.0152898
943.733	0.0153352
943.811	0.0153083
943.889	0.0153519
943.967	0.0153284
944.045	0.0150716
944.123	0.0152888
944.201	0.0151413
944.280	0.0153648
944.358	0.0153629
944.436	0.0152486
944.514	0.0151842
944.592	0.0152128
944.670	0.0153471
944.748	0.0151771
944.826	0.0153516
944.905	0.0153336
944.983	0.0152463
945.061	0.0153296
945.139	0.0152395
945.217	0.0152151
945.295	0.0154071
945.373	0.0151903
945.451	0.0152481
945.530	0.0153256
945.608	0.0154015
945.686	0.0152840
945.764	0.0153965
945.842	0.0153282
945.920	0.0151876
945.998	0.0153278
946.076	0.0153833
946.155	0.0153261
946.233	0.0153921
946.311	0.0153569
946.389	0.0153482
946.467	0.0153364
946.545	0.0153288
946.623	0.0153393
946.701	0.0151748
946.780	0.0153423
946.858	0.0154296
946.936	0.0152595
947.014	0.0153516
947.092	0.0153559
947.170	0.0152586
947.248	0.0153806
947.326	0.0152293
947.405	0.0153079
947.483	0.0154022
947.561	0.0153218
947.639	0.0153135
947.717	0.0153860
947.795	0.0153816
947.873	0.0153021
947.951	0.0152190
948.030	0.0152604
948.108	0.0154976
948.186	0.0154442
948.264	0.0152814
948.342	0.0154576
948.420	0.0154039
948.498	0.0153239
948.576	0.0155368
948.655	0.0153626
948.733	0.0153159
948.811	0.0154785
948.889	0.0153459
948.967	0.0154765
949.045	0.0154244
949.123	0.0153870
949.201	0.0153453
949.280	0.0153482
949.358	0.0153901
949.436	0.0154768
949.514	0.0153729
949.592	0.0154689
949.670	0.0154361
949.748	0.0154626
949.826	0.0155836
949.905	0.0154433
949.983	0.0154311
950.061	0.0154695
950.139	0.0155883
950.217	0.0153951
950.295	0.0153632
950.373	0.0153819
950.451	0.0153700
950.530	0.0154418
950.608	0.0155370
950.686	0.0153879
950.764	0.0155119
950.842	0.0153736
950.920	0.0153891
950.998	0.0154471
951.076	0.0153494
951.155	0.0153064
951.233	0.0155318
951.311	0.0154742
951.389	0.0154385
951.467	0.0153349
951.545	0.0154073
951.623	0.0153729
951.701	0.0153848
951.780	0.0154595
951.858	0.0153645
951.936	0.0154202
952.014	0.0154735
952.092	0.0154762
952.170	0.0153274
952.248	0.0153250
952.326	0.0153977
952.405	0.0153785
952.483	0.0153242
952.561	0.0154128
952.639	0.0153253
952.717	0.0152705
952.795	0.0154938
952.873	0.0154708
952.951	0.0153289
953.030	0.0154225
953.108	0.0154718
953.186	0.0154642
953.264	0.0152956
953.342	0.0154453
953.420	0.0153622
953.498	0.0152515
953.576	0.0154181
953.655	0.0154825
953.733	0.0155719
953.811	0.0154267
953.889	0.0153835
953.967	0.0154361
954.045	0.0154472
954.123	0.0153409
954.201	0.0153001
954.280	0.0152982
954.358	0.0152357
954.436	0.0152960
954.514	0.0153674
954.592	0.0154393
954.670	0.0153078
954.748	0.0152721
954.826	0.0152545
954.905	0.0152626
954.983	0.0152845
955.061	0.0153333
955.139	0.0153004
955.217	0.0154751
955.295	0.0153918
955.373	0.0154810
955.451	0.0155131
955.530	0.0153831
955.608	0.0154557
955.686	0.0154221
955.764	0.0153040
955.842	0.0154071
955.920	0.0153210
955.998	0.0152753
956.076	0.0155547
956.155	0.0153487
956.233	0.0153553
956.311	0.0154070
956.389	0.0154436
956.467	0.0152782
956.545	0.0153040
956.623	0.0154305
956.701	0.0154520
956.780	0.0153397
956.858	0.0152453
956.936	0.0153879
957.014	0.0154111
957.092	0.0152196
957.170	0.0151800
957.248	0.0152712
957.326	0.0153702
957.405	0.0153140
957.483	0.0153693
957.561	0.0152950
957.639	0.0153245
957.717	0.0153994
957.795	0.0153309
957.873	0.0152301
957.951	0.0153673
958.030	0.0153903
958.108	0.0153598
958.186	0.0154217
958.264	0.0154255
958.342	0.0153057
958.420	0.0153438
958.498	0.0153423
958.576	0.0153871
958.655	0.0154736
958.733	0.0154658
958.811	0.0152129
958.889	0.0155041
958.967	0.0153956
959.045	0.0153307
959.123	0.0154462
959.201	0.0153133
959.280	0.0153724
959.358	0.0154031
959.436	0.0154608
959.514	0.0154385
959.592	0.0155647
959.670	0.0154321
959.748	0.0152973
959.826	0.0154231
959.905	0.0154429
