05/20/2022	17:20:30	Ver.	4.1	UNKNOWN
Optical Delay	639.982744	Delta X		0.078125	Sweeps	1	Scan Rate	0/0
Coordinates	Axis 1	NaN	Axis 2	NaN	Axis 3	NaN	Axis 4	NaN	Axis 5	NaN	Axis 6	0.000000
TX Power	0.000000	RX Power	0.000000

639.983	0.0152641
640.061	0.0153555
640.139	0.0154157
640.217	0.0154630
640.295	0.0154162
640.373	0.0153165
640.451	0.0153146
640.530	0.0152947
640.608	0.0153006
640.686	0.0153062
640.764	0.0152328
640.842	0.0154948
640.920	0.0154264
640.998	0.0153555
641.076	0.0153670
641.155	0.0152186
641.233	0.0153530
641.311	0.0154837
641.389	0.0154482
641.467	0.0154534
641.545	0.0154170
641.623	0.0155219
641.701	0.0154145
641.780	0.0153631
641.858	0.0153353
641.936	0.0155122
642.014	0.0153938
642.092	0.0152892
642.170	0.0153208
642.248	0.0153694
642.326	0.0153851
642.405	0.0154613
642.483	0.0153251
642.561	0.0152517
642.639	0.0153481
642.717	0.0154624
642.795	0.0155319
642.873	0.0154118
642.951	0.0153789
643.030	0.0155500
643.108	0.0154871
643.186	0.0154618
643.264	0.0154804
643.342	0.0153938
643.420	0.0153061
643.498	0.0152975
643.576	0.0153030
643.655	0.0152691
643.733	0.0154106
643.811	0.0152869
643.889	0.0152083
643.967	0.0153704
644.045	0.0153001
644.123	0.0153429
644.201	0.0153629
644.280	0.0153947
644.358	0.0153690
644.436	0.0153080
644.514	0.0153076
644.592	0.0152180
644.670	0.0153046
644.748	0.0154973
644.826	0.0155120
644.905	0.0155196
644.983	0.0155103
645.061	0.0154102
645.139	0.0152689
645.217	0.0154580
645.295	0.0155296
645.373	0.0154467
645.451	0.0155852
645.530	0.0156029
645.608	0.0155431
645.686	0.0153934
645.764	0.0156743
645.842	0.0155914
645.920	0.0155574
645.998	0.0155365
646.076	0.0155014
646.155	0.0154195
646.233	0.0155390
646.311	0.0154564
646.389	0.0154723
646.467	0.0154522
646.545	0.0154628
646.623	0.0154860
646.701	0.0155262
646.780	0.0154214
646.858	0.0154282
646.936	0.0155357
647.014	0.0154053
647.092	0.0155410
647.170	0.0157060
647.248	0.0154810
647.326	0.0154939
647.405	0.0154862
647.483	0.0155032
647.561	0.0155375
647.639	0.0154601
647.717	0.0154505
647.795	0.0153275
647.873	0.0154414
647.951	0.0154661
648.030	0.0154734
648.108	0.0153809
648.186	0.0153822
648.264	0.0153100
648.342	0.0153483
648.420	0.0153089
648.498	0.0153101
648.576	0.0154477
648.655	0.0153447
648.733	0.0153349
648.811	0.0153656
648.889	0.0152596
648.967	0.0152705
649.045	0.0152592
649.123	0.0153448
649.201	0.0152610
649.280	0.0153135
649.358	0.0153418
649.436	0.0151556
649.514	0.0152542
649.592	0.0154745
649.670	0.0152757
649.748	0.0152453
649.826	0.0153429
649.905	0.0154260
649.983	0.0152728
650.061	0.0151888
650.139	0.0151943
650.217	0.0151961
650.295	0.0152782
650.373	0.0153010
650.451	0.0151324
650.530	0.0151601
650.608	0.0151623
650.686	0.0152718
650.764	0.0152393
650.842	0.0151678
650.920	0.0150726
650.998	0.0151329
651.076	0.0151331
651.155	0.0152353
651.233	0.0152235
651.311	0.0151688
651.389	0.0151384
651.467	0.0152068
651.545	0.0153213
651.623	0.0151231
651.701	0.0153434
651.780	0.0152701
651.858	0.0152633
651.936	0.0153595
652.014	0.0153422
652.092	0.0153343
652.170	0.0153770
652.248	0.0150532
652.326	0.0152853
652.405	0.0153708
652.483	0.0152345
652.561	0.0151395
652.639	0.0151819
652.717	0.0152559
652.795	0.0150732
652.873	0.0151276
652.951	0.0151573
653.030	0.0153802
653.108	0.0152390
653.186	0.0151089
653.264	0.0150799
653.342	0.0151630
653.420	0.0151154
653.498	0.0151454
653.576	0.0151505
653.655	0.0151580
653.733	0.0152067
653.811	0.0153330
653.889	0.0152827
653.967	0.0152101
654.045	0.0151852
654.123	0.0153329
654.201	0.0153758
654.280	0.0151366
654.358	0.0152572
654.436	0.0153231
654.514	0.0153549
654.592	0.0153256
654.670	0.0153388
654.748	0.0153289
654.826	0.0151993
654.905	0.0152781
654.983	0.0152399
655.061	0.0153751
655.139	0.0152600
655.217	0.0153001
655.295	0.0152242
655.373	0.0153040
655.451	0.0152490
655.530	0.0152791
655.608	0.0152306
655.686	0.0151910
655.764	0.0152792
655.842	0.0152679
655.920	0.0153168
655.998	0.0151314
656.076	0.0149284
656.155	0.0152958
656.233	0.0151714
656.311	0.0150071
656.389	0.0152151
656.467	0.0151265
656.545	0.0152250
656.623	0.0153340
656.701	0.0152689
656.780	0.0152136
656.858	0.0152226
656.936	0.0153329
657.014	0.0153480
657.092	0.0153102
657.170	0.0154050
657.248	0.0153757
657.326	0.0152396
657.405	0.0152895
657.483	0.0153590
657.561	0.0154546
657.639	0.0152964
657.717	0.0153522
657.795	0.0153388
657.873	0.0152423
657.951	0.0152706
658.030	0.0153447
658.108	0.0153600
658.186	0.0153832
658.264	0.0153463
658.342	0.0153533
658.420	0.0153227
658.498	0.0150654
658.576	0.0152979
658.655	0.0152657
658.733	0.0152183
658.811	0.0152074
658.889	0.0152554
658.967	0.0152002
659.045	0.0151691
659.123	0.0152457
659.201	0.0150745
659.280	0.0150895
659.358	0.0153517
659.436	0.0153507
659.514	0.0152203
659.592	0.0152567
659.670	0.0154908
659.748	0.0153271
659.826	0.0153613
659.905	0.0154525
659.983	0.0153959
660.061	0.0153059
660.139	0.0153752
660.217	0.0154227
660.295	0.0154005
660.373	0.0155052
660.451	0.0153991
660.530	0.0153120
660.608	0.0151879
660.686	0.0152783
660.764	0.0153744
660.842	0.0151859
660.920	0.0152272
660.998	0.0151888
661.076	0.0152134
661.155	0.0152556
661.233	0.0152016
661.311	0.0151966
661.389	0.0153159
661.467	0.0152728
661.545	0.0154011
661.623	0.0152411
661.701	0.0153497
661.780	0.0153558
661.858	0.0152928
661.936	0.0153587
662.014	0.0153648
662.092	0.0152489
662.170	0.0153001
662.248	0.0153616
662.326	0.0152045
662.405	0.0152379
662.483	0.0152605
662.561	0.0152136
662.639	0.0152825
662.717	0.0151637
662.795	0.0151437
662.873	0.0151540
662.951	0.0151759
663.030	0.0151069
663.108	0.0151904
663.186	0.0151742
663.264	0.0150908
663.342	0.0153084
663.420	0.0152499
663.498	0.0151142
663.576	0.0152100
663.655	0.0152260
663.733	0.0153426
663.811	0.0152592
663.889	0.0153463
663.967	0.0153030
664.045	0.0153838
664.123	0.0153496
664.201	0.0154554
664.280	0.0156087
664.358	0.0155089
664.436	0.0154221
664.514	0.0156806
664.592	0.0156320
664.670	0.0157236
664.748	0.0156802
664.826	0.0156873
664.905	0.0157529
664.983	0.0155231
665.061	0.0157700
665.139	0.0157980
665.217	0.0157352
665.295	0.0156226
665.373	0.0156482
665.451	0.0156580
665.530	0.0154472
665.608	0.0155489
665.686	0.0155270
665.764	0.0154716
665.842	0.0154998
665.920	0.0154700
665.998	0.0154631
666.076	0.0154637
666.155	0.0154515
666.233	0.0154349
666.311	0.0154570
666.389	0.0153103
666.467	0.0153078
666.545	0.0153568
666.623	0.0152737
666.701	0.0151610
666.780	0.0151413
666.858	0.0150890
666.936	0.0151505
667.014	0.0152760
667.092	0.0151913
667.170	0.0149184
667.248	0.0150825
667.326	0.0151570
667.405	0.0149390
667.483	0.0149690
667.561	0.0148602
667.639	0.0150623
667.717	0.0149701
667.795	0.0149844
667.873	0.0149106
667.951	0.0150282
668.030	0.0148959
668.108	0.0149273
668.186	0.0149979
668.264	0.0149326
668.342	0.0148653
668.420	0.0148870
668.498	0.0151508
668.576	0.0150291
668.655	0.0152483
668.733	0.0150786
668.811	0.0150638
668.889	0.0153712
668.967	0.0151814
669.045	0.0153863
669.123	0.0153993
669.201	0.0154028
669.280	0.0154009
669.358	0.0154682
669.436	0.0154739
669.514	0.0154994
669.592	0.0155010
669.670	0.0154951
669.748	0.0155929
669.826	0.0157539
669.905	0.0158191
669.983	0.0156715
670.061	0.0156625
670.139	0.0156102
670.217	0.0157091
670.295	0.0156112
670.373	0.0156060
670.451	0.0155338
670.530	0.0156876
670.608	0.0155948
670.686	0.0156411
670.764	0.0156834
670.842	0.0155546
670.920	0.0156461
670.998	0.0156140
671.076	0.0156039
671.155	0.0156213
671.233	0.0156588
671.311	0.0157190
671.389	0.0156307
671.467	0.0156178
671.545	0.0156841
671.623	0.0156969
671.701	0.0155645
671.780	0.0155934
671.858	0.0155795
671.936	0.0155344
672.014	0.0155108
672.092	0.0155646
672.170	0.0155556
672.248	0.0156066
672.326	0.0156206
672.405	0.0155016
672.483	0.0153764
672.561	0.0153545
672.639	0.0154208
672.717	0.0154167
672.795	0.0154224
672.873	0.0153685
672.951	0.0152637
673.030	0.0151906
673.108	0.0152647
673.186	0.0152187
673.264	0.0152213
673.342	0.0150716
673.420	0.0151295
673.498	0.0150820
673.576	0.0150513
673.655	0.0150780
673.733	0.0149193
673.811	0.0150565
673.889	0.0151173
673.967	0.0151599
674.045	0.0152576
674.123	0.0151737
674.201	0.0151864
674.280	0.0152888
674.358	0.0153241
674.436	0.0152507
674.514	0.0154237
674.592	0.0155350
674.670	0.0155532
674.748	0.0155858
674.826	0.0156242
674.905	0.0156209
674.983	0.0156846
675.061	0.0157047
675.139	0.0157262
675.217	0.0157405
675.295	0.0158869
675.373	0.0157752
675.451	0.0156760
675.530	0.0159310
675.608	0.0158356
675.686	0.0156861
675.764	0.0157316
675.842	0.0158242
675.920	0.0158630
675.998	0.0156071
676.076	0.0155953
676.155	0.0154953
676.233	0.0156594
676.311	0.0154060
676.389	0.0152372
676.467	0.0152038
676.545	0.0152827
676.623	0.0151587
676.701	0.0151162
676.780	0.0150507
676.858	0.0150037
676.936	0.0149738
677.014	0.0149821
677.092	0.0147767
677.170	0.0147904
677.248	0.0147533
677.326	0.0147413
677.405	0.0146421
677.483	0.0147584
677.561	0.0147893
677.639	0.0147263
677.717	0.0146526
677.795	0.0145471
677.873	0.0146862
677.951	0.0147137
678.030	0.0149235
678.108	0.0148340
678.186	0.0148895
678.264	0.0149658
678.342	0.0149476
678.420	0.0150975
678.498	0.0150043
678.576	0.0151595
678.655	0.0152231
678.733	0.0153299
678.811	0.0153763
678.889	0.0154042
678.967	0.0155180
679.045	0.0155939
679.123	0.0154093
679.201	0.0154642
679.280	0.0156035
679.358	0.0156418
679.436	0.0156142
679.514	0.0156622
679.592	0.0155715
679.670	0.0155752
679.748	0.0157465
679.826	0.0157360
679.905	0.0156113
679.983	0.0157119
680.061	0.0157255
680.139	0.0156603
680.217	0.0156047
680.295	0.0157180
680.373	0.0156182
680.451	0.0155553
680.530	0.0156483
680.608	0.0155374
680.686	0.0156272
680.764	0.0154396
680.842	0.0154134
680.920	0.0155614
680.998	0.0154433
681.076	0.0155203
681.155	0.0153548
681.233	0.0153645
681.311	0.0153747
681.389	0.0154119
681.467	0.0152811
681.545	0.0153601
681.623	0.0154053
681.701	0.0153197
681.780	0.0151804
681.858	0.0153002
681.936	0.0153417
682.014	0.0152456
682.092	0.0152772
682.170	0.0152894
682.248	0.0153210
682.326	0.0153025
682.405	0.0151935
682.483	0.0153015
682.561	0.0152755
682.639	0.0153780
682.717	0.0152637
682.795	0.0153921
682.873	0.0153720
682.951	0.0151143
683.030	0.0151566
683.108	0.0152363
683.186	0.0152520
683.264	0.0151917
683.342	0.0153052
683.420	0.0154356
683.498	0.0153982
683.576	0.0154820
683.655	0.0155354
683.733	0.0153163
683.811	0.0152721
683.889	0.0153230
683.967	0.0154661
684.045	0.0154774
684.123	0.0153880
684.201	0.0155236
684.280	0.0155298
684.358	0.0153364
684.436	0.0154005
684.514	0.0154367
684.592	0.0154468
684.670	0.0153104
684.748	0.0152924
684.826	0.0153368
684.905	0.0152677
684.983	0.0152721
685.061	0.0152120
685.139	0.0150957
685.217	0.0152467
685.295	0.0151832
685.373	0.0151643
685.451	0.0152891
685.530	0.0153389
685.608	0.0152794
685.686	0.0153617
685.764	0.0153385
685.842	0.0154209
685.920	0.0154034
685.998	0.0154232
686.076	0.0155546
686.155	0.0153806
686.233	0.0155175
686.311	0.0155317
686.389	0.0154414
686.467	0.0153854
686.545	0.0154121
686.623	0.0153025
686.701	0.0154468
686.780	0.0154258
686.858	0.0154152
686.936	0.0154867
687.014	0.0155614
687.092	0.0154955
687.170	0.0154858
687.248	0.0155391
687.326	0.0156528
687.405	0.0156804
687.483	0.0156731
687.561	0.0156804
687.639	0.0157127
687.717	0.0157596
687.795	0.0156052
687.873	0.0155922
687.951	0.0157683
688.030	0.0157828
688.108	0.0158092
688.186	0.0157609
688.264	0.0157098
688.342	0.0157196
688.420	0.0156726
688.498	0.0156560
688.576	0.0156926
688.655	0.0155862
688.733	0.0156019
688.811	0.0157158
688.889	0.0156559
688.967	0.0156460
689.045	0.0156214
689.123	0.0155386
689.201	0.0156583
689.280	0.0155279
689.358	0.0155128
689.436	0.0156517
689.514	0.0155546
689.592	0.0155608
689.670	0.0152976
689.748	0.0153320
689.826	0.0153264
689.905	0.0153816
689.983	0.0152670
690.061	0.0153865
690.139	0.0152393
690.217	0.0152896
690.295	0.0152449
690.373	0.0152065
690.451	0.0152713
690.530	0.0153020
690.608	0.0152953
690.686	0.0152303
690.764	0.0153687
690.842	0.0153432
690.920	0.0154453
690.998	0.0152955
691.076	0.0154208
691.155	0.0155105
691.233	0.0156332
691.311	0.0155873
691.389	0.0156420
691.467	0.0155994
691.545	0.0156570
691.623	0.0156487
691.701	0.0158012
691.780	0.0157674
691.858	0.0157589
691.936	0.0156915
692.014	0.0157283
692.092	0.0156530
692.170	0.0157109
692.248	0.0157254
692.326	0.0155888
692.405	0.0154700
692.483	0.0154977
692.561	0.0154642
692.639	0.0153733
692.717	0.0154273
692.795	0.0153996
692.873	0.0153229
692.951	0.0152419
693.030	0.0153088
693.108	0.0153413
693.186	0.0152540
693.264	0.0152357
693.342	0.0154492
693.420	0.0152781
693.498	0.0151862
693.576	0.0153471
693.655	0.0151903
693.733	0.0151380
693.811	0.0150774
693.889	0.0151653
693.967	0.0150109
694.045	0.0151019
694.123	0.0152479
694.201	0.0150828
694.280	0.0150040
694.358	0.0152747
694.436	0.0151405
694.514	0.0151046
694.592	0.0152782
694.670	0.0152541
694.748	0.0153308
694.826	0.0153028
694.905	0.0153226
694.983	0.0154340
695.061	0.0156010
695.139	0.0156515
695.217	0.0155542
695.295	0.0155151
695.373	0.0156364
695.451	0.0155717
695.530	0.0155271
695.608	0.0156765
695.686	0.0156630
695.764	0.0155642
695.842	0.0156927
695.920	0.0157217
695.998	0.0156748
696.076	0.0154149
696.155	0.0153065
696.233	0.0154404
696.311	0.0155000
696.389	0.0154828
696.467	0.0153702
696.545	0.0154098
696.623	0.0153468
696.701	0.0152420
696.780	0.0154467
696.858	0.0154893
696.936	0.0152908
697.014	0.0154203
697.092	0.0155163
697.170	0.0154907
697.248	0.0154712
697.326	0.0154269
697.405	0.0154252
697.483	0.0153228
697.561	0.0152856
697.639	0.0153790
697.717	0.0154859
697.795	0.0153841
697.873	0.0154698
697.951	0.0154189
698.030	0.0153279
698.108	0.0153226
698.186	0.0155309
698.264	0.0153258
698.342	0.0152064
698.420	0.0152370
698.498	0.0152859
698.576	0.0153909
698.655	0.0152812
698.733	0.0152802
698.811	0.0152590
698.889	0.0151643
698.967	0.0150995
699.045	0.0152833
699.123	0.0152781
699.201	0.0152757
699.280	0.0151723
699.358	0.0154336
699.436	0.0153634
699.514	0.0154234
699.592	0.0153809
699.670	0.0154903
699.748	0.0155549
699.826	0.0155326
699.905	0.0156104
699.983	0.0156744
700.061	0.0157265
700.139	0.0157127
700.217	0.0158957
700.295	0.0158001
700.373	0.0157403
700.451	0.0158609
700.530	0.0158149
700.608	0.0159152
700.686	0.0158947
700.764	0.0158810
700.842	0.0160906
700.920	0.0160281
700.998	0.0158917
701.076	0.0159011
701.155	0.0159093
701.233	0.0158617
701.311	0.0158933
701.389	0.0159859
701.467	0.0157922
701.545	0.0158429
701.623	0.0157899
701.701	0.0158157
701.780	0.0157757
701.858	0.0157133
701.936	0.0157387
702.014	0.0155901
702.092	0.0155650
702.170	0.0154351
702.248	0.0154874
702.326	0.0153918
702.405	0.0154681
702.483	0.0152615
702.561	0.0152274
702.639	0.0151006
702.717	0.0150130
702.795	0.0149440
702.873	0.0149576
702.951	0.0147631
703.030	0.0147557
703.108	0.0146034
703.186	0.0146324
703.264	0.0147680
703.342	0.0148065
703.420	0.0147501
703.498	0.0148473
703.576	0.0146252
703.655	0.0146490
703.733	0.0148813
703.811	0.0148612
703.889	0.0150900
703.967	0.0151089
704.045	0.0151395
704.123	0.0151293
704.201	0.0151742
704.280	0.0153268
704.358	0.0153502
704.436	0.0154836
704.514	0.0155714
704.592	0.0156192
704.670	0.0154884
704.748	0.0156036
704.826	0.0156621
704.905	0.0156817
704.983	0.0156643
705.061	0.0156270
705.139	0.0156551
705.217	0.0154900
705.295	0.0156096
705.373	0.0156246
705.451	0.0156243
705.530	0.0155882
705.608	0.0156256
705.686	0.0154839
705.764	0.0155938
705.842	0.0154949
705.920	0.0154539
705.998	0.0156213
706.076	0.0154030
706.155	0.0156602
706.233	0.0156689
706.311	0.0156963
706.389	0.0156029
706.467	0.0156670
706.545	0.0156503
706.623	0.0158060
706.701	0.0157537
706.780	0.0157434
706.858	0.0157558
706.936	0.0155938
707.014	0.0156422
707.092	0.0157047
707.170	0.0157443
707.248	0.0157629
707.326	0.0157690
707.405	0.0155046
707.483	0.0155602
707.561	0.0156103
707.639	0.0155939
707.717	0.0154787
707.795	0.0154166
707.873	0.0154208
707.951	0.0154918
708.030	0.0154208
708.108	0.0153905
708.186	0.0152464
708.264	0.0151630
708.342	0.0152165
708.420	0.0151651
708.498	0.0151412
708.576	0.0151378
708.655	0.0151701
708.733	0.0151892
708.811	0.0152271
708.889	0.0151740
708.967	0.0151990
709.045	0.0150972
709.123	0.0151721
709.201	0.0151966
709.280	0.0151043
709.358	0.0150948
709.436	0.0151582
709.514	0.0150878
709.592	0.0150722
709.670	0.0149399
709.748	0.0150072
709.826	0.0149076
709.905	0.0150143
709.983	0.0150498
710.061	0.0150786
710.139	0.0152679
710.217	0.0151437
710.295	0.0151756
710.373	0.0151729
710.451	0.0152396
710.530	0.0153268
710.608	0.0154014
710.686	0.0153814
710.764	0.0156384
710.842	0.0155719
710.920	0.0155175
710.998	0.0154405
711.076	0.0155207
711.155	0.0155201
711.233	0.0155811
711.311	0.0156540
711.389	0.0155721
711.467	0.0155347
711.545	0.0155649
711.623	0.0156805
711.701	0.0155279
711.780	0.0155933
711.858	0.0155812
711.936	0.0155917
712.014	0.0155473
712.092	0.0154930
712.170	0.0155575
712.248	0.0155459
712.326	0.0156924
712.405	0.0156622
712.483	0.0155886
712.561	0.0155937
712.639	0.0155769
712.717	0.0156772
712.795	0.0156490
712.873	0.0157767
712.951	0.0156628
713.030	0.0156267
713.108	0.0156522
713.186	0.0154905
713.264	0.0156473
713.342	0.0155778
713.420	0.0155859
713.498	0.0155904
713.576	0.0155247
713.655	0.0154695
713.733	0.0154245
713.811	0.0153878
713.889	0.0153342
713.967	0.0153361
714.045	0.0153750
714.123	0.0154951
714.201	0.0154253
714.280	0.0152031
714.358	0.0152314
714.436	0.0153185
714.514	0.0154090
714.592	0.0154460
714.670	0.0153559
714.748	0.0153821
714.826	0.0154050
714.905	0.0155199
714.983	0.0156590
715.061	0.0156616
715.139	0.0156409
715.217	0.0157309
715.295	0.0157305
715.373	0.0158286
715.451	0.0158207
715.530	0.0157005
715.608	0.0156374
715.686	0.0157390
715.764	0.0155517
715.842	0.0156042
715.920	0.0155893
715.998	0.0154555
716.076	0.0155281
716.155	0.0155566
716.233	0.0154609
716.311	0.0155228
716.389	0.0155154
716.467	0.0153996
716.545	0.0153899
716.623	0.0153946
716.701	0.0154732
716.780	0.0154295
716.858	0.0153763
716.936	0.0154200
717.014	0.0153266
717.092	0.0152808
717.170	0.0154257
717.248	0.0152538
717.326	0.0152802
717.405	0.0153447
717.483	0.0151407
717.561	0.0152023
717.639	0.0153195
717.717	0.0151853
717.795	0.0152573
717.873	0.0152087
717.951	0.0151434
718.030	0.0151083
718.108	0.0151698
718.186	0.0153004
718.264	0.0152291
718.342	0.0153722
718.420	0.0153806
718.498	0.0152796
718.576	0.0152680
718.655	0.0152666
718.733	0.0154529
718.811	0.0153967
718.889	0.0153543
718.967	0.0155434
719.045	0.0154821
719.123	0.0155612
719.201	0.0155169
719.280	0.0155736
719.358	0.0156285
719.436	0.0155956
719.514	0.0156693
719.592	0.0154670
719.670	0.0155360
719.748	0.0156390
719.826	0.0155709
719.905	0.0156588
719.983	0.0156007
720.061	0.0154349
720.139	0.0156013
720.217	0.0154677
720.295	0.0154086
720.373	0.0154318
720.451	0.0153926
720.530	0.0153736
720.608	0.0154498
720.686	0.0153905
720.764	0.0152232
720.842	0.0153604
720.920	0.0153474
720.998	0.0154221
721.076	0.0154360
721.155	0.0152679
721.233	0.0152750
721.311	0.0155003
721.389	0.0154217
721.467	0.0152544
721.545	0.0152445
721.623	0.0152646
721.701	0.0152974
721.780	0.0153912
721.858	0.0152197
721.936	0.0152695
722.014	0.0152370
722.092	0.0151455
722.170	0.0151329
722.248	0.0152155
722.326	0.0150621
722.405	0.0151826
722.483	0.0150746
722.561	0.0151218
722.639	0.0152195
722.717	0.0153365
722.795	0.0151215
722.873	0.0154139
722.951	0.0153899
723.030	0.0153165
723.108	0.0153815
723.186	0.0155028
723.264	0.0154597
723.342	0.0154636
723.420	0.0156782
723.498	0.0155482
723.576	0.0156081
723.655	0.0155856
723.733	0.0155696
723.811	0.0156738
723.889	0.0157671
723.967	0.0155545
724.045	0.0156172
724.123	0.0156882
724.201	0.0155666
724.280	0.0155247
724.358	0.0155096
724.436	0.0155205
724.514	0.0154881
724.592	0.0154986
724.670	0.0153986
724.748	0.0154311
724.826	0.0153320
724.905	0.0151599
724.983	0.0151963
725.061	0.0153744
725.139	0.0153434
725.217	0.0153160
725.295	0.0151674
725.373	0.0153827
725.451	0.0153761
725.530	0.0153552
725.608	0.0153512
725.686	0.0154634
725.764	0.0153426
725.842	0.0154683
725.920	0.0152957
725.998	0.0152911
726.076	0.0153056
726.155	0.0153702
726.233	0.0154259
726.311	0.0153883
726.389	0.0154047
726.467	0.0153554
726.545	0.0153910
726.623	0.0153957
726.701	0.0153275
726.780	0.0154728
726.858	0.0153321
726.936	0.0155000
727.014	0.0153210
727.092	0.0154436
727.170	0.0153709
727.248	0.0154197
727.326	0.0153427
727.405	0.0155318
727.483	0.0154938
727.561	0.0154982
727.639	0.0155129
727.717	0.0155907
727.795	0.0157164
727.873	0.0154359
727.951	0.0154386
728.030	0.0154234
728.108	0.0155164
728.186	0.0154634
728.264	0.0153070
728.342	0.0154453
728.420	0.0152809
728.498	0.0154438
728.576	0.0151939
728.655	0.0151648
728.733	0.0150667
728.811	0.0150433
728.889	0.0149857
728.967	0.0148425
729.045	0.0148265
729.123	0.0147933
729.201	0.0148277
729.280	0.0145889
729.358	0.0147469
729.436	0.0147609
729.514	0.0147678
729.592	0.0149366
729.670	0.0149448
729.748	0.0150417
729.826	0.0152024
729.905	0.0152451
729.983	0.0152046
730.061	0.0153069
730.139	0.0154492
730.217	0.0155753
730.295	0.0156668
730.373	0.0157323
730.451	0.0157685
730.530	0.0158276
730.608	0.0158395
730.686	0.0160702
730.764	0.0159959
730.842	0.0160211
730.920	0.0162099
730.998	0.0161929
731.076	0.0161660
731.155	0.0160918
731.233	0.0160899
731.311	0.0160963
731.389	0.0159467
731.467	0.0159273
731.545	0.0158815
731.623	0.0159633
731.701	0.0158048
731.780	0.0156371
731.858	0.0156253
731.936	0.0156122
732.014	0.0153858
732.092	0.0151390
732.170	0.0152916
732.248	0.0151662
732.326	0.0149866
732.405	0.0150220
732.483	0.0148384
732.561	0.0146494
732.639	0.0147163
732.717	0.0147861
732.795	0.0147011
732.873	0.0146930
732.951	0.0148672
733.030	0.0146639
733.108	0.0148412
733.186	0.0148170
733.264	0.0148283
733.342	0.0149131
733.420	0.0149514
733.498	0.0148048
733.576	0.0150020
733.655	0.0153069
733.733	0.0151478
733.811	0.0153965
733.889	0.0153067
733.967	0.0154316
734.045	0.0155293
734.123	0.0154640
734.201	0.0153582
734.280	0.0155098
734.358	0.0155252
734.436	0.0155044
734.514	0.0155119
734.592	0.0155135
734.670	0.0154623
734.748	0.0156409
734.826	0.0154195
734.905	0.0155043
734.983	0.0156825
735.061	0.0155927
735.139	0.0154607
735.217	0.0155159
735.295	0.0155613
735.373	0.0155717
735.451	0.0156621
735.530	0.0155295
735.608	0.0155271
735.686	0.0154897
735.764	0.0155965
735.842	0.0155908
735.920	0.0155663
735.998	0.0157194
736.076	0.0154874
736.155	0.0155261
736.233	0.0157020
736.311	0.0156068
736.389	0.0155296
736.467	0.0153841
736.545	0.0154305
736.623	0.0155055
736.701	0.0154916
736.780	0.0152452
736.858	0.0151814
736.936	0.0150800
737.014	0.0151044
737.092	0.0150648
737.170	0.0150721
737.248	0.0152089
737.326	0.0151514
737.405	0.0151168
737.483	0.0152155
737.561	0.0152849
737.639	0.0152771
737.717	0.0151554
737.795	0.0151555
737.873	0.0152868
737.951	0.0152117
738.030	0.0152393
738.108	0.0152813
738.186	0.0155225
738.264	0.0155132
738.342	0.0153720
738.420	0.0155687
738.498	0.0154594
738.576	0.0154974
738.655	0.0156965
738.733	0.0156172
738.811	0.0154974
738.889	0.0154512
738.967	0.0156267
739.045	0.0154914
739.123	0.0154936
739.201	0.0154218
739.280	0.0155159
739.358	0.0155421
739.436	0.0154415
739.514	0.0154422
739.592	0.0154503
739.670	0.0154186
739.748	0.0154735
739.826	0.0153298
739.905	0.0154519
739.983	0.0154845
740.061	0.0154979
740.139	0.0152692
740.217	0.0155133
740.295	0.0154738
740.373	0.0153901
740.451	0.0153920
740.530	0.0154087
740.608	0.0153824
740.686	0.0154064
740.764	0.0152878
740.842	0.0152876
740.920	0.0152097
740.998	0.0151322
741.076	0.0152178
741.155	0.0150929
741.233	0.0152421
741.311	0.0152437
741.389	0.0150921
741.467	0.0152626
741.545	0.0153198
741.623	0.0152814
741.701	0.0152674
741.780	0.0153929
741.858	0.0154236
741.936	0.0153366
742.014	0.0154610
742.092	0.0154350
742.170	0.0153820
742.248	0.0155670
742.326	0.0154658
742.405	0.0155909
742.483	0.0154768
742.561	0.0154728
742.639	0.0154204
742.717	0.0154526
742.795	0.0154042
742.873	0.0154173
742.951	0.0156094
743.030	0.0155157
743.108	0.0153144
743.186	0.0152659
743.264	0.0152706
743.342	0.0152901
743.420	0.0153550
743.498	0.0152510
743.576	0.0153313
743.655	0.0152934
743.733	0.0152269
743.811	0.0152473
743.889	0.0153535
743.967	0.0152132
744.045	0.0152949
744.123	0.0153270
744.201	0.0153839
744.280	0.0154025
744.358	0.0153660
744.436	0.0153992
744.514	0.0154992
744.592	0.0153685
744.670	0.0153523
744.748	0.0152923
744.826	0.0153764
744.905	0.0152541
744.983	0.0152182
745.061	0.0152836
745.139	0.0153623
745.217	0.0150751
745.295	0.0150736
745.373	0.0151527
745.451	0.0150980
745.530	0.0151221
745.608	0.0149866
745.686	0.0151842
745.764	0.0151158
745.842	0.0150619
745.920	0.0151060
745.998	0.0150966
746.076	0.0153111
746.155	0.0153197
746.233	0.0154512
746.311	0.0154696
746.389	0.0154957
746.467	0.0155542
746.545	0.0155765
746.623	0.0154692
746.701	0.0155885
746.780	0.0157511
746.858	0.0156912
746.936	0.0156129
747.014	0.0155099
747.092	0.0155188
747.170	0.0153663
747.248	0.0153136
747.326	0.0154407
747.405	0.0153024
747.483	0.0153170
747.561	0.0151109
747.639	0.0152444
747.717	0.0152085
747.795	0.0151122
747.873	0.0150726
747.951	0.0150587
748.030	0.0151161
748.108	0.0149543
748.186	0.0150561
748.264	0.0151809
748.342	0.0151221
748.420	0.0151025
748.498	0.0151234
748.576	0.0152227
748.655	0.0152124
748.733	0.0151524
748.811	0.0152264
748.889	0.0155638
748.967	0.0155061
749.045	0.0153569
749.123	0.0154704
749.201	0.0153780
749.280	0.0154417
749.358	0.0155017
749.436	0.0153628
749.514	0.0155161
749.592	0.0154120
749.670	0.0154767
749.748	0.0156493
749.826	0.0154919
749.905	0.0155460
749.983	0.0154166
750.061	0.0154073
750.139	0.0152832
750.217	0.0154003
750.295	0.0153671
750.373	0.0155068
750.451	0.0152860
750.530	0.0151786
750.608	0.0152891
750.686	0.0153124
750.764	0.0152338
750.842	0.0151461
750.920	0.0152003
750.998	0.0151614
751.076	0.0152653
751.155	0.0152802
751.233	0.0154123
751.311	0.0155513
751.389	0.0153245
751.467	0.0153567
751.545	0.0154381
751.623	0.0157079
751.701	0.0156928
751.780	0.0156032
751.858	0.0157748
751.936	0.0156069
752.014	0.0158627
752.092	0.0155047
752.170	0.0156162
752.248	0.0155253
752.326	0.0155598
752.405	0.0156406
752.483	0.0155170
752.561	0.0153640
752.639	0.0154628
752.717	0.0153499
752.795	0.0153317
752.873	0.0153883
752.951	0.0153510
753.030	0.0154295
753.108	0.0152971
753.186	0.0151683
753.264	0.0152125
753.342	0.0152119
753.420	0.0151655
753.498	0.0151069
753.576	0.0150608
753.655	0.0152570
753.733	0.0151540
753.811	0.0151424
753.889	0.0151325
753.967	0.0151577
754.045	0.0151315
754.123	0.0151601
754.201	0.0150524
754.280	0.0150839
754.358	0.0150813
754.436	0.0151620
754.514	0.0151919
754.592	0.0148901
754.670	0.0150980
754.748	0.0150652
754.826	0.0151183
754.905	0.0150539
754.983	0.0150945
755.061	0.0151353
755.139	0.0152209
755.217	0.0153824
755.295	0.0152467
755.373	0.0153653
755.451	0.0153495
755.530	0.0154928
755.608	0.0153926
755.686	0.0154217
755.764	0.0153433
755.842	0.0156030
755.920	0.0155793
755.998	0.0155925
756.076	0.0155016
756.155	0.0155936
756.233	0.0156300
756.311	0.0153879
756.389	0.0153334
756.467	0.0153461
756.545	0.0152542
756.623	0.0153066
756.701	0.0154224
756.780	0.0153070
756.858	0.0151481
756.936	0.0151333
757.014	0.0152859
757.092	0.0149538
757.170	0.0150925
757.248	0.0153136
757.326	0.0151836
757.405	0.0152422
757.483	0.0151412
757.561	0.0153239
757.639	0.0153996
757.717	0.0152776
757.795	0.0153558
757.873	0.0153629
757.951	0.0154899
758.030	0.0154858
758.108	0.0154579
758.186	0.0154749
758.264	0.0154797
758.342	0.0153177
758.420	0.0154668
758.498	0.0152556
758.576	0.0153787
758.655	0.0152850
758.733	0.0151629
758.811	0.0151906
758.889	0.0151417
758.967	0.0152109
759.045	0.0151141
759.123	0.0152306
759.201	0.0152303
759.280	0.0150864
759.358	0.0151904
759.436	0.0150078
759.514	0.0151939
759.592	0.0153475
759.670	0.0152575
759.748	0.0153830
759.826	0.0153020
759.905	0.0153555
759.983	0.0156376
760.061	0.0154064
760.139	0.0154665
760.217	0.0155470
760.295	0.0154643
760.373	0.0155048
760.451	0.0156161
760.530	0.0154327
760.608	0.0154996
760.686	0.0154163
760.764	0.0153954
760.842	0.0155587
760.920	0.0155034
760.998	0.0154810
761.076	0.0154684
761.155	0.0155403
761.233	0.0155206
761.311	0.0153151
761.389	0.0152848
761.467	0.0154697
761.545	0.0154893
761.623	0.0154041
761.701	0.0153545
761.780	0.0154857
761.858	0.0154762
761.936	0.0154569
762.014	0.0154282
762.092	0.0152773
762.170	0.0153765
762.248	0.0153366
762.326	0.0153951
762.405	0.0152163
762.483	0.0153125
762.561	0.0152366
762.639	0.0152169
762.717	0.0152277
762.795	0.0151465
762.873	0.0151091
762.951	0.0150773
763.030	0.0151884
763.108	0.0151878
763.186	0.0150882
763.264	0.0151729
763.342	0.0151255
763.420	0.0150994
763.498	0.0151633
763.576	0.0153085
763.655	0.0152350
763.733	0.0154279
763.811	0.0154293
763.889	0.0154350
763.967	0.0154819
764.045	0.0155196
764.123	0.0154197
764.201	0.0155023
764.280	0.0156138
764.358	0.0156969
764.436	0.0158331
764.514	0.0156538
764.592	0.0157003
764.670	0.0159124
764.748	0.0157730
764.826	0.0158345
764.905	0.0156532
764.983	0.0156813
765.061	0.0156692
765.139	0.0155737
765.217	0.0155246
765.295	0.0155396
765.373	0.0154984
765.451	0.0153970
765.530	0.0152278
765.608	0.0153679
765.686	0.0153853
765.764	0.0154082
765.842	0.0152371
765.920	0.0151592
765.998	0.0151920
766.076	0.0151250
766.155	0.0152000
766.233	0.0151750
766.311	0.0151061
766.389	0.0152623
766.467	0.0151640
766.545	0.0151123
766.623	0.0153614
766.701	0.0151813
766.780	0.0152605
766.858	0.0152872
766.936	0.0151415
767.014	0.0152797
767.092	0.0153344
767.170	0.0153223
767.248	0.0153891
767.326	0.0154100
767.405	0.0154648
767.483	0.0152056
767.561	0.0152695
767.639	0.0152858
767.717	0.0152876
767.795	0.0152512
767.873	0.0153143
767.951	0.0153798
768.030	0.0153132
768.108	0.0153456
768.186	0.0153333
768.264	0.0152789
768.342	0.0152596
768.420	0.0150990
768.498	0.0152127
768.576	0.0152032
768.655	0.0152375
768.733	0.0152483
768.811	0.0152084
768.889	0.0152612
768.967	0.0152779
769.045	0.0153098
769.123	0.0152309
769.201	0.0151470
769.280	0.0153715
769.358	0.0151615
769.436	0.0152739
769.514	0.0153526
769.592	0.0152808
769.670	0.0154181
769.748	0.0154414
769.826	0.0154848
769.905	0.0154991
769.983	0.0154700
770.061	0.0155312
770.139	0.0154527
770.217	0.0156567
770.295	0.0156485
770.373	0.0155611
770.451	0.0156300
770.530	0.0155470
770.608	0.0154245
770.686	0.0155949
770.764	0.0155437
770.842	0.0154718
770.920	0.0155626
770.998	0.0154469
771.076	0.0152998
771.155	0.0155251
771.233	0.0153840
771.311	0.0153853
771.389	0.0153737
771.467	0.0154182
771.545	0.0153541
771.623	0.0152519
771.701	0.0154066
771.780	0.0152985
771.858	0.0152628
771.936	0.0152168
772.014	0.0153034
772.092	0.0153117
772.170	0.0153387
772.248	0.0152547
772.326	0.0151826
772.405	0.0153498
772.483	0.0153496
772.561	0.0152338
772.639	0.0152258
772.717	0.0154115
772.795	0.0153241
772.873	0.0153362
772.951	0.0152552
773.030	0.0153614
773.108	0.0153420
773.186	0.0153268
773.264	0.0152548
773.342	0.0153147
773.420	0.0152442
773.498	0.0152266
773.576	0.0152471
773.655	0.0151145
773.733	0.0151505
773.811	0.0150681
773.889	0.0151886
773.967	0.0151593
774.045	0.0152225
774.123	0.0150900
774.201	0.0151730
774.280	0.0150171
774.358	0.0151345
774.436	0.0152443
774.514	0.0153004
774.592	0.0153138
774.670	0.0152283
774.748	0.0153641
774.826	0.0153535
774.905	0.0155510
774.983	0.0155767
775.061	0.0155389
775.139	0.0156378
775.217	0.0155062
775.295	0.0156550
775.373	0.0155942
775.451	0.0155294
775.530	0.0155309
775.608	0.0153891
775.686	0.0154257
775.764	0.0154352
775.842	0.0154276
775.920	0.0153787
775.998	0.0152229
776.076	0.0152428
776.155	0.0153169
776.233	0.0151688
776.311	0.0150951
776.389	0.0152776
776.467	0.0150930
776.545	0.0151606
776.623	0.0152256
776.701	0.0151911
776.780	0.0150445
776.858	0.0152471
776.936	0.0152810
777.014	0.0152422
777.092	0.0153692
777.170	0.0151888
777.248	0.0153844
777.326	0.0153959
777.405	0.0154121
777.483	0.0154131
777.561	0.0153823
777.639	0.0153866
777.717	0.0155764
777.795	0.0154121
777.873	0.0153116
777.951	0.0153986
778.030	0.0154138
778.108	0.0154011
778.186	0.0154102
778.264	0.0155248
778.342	0.0154943
778.420	0.0154903
778.498	0.0156938
778.576	0.0156654
778.655	0.0156958
778.733	0.0155627
778.811	0.0156520
778.889	0.0158547
778.967	0.0156916
779.045	0.0157141
779.123	0.0156721
779.201	0.0156126
779.280	0.0157729
779.358	0.0156794
779.436	0.0155524
779.514	0.0154745
779.592	0.0156052
779.670	0.0155836
779.748	0.0155553
779.826	0.0155214
779.905	0.0154451
779.983	0.0155249
780.061	0.0155549
780.139	0.0154070
780.217	0.0154118
780.295	0.0153857
780.373	0.0154418
780.451	0.0152679
780.530	0.0151839
780.608	0.0154354
780.686	0.0152812
780.764	0.0152726
780.842	0.0154464
780.920	0.0153336
780.998	0.0153281
781.076	0.0153221
781.155	0.0153672
781.233	0.0154671
781.311	0.0152222
781.389	0.0152631
781.467	0.0152103
781.545	0.0152312
781.623	0.0152850
781.701	0.0151945
781.780	0.0152953
781.858	0.0153120
781.936	0.0150159
782.014	0.0152336
782.092	0.0152239
782.170	0.0151222
782.248	0.0152043
782.326	0.0153307
782.405	0.0152799
782.483	0.0152820
782.561	0.0153317
782.639	0.0153593
782.717	0.0152808
782.795	0.0153444
782.873	0.0153767
782.951	0.0154522
783.030	0.0155390
783.108	0.0154981
783.186	0.0153887
783.264	0.0155968
783.342	0.0154428
783.420	0.0155690
783.498	0.0154752
783.576	0.0155718
783.655	0.0154993
783.733	0.0154917
783.811	0.0155524
783.889	0.0154650
783.967	0.0155384
784.045	0.0154984
784.123	0.0153312
784.201	0.0152850
784.280	0.0155856
784.358	0.0154620
784.436	0.0154079
784.514	0.0154052
784.592	0.0153485
784.670	0.0154482
784.748	0.0152466
784.826	0.0152969
784.905	0.0152931
784.983	0.0152654
785.061	0.0152538
785.139	0.0152543
785.217	0.0151413
785.295	0.0151657
785.373	0.0150739
785.451	0.0150159
785.530	0.0150714
785.608	0.0150058
785.686	0.0149953
785.764	0.0148502
785.842	0.0150812
785.920	0.0147935
785.998	0.0147941
786.076	0.0149445
786.155	0.0150028
786.233	0.0148828
786.311	0.0149152
786.389	0.0149794
786.467	0.0149336
786.545	0.0149522
786.623	0.0150543
786.701	0.0149841
786.780	0.0149850
786.858	0.0150275
786.936	0.0151369
787.014	0.0150385
787.092	0.0151428
787.170	0.0153055
787.248	0.0152256
787.326	0.0152047
787.405	0.0152100
787.483	0.0153963
787.561	0.0153772
787.639	0.0153302
787.717	0.0154303
787.795	0.0154363
787.873	0.0153905
787.951	0.0153474
788.030	0.0154396
788.108	0.0153810
788.186	0.0154690
788.264	0.0154748
788.342	0.0153500
788.420	0.0154398
788.498	0.0153783
788.576	0.0155345
788.655	0.0155186
788.733	0.0154395
788.811	0.0153538
788.889	0.0155461
788.967	0.0154581
789.045	0.0154617
789.123	0.0154594
789.201	0.0155104
789.280	0.0155820
789.358	0.0155512
789.436	0.0155357
789.514	0.0154108
789.592	0.0153725
789.670	0.0154082
789.748	0.0154153
789.826	0.0154454
789.905	0.0153754
789.983	0.0154202
790.061	0.0153238
790.139	0.0152870
790.217	0.0154334
790.295	0.0153468
790.373	0.0153297
790.451	0.0153761
790.530	0.0155064
790.608	0.0153529
790.686	0.0155070
790.764	0.0154289
790.842	0.0154182
790.920	0.0155372
790.998	0.0154739
791.076	0.0155117
791.155	0.0154980
791.233	0.0155462
791.311	0.0155836
791.389	0.0155153
791.467	0.0154394
791.545	0.0155907
791.623	0.0156419
791.701	0.0155580
791.780	0.0154681
791.858	0.0155681
791.936	0.0154098
792.014	0.0156202
792.092	0.0154842
792.170	0.0155833
792.248	0.0155510
792.326	0.0154886
792.405	0.0155286
792.483	0.0155318
792.561	0.0154658
792.639	0.0156371
792.717	0.0155949
792.795	0.0155576
792.873	0.0156036
792.951	0.0156075
793.030	0.0155830
793.108	0.0155746
793.186	0.0155465
793.264	0.0156969
793.342	0.0155529
793.420	0.0155562
793.498	0.0154071
793.576	0.0153780
793.655	0.0153468
793.733	0.0155070
793.811	0.0153936
793.889	0.0152591
793.967	0.0152733
794.045	0.0152678
794.123	0.0152561
794.201	0.0152331
794.280	0.0151725
794.358	0.0152534
794.436	0.0151061
794.514	0.0150748
794.592	0.0151015
794.670	0.0152632
794.748	0.0152377
794.826	0.0151846
794.905	0.0152047
794.983	0.0151736
795.061	0.0152637
795.139	0.0152187
795.217	0.0152843
795.295	0.0153262
795.373	0.0154093
795.451	0.0153581
795.530	0.0152075
795.608	0.0153018
795.686	0.0153101
795.764	0.0153216
795.842	0.0152722
795.920	0.0153333
795.998	0.0153878
796.076	0.0154642
796.155	0.0152869
796.233	0.0152839
796.311	0.0153424
796.389	0.0152891
796.467	0.0153472
796.545	0.0155607
796.623	0.0153887
796.701	0.0151921
796.780	0.0153812
796.858	0.0154244
796.936	0.0153121
797.014	0.0153787
797.092	0.0153938
797.170	0.0154057
797.248	0.0153773
797.326	0.0152696
797.405	0.0154981
797.483	0.0154565
797.561	0.0153508
797.639	0.0154019
797.717	0.0154672
797.795	0.0154995
797.873	0.0154801
797.951	0.0154620
798.030	0.0154781
798.108	0.0154697
798.186	0.0155503
798.264	0.0155433
798.342	0.0155125
798.420	0.0154446
798.498	0.0153727
798.576	0.0153230
798.655	0.0156709
798.733	0.0156561
798.811	0.0152508
798.889	0.0153664
798.967	0.0153191
799.045	0.0153257
799.123	0.0153719
799.201	0.0152908
799.280	0.0154019
799.358	0.0153095
799.436	0.0154330
799.514	0.0153143
799.592	0.0152831
799.670	0.0153520
799.748	0.0153585
799.826	0.0152368
799.905	0.0152872
799.983	0.0153204
800.061	0.0152936
800.139	0.0153999
800.217	0.0153246
800.295	0.0152679
800.373	0.0154587
800.451	0.0154141
800.530	0.0153927
800.608	0.0153477
800.686	0.0154094
800.764	0.0155135
800.842	0.0154937
800.920	0.0153780
800.998	0.0154105
801.076	0.0155836
801.155	0.0154723
801.233	0.0153948
801.311	0.0155170
801.389	0.0156556
801.467	0.0156210
801.545	0.0155691
801.623	0.0155241
801.701	0.0155557
801.780	0.0155409
801.858	0.0154862
801.936	0.0155447
802.014	0.0156181
802.092	0.0155266
802.170	0.0155920
802.248	0.0155064
802.326	0.0154688
802.405	0.0155551
802.483	0.0156387
802.561	0.0155840
802.639	0.0155691
802.717	0.0154683
802.795	0.0153289
802.873	0.0154649
802.951	0.0155022
803.030	0.0155584
803.108	0.0154400
803.186	0.0153928
803.264	0.0155233
803.342	0.0153299
803.420	0.0154165
803.498	0.0153702
803.576	0.0153381
803.655	0.0153296
803.733	0.0154374
803.811	0.0154350
803.889	0.0153658
803.967	0.0155329
804.045	0.0155298
804.123	0.0153872
804.201	0.0155453
804.280	0.0153516
804.358	0.0153044
804.436	0.0154269
804.514	0.0153864
804.592	0.0152122
804.670	0.0153492
804.748	0.0152959
804.826	0.0153787
804.905	0.0153773
804.983	0.0153739
805.061	0.0153042
805.139	0.0151323
805.217	0.0153609
805.295	0.0153710
805.373	0.0152773
805.451	0.0152053
805.530	0.0152582
805.608	0.0152836
805.686	0.0152184
805.764	0.0152792
805.842	0.0151020
805.920	0.0152240
805.998	0.0152411
806.076	0.0153375
806.155	0.0151919
806.233	0.0152615
806.311	0.0152768
806.389	0.0151458
806.467	0.0151992
806.545	0.0152735
806.623	0.0152556
806.701	0.0153656
806.780	0.0151472
806.858	0.0153690
806.936	0.0154002
807.014	0.0153126
807.092	0.0153225
807.170	0.0154534
807.248	0.0154192
807.326	0.0154857
807.405	0.0154707
807.483	0.0154046
807.561	0.0154916
807.639	0.0154697
807.717	0.0155028
807.795	0.0154476
807.873	0.0153938
807.951	0.0153995
808.030	0.0154996
808.108	0.0154654
808.186	0.0153921
808.264	0.0155086
808.342	0.0155125
808.420	0.0154564
808.498	0.0155538
808.576	0.0155582
808.655	0.0154166
808.733	0.0153965
808.811	0.0154619
808.889	0.0153780
808.967	0.0154200
809.045	0.0154018
809.123	0.0152763
809.201	0.0153633
809.280	0.0152966
809.358	0.0153770
809.436	0.0152705
809.514	0.0152440
809.592	0.0153874
809.670	0.0153200
809.748	0.0152509
809.826	0.0151988
809.905	0.0154298
809.983	0.0153191
810.061	0.0152646
810.139	0.0152967
810.217	0.0153493
810.295	0.0153643
810.373	0.0153076
810.451	0.0154177
810.530	0.0154166
810.608	0.0152258
810.686	0.0151486
810.764	0.0154484
810.842	0.0154026
810.920	0.0154031
810.998	0.0153822
811.076	0.0154805
811.155	0.0154530
811.233	0.0154752
811.311	0.0153533
811.389	0.0153984
811.467	0.0153683
811.545	0.0154226
811.623	0.0153954
811.701	0.0154716
811.780	0.0152904
811.858	0.0154115
811.936	0.0153705
812.014	0.0154224
812.092	0.0152908
812.170	0.0152276
812.248	0.0155141
812.326	0.0154808
812.405	0.0154147
812.483	0.0154912
812.561	0.0154020
812.639	0.0152686
812.717	0.0154379
812.795	0.0153458
812.873	0.0153601
812.951	0.0154188
813.030	0.0154095
813.108	0.0153812
813.186	0.0153388
813.264	0.0153384
813.342	0.0152415
813.420	0.0154145
813.498	0.0152448
813.576	0.0152914
813.655	0.0154393
813.733	0.0152040
813.811	0.0151387
813.889	0.0152459
813.967	0.0153170
814.045	0.0152208
814.123	0.0153383
814.201	0.0153267
814.280	0.0152186
814.358	0.0151958
814.436	0.0152358
814.514	0.0152229
814.592	0.0153620
814.670	0.0153436
814.748	0.0152638
814.826	0.0152242
814.905	0.0152478
814.983	0.0153500
815.061	0.0153731
815.139	0.0153640
815.217	0.0153732
815.295	0.0153191
815.373	0.0153430
815.451	0.0153444
815.530	0.0153512
815.608	0.0155211
815.686	0.0153752
815.764	0.0154150
815.842	0.0154979
815.920	0.0154203
815.998	0.0154278
816.076	0.0153326
816.155	0.0155048
816.233	0.0154156
816.311	0.0154844
816.389	0.0154640
816.467	0.0154166
816.545	0.0153822
816.623	0.0155408
816.701	0.0154139
816.780	0.0154494
816.858	0.0154258
816.936	0.0155641
817.014	0.0154573
817.092	0.0155729
817.170	0.0154488
817.248	0.0154565
817.326	0.0155824
817.405	0.0154481
817.483	0.0154532
817.561	0.0156038
817.639	0.0156282
817.717	0.0154349
817.795	0.0154626
817.873	0.0155025
817.951	0.0155207
818.030	0.0154772
818.108	0.0154037
818.186	0.0154915
818.264	0.0155984
818.342	0.0154400
818.420	0.0153303
818.498	0.0153973
818.576	0.0154442
818.655	0.0154057
818.733	0.0154462
818.811	0.0154443
818.889	0.0154001
818.967	0.0154089
819.045	0.0153973
819.123	0.0154087
819.201	0.0152831
819.280	0.0151699
819.358	0.0154685
819.436	0.0154367
819.514	0.0152603
819.592	0.0153492
819.670	0.0156158
819.748	0.0155071
819.826	0.0153905
819.905	0.0153622
819.983	0.0154644
820.061	0.0155571
820.139	0.0153738
820.217	0.0153699
820.295	0.0154169
820.373	0.0153084
820.451	0.0154439
820.530	0.0155562
820.608	0.0153945
820.686	0.0154063
820.764	0.0154022
820.842	0.0154001
820.920	0.0154094
820.998	0.0154926
821.076	0.0155289
821.155	0.0154780
821.233	0.0153176
821.311	0.0152847
821.389	0.0153854
821.467	0.0153493
821.545	0.0153264
821.623	0.0154559
821.701	0.0154760
821.780	0.0154281
821.858	0.0154169
821.936	0.0154774
822.014	0.0153506
822.092	0.0153050
822.170	0.0152554
822.248	0.0153378
822.326	0.0152586
822.405	0.0154388
822.483	0.0153605
822.561	0.0152799
822.639	0.0153665
822.717	0.0152216
822.795	0.0154095
822.873	0.0153046
822.951	0.0153278
823.030	0.0152438
823.108	0.0151869
823.186	0.0151757
823.264	0.0152445
823.342	0.0151756
823.420	0.0152307
823.498	0.0152756
823.576	0.0152921
823.655	0.0153485
823.733	0.0152612
823.811	0.0152858
823.889	0.0153299
823.967	0.0152606
824.045	0.0153466
824.123	0.0154370
824.201	0.0152842
824.280	0.0152468
824.358	0.0152718
824.436	0.0153268
824.514	0.0152015
824.592	0.0152806
824.670	0.0153314
824.748	0.0153744
824.826	0.0153935
824.905	0.0154905
824.983	0.0153645
825.061	0.0153394
825.139	0.0153831
825.217	0.0152927
825.295	0.0152993
825.373	0.0154599
825.451	0.0153470
825.530	0.0154319
825.608	0.0152886
825.686	0.0152826
825.764	0.0152727
825.842	0.0154492
825.920	0.0154606
825.998	0.0153155
826.076	0.0154170
826.155	0.0153756
826.233	0.0152032
826.311	0.0153856
826.389	0.0154761
826.467	0.0153197
826.545	0.0153315
826.623	0.0155003
826.701	0.0153896
826.780	0.0152508
826.858	0.0154233
826.936	0.0152961
827.014	0.0154353
827.092	0.0154962
827.170	0.0154327
827.248	0.0154287
827.326	0.0154372
827.405	0.0154768
827.483	0.0152512
827.561	0.0153442
827.639	0.0154325
827.717	0.0154455
827.795	0.0153460
827.873	0.0153700
827.951	0.0153841
828.030	0.0154249
828.108	0.0153104
828.186	0.0154111
828.264	0.0155089
828.342	0.0153755
828.420	0.0153966
828.498	0.0154124
828.576	0.0155379
828.655	0.0153267
828.733	0.0153490
828.811	0.0152282
828.889	0.0154462
828.967	0.0154491
829.045	0.0153699
829.123	0.0153566
829.201	0.0155162
829.280	0.0153241
829.358	0.0153767
829.436	0.0154031
829.514	0.0153413
829.592	0.0154462
829.670	0.0153457
829.748	0.0154103
829.826	0.0153313
829.905	0.0155264
829.983	0.0153251
830.061	0.0152182
830.139	0.0153836
830.217	0.0154404
830.295	0.0153600
830.373	0.0153764
830.451	0.0154865
830.530	0.0152518
830.608	0.0153698
830.686	0.0153855
830.764	0.0153386
830.842	0.0154265
830.920	0.0153735
830.998	0.0153487
831.076	0.0155830
831.155	0.0154075
831.233	0.0153642
831.311	0.0155347
831.389	0.0154391
831.467	0.0155327
831.545	0.0154774
831.623	0.0155064
831.701	0.0155173
831.780	0.0153387
831.858	0.0154910
831.936	0.0155161
832.014	0.0155772
832.092	0.0154505
832.170	0.0155265
832.248	0.0154819
832.326	0.0155505
832.405	0.0155567
832.483	0.0155446
832.561	0.0153618
832.639	0.0154295
832.717	0.0155878
832.795	0.0154644
832.873	0.0155865
832.951	0.0155044
833.030	0.0154286
833.108	0.0153343
833.186	0.0155329
833.264	0.0155961
833.342	0.0154966
833.420	0.0154804
833.498	0.0154919
833.576	0.0154546
833.655	0.0155319
833.733	0.0155374
833.811	0.0154790
833.889	0.0154771
833.967	0.0155829
834.045	0.0155985
834.123	0.0154052
834.201	0.0153899
834.280	0.0155479
834.358	0.0155801
834.436	0.0155724
834.514	0.0154762
834.592	0.0154832
834.670	0.0156458
834.748	0.0156408
834.826	0.0154994
834.905	0.0154807
834.983	0.0155777
835.061	0.0153918
835.139	0.0156144
835.217	0.0155472
835.295	0.0154807
835.373	0.0154528
835.451	0.0154474
835.530	0.0155107
835.608	0.0156009
835.686	0.0155840
835.764	0.0154360
835.842	0.0154324
835.920	0.0153662
835.998	0.0155563
836.076	0.0154990
836.155	0.0152774
836.233	0.0153787
836.311	0.0155177
836.389	0.0154238
836.467	0.0154522
836.545	0.0153938
836.623	0.0154910
836.701	0.0153183
836.780	0.0154639
836.858	0.0153228
836.936	0.0152433
837.014	0.0154124
837.092	0.0152813
837.170	0.0152016
837.248	0.0152021
837.326	0.0151743
837.405	0.0151537
837.483	0.0152007
837.561	0.0152238
837.639	0.0153168
837.717	0.0152491
837.795	0.0151858
837.873	0.0152922
837.951	0.0152589
838.030	0.0152252
838.108	0.0153101
838.186	0.0154307
838.264	0.0152264
838.342	0.0153707
838.420	0.0153836
838.498	0.0154482
838.576	0.0153517
838.655	0.0153581
838.733	0.0153398
838.811	0.0152563
838.889	0.0154862
838.967	0.0152967
839.045	0.0152081
839.123	0.0152869
839.201	0.0153676
839.280	0.0154727
839.358	0.0152943
839.436	0.0154363
839.514	0.0153777
839.592	0.0154292
839.670	0.0152125
839.748	0.0153756
839.826	0.0153926
839.905	0.0154101
839.983	0.0153298
840.061	0.0154658
840.139	0.0154503
840.217	0.0152155
840.295	0.0152370
840.373	0.0153262
840.451	0.0154465
840.530	0.0154866
840.608	0.0154570
840.686	0.0152716
840.764	0.0154418
840.842	0.0153899
840.920	0.0153479
840.998	0.0153863
841.076	0.0153962
841.155	0.0153735
841.233	0.0153974
841.311	0.0154399
841.389	0.0153082
841.467	0.0152399
841.545	0.0153011
841.623	0.0152090
841.701	0.0152522
841.780	0.0153272
841.858	0.0153167
841.936	0.0153884
842.014	0.0152145
842.092	0.0152802
842.170	0.0151704
842.248	0.0153737
842.326	0.0153145
842.405	0.0154783
842.483	0.0152678
842.561	0.0154631
842.639	0.0154545
842.717	0.0154584
842.795	0.0155797
842.873	0.0155325
842.951	0.0155478
843.030	0.0155753
843.108	0.0156178
843.186	0.0154617
843.264	0.0156013
843.342	0.0156327
843.420	0.0155356
843.498	0.0156522
843.576	0.0155427
843.655	0.0155914
843.733	0.0155892
843.811	0.0154986
843.889	0.0156092
843.967	0.0154246
844.045	0.0153787
844.123	0.0154405
844.201	0.0155434
844.280	0.0155278
844.358	0.0155149
844.436	0.0155706
844.514	0.0155227
844.592	0.0155187
844.670	0.0154877
844.748	0.0155882
844.826	0.0155750
844.905	0.0156183
844.983	0.0154615
845.061	0.0154349
845.139	0.0156068
845.217	0.0155733
845.295	0.0154788
845.373	0.0153734
845.451	0.0155569
845.530	0.0155588
845.608	0.0155209
845.686	0.0154198
845.764	0.0154813
845.842	0.0155163
845.920	0.0155128
845.998	0.0153819
846.076	0.0153146
846.155	0.0155911
846.233	0.0154526
846.311	0.0153611
846.389	0.0154124
846.467	0.0153371
846.545	0.0154017
846.623	0.0153980
846.701	0.0153864
846.780	0.0152496
846.858	0.0154630
846.936	0.0154400
847.014	0.0153912
847.092	0.0154015
847.170	0.0152988
847.248	0.0154979
847.326	0.0153091
847.405	0.0153397
847.483	0.0154453
847.561	0.0154525
847.639	0.0154108
847.717	0.0151888
847.795	0.0153400
847.873	0.0153849
847.951	0.0152726
848.030	0.0154157
848.108	0.0151080
848.186	0.0152889
848.264	0.0154021
848.342	0.0153062
848.420	0.0153258
848.498	0.0152876
848.576	0.0152766
848.655	0.0153531
848.733	0.0153637
848.811	0.0153513
848.889	0.0152735
848.967	0.0153488
849.045	0.0153667
849.123	0.0151716
849.201	0.0152172
849.280	0.0151189
849.358	0.0151936
849.436	0.0152992
849.514	0.0153446
849.592	0.0151244
849.670	0.0150826
849.748	0.0151760
849.826	0.0151643
849.905	0.0151916
849.983	0.0151955
850.061	0.0152165
850.139	0.0151213
850.217	0.0151362
850.295	0.0153507
850.373	0.0153394
850.451	0.0151733
850.530	0.0152708
850.608	0.0152798
850.686	0.0152713
850.764	0.0153508
850.842	0.0152266
850.920	0.0151831
850.998	0.0153120
851.076	0.0153654
851.155	0.0154967
851.233	0.0153468
851.311	0.0153928
851.389	0.0154221
851.467	0.0154461
851.545	0.0153157
851.623	0.0153223
851.701	0.0155306
851.780	0.0153922
851.858	0.0154044
851.936	0.0153478
852.014	0.0153889
852.092	0.0153477
852.170	0.0153008
852.248	0.0153306
852.326	0.0153476
852.405	0.0154514
852.483	0.0152232
852.561	0.0152213
852.639	0.0152924
852.717	0.0151540
852.795	0.0153297
852.873	0.0153361
852.951	0.0153674
853.030	0.0154011
853.108	0.0155240
853.186	0.0153577
853.264	0.0153347
853.342	0.0154786
853.420	0.0154974
853.498	0.0153719
853.576	0.0153777
853.655	0.0156001
853.733	0.0154961
853.811	0.0154546
853.889	0.0156517
853.967	0.0154826
854.045	0.0153674
854.123	0.0154675
854.201	0.0154879
854.280	0.0155178
854.358	0.0154565
854.436	0.0155997
854.514	0.0154868
854.592	0.0154567
854.670	0.0153780
854.748	0.0154808
854.826	0.0153413
854.905	0.0153841
854.983	0.0154243
855.061	0.0153778
855.139	0.0153004
855.217	0.0154044
855.295	0.0154278
855.373	0.0153135
855.451	0.0153229
855.530	0.0153423
855.608	0.0153302
855.686	0.0155142
855.764	0.0154725
855.842	0.0153317
855.920	0.0154262
855.998	0.0151827
856.076	0.0152642
856.155	0.0153850
856.233	0.0153851
856.311	0.0153683
856.389	0.0153139
856.467	0.0152917
856.545	0.0154807
856.623	0.0153843
856.701	0.0153579
856.780	0.0153124
856.858	0.0154374
856.936	0.0153813
857.014	0.0153820
857.092	0.0153658
857.170	0.0152493
857.248	0.0154255
857.326	0.0151855
857.405	0.0153051
857.483	0.0153429
857.561	0.0153975
857.639	0.0153087
857.717	0.0154169
857.795	0.0154797
857.873	0.0153585
857.951	0.0155087
858.030	0.0154042
858.108	0.0154079
858.186	0.0155348
858.264	0.0154894
858.342	0.0154026
858.420	0.0155821
858.498	0.0155360
858.576	0.0155914
858.655	0.0156213
858.733	0.0155986
858.811	0.0155734
858.889	0.0156337
858.967	0.0155910
859.045	0.0156184
859.123	0.0154772
859.201	0.0153748
859.280	0.0155415
859.358	0.0155547
859.436	0.0155685
859.514	0.0154913
859.592	0.0154845
859.670	0.0154267
859.748	0.0152876
859.826	0.0155360
859.905	0.0154471
859.983	0.0153412
860.061	0.0154298
860.139	0.0154657
860.217	0.0154778
860.295	0.0152823
860.373	0.0152914
860.451	0.0154800
860.530	0.0154099
860.608	0.0154678
860.686	0.0153519
860.764	0.0155759
860.842	0.0156174
860.920	0.0155727
860.998	0.0154561
861.076	0.0154490
861.155	0.0155447
861.233	0.0155795
861.311	0.0155769
861.389	0.0154971
861.467	0.0156090
861.545	0.0156782
861.623	0.0156293
861.701	0.0156068
861.780	0.0156414
861.858	0.0156171
861.936	0.0155212
862.014	0.0154134
862.092	0.0155689
862.170	0.0154393
862.248	0.0155109
862.326	0.0154341
862.405	0.0153631
862.483	0.0154248
862.561	0.0153702
862.639	0.0155412
862.717	0.0153305
862.795	0.0154718
862.873	0.0154404
862.951	0.0152744
863.030	0.0153112
863.108	0.0154073
863.186	0.0153465
863.264	0.0152837
863.342	0.0153423
863.420	0.0152585
863.498	0.0153777
863.576	0.0153407
863.655	0.0153843
863.733	0.0153492
863.811	0.0154160
863.889	0.0152784
863.967	0.0153104
864.045	0.0153848
864.123	0.0153446
864.201	0.0155007
864.280	0.0152734
864.358	0.0153421
864.436	0.0152945
864.514	0.0153983
864.592	0.0154394
864.670	0.0153785
864.748	0.0153026
864.826	0.0154737
864.905	0.0154967
864.983	0.0152966
865.061	0.0153726
865.139	0.0154044
865.217	0.0152152
865.295	0.0154144
865.373	0.0154059
865.451	0.0154562
865.530	0.0153840
865.608	0.0154842
865.686	0.0155182
865.764	0.0153549
865.842	0.0154156
865.920	0.0153533
865.998	0.0153812
866.076	0.0153328
866.155	0.0154553
866.233	0.0154508
866.311	0.0153936
866.389	0.0154379
866.467	0.0156089
866.545	0.0155532
866.623	0.0154585
866.701	0.0154774
866.780	0.0154250
866.858	0.0155932
866.936	0.0155766
867.014	0.0155435
867.092	0.0155660
867.170	0.0155563
867.248	0.0155102
867.326	0.0156129
867.405	0.0153897
867.483	0.0154684
867.561	0.0155730
867.639	0.0154256
867.717	0.0154758
867.795	0.0153263
867.873	0.0153445
867.951	0.0155122
868.030	0.0154578
868.108	0.0153581
868.186	0.0153083
868.264	0.0155066
868.342	0.0154914
868.420	0.0154724
868.498	0.0154111
868.576	0.0153243
868.655	0.0154671
868.733	0.0155481
868.811	0.0154874
868.889	0.0154530
868.967	0.0154240
869.045	0.0153835
869.123	0.0153622
869.201	0.0154032
869.280	0.0155563
869.358	0.0154269
869.436	0.0152969
869.514	0.0152428
869.592	0.0154015
869.670	0.0152996
869.748	0.0153631
869.826	0.0154338
869.905	0.0152748
869.983	0.0154008
870.061	0.0155280
870.139	0.0152051
870.217	0.0153588
870.295	0.0155727
870.373	0.0154271
870.451	0.0156177
870.530	0.0155497
870.608	0.0156106
870.686	0.0155927
870.764	0.0155799
870.842	0.0155120
870.920	0.0154402
870.998	0.0156274
871.076	0.0157060
871.155	0.0156835
871.233	0.0156482
871.311	0.0155437
871.389	0.0156510
871.467	0.0156346
871.545	0.0156830
871.623	0.0156085
871.701	0.0156071
871.780	0.0156385
871.858	0.0155996
871.936	0.0154663
872.014	0.0156135
872.092	0.0155511
872.170	0.0156826
872.248	0.0156023
872.326	0.0155052
872.405	0.0156355
872.483	0.0155158
872.561	0.0155019
872.639	0.0154686
872.717	0.0155167
872.795	0.0155317
872.873	0.0154374
872.951	0.0153954
873.030	0.0154134
873.108	0.0152425
873.186	0.0153294
873.264	0.0154767
873.342	0.0154562
873.420	0.0154598
873.498	0.0152894
873.576	0.0153584
873.655	0.0152750
873.733	0.0153345
873.811	0.0154315
873.889	0.0153775
873.967	0.0153350
874.045	0.0154862
874.123	0.0154179
874.201	0.0155721
874.280	0.0153977
874.358	0.0154821
874.436	0.0153929
874.514	0.0156202
874.592	0.0154601
874.670	0.0154735
874.748	0.0155433
874.826	0.0154740
874.905	0.0155622
874.983	0.0154514
875.061	0.0154820
875.139	0.0155212
875.217	0.0154601
875.295	0.0154451
875.373	0.0154698
875.451	0.0153894
875.530	0.0154743
875.608	0.0154172
875.686	0.0154466
875.764	0.0154882
875.842	0.0154964
875.920	0.0153811
875.998	0.0154686
876.076	0.0154259
876.155	0.0155376
876.233	0.0153758
876.311	0.0152004
876.389	0.0153100
876.467	0.0153600
876.545	0.0153883
876.623	0.0153683
876.701	0.0153080
876.780	0.0152058
876.858	0.0152739
876.936	0.0151567
877.014	0.0151678
877.092	0.0150365
877.170	0.0152785
877.248	0.0153289
877.326	0.0153374
877.405	0.0153864
877.483	0.0152615
877.561	0.0152923
877.639	0.0151811
877.717	0.0152642
877.795	0.0151932
877.873	0.0152670
877.951	0.0153440
878.030	0.0151673
878.108	0.0152261
878.186	0.0151584
878.264	0.0152664
878.342	0.0153018
878.420	0.0152553
878.498	0.0153126
878.576	0.0153445
878.655	0.0154059
878.733	0.0153644
878.811	0.0153808
878.889	0.0152818
878.967	0.0154833
879.045	0.0155466
879.123	0.0152719
879.201	0.0152013
879.280	0.0152838
879.358	0.0154295
879.436	0.0154230
879.514	0.0153498
879.592	0.0153072
879.670	0.0153119
879.748	0.0153458
879.826	0.0153896
879.905	0.0152052
879.983	0.0151849
880.061	0.0153114
880.139	0.0152708
880.217	0.0155070
880.295	0.0153118
880.373	0.0152766
880.451	0.0153346
880.530	0.0154353
880.608	0.0153977
880.686	0.0152953
880.764	0.0153522
880.842	0.0152615
880.920	0.0153320
880.998	0.0153950
881.076	0.0155618
881.155	0.0155195
881.233	0.0154478
881.311	0.0152839
881.389	0.0154008
881.467	0.0155560
881.545	0.0155419
881.623	0.0152430
881.701	0.0153497
881.780	0.0154749
881.858	0.0154128
881.936	0.0154518
882.014	0.0156093
882.092	0.0153792
882.170	0.0154215
882.248	0.0153634
882.326	0.0154275
882.405	0.0154330
882.483	0.0153952
882.561	0.0154609
882.639	0.0154922
882.717	0.0154752
882.795	0.0154067
882.873	0.0154762
882.951	0.0153168
883.030	0.0154904
883.108	0.0153582
883.186	0.0153954
883.264	0.0154643
883.342	0.0154565
883.420	0.0153791
883.498	0.0153680
883.576	0.0155260
883.655	0.0154436
883.733	0.0154626
883.811	0.0153299
883.889	0.0153589
883.967	0.0153441
884.045	0.0154167
884.123	0.0154032
884.201	0.0153201
884.280	0.0153343
884.358	0.0154253
884.436	0.0154125
884.514	0.0152042
884.592	0.0155058
884.670	0.0154860
884.748	0.0153701
884.826	0.0153721
884.905	0.0154066
884.983	0.0153169
885.061	0.0153286
885.139	0.0152763
885.217	0.0154308
885.295	0.0154238
885.373	0.0153982
885.451	0.0152535
885.530	0.0153551
885.608	0.0153456
885.686	0.0154091
885.764	0.0153186
885.842	0.0152592
885.920	0.0154417
885.998	0.0153787
886.076	0.0154060
886.155	0.0153555
886.233	0.0154237
886.311	0.0153323
886.389	0.0153535
886.467	0.0153344
886.545	0.0152871
886.623	0.0153369
886.701	0.0155562
886.780	0.0153695
886.858	0.0150508
886.936	0.0153212
887.014	0.0153244
887.092	0.0154218
887.170	0.0152335
887.248	0.0152851
887.326	0.0152122
887.405	0.0151862
887.483	0.0152423
887.561	0.0153097
887.639	0.0152743
887.717	0.0153899
887.795	0.0152797
887.873	0.0152149
887.951	0.0152293
888.030	0.0153372
888.108	0.0153087
888.186	0.0152289
888.264	0.0152368
888.342	0.0153222
888.420	0.0153571
888.498	0.0153967
888.576	0.0153063
888.655	0.0153328
888.733	0.0153921
888.811	0.0153366
888.889	0.0154307
888.967	0.0154170
889.045	0.0154222
889.123	0.0154150
889.201	0.0153691
889.280	0.0153558
889.358	0.0152557
889.436	0.0153952
889.514	0.0153045
889.592	0.0153096
889.670	0.0152239
889.748	0.0152692
889.826	0.0152506
889.905	0.0152843
889.983	0.0153139
890.061	0.0152345
890.139	0.0152319
890.217	0.0152914
890.295	0.0152664
890.373	0.0153624
890.451	0.0151765
890.530	0.0152380
890.608	0.0152628
890.686	0.0153127
890.764	0.0153332
890.842	0.0155186
890.920	0.0154192
890.998	0.0153923
891.076	0.0153530
891.155	0.0152155
891.233	0.0153078
891.311	0.0152773
891.389	0.0152336
891.467	0.0152426
891.545	0.0152563
891.623	0.0153039
891.701	0.0152432
891.780	0.0154141
891.858	0.0153423
891.936	0.0154600
892.014	0.0153365
892.092	0.0153871
892.170	0.0153619
892.248	0.0154717
892.326	0.0154247
892.405	0.0153996
892.483	0.0155287
892.561	0.0154730
892.639	0.0155511
892.717	0.0154413
892.795	0.0154108
892.873	0.0154240
892.951	0.0153093
893.030	0.0153514
893.108	0.0153815
893.186	0.0154665
893.264	0.0154590
893.342	0.0155327
893.420	0.0156011
893.498	0.0154559
893.576	0.0155498
893.655	0.0155475
893.733	0.0154933
893.811	0.0154773
893.889	0.0155228
893.967	0.0155737
894.045	0.0156316
894.123	0.0155048
894.201	0.0154562
894.280	0.0155536
894.358	0.0155968
894.436	0.0155560
894.514	0.0154870
894.592	0.0155134
894.670	0.0153957
894.748	0.0154115
894.826	0.0154615
894.905	0.0153627
894.983	0.0152889
895.061	0.0155051
895.139	0.0153508
895.217	0.0153538
895.295	0.0153135
895.373	0.0154250
895.451	0.0153317
895.530	0.0152477
895.608	0.0154190
895.686	0.0153661
895.764	0.0154505
895.842	0.0154572
895.920	0.0154301
895.998	0.0153244
896.076	0.0153452
896.155	0.0153510
896.233	0.0153785
896.311	0.0152911
896.389	0.0153696
896.467	0.0152917
896.545	0.0153006
896.623	0.0152930
896.701	0.0152399
896.780	0.0152263
896.858	0.0153279
896.936	0.0152399
897.014	0.0152787
897.092	0.0152679
897.170	0.0151958
897.248	0.0153207
897.326	0.0151222
897.405	0.0152999
897.483	0.0153268
897.561	0.0153071
897.639	0.0152140
897.717	0.0152656
897.795	0.0152988
897.873	0.0152284
897.951	0.0151870
898.030	0.0151286
898.108	0.0153185
898.186	0.0151923
898.264	0.0152679
898.342	0.0153111
898.420	0.0152115
898.498	0.0152219
898.576	0.0150945
898.655	0.0152380
898.733	0.0153566
898.811	0.0153011
898.889	0.0153107
898.967	0.0152234
899.045	0.0153375
899.123	0.0152135
899.201	0.0151242
899.280	0.0153364
899.358	0.0153308
899.436	0.0154397
899.514	0.0153313
899.592	0.0152448
899.670	0.0153738
899.748	0.0152343
899.826	0.0153122
899.905	0.0152998
899.983	0.0151468
900.061	0.0152558
900.139	0.0152879
900.217	0.0152857
900.295	0.0152558
900.373	0.0151274
900.451	0.0150046
900.530	0.0151137
900.608	0.0152254
900.686	0.0152048
900.764	0.0151628
900.842	0.0151556
900.920	0.0152522
900.998	0.0152047
901.076	0.0152124
901.155	0.0152393
901.233	0.0153326
901.311	0.0153036
901.389	0.0152010
901.467	0.0152798
901.545	0.0153503
901.623	0.0150899
901.701	0.0154282
901.780	0.0153860
901.858	0.0153008
901.936	0.0151763
902.014	0.0153333
902.092	0.0153144
902.170	0.0152932
902.248	0.0152223
902.326	0.0152808
902.405	0.0153183
902.483	0.0151989
902.561	0.0152939
902.639	0.0154192
902.717	0.0152275
902.795	0.0153088
902.873	0.0151955
902.951	0.0153513
903.030	0.0152254
903.108	0.0153226
903.186	0.0152322
903.264	0.0152385
903.342	0.0153011
903.420	0.0152385
903.498	0.0153338
903.576	0.0153590
903.655	0.0153278
903.733	0.0151646
903.811	0.0154071
903.889	0.0154016
903.967	0.0153444
904.045	0.0153228
904.123	0.0154375
904.201	0.0154338
904.280	0.0154178
904.358	0.0153656
904.436	0.0154367
904.514	0.0154246
904.592	0.0154248
904.670	0.0156217
904.748	0.0155928
904.826	0.0155043
904.905	0.0154873
904.983	0.0153614
905.061	0.0153858
905.139	0.0153153
905.217	0.0155489
905.295	0.0155196
905.373	0.0154440
905.451	0.0152633
905.530	0.0153654
905.608	0.0154326
905.686	0.0153796
905.764	0.0153775
905.842	0.0152350
905.920	0.0153670
905.998	0.0154554
906.076	0.0153932
906.155	0.0154357
906.233	0.0153508
906.311	0.0152248
906.389	0.0153322
906.467	0.0155221
906.545	0.0154141
906.623	0.0153340
906.701	0.0153480
906.780	0.0153831
906.858	0.0153848
906.936	0.0152809
907.014	0.0156327
907.092	0.0154398
907.170	0.0154108
907.248	0.0153760
907.326	0.0154325
907.405	0.0154636
907.483	0.0153831
907.561	0.0152948
907.639	0.0153517
907.717	0.0152662
907.795	0.0153101
907.873	0.0154148
907.951	0.0153867
908.030	0.0152195
908.108	0.0153169
908.186	0.0151707
908.264	0.0152698
908.342	0.0153440
908.420	0.0152882
908.498	0.0151324
908.576	0.0152883
908.655	0.0152119
908.733	0.0153569
908.811	0.0152768
908.889	0.0152337
908.967	0.0152205
909.045	0.0150315
909.123	0.0150392
909.201	0.0152580
909.280	0.0151076
909.358	0.0151841
909.436	0.0152018
909.514	0.0150892
909.592	0.0151156
909.670	0.0150581
909.748	0.0151218
909.826	0.0152164
909.905	0.0151807
909.983	0.0150513
910.061	0.0151515
910.139	0.0152432
910.217	0.0152150
910.295	0.0149652
910.373	0.0152484
910.451	0.0151569
910.530	0.0151797
910.608	0.0151531
910.686	0.0150945
910.764	0.0151344
910.842	0.0150855
910.920	0.0151333
910.998	0.0150292
911.076	0.0152540
911.155	0.0153008
911.233	0.0152367
911.311	0.0151035
911.389	0.0151585
911.467	0.0151278
911.545	0.0151071
911.623	0.0152878
911.701	0.0151330
911.780	0.0151098
911.858	0.0150726
911.936	0.0151479
912.014	0.0151497
912.092	0.0151183
912.170	0.0152931
912.248	0.0151171
912.326	0.0150887
912.405	0.0152764
912.483	0.0152049
912.561	0.0152978
912.639	0.0151991
912.717	0.0152507
912.795	0.0152193
912.873	0.0152972
912.951	0.0153461
913.030	0.0152084
913.108	0.0152092
913.186	0.0154041
913.264	0.0152555
913.342	0.0152930
913.420	0.0152573
913.498	0.0152378
913.576	0.0153933
913.655	0.0153186
913.733	0.0152935
913.811	0.0153223
913.889	0.0154113
913.967	0.0156023
914.045	0.0152435
914.123	0.0152819
914.201	0.0153868
914.280	0.0152621
914.358	0.0153829
914.436	0.0155182
914.514	0.0154786
914.592	0.0153028
914.670	0.0154410
914.748	0.0155157
914.826	0.0154919
914.905	0.0153938
914.983	0.0154752
915.061	0.0155249
915.139	0.0155286
915.217	0.0155466
915.295	0.0153606
915.373	0.0153317
915.451	0.0154482
915.530	0.0154745
915.608	0.0155386
915.686	0.0155800
915.764	0.0156451
915.842	0.0156258
915.920	0.0155661
915.998	0.0156068
916.076	0.0156261
916.155	0.0156561
916.233	0.0155190
916.311	0.0154462
916.389	0.0156805
916.467	0.0157107
916.545	0.0155481
916.623	0.0154242
916.701	0.0154765
916.780	0.0154806
916.858	0.0154896
916.936	0.0154379
917.014	0.0156192
917.092	0.0155984
917.170	0.0153709
917.248	0.0155094
917.326	0.0155365
917.405	0.0154938
917.483	0.0155064
917.561	0.0154043
917.639	0.0153416
917.717	0.0154933
917.795	0.0154216
917.873	0.0154424
917.951	0.0154015
918.030	0.0153788
918.108	0.0154608
918.186	0.0153883
918.264	0.0152798
918.342	0.0154034
918.420	0.0153897
918.498	0.0154701
918.576	0.0154415
918.655	0.0154677
918.733	0.0153708
918.811	0.0154552
918.889	0.0153586
918.967	0.0153961
919.045	0.0154432
919.123	0.0152885
919.201	0.0153317
919.280	0.0152276
919.358	0.0153551
919.436	0.0153041
919.514	0.0152538
919.592	0.0153365
919.670	0.0153983
919.748	0.0151928
919.826	0.0152634
919.905	0.0151656
919.983	0.0152345
920.061	0.0152393
920.139	0.0152164
920.217	0.0152728
920.295	0.0153059
920.373	0.0151491
920.451	0.0153003
920.530	0.0153463
920.608	0.0152222
920.686	0.0151626
920.764	0.0152151
920.842	0.0152814
920.920	0.0151862
920.998	0.0152876
921.076	0.0152908
921.155	0.0154007
921.233	0.0152314
921.311	0.0152896
921.389	0.0153223
921.467	0.0153344
921.545	0.0152530
921.623	0.0152029
921.701	0.0153178
921.780	0.0153333
921.858	0.0153668
921.936	0.0154069
922.014	0.0153807
922.092	0.0154533
922.170	0.0152811
922.248	0.0154037
922.326	0.0153350
922.405	0.0152583
922.483	0.0153442
922.561	0.0153832
922.639	0.0152753
922.717	0.0153474
922.795	0.0152415
922.873	0.0152509
922.951	0.0152413
923.030	0.0153355
923.108	0.0153603
923.186	0.0152531
923.264	0.0153035
923.342	0.0153344
923.420	0.0154778
923.498	0.0153298
923.576	0.0153714
923.655	0.0153444
923.733	0.0153651
923.811	0.0154639
923.889	0.0153449
923.967	0.0154686
924.045	0.0154386
924.123	0.0155112
924.201	0.0154700
924.280	0.0152563
924.358	0.0153888
924.436	0.0154852
924.514	0.0154687
924.592	0.0154395
924.670	0.0154026
924.748	0.0153142
924.826	0.0154802
924.905	0.0154740
924.983	0.0154081
925.061	0.0155055
925.139	0.0154266
925.217	0.0154860
925.295	0.0154948
925.373	0.0155328
925.451	0.0155115
925.530	0.0155553
925.608	0.0155759
925.686	0.0153110
925.764	0.0153677
925.842	0.0155325
925.920	0.0152781
925.998	0.0154339
926.076	0.0152850
926.155	0.0154607
926.233	0.0153420
926.311	0.0153550
926.389	0.0154937
926.467	0.0153951
926.545	0.0153373
926.623	0.0153305
926.701	0.0153805
926.780	0.0152795
926.858	0.0152850
926.936	0.0153284
927.014	0.0153996
927.092	0.0153933
927.170	0.0155086
927.248	0.0152837
927.326	0.0153966
927.405	0.0152829
927.483	0.0153532
927.561	0.0153439
927.639	0.0154321
927.717	0.0152779
927.795	0.0153332
927.873	0.0152660
927.951	0.0152484
928.030	0.0151819
928.108	0.0152647
928.186	0.0150261
928.264	0.0150339
928.342	0.0151080
928.420	0.0150890
928.498	0.0153419
928.576	0.0152933
928.655	0.0150915
928.733	0.0151501
928.811	0.0150816
928.889	0.0150996
928.967	0.0150271
929.045	0.0151916
929.123	0.0151825
929.201	0.0150426
929.280	0.0151366
929.358	0.0150838
929.436	0.0150709
929.514	0.0150497
929.592	0.0151823
929.670	0.0151978
929.748	0.0151740
929.826	0.0153718
929.905	0.0152429
929.983	0.0152089
930.061	0.0152528
930.139	0.0151752
930.217	0.0152586
930.295	0.0152531
930.373	0.0152216
930.451	0.0152098
930.530	0.0153022
930.608	0.0153994
930.686	0.0152684
930.764	0.0153450
930.842	0.0152921
930.920	0.0152588
930.998	0.0152727
931.076	0.0153135
931.155	0.0153216
931.233	0.0154187
931.311	0.0154575
931.389	0.0154189
931.467	0.0151545
931.545	0.0152753
931.623	0.0152714
931.701	0.0154302
931.780	0.0153241
931.858	0.0151738
931.936	0.0154073
932.014	0.0153567
932.092	0.0154959
932.170	0.0153535
932.248	0.0153872
932.326	0.0154071
932.405	0.0154718
932.483	0.0154588
932.561	0.0152876
932.639	0.0153132
932.717	0.0153561
932.795	0.0153624
932.873	0.0155019
932.951	0.0153770
933.030	0.0153359
933.108	0.0153191
933.186	0.0154743
933.264	0.0154243
933.342	0.0154350
933.420	0.0153218
933.498	0.0154671
933.576	0.0154845
933.655	0.0155559
933.733	0.0155775
933.811	0.0155235
933.889	0.0155898
933.967	0.0154170
934.045	0.0155000
934.123	0.0155313
934.201	0.0154591
934.280	0.0154583
934.358	0.0154478
934.436	0.0155362
934.514	0.0155305
934.592	0.0154425
934.670	0.0154848
934.748	0.0154705
934.826	0.0155111
934.905	0.0156142
934.983	0.0155215
935.061	0.0153897
935.139	0.0154686
935.217	0.0154376
935.295	0.0154806
935.373	0.0154905
935.451	0.0155697
935.530	0.0155275
935.608	0.0154741
935.686	0.0154641
935.764	0.0155610
935.842	0.0156198
935.920	0.0156254
935.998	0.0155819
936.076	0.0156865
936.155	0.0155450
936.233	0.0155620
936.311	0.0156266
936.389	0.0156749
936.467	0.0156315
936.545	0.0155853
936.623	0.0155321
936.701	0.0154846
936.780	0.0154306
936.858	0.0153462
936.936	0.0155798
937.014	0.0155308
937.092	0.0153458
937.170	0.0154181
937.248	0.0155240
937.326	0.0155009
937.405	0.0155679
937.483	0.0153877
937.561	0.0153939
937.639	0.0155603
937.717	0.0154466
937.795	0.0156873
937.873	0.0154023
937.951	0.0154494
938.030	0.0154311
938.108	0.0155750
938.186	0.0155260
938.264	0.0153613
938.342	0.0153450
938.420	0.0154944
938.498	0.0154169
938.576	0.0154934
938.655	0.0154709
938.733	0.0154422
938.811	0.0153664
938.889	0.0153662
938.967	0.0153910
939.045	0.0154297
939.123	0.0154033
939.201	0.0153639
939.280	0.0155466
939.358	0.0155084
939.436	0.0154530
939.514	0.0154411
939.592	0.0156109
939.670	0.0154797
939.748	0.0154662
939.826	0.0154936
939.905	0.0154589
939.983	0.0154897
940.061	0.0155110
940.139	0.0155270
940.217	0.0154774
940.295	0.0153132
940.373	0.0152415
940.451	0.0154927
940.530	0.0155257
940.608	0.0154929
940.686	0.0154975
940.764	0.0153747
940.842	0.0154293
940.920	0.0154965
940.998	0.0154464
941.076	0.0154091
941.155	0.0154280
941.233	0.0154094
941.311	0.0155363
941.389	0.0152921
941.467	0.0154154
941.545	0.0155275
941.623	0.0153764
941.701	0.0154531
941.780	0.0153644
941.858	0.0153344
941.936	0.0153004
942.014	0.0153519
942.092	0.0153751
942.170	0.0154561
942.248	0.0153355
942.326	0.0154199
942.405	0.0154112
942.483	0.0153059
942.561	0.0153008
942.639	0.0154112
942.717	0.0153828
942.795	0.0152555
942.873	0.0152792
942.951	0.0153764
943.030	0.0153674
943.108	0.0154035
943.186	0.0152969
943.264	0.0153211
943.342	0.0153835
943.420	0.0154075
943.498	0.0154906
943.576	0.0153799
943.655	0.0154255
943.733	0.0153246
943.811	0.0155084
943.889	0.0153735
943.967	0.0153578
944.045	0.0154527
944.123	0.0154483
944.201	0.0154187
944.280	0.0154030
944.358	0.0154158
944.436	0.0153348
944.514	0.0152818
944.592	0.0152966
944.670	0.0152840
944.748	0.0152737
944.826	0.0153019
944.905	0.0152869
944.983	0.0152434
945.061	0.0153134
945.139	0.0152469
945.217	0.0152581
945.295	0.0153265
945.373	0.0153802
945.451	0.0152193
945.530	0.0152527
945.608	0.0153734
945.686	0.0153352
945.764	0.0152720
945.842	0.0153790
945.920	0.0152982
945.998	0.0153281
946.076	0.0153175
946.155	0.0153584
946.233	0.0153593
946.311	0.0153754
946.389	0.0154057
946.467	0.0151960
946.545	0.0153706
946.623	0.0154038
946.701	0.0153078
946.780	0.0152550
946.858	0.0154679
946.936	0.0154411
947.014	0.0155077
947.092	0.0152809
947.170	0.0154138
947.248	0.0154827
947.326	0.0153597
947.405	0.0153900
947.483	0.0153652
947.561	0.0155198
947.639	0.0155663
947.717	0.0152927
947.795	0.0155177
947.873	0.0154399
947.951	0.0154684
948.030	0.0155138
948.108	0.0155126
948.186	0.0154324
948.264	0.0154411
948.342	0.0154065
948.420	0.0154385
948.498	0.0155365
948.576	0.0154749
948.655	0.0155318
948.733	0.0155563
948.811	0.0153453
948.889	0.0155525
948.967	0.0153593
949.045	0.0156331
949.123	0.0154690
949.201	0.0153603
949.280	0.0154727
949.358	0.0155263
949.436	0.0153609
949.514	0.0153536
949.592	0.0152691
949.670	0.0153592
949.748	0.0154925
949.826	0.0153246
949.905	0.0154392
949.983	0.0152454
950.061	0.0152948
950.139	0.0154181
950.217	0.0154409
950.295	0.0154372
950.373	0.0155315
950.451	0.0154174
950.530	0.0153712
950.608	0.0152723
950.686	0.0154545
950.764	0.0153171
950.842	0.0154262
950.920	0.0154723
950.998	0.0153819
951.076	0.0152615
951.155	0.0153204
951.233	0.0154639
951.311	0.0153950
951.389	0.0154718
951.467	0.0153677
951.545	0.0155522
951.623	0.0154446
951.701	0.0155071
951.780	0.0153865
951.858	0.0154565
951.936	0.0154403
952.014	0.0155714
952.092	0.0155992
952.170	0.0155853
952.248	0.0155165
952.326	0.0154389
952.405	0.0154361
952.483	0.0155078
952.561	0.0155290
952.639	0.0156255
952.717	0.0154548
952.795	0.0154001
952.873	0.0154664
952.951	0.0156305
953.030	0.0156200
953.108	0.0154499
953.186	0.0154888
953.264	0.0154469
953.342	0.0154404
953.420	0.0154680
953.498	0.0154072
953.576	0.0154039
953.655	0.0153046
953.733	0.0153413
953.811	0.0154478
953.889	0.0153360
953.967	0.0152755
954.045	0.0153793
954.123	0.0153653
954.201	0.0153414
954.280	0.0153340
954.358	0.0153094
954.436	0.0152509
954.514	0.0154511
954.592	0.0153495
954.670	0.0153205
954.748	0.0153374
954.826	0.0153517
954.905	0.0153236
954.983	0.0153477
955.061	0.0153013
955.139	0.0153456
955.217	0.0152248
955.295	0.0153544
955.373	0.0153777
955.451	0.0152102
955.530	0.0152614
955.608	0.0151862
955.686	0.0152413
955.764	0.0153143
955.842	0.0153362
955.920	0.0153637
955.998	0.0151945
956.076	0.0153709
956.155	0.0152924
956.233	0.0154815
956.311	0.0153483
956.389	0.0152837
956.467	0.0153659
956.545	0.0152890
956.623	0.0154175
956.701	0.0153657
956.780	0.0153278
956.858	0.0154520
956.936	0.0154842
957.014	0.0153553
957.092	0.0153130
957.170	0.0154108
957.248	0.0154818
957.326	0.0154471
957.405	0.0155378
957.483	0.0154903
957.561	0.0155125
957.639	0.0154890
957.717	0.0154034
957.795	0.0154282
957.873	0.0155064
957.951	0.0155882
958.030	0.0156415
958.108	0.0155263
958.186	0.0153789
958.264	0.0155270
958.342	0.0155362
958.420	0.0155805
958.498	0.0154724
958.576	0.0154619
958.655	0.0155307
958.733	0.0154510
958.811	0.0155389
958.889	0.0155734
958.967	0.0155798
959.045	0.0155629
959.123	0.0156131
959.201	0.0155508
959.280	0.0156891
959.358	0.0156210
959.436	0.0156485
959.514	0.0157043
959.592	0.0156696
959.670	0.0157796
959.748	0.0157475
959.826	0.0156695
959.905	0.0158283
