05/20/2022	16:06:46	Ver.	4.1	UNKNOWN
Optical Delay	639.989416	Delta X		0.078125	Sweeps	1	Scan Rate	0/0
Coordinates	Axis 1	NaN	Axis 2	NaN	Axis 3	NaN	Axis 4	NaN	Axis 5	NaN	Axis 6	0.000000
TX Power	0.000000	RX Power	0.000000

639.989	0.0152970
640.068	0.0152404
640.146	0.0152593
640.224	0.0152596
640.302	0.0152805
640.380	0.0152428
640.458	0.0152702
640.536	0.0153030
640.614	0.0152139
640.693	0.0152162
640.771	0.0151392
640.849	0.0152494
640.927	0.0152805
641.005	0.0153387
641.083	0.0152021
641.161	0.0152140
641.239	0.0152129
641.318	0.0151832
641.396	0.0152859
641.474	0.0153780
641.552	0.0152474
641.630	0.0152137
641.708	0.0151565
641.786	0.0152716
641.864	0.0153369
641.943	0.0151403
642.021	0.0152336
642.099	0.0152924
642.177	0.0152381
642.255	0.0152315
642.333	0.0153323
642.411	0.0153627
642.489	0.0152376
642.568	0.0152231
642.646	0.0152378
642.724	0.0154295
642.802	0.0153284
642.880	0.0151224
642.958	0.0153117
643.036	0.0153194
643.114	0.0152289
643.193	0.0151257
643.271	0.0151791
643.349	0.0151935
643.427	0.0152839
643.505	0.0152221
643.583	0.0151865
643.661	0.0152103
643.739	0.0153056
643.818	0.0152322
643.896	0.0152319
643.974	0.0152962
644.052	0.0151674
644.130	0.0151840
644.208	0.0151270
644.286	0.0152471
644.364	0.0153154
644.443	0.0153466
644.521	0.0152656
644.599	0.0151302
644.677	0.0153213
644.755	0.0152455
644.833	0.0151643
644.911	0.0152446
644.989	0.0152821
645.068	0.0152991
645.146	0.0152518
645.224	0.0152608
645.302	0.0153017
645.380	0.0152758
645.458	0.0152052
645.536	0.0151361
645.614	0.0151693
645.693	0.0153713
645.771	0.0151830
645.849	0.0152612
645.927	0.0153368
646.005	0.0154099
646.083	0.0153189
646.161	0.0153269
646.239	0.0151781
646.318	0.0152417
646.396	0.0152360
646.474	0.0152917
646.552	0.0153263
646.630	0.0152140
646.708	0.0153107
646.786	0.0153367
646.864	0.0154610
646.943	0.0152182
647.021	0.0153791
647.099	0.0152811
647.177	0.0151678
647.255	0.0153086
647.333	0.0152434
647.411	0.0153329
647.489	0.0153522
647.568	0.0152838
647.646	0.0153339
647.724	0.0151411
647.802	0.0152763
647.880	0.0152977
647.958	0.0153767
648.036	0.0153645
648.114	0.0152370
648.193	0.0154689
648.271	0.0152050
648.349	0.0153697
648.427	0.0152538
648.505	0.0152739
648.583	0.0153321
648.661	0.0151778
648.739	0.0152691
648.818	0.0153204
648.896	0.0152610
648.974	0.0152188
649.052	0.0152753
649.130	0.0152837
649.208	0.0152959
649.286	0.0153092
649.364	0.0152388
649.443	0.0152311
649.521	0.0153119
649.599	0.0153378
649.677	0.0151859
649.755	0.0151831
649.833	0.0152412
649.911	0.0153152
649.989	0.0153720
650.068	0.0153396
650.146	0.0152947
650.224	0.0153170
650.302	0.0153275
650.380	0.0153020
650.458	0.0152418
650.536	0.0153367
650.614	0.0153059
650.693	0.0152759
650.771	0.0154797
650.849	0.0153357
650.927	0.0152518
651.005	0.0153990
651.083	0.0153899
651.161	0.0151827
651.239	0.0150872
651.318	0.0153192
651.396	0.0152781
651.474	0.0152011
651.552	0.0152298
651.630	0.0152146
651.708	0.0151864
651.786	0.0153387
651.864	0.0153335
651.943	0.0152279
652.021	0.0153198
652.099	0.0153732
652.177	0.0151331
652.255	0.0152512
652.333	0.0152618
652.411	0.0152576
652.489	0.0153439
652.568	0.0151985
652.646	0.0152923
652.724	0.0152613
652.802	0.0153066
652.880	0.0153860
652.958	0.0153404
653.036	0.0154262
653.114	0.0154444
653.193	0.0151011
653.271	0.0152210
653.349	0.0153548
653.427	0.0153683
653.505	0.0153062
653.583	0.0151960
653.661	0.0151173
653.739	0.0153000
653.818	0.0152709
653.896	0.0154248
653.974	0.0152519
654.052	0.0153767
654.130	0.0154418
654.208	0.0153652
654.286	0.0153902
654.364	0.0151963
654.443	0.0153661
654.521	0.0153673
654.599	0.0152427
654.677	0.0153024
654.755	0.0152492
654.833	0.0151829
654.911	0.0152512
654.989	0.0152797
655.068	0.0154220
655.146	0.0152592
655.224	0.0151428
655.302	0.0153223
655.380	0.0151839
655.458	0.0152943
655.536	0.0152968
655.614	0.0153283
655.693	0.0152066
655.771	0.0151433
655.849	0.0152032
655.927	0.0152988
656.005	0.0151938
656.083	0.0152258
656.161	0.0154011
656.239	0.0152847
656.318	0.0153307
656.396	0.0152961
656.474	0.0152288
656.552	0.0152940
656.630	0.0153534
656.708	0.0153140
656.786	0.0152322
656.864	0.0152582
656.943	0.0152065
657.021	0.0152242
657.099	0.0152330
657.177	0.0152531
657.255	0.0152907
657.333	0.0152422
657.411	0.0152166
657.489	0.0153727
657.568	0.0152439
657.646	0.0153182
657.724	0.0152444
657.802	0.0152007
657.880	0.0152258
657.958	0.0151962
658.036	0.0152741
658.114	0.0152132
658.193	0.0153122
658.271	0.0152236
658.349	0.0153745
658.427	0.0152943
658.505	0.0152364
658.583	0.0153688
658.661	0.0153493
658.739	0.0151467
658.818	0.0151241
658.896	0.0152920
658.974	0.0152460
659.052	0.0153555
659.130	0.0151978
659.208	0.0152693
659.286	0.0152498
659.364	0.0151540
659.443	0.0153456
659.521	0.0152646
659.599	0.0152625
659.677	0.0152451
659.755	0.0152003
659.833	0.0151994
659.911	0.0152933
659.989	0.0152338
660.068	0.0151809
660.146	0.0152286
660.224	0.0153509
660.302	0.0153632
660.380	0.0152475
660.458	0.0152180
660.536	0.0152605
660.614	0.0153027
660.693	0.0152542
660.771	0.0151830
660.849	0.0153484
660.927	0.0152343
661.005	0.0153435
661.083	0.0151952
661.161	0.0152808
661.239	0.0153175
661.318	0.0151514
661.396	0.0152032
661.474	0.0153139
661.552	0.0152839
661.630	0.0152174
661.708	0.0151122
661.786	0.0152679
661.864	0.0152319
661.943	0.0152643
662.021	0.0153525
662.099	0.0150841
662.177	0.0151692
662.255	0.0153722
662.333	0.0152037
662.411	0.0152261
662.489	0.0152033
662.568	0.0153176
662.646	0.0153123
662.724	0.0151132
662.802	0.0152072
662.880	0.0154201
662.958	0.0151459
663.036	0.0153279
663.114	0.0152537
663.193	0.0153438
663.271	0.0153442
663.349	0.0153107
663.427	0.0152728
663.505	0.0152484
663.583	0.0153392
663.661	0.0153448
663.739	0.0152354
663.818	0.0154145
663.896	0.0152570
663.974	0.0152752
664.052	0.0152651
664.130	0.0152702
664.208	0.0153732
664.286	0.0153664
664.364	0.0152007
664.443	0.0152244
664.521	0.0153333
664.599	0.0152641
664.677	0.0153708
664.755	0.0152847
664.833	0.0152891
664.911	0.0153423
664.989	0.0152120
665.068	0.0153576
665.146	0.0153470
665.224	0.0152592
665.302	0.0152848
665.380	0.0152001
665.458	0.0151464
665.536	0.0152053
665.614	0.0153674
665.693	0.0152996
665.771	0.0153335
665.849	0.0152167
665.927	0.0153178
666.005	0.0153244
666.083	0.0152193
666.161	0.0153210
666.239	0.0154192
666.318	0.0152859
666.396	0.0152183
666.474	0.0153042
666.552	0.0153091
666.630	0.0151701
666.708	0.0152692
666.786	0.0152175
666.864	0.0151492
666.943	0.0149961
667.021	0.0152753
667.099	0.0153678
667.177	0.0153761
667.255	0.0152827
667.333	0.0152364
667.411	0.0151711
667.489	0.0151455
667.568	0.0152518
667.646	0.0154507
667.724	0.0152609
667.802	0.0151408
667.880	0.0152002
667.958	0.0152048
668.036	0.0152307
668.114	0.0154082
668.193	0.0154045
668.271	0.0154420
668.349	0.0152312
668.427	0.0152871
668.505	0.0153112
668.583	0.0152440
668.661	0.0152354
668.739	0.0151778
668.818	0.0152713
668.896	0.0152704
668.974	0.0151860
669.052	0.0152352
669.130	0.0152689
669.208	0.0152214
669.286	0.0151924
669.364	0.0152146
669.443	0.0152653
669.521	0.0152005
669.599	0.0152238
669.677	0.0151625
669.755	0.0152820
669.833	0.0152628
669.911	0.0151627
669.989	0.0152020
670.068	0.0153436
670.146	0.0152789
670.224	0.0151128
670.302	0.0151861
670.380	0.0152624
670.458	0.0152048
670.536	0.0151615
670.614	0.0153416
670.693	0.0152690
670.771	0.0150964
670.849	0.0152088
670.927	0.0151786
671.005	0.0153223
671.083	0.0152257
671.161	0.0152041
671.239	0.0152080
671.318	0.0152828
671.396	0.0153402
671.474	0.0153248
671.552	0.0153197
671.630	0.0153826
671.708	0.0152000
671.786	0.0153313
671.864	0.0154517
671.943	0.0151481
672.021	0.0152069
672.099	0.0152369
672.177	0.0153008
672.255	0.0153469
672.333	0.0153352
672.411	0.0152777
672.489	0.0153496
672.568	0.0152262
672.646	0.0152013
672.724	0.0152647
672.802	0.0154593
672.880	0.0152869
672.958	0.0152846
673.036	0.0152797
673.114	0.0152374
673.193	0.0153564
673.271	0.0153139
673.349	0.0153883
673.427	0.0152652
673.505	0.0154118
673.583	0.0152219
673.661	0.0153551
673.739	0.0153961
673.818	0.0154118
673.896	0.0154680
673.974	0.0154450
674.052	0.0154108
674.130	0.0154375
674.208	0.0153336
674.286	0.0153739
674.364	0.0153763
674.443	0.0155585
674.521	0.0154151
674.599	0.0153143
674.677	0.0154446
674.755	0.0153924
674.833	0.0154437
674.911	0.0153874
674.989	0.0154053
675.068	0.0155190
675.146	0.0155179
675.224	0.0154559
675.302	0.0155048
675.380	0.0154082
675.458	0.0153728
675.536	0.0154016
675.614	0.0154118
675.693	0.0155129
675.771	0.0153410
675.849	0.0154642
675.927	0.0154330
676.005	0.0153633
676.083	0.0151964
676.161	0.0154538
676.239	0.0153190
676.318	0.0153500
676.396	0.0152818
676.474	0.0154138
676.552	0.0153123
676.630	0.0152317
676.708	0.0152925
676.786	0.0152824
676.864	0.0153378
676.943	0.0154697
677.021	0.0152622
677.099	0.0153018
677.177	0.0153820
677.255	0.0152870
677.333	0.0153133
677.411	0.0152897
677.489	0.0153107
677.568	0.0153369
677.646	0.0154363
677.724	0.0153819
677.802	0.0152928
677.880	0.0152042
677.958	0.0152805
678.036	0.0152283
678.114	0.0153426
678.193	0.0153304
678.271	0.0153022
678.349	0.0151813
678.427	0.0151585
678.505	0.0152180
678.583	0.0153432
678.661	0.0153093
678.739	0.0152219
678.818	0.0152746
678.896	0.0153191
678.974	0.0152823
679.052	0.0152854
679.130	0.0152415
679.208	0.0151195
679.286	0.0153179
679.364	0.0152013
679.443	0.0150285
679.521	0.0151992
679.599	0.0152222
679.677	0.0152015
679.755	0.0152932
679.833	0.0152118
679.911	0.0150698
679.989	0.0152827
680.068	0.0151752
680.146	0.0151325
680.224	0.0151905
680.302	0.0152601
680.380	0.0151745
680.458	0.0151548
680.536	0.0151018
680.614	0.0151151
680.693	0.0152408
680.771	0.0149630
680.849	0.0151878
680.927	0.0150771
681.005	0.0150813
681.083	0.0152128
681.161	0.0150354
681.239	0.0151739
681.318	0.0152899
681.396	0.0151048
681.474	0.0150207
681.552	0.0151573
681.630	0.0152113
681.708	0.0151592
681.786	0.0152419
681.864	0.0152203
681.943	0.0152792
682.021	0.0153330
682.099	0.0151808
682.177	0.0152208
682.255	0.0152431
682.333	0.0152745
682.411	0.0151115
682.489	0.0152509
682.568	0.0152335
682.646	0.0152937
682.724	0.0152229
682.802	0.0153189
682.880	0.0152074
682.958	0.0152502
683.036	0.0151582
683.114	0.0152861
683.193	0.0151778
683.271	0.0151088
683.349	0.0151942
683.427	0.0151315
683.505	0.0150292
683.583	0.0151230
683.661	0.0152523
683.739	0.0152380
683.818	0.0151031
683.896	0.0151907
683.974	0.0152929
684.052	0.0152080
684.130	0.0152078
684.208	0.0151239
684.286	0.0152092
684.364	0.0153001
684.443	0.0152043
684.521	0.0151897
684.599	0.0153631
684.677	0.0153582
684.755	0.0153437
684.833	0.0152281
684.911	0.0153838
684.989	0.0153043
685.068	0.0152454
685.146	0.0153397
685.224	0.0152881
685.302	0.0152623
685.380	0.0154089
685.458	0.0153780
685.536	0.0153300
685.614	0.0152164
685.693	0.0152707
685.771	0.0155024
685.849	0.0152696
685.927	0.0153056
686.005	0.0152110
686.083	0.0152748
686.161	0.0152726
686.239	0.0152243
686.318	0.0152204
686.396	0.0152793
686.474	0.0151871
686.552	0.0153749
686.630	0.0154944
686.708	0.0152380
686.786	0.0151974
686.864	0.0152784
686.943	0.0151590
687.021	0.0152383
687.099	0.0152307
687.177	0.0154168
687.255	0.0153159
687.333	0.0153664
687.411	0.0154111
687.489	0.0152724
687.568	0.0152385
687.646	0.0154623
687.724	0.0152874
687.802	0.0152773
687.880	0.0153453
687.958	0.0152198
688.036	0.0150648
688.114	0.0149355
688.193	0.0149212
688.271	0.0148470
688.349	0.0149013
688.427	0.0146995
688.505	0.0145928
688.583	0.0148508
688.661	0.0150453
688.739	0.0152913
688.818	0.0156265
688.896	0.0158619
688.974	0.0161073
689.052	0.0162878
689.130	0.0165772
689.208	0.0168461
689.286	0.0169873
689.364	0.0168425
689.443	0.0166518
689.521	0.0165393
689.599	0.0159793
689.677	0.0152006
689.755	0.0147927
689.833	0.0138686
689.911	0.0131167
689.989	0.0125060
690.068	0.0119828
690.146	0.0116605
690.224	0.0113450
690.302	0.0115256
690.380	0.0118948
690.458	0.0124420
690.536	0.0132661
690.614	0.0143790
690.693	0.0154588
690.771	0.0166972
690.849	0.0178112
690.927	0.0188867
691.005	0.0198985
691.083	0.0206471
691.161	0.0211414
691.239	0.0214977
691.318	0.0211777
691.396	0.0206905
691.474	0.0201007
691.552	0.0193193
691.630	0.0182007
691.708	0.0170178
691.786	0.0158210
691.864	0.0145512
691.943	0.0133906
692.021	0.0120084
692.099	0.0110131
692.177	0.00982498
692.255	0.00876617
692.333	0.00788277
692.411	0.00744606
692.489	0.00687271
692.568	0.00676888
692.646	0.00710007
692.724	0.00765282
692.802	0.00845665
692.880	0.00970863
692.958	0.0113056
693.036	0.0129288
693.114	0.0148713
693.193	0.0171178
693.271	0.0191031
693.349	0.0211551
693.427	0.0231045
693.505	0.0245832
693.583	0.0258395
693.661	0.0265859
693.739	0.0268411
693.818	0.0270172
693.896	0.0264454
693.974	0.0255116
694.052	0.0243750
694.130	0.0228601
694.208	0.0211043
694.286	0.0191660
694.364	0.0172137
694.443	0.0152175
694.521	0.0131712
694.599	0.0111194
694.677	0.00917587
694.755	0.00745659
694.833	0.00596092
694.911	0.00471642
694.989	0.00371155
695.068	0.00294930
695.146	0.00267006
695.224	0.00263016
695.302	0.00293739
695.380	0.00385742
695.458	0.00506310
695.536	0.00630119
695.614	0.00800476
695.693	0.0101450
695.771	0.0124165
695.849	0.0146754
695.927	0.0170137
696.005	0.0193631
696.083	0.0214514
696.161	0.0234968
696.239	0.0251836
696.318	0.0265726
696.396	0.0277531
696.474	0.0284608
696.552	0.0286218
696.630	0.0281918
696.708	0.0275649
696.786	0.0265744
696.864	0.0251380
696.943	0.0235902
697.021	0.0217132
697.099	0.0196507
697.177	0.0175819
697.255	0.0154010
697.333	0.0136335
697.411	0.0117561
697.489	0.0104011
697.568	0.00887657
697.646	0.00777359
697.724	0.00691490
697.802	0.00653328
697.880	0.00617432
697.958	0.00628006
698.036	0.00664886
698.114	0.00689980
698.193	0.00777046
698.271	0.00849701
698.349	0.00934807
698.427	0.0104213
698.505	0.0114035
698.583	0.0122260
698.661	0.0132574
698.739	0.0142346
698.818	0.0153575
698.896	0.0161577
698.974	0.0170456
699.052	0.0177904
699.130	0.0184526
699.208	0.0188167
699.286	0.0194778
699.364	0.0198933
699.443	0.0202527
699.521	0.0202763
699.599	0.0201800
699.677	0.0201754
699.755	0.0199207
699.833	0.0194104
699.911	0.0188714
699.989	0.0182391
700.068	0.0178278
700.146	0.0171569
700.224	0.0165424
700.302	0.0159570
700.380	0.0152852
700.458	0.0147430
700.536	0.0143037
700.614	0.0139063
700.693	0.0136473
700.771	0.0134352
700.849	0.0131882
700.927	0.0133894
701.005	0.0134853
701.083	0.0135049
701.161	0.0136972
701.239	0.0139317
701.318	0.0142247
701.396	0.0144682
701.474	0.0147150
701.552	0.0149295
701.630	0.0152013
701.708	0.0153876
701.786	0.0155962
701.864	0.0154616
701.943	0.0157320
702.021	0.0158051
702.099	0.0159594
702.177	0.0158494
702.255	0.0156792
702.333	0.0156226
702.411	0.0156011
702.489	0.0154379
702.568	0.0152501
702.646	0.0151051
702.724	0.0150635
702.802	0.0148709
702.880	0.0146606
702.958	0.0145765
703.036	0.0142979
703.114	0.0142378
703.193	0.0140368
703.271	0.0139732
703.349	0.0139349
703.427	0.0138783
703.505	0.0137637
703.583	0.0136446
703.661	0.0137234
703.739	0.0137947
703.818	0.0140285
703.896	0.0142529
703.974	0.0144513
704.052	0.0148633
704.130	0.0152828
704.208	0.0157305
704.286	0.0160174
704.364	0.0165272
704.443	0.0170445
704.521	0.0172958
704.599	0.0173613
704.677	0.0175047
704.755	0.0176716
704.833	0.0176607
704.911	0.0175663
704.989	0.0174291
705.068	0.0173613
705.146	0.0171655
705.224	0.0167751
705.302	0.0164652
705.380	0.0160201
705.458	0.0158002
705.536	0.0156229
705.614	0.0152280
705.693	0.0149216
705.771	0.0146553
705.849	0.0144403
705.927	0.0142828
706.005	0.0139988
706.083	0.0139283
706.161	0.0138456
706.239	0.0137902
706.318	0.0137865
706.396	0.0136646
706.474	0.0137736
706.552	0.0139041
706.630	0.0139487
706.708	0.0141591
706.786	0.0142959
706.864	0.0144576
706.943	0.0146506
707.021	0.0148247
707.099	0.0150510
707.177	0.0153420
707.255	0.0153354
707.333	0.0156847
707.411	0.0159964
707.489	0.0160856
707.568	0.0161182
707.646	0.0161349
707.724	0.0160918
707.802	0.0162203
707.880	0.0161160
707.958	0.0161569
708.036	0.0159230
708.114	0.0158899
708.193	0.0156722
708.271	0.0154796
708.349	0.0152101
708.427	0.0151199
708.505	0.0149014
708.583	0.0146330
708.661	0.0147149
708.739	0.0148376
708.818	0.0148847
708.896	0.0147646
708.974	0.0148750
709.052	0.0149404
709.130	0.0150404
709.208	0.0149950
709.286	0.0150209
709.364	0.0150143
709.443	0.0149115
709.521	0.0151738
709.599	0.0152407
709.677	0.0152103
709.755	0.0151225
709.833	0.0152207
709.911	0.0153191
709.989	0.0151691
710.068	0.0152888
710.146	0.0151414
710.224	0.0153542
710.302	0.0153454
710.380	0.0151840
710.458	0.0153292
710.536	0.0154641
710.614	0.0154286
710.693	0.0154611
710.771	0.0154234
710.849	0.0153803
710.927	0.0155321
711.005	0.0154607
711.083	0.0154240
711.161	0.0154803
711.239	0.0155655
711.318	0.0156203
711.396	0.0155042
711.474	0.0158607
711.552	0.0157651
711.630	0.0158191
711.708	0.0158114
711.786	0.0158151
711.864	0.0158448
711.943	0.0157716
712.021	0.0157310
712.099	0.0156479
712.177	0.0154701
712.255	0.0153454
712.333	0.0153119
712.411	0.0151042
712.489	0.0149790
712.568	0.0151166
712.646	0.0149768
712.724	0.0148296
712.802	0.0145472
712.880	0.0145592
712.958	0.0143630
713.036	0.0145346
713.114	0.0143520
713.193	0.0145262
713.271	0.0143794
713.349	0.0143777
713.427	0.0144986
713.505	0.0145772
713.583	0.0146841
713.661	0.0147260
713.739	0.0150015
713.818	0.0150923
713.896	0.0152437
713.974	0.0155196
714.052	0.0155477
714.130	0.0157539
714.208	0.0157269
714.286	0.0158415
714.364	0.0158041
714.443	0.0158106
714.521	0.0157713
714.599	0.0156942
714.677	0.0157327
714.755	0.0156051
714.833	0.0155197
714.911	0.0155141
714.989	0.0155917
715.068	0.0153999
715.146	0.0153513
715.224	0.0152805
715.302	0.0152796
715.380	0.0153534
715.458	0.0153777
715.536	0.0151618
715.614	0.0151046
715.693	0.0148563
715.771	0.0148479
715.849	0.0149103
715.927	0.0148252
716.005	0.0147874
716.083	0.0148055
716.161	0.0149386
716.239	0.0149522
716.318	0.0149104
716.396	0.0150281
716.474	0.0152439
716.552	0.0152911
716.630	0.0152208
716.708	0.0154641
716.786	0.0156299
716.864	0.0157225
716.943	0.0155756
717.021	0.0156615
717.099	0.0157545
717.177	0.0157129
717.255	0.0156387
717.333	0.0156175
717.411	0.0155897
717.489	0.0154995
717.568	0.0154375
717.646	0.0153267
717.724	0.0153299
717.802	0.0152861
717.880	0.0152333
717.958	0.0150774
718.036	0.0150853
718.114	0.0150214
718.193	0.0149588
718.271	0.0150146
718.349	0.0151236
718.427	0.0150183
718.505	0.0150840
718.583	0.0152586
718.661	0.0152464
718.739	0.0154617
718.818	0.0156342
718.896	0.0155961
718.974	0.0158351
719.052	0.0157657
719.130	0.0155212
719.208	0.0157439
719.286	0.0156489
719.364	0.0153928
719.443	0.0152424
719.521	0.0151426
719.599	0.0149097
719.677	0.0148466
719.755	0.0147163
719.833	0.0147144
719.911	0.0145311
719.989	0.0145966
720.068	0.0145403
720.146	0.0145344
720.224	0.0145304
720.302	0.0144449
720.380	0.0145008
720.458	0.0147086
720.536	0.0146275
720.614	0.0147826
720.693	0.0148005
720.771	0.0148509
720.849	0.0149380
720.927	0.0149997
721.005	0.0151311
721.083	0.0151605
721.161	0.0154563
721.239	0.0156189
721.318	0.0156213
721.396	0.0158459
721.474	0.0159944
721.552	0.0160938
721.630	0.0163036
721.708	0.0163744
721.786	0.0163087
721.864	0.0163766
721.943	0.0163838
722.021	0.0163198
722.099	0.0162746
722.177	0.0162469
722.255	0.0159564
722.333	0.0157930
722.411	0.0155978
722.489	0.0153583
722.568	0.0153353
722.646	0.0151977
722.724	0.0150884
722.802	0.0149063
722.880	0.0147043
722.958	0.0145932
723.036	0.0145264
723.114	0.0144527
723.193	0.0145393
723.271	0.0142482
723.349	0.0143648
723.427	0.0146335
723.505	0.0146209
723.583	0.0147006
723.661	0.0148389
723.739	0.0148608
723.818	0.0149924
723.896	0.0153014
723.974	0.0153246
724.052	0.0156794
724.130	0.0157793
724.208	0.0158501
724.286	0.0160618
724.364	0.0160039
724.443	0.0160256
724.521	0.0159071
724.599	0.0159547
724.677	0.0159872
724.755	0.0158152
724.833	0.0157335
724.911	0.0154995
724.989	0.0154274
725.068	0.0152833
725.146	0.0151748
725.224	0.0150200
725.302	0.0148950
725.380	0.0148067
725.458	0.0146848
725.536	0.0146830
725.614	0.0144733
725.693	0.0145269
725.771	0.0146176
725.849	0.0145706
725.927	0.0145667
726.005	0.0145678
726.083	0.0147544
726.161	0.0147366
726.239	0.0149159
726.318	0.0149718
726.396	0.0150974
726.474	0.0151711
726.552	0.0155116
726.630	0.0153275
726.708	0.0153684
726.786	0.0154660
726.864	0.0155715
726.943	0.0155637
727.021	0.0154314
727.099	0.0155516
727.177	0.0156656
727.255	0.0156245
727.333	0.0156075
727.411	0.0155881
727.489	0.0158757
727.568	0.0158749
727.646	0.0158179
727.724	0.0157024
727.802	0.0157470
727.880	0.0156649
727.958	0.0155295
728.036	0.0156233
728.114	0.0153575
728.193	0.0151282
728.271	0.0152308
728.349	0.0151315
728.427	0.0151134
728.505	0.0151566
728.583	0.0150733
728.661	0.0149523
728.739	0.0152303
728.818	0.0154169
728.896	0.0151113
728.974	0.0152810
729.052	0.0153366
729.130	0.0155022
729.208	0.0154671
729.286	0.0154200
729.364	0.0156052
729.443	0.0155382
729.521	0.0153727
729.599	0.0155590
729.677	0.0155816
729.755	0.0154632
729.833	0.0154872
729.911	0.0153535
729.989	0.0155094
730.068	0.0152924
730.146	0.0152731
730.224	0.0152177
730.302	0.0152248
730.380	0.0150836
730.458	0.0149972
730.536	0.0148924
730.614	0.0148322
730.693	0.0146827
730.771	0.0146621
730.849	0.0147101
730.927	0.0147510
731.005	0.0146939
731.083	0.0148312
731.161	0.0150179
731.239	0.0148589
731.318	0.0150581
731.396	0.0149648
731.474	0.0148314
731.552	0.0150774
731.630	0.0153207
731.708	0.0152494
731.786	0.0152793
731.864	0.0152711
731.943	0.0153206
732.021	0.0154337
732.099	0.0155608
732.177	0.0155421
732.255	0.0156493
732.333	0.0156483
732.411	0.0156950
732.489	0.0155840
732.568	0.0155301
732.646	0.0154491
732.724	0.0154630
732.802	0.0153942
732.880	0.0151408
732.958	0.0152174
733.036	0.0151846
733.114	0.0150852
733.193	0.0150724
733.271	0.0150130
733.349	0.0149041
733.427	0.0150275
733.505	0.0150095
733.583	0.0150351
733.661	0.0151089
733.739	0.0152402
733.818	0.0152829
733.896	0.0153265
733.974	0.0152105
734.052	0.0154395
734.130	0.0153653
734.208	0.0153593
734.286	0.0154962
734.364	0.0155091
734.443	0.0156042
734.521	0.0156374
734.599	0.0156605
734.677	0.0156412
734.755	0.0158486
734.833	0.0156953
734.911	0.0155990
734.989	0.0155582
735.068	0.0156310
735.146	0.0155698
735.224	0.0155944
735.302	0.0153664
735.380	0.0152618
735.458	0.0153481
735.536	0.0152341
735.614	0.0151697
735.693	0.0150636
735.771	0.0149960
735.849	0.0148890
735.927	0.0148304
736.005	0.0148703
736.083	0.0148225
736.161	0.0147171
736.239	0.0147402
736.318	0.0148003
736.396	0.0147466
736.474	0.0148159
736.552	0.0147891
736.630	0.0148196
736.708	0.0150233
736.786	0.0150197
736.864	0.0149939
736.943	0.0153365
737.021	0.0154218
737.099	0.0155185
737.177	0.0153881
737.255	0.0155828
737.333	0.0156425
737.411	0.0156040
737.489	0.0157439
737.568	0.0155774
737.646	0.0155775
737.724	0.0155894
737.802	0.0156316
737.880	0.0156593
737.958	0.0155659
738.036	0.0155949
738.114	0.0154694
738.193	0.0154044
738.271	0.0155612
738.349	0.0156219
738.427	0.0153911
738.505	0.0154247
738.583	0.0153770
738.661	0.0152614
738.739	0.0153335
738.818	0.0152237
738.896	0.0150459
738.974	0.0150115
739.052	0.0149229
739.130	0.0149097
739.208	0.0148506
739.286	0.0147605
739.364	0.0147202
739.443	0.0148030
739.521	0.0147056
739.599	0.0149345
739.677	0.0149384
739.755	0.0151089
739.833	0.0150535
739.911	0.0150696
739.989	0.0153635
740.068	0.0153785
740.146	0.0153546
740.224	0.0154303
740.302	0.0156181
740.380	0.0155534
740.458	0.0155965
740.536	0.0156570
740.614	0.0157394
740.693	0.0157002
740.771	0.0155843
740.849	0.0156488
740.927	0.0155422
741.005	0.0156299
741.083	0.0154374
741.161	0.0153447
741.239	0.0151962
741.318	0.0150930
741.396	0.0150700
741.474	0.0150445
741.552	0.0151181
741.630	0.0150248
741.708	0.0151604
741.786	0.0151784
741.864	0.0151804
741.943	0.0151328
742.021	0.0153066
742.099	0.0152675
742.177	0.0152966
742.255	0.0154237
742.333	0.0154057
742.411	0.0153703
742.489	0.0153832
742.568	0.0154526
742.646	0.0154678
742.724	0.0153386
742.802	0.0153249
742.880	0.0154173
742.958	0.0154424
743.036	0.0151487
743.114	0.0152496
743.193	0.0151978
743.271	0.0151789
743.349	0.0152507
743.427	0.0150283
743.505	0.0151459
743.583	0.0151130
743.661	0.0150893
743.739	0.0150297
743.818	0.0152010
743.896	0.0150365
743.974	0.0151460
744.052	0.0151421
744.130	0.0152154
744.208	0.0152364
744.286	0.0150948
744.364	0.0151454
744.443	0.0152884
744.521	0.0152714
744.599	0.0151171
744.677	0.0153782
744.755	0.0153488
744.833	0.0153625
744.911	0.0153314
744.989	0.0153912
745.068	0.0154673
745.146	0.0154546
745.224	0.0153705
745.302	0.0153589
745.380	0.0153952
745.458	0.0153706
745.536	0.0153773
745.614	0.0152894
745.693	0.0154680
745.771	0.0153410
745.849	0.0154307
745.927	0.0153308
746.005	0.0152248
746.083	0.0152652
746.161	0.0153732
746.239	0.0153446
746.318	0.0151472
746.396	0.0150973
746.474	0.0149663
746.552	0.0150125
746.630	0.0149566
746.708	0.0149005
746.786	0.0149181
746.864	0.0149789
746.943	0.0149363
747.021	0.0148299
747.099	0.0148734
747.177	0.0149737
747.255	0.0151136
747.333	0.0151175
747.411	0.0150294
747.489	0.0152543
747.568	0.0154223
747.646	0.0153609
747.724	0.0155544
747.802	0.0156094
747.880	0.0156813
747.958	0.0155483
748.036	0.0155652
748.114	0.0156919
748.193	0.0155540
748.271	0.0155772
748.349	0.0155629
748.427	0.0153748
748.505	0.0154987
748.583	0.0153188
748.661	0.0153268
748.739	0.0152438
748.818	0.0153992
748.896	0.0153944
748.974	0.0153164
749.052	0.0152299
749.130	0.0151289
749.208	0.0152316
749.286	0.0151901
749.364	0.0152616
749.443	0.0151761
749.521	0.0152065
749.599	0.0151826
749.677	0.0152575
749.755	0.0153022
749.833	0.0152901
749.911	0.0154834
749.989	0.0152968
750.068	0.0154166
750.146	0.0154024
750.224	0.0154234
750.302	0.0153558
750.380	0.0153069
750.458	0.0152671
750.536	0.0152410
750.614	0.0153689
750.693	0.0153414
750.771	0.0153311
750.849	0.0154941
750.927	0.0154465
751.005	0.0154044
751.083	0.0153396
751.161	0.0153984
751.239	0.0154906
751.318	0.0153388
751.396	0.0152411
751.474	0.0153108
751.552	0.0151155
751.630	0.0151364
751.708	0.0151059
751.786	0.0150655
751.864	0.0150899
751.943	0.0150650
752.021	0.0150270
752.099	0.0149722
752.177	0.0149272
752.255	0.0149625
752.333	0.0151289
752.411	0.0151583
752.489	0.0151771
752.568	0.0152383
752.646	0.0152145
752.724	0.0152345
752.802	0.0152605
752.880	0.0153458
752.958	0.0153266
753.036	0.0154420
753.114	0.0153685
753.193	0.0153983
753.271	0.0153775
753.349	0.0153421
753.427	0.0153123
753.505	0.0152511
753.583	0.0152831
753.661	0.0154465
753.739	0.0152528
753.818	0.0151967
753.896	0.0151424
753.974	0.0152825
754.052	0.0151981
754.130	0.0151829
754.208	0.0151566
754.286	0.0151179
754.364	0.0151114
754.443	0.0151529
754.521	0.0150378
754.599	0.0150005
754.677	0.0150618
754.755	0.0150710
754.833	0.0151340
754.911	0.0150439
754.989	0.0151979
755.068	0.0153456
755.146	0.0152119
755.224	0.0153001
755.302	0.0153814
755.380	0.0153662
755.458	0.0153770
755.536	0.0155032
755.614	0.0154016
755.693	0.0153093
755.771	0.0154808
755.849	0.0154776
755.927	0.0155249
756.005	0.0154858
756.083	0.0155309
756.161	0.0156235
756.239	0.0155012
756.318	0.0154724
756.396	0.0154640
756.474	0.0155290
756.552	0.0155112
756.630	0.0153844
756.708	0.0153556
756.786	0.0152313
756.864	0.0153986
756.943	0.0152499
757.021	0.0151167
757.099	0.0151980
757.177	0.0152611
757.255	0.0150810
757.333	0.0150781
757.411	0.0150661
757.489	0.0151473
757.568	0.0150858
757.646	0.0151291
757.724	0.0149708
757.802	0.0150063
757.880	0.0151743
757.958	0.0150640
758.036	0.0151195
758.114	0.0150956
758.193	0.0150262
758.271	0.0152004
758.349	0.0152117
758.427	0.0152254
758.505	0.0152320
758.583	0.0152105
758.661	0.0152895
758.739	0.0153994
758.818	0.0154282
758.896	0.0152839
758.974	0.0154646
759.052	0.0152702
759.130	0.0152020
759.208	0.0152460
759.286	0.0153100
759.364	0.0152841
759.443	0.0153094
759.521	0.0151637
759.599	0.0151649
759.677	0.0152710
759.755	0.0152608
759.833	0.0151075
759.911	0.0150339
759.989	0.0151431
760.068	0.0151346
760.146	0.0152284
760.224	0.0153071
760.302	0.0154427
760.380	0.0152409
760.458	0.0152519
760.536	0.0152797
760.614	0.0152419
760.693	0.0155343
760.771	0.0153071
760.849	0.0153697
760.927	0.0153802
761.005	0.0153471
761.083	0.0152645
761.161	0.0154696
761.239	0.0155309
761.318	0.0154327
761.396	0.0154526
761.474	0.0154562
761.552	0.0154461
761.630	0.0156213
761.708	0.0156182
761.786	0.0155905
761.864	0.0156214
761.943	0.0156243
762.021	0.0156871
762.099	0.0155557
762.177	0.0156075
762.255	0.0155354
762.333	0.0155844
762.411	0.0155792
762.489	0.0154309
762.568	0.0152660
762.646	0.0153304
762.724	0.0153535
762.802	0.0152839
762.880	0.0150412
762.958	0.0150626
763.036	0.0151942
763.114	0.0150918
763.193	0.0150789
763.271	0.0151553
763.349	0.0151277
763.427	0.0150558
763.505	0.0152596
763.583	0.0152868
763.661	0.0150779
763.739	0.0151408
763.818	0.0150272
763.896	0.0151059
763.974	0.0151717
764.052	0.0152110
764.130	0.0151334
764.208	0.0150472
764.286	0.0151867
764.364	0.0151512
764.443	0.0151665
764.521	0.0150289
764.599	0.0149923
764.677	0.0152296
764.755	0.0150999
764.833	0.0150108
764.911	0.0152186
764.989	0.0152496
765.068	0.0150787
765.146	0.0150329
765.224	0.0151135
765.302	0.0151045
765.380	0.0151046
765.458	0.0150851
765.536	0.0149855
765.614	0.0152483
765.693	0.0151350
765.771	0.0151371
765.849	0.0151109
765.927	0.0151481
766.005	0.0151262
766.083	0.0152077
766.161	0.0152011
766.239	0.0152908
766.318	0.0153627
766.396	0.0153650
766.474	0.0153810
766.552	0.0152671
766.630	0.0155356
766.708	0.0155955
766.786	0.0155988
766.864	0.0156162
766.943	0.0155232
767.021	0.0154552
767.099	0.0156248
767.177	0.0155062
767.255	0.0155605
767.333	0.0155036
767.411	0.0156295
767.489	0.0154874
767.568	0.0154083
767.646	0.0153733
767.724	0.0153954
767.802	0.0153151
767.880	0.0153489
767.958	0.0152643
768.036	0.0152251
768.114	0.0152771
768.193	0.0151923
768.271	0.0151807
768.349	0.0152189
768.427	0.0152858
768.505	0.0152172
768.583	0.0152228
768.661	0.0151098
768.739	0.0151856
768.818	0.0151350
768.896	0.0152231
768.974	0.0151652
769.052	0.0151056
769.130	0.0151627
769.208	0.0150780
769.286	0.0150953
769.364	0.0150554
769.443	0.0152567
769.521	0.0152044
769.599	0.0152673
769.677	0.0152840
769.755	0.0152465
769.833	0.0152421
769.911	0.0152267
769.989	0.0153696
770.068	0.0153436
770.146	0.0152005
770.224	0.0152624
770.302	0.0153261
770.380	0.0152753
770.458	0.0153300
770.536	0.0152421
770.614	0.0152195
770.693	0.0151436
770.771	0.0150995
770.849	0.0151353
770.927	0.0151411
771.005	0.0152567
771.083	0.0151616
771.161	0.0152908
771.239	0.0152879
771.318	0.0153962
771.396	0.0153386
771.474	0.0153013
771.552	0.0152390
771.630	0.0153249
771.708	0.0152782
771.786	0.0155000
771.864	0.0155778
771.943	0.0153729
772.021	0.0154350
772.099	0.0152981
772.177	0.0153151
772.255	0.0154584
772.333	0.0153991
772.411	0.0152894
772.489	0.0154746
772.568	0.0154371
772.646	0.0155671
772.724	0.0154919
772.802	0.0154654
772.880	0.0154990
772.958	0.0153475
773.036	0.0154357
773.114	0.0154371
773.193	0.0153712
773.271	0.0153786
773.349	0.0154831
773.427	0.0153542
773.505	0.0151601
773.583	0.0152926
773.661	0.0151741
773.739	0.0151694
773.818	0.0151675
773.896	0.0150632
773.974	0.0150619
774.052	0.0151924
774.130	0.0151903
774.208	0.0151405
774.286	0.0152054
774.364	0.0151823
774.443	0.0151242
774.521	0.0152908
774.599	0.0151448
774.677	0.0152826
774.755	0.0152882
774.833	0.0153478
774.911	0.0152198
774.989	0.0153245
775.068	0.0152219
775.146	0.0153468
775.224	0.0154014
775.302	0.0151078
775.380	0.0151949
775.458	0.0152917
775.536	0.0152040
775.614	0.0151833
775.693	0.0152321
775.771	0.0152900
775.849	0.0151711
775.927	0.0152167
776.005	0.0152207
776.083	0.0151693
776.161	0.0151764
776.239	0.0152265
776.318	0.0151637
776.396	0.0152605
776.474	0.0152406
776.552	0.0153249
776.630	0.0152009
776.708	0.0151905
776.786	0.0152425
776.864	0.0152339
776.943	0.0152211
777.021	0.0152998
777.099	0.0151416
777.177	0.0151549
777.255	0.0151647
777.333	0.0151475
777.411	0.0151843
777.489	0.0150393
777.568	0.0151601
777.646	0.0151456
777.724	0.0151620
777.802	0.0151267
777.880	0.0152595
777.958	0.0152691
778.036	0.0153367
778.114	0.0153263
778.193	0.0152116
778.271	0.0153521
778.349	0.0152428
778.427	0.0151820
778.505	0.0152627
778.583	0.0153274
778.661	0.0151542
778.739	0.0152648
778.818	0.0151780
778.896	0.0152264
778.974	0.0152988
779.052	0.0152046
779.130	0.0153256
779.208	0.0151226
779.286	0.0152874
779.364	0.0152399
779.443	0.0151639
779.521	0.0152389
779.599	0.0152126
779.677	0.0151645
779.755	0.0150432
779.833	0.0152869
779.911	0.0152253
779.989	0.0152067
780.068	0.0153803
780.146	0.0152678
780.224	0.0153768
780.302	0.0151382
780.380	0.0152446
780.458	0.0151994
780.536	0.0152032
780.614	0.0152237
780.693	0.0152554
780.771	0.0152303
780.849	0.0152110
780.927	0.0152465
781.005	0.0151225
781.083	0.0152594
781.161	0.0152296
781.239	0.0152699
781.318	0.0152229
781.396	0.0152424
781.474	0.0153168
781.552	0.0152522
781.630	0.0152182
781.708	0.0153510
781.786	0.0152336
781.864	0.0152792
781.943	0.0151491
782.021	0.0152204
782.099	0.0152216
782.177	0.0152205
782.255	0.0149729
782.333	0.0150411
782.411	0.0152128
782.489	0.0150233
782.568	0.0151189
782.646	0.0150286
782.724	0.0150322
782.802	0.0151378
782.880	0.0151326
782.958	0.0151744
783.036	0.0151852
783.114	0.0152721
783.193	0.0151469
783.271	0.0151320
783.349	0.0152649
783.427	0.0151234
783.505	0.0153063
783.583	0.0152454
783.661	0.0151981
783.739	0.0151804
783.818	0.0152872
783.896	0.0152776
783.974	0.0154108
784.052	0.0153429
784.130	0.0153506
784.208	0.0154938
784.286	0.0155170
784.364	0.0154219
784.443	0.0153456
784.521	0.0155440
784.599	0.0154972
784.677	0.0153860
784.755	0.0155500
784.833	0.0153763
784.911	0.0154247
784.989	0.0155471
785.068	0.0153785
785.146	0.0152414
785.224	0.0155199
785.302	0.0153650
785.380	0.0154096
785.458	0.0152675
785.536	0.0153486
785.614	0.0151876
785.693	0.0151317
785.771	0.0152055
785.849	0.0151010
785.927	0.0151804
786.005	0.0151932
786.083	0.0150771
786.161	0.0150379
786.239	0.0150146
786.318	0.0150108
786.396	0.0149140
786.474	0.0147392
786.552	0.0147688
786.630	0.0148059
786.708	0.0148343
786.786	0.0149288
786.864	0.0149146
786.943	0.0150259
787.021	0.0151643
787.099	0.0150283
787.177	0.0151602
787.255	0.0152931
787.333	0.0154007
787.411	0.0155173
787.489	0.0156333
787.568	0.0156990
787.646	0.0159318
787.724	0.0157008
787.802	0.0156778
787.880	0.0158064
787.958	0.0156924
788.036	0.0155530
788.114	0.0155100
788.193	0.0155500
788.271	0.0152490
788.349	0.0150315
788.427	0.0149931
788.505	0.0149908
788.583	0.0147495
788.661	0.0144619
788.739	0.0145161
788.818	0.0145233
788.896	0.0144203
788.974	0.0142629
789.052	0.0143655
789.130	0.0143980
789.208	0.0144966
789.286	0.0145028
789.364	0.0147742
789.443	0.0150417
789.521	0.0151221
789.599	0.0153146
789.677	0.0154624
789.755	0.0156518
789.833	0.0159525
789.911	0.0160675
789.989	0.0162877
790.068	0.0162367
790.146	0.0164066
790.224	0.0164152
790.302	0.0165459
790.380	0.0161898
790.458	0.0161990
790.536	0.0162624
790.614	0.0159956
790.693	0.0157677
790.771	0.0156066
790.849	0.0153937
790.927	0.0152309
791.005	0.0151157
791.083	0.0146231
791.161	0.0144408
791.239	0.0142850
791.318	0.0140972
791.396	0.0139587
791.474	0.0138889
791.552	0.0138625
791.630	0.0137888
791.708	0.0137353
791.786	0.0138934
791.864	0.0139348
791.943	0.0139176
792.021	0.0141479
792.099	0.0144802
792.177	0.0145955
792.255	0.0149384
792.333	0.0152245
792.411	0.0153426
792.489	0.0156534
792.568	0.0160091
792.646	0.0160782
792.724	0.0161985
792.802	0.0164626
792.880	0.0165125
792.958	0.0163892
793.036	0.0164450
793.114	0.0165335
793.193	0.0164097
793.271	0.0163064
793.349	0.0161777
793.427	0.0160249
793.505	0.0159512
793.583	0.0158866
793.661	0.0156288
793.739	0.0153311
793.818	0.0154189
793.896	0.0152841
793.974	0.0151140
794.052	0.0149455
794.130	0.0149145
794.208	0.0149221
794.286	0.0147863
794.364	0.0147088
794.443	0.0146738
794.521	0.0146097
794.599	0.0147208
794.677	0.0148286
794.755	0.0146897
794.833	0.0145924
794.911	0.0147215
794.989	0.0147491
795.068	0.0147723
795.146	0.0148681
795.224	0.0148170
795.302	0.0148623
795.380	0.0149033
795.458	0.0148876
795.536	0.0150392
795.614	0.0151423
795.693	0.0150303
795.771	0.0151550
795.849	0.0152490
795.927	0.0153384
796.005	0.0155005
796.083	0.0154733
796.161	0.0155062
796.239	0.0155894
796.318	0.0156316
796.396	0.0156636
796.474	0.0156413
796.552	0.0158748
796.630	0.0157194
796.708	0.0159214
796.786	0.0158411
796.864	0.0158793
796.943	0.0157394
797.021	0.0157572
797.099	0.0156396
797.177	0.0155701
797.255	0.0153979
797.333	0.0153899
797.411	0.0154305
797.489	0.0154121
797.568	0.0153281
797.646	0.0153671
797.724	0.0152430
797.802	0.0150509
797.880	0.0151325
797.958	0.0151088
798.036	0.0149733
798.114	0.0150492
798.193	0.0148778
798.271	0.0147336
798.349	0.0147423
798.427	0.0147264
798.505	0.0147208
798.583	0.0147758
798.661	0.0147913
798.739	0.0145773
798.818	0.0147233
798.896	0.0148573
798.974	0.0150617
799.052	0.0150847
799.130	0.0151274
799.208	0.0151139
799.286	0.0151976
799.364	0.0152757
799.443	0.0153127
799.521	0.0153281
799.599	0.0153107
799.677	0.0154764
799.755	0.0154996
799.833	0.0155453
799.911	0.0154713
799.989	0.0154236
800.068	0.0154263
800.146	0.0153711
800.224	0.0156057
800.302	0.0155636
800.380	0.0154363
800.458	0.0155241
800.536	0.0154446
800.614	0.0154320
800.693	0.0153391
800.771	0.0153716
800.849	0.0153636
800.927	0.0153256
801.005	0.0153551
801.083	0.0153613
801.161	0.0152996
801.239	0.0151826
801.318	0.0152339
801.396	0.0150896
801.474	0.0151515
801.552	0.0151343
801.630	0.0150584
801.708	0.0150863
801.786	0.0151012
801.864	0.0150000
801.943	0.0149310
802.021	0.0150173
802.099	0.0150443
802.177	0.0149919
802.255	0.0149453
802.333	0.0150695
802.411	0.0151251
802.489	0.0151621
802.568	0.0151832
802.646	0.0153165
802.724	0.0154897
802.802	0.0154122
802.880	0.0154144
802.958	0.0154659
803.036	0.0153091
803.114	0.0153633
803.193	0.0152914
803.271	0.0154019
803.349	0.0153963
803.427	0.0152847
803.505	0.0152927
803.583	0.0153246
803.661	0.0152706
803.739	0.0151788
803.818	0.0150817
803.896	0.0152064
803.974	0.0150316
804.052	0.0151300
804.130	0.0152433
804.208	0.0150516
804.286	0.0150416
804.364	0.0149122
804.443	0.0150133
804.521	0.0149662
804.599	0.0151534
804.677	0.0151376
804.755	0.0151374
804.833	0.0150270
804.911	0.0150414
804.989	0.0149309
805.068	0.0150085
805.146	0.0151837
805.224	0.0150091
805.302	0.0150994
805.380	0.0151389
805.458	0.0151105
805.536	0.0153264
805.614	0.0152735
805.693	0.0153219
805.771	0.0153681
805.849	0.0154625
805.927	0.0154639
806.005	0.0152935
806.083	0.0154043
806.161	0.0152475
806.239	0.0152618
806.318	0.0153003
806.396	0.0152525
806.474	0.0153108
806.552	0.0153474
806.630	0.0151865
806.708	0.0151723
806.786	0.0151461
806.864	0.0151810
806.943	0.0151501
807.021	0.0151407
807.099	0.0151965
807.177	0.0150780
807.255	0.0151582
807.333	0.0151989
807.411	0.0151399
807.489	0.0152005
807.568	0.0151534
807.646	0.0153194
807.724	0.0153115
807.802	0.0153838
807.880	0.0153858
807.958	0.0153554
808.036	0.0153248
808.114	0.0152460
808.193	0.0152602
808.271	0.0154511
808.349	0.0155594
808.427	0.0155021
808.505	0.0155159
808.583	0.0155099
808.661	0.0153827
808.739	0.0153493
808.818	0.0154190
808.896	0.0153471
808.974	0.0152959
809.052	0.0151291
809.130	0.0153039
809.208	0.0151778
809.286	0.0152266
809.364	0.0150838
809.443	0.0150132
809.521	0.0152604
809.599	0.0150053
809.677	0.0150883
809.755	0.0149747
809.833	0.0149375
809.911	0.0149667
809.989	0.0149943
810.068	0.0149782
810.146	0.0148977
810.224	0.0150428
810.302	0.0148925
810.380	0.0149162
810.458	0.0150468
810.536	0.0150460
810.614	0.0149739
810.693	0.0150613
810.771	0.0151992
810.849	0.0150196
810.927	0.0151359
811.005	0.0151911
811.083	0.0152375
811.161	0.0152607
811.239	0.0151481
811.318	0.0152868
811.396	0.0153347
811.474	0.0152965
811.552	0.0153707
811.630	0.0152267
811.708	0.0152381
811.786	0.0151875
811.864	0.0151175
811.943	0.0152811
812.021	0.0152889
812.099	0.0151966
812.177	0.0153188
812.255	0.0151519
812.333	0.0151575
812.411	0.0151859
812.489	0.0152798
812.568	0.0151676
812.646	0.0151729
812.724	0.0152102
812.802	0.0153403
812.880	0.0152107
812.958	0.0151928
813.036	0.0151308
813.114	0.0151868
813.193	0.0151276
813.271	0.0152862
813.349	0.0151927
813.427	0.0151578
813.505	0.0150985
813.583	0.0151341
813.661	0.0151054
813.739	0.0151804
813.818	0.0152189
813.896	0.0152017
813.974	0.0153841
814.052	0.0154169
814.130	0.0153562
814.208	0.0153977
814.286	0.0155095
814.364	0.0153767
814.443	0.0153994
814.521	0.0153513
814.599	0.0153555
814.677	0.0153534
814.755	0.0153899
814.833	0.0153159
814.911	0.0152489
814.989	0.0152335
815.068	0.0153299
815.146	0.0152836
815.224	0.0151778
815.302	0.0152686
815.380	0.0153848
815.458	0.0151979
815.536	0.0152543
815.614	0.0150655
815.693	0.0150832
815.771	0.0150632
815.849	0.0150920
815.927	0.0149483
816.005	0.0149238
816.083	0.0149070
816.161	0.0150505
816.239	0.0150867
816.318	0.0148903
816.396	0.0149609
816.474	0.0148146
816.552	0.0149088
816.630	0.0149570
816.708	0.0149540
816.786	0.0148347
816.864	0.0148856
816.943	0.0148549
817.021	0.0149200
817.099	0.0149574
817.177	0.0149023
817.255	0.0149336
817.333	0.0150127
817.411	0.0151483
817.489	0.0151492
817.568	0.0152795
817.646	0.0152004
817.724	0.0153169
817.802	0.0152962
817.880	0.0155072
817.958	0.0153801
818.036	0.0156200
818.114	0.0155306
818.193	0.0155958
818.271	0.0155692
818.349	0.0155853
818.427	0.0154701
818.505	0.0154841
818.583	0.0153519
818.661	0.0154738
818.739	0.0153320
818.818	0.0150610
818.896	0.0151846
818.974	0.0151299
819.052	0.0150227
819.130	0.0150890
819.208	0.0149225
819.286	0.0150587
819.364	0.0151347
819.443	0.0149990
819.521	0.0150640
819.599	0.0149997
819.677	0.0151125
819.755	0.0151543
819.833	0.0151138
819.911	0.0153220
819.989	0.0153422
820.068	0.0153325
820.146	0.0153654
820.224	0.0153240
820.302	0.0154698
820.380	0.0154672
820.458	0.0153963
820.536	0.0155081
820.614	0.0155958
820.693	0.0155730
820.771	0.0155381
820.849	0.0155761
820.927	0.0155466
821.005	0.0155227
821.083	0.0155100
821.161	0.0154149
821.239	0.0153889
821.318	0.0153700
821.396	0.0151505
821.474	0.0151544
821.552	0.0150286
821.630	0.0151650
821.708	0.0149300
821.786	0.0148604
821.864	0.0147263
821.943	0.0146867
822.021	0.0147141
822.099	0.0148399
822.177	0.0147858
822.255	0.0147282
822.333	0.0147019
822.411	0.0147351
822.489	0.0148057
822.568	0.0148750
822.646	0.0148814
822.724	0.0149988
822.802	0.0151069
822.880	0.0150958
822.958	0.0149449
823.036	0.0149895
823.114	0.0149608
823.193	0.0151273
823.271	0.0152912
823.349	0.0153633
823.427	0.0153569
823.505	0.0153846
823.583	0.0155594
823.661	0.0154400
823.739	0.0153187
823.818	0.0155331
823.896	0.0154585
823.974	0.0155076
824.052	0.0154579
824.130	0.0156139
824.208	0.0155513
824.286	0.0155930
824.364	0.0155562
824.443	0.0153895
824.521	0.0155615
824.599	0.0154977
824.677	0.0155472
824.755	0.0154486
824.833	0.0154491
824.911	0.0154633
824.989	0.0154248
825.068	0.0154614
825.146	0.0154528
825.224	0.0153554
825.302	0.0154903
825.380	0.0153990
825.458	0.0153316
825.536	0.0153227
825.614	0.0153930
825.693	0.0155650
825.771	0.0154109
825.849	0.0155358
825.927	0.0153896
826.005	0.0153042
826.083	0.0154530
826.161	0.0155277
826.239	0.0153831
826.318	0.0155447
826.396	0.0154993
826.474	0.0152730
826.552	0.0154068
826.630	0.0153116
826.708	0.0152693
826.786	0.0151166
826.864	0.0150715
826.943	0.0150220
827.021	0.0151218
827.099	0.0150007
827.177	0.0149538
827.255	0.0148881
827.333	0.0149295
827.411	0.0148422
827.489	0.0147066
827.568	0.0146696
827.646	0.0144962
827.724	0.0146117
827.802	0.0147230
827.880	0.0147929
827.958	0.0147888
828.036	0.0147117
828.114	0.0147704
828.193	0.0146656
828.271	0.0148464
828.349	0.0148268
828.427	0.0148990
828.505	0.0150195
828.583	0.0151558
828.661	0.0151206
828.739	0.0149922
828.818	0.0150835
828.896	0.0152193
828.974	0.0153039
829.052	0.0154887
829.130	0.0155540
829.208	0.0154404
829.286	0.0154008
829.364	0.0156116
829.443	0.0156967
829.521	0.0155610
829.599	0.0156232
829.677	0.0155413
829.755	0.0155424
829.833	0.0156721
829.911	0.0156834
829.989	0.0157041
830.068	0.0155799
830.146	0.0155909
830.224	0.0156470
830.302	0.0156020
830.380	0.0156030
830.458	0.0154105
830.536	0.0153644
830.614	0.0153659
830.693	0.0154681
830.771	0.0154191
830.849	0.0155371
830.927	0.0153787
831.005	0.0153671
831.083	0.0155169
831.161	0.0154021
831.239	0.0153698
831.318	0.0154429
831.396	0.0154546
831.474	0.0154773
831.552	0.0153836
831.630	0.0155208
831.708	0.0155034
831.786	0.0152386
831.864	0.0153564
831.943	0.0153034
832.021	0.0153038
832.099	0.0153111
832.177	0.0151847
832.255	0.0151881
832.333	0.0150652
832.411	0.0151052
832.489	0.0151430
832.568	0.0149740
832.646	0.0150014
832.724	0.0149860
832.802	0.0149466
832.880	0.0149359
832.958	0.0149742
833.036	0.0150344
833.114	0.0148744
833.193	0.0149040
833.271	0.0150048
833.349	0.0150132
833.427	0.0149754
833.505	0.0148924
833.583	0.0149454
833.661	0.0149422
833.739	0.0149652
833.818	0.0150045
833.896	0.0150145
833.974	0.0151195
834.052	0.0151876
834.130	0.0151704
834.208	0.0151849
834.286	0.0153305
834.364	0.0153065
834.443	0.0153390
834.521	0.0154740
834.599	0.0153956
834.677	0.0155560
834.755	0.0156055
834.833	0.0157079
834.911	0.0155042
834.989	0.0155834
835.068	0.0154531
835.146	0.0154292
835.224	0.0155066
835.302	0.0155584
835.380	0.0153414
835.458	0.0154109
835.536	0.0152634
835.614	0.0153207
835.693	0.0152518
835.771	0.0153429
835.849	0.0153100
835.927	0.0153114
836.005	0.0154456
836.083	0.0153092
836.161	0.0152718
836.239	0.0152137
836.318	0.0152528
836.396	0.0152961
836.474	0.0151814
836.552	0.0150392
836.630	0.0151373
836.708	0.0152736
836.786	0.0151131
836.864	0.0151022
836.943	0.0151752
837.021	0.0151706
837.099	0.0150539
837.177	0.0151697
837.255	0.0152352
837.333	0.0152385
837.411	0.0152516
837.489	0.0151345
837.568	0.0150758
837.646	0.0151705
837.724	0.0151843
837.802	0.0152215
837.880	0.0152519
837.958	0.0152914
838.036	0.0153942
838.114	0.0152521
838.193	0.0153040
838.271	0.0152074
838.349	0.0152192
838.427	0.0152464
838.505	0.0152346
838.583	0.0150316
838.661	0.0151752
838.739	0.0152346
838.818	0.0152700
838.896	0.0152429
838.974	0.0152270
839.052	0.0152367
839.130	0.0151643
839.208	0.0152170
839.286	0.0151261
839.364	0.0152025
839.443	0.0152991
839.521	0.0152850
839.599	0.0152805
839.677	0.0152376
839.755	0.0152353
839.833	0.0152299
839.911	0.0151982
839.989	0.0152560
840.068	0.0152025
840.146	0.0152982
840.224	0.0152297
840.302	0.0151574
840.380	0.0152283
840.458	0.0152595
840.536	0.0151931
840.614	0.0152431
840.693	0.0151947
840.771	0.0152696
840.849	0.0152491
840.927	0.0152421
841.005	0.0151669
841.083	0.0151811
841.161	0.0152197
841.239	0.0150732
841.318	0.0148964
841.396	0.0151794
841.474	0.0151397
841.552	0.0151950
841.630	0.0151540
841.708	0.0152476
841.786	0.0152269
841.864	0.0153027
841.943	0.0153799
842.021	0.0152501
842.099	0.0151888
842.177	0.0153177
842.255	0.0153041
842.333	0.0153237
842.411	0.0153068
842.489	0.0152656
842.568	0.0154513
842.646	0.0154734
842.724	0.0153574
842.802	0.0154638
842.880	0.0154493
842.958	0.0153137
843.036	0.0153297
843.114	0.0154179
843.193	0.0154142
843.271	0.0154439
843.349	0.0155096
843.427	0.0154088
843.505	0.0153452
843.583	0.0153745
843.661	0.0154291
843.739	0.0151805
843.818	0.0151991
843.896	0.0152679
843.974	0.0153716
844.052	0.0152973
844.130	0.0151733
844.208	0.0150896
844.286	0.0152525
844.364	0.0153257
844.443	0.0153551
844.521	0.0152631
844.599	0.0152563
844.677	0.0151340
844.755	0.0151176
844.833	0.0152388
844.911	0.0151994
844.989	0.0150355
845.068	0.0151946
845.146	0.0151101
845.224	0.0151215
845.302	0.0152345
845.380	0.0150233
845.458	0.0150816
845.536	0.0151325
845.614	0.0151545
845.693	0.0151153
845.771	0.0150740
845.849	0.0151897
845.927	0.0152430
846.005	0.0153743
846.083	0.0152970
846.161	0.0153794
846.239	0.0152154
846.318	0.0152296
846.396	0.0152790
846.474	0.0152779
846.552	0.0154099
846.630	0.0153512
846.708	0.0153432
846.786	0.0154507
846.864	0.0153486
846.943	0.0153099
847.021	0.0153527
847.099	0.0152991
847.177	0.0152056
847.255	0.0154623
847.333	0.0153217
847.411	0.0153613
847.489	0.0155122
847.568	0.0154395
847.646	0.0152741
847.724	0.0152766
847.802	0.0152172
847.880	0.0153131
847.958	0.0153687
848.036	0.0153705
848.114	0.0153722
848.193	0.0153014
848.271	0.0152576
848.349	0.0153852
848.427	0.0153373
848.505	0.0151610
848.583	0.0152543
848.661	0.0152504
848.739	0.0153524
848.818	0.0153573
848.896	0.0150680
848.974	0.0151051
849.052	0.0152148
849.130	0.0150948
849.208	0.0151235
849.286	0.0150536
849.364	0.0149632
849.443	0.0149782
849.521	0.0150589
849.599	0.0149728
849.677	0.0150360
849.755	0.0150459
849.833	0.0149802
849.911	0.0151271
849.989	0.0151578
850.068	0.0149501
850.146	0.0150694
850.224	0.0151151
850.302	0.0151990
850.380	0.0153497
850.458	0.0153015
850.536	0.0153777
850.614	0.0153194
850.693	0.0154669
850.771	0.0153947
850.849	0.0154482
850.927	0.0154293
851.005	0.0153916
851.083	0.0153489
851.161	0.0153148
851.239	0.0153950
851.318	0.0155198
851.396	0.0154316
851.474	0.0154413
851.552	0.0153655
851.630	0.0152535
851.708	0.0152870
851.786	0.0153795
851.864	0.0153477
851.943	0.0153685
852.021	0.0152865
852.099	0.0155206
852.177	0.0155730
852.255	0.0154298
852.333	0.0153990
852.411	0.0153731
852.489	0.0154677
852.568	0.0154346
852.646	0.0153580
852.724	0.0154531
852.802	0.0154073
852.880	0.0153619
852.958	0.0154257
853.036	0.0154574
853.114	0.0153549
853.193	0.0152454
853.271	0.0153276
853.349	0.0151785
853.427	0.0151917
853.505	0.0154096
853.583	0.0152879
853.661	0.0152064
853.739	0.0153054
853.818	0.0151931
853.896	0.0153037
853.974	0.0152042
854.052	0.0152880
854.130	0.0152983
854.208	0.0151426
854.286	0.0153669
854.364	0.0152704
854.443	0.0152092
854.521	0.0151163
854.599	0.0150746
854.677	0.0152412
854.755	0.0152654
854.833	0.0151451
854.911	0.0151196
854.989	0.0152128
855.068	0.0150739
855.146	0.0151070
855.224	0.0152081
855.302	0.0152275
855.380	0.0150906
855.458	0.0151095
855.536	0.0151014
855.614	0.0151231
855.693	0.0151170
855.771	0.0151554
855.849	0.0151672
855.927	0.0150677
856.005	0.0152998
856.083	0.0152754
856.161	0.0151782
856.239	0.0153419
856.318	0.0154066
856.396	0.0154086
856.474	0.0155020
856.552	0.0153937
856.630	0.0154556
856.708	0.0155940
856.786	0.0154379
856.864	0.0154485
856.943	0.0154974
857.021	0.0155655
857.099	0.0154827
857.177	0.0155893
857.255	0.0155608
857.333	0.0154954
857.411	0.0155733
857.489	0.0153439
857.568	0.0154496
857.646	0.0153870
857.724	0.0154467
857.802	0.0154520
857.880	0.0154408
857.958	0.0153448
858.036	0.0152376
858.114	0.0152750
858.193	0.0153022
858.271	0.0151378
858.349	0.0150443
858.427	0.0151425
858.505	0.0150981
858.583	0.0152600
858.661	0.0151807
858.739	0.0151891
858.818	0.0151351
858.896	0.0151495
858.974	0.0152262
859.052	0.0152634
859.130	0.0150640
859.208	0.0151675
859.286	0.0149510
859.364	0.0151273
859.443	0.0150227
859.521	0.0149881
859.599	0.0149662
859.677	0.0152458
859.755	0.0152007
859.833	0.0150876
859.911	0.0150703
859.989	0.0151720
860.068	0.0150986
860.146	0.0151052
860.224	0.0151379
860.302	0.0151225
860.380	0.0150704
860.458	0.0149408
860.536	0.0150446
860.614	0.0152165
860.693	0.0152109
860.771	0.0150336
860.849	0.0151637
860.927	0.0152541
861.005	0.0152409
861.083	0.0153236
861.161	0.0154278
861.239	0.0156059
861.318	0.0155289
861.396	0.0153561
861.474	0.0155370
861.552	0.0156003
861.630	0.0155396
861.708	0.0155034
861.786	0.0155292
861.864	0.0154840
861.943	0.0154638
862.021	0.0153239
862.099	0.0155163
862.177	0.0154195
862.255	0.0154691
862.333	0.0153310
862.411	0.0154256
862.489	0.0153474
862.568	0.0153094
862.646	0.0152637
862.724	0.0153334
862.802	0.0154093
862.880	0.0152906
862.958	0.0151594
863.036	0.0152559
863.114	0.0152801
863.193	0.0152351
863.271	0.0152837
863.349	0.0152647
863.427	0.0152480
863.505	0.0153089
863.583	0.0153569
863.661	0.0154082
863.739	0.0154453
863.818	0.0154393
863.896	0.0153768
863.974	0.0154744
864.052	0.0154021
864.130	0.0154282
864.208	0.0154227
864.286	0.0153624
864.364	0.0153439
864.443	0.0153248
864.521	0.0152733
864.599	0.0151592
864.677	0.0152529
864.755	0.0151305
864.833	0.0150381
864.911	0.0152117
864.989	0.0152686
865.068	0.0151483
865.146	0.0150612
865.224	0.0153046
865.302	0.0150626
865.380	0.0151226
865.458	0.0150299
865.536	0.0150659
865.614	0.0150748
865.693	0.0150127
865.771	0.0151150
865.849	0.0150687
865.927	0.0150188
866.005	0.0153138
866.083	0.0151074
866.161	0.0151521
866.239	0.0150273
866.318	0.0153008
866.396	0.0153293
866.474	0.0151435
866.552	0.0151021
866.630	0.0152963
866.708	0.0153258
866.786	0.0153803
866.864	0.0153385
866.943	0.0154235
867.021	0.0153618
867.099	0.0153504
867.177	0.0154181
867.255	0.0154198
867.333	0.0153481
867.411	0.0153715
867.489	0.0153329
867.568	0.0152768
867.646	0.0152570
867.724	0.0152661
867.802	0.0152979
867.880	0.0151731
867.958	0.0151570
868.036	0.0152129
868.114	0.0153518
868.193	0.0153952
868.271	0.0151772
868.349	0.0151983
868.427	0.0152930
868.505	0.0153163
868.583	0.0153205
868.661	0.0153645
868.739	0.0152689
868.818	0.0153773
868.896	0.0153832
868.974	0.0152519
869.052	0.0154403
869.130	0.0154205
869.208	0.0151736
869.286	0.0153809
869.364	0.0154975
869.443	0.0153510
869.521	0.0151582
869.599	0.0153678
869.677	0.0154542
869.755	0.0154694
869.833	0.0153699
869.911	0.0151366
869.989	0.0152731
870.068	0.0152563
870.146	0.0152000
870.224	0.0152982
870.302	0.0152150
870.380	0.0151560
870.458	0.0151197
870.536	0.0152782
870.614	0.0152306
870.693	0.0150027
870.771	0.0151271
870.849	0.0151144
870.927	0.0151447
871.005	0.0151522
871.083	0.0150543
871.161	0.0150283
871.239	0.0150684
871.318	0.0151445
871.396	0.0150327
871.474	0.0151664
871.552	0.0150617
871.630	0.0152193
871.708	0.0151422
871.786	0.0153220
871.864	0.0152742
871.943	0.0152189
872.021	0.0152763
872.099	0.0152885
872.177	0.0153027
872.255	0.0154261
872.333	0.0153635
872.411	0.0154263
872.489	0.0153254
872.568	0.0154444
872.646	0.0153269
872.724	0.0152788
872.802	0.0152841
872.880	0.0152557
872.958	0.0152810
873.036	0.0151997
873.114	0.0152250
873.193	0.0151099
873.271	0.0151787
873.349	0.0152571
873.427	0.0151290
873.505	0.0151114
873.583	0.0151353
873.661	0.0152217
873.739	0.0151992
873.818	0.0151894
873.896	0.0151062
873.974	0.0150452
874.052	0.0151138
874.130	0.0149962
874.208	0.0151322
874.286	0.0149458
874.364	0.0149100
874.443	0.0150298
874.521	0.0151112
874.599	0.0149478
874.677	0.0149565
874.755	0.0150218
874.833	0.0150050
874.911	0.0150939
874.989	0.0152336
875.068	0.0151692
875.146	0.0151900
875.224	0.0153120
875.302	0.0151874
875.380	0.0152790
875.458	0.0153407
875.536	0.0152940
875.614	0.0153407
875.693	0.0154420
875.771	0.0154251
875.849	0.0153811
875.927	0.0153557
876.005	0.0155074
876.083	0.0153893
876.161	0.0153512
876.239	0.0153785
876.318	0.0153962
876.396	0.0153399
876.474	0.0154173
876.552	0.0153202
876.630	0.0153269
876.708	0.0152816
876.786	0.0152647
876.864	0.0152819
876.943	0.0153554
877.021	0.0153560
877.099	0.0152782
877.177	0.0152120
877.255	0.0152956
877.333	0.0152655
877.411	0.0151904
877.489	0.0152042
877.568	0.0150700
877.646	0.0151959
877.724	0.0150900
877.802	0.0152112
877.880	0.0151236
877.958	0.0151027
878.036	0.0152292
878.114	0.0151987
878.193	0.0152149
878.271	0.0152998
878.349	0.0152471
878.427	0.0154688
878.505	0.0152168
878.583	0.0151569
878.661	0.0153304
878.739	0.0153016
878.818	0.0153155
878.896	0.0152419
878.974	0.0152824
879.052	0.0151434
879.130	0.0152635
879.208	0.0152766
879.286	0.0151725
879.364	0.0151459
879.443	0.0152174
879.521	0.0152613
879.599	0.0151611
879.677	0.0152518
879.755	0.0152068
879.833	0.0151401
879.911	0.0151060
879.989	0.0149908
880.068	0.0150694
880.146	0.0149504
880.224	0.0151225
880.302	0.0152124
880.380	0.0151610
880.458	0.0151921
880.536	0.0153050
880.614	0.0154112
880.693	0.0154372
880.771	0.0154753
880.849	0.0155074
880.927	0.0154993
881.005	0.0155269
881.083	0.0154079
881.161	0.0154465
881.239	0.0154789
881.318	0.0153105
881.396	0.0151783
881.474	0.0149078
881.552	0.0150870
881.630	0.0148659
881.708	0.0149639
881.786	0.0148430
881.864	0.0148481
881.943	0.0147379
882.021	0.0149095
882.099	0.0148713
882.177	0.0149706
882.255	0.0152022
882.333	0.0151997
882.411	0.0153696
882.489	0.0155699
882.568	0.0156023
882.646	0.0158129
882.724	0.0157943
882.802	0.0158085
882.880	0.0158615
882.958	0.0157936
883.036	0.0158354
883.114	0.0155373
883.193	0.0156073
883.271	0.0154649
883.349	0.0153762
883.427	0.0153394
883.505	0.0151003
883.583	0.0149207
883.661	0.0150144
883.739	0.0146764
883.818	0.0146680
883.896	0.0146188
883.974	0.0146442
884.052	0.0146127
884.130	0.0147225
884.208	0.0147281
884.286	0.0146877
884.364	0.0148286
884.443	0.0149294
884.521	0.0149178
884.599	0.0150334
884.677	0.0152087
884.755	0.0152258
884.833	0.0154779
884.911	0.0157487
884.989	0.0158473
885.068	0.0160379
885.146	0.0160995
885.224	0.0160272
885.302	0.0161552
885.380	0.0161285
885.458	0.0160069
885.536	0.0160047
885.614	0.0159864
885.693	0.0156104
885.771	0.0152927
885.849	0.0150001
885.927	0.0149733
886.005	0.0146375
886.083	0.0144456
886.161	0.0142000
886.239	0.0141534
886.318	0.0141216
886.396	0.0140462
886.474	0.0139487
886.552	0.0139722
886.630	0.0140982
886.708	0.0141956
886.786	0.0142706
886.864	0.0144100
886.943	0.0145466
887.021	0.0149090
887.099	0.0148489
887.177	0.0151577
887.255	0.0154093
887.333	0.0157978
887.411	0.0158299
887.489	0.0160143
887.568	0.0161474
887.646	0.0162918
887.724	0.0164622
887.802	0.0164232
887.880	0.0165453
887.958	0.0165570
888.036	0.0166160
888.114	0.0164584
888.193	0.0163290
888.271	0.0159637
888.349	0.0158411
888.427	0.0157159
888.505	0.0154554
888.583	0.0152616
888.661	0.0151049
888.739	0.0148305
888.818	0.0147600
888.896	0.0144407
888.974	0.0141603
889.052	0.0141934
889.130	0.0142777
889.208	0.0141779
889.286	0.0142168
889.364	0.0142671
889.443	0.0144761
889.521	0.0145456
889.599	0.0146308
889.677	0.0146980
889.755	0.0148183
889.833	0.0149269
889.911	0.0150140
889.989	0.0152554
890.068	0.0152848
890.146	0.0153255
890.224	0.0153377
890.302	0.0154189
890.380	0.0154829
890.458	0.0157207
890.536	0.0157383
890.614	0.0155618
890.693	0.0157692
890.771	0.0158759
890.849	0.0156757
890.927	0.0156990
891.005	0.0156731
891.083	0.0155177
891.161	0.0155190
891.239	0.0154124
891.318	0.0154045
891.396	0.0153613
891.474	0.0152773
891.552	0.0152748
891.630	0.0150265
891.708	0.0151111
891.786	0.0150486
891.864	0.0149865
891.943	0.0149455
892.021	0.0149940
892.099	0.0149491
892.177	0.0150707
892.255	0.0150351
892.333	0.0150985
892.411	0.0150707
892.489	0.0150702
892.568	0.0152496
892.646	0.0151994
892.724	0.0153256
892.802	0.0152440
892.880	0.0153481
892.958	0.0154186
893.036	0.0153537
893.114	0.0152790
893.193	0.0153547
893.271	0.0153810
893.349	0.0153984
893.427	0.0152862
893.505	0.0152898
893.583	0.0152598
893.661	0.0150648
893.739	0.0153423
893.818	0.0152068
893.896	0.0150817
893.974	0.0151214
894.052	0.0149789
894.130	0.0150938
894.208	0.0151157
894.286	0.0150363
894.364	0.0150550
894.443	0.0150611
894.521	0.0150666
894.599	0.0150535
894.677	0.0149781
894.755	0.0150002
894.833	0.0150981
894.911	0.0150954
894.989	0.0150477
895.068	0.0151162
895.146	0.0151083
895.224	0.0152041
895.302	0.0151877
895.380	0.0150880
895.458	0.0151273
895.536	0.0152625
895.614	0.0152281
895.693	0.0152440
895.771	0.0152216
895.849	0.0153957
895.927	0.0154597
896.005	0.0153248
896.083	0.0155072
896.161	0.0153459
896.239	0.0153323
896.318	0.0153805
896.396	0.0154607
896.474	0.0153577
896.552	0.0153786
896.630	0.0153087
896.708	0.0151624
896.786	0.0152422
896.864	0.0151450
896.943	0.0152476
897.021	0.0150327
897.099	0.0150594
897.177	0.0150900
897.255	0.0151139
897.333	0.0149704
897.411	0.0151066
897.489	0.0150602
897.568	0.0151205
897.646	0.0150821
897.724	0.0152397
897.802	0.0152493
897.880	0.0151562
897.958	0.0151170
898.036	0.0150975
898.114	0.0151999
898.193	0.0152354
898.271	0.0151010
898.349	0.0151723
898.427	0.0152895
898.505	0.0152715
898.583	0.0152618
898.661	0.0151830
898.739	0.0152126
898.818	0.0151823
898.896	0.0151736
898.974	0.0151269
899.052	0.0151300
899.130	0.0152648
899.208	0.0151994
899.286	0.0151620
899.364	0.0152471
899.443	0.0152840
899.521	0.0151736
899.599	0.0150935
899.677	0.0151451
899.755	0.0152345
899.833	0.0153786
899.911	0.0152799
899.989	0.0152166
900.068	0.0152306
900.146	0.0153802
900.224	0.0153296
900.302	0.0152406
900.380	0.0153373
900.458	0.0151715
900.536	0.0153346
900.614	0.0154645
900.693	0.0153947
900.771	0.0151717
900.849	0.0152868
900.927	0.0154325
901.005	0.0153540
901.083	0.0153190
901.161	0.0153772
901.239	0.0152159
901.318	0.0152353
901.396	0.0153287
901.474	0.0153084
901.552	0.0152040
901.630	0.0153236
901.708	0.0151115
901.786	0.0150645
901.864	0.0149980
901.943	0.0150269
902.021	0.0149815
902.099	0.0150189
902.177	0.0149648
902.255	0.0149042
902.333	0.0149689
902.411	0.0148965
902.489	0.0148863
902.568	0.0148491
902.646	0.0149431
902.724	0.0150594
902.802	0.0150311
902.880	0.0151282
902.958	0.0153209
903.036	0.0151595
903.114	0.0152466
903.193	0.0154679
903.271	0.0154634
903.349	0.0154224
903.427	0.0154191
903.505	0.0155560
903.583	0.0155424
903.661	0.0155009
903.739	0.0155374
903.818	0.0154858
903.896	0.0155399
903.974	0.0154584
904.052	0.0154375
904.130	0.0154831
904.208	0.0154038
904.286	0.0154260
904.364	0.0154305
904.443	0.0153282
904.521	0.0152452
904.599	0.0153000
904.677	0.0152744
904.755	0.0151681
904.833	0.0151041
904.911	0.0150919
904.989	0.0150331
905.068	0.0151073
905.146	0.0151838
905.224	0.0149944
905.302	0.0150504
905.380	0.0150345
905.458	0.0151931
905.536	0.0153800
905.614	0.0152788
905.693	0.0150453
905.771	0.0151838
905.849	0.0152478
905.927	0.0153388
906.005	0.0153274
906.083	0.0153364
906.161	0.0152618
906.239	0.0154032
906.318	0.0153775
906.396	0.0153521
906.474	0.0153513
906.552	0.0154684
906.630	0.0153217
906.708	0.0152747
906.786	0.0152008
906.864	0.0152051
906.943	0.0152348
907.021	0.0152116
907.099	0.0151514
907.177	0.0152486
907.255	0.0149938
907.333	0.0149717
907.411	0.0150273
907.489	0.0151343
907.568	0.0152408
907.646	0.0151731
907.724	0.0151409
907.802	0.0151280
907.880	0.0152174
907.958	0.0153714
908.036	0.0150484
908.114	0.0151141
908.193	0.0153035
908.271	0.0152828
908.349	0.0153321
908.427	0.0153305
908.505	0.0151899
908.583	0.0152696
908.661	0.0152513
908.739	0.0153303
908.818	0.0154362
908.896	0.0154322
908.974	0.0153321
909.052	0.0152063
909.130	0.0153937
909.208	0.0153824
909.286	0.0153566
909.364	0.0151791
909.443	0.0152911
909.521	0.0152467
909.599	0.0151378
909.677	0.0151651
909.755	0.0152271
909.833	0.0152504
909.911	0.0150336
909.989	0.0150198
910.068	0.0149888
910.146	0.0150743
910.224	0.0150721
910.302	0.0150464
910.380	0.0150659
910.458	0.0150362
910.536	0.0148930
910.614	0.0150534
910.693	0.0150080
910.771	0.0151363
910.849	0.0152029
910.927	0.0150216
911.005	0.0151286
911.083	0.0152361
911.161	0.0152875
911.239	0.0152337
911.318	0.0153449
911.396	0.0153108
911.474	0.0153674
911.552	0.0154053
911.630	0.0153684
911.708	0.0154983
911.786	0.0154062
911.864	0.0153524
911.943	0.0155431
912.021	0.0155030
912.099	0.0154414
912.177	0.0155353
912.255	0.0152805
912.333	0.0153555
912.411	0.0153660
912.489	0.0152935
912.568	0.0152854
912.646	0.0151671
912.724	0.0151723
912.802	0.0151117
912.880	0.0151937
912.958	0.0150322
913.036	0.0150204
913.114	0.0150028
913.193	0.0149997
913.271	0.0149864
913.349	0.0150143
913.427	0.0150026
913.505	0.0149806
913.583	0.0149145
913.661	0.0149249
913.739	0.0150278
913.818	0.0150675
913.896	0.0152174
913.974	0.0152767
914.052	0.0152291
914.130	0.0152187
914.208	0.0153728
914.286	0.0154449
914.364	0.0152942
914.443	0.0153080
914.521	0.0154105
914.599	0.0154712
914.677	0.0154995
914.755	0.0154147
914.833	0.0153220
914.911	0.0152376
914.989	0.0152605
915.068	0.0153238
915.146	0.0153284
915.224	0.0153188
915.302	0.0153636
915.380	0.0153178
915.458	0.0153056
915.536	0.0152242
915.614	0.0152170
915.693	0.0151720
915.771	0.0152220
915.849	0.0151511
915.927	0.0151414
916.005	0.0151897
916.083	0.0152282
916.161	0.0152937
916.239	0.0152219
916.318	0.0152309
916.396	0.0152889
916.474	0.0153290
916.552	0.0153437
916.630	0.0151987
916.708	0.0152061
916.786	0.0152410
916.864	0.0154161
916.943	0.0152328
917.021	0.0153933
917.099	0.0154237
917.177	0.0152787
917.255	0.0151038
917.333	0.0153751
917.411	0.0153040
917.489	0.0153745
917.568	0.0153785
917.646	0.0153841
917.724	0.0153112
917.802	0.0152872
917.880	0.0152665
917.958	0.0152589
918.036	0.0153323
918.114	0.0152705
918.193	0.0151543
918.271	0.0151689
918.349	0.0152747
918.427	0.0153118
918.505	0.0150247
918.583	0.0151054
918.661	0.0152688
918.739	0.0151145
918.818	0.0150513
918.896	0.0152352
918.974	0.0151620
919.052	0.0151368
919.130	0.0151569
919.208	0.0151226
919.286	0.0152187
919.364	0.0152823
919.443	0.0152086
919.521	0.0152133
919.599	0.0152585
919.677	0.0153220
919.755	0.0153300
919.833	0.0152705
919.911	0.0152048
919.989	0.0152841
920.068	0.0153786
920.146	0.0152726
920.224	0.0152300
920.302	0.0152581
920.380	0.0153159
920.458	0.0153849
920.536	0.0154312
920.614	0.0154472
920.693	0.0153675
920.771	0.0154085
920.849	0.0153905
920.927	0.0154647
921.005	0.0153244
921.083	0.0153516
921.161	0.0152580
921.239	0.0153270
921.318	0.0152521
921.396	0.0152293
921.474	0.0153880
921.552	0.0153825
921.630	0.0152386
921.708	0.0153523
921.786	0.0153199
921.864	0.0153234
921.943	0.0152827
922.021	0.0153503
922.099	0.0152304
922.177	0.0152202
922.255	0.0153806
922.333	0.0152430
922.411	0.0152301
922.489	0.0153008
922.568	0.0152935
922.646	0.0154640
922.724	0.0152994
922.802	0.0153537
922.880	0.0153289
922.958	0.0153261
923.036	0.0153234
923.114	0.0152885
923.193	0.0153337
923.271	0.0153596
923.349	0.0153878
923.427	0.0152132
923.505	0.0152176
923.583	0.0152644
923.661	0.0153299
923.739	0.0150700
923.818	0.0151901
923.896	0.0150182
923.974	0.0152290
924.052	0.0150508
924.130	0.0149153
924.208	0.0150079
924.286	0.0150521
924.364	0.0150999
924.443	0.0151142
924.521	0.0150635
924.599	0.0150339
924.677	0.0151128
924.755	0.0152642
924.833	0.0152312
924.911	0.0152551
924.989	0.0153611
925.068	0.0153155
925.146	0.0153558
925.224	0.0154152
925.302	0.0154591
925.380	0.0154417
925.458	0.0154655
925.536	0.0154896
925.614	0.0154440
925.693	0.0155965
925.771	0.0154706
925.849	0.0154496
925.927	0.0154510
926.005	0.0154344
926.083	0.0154046
926.161	0.0154674
926.239	0.0153677
926.318	0.0154482
926.396	0.0153814
926.474	0.0152725
926.552	0.0151442
926.630	0.0152760
926.708	0.0152128
926.786	0.0151366
926.864	0.0152574
926.943	0.0151600
927.021	0.0151289
927.099	0.0152484
927.177	0.0150826
927.255	0.0151282
927.333	0.0152094
927.411	0.0151559
927.489	0.0150632
927.568	0.0151142
927.646	0.0152052
927.724	0.0151913
927.802	0.0152016
927.880	0.0151058
927.958	0.0151108
928.036	0.0153067
928.114	0.0152003
928.193	0.0152663
928.271	0.0152522
928.349	0.0153775
928.427	0.0151572
928.505	0.0152049
928.583	0.0152381
928.661	0.0153173
928.739	0.0152937
928.818	0.0153175
928.896	0.0152547
928.974	0.0154014
929.052	0.0153807
929.130	0.0153147
929.208	0.0153679
929.286	0.0154003
929.364	0.0153006
929.443	0.0153143
929.521	0.0154061
929.599	0.0153767
929.677	0.0153294
929.755	0.0154066
929.833	0.0153479
929.911	0.0154080
929.989	0.0154281
930.068	0.0154035
930.146	0.0153560
930.224	0.0154438
930.302	0.0153674
930.380	0.0153970
930.458	0.0152707
930.536	0.0152881
930.614	0.0152502
930.693	0.0151962
930.771	0.0152355
930.849	0.0152197
930.927	0.0151112
931.005	0.0151932
931.083	0.0151241
931.161	0.0152020
931.239	0.0152996
931.318	0.0152229
931.396	0.0151945
931.474	0.0152120
931.552	0.0151060
931.630	0.0152964
931.708	0.0153141
931.786	0.0153316
931.864	0.0154265
931.943	0.0153239
932.021	0.0153534
932.099	0.0154145
932.177	0.0154611
932.255	0.0154802
932.333	0.0154374
932.411	0.0154832
932.489	0.0154033
932.568	0.0155116
932.646	0.0154658
932.724	0.0154319
932.802	0.0154370
932.880	0.0154510
932.958	0.0154317
933.036	0.0154630
933.114	0.0152486
933.193	0.0153545
933.271	0.0153616
933.349	0.0154197
933.427	0.0153548
933.505	0.0152062
933.583	0.0152278
933.661	0.0153568
933.739	0.0153240
933.818	0.0153049
933.896	0.0152265
933.974	0.0151229
934.052	0.0151904
934.130	0.0152187
934.208	0.0152520
934.286	0.0152544
934.364	0.0152516
934.443	0.0153108
934.521	0.0153933
934.599	0.0154216
934.677	0.0152280
934.755	0.0153748
934.833	0.0153116
934.911	0.0154196
934.989	0.0154518
935.068	0.0153548
935.146	0.0153999
935.224	0.0153857
935.302	0.0153780
935.380	0.0153822
935.458	0.0152612
935.536	0.0153416
935.614	0.0154199
935.693	0.0152966
935.771	0.0153715
935.849	0.0153299
935.927	0.0151794
936.005	0.0152824
936.083	0.0151662
936.161	0.0151685
936.239	0.0152053
936.318	0.0152669
936.396	0.0152516
936.474	0.0150784
936.552	0.0152042
936.630	0.0151165
936.708	0.0151723
936.786	0.0150224
936.864	0.0151905
936.943	0.0152348
937.021	0.0151820
937.099	0.0151634
937.177	0.0151490
937.255	0.0151823
937.333	0.0151726
937.411	0.0151781
937.489	0.0152573
937.568	0.0151714
937.646	0.0153983
937.724	0.0154403
937.802	0.0154557
937.880	0.0154311
937.958	0.0155050
938.036	0.0153664
938.114	0.0153323
938.193	0.0154505
938.271	0.0153588
938.349	0.0152047
938.427	0.0153720
938.505	0.0153940
938.583	0.0154341
938.661	0.0153790
938.739	0.0151574
938.818	0.0151736
938.896	0.0152792
938.974	0.0151756
939.052	0.0152701
939.130	0.0152065
939.208	0.0151246
939.286	0.0151167
939.364	0.0150285
939.443	0.0150905
939.521	0.0152445
939.599	0.0152276
939.677	0.0152263
939.755	0.0149815
939.833	0.0152927
939.911	0.0153860
939.989	0.0152854
940.068	0.0153885
940.146	0.0153817
940.224	0.0152997
940.302	0.0154101
940.380	0.0153261
940.458	0.0154584
940.536	0.0155161
940.614	0.0154415
940.693	0.0155697
940.771	0.0154855
940.849	0.0154754
940.927	0.0154206
941.005	0.0155295
941.083	0.0154340
941.161	0.0153806
941.239	0.0153583
941.318	0.0152705
941.396	0.0152328
941.474	0.0152126
941.552	0.0150693
941.630	0.0149937
941.708	0.0149714
941.786	0.0150802
941.864	0.0148952
941.943	0.0146985
942.021	0.0147374
942.099	0.0148145
942.177	0.0147916
942.255	0.0148817
942.333	0.0147008
942.411	0.0147397
942.489	0.0148202
942.568	0.0149316
942.646	0.0150657
942.724	0.0150716
942.802	0.0151125
942.880	0.0152322
942.958	0.0152492
943.036	0.0153295
943.114	0.0154788
943.193	0.0155119
943.271	0.0154050
943.349	0.0154597
943.427	0.0155743
943.505	0.0155944
943.583	0.0155760
943.661	0.0155264
943.739	0.0155463
943.818	0.0155845
943.896	0.0155028
943.974	0.0154264
944.052	0.0154493
944.130	0.0154810
944.208	0.0152888
944.286	0.0151961
944.364	0.0154090
944.443	0.0152259
944.521	0.0151910
944.599	0.0151696
944.677	0.0151145
944.755	0.0152464
944.833	0.0150201
944.911	0.0150394
944.989	0.0151693
945.068	0.0150437
945.146	0.0150915
945.224	0.0150323
945.302	0.0150327
945.380	0.0150881
945.458	0.0151492
945.536	0.0150660
945.614	0.0150423
945.693	0.0152618
945.771	0.0151482
945.849	0.0152322
945.927	0.0151781
946.005	0.0152520
946.083	0.0152655
946.161	0.0152675
946.239	0.0152429
946.318	0.0152881
946.396	0.0153944
946.474	0.0153117
946.552	0.0153471
946.630	0.0154285
946.708	0.0152876
946.786	0.0152757
946.864	0.0153480
946.943	0.0152888
947.021	0.0152450
947.099	0.0152951
947.177	0.0154140
947.255	0.0154211
947.333	0.0153915
947.411	0.0153270
947.489	0.0154615
947.568	0.0152541
947.646	0.0153957
947.724	0.0155129
947.802	0.0152924
947.880	0.0152540
947.958	0.0152827
948.036	0.0153045
948.114	0.0153375
948.193	0.0152199
948.271	0.0151800
948.349	0.0153235
948.427	0.0153101
948.505	0.0152962
948.583	0.0154357
948.661	0.0154431
948.739	0.0153081
948.818	0.0154178
948.896	0.0152643
948.974	0.0154403
949.052	0.0153166
949.130	0.0153368
949.208	0.0154211
949.286	0.0155214
949.364	0.0153686
949.443	0.0154277
949.521	0.0153282
949.599	0.0153243
949.677	0.0154212
949.755	0.0153015
949.833	0.0150816
949.911	0.0152113
949.989	0.0150922
950.068	0.0150718
950.146	0.0151424
950.224	0.0149553
950.302	0.0149963
950.380	0.0150899
950.458	0.0151141
950.536	0.0151434
950.614	0.0151527
950.693	0.0149200
950.771	0.0151987
950.849	0.0151028
950.927	0.0150681
951.005	0.0153444
951.083	0.0152440
951.161	0.0151102
951.239	0.0151758
951.318	0.0153261
951.396	0.0153794
951.474	0.0153899
951.552	0.0153583
951.630	0.0152968
951.708	0.0153865
951.786	0.0155688
951.864	0.0154648
951.943	0.0153236
952.021	0.0155201
952.099	0.0155002
952.177	0.0153314
952.255	0.0153249
952.333	0.0153605
952.411	0.0154265
952.489	0.0151481
952.568	0.0152854
952.646	0.0153091
952.724	0.0153380
952.802	0.0153216
952.880	0.0152876
952.958	0.0152936
953.036	0.0151874
953.114	0.0152740
953.193	0.0152540
953.271	0.0151457
953.349	0.0150816
953.427	0.0153614
953.505	0.0151735
953.583	0.0151443
953.661	0.0151399
953.739	0.0151197
953.818	0.0152036
953.896	0.0151416
953.974	0.0151910
954.052	0.0151552
954.130	0.0152966
954.208	0.0152930
954.286	0.0153442
954.364	0.0153036
954.443	0.0152418
954.521	0.0154165
954.599	0.0152235
954.677	0.0152681
954.755	0.0153076
954.833	0.0153255
954.911	0.0152972
954.989	0.0154494
955.068	0.0154208
955.146	0.0153786
955.224	0.0152592
955.302	0.0153024
955.380	0.0153314
955.458	0.0152965
955.536	0.0153728
955.614	0.0152586
955.693	0.0151828
955.771	0.0151431
955.849	0.0151331
955.927	0.0152566
956.005	0.0150852
956.083	0.0150829
956.161	0.0153162
956.239	0.0151622
956.318	0.0150135
956.396	0.0153149
956.474	0.0151362
956.552	0.0153698
956.630	0.0151429
956.708	0.0151018
956.786	0.0153388
956.864	0.0153297
956.943	0.0152563
957.021	0.0153146
957.099	0.0152346
957.177	0.0152133
957.255	0.0153177
957.333	0.0152477
957.411	0.0153377
957.489	0.0152706
957.568	0.0153562
957.646	0.0153498
957.724	0.0154474
957.802	0.0152679
957.880	0.0153805
957.958	0.0153716
958.036	0.0154521
958.114	0.0154859
958.193	0.0153304
958.271	0.0154351
958.349	0.0153317
958.427	0.0154278
958.505	0.0153715
958.583	0.0152141
958.661	0.0152179
958.739	0.0153945
958.818	0.0153415
958.896	0.0152035
958.974	0.0151231
959.052	0.0152004
959.130	0.0152541
959.208	0.0152670
959.286	0.0151859
959.364	0.0150502
959.443	0.0152192
959.521	0.0152466
959.599	0.0152345
959.677	0.0151336
959.755	0.0152540
959.833	0.0151642
959.911	0.0151590
