05/20/2022	16:16:56	Ver.	4.1	UNKNOWN
Optical Delay	639.989416	Delta X		0.078125	Sweeps	1	Scan Rate	0/0
Coordinates	Axis 1	NaN	Axis 2	NaN	Axis 3	NaN	Axis 4	NaN	Axis 5	NaN	Axis 6	0.000000
TX Power	0.000000	RX Power	0.000000

639.989	0.0133932
640.068	0.0134789
640.146	0.0134893
640.224	0.0134938
640.302	0.0134535
640.380	0.0133546
640.458	0.0134600
640.536	0.0134193
640.614	0.0134626
640.693	0.0133851
640.771	0.0132922
640.849	0.0132935
640.927	0.0133458
641.005	0.0133215
641.083	0.0135104
641.161	0.0135033
641.239	0.0133737
641.318	0.0133236
641.396	0.0133638
641.474	0.0134424
641.552	0.0134495
641.630	0.0134060
641.708	0.0133919
641.786	0.0133728
641.864	0.0133933
641.943	0.0135402
642.021	0.0133938
642.099	0.0133859
642.177	0.0134762
642.255	0.0134759
642.333	0.0133893
642.411	0.0134626
642.489	0.0134918
642.568	0.0134791
642.646	0.0133219
642.724	0.0132510
642.802	0.0133813
642.880	0.0134134
642.958	0.0133690
643.036	0.0132977
643.114	0.0134010
643.193	0.0133838
643.271	0.0133927
643.349	0.0133301
643.427	0.0133356
643.505	0.0132724
643.583	0.0134755
643.661	0.0132953
643.739	0.0133877
643.818	0.0132305
643.896	0.0134431
643.974	0.0133398
644.052	0.0132291
644.130	0.0133895
644.208	0.0133788
644.286	0.0134653
644.364	0.0133759
644.443	0.0135654
644.521	0.0134405
644.599	0.0133735
644.677	0.0133833
644.755	0.0134968
644.833	0.0133990
644.911	0.0132298
644.989	0.0134092
645.068	0.0133725
645.146	0.0135548
645.224	0.0135348
645.302	0.0134093
645.380	0.0133125
645.458	0.0133172
645.536	0.0134650
645.614	0.0134087
645.693	0.0134319
645.771	0.0134875
645.849	0.0134679
645.927	0.0136081
646.005	0.0134399
646.083	0.0134523
646.161	0.0134093
646.239	0.0135011
646.318	0.0132543
646.396	0.0133594
646.474	0.0134504
646.552	0.0134844
646.630	0.0134031
646.708	0.0135499
646.786	0.0135218
646.864	0.0131938
646.943	0.0133363
647.021	0.0133273
647.099	0.0134290
647.177	0.0134726
647.255	0.0132706
647.333	0.0133139
647.411	0.0134650
647.489	0.0134102
647.568	0.0134801
647.646	0.0133661
647.724	0.0132660
647.802	0.0133295
647.880	0.0133843
647.958	0.0134075
648.036	0.0133487
648.114	0.0132926
648.193	0.0133702
648.271	0.0135895
648.349	0.0135242
648.427	0.0133590
648.505	0.0133710
648.583	0.0133430
648.661	0.0133863
648.739	0.0134447
648.818	0.0134212
648.896	0.0133084
648.974	0.0132863
649.052	0.0133990
649.130	0.0134628
649.208	0.0133379
649.286	0.0135422
649.364	0.0133785
649.443	0.0132747
649.521	0.0133865
649.599	0.0133412
649.677	0.0135010
649.755	0.0134023
649.833	0.0133823
649.911	0.0134995
649.989	0.0134396
650.068	0.0134222
650.146	0.0134593
650.224	0.0133646
650.302	0.0134053
650.380	0.0135291
650.458	0.0133943
650.536	0.0135254
650.614	0.0133060
650.693	0.0133256
650.771	0.0133111
650.849	0.0133877
650.927	0.0134898
651.005	0.0134585
651.083	0.0133593
651.161	0.0134291
651.239	0.0133887
651.318	0.0133929
651.396	0.0132930
651.474	0.0133797
651.552	0.0135397
651.630	0.0134787
651.708	0.0134829
651.786	0.0133124
651.864	0.0132993
651.943	0.0133614
652.021	0.0134492
652.099	0.0134760
652.177	0.0133548
652.255	0.0134406
652.333	0.0134156
652.411	0.0134816
652.489	0.0133962
652.568	0.0133406
652.646	0.0134612
652.724	0.0135045
652.802	0.0133402
652.880	0.0135503
652.958	0.0133972
653.036	0.0133543
653.114	0.0134186
653.193	0.0135469
653.271	0.0134275
653.349	0.0135007
653.427	0.0133799
653.505	0.0133858
653.583	0.0134373
653.661	0.0135869
653.739	0.0135303
653.818	0.0134801
653.896	0.0134280
653.974	0.0134635
654.052	0.0135870
654.130	0.0134473
654.208	0.0134024
654.286	0.0134766
654.364	0.0134813
654.443	0.0134507
654.521	0.0135005
654.599	0.0134052
654.677	0.0134837
654.755	0.0134483
654.833	0.0135651
654.911	0.0134793
654.989	0.0135098
655.068	0.0133628
655.146	0.0134705
655.224	0.0135027
655.302	0.0134357
655.380	0.0133746
655.458	0.0134593
655.536	0.0133580
655.614	0.0134439
655.693	0.0134755
655.771	0.0134528
655.849	0.0135171
655.927	0.0134409
656.005	0.0133571
656.083	0.0135248
656.161	0.0135097
656.239	0.0133785
656.318	0.0133257
656.396	0.0134507
656.474	0.0134620
656.552	0.0135251
656.630	0.0134182
656.708	0.0133863
656.786	0.0134338
656.864	0.0132762
656.943	0.0133990
657.021	0.0134063
657.099	0.0135284
657.177	0.0134524
657.255	0.0135039
657.333	0.0134922
657.411	0.0134322
657.489	0.0134210
657.568	0.0134187
657.646	0.0134298
657.724	0.0133994
657.802	0.0135444
657.880	0.0135204
657.958	0.0133629
658.036	0.0134989
658.114	0.0133579
658.193	0.0134733
658.271	0.0135957
658.349	0.0133749
658.427	0.0133096
658.505	0.0135779
658.583	0.0134845
658.661	0.0134870
658.739	0.0134122
658.818	0.0134234
658.896	0.0134254
658.974	0.0133318
659.052	0.0132987
659.130	0.0133966
659.208	0.0134617
659.286	0.0133442
659.364	0.0132905
659.443	0.0134334
659.521	0.0134169
659.599	0.0134516
659.677	0.0133026
659.755	0.0133356
659.833	0.0132760
659.911	0.0133575
659.989	0.0134654
660.068	0.0134209
660.146	0.0135189
660.224	0.0134887
660.302	0.0133884
660.380	0.0134478
660.458	0.0134351
660.536	0.0135258
660.614	0.0134986
660.693	0.0133537
660.771	0.0133344
660.849	0.0135433
660.927	0.0134978
661.005	0.0135217
661.083	0.0133648
661.161	0.0134414
661.239	0.0133385
661.318	0.0134932
661.396	0.0133267
661.474	0.0134721
661.552	0.0135108
661.630	0.0133942
661.708	0.0136259
661.786	0.0134369
661.864	0.0134789
661.943	0.0134312
662.021	0.0133630
662.099	0.0135408
662.177	0.0134919
662.255	0.0133464
662.333	0.0134676
662.411	0.0132803
662.489	0.0134151
662.568	0.0135111
662.646	0.0132784
662.724	0.0134914
662.802	0.0134467
662.880	0.0134360
662.958	0.0134896
663.036	0.0134397
663.114	0.0133923
663.193	0.0134609
663.271	0.0135756
663.349	0.0133855
663.427	0.0134849
663.505	0.0136325
663.583	0.0135137
663.661	0.0135582
663.739	0.0135440
663.818	0.0134008
663.896	0.0134174
663.974	0.0135833
664.052	0.0134487
664.130	0.0135796
664.208	0.0134095
664.286	0.0134795
664.364	0.0134608
664.443	0.0135014
664.521	0.0133546
664.599	0.0134440
664.677	0.0134927
664.755	0.0134313
664.833	0.0135148
664.911	0.0135252
664.989	0.0135241
665.068	0.0136120
665.146	0.0134077
665.224	0.0135494
665.302	0.0134100
665.380	0.0134755
665.458	0.0135636
665.536	0.0135114
665.614	0.0134933
665.693	0.0134767
665.771	0.0135946
665.849	0.0135087
665.927	0.0134463
666.005	0.0135623
666.083	0.0135895
666.161	0.0135950
666.239	0.0135886
666.318	0.0134408
666.396	0.0134938
666.474	0.0135111
666.552	0.0135796
666.630	0.0134953
666.708	0.0135502
666.786	0.0135093
666.864	0.0135752
666.943	0.0135310
667.021	0.0136297
667.099	0.0136602
667.177	0.0134676
667.255	0.0134971
667.333	0.0135475
667.411	0.0136646
667.489	0.0134914
667.568	0.0134574
667.646	0.0134260
667.724	0.0134873
667.802	0.0135590
667.880	0.0134678
667.958	0.0135070
668.036	0.0135857
668.114	0.0135538
668.193	0.0133760
668.271	0.0135698
668.349	0.0135296
668.427	0.0134624
668.505	0.0135349
668.583	0.0135831
668.661	0.0135545
668.739	0.0134798
668.818	0.0135131
668.896	0.0135100
668.974	0.0135235
669.052	0.0135529
669.130	0.0134475
669.208	0.0133958
669.286	0.0135320
669.364	0.0135514
669.443	0.0135233
669.521	0.0133230
669.599	0.0135064
669.677	0.0135162
669.755	0.0134837
669.833	0.0134811
669.911	0.0135395
669.989	0.0133955
670.068	0.0133977
670.146	0.0134977
670.224	0.0135009
670.302	0.0134216
670.380	0.0134225
670.458	0.0134697
670.536	0.0134903
670.614	0.0134772
670.693	0.0134592
670.771	0.0135577
670.849	0.0134415
670.927	0.0135014
671.005	0.0135111
671.083	0.0134859
671.161	0.0134603
671.239	0.0134222
671.318	0.0133712
671.396	0.0133965
671.474	0.0133731
671.552	0.0135841
671.630	0.0135194
671.708	0.0135513
671.786	0.0134637
671.864	0.0133652
671.943	0.0134109
672.021	0.0133825
672.099	0.0133428
672.177	0.0135178
672.255	0.0135207
672.333	0.0134354
672.411	0.0134551
672.489	0.0133504
672.568	0.0133736
672.646	0.0134621
672.724	0.0133441
672.802	0.0132914
672.880	0.0134502
672.958	0.0135610
673.036	0.0134031
673.114	0.0132858
673.193	0.0134212
673.271	0.0135604
673.349	0.0135831
673.427	0.0133973
673.505	0.0133999
673.583	0.0134618
673.661	0.0134326
673.739	0.0134549
673.818	0.0134676
673.896	0.0134803
673.974	0.0134167
674.052	0.0134754
674.130	0.0134899
674.208	0.0134203
674.286	0.0133981
674.364	0.0133917
674.443	0.0133121
674.521	0.0135629
674.599	0.0134621
674.677	0.0133485
674.755	0.0133044
674.833	0.0134200
674.911	0.0133996
674.989	0.0133331
675.068	0.0133523
675.146	0.0134655
675.224	0.0134723
675.302	0.0133640
675.380	0.0134169
675.458	0.0134265
675.536	0.0133503
675.614	0.0133900
675.693	0.0134423
675.771	0.0134192
675.849	0.0133019
675.927	0.0133232
676.005	0.0133800
676.083	0.0132962
676.161	0.0134213
676.239	0.0134196
676.318	0.0134618
676.396	0.0133484
676.474	0.0133027
676.552	0.0132898
676.630	0.0134467
676.708	0.0133799
676.786	0.0133323
676.864	0.0134251
676.943	0.0135012
677.021	0.0133081
677.099	0.0134395
677.177	0.0133292
677.255	0.0133427
677.333	0.0132642
677.411	0.0132730
677.489	0.0132436
677.568	0.0132557
677.646	0.0132623
677.724	0.0132970
677.802	0.0133500
677.880	0.0132853
677.958	0.0132333
678.036	0.0133701
678.114	0.0132826
678.193	0.0134673
678.271	0.0134134
678.349	0.0135406
678.427	0.0133981
678.505	0.0134102
678.583	0.0135478
678.661	0.0133901
678.739	0.0135143
678.818	0.0136055
678.896	0.0133881
678.974	0.0134074
679.052	0.0135806
679.130	0.0133188
679.208	0.0133974
679.286	0.0133605
679.364	0.0133693
679.443	0.0134109
679.521	0.0134391
679.599	0.0133948
679.677	0.0133392
679.755	0.0134383
679.833	0.0134404
679.911	0.0134223
679.989	0.0133203
680.068	0.0134528
680.146	0.0133427
680.224	0.0134733
680.302	0.0133331
680.380	0.0132959
680.458	0.0135027
680.536	0.0134881
680.614	0.0135115
680.693	0.0135038
680.771	0.0135999
680.849	0.0134401
680.927	0.0134815
681.005	0.0134008
681.083	0.0135902
681.161	0.0135620
681.239	0.0134618
681.318	0.0134659
681.396	0.0134312
681.474	0.0134889
681.552	0.0134452
681.630	0.0135450
681.708	0.0134298
681.786	0.0134705
681.864	0.0134824
681.943	0.0134033
682.021	0.0134578
682.099	0.0134016
682.177	0.0134953
682.255	0.0133360
682.333	0.0133246
682.411	0.0133450
682.489	0.0133848
682.568	0.0135136
682.646	0.0134854
682.724	0.0133884
682.802	0.0133965
682.880	0.0133244
682.958	0.0135550
683.036	0.0134395
683.114	0.0134653
683.193	0.0134638
683.271	0.0133968
683.349	0.0133057
683.427	0.0134586
683.505	0.0134207
683.583	0.0133372
683.661	0.0134102
683.739	0.0134112
683.818	0.0135830
683.896	0.0135804
683.974	0.0133574
684.052	0.0136256
684.130	0.0136240
684.208	0.0135867
684.286	0.0136467
684.364	0.0137333
684.443	0.0138462
684.521	0.0137836
684.599	0.0137934
684.677	0.0136955
684.755	0.0136933
684.833	0.0137730
684.911	0.0137427
684.989	0.0137594
685.068	0.0137447
685.146	0.0135382
685.224	0.0132668
685.302	0.0132558
685.380	0.0131122
685.458	0.0130571
685.536	0.0130479
685.614	0.0128398
685.693	0.0128141
685.771	0.0129433
685.849	0.0128937
685.927	0.0128738
686.005	0.0129980
686.083	0.0132657
686.161	0.0132907
686.239	0.0136063
686.318	0.0138955
686.396	0.0138901
686.474	0.0139681
686.552	0.0141824
686.630	0.0142168
686.708	0.0142247
686.786	0.0142043
686.864	0.0141405
686.943	0.0139012
687.021	0.0137338
687.099	0.0136880
687.177	0.0134827
687.255	0.0133333
687.333	0.0131906
687.411	0.0131477
687.489	0.0130940
687.568	0.0131313
687.646	0.0132816
687.724	0.0133072
687.802	0.0133916
687.880	0.0135945
687.958	0.0136157
688.036	0.0136674
688.114	0.0137451
688.193	0.0138735
688.271	0.0138665
688.349	0.0136865
688.427	0.0137967
688.505	0.0136314
688.583	0.0135584
688.661	0.0135839
688.739	0.0135825
688.818	0.0135841
688.896	0.0134942
688.974	0.0135236
689.052	0.0137043
689.130	0.0136960
689.208	0.0138474
689.286	0.0138027
689.364	0.0136685
689.443	0.0137132
689.521	0.0133769
689.599	0.0135308
689.677	0.0134489
689.755	0.0133047
689.833	0.0130873
689.911	0.0128561
689.989	0.0128452
690.068	0.0128062
690.146	0.0127904
690.224	0.0128841
690.302	0.0129659
690.380	0.0131679
690.458	0.0134530
690.536	0.0135520
690.614	0.0138152
690.693	0.0139181
690.771	0.0139960
690.849	0.0138422
690.927	0.0138139
691.005	0.0137332
691.083	0.0136523
691.161	0.0134351
691.239	0.0134177
691.318	0.0134830
691.396	0.0131648
691.474	0.0132203
691.552	0.0131524
691.630	0.0134404
691.708	0.0135020
691.786	0.0135779
691.864	0.0137865
691.943	0.0140788
692.021	0.0141694
692.099	0.0142795
692.177	0.0145769
692.255	0.0146300
692.333	0.0144981
692.411	0.0146342
692.489	0.0144328
692.568	0.0145221
692.646	0.0143105
692.724	0.0141753
692.802	0.0140097
692.880	0.0137328
692.958	0.0135828
693.036	0.0135429
693.114	0.0133591
693.193	0.0132079
693.271	0.0130666
693.349	0.0129904
693.427	0.0129292
693.505	0.0128840
693.583	0.0126817
693.661	0.0125964
693.739	0.0125211
693.818	0.0124404
693.896	0.0123750
693.974	0.0123098
694.052	0.0123450
694.130	0.0124767
694.208	0.0127403
694.286	0.0127322
694.364	0.0130687
694.443	0.0131326
694.521	0.0133345
694.599	0.0136038
694.677	0.0136559
694.755	0.0137183
694.833	0.0138020
694.911	0.0138676
694.989	0.0137366
695.068	0.0137041
695.146	0.0135472
695.224	0.0136117
695.302	0.0135100
695.380	0.0134402
695.458	0.0135775
695.536	0.0135302
695.614	0.0138274
695.693	0.0138256
695.771	0.0138848
695.849	0.0139735
695.927	0.0140740
696.005	0.0139411
696.083	0.0138585
696.161	0.0137691
696.239	0.0136071
696.318	0.0134197
696.396	0.0132458
696.474	0.0132008
696.552	0.0130970
696.630	0.0132035
696.708	0.0132466
696.786	0.0134927
696.864	0.0136225
696.943	0.0137370
697.021	0.0138937
697.099	0.0141000
697.177	0.0139991
697.255	0.0141021
697.333	0.0140955
697.411	0.0140929
697.489	0.0137849
697.568	0.0137596
697.646	0.0136269
697.724	0.0134350
697.802	0.0133553
697.880	0.0131851
697.958	0.0133411
698.036	0.0132950
698.114	0.0132922
698.193	0.0134906
698.271	0.0135419
698.349	0.0134387
698.427	0.0135835
698.505	0.0136321
698.583	0.0136032
698.661	0.0134126
698.739	0.0133369
698.818	0.0133056
698.896	0.0132145
698.974	0.0131263
699.052	0.0130353
699.130	0.0130845
699.208	0.0133076
699.286	0.0131664
699.364	0.0133258
699.443	0.0133482
699.521	0.0134451
699.599	0.0133376
699.677	0.0133477
699.755	0.0130833
699.833	0.0131344
699.911	0.0130514
699.989	0.0127671
700.068	0.0125610
700.146	0.0124082
700.224	0.0122906
700.302	0.0121335
700.380	0.0119686
700.458	0.0120475
700.536	0.0119606
700.614	0.0119865
700.693	0.0120407
700.771	0.0119716
700.849	0.0122636
700.927	0.0121106
701.005	0.0123627
701.083	0.0124548
701.161	0.0125443
701.239	0.0127328
701.318	0.0128457
701.396	0.0129937
701.474	0.0131537
701.552	0.0130747
701.630	0.0133927
701.708	0.0135075
701.786	0.0137895
701.864	0.0143440
701.943	0.0144542
702.021	0.0147569
702.099	0.0152454
702.177	0.0155545
702.255	0.0158241
702.333	0.0162614
702.411	0.0165263
702.489	0.0167481
702.568	0.0167794
702.646	0.0167164
702.724	0.0168237
702.802	0.0167393
702.880	0.0165030
702.958	0.0163683
703.036	0.0160776
703.114	0.0158658
703.193	0.0155495
703.271	0.0151322
703.349	0.0147665
703.427	0.0145143
703.505	0.0140854
703.583	0.0135351
703.661	0.0130379
703.739	0.0125617
703.818	0.0119871
703.896	0.0116647
703.974	0.0112098
704.052	0.0109222
704.130	0.0106889
704.208	0.0104517
704.286	0.0103473
704.364	0.0101724
704.443	0.0101864
704.521	0.0102103
704.599	0.0102688
704.677	0.0103145
704.755	0.0103877
704.833	0.0105561
704.911	0.0106348
704.989	0.0105115
705.068	0.0106043
705.146	0.0107403
705.224	0.0108058
705.302	0.0109096
705.380	0.0111391
705.458	0.0113773
705.536	0.0115794
705.614	0.0118211
705.693	0.0119274
705.771	0.0122489
705.849	0.0127882
705.927	0.0131260
706.005	0.0134486
706.083	0.0137149
706.161	0.0142493
706.239	0.0146443
706.318	0.0150133
706.396	0.0153858
706.474	0.0156109
706.552	0.0157714
706.630	0.0161829
706.708	0.0162827
706.786	0.0163892
706.864	0.0164143
706.943	0.0168028
707.021	0.0168190
707.099	0.0168330
707.177	0.0168514
707.255	0.0168639
707.333	0.0169901
707.411	0.0168768
707.489	0.0168793
707.568	0.0166510
707.646	0.0165256
707.724	0.0163028
707.802	0.0161481
707.880	0.0159008
707.958	0.0156173
708.036	0.0152613
708.114	0.0149397
708.193	0.0144896
708.271	0.0142699
708.349	0.0137278
708.427	0.0133781
708.505	0.0130328
708.583	0.0128467
708.661	0.0123785
708.739	0.0120806
708.818	0.0119613
708.896	0.0116847
708.974	0.0114204
709.052	0.0111858
709.130	0.0109749
709.208	0.0108398
709.286	0.0105898
709.364	0.0102592
709.443	0.0102640
709.521	0.0100506
709.599	0.00987282
709.677	0.00992287
709.755	0.00980835
709.833	0.0100204
709.911	0.0101222
709.989	0.00999168
710.068	0.0102415
710.146	0.0105418
710.224	0.0108314
710.302	0.0111543
710.380	0.0117387
710.458	0.0121001
710.536	0.0125260
710.614	0.0130823
710.693	0.0136864
710.771	0.0141259
710.849	0.0144422
710.927	0.0149564
711.005	0.0152776
711.083	0.0156200
711.161	0.0158498
711.239	0.0159374
711.318	0.0159351
711.396	0.0158227
711.474	0.0156293
711.552	0.0154773
711.630	0.0152350
711.708	0.0149468
711.786	0.0145549
711.864	0.0141718
711.943	0.0138308
712.021	0.0134548
712.099	0.0129892
712.177	0.0129125
712.255	0.0128208
712.333	0.0126742
712.411	0.0128276
712.489	0.0128152
712.568	0.0129485
712.646	0.0132193
712.724	0.0133932
712.802	0.0138297
712.880	0.0142063
712.958	0.0145997
713.036	0.0147153
713.114	0.0151160
713.193	0.0154204
713.271	0.0156111
713.349	0.0158186
713.427	0.0159632
713.505	0.0159074
713.583	0.0159175
713.661	0.0159123
713.739	0.0157302
713.818	0.0156349
713.896	0.0152798
713.974	0.0152708
714.052	0.0146452
714.130	0.0144295
714.208	0.0143116
714.286	0.0140334
714.364	0.0138447
714.443	0.0136314
714.521	0.0135183
714.599	0.0133337
714.677	0.0133312
714.755	0.0131615
714.833	0.0130145
714.911	0.0128860
714.989	0.0126543
715.068	0.0124786
715.146	0.0122784
715.224	0.0120498
715.302	0.0117786
715.380	0.0114187
715.458	0.0111708
715.536	0.0109402
715.614	0.0106546
715.693	0.0104728
715.771	0.0105569
715.849	0.0105558
715.927	0.0105508
716.005	0.0107754
716.083	0.0110352
716.161	0.0111217
716.239	0.0114303
716.318	0.0118806
716.396	0.0122080
716.474	0.0126228
716.552	0.0131028
716.630	0.0133373
716.708	0.0137067
716.786	0.0138496
716.864	0.0142267
716.943	0.0144027
717.021	0.0146568
717.099	0.0144966
717.177	0.0147538
717.255	0.0148739
717.333	0.0147308
717.411	0.0146355
717.489	0.0144425
717.568	0.0143220
717.646	0.0140973
717.724	0.0139725
717.802	0.0136569
717.880	0.0132452
717.958	0.0130359
718.036	0.0124947
718.114	0.0122224
718.193	0.0120731
718.271	0.0118764
718.349	0.0118099
718.427	0.0119626
718.505	0.0121765
718.583	0.0123830
718.661	0.0127967
718.739	0.0131799
718.818	0.0137984
718.896	0.0141682
718.974	0.0147445
719.052	0.0151624
719.130	0.0156829
719.208	0.0160444
719.286	0.0164385
719.364	0.0166492
719.443	0.0170613
719.521	0.0171941
719.599	0.0170609
719.677	0.0172182
719.755	0.0169592
719.833	0.0167699
719.911	0.0164954
719.989	0.0161539
720.068	0.0157068
720.146	0.0154767
720.224	0.0152460
720.302	0.0148412
720.380	0.0144318
720.458	0.0144563
720.536	0.0141448
720.614	0.0139074
720.693	0.0137816
720.771	0.0135667
720.849	0.0132637
720.927	0.0130694
721.005	0.0131223
721.083	0.0129265
721.161	0.0127594
721.239	0.0125854
721.318	0.0123120
721.396	0.0120450
721.474	0.0119079
721.552	0.0114275
721.630	0.0110712
721.708	0.0107815
721.786	0.0104498
721.864	0.0100295
721.943	0.00962914
722.021	0.00948875
722.099	0.00916885
722.177	0.00907875
722.255	0.00922180
722.333	0.00920326
722.411	0.00925102
722.489	0.00965065
722.568	0.0101266
722.646	0.0105856
722.724	0.0113369
722.802	0.0117295
722.880	0.0124858
722.958	0.0129764
723.036	0.0137012
723.114	0.0141689
723.193	0.0147029
723.271	0.0151876
723.349	0.0152596
723.427	0.0156336
723.505	0.0155087
723.583	0.0155847
723.661	0.0154957
723.739	0.0153628
723.818	0.0152440
723.896	0.0149870
723.974	0.0149687
724.052	0.0146809
724.130	0.0145819
724.208	0.0143713
724.286	0.0142114
724.364	0.0138354
724.443	0.0137016
724.521	0.0135725
724.599	0.0132780
724.677	0.0132121
724.755	0.0130772
724.833	0.0129709
724.911	0.0128293
724.989	0.0128600
725.068	0.0130267
725.146	0.0133324
725.224	0.0137982
725.302	0.0138909
725.380	0.0144274
725.458	0.0146649
725.536	0.0149763
725.614	0.0152576
725.693	0.0155101
725.771	0.0156944
725.849	0.0156911
725.927	0.0157622
726.005	0.0157621
726.083	0.0156053
726.161	0.0154105
726.239	0.0152188
726.318	0.0152093
726.396	0.0150128
726.474	0.0147012
726.552	0.0145952
726.630	0.0143610
726.708	0.0142676
726.786	0.0139883
726.864	0.0137181
726.943	0.0136011
727.021	0.0133630
727.099	0.0134366
727.177	0.0133476
727.255	0.0132469
727.333	0.0131757
727.411	0.0131063
727.489	0.0129752
727.568	0.0129649
727.646	0.0129133
727.724	0.0127811
727.802	0.0127293
727.880	0.0124569
727.958	0.0123769
728.036	0.0121091
728.114	0.0117914
728.193	0.0116578
728.271	0.0112359
728.349	0.0109640
728.427	0.0107833
728.505	0.0103851
728.583	0.0103291
728.661	0.00998581
728.739	0.0100935
728.818	0.00997345
728.896	0.0101633
728.974	0.0102675
729.052	0.0104241
729.130	0.0106161
729.208	0.0109415
729.286	0.0113377
729.364	0.0117283
729.443	0.0121525
729.521	0.0126347
729.599	0.0132370
729.677	0.0136015
729.755	0.0141183
729.833	0.0145814
729.911	0.0149609
729.989	0.0153208
730.068	0.0155947
730.146	0.0158796
730.224	0.0160815
730.302	0.0161310
730.380	0.0160466
730.458	0.0157863
730.536	0.0157073
730.614	0.0154754
730.693	0.0153936
730.771	0.0150933
730.849	0.0146986
730.927	0.0143026
731.005	0.0140120
731.083	0.0138630
731.161	0.0135522
731.239	0.0133789
731.318	0.0131604
731.396	0.0131197
731.474	0.0130249
731.552	0.0130330
731.630	0.0130520
731.708	0.0131270
731.786	0.0134300
731.864	0.0133216
731.943	0.0136267
732.021	0.0139161
732.099	0.0142005
732.177	0.0141164
732.255	0.0143465
732.333	0.0146026
732.411	0.0147336
732.489	0.0147593
732.568	0.0150478
732.646	0.0149492
732.724	0.0148793
732.802	0.0148997
732.880	0.0148556
732.958	0.0147631
733.036	0.0146976
733.114	0.0145224
733.193	0.0142369
733.271	0.0141317
733.349	0.0140626
733.427	0.0138092
733.505	0.0135280
733.583	0.0134367
733.661	0.0132501
733.739	0.0127963
733.818	0.0124826
733.896	0.0124120
733.974	0.0123568
734.052	0.0124702
734.130	0.0122765
734.208	0.0121311
734.286	0.0123199
734.364	0.0126200
734.443	0.0127215
734.521	0.0128075
734.599	0.0128721
734.677	0.0129112
734.755	0.0129594
734.833	0.0129261
734.911	0.0129848
734.989	0.0128609
735.068	0.0125939
735.146	0.0122958
735.224	0.0119909
735.302	0.0120043
735.380	0.0117133
735.458	0.0116136
735.536	0.0113713
735.614	0.0113425
735.693	0.0113155
735.771	0.0113995
735.849	0.0114607
735.927	0.0116325
736.005	0.0119862
736.083	0.0121212
736.161	0.0124107
736.239	0.0127903
736.318	0.0131400
736.396	0.0134872
736.474	0.0137861
736.552	0.0142729
736.630	0.0145689
736.708	0.0148444
736.786	0.0151734
736.864	0.0152697
736.943	0.0155590
737.021	0.0157645
737.099	0.0156696
737.177	0.0155627
737.255	0.0155609
737.333	0.0153261
737.411	0.0151317
737.489	0.0148289
737.568	0.0145724
737.646	0.0141380
737.724	0.0139149
737.802	0.0137450
737.880	0.0133961
737.958	0.0131046
738.036	0.0128218
738.114	0.0126760
738.193	0.0127042
738.271	0.0124919
738.349	0.0122667
738.427	0.0123225
738.505	0.0124290
738.583	0.0127097
738.661	0.0127309
738.739	0.0131513
738.818	0.0133961
738.896	0.0137106
738.974	0.0138315
739.052	0.0141324
739.130	0.0145478
739.208	0.0147328
739.286	0.0147826
739.364	0.0150240
739.443	0.0151736
739.521	0.0153796
739.599	0.0152946
739.677	0.0152817
739.755	0.0151053
739.833	0.0150603
739.911	0.0148281
739.989	0.0144884
740.068	0.0144401
740.146	0.0140599
740.224	0.0138340
740.302	0.0135962
740.380	0.0134550
740.458	0.0132370
740.536	0.0129010
740.614	0.0127252
740.693	0.0126779
740.771	0.0127214
740.849	0.0123889
740.927	0.0124157
741.005	0.0125647
741.083	0.0126356
741.161	0.0127934
741.239	0.0128984
741.318	0.0130314
741.396	0.0131284
741.474	0.0133766
741.552	0.0135384
741.630	0.0135661
741.708	0.0134741
741.786	0.0133607
741.864	0.0132416
741.943	0.0131055
742.021	0.0128178
742.099	0.0126006
742.177	0.0122970
742.255	0.0121790
742.333	0.0118748
742.411	0.0117236
742.489	0.0115956
742.568	0.0115057
742.646	0.0115006
742.724	0.0115044
742.802	0.0116855
742.880	0.0119471
742.958	0.0121319
743.036	0.0123435
743.114	0.0126311
743.193	0.0128076
743.271	0.0132443
743.349	0.0134236
743.427	0.0136340
743.505	0.0140184
743.583	0.0142774
743.661	0.0145490
743.739	0.0148016
743.818	0.0150511
743.896	0.0150342
743.974	0.0152354
744.052	0.0152757
744.130	0.0151411
744.208	0.0150690
744.286	0.0149404
744.364	0.0146813
744.443	0.0144788
744.521	0.0143829
744.599	0.0139375
744.677	0.0137549
744.755	0.0134676
744.833	0.0134178
744.911	0.0131188
744.989	0.0128101
745.068	0.0128374
745.146	0.0128228
745.224	0.0126739
745.302	0.0126905
745.380	0.0126042
745.458	0.0126790
745.536	0.0129221
745.614	0.0129617
745.693	0.0129292
745.771	0.0132735
745.849	0.0134772
745.927	0.0135998
746.005	0.0137870
746.083	0.0140521
746.161	0.0142701
746.239	0.0145842
746.318	0.0148003
746.396	0.0149387
746.474	0.0151291
746.552	0.0151247
746.630	0.0151459
746.708	0.0150690
746.786	0.0148930
746.864	0.0145700
746.943	0.0144427
747.021	0.0143900
747.099	0.0141483
747.177	0.0138004
747.255	0.0135578
747.333	0.0132548
747.411	0.0132465
747.489	0.0130090
747.568	0.0128275
747.646	0.0125623
747.724	0.0124635
747.802	0.0123956
747.880	0.0122093
747.958	0.0122867
748.036	0.0124116
748.114	0.0123856
748.193	0.0125459
748.271	0.0125538
748.349	0.0126740
748.427	0.0129842
748.505	0.0132384
748.583	0.0132220
748.661	0.0132434
748.739	0.0133066
748.818	0.0132665
748.896	0.0132880
748.974	0.0132973
749.052	0.0130653
749.130	0.0130116
749.208	0.0130085
749.286	0.0127967
749.364	0.0125126
749.443	0.0123660
749.521	0.0123367
749.599	0.0125201
749.677	0.0122735
749.755	0.0122964
749.833	0.0124955
749.911	0.0124760
749.989	0.0127164
750.068	0.0128421
750.146	0.0131193
750.224	0.0131565
750.302	0.0134382
750.380	0.0135021
750.458	0.0138378
750.536	0.0141376
750.614	0.0140465
750.693	0.0142976
750.771	0.0143739
750.849	0.0143947
750.927	0.0146426
751.005	0.0146696
751.083	0.0144933
751.161	0.0144258
751.239	0.0146010
751.318	0.0145588
751.396	0.0145000
751.474	0.0144026
751.552	0.0141982
751.630	0.0139540
751.708	0.0140654
751.786	0.0138662
751.864	0.0135377
751.943	0.0133236
752.021	0.0130933
752.099	0.0129595
752.177	0.0128733
752.255	0.0128077
752.333	0.0128178
752.411	0.0125758
752.489	0.0125761
752.568	0.0125515
752.646	0.0128058
752.724	0.0129402
752.802	0.0128530
752.880	0.0130695
752.958	0.0132715
753.036	0.0133810
753.114	0.0135971
753.193	0.0137991
753.271	0.0139417
753.349	0.0141346
753.427	0.0142189
753.505	0.0142492
753.583	0.0143542
753.661	0.0144017
753.739	0.0145039
753.818	0.0144645
753.896	0.0143704
753.974	0.0143527
754.052	0.0140899
754.130	0.0138448
754.208	0.0138127
754.286	0.0136332
754.364	0.0135907
754.443	0.0133511
754.521	0.0131013
754.599	0.0128869
754.677	0.0128429
754.755	0.0126611
754.833	0.0127830
754.911	0.0127772
754.989	0.0128970
755.068	0.0128019
755.146	0.0129127
755.224	0.0130902
755.302	0.0132208
755.380	0.0131796
755.458	0.0133434
755.536	0.0134578
755.614	0.0135737
755.693	0.0135953
755.771	0.0137446
755.849	0.0138444
755.927	0.0135934
756.005	0.0138007
756.083	0.0135916
756.161	0.0134765
756.239	0.0134354
756.318	0.0131907
756.396	0.0131824
756.474	0.0129376
756.552	0.0129810
756.630	0.0128590
756.708	0.0127437
756.786	0.0128213
756.864	0.0128052
756.943	0.0127734
757.021	0.0127969
757.099	0.0127779
757.177	0.0128577
757.255	0.0129556
757.333	0.0129424
757.411	0.0132265
757.489	0.0133404
757.568	0.0133628
757.646	0.0136159
757.724	0.0136714
757.802	0.0137959
757.880	0.0139200
757.958	0.0140406
758.036	0.0139558
758.114	0.0141549
758.193	0.0140750
758.271	0.0142506
758.349	0.0141345
758.427	0.0141181
758.505	0.0141055
758.583	0.0137778
758.661	0.0139417
758.739	0.0137493
758.818	0.0136824
758.896	0.0136512
758.974	0.0135310
759.052	0.0132870
759.130	0.0133786
759.208	0.0132110
759.286	0.0130546
759.364	0.0129716
759.443	0.0129684
759.521	0.0128608
759.599	0.0128885
759.677	0.0129499
759.755	0.0128007
759.833	0.0128751
759.911	0.0129057
759.989	0.0130101
760.068	0.0130806
760.146	0.0131554
760.224	0.0133661
760.302	0.0136010
760.380	0.0137081
760.458	0.0138230
760.536	0.0140285
760.614	0.0140392
760.693	0.0141611
760.771	0.0143493
760.849	0.0143346
760.927	0.0142344
761.005	0.0142033
761.083	0.0141619
761.161	0.0141927
761.239	0.0140702
761.318	0.0140075
761.396	0.0138812
761.474	0.0136863
761.552	0.0135529
761.630	0.0135087
761.708	0.0135190
761.786	0.0132907
761.864	0.0132365
761.943	0.0133669
762.021	0.0131892
762.099	0.0132437
762.177	0.0130718
762.255	0.0131062
762.333	0.0132507
762.411	0.0135236
762.489	0.0133537
762.568	0.0132630
762.646	0.0133369
762.724	0.0134972
762.802	0.0136603
762.880	0.0135248
762.958	0.0135255
763.036	0.0135893
763.114	0.0135882
763.193	0.0136983
763.271	0.0137711
763.349	0.0136968
763.427	0.0135421
763.505	0.0135901
763.583	0.0136023
763.661	0.0134972
763.739	0.0133195
763.818	0.0133133
763.896	0.0132212
763.974	0.0132285
764.052	0.0131353
764.130	0.0131709
764.208	0.0131096
764.286	0.0130341
764.364	0.0127097
764.443	0.0128618
764.521	0.0129831
764.599	0.0128270
764.677	0.0129767
764.755	0.0130489
764.833	0.0131167
764.911	0.0132973
764.989	0.0135040
765.068	0.0135239
765.146	0.0135474
765.224	0.0136932
765.302	0.0137331
765.380	0.0138025
765.458	0.0140031
765.536	0.0138799
765.614	0.0139495
765.693	0.0138952
765.771	0.0139497
765.849	0.0139039
765.927	0.0138540
766.005	0.0137740
766.083	0.0138616
766.161	0.0136119
766.239	0.0137285
766.318	0.0135402
766.396	0.0134416
766.474	0.0134128
766.552	0.0133427
766.630	0.0132611
766.708	0.0132462
766.786	0.0131393
766.864	0.0133081
766.943	0.0131285
767.021	0.0131324
767.099	0.0131497
767.177	0.0132114
767.255	0.0132043
767.333	0.0132175
767.411	0.0132909
767.489	0.0133595
767.568	0.0134138
767.646	0.0135716
767.724	0.0136139
767.802	0.0136808
767.880	0.0137733
767.958	0.0138746
768.036	0.0138174
768.114	0.0139411
768.193	0.0140280
768.271	0.0139231
768.349	0.0139189
768.427	0.0140324
768.505	0.0138381
768.583	0.0138797
768.661	0.0137836
768.739	0.0138015
768.818	0.0138383
768.896	0.0138306
768.974	0.0137643
769.052	0.0137325
769.130	0.0135839
769.208	0.0135828
769.286	0.0134892
769.364	0.0134202
769.443	0.0134832
769.521	0.0135609
769.599	0.0133452
769.677	0.0134245
769.755	0.0134433
769.833	0.0134992
769.911	0.0135232
769.989	0.0135931
770.068	0.0136495
770.146	0.0136901
770.224	0.0137163
770.302	0.0137782
770.380	0.0136914
770.458	0.0136394
770.536	0.0135436
770.614	0.0135558
770.693	0.0132742
770.771	0.0132990
770.849	0.0132701
770.927	0.0133242
771.005	0.0132117
771.083	0.0131013
771.161	0.0131786
771.239	0.0131166
771.318	0.0130521
771.396	0.0131715
771.474	0.0132224
771.552	0.0132313
771.630	0.0132465
771.708	0.0132859
771.786	0.0133288
771.864	0.0132468
771.943	0.0131338
772.021	0.0131277
772.099	0.0132549
772.177	0.0133341
772.255	0.0132797
772.333	0.0132543
772.411	0.0135300
772.489	0.0134027
772.568	0.0134084
772.646	0.0136331
772.724	0.0136176
772.802	0.0137114
772.880	0.0136715
772.958	0.0136197
773.036	0.0135853
773.114	0.0135725
773.193	0.0136480
773.271	0.0136562
773.349	0.0136024
773.427	0.0135378
773.505	0.0135524
773.583	0.0136033
773.661	0.0136299
773.739	0.0134804
773.818	0.0134346
773.896	0.0133558
773.974	0.0134981
774.052	0.0134068
774.130	0.0133884
774.208	0.0132836
774.286	0.0133770
774.364	0.0134022
774.443	0.0131998
774.521	0.0132520
774.599	0.0131777
774.677	0.0132951
774.755	0.0134193
774.833	0.0134388
774.911	0.0133549
774.989	0.0133864
775.068	0.0134396
775.146	0.0134396
775.224	0.0135154
775.302	0.0135044
775.380	0.0135658
775.458	0.0135979
775.536	0.0136069
775.614	0.0136744
775.693	0.0137283
775.771	0.0137323
775.849	0.0137553
775.927	0.0136812
776.005	0.0138921
776.083	0.0137139
776.161	0.0138502
776.239	0.0137461
776.318	0.0138919
776.396	0.0137533
776.474	0.0137582
776.552	0.0137675
776.630	0.0138428
776.708	0.0138809
776.786	0.0137819
776.864	0.0137828
776.943	0.0136992
777.021	0.0138315
777.099	0.0137752
777.177	0.0136352
777.255	0.0135973
777.333	0.0136198
777.411	0.0135632
777.489	0.0133622
777.568	0.0133708
777.646	0.0134273
777.724	0.0133334
777.802	0.0132690
777.880	0.0132418
777.958	0.0132256
778.036	0.0130170
778.114	0.0130672
778.193	0.0131837
778.271	0.0131634
778.349	0.0130559
778.427	0.0131088
778.505	0.0130305
778.583	0.0131532
778.661	0.0130108
778.739	0.0129617
778.818	0.0131227
778.896	0.0132092
778.974	0.0133198
779.052	0.0134374
779.130	0.0133971
779.208	0.0133099
779.286	0.0135515
779.364	0.0135993
779.443	0.0136131
779.521	0.0136887
779.599	0.0137914
779.677	0.0138518
779.755	0.0138021
779.833	0.0137934
779.911	0.0137769
779.989	0.0137855
780.068	0.0137155
780.146	0.0136181
780.224	0.0137412
780.302	0.0135934
780.380	0.0134068
780.458	0.0133157
780.536	0.0133706
780.614	0.0133491
780.693	0.0132460
780.771	0.0133337
780.849	0.0133447
780.927	0.0132355
781.005	0.0133224
781.083	0.0133549
781.161	0.0133524
781.239	0.0132977
781.318	0.0133857
781.396	0.0133483
781.474	0.0132462
781.552	0.0134107
781.630	0.0135453
781.708	0.0133795
781.786	0.0134650
781.864	0.0134821
781.943	0.0133871
782.021	0.0134361
782.099	0.0135099
782.177	0.0134029
782.255	0.0134735
782.333	0.0133642
782.411	0.0134423
782.489	0.0136272
782.568	0.0135496
782.646	0.0135069
782.724	0.0135102
782.802	0.0135532
782.880	0.0135607
782.958	0.0135593
783.036	0.0137111
783.114	0.0135781
783.193	0.0135797
783.271	0.0136185
783.349	0.0135980
783.427	0.0135181
783.505	0.0134750
783.583	0.0136648
783.661	0.0136748
783.739	0.0137123
783.818	0.0136583
783.896	0.0137476
783.974	0.0136486
784.052	0.0136660
784.130	0.0137270
784.208	0.0137709
784.286	0.0135580
784.364	0.0135914
784.443	0.0136806
784.521	0.0136639
784.599	0.0136298
784.677	0.0135448
784.755	0.0137321
784.833	0.0136031
784.911	0.0135622
784.989	0.0134987
785.068	0.0135317
785.146	0.0135835
785.224	0.0134801
785.302	0.0135385
785.380	0.0134262
785.458	0.0135088
785.536	0.0134243
785.614	0.0132320
785.693	0.0133210
785.771	0.0132625
785.849	0.0133081
785.927	0.0132750
786.005	0.0133308
786.083	0.0132434
786.161	0.0132295
786.239	0.0132255
786.318	0.0131838
786.396	0.0132765
786.474	0.0133395
786.552	0.0134298
786.630	0.0134467
786.708	0.0135155
786.786	0.0135995
786.864	0.0135403
786.943	0.0134785
787.021	0.0136678
787.099	0.0136605
787.177	0.0137591
787.255	0.0136269
787.333	0.0137207
787.411	0.0137897
787.489	0.0135435
787.568	0.0135178
787.646	0.0135035
787.724	0.0134869
787.802	0.0136437
787.880	0.0134917
787.958	0.0133761
788.036	0.0133602
788.114	0.0133473
788.193	0.0132806
788.271	0.0133993
788.349	0.0134224
788.427	0.0132980
788.505	0.0132796
788.583	0.0132796
788.661	0.0133141
788.739	0.0134053
788.818	0.0132855
788.896	0.0133760
788.974	0.0134212
789.052	0.0133035
789.130	0.0133400
789.208	0.0133665
789.286	0.0134927
789.364	0.0135979
789.443	0.0136102
789.521	0.0135548
789.599	0.0136717
789.677	0.0135860
789.755	0.0136565
789.833	0.0137312
789.911	0.0136758
789.989	0.0136556
790.068	0.0137435
790.146	0.0137684
790.224	0.0137195
790.302	0.0135028
790.380	0.0136459
790.458	0.0136011
790.536	0.0135119
790.614	0.0135927
790.693	0.0135962
790.771	0.0133672
790.849	0.0134106
790.927	0.0133215
791.005	0.0133720
791.083	0.0133759
791.161	0.0133460
791.239	0.0132915
791.318	0.0132976
791.396	0.0131863
791.474	0.0131948
791.552	0.0135750
791.630	0.0134658
791.708	0.0134472
791.786	0.0135375
791.864	0.0135390
791.943	0.0135233
792.021	0.0136353
792.099	0.0137539
792.177	0.0139497
792.255	0.0138226
792.333	0.0137521
792.411	0.0138393
792.489	0.0138239
792.568	0.0138368
792.646	0.0137524
792.724	0.0137947
792.802	0.0137025
792.880	0.0135698
792.958	0.0135145
793.036	0.0135103
793.114	0.0135624
793.193	0.0135373
793.271	0.0135369
793.349	0.0132238
793.427	0.0133815
793.505	0.0133820
793.583	0.0134184
793.661	0.0131718
793.739	0.0131176
793.818	0.0132838
793.896	0.0131493
793.974	0.0131503
794.052	0.0132078
794.130	0.0132509
794.208	0.0132845
794.286	0.0131815
794.364	0.0132908
794.443	0.0133970
794.521	0.0132906
794.599	0.0134774
794.677	0.0135840
794.755	0.0134721
794.833	0.0135440
794.911	0.0135682
794.989	0.0135674
795.068	0.0134834
795.146	0.0135889
795.224	0.0136339
795.302	0.0135863
795.380	0.0133945
795.458	0.0134630
795.536	0.0135905
795.614	0.0134547
795.693	0.0133279
795.771	0.0134701
795.849	0.0133607
795.927	0.0133807
796.005	0.0133334
796.083	0.0134295
796.161	0.0133662
796.239	0.0132829
796.318	0.0131995
796.396	0.0131738
796.474	0.0132597
796.552	0.0132688
796.630	0.0131235
796.708	0.0131451
796.786	0.0132294
796.864	0.0133498
796.943	0.0132928
797.021	0.0133142
797.099	0.0131408
797.177	0.0132844
797.255	0.0134357
797.333	0.0132450
797.411	0.0134592
797.489	0.0133607
797.568	0.0133833
797.646	0.0132877
797.724	0.0134890
797.802	0.0135172
797.880	0.0134637
797.958	0.0135411
798.036	0.0135760
798.114	0.0136097
798.193	0.0137641
798.271	0.0135128
798.349	0.0135229
798.427	0.0136181
798.505	0.0137355
798.583	0.0136571
798.661	0.0137031
798.739	0.0136312
798.818	0.0139424
798.896	0.0138744
798.974	0.0138651
799.052	0.0138023
799.130	0.0139175
799.208	0.0136778
799.286	0.0137415
799.364	0.0137953
799.443	0.0136858
799.521	0.0137847
799.599	0.0137068
799.677	0.0136854
799.755	0.0136514
799.833	0.0136597
799.911	0.0138121
799.989	0.0136320
800.068	0.0136414
800.146	0.0136948
800.224	0.0136124
800.302	0.0135360
800.380	0.0135037
800.458	0.0134536
800.536	0.0133794
800.614	0.0132866
800.693	0.0131414
800.771	0.0131799
800.849	0.0130779
800.927	0.0130089
801.005	0.0128898
801.083	0.0129747
801.161	0.0130042
801.239	0.0128062
801.318	0.0127434
801.396	0.0128891
801.474	0.0128706
801.552	0.0128339
801.630	0.0129414
801.708	0.0129741
801.786	0.0130225
801.864	0.0130915
801.943	0.0129236
802.021	0.0132941
802.099	0.0134473
802.177	0.0133018
802.255	0.0132641
802.333	0.0133568
802.411	0.0134680
802.489	0.0136799
802.568	0.0136089
802.646	0.0138260
802.724	0.0137314
802.802	0.0137220
802.880	0.0138686
802.958	0.0138411
803.036	0.0138223
803.114	0.0139371
803.193	0.0139085
803.271	0.0139320
803.349	0.0139487
803.427	0.0138976
803.505	0.0139948
803.583	0.0140772
803.661	0.0139585
803.739	0.0139025
803.818	0.0138181
803.896	0.0136582
803.974	0.0136590
804.052	0.0137788
804.130	0.0136658
804.208	0.0136074
804.286	0.0136481
804.364	0.0136053
804.443	0.0137246
804.521	0.0135201
804.599	0.0135565
804.677	0.0133990
804.755	0.0134132
804.833	0.0133513
804.911	0.0133488
804.989	0.0133391
805.068	0.0132772
805.146	0.0133236
805.224	0.0132227
805.302	0.0131699
805.380	0.0131554
805.458	0.0131895
805.536	0.0130444
805.614	0.0131023
805.693	0.0130959
805.771	0.0131308
805.849	0.0131223
805.927	0.0130939
806.005	0.0130102
806.083	0.0129604
806.161	0.0130099
806.239	0.0130481
806.318	0.0130331
806.396	0.0131819
806.474	0.0129966
806.552	0.0130629
806.630	0.0130475
806.708	0.0130930
806.786	0.0130679
806.864	0.0130339
806.943	0.0131370
807.021	0.0132412
807.099	0.0131878
807.177	0.0135239
807.255	0.0134675
807.333	0.0133957
807.411	0.0134624
807.489	0.0132960
807.568	0.0136652
807.646	0.0137219
807.724	0.0135931
807.802	0.0136551
807.880	0.0137764
807.958	0.0136774
808.036	0.0139112
808.114	0.0138780
808.193	0.0138342
808.271	0.0137282
808.349	0.0140369
808.427	0.0138533
808.505	0.0138737
808.583	0.0139022
808.661	0.0137612
808.739	0.0136282
808.818	0.0135084
808.896	0.0137447
808.974	0.0136735
809.052	0.0136073
809.130	0.0134765
809.208	0.0135201
809.286	0.0134354
809.364	0.0135802
809.443	0.0134068
809.521	0.0135046
809.599	0.0135671
809.677	0.0135425
809.755	0.0136269
809.833	0.0136129
809.911	0.0136488
809.989	0.0135531
810.068	0.0136550
810.146	0.0137431
810.224	0.0137296
810.302	0.0138354
810.380	0.0137936
810.458	0.0137156
810.536	0.0136798
810.614	0.0137296
810.693	0.0137814
810.771	0.0136900
810.849	0.0135392
810.927	0.0135091
811.005	0.0136744
811.083	0.0134879
811.161	0.0133807
811.239	0.0133874
811.318	0.0135200
811.396	0.0133202
811.474	0.0131847
811.552	0.0130846
811.630	0.0130963
811.708	0.0131119
811.786	0.0130691
811.864	0.0128898
811.943	0.0129819
812.021	0.0131281
812.099	0.0130833
812.177	0.0129523
812.255	0.0129731
812.333	0.0129529
812.411	0.0131223
812.489	0.0130708
812.568	0.0130965
812.646	0.0131310
812.724	0.0132089
812.802	0.0133906
812.880	0.0132785
812.958	0.0130975
813.036	0.0133720
813.114	0.0134645
813.193	0.0132834
813.271	0.0134730
813.349	0.0136515
813.427	0.0134698
813.505	0.0134389
813.583	0.0136224
813.661	0.0136423
813.739	0.0137234
813.818	0.0135670
813.896	0.0136774
813.974	0.0136890
814.052	0.0134866
814.130	0.0137146
814.208	0.0136694
814.286	0.0136900
814.364	0.0137425
814.443	0.0136205
814.521	0.0136673
814.599	0.0136883
814.677	0.0137797
814.755	0.0137029
814.833	0.0135213
814.911	0.0137084
814.989	0.0137262
815.068	0.0137044
815.146	0.0138400
815.224	0.0138593
815.302	0.0137225
815.380	0.0137538
815.458	0.0137918
815.536	0.0137095
815.614	0.0137394
815.693	0.0138773
815.771	0.0137331
815.849	0.0137616
815.927	0.0138129
816.005	0.0138932
816.083	0.0138728
816.161	0.0138755
816.239	0.0137692
816.318	0.0138838
816.396	0.0139554
816.474	0.0137833
816.552	0.0138702
816.630	0.0138517
816.708	0.0137798
816.786	0.0139493
816.864	0.0138524
816.943	0.0137116
817.021	0.0137362
817.099	0.0135350
817.177	0.0135609
817.255	0.0134095
817.333	0.0133770
817.411	0.0133701
817.489	0.0132693
817.568	0.0131475
817.646	0.0130988
817.724	0.0130352
817.802	0.0128326
817.880	0.0129878
817.958	0.0128544
818.036	0.0127573
818.114	0.0127428
818.193	0.0128551
818.271	0.0127802
818.349	0.0127184
818.427	0.0126735
818.505	0.0127396
818.583	0.0129167
818.661	0.0128834
818.739	0.0126975
818.818	0.0126929
818.896	0.0127493
818.974	0.0129778
819.052	0.0130116
819.130	0.0130397
819.208	0.0130332
819.286	0.0132031
819.364	0.0132479
819.443	0.0133268
819.521	0.0134045
819.599	0.0134022
819.677	0.0134294
819.755	0.0134758
819.833	0.0135483
819.911	0.0137834
819.989	0.0136968
820.068	0.0136696
820.146	0.0136055
820.224	0.0136451
820.302	0.0137345
820.380	0.0136676
820.458	0.0137959
820.536	0.0136236
820.614	0.0136247
820.693	0.0137280
820.771	0.0136684
820.849	0.0137111
820.927	0.0137154
821.005	0.0136941
821.083	0.0135905
821.161	0.0136679
821.239	0.0135956
821.318	0.0136000
821.396	0.0136643
821.474	0.0137499
821.552	0.0135987
821.630	0.0136220
821.708	0.0137163
821.786	0.0136449
821.864	0.0136462
821.943	0.0136716
822.021	0.0136720
822.099	0.0135350
822.177	0.0134989
822.255	0.0136710
822.333	0.0134664
822.411	0.0135707
822.489	0.0136572
822.568	0.0136707
822.646	0.0136187
822.724	0.0135174
822.802	0.0137122
822.880	0.0137067
822.958	0.0134717
823.036	0.0135774
823.114	0.0135203
823.193	0.0135312
823.271	0.0134067
823.349	0.0135076
823.427	0.0135648
823.505	0.0136092
823.583	0.0135538
823.661	0.0135854
823.739	0.0134508
823.818	0.0133042
823.896	0.0135082
823.974	0.0134229
824.052	0.0133102
824.130	0.0132462
824.208	0.0134302
824.286	0.0132133
824.364	0.0131239
824.443	0.0131167
824.521	0.0130318
824.599	0.0128138
824.677	0.0128604
824.755	0.0128806
824.833	0.0130296
824.911	0.0127598
824.989	0.0128180
825.068	0.0128321
825.146	0.0128432
825.224	0.0128185
825.302	0.0127730
825.380	0.0128902
825.458	0.0130073
825.536	0.0129401
825.614	0.0130687
825.693	0.0131753
825.771	0.0131862
825.849	0.0131874
825.927	0.0132442
826.005	0.0132829
826.083	0.0134037
826.161	0.0135427
826.239	0.0134478
826.318	0.0135439
826.396	0.0136250
826.474	0.0137183
826.552	0.0138461
826.630	0.0139108
826.708	0.0138126
826.786	0.0139287
826.864	0.0138155
826.943	0.0138162
827.021	0.0139961
827.099	0.0137474
827.177	0.0137159
827.255	0.0137140
827.333	0.0136936
827.411	0.0137157
827.489	0.0135984
827.568	0.0135328
827.646	0.0135842
827.724	0.0134899
827.802	0.0134501
827.880	0.0134090
827.958	0.0133897
828.036	0.0135215
828.114	0.0133434
828.193	0.0134512
828.271	0.0134087
828.349	0.0133006
828.427	0.0133991
828.505	0.0134034
828.583	0.0134108
828.661	0.0135677
828.739	0.0135830
828.818	0.0134330
828.896	0.0135003
828.974	0.0136256
829.052	0.0136641
829.130	0.0136144
829.208	0.0136287
829.286	0.0136543
829.364	0.0136332
829.443	0.0135734
829.521	0.0136628
829.599	0.0136616
829.677	0.0135763
829.755	0.0134786
829.833	0.0134366
829.911	0.0134321
829.989	0.0134125
830.068	0.0134573
830.146	0.0133730
830.224	0.0132725
830.302	0.0132137
830.380	0.0131689
830.458	0.0132240
830.536	0.0132992
830.614	0.0133040
830.693	0.0133430
830.771	0.0132013
830.849	0.0131149
830.927	0.0130676
831.005	0.0132316
831.083	0.0130710
831.161	0.0130867
831.239	0.0130876
831.318	0.0132841
831.396	0.0130966
831.474	0.0131876
831.552	0.0133212
831.630	0.0131593
831.708	0.0133130
831.786	0.0132552
831.864	0.0132986
831.943	0.0133477
832.021	0.0133418
832.099	0.0133923
832.177	0.0134016
832.255	0.0132796
832.333	0.0133534
832.411	0.0135225
832.489	0.0134046
832.568	0.0134384
832.646	0.0134380
832.724	0.0135061
832.802	0.0135562
832.880	0.0135430
832.958	0.0136185
833.036	0.0136773
833.114	0.0138470
833.193	0.0138033
833.271	0.0137359
833.349	0.0138188
833.427	0.0139003
833.505	0.0138660
833.583	0.0137077
833.661	0.0138697
833.739	0.0139130
833.818	0.0137812
833.896	0.0137048
833.974	0.0137431
834.052	0.0138171
834.130	0.0136198
834.208	0.0136019
834.286	0.0135991
834.364	0.0136186
834.443	0.0135320
834.521	0.0134802
834.599	0.0133964
834.677	0.0132826
834.755	0.0133459
834.833	0.0134144
834.911	0.0132922
834.989	0.0133062
835.068	0.0133026
835.146	0.0132386
835.224	0.0132407
835.302	0.0133692
835.380	0.0133979
835.458	0.0133693
835.536	0.0133141
835.614	0.0134940
835.693	0.0135139
835.771	0.0134650
835.849	0.0134746
835.927	0.0133903
836.005	0.0134258
836.083	0.0135384
836.161	0.0135225
836.239	0.0135677
836.318	0.0134676
836.396	0.0134003
836.474	0.0134594
836.552	0.0133598
836.630	0.0134857
836.708	0.0135456
836.786	0.0134372
836.864	0.0133235
836.943	0.0134698
837.021	0.0134354
837.099	0.0133638
837.177	0.0134229
837.255	0.0133585
837.333	0.0134673
837.411	0.0134703
837.489	0.0132462
837.568	0.0133184
837.646	0.0135172
837.724	0.0136176
837.802	0.0133901
837.880	0.0134498
837.958	0.0133208
838.036	0.0134718
838.114	0.0134211
838.193	0.0134279
838.271	0.0134044
838.349	0.0133532
838.427	0.0134073
838.505	0.0134674
838.583	0.0134032
838.661	0.0133329
838.739	0.0132709
838.818	0.0132418
838.896	0.0133400
838.974	0.0132793
839.052	0.0133660
839.130	0.0131590
839.208	0.0133314
839.286	0.0133911
839.364	0.0134440
839.443	0.0134818
839.521	0.0135302
839.599	0.0135355
839.677	0.0135693
839.755	0.0136430
839.833	0.0136237
839.911	0.0136192
839.989	0.0136771
840.068	0.0137185
840.146	0.0137414
840.224	0.0137045
840.302	0.0136090
840.380	0.0137291
840.458	0.0137503
840.536	0.0135674
840.614	0.0136575
840.693	0.0135447
840.771	0.0136768
840.849	0.0137077
840.927	0.0134577
841.005	0.0135054
841.083	0.0136191
841.161	0.0133905
841.239	0.0132977
841.318	0.0132690
841.396	0.0132700
841.474	0.0132729
841.552	0.0132478
841.630	0.0131288
841.708	0.0131565
841.786	0.0132268
841.864	0.0133088
841.943	0.0131477
842.021	0.0132577
842.099	0.0131951
842.177	0.0132648
842.255	0.0132581
842.333	0.0133570
842.411	0.0132920
842.489	0.0135683
842.568	0.0136026
842.646	0.0135825
842.724	0.0135594
842.802	0.0134888
842.880	0.0136786
842.958	0.0137295
843.036	0.0137225
843.114	0.0136378
843.193	0.0136909
843.271	0.0136260
843.349	0.0136037
843.427	0.0134545
843.505	0.0135331
843.583	0.0135673
843.661	0.0136001
843.739	0.0136421
843.818	0.0135519
843.896	0.0135182
843.974	0.0134730
844.052	0.0134066
844.130	0.0134540
844.208	0.0135069
844.286	0.0134686
844.364	0.0134528
844.443	0.0134925
844.521	0.0133687
844.599	0.0135439
844.677	0.0134365
844.755	0.0134316
844.833	0.0134531
844.911	0.0135703
844.989	0.0133534
845.068	0.0135600
845.146	0.0134255
845.224	0.0135829
845.302	0.0134642
845.380	0.0134315
845.458	0.0134280
845.536	0.0133072
845.614	0.0133015
845.693	0.0134522
845.771	0.0134589
845.849	0.0134086
845.927	0.0133010
846.005	0.0133273
846.083	0.0133067
846.161	0.0131709
846.239	0.0133575
846.318	0.0133967
846.396	0.0134749
846.474	0.0133454
846.552	0.0134222
846.630	0.0133932
846.708	0.0133973
846.786	0.0134461
846.864	0.0133366
846.943	0.0133997
847.021	0.0133698
847.099	0.0134534
847.177	0.0133962
847.255	0.0134061
847.333	0.0135770
847.411	0.0135442
847.489	0.0133881
847.568	0.0132864
847.646	0.0134954
847.724	0.0134962
847.802	0.0134910
847.880	0.0134077
847.958	0.0133890
848.036	0.0135508
848.114	0.0135603
848.193	0.0134363
848.271	0.0133026
848.349	0.0135147
848.427	0.0135441
848.505	0.0133884
848.583	0.0133842
848.661	0.0134443
848.739	0.0135540
848.818	0.0135088
848.896	0.0135428
848.974	0.0135183
849.052	0.0136443
849.130	0.0135106
849.208	0.0133397
849.286	0.0134581
849.364	0.0135070
849.443	0.0135935
849.521	0.0137070
849.599	0.0136872
849.677	0.0135571
849.755	0.0135168
849.833	0.0135693
849.911	0.0136520
849.989	0.0135319
850.068	0.0136633
850.146	0.0138582
850.224	0.0136104
850.302	0.0135417
850.380	0.0135855
850.458	0.0137363
850.536	0.0136510
850.614	0.0135894
850.693	0.0136233
850.771	0.0135439
850.849	0.0135716
850.927	0.0134667
851.005	0.0134789
851.083	0.0135732
851.161	0.0134269
851.239	0.0134940
851.318	0.0135080
851.396	0.0134281
851.474	0.0134185
851.552	0.0133117
851.630	0.0133531
851.708	0.0133101
851.786	0.0134661
851.864	0.0134617
851.943	0.0135865
852.021	0.0134494
852.099	0.0133381
852.177	0.0133839
852.255	0.0133863
852.333	0.0135226
852.411	0.0134951
852.489	0.0133255
852.568	0.0133278
852.646	0.0133633
852.724	0.0134017
852.802	0.0133452
852.880	0.0132425
852.958	0.0134687
853.036	0.0133372
853.114	0.0133614
853.193	0.0133295
853.271	0.0133717
853.349	0.0134054
853.427	0.0135093
853.505	0.0133964
853.583	0.0132996
853.661	0.0133311
853.739	0.0134267
853.818	0.0134553
853.896	0.0134065
853.974	0.0132911
854.052	0.0134563
854.130	0.0134476
854.208	0.0134806
854.286	0.0135353
854.364	0.0134723
854.443	0.0132779
854.521	0.0133432
854.599	0.0133306
854.677	0.0133408
854.755	0.0134892
854.833	0.0135418
854.911	0.0135509
854.989	0.0134333
855.068	0.0135502
855.146	0.0135489
855.224	0.0135146
855.302	0.0135622
855.380	0.0135755
855.458	0.0134799
855.536	0.0136750
855.614	0.0136449
855.693	0.0134639
855.771	0.0136916
855.849	0.0135162
855.927	0.0134943
856.005	0.0137673
856.083	0.0136724
856.161	0.0136112
856.239	0.0135724
856.318	0.0137085
856.396	0.0137260
856.474	0.0136240
856.552	0.0136337
856.630	0.0137136
856.708	0.0137122
856.786	0.0135992
856.864	0.0136623
856.943	0.0136472
857.021	0.0135523
857.099	0.0135311
857.177	0.0135119
857.255	0.0134624
857.333	0.0135137
857.411	0.0137175
857.489	0.0135069
857.568	0.0134756
857.646	0.0135326
857.724	0.0135246
857.802	0.0134809
857.880	0.0135889
857.958	0.0134660
858.036	0.0134901
858.114	0.0135011
858.193	0.0134949
858.271	0.0135979
858.349	0.0135212
858.427	0.0135735
858.505	0.0133830
858.583	0.0135470
858.661	0.0134899
858.739	0.0135071
858.818	0.0133611
858.896	0.0134678
858.974	0.0135452
859.052	0.0134347
859.130	0.0132923
859.208	0.0134210
859.286	0.0135139
859.364	0.0135181
859.443	0.0133591
859.521	0.0134348
859.599	0.0134041
859.677	0.0133287
859.755	0.0134085
859.833	0.0132591
859.911	0.0132599
859.989	0.0133414
860.068	0.0133559
860.146	0.0133441
860.224	0.0133506
860.302	0.0133479
860.380	0.0133704
860.458	0.0132923
860.536	0.0131894
860.614	0.0133344
860.693	0.0133936
860.771	0.0134023
860.849	0.0135126
860.927	0.0134568
861.005	0.0135419
861.083	0.0134627
861.161	0.0134898
861.239	0.0134889
861.318	0.0135741
861.396	0.0135955
861.474	0.0135060
861.552	0.0134142
861.630	0.0136720
861.708	0.0137336
861.786	0.0136707
861.864	0.0135548
861.943	0.0134941
862.021	0.0135114
862.099	0.0135960
862.177	0.0135638
862.255	0.0138070
862.333	0.0135308
862.411	0.0135890
862.489	0.0136790
862.568	0.0136327
862.646	0.0136031
862.724	0.0137134
862.802	0.0136060
862.880	0.0134940
862.958	0.0134988
863.036	0.0135168
863.114	0.0134875
863.193	0.0136921
863.271	0.0135140
863.349	0.0135529
863.427	0.0134994
863.505	0.0135751
863.583	0.0134637
863.661	0.0134976
863.739	0.0136652
863.818	0.0134850
863.896	0.0136134
863.974	0.0136951
864.052	0.0135184
864.130	0.0135281
864.208	0.0134110
864.286	0.0135814
864.364	0.0135120
864.443	0.0136065
864.521	0.0134570
864.599	0.0135309
864.677	0.0136258
864.755	0.0136459
864.833	0.0134579
864.911	0.0135983
864.989	0.0133215
865.068	0.0134168
865.146	0.0135843
865.224	0.0133660
865.302	0.0133418
865.380	0.0133544
865.458	0.0132848
865.536	0.0133028
865.614	0.0133830
865.693	0.0134897
865.771	0.0135956
865.849	0.0133771
865.927	0.0131552
866.005	0.0134023
866.083	0.0135354
866.161	0.0133668
866.239	0.0134883
866.318	0.0134087
866.396	0.0135382
866.474	0.0135715
866.552	0.0133815
866.630	0.0134701
866.708	0.0136144
866.786	0.0135292
866.864	0.0134586
866.943	0.0136469
867.021	0.0134796
867.099	0.0134456
867.177	0.0135410
867.255	0.0135382
867.333	0.0133991
867.411	0.0133519
867.489	0.0133916
867.568	0.0133744
867.646	0.0135227
867.724	0.0134527
867.802	0.0134214
867.880	0.0134398
867.958	0.0134018
868.036	0.0136153
868.114	0.0136450
868.193	0.0135884
868.271	0.0135412
868.349	0.0136655
868.427	0.0135450
868.505	0.0137325
868.583	0.0137607
868.661	0.0138728
868.739	0.0137698
868.818	0.0136895
868.896	0.0135998
868.974	0.0138630
869.052	0.0136259
869.130	0.0136044
869.208	0.0136845
869.286	0.0135719
869.364	0.0135350
869.443	0.0136002
869.521	0.0136324
869.599	0.0133723
869.677	0.0135117
869.755	0.0136648
869.833	0.0135480
869.911	0.0135178
869.989	0.0135425
870.068	0.0134541
870.146	0.0134514
870.224	0.0134611
870.302	0.0134643
870.380	0.0134606
870.458	0.0135357
870.536	0.0135014
870.614	0.0134705
870.693	0.0133016
870.771	0.0134988
870.849	0.0134351
870.927	0.0133624
871.005	0.0133948
871.083	0.0133369
871.161	0.0133356
871.239	0.0134171
871.318	0.0133262
871.396	0.0133765
871.474	0.0134156
871.552	0.0133291
871.630	0.0132913
871.708	0.0132359
871.786	0.0133202
871.864	0.0135090
871.943	0.0133833
872.021	0.0134168
872.099	0.0134684
872.177	0.0134601
872.255	0.0134817
872.333	0.0134430
872.411	0.0134482
872.489	0.0134719
872.568	0.0135788
872.646	0.0135294
872.724	0.0135887
872.802	0.0135838
872.880	0.0135902
872.958	0.0135242
873.036	0.0135152
873.114	0.0135362
873.193	0.0135170
873.271	0.0134480
873.349	0.0135349
873.427	0.0135297
873.505	0.0136531
873.583	0.0134714
873.661	0.0134931
873.739	0.0136348
873.818	0.0135651
873.896	0.0135919
873.974	0.0135942
874.052	0.0133971
874.130	0.0134547
874.208	0.0135803
874.286	0.0136267
874.364	0.0134193
874.443	0.0135555
874.521	0.0134306
874.599	0.0136430
874.677	0.0134546
874.755	0.0135196
874.833	0.0135956
874.911	0.0135399
874.989	0.0135103
875.068	0.0136156
875.146	0.0135112
875.224	0.0135424
875.302	0.0134644
875.380	0.0134750
875.458	0.0135108
875.536	0.0134367
875.614	0.0133395
875.693	0.0134570
875.771	0.0133876
875.849	0.0133965
875.927	0.0135628
876.005	0.0135150
876.083	0.0136439
876.161	0.0133837
876.239	0.0135552
876.318	0.0135167
876.396	0.0134399
876.474	0.0134002
876.552	0.0134225
876.630	0.0133938
876.708	0.0135168
876.786	0.0135468
876.864	0.0134911
876.943	0.0134019
877.021	0.0134466
877.099	0.0134130
877.177	0.0133950
877.255	0.0133253
877.333	0.0134583
877.411	0.0133401
877.489	0.0133031
877.568	0.0135954
877.646	0.0134064
877.724	0.0134211
877.802	0.0134628
877.880	0.0135413
877.958	0.0136432
878.036	0.0135793
878.114	0.0136152
878.193	0.0136335
878.271	0.0137277
878.349	0.0137323
878.427	0.0134579
878.505	0.0135726
878.583	0.0136122
878.661	0.0136031
878.739	0.0135562
878.818	0.0134041
878.896	0.0134753
878.974	0.0133717
879.052	0.0133799
879.130	0.0134457
879.208	0.0133718
879.286	0.0134102
879.364	0.0136138
879.443	0.0135034
879.521	0.0135234
879.599	0.0136387
879.677	0.0135588
879.755	0.0134464
879.833	0.0135380
879.911	0.0136417
879.989	0.0135139
880.068	0.0135551
880.146	0.0134696
880.224	0.0135481
880.302	0.0135153
880.380	0.0135764
880.458	0.0135006
880.536	0.0135105
880.614	0.0134902
880.693	0.0134742
880.771	0.0133984
880.849	0.0135529
880.927	0.0134307
881.005	0.0135453
881.083	0.0135767
881.161	0.0134602
881.239	0.0135362
881.318	0.0134521
881.396	0.0134840
881.474	0.0133938
881.552	0.0135140
881.630	0.0134929
881.708	0.0134208
881.786	0.0134836
881.864	0.0133611
881.943	0.0135378
882.021	0.0136053
882.099	0.0134671
882.177	0.0135615
882.255	0.0135812
882.333	0.0136314
882.411	0.0136348
882.489	0.0134680
882.568	0.0134084
882.646	0.0135584
882.724	0.0134881
882.802	0.0135393
882.880	0.0134544
882.958	0.0134476
883.036	0.0135057
883.114	0.0132886
883.193	0.0134148
883.271	0.0132484
883.349	0.0133765
883.427	0.0134562
883.505	0.0135268
883.583	0.0133945
883.661	0.0134597
883.739	0.0136250
883.818	0.0135180
883.896	0.0134526
883.974	0.0135662
884.052	0.0136216
884.130	0.0134939
884.208	0.0135283
884.286	0.0135020
884.364	0.0134235
884.443	0.0133347
884.521	0.0133729
884.599	0.0133644
884.677	0.0134172
884.755	0.0133959
884.833	0.0133115
884.911	0.0134032
884.989	0.0133293
885.068	0.0133685
885.146	0.0133475
885.224	0.0134342
885.302	0.0135001
885.380	0.0134464
885.458	0.0132894
885.536	0.0134184
885.614	0.0135921
885.693	0.0133724
885.771	0.0133575
885.849	0.0134187
885.927	0.0135541
886.005	0.0134931
886.083	0.0133865
886.161	0.0134078
886.239	0.0135515
886.318	0.0134907
886.396	0.0136161
886.474	0.0136209
886.552	0.0135405
886.630	0.0134293
886.708	0.0134123
886.786	0.0135595
886.864	0.0134576
886.943	0.0133971
887.021	0.0133266
887.099	0.0133777
887.177	0.0133668
887.255	0.0132105
887.333	0.0133692
887.411	0.0134056
887.489	0.0133808
887.568	0.0135035
887.646	0.0136047
887.724	0.0133543
887.802	0.0133012
887.880	0.0134435
887.958	0.0134345
888.036	0.0133698
888.114	0.0134690
888.193	0.0134492
888.271	0.0133493
888.349	0.0134821
888.427	0.0134527
888.505	0.0132676
888.583	0.0134251
888.661	0.0135356
888.739	0.0134997
888.818	0.0134596
888.896	0.0134371
888.974	0.0136224
889.052	0.0134657
889.130	0.0135129
889.208	0.0133867
889.286	0.0134690
889.364	0.0133907
889.443	0.0134220
889.521	0.0133670
889.599	0.0134367
889.677	0.0134425
889.755	0.0134361
889.833	0.0135898
889.911	0.0135905
889.989	0.0135658
890.068	0.0133941
890.146	0.0134293
890.224	0.0136107
890.302	0.0134945
890.380	0.0134211
890.458	0.0134248
890.536	0.0133860
890.614	0.0135600
890.693	0.0133742
890.771	0.0133902
890.849	0.0133257
890.927	0.0134378
891.005	0.0133613
891.083	0.0133614
891.161	0.0135372
891.239	0.0134166
891.318	0.0134557
891.396	0.0134119
891.474	0.0133809
891.552	0.0134166
891.630	0.0133641
891.708	0.0134454
891.786	0.0133074
891.864	0.0133282
891.943	0.0131831
892.021	0.0132565
892.099	0.0131682
892.177	0.0133880
892.255	0.0133260
892.333	0.0133360
892.411	0.0133603
892.489	0.0133179
892.568	0.0133694
892.646	0.0134525
892.724	0.0133282
892.802	0.0134025
892.880	0.0135249
892.958	0.0135246
893.036	0.0136762
893.114	0.0135696
893.193	0.0133945
893.271	0.0134435
893.349	0.0135101
893.427	0.0136533
893.505	0.0134816
893.583	0.0135058
893.661	0.0135625
893.739	0.0136967
893.818	0.0136489
893.896	0.0135218
893.974	0.0136401
894.052	0.0137782
894.130	0.0138251
894.208	0.0137564
894.286	0.0134534
894.364	0.0136218
894.443	0.0135808
894.521	0.0134206
894.599	0.0135719
894.677	0.0136134
894.755	0.0134935
894.833	0.0133875
894.911	0.0135458
894.989	0.0134874
895.068	0.0132905
895.146	0.0134402
895.224	0.0133955
895.302	0.0133086
895.380	0.0132561
895.458	0.0133305
895.536	0.0134472
895.614	0.0133665
895.693	0.0133305
895.771	0.0134583
895.849	0.0134602
895.927	0.0132957
896.005	0.0133437
896.083	0.0133960
896.161	0.0136310
896.239	0.0135166
896.318	0.0133882
896.396	0.0136734
896.474	0.0134077
896.552	0.0134818
896.630	0.0135589
896.708	0.0134462
896.786	0.0136173
896.864	0.0135842
896.943	0.0134605
897.021	0.0135089
897.099	0.0133772
897.177	0.0135129
897.255	0.0134155
897.333	0.0133839
897.411	0.0134442
897.489	0.0134280
897.568	0.0134633
897.646	0.0135101
897.724	0.0132716
897.802	0.0133359
897.880	0.0133686
897.958	0.0133306
898.036	0.0135014
898.114	0.0133286
898.193	0.0132542
898.271	0.0133895
898.349	0.0132478
898.427	0.0133791
898.505	0.0134463
898.583	0.0133943
898.661	0.0133073
898.739	0.0133784
898.818	0.0135024
898.896	0.0135695
898.974	0.0134485
899.052	0.0133606
899.130	0.0134303
899.208	0.0134792
899.286	0.0135527
899.364	0.0136385
899.443	0.0134937
899.521	0.0134924
899.599	0.0135336
899.677	0.0134462
899.755	0.0134684
899.833	0.0135545
899.911	0.0134863
899.989	0.0134682
900.068	0.0134223
900.146	0.0134525
900.224	0.0135258
900.302	0.0134811
900.380	0.0133513
900.458	0.0135482
900.536	0.0135565
900.614	0.0135249
900.693	0.0134576
900.771	0.0134805
900.849	0.0135131
900.927	0.0134525
901.005	0.0134347
901.083	0.0133802
901.161	0.0133093
901.239	0.0133933
901.318	0.0133972
901.396	0.0133807
901.474	0.0133835
901.552	0.0134050
901.630	0.0135181
901.708	0.0136419
901.786	0.0134528
901.864	0.0134343
901.943	0.0134172
902.021	0.0136167
902.099	0.0136445
902.177	0.0135658
902.255	0.0135896
902.333	0.0135928
902.411	0.0134975
902.489	0.0134752
902.568	0.0136181
902.646	0.0135729
902.724	0.0136208
902.802	0.0134979
902.880	0.0133730
902.958	0.0134122
903.036	0.0135666
903.114	0.0136346
903.193	0.0136026
903.271	0.0134035
903.349	0.0134291
903.427	0.0135159
903.505	0.0133420
903.583	0.0131920
903.661	0.0132858
903.739	0.0131493
903.818	0.0131396
903.896	0.0131067
903.974	0.0130975
904.052	0.0131065
904.130	0.0131225
904.208	0.0131152
904.286	0.0132935
904.364	0.0132614
904.443	0.0133449
904.521	0.0133472
904.599	0.0133611
904.677	0.0133955
904.755	0.0134802
904.833	0.0134953
904.911	0.0133641
904.989	0.0134972
905.068	0.0137144
905.146	0.0135784
905.224	0.0136143
905.302	0.0135561
905.380	0.0137540
905.458	0.0135321
905.536	0.0135423
905.614	0.0136489
905.693	0.0134852
905.771	0.0135380
905.849	0.0135912
905.927	0.0134894
906.005	0.0134936
906.083	0.0135326
906.161	0.0133181
906.239	0.0134904
906.318	0.0134603
906.396	0.0134205
906.474	0.0134487
906.552	0.0134538
906.630	0.0133363
906.708	0.0133291
906.786	0.0134592
906.864	0.0132983
906.943	0.0133720
907.021	0.0133870
907.099	0.0134126
907.177	0.0133896
907.255	0.0135256
907.333	0.0135010
907.411	0.0133206
907.489	0.0134398
907.568	0.0134726
907.646	0.0133556
907.724	0.0134757
907.802	0.0134724
907.880	0.0135130
907.958	0.0135300
908.036	0.0135187
908.114	0.0135085
908.193	0.0135583
908.271	0.0136077
908.349	0.0135957
908.427	0.0134159
908.505	0.0133487
908.583	0.0133902
908.661	0.0133744
908.739	0.0132791
908.818	0.0133440
908.896	0.0132956
908.974	0.0132889
909.052	0.0132285
909.130	0.0131746
909.208	0.0133129
909.286	0.0134501
909.364	0.0133571
909.443	0.0133121
909.521	0.0133627
909.599	0.0134690
909.677	0.0134015
909.755	0.0133917
909.833	0.0135097
909.911	0.0134952
909.989	0.0134494
910.068	0.0132531
910.146	0.0134449
910.224	0.0133940
910.302	0.0134748
910.380	0.0134866
910.458	0.0135984
910.536	0.0137772
910.614	0.0136682
910.693	0.0137072
910.771	0.0136114
910.849	0.0137575
910.927	0.0137157
911.005	0.0137931
911.083	0.0138732
911.161	0.0136096
911.239	0.0136957
911.318	0.0137926
911.396	0.0136797
911.474	0.0135702
911.552	0.0136263
911.630	0.0136861
911.708	0.0136558
911.786	0.0136285
911.864	0.0135844
911.943	0.0134868
912.021	0.0133804
912.099	0.0134443
912.177	0.0134764
912.255	0.0134865
912.333	0.0135210
912.411	0.0133012
912.489	0.0133573
912.568	0.0133061
912.646	0.0133614
912.724	0.0135280
912.802	0.0132812
912.880	0.0132796
912.958	0.0133352
913.036	0.0133743
913.114	0.0132898
913.193	0.0133113
913.271	0.0131818
913.349	0.0132336
913.427	0.0132703
913.505	0.0132720
913.583	0.0132284
913.661	0.0133692
913.739	0.0132559
913.818	0.0133118
913.896	0.0135597
913.974	0.0135220
914.052	0.0135117
914.130	0.0135777
914.208	0.0136274
914.286	0.0136423
914.364	0.0137608
914.443	0.0137547
914.521	0.0138578
914.599	0.0137314
914.677	0.0138487
914.755	0.0137787
914.833	0.0138943
914.911	0.0137930
914.989	0.0138052
915.068	0.0137731
915.146	0.0136356
915.224	0.0136335
915.302	0.0134665
915.380	0.0134398
915.458	0.0134853
915.536	0.0132037
915.614	0.0132090
915.693	0.0132360
915.771	0.0131200
915.849	0.0132877
915.927	0.0132903
916.005	0.0132362
916.083	0.0130851
916.161	0.0132795
916.239	0.0132880
916.318	0.0133385
916.396	0.0133647
916.474	0.0132877
916.552	0.0132810
916.630	0.0132661
916.708	0.0133089
916.786	0.0133820
916.864	0.0134407
916.943	0.0135670
917.021	0.0134726
917.099	0.0134090
917.177	0.0135090
917.255	0.0136165
917.333	0.0135307
917.411	0.0135176
917.489	0.0135559
917.568	0.0136681
917.646	0.0136674
917.724	0.0137448
917.802	0.0135587
917.880	0.0137047
917.958	0.0136901
918.036	0.0136741
918.114	0.0135111
918.193	0.0136014
918.271	0.0135980
918.349	0.0134662
918.427	0.0136520
918.505	0.0135699
918.583	0.0135000
918.661	0.0134317
918.739	0.0133549
918.818	0.0133348
918.896	0.0133398
918.974	0.0133639
919.052	0.0133835
919.130	0.0132889
919.208	0.0134187
919.286	0.0134351
919.364	0.0134121
919.443	0.0133697
919.521	0.0133311
919.599	0.0134818
919.677	0.0132938
919.755	0.0133607
919.833	0.0133286
919.911	0.0134546
919.989	0.0134574
920.068	0.0133477
920.146	0.0133581
920.224	0.0133085
920.302	0.0133511
920.380	0.0133472
920.458	0.0133976
920.536	0.0134176
920.614	0.0134248
920.693	0.0134688
920.771	0.0134666
920.849	0.0135869
920.927	0.0135596
921.005	0.0135618
921.083	0.0136337
921.161	0.0136882
921.239	0.0135541
921.318	0.0135846
921.396	0.0135618
921.474	0.0136405
921.552	0.0136219
921.630	0.0135609
921.708	0.0135338
921.786	0.0135614
921.864	0.0135328
921.943	0.0133805
922.021	0.0134361
922.099	0.0133270
922.177	0.0133709
922.255	0.0132625
922.333	0.0132939
922.411	0.0132930
922.489	0.0130611
922.568	0.0130640
922.646	0.0131638
922.724	0.0131253
922.802	0.0130334
922.880	0.0131224
922.958	0.0130750
923.036	0.0130946
923.114	0.0131004
923.193	0.0132554
923.271	0.0131544
923.349	0.0132236
923.427	0.0133723
923.505	0.0133660
923.583	0.0133572
923.661	0.0135632
923.739	0.0135517
923.818	0.0136143
923.896	0.0136657
923.974	0.0135484
924.052	0.0137045
924.130	0.0138012
924.208	0.0136912
924.286	0.0137386
924.364	0.0137576
924.443	0.0137744
924.521	0.0138091
924.599	0.0137820
924.677	0.0137856
924.755	0.0136829
924.833	0.0135768
924.911	0.0136167
924.989	0.0135947
925.068	0.0134277
925.146	0.0133761
925.224	0.0133932
925.302	0.0133659
925.380	0.0133012
925.458	0.0133950
925.536	0.0133015
925.614	0.0133099
925.693	0.0133100
925.771	0.0133015
925.849	0.0131548
925.927	0.0131888
926.005	0.0132191
926.083	0.0132969
926.161	0.0133183
926.239	0.0134015
926.318	0.0133179
926.396	0.0134504
926.474	0.0134551
926.552	0.0135263
926.630	0.0135146
926.708	0.0134420
926.786	0.0136295
926.864	0.0136147
926.943	0.0134304
927.021	0.0134869
927.099	0.0135857
927.177	0.0134359
927.255	0.0134035
927.333	0.0135493
927.411	0.0134807
927.489	0.0135259
927.568	0.0136173
927.646	0.0135372
927.724	0.0135984
927.802	0.0137897
927.880	0.0137069
927.958	0.0135838
928.036	0.0136619
928.114	0.0137304
928.193	0.0136781
928.271	0.0136081
928.349	0.0135504
928.427	0.0136983
928.505	0.0137960
928.583	0.0135023
928.661	0.0134875
928.739	0.0134808
928.818	0.0133518
928.896	0.0133402
928.974	0.0133827
929.052	0.0132559
929.130	0.0132743
929.208	0.0132520
929.286	0.0132347
929.364	0.0132002
929.443	0.0132294
929.521	0.0132133
929.599	0.0131222
929.677	0.0131533
929.755	0.0132732
929.833	0.0133112
929.911	0.0133241
929.989	0.0132121
930.068	0.0132453
930.146	0.0132758
930.224	0.0132906
930.302	0.0133785
930.380	0.0133950
930.458	0.0135075
930.536	0.0134502
930.614	0.0136607
930.693	0.0137676
930.771	0.0136552
930.849	0.0137238
930.927	0.0137682
931.005	0.0136423
931.083	0.0137635
931.161	0.0138309
931.239	0.0137434
931.318	0.0138206
931.396	0.0138271
931.474	0.0138670
931.552	0.0137498
931.630	0.0136843
931.708	0.0136889
931.786	0.0136132
931.864	0.0135446
931.943	0.0136070
932.021	0.0134644
932.099	0.0134929
932.177	0.0135519
932.255	0.0135049
932.333	0.0133912
932.411	0.0134235
932.489	0.0133417
932.568	0.0133652
932.646	0.0133407
932.724	0.0132616
932.802	0.0134094
932.880	0.0134662
932.958	0.0133647
933.036	0.0134244
933.114	0.0133341
933.193	0.0134731
933.271	0.0134967
933.349	0.0134305
933.427	0.0136142
933.505	0.0135971
933.583	0.0135619
933.661	0.0136344
933.739	0.0135435
933.818	0.0134226
933.896	0.0136245
933.974	0.0136523
934.052	0.0136008
934.130	0.0133974
934.208	0.0134460
934.286	0.0133993
934.364	0.0133673
934.443	0.0134712
934.521	0.0134293
934.599	0.0133997
934.677	0.0134589
934.755	0.0135196
934.833	0.0134082
934.911	0.0134135
934.989	0.0134125
935.068	0.0135061
935.146	0.0133809
935.224	0.0134293
935.302	0.0134763
935.380	0.0135198
935.458	0.0133787
935.536	0.0135985
935.614	0.0134145
935.693	0.0134207
935.771	0.0133524
935.849	0.0134411
935.927	0.0135951
936.005	0.0134843
936.083	0.0135187
936.161	0.0135361
936.239	0.0134449
936.318	0.0134965
936.396	0.0134235
936.474	0.0134684
936.552	0.0135017
936.630	0.0134216
936.708	0.0133233
936.786	0.0134660
936.864	0.0133644
936.943	0.0133385
937.021	0.0133496
937.099	0.0134804
937.177	0.0135522
937.255	0.0135429
937.333	0.0134724
937.411	0.0136024
937.489	0.0134195
937.568	0.0135022
937.646	0.0135619
937.724	0.0135238
937.802	0.0134315
937.880	0.0136120
937.958	0.0136430
938.036	0.0136040
938.114	0.0136381
938.193	0.0137640
938.271	0.0137354
938.349	0.0135516
938.427	0.0136288
938.505	0.0135110
938.583	0.0135446
938.661	0.0135928
938.739	0.0135308
938.818	0.0134727
938.896	0.0132981
938.974	0.0132131
939.052	0.0131274
939.130	0.0132384
939.208	0.0132115
939.286	0.0131898
939.364	0.0130276
939.443	0.0130444
939.521	0.0131018
939.599	0.0132034
939.677	0.0133242
939.755	0.0133180
939.833	0.0133251
939.911	0.0133375
939.989	0.0134577
940.068	0.0135612
940.146	0.0135603
940.224	0.0135318
940.302	0.0134631
940.380	0.0137330
940.458	0.0136836
940.536	0.0136780
940.614	0.0137286
940.693	0.0136402
940.771	0.0136152
940.849	0.0136411
940.927	0.0137589
941.005	0.0136250
941.083	0.0135824
941.161	0.0136718
941.239	0.0136382
941.318	0.0135484
941.396	0.0136440
941.474	0.0136934
941.552	0.0134592
941.630	0.0134666
941.708	0.0134979
941.786	0.0135931
941.864	0.0135175
941.943	0.0134151
942.021	0.0135748
942.099	0.0135928
942.177	0.0136411
942.255	0.0134997
942.333	0.0135495
942.411	0.0134284
942.489	0.0134988
942.568	0.0133674
942.646	0.0133196
942.724	0.0133009
942.802	0.0135468
942.880	0.0133087
942.958	0.0134492
943.036	0.0133407
943.114	0.0134479
943.193	0.0132912
943.271	0.0132967
943.349	0.0133150
943.427	0.0132658
943.505	0.0132446
943.583	0.0131145
943.661	0.0131229
943.739	0.0133385
943.818	0.0131135
943.896	0.0131333
943.974	0.0131889
944.052	0.0132237
944.130	0.0132385
944.208	0.0133145
944.286	0.0132656
944.364	0.0132424
944.443	0.0133748
944.521	0.0133228
944.599	0.0133376
944.677	0.0134724
944.755	0.0135873
944.833	0.0134979
944.911	0.0134853
944.989	0.0135605
945.068	0.0133926
945.146	0.0134542
945.224	0.0135452
945.302	0.0136952
945.380	0.0135705
945.458	0.0135863
945.536	0.0135517
945.614	0.0134541
945.693	0.0134254
945.771	0.0135252
945.849	0.0135361
945.927	0.0134653
946.005	0.0133035
946.083	0.0135069
946.161	0.0134772
946.239	0.0133955
946.318	0.0135078
946.396	0.0137122
946.474	0.0134114
946.552	0.0133569
946.630	0.0134836
946.708	0.0136308
946.786	0.0136618
946.864	0.0135882
946.943	0.0136543
947.021	0.0136288
947.099	0.0136510
947.177	0.0137939
947.255	0.0136997
947.333	0.0138244
947.411	0.0137391
947.489	0.0136466
947.568	0.0138073
947.646	0.0136514
947.724	0.0136401
947.802	0.0135985
947.880	0.0137021
947.958	0.0135287
948.036	0.0135275
948.114	0.0134699
948.193	0.0133611
948.271	0.0133996
948.349	0.0133397
948.427	0.0134418
948.505	0.0133959
948.583	0.0134389
948.661	0.0132735
948.739	0.0132744
948.818	0.0133143
948.896	0.0133067
948.974	0.0133272
949.052	0.0134092
949.130	0.0134106
949.208	0.0133574
949.286	0.0132848
949.364	0.0134963
949.443	0.0134528
949.521	0.0134197
949.599	0.0132446
949.677	0.0132957
949.755	0.0134258
949.833	0.0132835
949.911	0.0133434
949.989	0.0133424
950.068	0.0132572
950.146	0.0134877
950.224	0.0135329
950.302	0.0133022
950.380	0.0133169
950.458	0.0135245
950.536	0.0134046
950.614	0.0133695
950.693	0.0134052
950.771	0.0133228
950.849	0.0134187
950.927	0.0135464
951.005	0.0135697
951.083	0.0133715
951.161	0.0133414
951.239	0.0135194
951.318	0.0134555
951.396	0.0135417
951.474	0.0136195
951.552	0.0136047
951.630	0.0135178
951.708	0.0135426
951.786	0.0135152
951.864	0.0136981
951.943	0.0137335
952.021	0.0136356
952.099	0.0136739
952.177	0.0137498
952.255	0.0137157
952.333	0.0137801
952.411	0.0137556
952.489	0.0137827
952.568	0.0136816
952.646	0.0137785
952.724	0.0137476
952.802	0.0137029
952.880	0.0137173
952.958	0.0136462
953.036	0.0136249
953.114	0.0136551
953.193	0.0136966
953.271	0.0136190
953.349	0.0135730
953.427	0.0136150
953.505	0.0134929
953.583	0.0134142
953.661	0.0135287
953.739	0.0135604
953.818	0.0135838
953.896	0.0135995
953.974	0.0134091
954.052	0.0135254
954.130	0.0135069
954.208	0.0136646
954.286	0.0135400
954.364	0.0135381
954.443	0.0134248
954.521	0.0134784
954.599	0.0136073
954.677	0.0136009
954.755	0.0135400
954.833	0.0133763
954.911	0.0133378
954.989	0.0134898
955.068	0.0135190
955.146	0.0134481
955.224	0.0135555
955.302	0.0134834
955.380	0.0134474
955.458	0.0134488
955.536	0.0134251
955.614	0.0134368
955.693	0.0132565
955.771	0.0132716
955.849	0.0132352
955.927	0.0132701
956.005	0.0131841
956.083	0.0132658
956.161	0.0132380
956.239	0.0131548
956.318	0.0132359
956.396	0.0132982
956.474	0.0132464
956.552	0.0134219
956.630	0.0134518
956.708	0.0133698
956.786	0.0133898
956.864	0.0134326
956.943	0.0134344
957.021	0.0133268
957.099	0.0134032
957.177	0.0135877
957.255	0.0136160
957.333	0.0134634
957.411	0.0135284
957.489	0.0137151
957.568	0.0136823
957.646	0.0136343
957.724	0.0136610
957.802	0.0135988
957.880	0.0135765
957.958	0.0134682
958.036	0.0136211
958.114	0.0136591
958.193	0.0135584
958.271	0.0136053
958.349	0.0135578
958.427	0.0135976
958.505	0.0135829
958.583	0.0135018
958.661	0.0137172
958.739	0.0136256
958.818	0.0136251
958.896	0.0134407
958.974	0.0136342
959.052	0.0134858
959.130	0.0134950
959.208	0.0136158
959.286	0.0135977
959.364	0.0136446
959.443	0.0136451
959.521	0.0136675
959.599	0.0135869
959.677	0.0136578
959.755	0.0135611
959.833	0.0135339
959.911	0.0134525
