05/20/2022	16:18:02	Ver.	4.1	UNKNOWN
Optical Delay	639.982744	Delta X		0.078125	Sweeps	1	Scan Rate	0/0
Coordinates	Axis 1	NaN	Axis 2	NaN	Axis 3	NaN	Axis 4	NaN	Axis 5	NaN	Axis 6	0.000000
TX Power	0.000000	RX Power	0.000000

639.983	0.0137640
640.061	0.0137643
640.139	0.0137074
640.217	0.0136137
640.295	0.0139543
640.373	0.0137821
640.451	0.0137955
640.530	0.0138238
640.608	0.0138088
640.686	0.0137634
640.764	0.0137306
640.842	0.0137459
640.920	0.0136722
640.998	0.0139115
641.076	0.0137047
641.155	0.0136970
641.233	0.0137942
641.311	0.0138003
641.389	0.0136768
641.467	0.0137530
641.545	0.0137505
641.623	0.0137423
641.701	0.0135527
641.780	0.0136949
641.858	0.0136563
641.936	0.0137295
642.014	0.0139075
642.092	0.0136845
642.170	0.0136994
642.248	0.0138074
642.326	0.0136781
642.405	0.0137077
642.483	0.0139392
642.561	0.0138289
642.639	0.0137703
642.717	0.0138329
642.795	0.0137031
642.873	0.0138351
642.951	0.0138126
643.030	0.0136900
643.108	0.0138636
643.186	0.0137826
643.264	0.0137747
643.342	0.0135934
643.420	0.0137032
643.498	0.0138123
643.576	0.0137691
643.655	0.0137144
643.733	0.0137803
643.811	0.0137745
643.889	0.0137996
643.967	0.0137790
644.045	0.0138487
644.123	0.0137093
644.201	0.0138213
644.280	0.0138398
644.358	0.0137774
644.436	0.0137028
644.514	0.0137803
644.592	0.0138509
644.670	0.0137583
644.748	0.0138921
644.826	0.0138422
644.905	0.0138797
644.983	0.0138213
645.061	0.0139460
645.139	0.0137055
645.217	0.0137311
645.295	0.0138679
645.373	0.0138523
645.451	0.0137211
645.530	0.0137359
645.608	0.0138419
645.686	0.0139137
645.764	0.0138107
645.842	0.0137711
645.920	0.0137869
645.998	0.0138914
646.076	0.0136933
646.155	0.0138511
646.233	0.0138323
646.311	0.0138039
646.389	0.0138062
646.467	0.0137500
646.545	0.0138348
646.623	0.0136617
646.701	0.0137756
646.780	0.0138345
646.858	0.0138049
646.936	0.0138410
647.014	0.0138934
647.092	0.0137201
647.170	0.0135145
647.248	0.0137759
647.326	0.0137505
647.405	0.0137175
647.483	0.0138177
647.561	0.0137228
647.639	0.0137551
647.717	0.0137000
647.795	0.0138021
647.873	0.0137784
647.951	0.0136608
648.030	0.0137254
648.108	0.0137164
648.186	0.0138062
648.264	0.0138103
648.342	0.0138306
648.420	0.0138148
648.498	0.0137296
648.576	0.0138060
648.655	0.0137515
648.733	0.0137172
648.811	0.0136494
648.889	0.0138223
648.967	0.0137884
649.045	0.0137247
649.123	0.0137434
649.201	0.0137218
649.280	0.0138448
649.358	0.0138160
649.436	0.0135812
649.514	0.0137289
649.592	0.0138448
649.670	0.0137140
649.748	0.0138580
649.826	0.0138235
649.905	0.0138223
649.983	0.0137734
650.061	0.0137662
650.139	0.0137544
650.217	0.0137598
650.295	0.0138649
650.373	0.0137242
650.451	0.0137737
650.530	0.0138004
650.608	0.0137641
650.686	0.0137210
650.764	0.0139594
650.842	0.0137969
650.920	0.0138109
650.998	0.0137678
651.076	0.0137865
651.155	0.0138551
651.233	0.0137417
651.311	0.0138261
651.389	0.0137558
651.467	0.0138141
651.545	0.0137579
651.623	0.0136616
651.701	0.0137106
651.780	0.0139362
651.858	0.0138390
651.936	0.0137482
652.014	0.0138186
652.092	0.0138918
652.170	0.0138535
652.248	0.0138019
652.326	0.0137848
652.405	0.0138190
652.483	0.0139761
652.561	0.0138467
652.639	0.0138926
652.717	0.0138148
652.795	0.0138517
652.873	0.0137323
652.951	0.0137646
653.030	0.0138712
653.108	0.0139133
653.186	0.0138347
653.264	0.0137700
653.342	0.0138307
653.420	0.0138599
653.498	0.0137382
653.576	0.0138721
653.655	0.0138940
653.733	0.0137798
653.811	0.0138293
653.889	0.0137761
653.967	0.0137360
654.045	0.0139444
654.123	0.0137815
654.201	0.0139072
654.280	0.0137578
654.358	0.0137489
654.436	0.0139287
654.514	0.0137828
654.592	0.0138488
654.670	0.0139823
654.748	0.0138853
654.826	0.0138536
654.905	0.0137458
654.983	0.0137407
655.061	0.0137889
655.139	0.0138712
655.217	0.0138863
655.295	0.0137985
655.373	0.0138822
655.451	0.0138358
655.530	0.0137939
655.608	0.0137143
655.686	0.0137352
655.764	0.0138042
655.842	0.0138412
655.920	0.0138033
655.998	0.0139349
656.076	0.0137538
656.155	0.0138020
656.233	0.0138162
656.311	0.0138766
656.389	0.0137613
656.467	0.0138239
656.545	0.0138338
656.623	0.0137642
656.701	0.0136938
656.780	0.0139254
656.858	0.0139757
656.936	0.0138388
657.014	0.0138138
657.092	0.0139801
657.170	0.0138777
657.248	0.0138191
657.326	0.0138564
657.405	0.0137450
657.483	0.0138594
657.561	0.0138728
657.639	0.0138150
657.717	0.0138252
657.795	0.0138586
657.873	0.0139122
657.951	0.0136937
658.030	0.0138201
658.108	0.0139394
658.186	0.0138064
658.264	0.0137041
658.342	0.0138074
658.420	0.0138246
658.498	0.0136843
658.576	0.0139040
658.655	0.0138533
658.733	0.0136873
658.811	0.0138422
658.889	0.0138249
658.967	0.0138373
659.045	0.0138063
659.123	0.0139198
659.201	0.0138005
659.280	0.0137949
659.358	0.0138144
659.436	0.0137561
659.514	0.0138892
659.592	0.0137034
659.670	0.0137730
659.748	0.0137794
659.826	0.0139740
659.905	0.0138293
659.983	0.0137464
660.061	0.0137113
660.139	0.0138332
660.217	0.0138557
660.295	0.0137943
660.373	0.0137430
660.451	0.0137844
660.530	0.0137281
660.608	0.0138313
660.686	0.0137293
660.764	0.0139015
660.842	0.0138845
660.920	0.0137264
660.998	0.0137887
661.076	0.0137365
661.155	0.0137946
661.233	0.0137275
661.311	0.0137391
661.389	0.0139343
661.467	0.0137758
661.545	0.0137478
661.623	0.0137088
661.701	0.0137278
661.780	0.0138594
661.858	0.0138364
661.936	0.0137800
662.014	0.0137655
662.092	0.0137476
662.170	0.0137367
662.248	0.0138142
662.326	0.0137343
662.405	0.0137866
662.483	0.0137772
662.561	0.0136691
662.639	0.0137199
662.717	0.0138004
662.795	0.0138107
662.873	0.0135389
662.951	0.0138217
663.030	0.0137169
663.108	0.0137843
663.186	0.0137307
663.264	0.0136559
663.342	0.0136559
663.420	0.0136485
663.498	0.0137821
663.576	0.0137202
663.655	0.0136061
663.733	0.0137556
663.811	0.0137479
663.889	0.0137029
663.967	0.0137104
664.045	0.0135863
664.123	0.0137418
664.201	0.0138870
664.280	0.0137299
664.358	0.0137199
664.436	0.0138570
664.514	0.0136648
664.592	0.0136799
664.670	0.0136234
664.748	0.0137949
664.826	0.0138083
664.905	0.0137726
664.983	0.0136061
665.061	0.0136716
665.139	0.0136041
665.217	0.0136996
665.295	0.0136488
665.373	0.0136413
665.451	0.0136782
665.530	0.0136811
665.608	0.0135426
665.686	0.0137020
665.764	0.0137394
665.842	0.0137038
665.920	0.0137875
665.998	0.0134911
666.076	0.0135691
666.155	0.0136547
666.233	0.0136938
666.311	0.0136694
666.389	0.0136715
666.467	0.0137514
666.545	0.0136568
666.623	0.0136078
666.701	0.0137070
666.780	0.0137218
666.858	0.0137681
666.936	0.0136689
667.014	0.0135693
667.092	0.0137146
667.170	0.0137749
667.248	0.0137173
667.326	0.0136469
667.405	0.0136224
667.483	0.0135547
667.561	0.0136214
667.639	0.0137821
667.717	0.0137521
667.795	0.0136951
667.873	0.0137459
667.951	0.0136700
668.030	0.0136372
668.108	0.0136636
668.186	0.0136965
668.264	0.0136736
668.342	0.0137194
668.420	0.0136879
668.498	0.0137336
668.576	0.0137123
668.655	0.0137436
668.733	0.0136252
668.811	0.0137286
668.889	0.0138660
668.967	0.0136986
669.045	0.0137862
669.123	0.0137560
669.201	0.0136752
669.280	0.0137592
669.358	0.0137144
669.436	0.0138249
669.514	0.0137176
669.592	0.0137477
669.670	0.0137867
669.748	0.0137341
669.826	0.0138506
669.905	0.0137380
669.983	0.0137745
670.061	0.0138280
670.139	0.0137148
670.217	0.0137181
670.295	0.0137000
670.373	0.0137965
670.451	0.0138026
670.530	0.0137444
670.608	0.0136510
670.686	0.0137812
670.764	0.0137945
670.842	0.0138034
670.920	0.0137209
670.998	0.0137331
671.076	0.0136911
671.155	0.0137270
671.233	0.0138464
671.311	0.0137296
671.389	0.0137540
671.467	0.0138571
671.545	0.0136237
671.623	0.0138023
671.701	0.0137885
671.780	0.0137655
671.858	0.0137472
671.936	0.0137444
672.014	0.0139061
672.092	0.0137679
672.170	0.0138914
672.248	0.0139461
672.326	0.0136771
672.405	0.0138129
672.483	0.0137106
672.561	0.0137768
672.639	0.0138293
672.717	0.0138042
672.795	0.0137697
672.873	0.0139128
672.951	0.0138591
673.030	0.0137857
673.108	0.0137659
673.186	0.0138816
673.264	0.0139072
673.342	0.0139382
673.420	0.0139038
673.498	0.0137582
673.576	0.0139066
673.655	0.0139662
673.733	0.0137012
673.811	0.0137691
673.889	0.0138433
673.967	0.0138260
674.045	0.0137121
674.123	0.0139290
674.201	0.0137990
674.280	0.0137155
674.358	0.0138747
674.436	0.0137039
674.514	0.0135795
674.592	0.0137878
674.670	0.0137612
674.748	0.0136356
674.826	0.0136722
674.905	0.0137241
674.983	0.0138950
675.061	0.0139241
675.139	0.0139633
675.217	0.0138293
675.295	0.0138401
675.373	0.0139710
675.451	0.0139880
675.530	0.0139039
675.608	0.0139387
675.686	0.0140594
675.764	0.0140289
675.842	0.0139364
675.920	0.0138963
675.998	0.0138548
676.076	0.0138694
676.155	0.0138994
676.233	0.0136784
676.311	0.0138120
676.389	0.0138555
676.467	0.0139222
676.545	0.0137027
676.623	0.0137799
676.701	0.0137637
676.780	0.0138398
676.858	0.0137502
676.936	0.0136388
677.014	0.0138383
677.092	0.0138416
677.170	0.0138970
677.248	0.0139172
677.326	0.0139436
677.405	0.0138081
677.483	0.0139203
677.561	0.0138805
677.639	0.0140296
677.717	0.0141089
677.795	0.0139276
677.873	0.0138908
677.951	0.0138862
678.030	0.0139365
678.108	0.0137978
678.186	0.0138853
678.264	0.0138467
678.342	0.0138231
678.420	0.0139964
678.498	0.0138495
678.576	0.0137828
678.655	0.0139245
678.733	0.0138554
678.811	0.0139086
678.889	0.0139651
678.967	0.0138239
679.045	0.0137657
679.123	0.0138814
679.201	0.0139702
679.280	0.0138470
679.358	0.0138561
679.436	0.0139141
679.514	0.0138923
679.592	0.0140739
679.670	0.0138593
679.748	0.0138535
679.826	0.0139899
679.905	0.0139091
679.983	0.0138884
680.061	0.0138761
680.139	0.0138151
680.217	0.0138254
680.295	0.0140440
680.373	0.0138910
680.451	0.0139221
680.530	0.0139104
680.608	0.0138667
680.686	0.0141072
680.764	0.0140404
680.842	0.0139085
680.920	0.0139187
680.998	0.0139901
681.076	0.0140453
681.155	0.0140614
681.233	0.0139909
681.311	0.0138922
681.389	0.0139154
681.467	0.0139481
681.545	0.0139165
681.623	0.0139214
681.701	0.0139070
681.780	0.0139370
681.858	0.0138599
681.936	0.0137463
682.014	0.0136491
682.092	0.0139362
682.170	0.0140015
682.248	0.0137584
682.326	0.0137402
682.405	0.0136877
682.483	0.0137264
682.561	0.0136995
682.639	0.0136243
682.717	0.0138036
682.795	0.0137141
682.873	0.0137895
682.951	0.0137864
683.030	0.0138828
683.108	0.0137858
683.186	0.0138784
683.264	0.0140433
683.342	0.0140824
683.420	0.0141575
683.498	0.0142889
683.576	0.0143997
683.655	0.0142267
683.733	0.0142039
683.811	0.0141788
683.889	0.0139890
683.967	0.0138882
684.045	0.0139072
684.123	0.0135982
684.201	0.0135670
684.280	0.0133562
684.358	0.0131933
684.436	0.0130480
684.514	0.0131998
684.592	0.0131150
684.670	0.0129971
684.748	0.0130946
684.826	0.0129731
684.905	0.0132831
684.983	0.0133868
685.061	0.0134503
685.139	0.0136380
685.217	0.0138944
685.295	0.0140511
685.373	0.0141223
685.451	0.0142908
685.530	0.0145278
685.608	0.0146392
685.686	0.0145152
685.764	0.0146418
685.842	0.0148579
685.920	0.0145964
685.998	0.0143920
686.076	0.0142631
686.155	0.0141260
686.233	0.0139546
686.311	0.0135968
686.389	0.0134211
686.467	0.0132763
686.545	0.0129611
686.623	0.0129304
686.701	0.0128699
686.780	0.0129687
686.858	0.0131034
686.936	0.0131499
687.014	0.0133418
687.092	0.0135547
687.170	0.0135839
687.248	0.0137496
687.326	0.0137350
687.405	0.0140208
687.483	0.0139108
687.561	0.0138727
687.639	0.0138874
687.717	0.0138297
687.795	0.0137660
687.873	0.0138880
687.951	0.0136893
688.030	0.0135825
688.108	0.0135592
688.186	0.0135760
688.264	0.0136746
688.342	0.0135049
688.420	0.0135603
688.498	0.0136406
688.576	0.0136335
688.655	0.0138684
688.733	0.0137084
688.811	0.0138168
688.889	0.0136779
688.967	0.0134383
689.045	0.0132928
689.123	0.0135033
689.201	0.0132981
689.280	0.0131892
689.358	0.0132613
689.436	0.0131863
689.514	0.0132817
689.592	0.0133296
689.670	0.0134351
689.748	0.0136551
689.826	0.0138102
689.905	0.0139442
689.983	0.0141096
690.061	0.0146499
690.139	0.0146483
690.217	0.0146018
690.295	0.0146325
690.373	0.0144825
690.451	0.0144026
690.530	0.0141658
690.608	0.0139319
690.686	0.0137772
690.764	0.0134667
690.842	0.0133493
690.920	0.0132203
690.998	0.0131412
691.076	0.0131863
691.155	0.0133389
691.233	0.0134485
691.311	0.0136336
691.389	0.0138160
691.467	0.0139236
691.545	0.0139732
691.623	0.0140362
691.701	0.0141169
691.780	0.0140803
691.858	0.0141412
691.936	0.0142538
692.014	0.0140639
692.092	0.0140972
692.170	0.0138226
692.248	0.0136849
692.326	0.0136745
692.405	0.0136607
692.483	0.0136768
692.561	0.0137031
692.639	0.0135418
692.717	0.0133076
692.795	0.0133827
692.873	0.0134232
692.951	0.0131953
693.030	0.0130408
693.108	0.0127196
693.186	0.0127148
693.264	0.0126792
693.342	0.0126094
693.420	0.0126717
693.498	0.0128043
693.576	0.0129885
693.655	0.0130234
693.733	0.0133366
693.811	0.0135971
693.889	0.0139499
693.967	0.0140639
694.045	0.0142314
694.123	0.0143715
694.201	0.0143391
694.280	0.0145760
694.358	0.0145737
694.436	0.0145015
694.514	0.0144839
694.592	0.0144881
694.670	0.0144110
694.748	0.0143844
694.826	0.0143624
694.905	0.0143514
694.983	0.0145853
695.061	0.0144891
695.139	0.0144430
695.217	0.0145662
695.295	0.0144193
695.373	0.0142843
695.451	0.0141813
695.530	0.0139693
695.608	0.0136633
695.686	0.0134709
695.764	0.0133848
695.842	0.0132915
695.920	0.0131870
695.998	0.0132101
696.076	0.0131542
696.155	0.0134239
696.233	0.0135077
696.311	0.0135950
696.389	0.0136870
696.467	0.0138357
696.545	0.0140972
696.623	0.0140080
696.701	0.0140434
696.780	0.0142160
696.858	0.0140587
696.936	0.0140324
697.014	0.0139037
697.092	0.0137782
697.170	0.0137352
697.248	0.0135059
697.326	0.0136334
697.405	0.0134358
697.483	0.0132589
697.561	0.0133318
697.639	0.0132322
697.717	0.0132597
697.795	0.0133500
697.873	0.0132884
697.951	0.0133303
698.030	0.0133434
698.108	0.0134314
698.186	0.0135528
698.264	0.0135131
698.342	0.0135435
698.420	0.0134332
698.498	0.0134464
698.576	0.0134455
698.655	0.0135022
698.733	0.0133400
698.811	0.0133064
698.889	0.0135110
698.967	0.0134400
699.045	0.0137177
699.123	0.0138288
699.201	0.0141807
699.280	0.0143689
699.358	0.0145401
699.436	0.0147288
699.514	0.0147953
699.592	0.0148215
699.670	0.0147772
699.748	0.0146917
699.826	0.0146300
699.905	0.0144002
699.983	0.0142971
700.061	0.0140261
700.139	0.0138344
700.217	0.0137469
700.295	0.0134774
700.373	0.0135221
700.451	0.0133646
700.530	0.0134122
700.608	0.0134163
700.686	0.0135915
700.764	0.0136107
700.842	0.0138151
700.920	0.0139772
700.998	0.0141335
701.076	0.0141994
701.155	0.0141285
701.233	0.0140853
701.311	0.0141497
701.389	0.0142092
701.467	0.0141466
701.545	0.0139942
701.623	0.0141129
701.701	0.0138507
701.780	0.0137125
701.858	0.0135696
701.936	0.0137292
702.014	0.0137105
702.092	0.0136539
702.170	0.0138535
702.248	0.0139452
702.326	0.0138138
702.405	0.0141867
702.483	0.0142678
702.561	0.0142926
702.639	0.0146021
702.717	0.0147375
702.795	0.0148862
702.873	0.0149196
702.951	0.0149693
703.030	0.0149329
703.108	0.0150846
703.186	0.0150354
703.264	0.0149358
703.342	0.0148649
703.420	0.0145657
703.498	0.0144145
703.576	0.0140777
703.655	0.0138994
703.733	0.0133855
703.811	0.0130951
703.889	0.0128341
703.967	0.0122041
704.045	0.0119540
704.123	0.0115157
704.201	0.0111790
704.280	0.0111693
704.358	0.0107661
704.436	0.0106873
704.514	0.0105418
704.592	0.0106206
704.670	0.0106589
704.748	0.0108630
704.826	0.0109342
704.905	0.0111902
704.983	0.0115416
705.061	0.0118412
705.139	0.0121864
705.217	0.0125119
705.295	0.0129801
705.373	0.0135289
705.451	0.0139951
705.530	0.0142361
705.608	0.0145625
705.686	0.0150449
705.764	0.0153828
705.842	0.0157528
705.920	0.0159913
705.998	0.0162614
706.076	0.0166420
706.155	0.0168769
706.233	0.0169957
706.311	0.0171171
706.389	0.0172295
706.467	0.0171476
706.545	0.0172983
706.623	0.0173158
706.701	0.0171709
706.780	0.0171346
706.858	0.0169295
706.936	0.0167792
707.014	0.0166759
707.092	0.0163223
707.170	0.0159029
707.248	0.0155025
707.326	0.0152402
707.405	0.0148898
707.483	0.0146141
707.561	0.0141694
707.639	0.0137794
707.717	0.0135016
707.795	0.0130660
707.873	0.0128979
707.951	0.0125243
708.030	0.0122232
708.108	0.0120750
708.186	0.0117836
708.264	0.0115955
708.342	0.0112949
708.420	0.0111183
708.498	0.0110240
708.576	0.0107283
708.655	0.0105418
708.733	0.0106719
708.811	0.0107592
708.889	0.0108466
708.967	0.0107529
709.045	0.0110310
709.123	0.0110577
709.201	0.0112955
709.280	0.0114189
709.358	0.0116383
709.436	0.0116745
709.514	0.0119341
709.592	0.0120815
709.670	0.0121872
709.748	0.0122897
709.826	0.0124715
709.905	0.0127018
709.983	0.0130804
710.061	0.0132541
710.139	0.0135519
710.217	0.0136823
710.295	0.0140277
710.373	0.0143426
710.451	0.0147062
710.530	0.0147778
710.608	0.0149323
710.686	0.0153082
710.764	0.0153809
710.842	0.0152686
710.920	0.0154744
710.998	0.0154727
711.076	0.0154308
711.155	0.0154853
711.233	0.0155733
711.311	0.0154282
711.389	0.0155627
711.467	0.0155395
711.545	0.0156355
711.623	0.0158202
711.701	0.0158517
711.780	0.0157298
711.858	0.0158819
711.936	0.0156894
712.014	0.0157320
712.092	0.0157101
712.170	0.0157237
712.248	0.0157141
712.326	0.0154907
712.405	0.0154562
712.483	0.0153667
712.561	0.0150020
712.639	0.0148256
712.717	0.0145868
712.795	0.0145517
712.873	0.0144249
712.951	0.0142804
713.030	0.0140811
713.108	0.0140407
713.186	0.0139445
713.264	0.0138363
713.342	0.0135034
713.420	0.0133467
713.498	0.0131879
713.576	0.0129685
713.655	0.0128738
713.733	0.0124974
713.811	0.0122578
713.889	0.0119473
713.967	0.0116707
714.045	0.0117536
714.123	0.0113874
714.201	0.0112018
714.280	0.0111587
714.358	0.0108909
714.436	0.0110531
714.514	0.0109879
714.592	0.0110745
714.670	0.0110774
714.748	0.0112968
714.826	0.0113922
714.905	0.0115658
714.983	0.0119608
715.061	0.0122012
715.139	0.0124980
715.217	0.0127574
715.295	0.0128532
715.373	0.0131715
715.451	0.0134733
715.530	0.0137785
715.608	0.0140408
715.686	0.0142264
715.764	0.0145550
715.842	0.0147361
715.920	0.0149196
715.998	0.0152019
716.076	0.0152222
716.155	0.0152235
716.233	0.0153140
716.311	0.0153136
716.389	0.0154436
716.467	0.0152300
716.545	0.0152065
716.623	0.0149477
716.701	0.0150132
716.780	0.0148153
716.858	0.0146319
716.936	0.0145232
717.014	0.0144052
717.092	0.0142117
717.170	0.0139426
717.248	0.0139539
717.326	0.0137421
717.405	0.0136639
717.483	0.0135831
717.561	0.0133933
717.639	0.0132816
717.717	0.0133772
717.795	0.0132251
717.873	0.0132659
717.951	0.0133147
718.030	0.0132595
718.108	0.0134437
718.186	0.0135835
718.264	0.0135971
718.342	0.0139065
718.420	0.0141492
718.498	0.0143275
718.576	0.0144910
718.655	0.0147083
718.733	0.0148267
718.811	0.0150240
718.889	0.0150504
718.967	0.0150334
719.045	0.0151618
719.123	0.0152897
719.201	0.0152074
719.280	0.0150739
719.358	0.0150195
719.436	0.0150390
719.514	0.0150287
719.592	0.0151369
719.670	0.0149971
719.748	0.0150857
719.826	0.0149969
719.905	0.0150292
719.983	0.0151637
720.061	0.0148946
720.139	0.0147070
720.217	0.0145656
720.295	0.0143027
720.373	0.0140010
720.451	0.0136001
720.530	0.0130538
720.608	0.0126488
720.686	0.0121041
720.764	0.0118322
720.842	0.0114851
720.920	0.0110519
720.998	0.0106690
721.076	0.0104767
721.155	0.0105285
721.233	0.0104240
721.311	0.0103584
721.389	0.0104849
721.467	0.0108218
721.545	0.0109089
721.623	0.0111729
721.701	0.0115826
721.780	0.0118748
721.858	0.0124766
721.936	0.0126771
722.014	0.0132913
722.092	0.0138119
722.170	0.0141335
722.248	0.0145808
722.326	0.0149773
722.405	0.0152528
722.483	0.0153687
722.561	0.0154212
722.639	0.0155400
722.717	0.0156353
722.795	0.0154633
722.873	0.0151994
722.951	0.0148980
723.030	0.0145686
723.108	0.0143163
723.186	0.0139227
723.264	0.0136483
723.342	0.0133881
723.420	0.0132440
723.498	0.0131374
723.576	0.0129789
723.655	0.0128857
723.733	0.0129943
723.811	0.0129192
723.889	0.0130716
723.967	0.0133487
724.045	0.0134589
724.123	0.0136957
724.201	0.0141308
724.280	0.0142801
724.358	0.0147564
724.436	0.0147733
724.514	0.0152020
724.592	0.0154321
724.670	0.0156506
724.748	0.0156864
724.826	0.0160442
724.905	0.0161373
724.983	0.0162611
725.061	0.0162761
725.139	0.0162518
725.217	0.0161226
725.295	0.0160565
725.373	0.0160387
725.451	0.0156567
725.530	0.0155590
725.608	0.0153899
725.686	0.0149548
725.764	0.0146905
725.842	0.0142872
725.920	0.0141061
725.998	0.0137608
726.076	0.0133777
726.155	0.0131248
726.233	0.0130818
726.311	0.0129140
726.389	0.0128283
726.467	0.0129798
726.545	0.0131348
726.623	0.0131497
726.701	0.0132292
726.780	0.0134740
726.858	0.0136610
726.936	0.0135789
727.014	0.0136400
727.092	0.0134576
727.170	0.0133687
727.248	0.0132566
727.326	0.0128963
727.405	0.0125879
727.483	0.0123376
727.561	0.0120199
727.639	0.0115033
727.717	0.0110970
727.795	0.0109545
727.873	0.0108855
727.951	0.0106364
728.030	0.0106632
728.108	0.0105997
728.186	0.0108306
728.264	0.0110491
728.342	0.0112595
728.420	0.0116678
728.498	0.0120097
728.576	0.0125376
728.655	0.0130855
728.733	0.0135180
728.811	0.0139069
728.889	0.0144502
728.967	0.0148058
729.045	0.0151707
729.123	0.0154417
729.201	0.0156898
729.280	0.0157758
729.358	0.0156993
729.436	0.0157765
729.514	0.0156820
729.592	0.0155096
729.670	0.0152995
729.748	0.0150395
729.826	0.0148379
729.905	0.0145187
729.983	0.0144540
730.061	0.0140320
730.139	0.0138042
730.217	0.0137624
730.295	0.0134632
730.373	0.0133031
730.451	0.0133839
730.530	0.0133314
730.608	0.0135065
730.686	0.0134407
730.764	0.0134626
730.842	0.0136359
730.920	0.0137838
730.998	0.0139825
731.076	0.0142230
731.155	0.0144390
731.233	0.0148169
731.311	0.0150484
731.389	0.0151399
731.467	0.0152623
731.545	0.0156512
731.623	0.0158665
731.701	0.0157586
731.780	0.0157873
731.858	0.0158377
731.936	0.0158259
732.014	0.0156686
732.092	0.0155522
732.170	0.0151782
732.248	0.0150404
732.326	0.0148280
732.405	0.0143610
732.483	0.0141580
732.561	0.0139810
732.639	0.0137755
732.717	0.0134837
732.795	0.0132406
732.873	0.0130804
732.951	0.0129831
733.030	0.0126511
733.108	0.0125626
733.186	0.0124380
733.264	0.0123475
733.342	0.0122860
733.420	0.0123909
733.498	0.0125211
733.576	0.0127066
733.655	0.0128272
733.733	0.0130271
733.811	0.0132417
733.889	0.0134278
733.967	0.0135393
734.045	0.0135119
734.123	0.0133893
734.201	0.0135050
734.280	0.0134003
734.358	0.0131004
734.436	0.0129048
734.514	0.0126719
734.592	0.0124638
734.670	0.0123298
734.748	0.0119642
734.826	0.0121036
734.905	0.0119662
734.983	0.0118728
735.061	0.0119495
735.139	0.0119213
735.217	0.0122372
735.295	0.0124003
735.373	0.0126888
735.451	0.0129172
735.530	0.0131831
735.608	0.0133744
735.686	0.0136215
735.764	0.0139817
735.842	0.0142396
735.920	0.0145345
735.998	0.0146865
736.076	0.0148413
736.155	0.0152502
736.233	0.0153631
736.311	0.0154376
736.389	0.0154109
736.467	0.0154642
736.545	0.0154008
736.623	0.0152001
736.701	0.0152368
736.780	0.0151926
736.858	0.0150976
736.936	0.0148605
737.014	0.0144864
737.092	0.0142502
737.170	0.0139823
737.248	0.0134290
737.326	0.0134283
737.405	0.0132608
737.483	0.0129829
737.561	0.0126946
737.639	0.0126524
737.717	0.0125864
737.795	0.0126441
737.873	0.0128326
737.951	0.0131223
738.030	0.0131836
738.108	0.0135674
738.186	0.0138960
738.264	0.0140481
738.342	0.0145347
738.420	0.0147432
738.498	0.0149220
738.576	0.0153453
738.655	0.0155612
738.733	0.0156027
738.811	0.0157169
738.889	0.0157613
738.967	0.0157829
739.045	0.0155255
739.123	0.0155116
739.201	0.0153284
739.280	0.0150719
739.358	0.0147992
739.436	0.0145795
739.514	0.0142874
739.592	0.0139196
739.670	0.0138075
739.748	0.0135175
739.826	0.0134830
739.905	0.0132005
739.983	0.0131207
740.061	0.0130865
740.139	0.0128952
740.217	0.0129015
740.295	0.0127969
740.373	0.0126651
740.451	0.0128644
740.530	0.0128579
740.608	0.0127376
740.686	0.0128776
740.764	0.0131150
740.842	0.0130882
740.920	0.0130328
740.998	0.0130899
741.076	0.0132916
741.155	0.0131290
741.233	0.0132165
741.311	0.0131516
741.389	0.0131364
741.467	0.0130309
741.545	0.0128937
741.623	0.0129050
741.701	0.0128686
741.780	0.0127481
741.858	0.0127933
741.936	0.0126333
742.014	0.0127479
742.092	0.0126556
742.170	0.0127011
742.248	0.0128377
742.326	0.0126819
742.405	0.0129681
742.483	0.0127148
742.561	0.0129166
742.639	0.0130196
742.717	0.0131170
742.795	0.0133018
742.873	0.0136412
742.951	0.0137974
743.030	0.0139755
743.108	0.0142975
743.186	0.0144823
743.264	0.0145364
743.342	0.0146463
743.420	0.0148583
743.498	0.0149400
743.576	0.0150687
743.655	0.0151228
743.733	0.0151665
743.811	0.0149384
743.889	0.0150268
743.967	0.0150494
744.045	0.0147923
744.123	0.0147820
744.201	0.0145927
744.280	0.0146524
744.358	0.0144779
744.436	0.0140567
744.514	0.0139919
744.592	0.0137877
744.670	0.0135661
744.748	0.0132017
744.826	0.0131210
744.905	0.0130458
744.983	0.0128529
745.061	0.0129884
745.139	0.0129727
745.217	0.0132350
745.295	0.0132951
745.373	0.0136490
745.451	0.0137591
745.530	0.0140450
745.608	0.0143645
745.686	0.0144506
745.764	0.0148438
745.842	0.0153156
745.920	0.0153126
745.998	0.0154905
746.076	0.0155952
746.155	0.0155772
746.233	0.0155542
746.311	0.0156557
746.389	0.0156416
746.467	0.0152068
746.545	0.0149644
746.623	0.0148257
746.701	0.0144263
746.780	0.0141167
746.858	0.0136669
746.936	0.0134395
747.014	0.0130649
747.092	0.0129146
747.170	0.0127060
747.248	0.0126627
747.326	0.0125376
747.405	0.0124170
747.483	0.0124347
747.561	0.0125958
747.639	0.0126078
747.717	0.0126501
747.795	0.0129662
747.873	0.0129946
747.951	0.0131263
748.030	0.0132596
748.108	0.0133971
748.186	0.0135420
748.264	0.0135321
748.342	0.0135014
748.420	0.0134442
748.498	0.0134770
748.576	0.0133192
748.655	0.0132626
748.733	0.0132927
748.811	0.0132148
748.889	0.0132496
748.967	0.0131186
749.045	0.0130910
749.123	0.0130660
749.201	0.0130448
749.280	0.0129715
749.358	0.0130386
749.436	0.0130999
749.514	0.0131569
749.592	0.0131334
749.670	0.0132087
749.748	0.0133212
749.826	0.0134312
749.905	0.0136560
749.983	0.0136259
750.061	0.0139087
750.139	0.0140276
750.217	0.0142951
750.295	0.0144193
750.373	0.0146719
750.451	0.0148094
750.530	0.0148299
750.608	0.0147877
750.686	0.0147853
750.764	0.0148814
750.842	0.0148254
750.920	0.0146482
750.998	0.0147636
751.076	0.0146435
751.155	0.0143809
751.233	0.0143656
751.311	0.0143262
751.389	0.0142548
751.467	0.0139770
751.545	0.0140066
751.623	0.0139945
751.701	0.0138895
751.780	0.0138828
751.858	0.0137025
751.936	0.0134873
752.014	0.0134624
752.092	0.0134710
752.170	0.0134241
752.248	0.0134401
752.326	0.0135339
752.405	0.0134531
752.483	0.0135310
752.561	0.0136710
752.639	0.0137859
752.717	0.0138851
752.795	0.0137941
752.873	0.0140687
752.951	0.0142765
753.030	0.0142323
753.108	0.0143155
753.186	0.0144865
753.264	0.0146009
753.342	0.0146308
753.420	0.0145580
753.498	0.0146693
753.576	0.0146982
753.655	0.0144355
753.733	0.0145796
753.811	0.0143098
753.889	0.0142891
753.967	0.0141277
754.045	0.0141648
754.123	0.0139229
754.201	0.0137127
754.280	0.0137255
754.358	0.0134931
754.436	0.0134541
754.514	0.0133937
754.592	0.0132323
754.670	0.0132539
754.748	0.0131061
754.826	0.0132082
754.905	0.0132823
754.983	0.0132571
755.061	0.0132343
755.139	0.0134631
755.217	0.0134060
755.295	0.0134443
755.373	0.0135065
755.451	0.0135768
755.530	0.0136040
755.608	0.0136892
755.686	0.0137019
755.764	0.0136417
755.842	0.0136015
755.920	0.0135608
755.998	0.0132215
756.076	0.0132310
756.155	0.0131306
756.233	0.0130270
756.311	0.0130081
756.389	0.0129277
756.467	0.0129453
756.545	0.0129972
756.623	0.0130779
756.701	0.0131017
756.780	0.0131796
756.858	0.0133345
756.936	0.0134491
757.014	0.0136062
757.092	0.0136851
757.170	0.0139153
757.248	0.0138946
757.326	0.0140358
757.405	0.0142170
757.483	0.0143630
757.561	0.0144533
757.639	0.0144912
757.717	0.0144840
757.795	0.0144678
757.873	0.0145644
757.951	0.0145539
758.030	0.0146587
758.108	0.0145486
758.186	0.0144074
758.264	0.0144089
758.342	0.0144176
758.420	0.0141505
758.498	0.0139915
758.576	0.0139114
758.655	0.0139039
758.733	0.0138763
758.811	0.0136264
758.889	0.0136177
758.967	0.0135612
759.045	0.0135201
759.123	0.0132966
759.201	0.0133471
759.280	0.0132895
759.358	0.0133025
759.436	0.0133905
759.514	0.0132943
759.592	0.0134641
759.670	0.0133482
759.748	0.0134602
759.826	0.0134800
759.905	0.0136475
759.983	0.0139308
760.061	0.0138216
760.139	0.0140972
760.217	0.0141734
760.295	0.0142307
760.373	0.0143843
760.451	0.0145448
760.530	0.0144441
760.608	0.0145454
760.686	0.0145685
760.764	0.0146663
760.842	0.0145914
760.920	0.0144113
760.998	0.0144082
761.076	0.0143695
761.155	0.0142542
761.233	0.0143584
761.311	0.0141761
761.389	0.0141406
761.467	0.0138209
761.545	0.0138454
761.623	0.0136375
761.701	0.0135477
761.780	0.0134957
761.858	0.0134422
761.936	0.0132144
762.014	0.0133253
762.092	0.0132806
762.170	0.0131078
762.248	0.0131897
762.326	0.0131887
762.405	0.0132514
762.483	0.0133858
762.561	0.0134024
762.639	0.0135854
762.717	0.0136926
762.795	0.0137745
762.873	0.0138385
762.951	0.0137521
763.030	0.0137227
763.108	0.0137814
763.186	0.0138918
763.264	0.0136841
763.342	0.0135241
763.420	0.0134308
763.498	0.0132268
763.576	0.0131879
763.655	0.0131232
763.733	0.0130679
763.811	0.0128030
763.889	0.0128426
763.967	0.0128130
764.045	0.0128593
764.123	0.0129875
764.201	0.0129808
764.280	0.0129762
764.358	0.0132520
764.436	0.0134210
764.514	0.0134985
764.592	0.0138120
764.670	0.0138891
764.748	0.0140342
764.826	0.0142619
764.905	0.0144038
764.983	0.0143548
765.061	0.0147559
765.139	0.0145872
765.217	0.0147025
765.295	0.0146624
765.373	0.0146313
765.451	0.0147588
765.530	0.0145004
765.608	0.0143708
765.686	0.0144440
765.764	0.0141863
765.842	0.0141245
765.920	0.0139449
765.998	0.0137555
766.076	0.0136505
766.155	0.0135616
766.233	0.0134780
766.311	0.0133774
766.389	0.0133781
766.467	0.0131441
766.545	0.0131107
766.623	0.0131698
766.701	0.0132379
766.780	0.0130568
766.858	0.0131644
766.936	0.0132712
767.014	0.0133639
767.092	0.0134182
767.170	0.0135686
767.248	0.0134184
767.326	0.0136844
767.405	0.0138275
767.483	0.0137735
767.561	0.0140221
767.639	0.0141157
767.717	0.0142342
767.795	0.0144281
767.873	0.0145794
767.951	0.0145180
768.030	0.0144782
768.108	0.0147273
768.186	0.0146667
768.264	0.0147596
768.342	0.0146329
768.420	0.0146767
768.498	0.0143801
768.576	0.0142770
768.655	0.0143519
768.733	0.0142226
768.811	0.0140434
768.889	0.0139803
768.967	0.0139538
769.045	0.0137024
769.123	0.0137608
769.201	0.0135188
769.280	0.0134966
769.358	0.0134421
769.436	0.0132314
769.514	0.0134127
769.592	0.0133475
769.670	0.0131851
769.748	0.0132138
769.826	0.0131668
769.905	0.0132553
769.983	0.0134635
770.061	0.0132823
770.139	0.0134985
770.217	0.0135718
770.295	0.0136635
770.373	0.0136660
770.451	0.0138197
770.530	0.0137852
770.608	0.0137912
770.686	0.0139565
770.764	0.0137641
770.842	0.0138202
770.920	0.0136965
770.998	0.0135148
771.076	0.0136992
771.155	0.0135166
771.233	0.0133739
771.311	0.0132883
771.389	0.0131364
771.467	0.0132905
771.545	0.0131358
771.623	0.0132120
771.701	0.0131818
771.780	0.0132815
771.858	0.0133775
771.936	0.0134080
772.014	0.0135136
772.092	0.0135423
772.170	0.0138850
772.248	0.0139357
772.326	0.0140662
772.405	0.0142126
772.483	0.0143385
772.561	0.0143988
772.639	0.0145019
772.717	0.0145485
772.795	0.0145060
772.873	0.0146422
772.951	0.0145010
773.030	0.0144765
773.108	0.0144244
773.186	0.0143715
773.264	0.0142352
773.342	0.0142008
773.420	0.0140092
773.498	0.0138992
773.576	0.0139342
773.655	0.0137639
773.733	0.0135120
773.811	0.0134863
773.889	0.0133746
773.967	0.0133496
774.045	0.0133685
774.123	0.0133445
774.201	0.0133006
774.280	0.0132835
774.358	0.0133776
774.436	0.0134099
774.514	0.0134515
774.592	0.0134708
774.670	0.0136164
774.748	0.0136314
774.826	0.0136645
774.905	0.0138535
774.983	0.0139812
775.061	0.0140553
775.139	0.0142142
775.217	0.0143349
775.295	0.0143743
775.373	0.0144795
775.451	0.0144163
775.530	0.0146604
775.608	0.0146471
775.686	0.0147214
775.764	0.0147708
775.842	0.0147095
775.920	0.0148016
775.998	0.0146282
776.076	0.0146047
776.155	0.0144882
776.233	0.0144384
776.311	0.0143684
776.389	0.0141256
776.467	0.0140414
776.545	0.0138562
776.623	0.0136964
776.701	0.0136806
776.780	0.0135208
776.858	0.0133619
776.936	0.0132613
777.014	0.0133023
777.092	0.0132227
777.170	0.0131824
777.248	0.0133122
777.326	0.0132741
777.405	0.0131181
777.483	0.0132436
777.561	0.0133524
777.639	0.0133760
777.717	0.0134541
777.795	0.0134896
777.873	0.0135870
777.951	0.0136964
778.030	0.0137064
778.108	0.0136826
778.186	0.0137140
778.264	0.0136893
778.342	0.0136476
778.420	0.0137108
778.498	0.0136942
778.576	0.0135788
778.655	0.0136165
778.733	0.0135983
778.811	0.0135158
778.889	0.0135801
778.967	0.0134296
779.045	0.0134800
779.123	0.0134968
779.201	0.0136018
779.280	0.0134570
779.358	0.0135283
779.436	0.0134758
779.514	0.0135928
779.592	0.0135905
779.670	0.0138411
779.748	0.0138974
779.826	0.0138034
779.905	0.0139487
779.983	0.0139580
780.061	0.0141164
780.139	0.0141476
780.217	0.0141492
780.295	0.0141941
780.373	0.0141492
780.451	0.0142381
780.530	0.0142710
780.608	0.0142961
780.686	0.0142140
780.764	0.0143065
780.842	0.0142569
780.920	0.0140031
780.998	0.0138918
781.076	0.0141485
781.155	0.0138869
781.233	0.0137829
781.311	0.0137613
781.389	0.0136323
781.467	0.0135552
781.545	0.0135453
781.623	0.0135776
781.701	0.0135390
781.780	0.0133961
781.858	0.0134077
781.936	0.0134724
782.014	0.0135242
782.092	0.0135623
782.170	0.0134557
782.248	0.0136811
782.326	0.0138885
782.405	0.0138549
782.483	0.0138496
782.561	0.0137667
782.639	0.0140356
782.717	0.0139743
782.795	0.0140675
782.873	0.0140797
782.951	0.0140019
783.030	0.0142314
783.108	0.0142244
783.186	0.0141806
783.264	0.0143279
783.342	0.0142525
783.420	0.0141924
783.498	0.0142762
783.576	0.0143028
783.655	0.0140808
783.733	0.0140022
783.811	0.0141871
783.889	0.0141126
783.967	0.0140620
784.045	0.0139381
784.123	0.0139203
784.201	0.0137807
784.280	0.0137144
784.358	0.0137321
784.436	0.0136610
784.514	0.0136598
784.592	0.0135439
784.670	0.0135860
784.748	0.0134698
784.826	0.0135268
784.905	0.0133907
784.983	0.0133846
785.061	0.0135290
785.139	0.0134998
785.217	0.0134003
785.295	0.0132523
785.373	0.0135069
785.451	0.0134647
785.530	0.0135236
785.608	0.0135612
785.686	0.0135744
785.764	0.0135938
785.842	0.0136687
785.920	0.0135997
785.998	0.0135194
786.076	0.0136105
786.155	0.0136585
786.233	0.0136334
786.311	0.0136441
786.389	0.0136783
786.467	0.0137042
786.545	0.0137318
786.623	0.0137410
786.701	0.0136862
786.780	0.0136407
786.858	0.0138157
786.936	0.0135725
787.014	0.0137461
787.092	0.0136508
787.170	0.0135612
787.248	0.0137459
787.326	0.0138091
787.405	0.0137954
787.483	0.0136815
787.561	0.0138972
787.639	0.0138213
787.717	0.0139520
787.795	0.0139294
787.873	0.0139977
787.951	0.0139307
788.030	0.0141142
788.108	0.0139381
788.186	0.0140359
788.264	0.0140642
788.342	0.0140422
788.420	0.0138981
788.498	0.0139451
788.576	0.0140269
788.655	0.0138608
788.733	0.0138800
788.811	0.0136495
788.889	0.0138269
788.967	0.0136870
789.045	0.0136284
789.123	0.0137361
789.201	0.0137572
789.280	0.0136497
789.358	0.0135387
789.436	0.0134660
789.514	0.0134199
789.592	0.0134932
789.670	0.0134153
789.748	0.0133866
789.826	0.0135487
789.905	0.0135382
789.983	0.0134572
790.061	0.0136155
790.139	0.0135107
790.217	0.0137272
790.295	0.0138576
790.373	0.0138626
790.451	0.0139831
790.530	0.0139555
790.608	0.0139480
790.686	0.0141026
790.764	0.0141217
790.842	0.0139913
790.920	0.0139809
790.998	0.0141231
791.076	0.0141249
791.155	0.0141743
791.233	0.0141442
791.311	0.0141054
791.389	0.0140338
791.467	0.0139705
791.545	0.0139491
791.623	0.0138979
791.701	0.0139645
791.780	0.0137805
791.858	0.0137507
791.936	0.0138567
792.014	0.0138342
792.092	0.0136477
792.170	0.0136672
792.248	0.0137173
792.326	0.0136367
792.405	0.0137138
792.483	0.0136787
792.561	0.0135152
792.639	0.0137087
792.717	0.0137534
792.795	0.0136551
792.873	0.0135062
792.951	0.0136138
793.030	0.0135197
793.108	0.0136233
793.186	0.0134364
793.264	0.0134131
793.342	0.0134503
793.420	0.0134328
793.498	0.0134607
793.576	0.0135993
793.655	0.0134100
793.733	0.0135036
793.811	0.0135455
793.889	0.0134512
793.967	0.0135480
794.045	0.0134860
794.123	0.0134719
794.201	0.0135858
794.280	0.0135275
794.358	0.0133931
794.436	0.0135455
794.514	0.0135284
794.592	0.0136012
794.670	0.0136646
794.748	0.0135827
794.826	0.0137094
794.905	0.0138320
794.983	0.0138013
795.061	0.0138293
795.139	0.0138741
795.217	0.0137690
795.295	0.0140129
795.373	0.0138129
795.451	0.0140398
795.530	0.0140504
795.608	0.0140676
795.686	0.0140418
795.764	0.0140092
795.842	0.0140347
795.920	0.0140953
795.998	0.0139779
796.076	0.0139615
796.155	0.0139302
796.233	0.0138248
796.311	0.0138255
796.389	0.0135366
796.467	0.0136021
796.545	0.0135881
796.623	0.0135298
796.701	0.0134840
796.780	0.0135630
796.858	0.0134808
796.936	0.0136059
797.014	0.0136456
797.092	0.0136938
797.170	0.0136057
797.248	0.0136343
797.326	0.0136680
797.405	0.0137655
797.483	0.0137038
797.561	0.0136929
797.639	0.0137614
797.717	0.0137597
797.795	0.0137872
797.873	0.0137213
797.951	0.0136671
798.030	0.0138786
798.108	0.0140710
798.186	0.0138209
798.264	0.0137976
798.342	0.0139716
798.420	0.0139799
798.498	0.0139342
798.576	0.0138995
798.655	0.0140883
798.733	0.0141348
798.811	0.0140909
798.889	0.0139816
798.967	0.0141471
799.045	0.0142226
799.123	0.0140476
799.201	0.0140608
799.280	0.0141744
799.358	0.0140411
799.436	0.0138524
799.514	0.0140475
799.592	0.0140595
799.670	0.0139433
799.748	0.0138760
799.826	0.0138153
799.905	0.0138744
799.983	0.0137697
800.061	0.0136658
800.139	0.0136349
800.217	0.0137041
800.295	0.0135880
800.373	0.0136326
800.451	0.0134826
800.530	0.0134370
800.608	0.0133971
800.686	0.0135823
800.764	0.0135468
800.842	0.0133595
800.920	0.0135780
800.998	0.0133897
801.076	0.0134881
801.155	0.0134168
801.233	0.0132793
801.311	0.0133926
801.389	0.0135059
801.467	0.0134887
801.545	0.0134225
801.623	0.0134896
801.701	0.0135760
801.780	0.0136295
801.858	0.0135493
801.936	0.0137791
802.014	0.0138676
802.092	0.0139648
802.170	0.0138663
802.248	0.0140056
802.326	0.0140589
802.405	0.0141570
802.483	0.0142798
802.561	0.0140954
802.639	0.0142583
802.717	0.0142021
802.795	0.0142901
802.873	0.0143092
802.951	0.0142434
803.030	0.0141835
803.108	0.0142274
803.186	0.0142740
803.264	0.0143850
803.342	0.0141393
803.420	0.0139062
803.498	0.0140397
803.576	0.0141273
803.655	0.0140922
803.733	0.0140356
803.811	0.0140553
803.889	0.0139055
803.967	0.0138501
804.045	0.0138909
804.123	0.0140092
804.201	0.0137464
804.280	0.0137070
804.358	0.0137291
804.436	0.0136897
804.514	0.0136398
804.592	0.0137333
804.670	0.0136221
804.748	0.0134063
804.826	0.0134133
804.905	0.0134194
804.983	0.0134599
805.061	0.0134361
805.139	0.0132806
805.217	0.0132977
805.295	0.0134309
805.373	0.0133785
805.451	0.0131852
805.530	0.0134074
805.608	0.0133982
805.686	0.0134625
805.764	0.0133733
805.842	0.0134798
805.920	0.0134391
805.998	0.0134346
806.076	0.0133934
806.155	0.0135517
806.233	0.0136098
806.311	0.0135693
806.389	0.0137337
806.467	0.0138484
806.545	0.0138893
806.623	0.0139152
806.701	0.0139589
806.780	0.0141034
806.858	0.0140111
806.936	0.0141679
807.014	0.0142333
807.092	0.0143243
807.170	0.0142538
807.248	0.0142058
807.326	0.0143064
807.405	0.0141692
807.483	0.0144657
807.561	0.0143343
807.639	0.0141389
807.717	0.0142651
807.795	0.0140461
807.873	0.0139798
807.951	0.0141035
808.030	0.0139875
808.108	0.0139251
808.186	0.0140354
808.264	0.0140382
808.342	0.0139116
808.420	0.0139928
808.498	0.0141213
808.576	0.0140867
808.655	0.0139661
808.733	0.0140396
808.811	0.0139843
808.889	0.0138728
808.967	0.0140205
809.045	0.0140286
809.123	0.0140246
809.201	0.0139278
809.280	0.0139278
809.358	0.0136739
809.436	0.0138303
809.514	0.0137230
809.592	0.0137374
809.670	0.0137029
809.748	0.0134310
809.826	0.0136046
809.905	0.0136877
809.983	0.0135405
810.061	0.0135378
810.139	0.0136616
810.217	0.0135645
810.295	0.0136631
810.373	0.0135133
810.451	0.0136915
810.530	0.0134913
810.608	0.0135234
810.686	0.0134199
810.764	0.0134830
810.842	0.0135561
810.920	0.0133682
810.998	0.0133684
811.076	0.0134238
811.155	0.0133953
811.233	0.0134507
811.311	0.0133445
811.389	0.0134010
811.467	0.0133089
811.545	0.0133900
811.623	0.0134505
811.701	0.0134641
811.780	0.0135954
811.858	0.0136069
811.936	0.0136203
812.014	0.0135674
812.092	0.0136246
812.170	0.0136478
812.248	0.0136755
812.326	0.0138931
812.405	0.0136948
812.483	0.0138734
812.561	0.0138455
812.639	0.0138463
812.717	0.0139724
812.795	0.0137704
812.873	0.0138458
812.951	0.0139146
813.030	0.0139430
813.108	0.0139127
813.186	0.0138466
813.264	0.0138573
813.342	0.0138714
813.420	0.0138754
813.498	0.0138722
813.576	0.0138563
813.655	0.0139887
813.733	0.0140823
813.811	0.0139628
813.889	0.0138186
813.967	0.0139022
814.045	0.0139350
814.123	0.0140208
814.201	0.0140294
814.280	0.0139899
814.358	0.0140892
814.436	0.0140752
814.514	0.0139114
814.592	0.0140835
814.670	0.0138423
814.748	0.0138297
814.826	0.0139237
814.905	0.0138413
814.983	0.0139214
815.061	0.0139191
815.139	0.0139612
815.217	0.0138846
815.295	0.0140147
815.373	0.0139452
815.451	0.0140204
815.530	0.0139857
815.608	0.0139307
815.686	0.0139369
815.764	0.0140135
815.842	0.0139530
815.920	0.0138729
815.998	0.0138937
816.076	0.0139442
816.155	0.0138878
816.233	0.0138723
816.311	0.0138090
816.389	0.0138579
816.467	0.0137336
816.545	0.0134897
816.623	0.0136211
816.701	0.0136583
816.780	0.0134498
816.858	0.0134845
816.936	0.0133244
817.014	0.0132036
817.092	0.0133361
817.170	0.0133517
817.248	0.0131994
817.326	0.0133007
817.405	0.0132995
817.483	0.0131913
817.561	0.0132781
817.639	0.0132637
817.717	0.0132932
817.795	0.0134131
817.873	0.0133169
817.951	0.0133240
818.030	0.0133510
818.108	0.0134325
818.186	0.0133624
818.264	0.0135021
818.342	0.0134517
818.420	0.0134583
818.498	0.0135900
818.576	0.0137086
818.655	0.0137778
818.733	0.0136691
818.811	0.0137543
818.889	0.0138573
818.967	0.0139182
819.045	0.0138654
819.123	0.0139523
819.201	0.0138428
819.280	0.0139353
819.358	0.0139692
819.436	0.0139613
819.514	0.0139069
819.592	0.0139168
819.670	0.0140528
819.748	0.0139828
819.826	0.0139119
819.905	0.0139318
819.983	0.0139729
820.061	0.0140020
820.139	0.0140429
820.217	0.0140656
820.295	0.0139554
820.373	0.0139902
820.451	0.0139321
820.530	0.0141306
820.608	0.0140100
820.686	0.0138875
820.764	0.0140243
820.842	0.0140609
820.920	0.0138988
820.998	0.0138851
821.076	0.0139339
821.155	0.0140075
821.233	0.0139365
821.311	0.0138435
821.389	0.0138765
821.467	0.0138653
821.545	0.0139486
821.623	0.0139818
821.701	0.0138441
821.780	0.0138956
821.858	0.0139911
821.936	0.0139879
822.014	0.0141102
822.092	0.0140428
822.170	0.0140651
822.248	0.0141051
822.326	0.0140710
822.405	0.0139747
822.483	0.0140498
822.561	0.0140317
822.639	0.0139375
822.717	0.0138123
822.795	0.0138887
822.873	0.0138030
822.951	0.0138955
823.030	0.0137685
823.108	0.0137084
823.186	0.0138438
823.264	0.0136713
823.342	0.0136415
823.420	0.0136462
823.498	0.0136748
823.576	0.0135670
823.655	0.0135821
823.733	0.0135715
823.811	0.0134187
823.889	0.0135148
823.967	0.0133315
824.045	0.0134110
824.123	0.0133605
824.201	0.0132178
824.280	0.0133829
824.358	0.0131416
824.436	0.0132186
824.514	0.0133754
824.592	0.0134132
824.670	0.0133525
824.748	0.0135209
824.826	0.0134475
824.905	0.0134789
824.983	0.0136217
825.061	0.0137610
825.139	0.0137097
825.217	0.0138647
825.295	0.0138705
825.373	0.0138610
825.451	0.0138741
825.530	0.0139914
825.608	0.0139788
825.686	0.0141003
825.764	0.0139890
825.842	0.0140327
825.920	0.0141248
825.998	0.0141087
826.076	0.0141804
826.155	0.0142989
826.233	0.0141057
826.311	0.0140694
826.389	0.0142432
826.467	0.0140821
826.545	0.0140056
826.623	0.0140509
826.701	0.0140704
826.780	0.0140459
826.858	0.0138716
826.936	0.0141223
827.014	0.0139368
827.092	0.0139718
827.170	0.0139853
827.248	0.0139195
827.326	0.0139256
827.405	0.0139384
827.483	0.0139712
827.561	0.0139281
827.639	0.0138348
827.717	0.0138174
827.795	0.0139471
827.873	0.0138702
827.951	0.0137547
828.030	0.0138091
828.108	0.0138518
828.186	0.0139116
828.264	0.0138316
828.342	0.0138535
828.420	0.0138309
828.498	0.0139559
828.576	0.0137999
828.655	0.0140665
828.733	0.0138705
828.811	0.0139718
828.889	0.0137552
828.967	0.0138712
829.045	0.0138040
829.123	0.0138883
829.201	0.0139001
829.280	0.0136494
829.358	0.0137389
829.436	0.0138867
829.514	0.0137250
829.592	0.0136696
829.670	0.0136563
829.748	0.0135217
829.826	0.0136121
829.905	0.0135009
829.983	0.0136300
830.061	0.0136005
830.139	0.0135258
830.217	0.0136506
830.295	0.0135802
830.373	0.0135955
830.451	0.0135907
830.530	0.0136288
830.608	0.0137154
830.686	0.0136912
830.764	0.0135738
830.842	0.0136754
830.920	0.0136597
830.998	0.0136131
831.076	0.0136266
831.155	0.0135345
831.233	0.0136469
831.311	0.0134294
831.389	0.0136508
831.467	0.0135789
831.545	0.0136379
831.623	0.0135998
831.701	0.0136845
831.780	0.0137543
831.858	0.0138474
831.936	0.0137012
832.014	0.0138227
832.092	0.0139948
832.170	0.0138847
832.248	0.0139686
832.326	0.0140616
832.405	0.0141103
832.483	0.0139872
832.561	0.0139970
832.639	0.0142513
832.717	0.0142220
832.795	0.0140192
832.873	0.0141895
832.951	0.0139646
833.030	0.0140185
833.108	0.0140040
833.186	0.0139622
833.264	0.0139857
833.342	0.0139526
833.420	0.0140430
833.498	0.0138880
833.576	0.0137672
833.655	0.0137130
833.733	0.0138547
833.811	0.0138774
833.889	0.0137495
833.967	0.0137276
834.045	0.0138039
834.123	0.0138378
834.201	0.0136996
834.280	0.0136957
834.358	0.0135754
834.436	0.0136401
834.514	0.0136874
834.592	0.0136336
834.670	0.0136611
834.748	0.0137791
834.826	0.0137227
834.905	0.0136001
834.983	0.0137395
835.061	0.0137430
835.139	0.0137267
835.217	0.0137217
835.295	0.0137307
835.373	0.0137788
835.451	0.0138654
835.530	0.0137433
835.608	0.0138138
835.686	0.0138002
835.764	0.0136703
835.842	0.0137345
835.920	0.0138028
835.998	0.0136288
836.076	0.0135941
836.155	0.0137430
836.233	0.0136991
836.311	0.0137419
836.389	0.0138025
836.467	0.0137660
836.545	0.0137215
836.623	0.0138251
836.701	0.0137330
836.780	0.0136736
836.858	0.0137576
836.936	0.0138850
837.014	0.0138601
837.092	0.0139494
837.170	0.0137337
837.248	0.0137870
837.326	0.0138440
837.405	0.0138327
837.483	0.0137592
837.561	0.0137910
837.639	0.0137126
837.717	0.0135925
837.795	0.0136871
837.873	0.0139042
837.951	0.0137070
838.030	0.0137811
838.108	0.0137434
838.186	0.0136862
838.264	0.0136131
838.342	0.0137398
838.420	0.0136937
838.498	0.0137027
838.576	0.0137437
838.655	0.0137505
838.733	0.0137870
838.811	0.0138271
838.889	0.0138384
838.967	0.0139186
839.045	0.0138268
839.123	0.0140031
839.201	0.0139461
839.280	0.0141052
839.358	0.0140156
839.436	0.0140031
839.514	0.0138987
839.592	0.0139629
839.670	0.0140212
839.748	0.0140141
839.826	0.0139429
839.905	0.0138242
839.983	0.0139336
840.061	0.0140676
840.139	0.0139343
840.217	0.0139133
840.295	0.0139255
840.373	0.0139133
840.451	0.0139272
840.530	0.0139377
840.608	0.0139014
840.686	0.0138104
840.764	0.0136831
840.842	0.0135662
840.920	0.0137497
840.998	0.0137827
841.076	0.0136510
841.155	0.0135777
841.233	0.0137307
841.311	0.0136989
841.389	0.0136152
841.467	0.0137699
841.545	0.0138255
841.623	0.0138602
841.701	0.0138283
841.780	0.0138920
841.858	0.0138165
841.936	0.0138565
842.014	0.0140482
842.092	0.0139440
842.170	0.0140007
842.248	0.0140468
842.326	0.0140890
842.405	0.0140244
842.483	0.0139854
842.561	0.0139716
842.639	0.0139811
842.717	0.0139909
842.795	0.0140423
842.873	0.0140829
842.951	0.0139061
843.030	0.0140855
843.108	0.0138090
843.186	0.0137660
843.264	0.0139160
843.342	0.0138329
843.420	0.0137306
843.498	0.0134895
843.576	0.0137026
843.655	0.0138734
843.733	0.0137362
843.811	0.0136816
843.889	0.0136796
843.967	0.0138337
844.045	0.0137295
844.123	0.0137193
844.201	0.0138920
844.280	0.0136060
844.358	0.0136507
844.436	0.0138140
844.514	0.0138251
844.592	0.0138535
844.670	0.0137662
844.748	0.0137312
844.826	0.0137572
844.905	0.0136935
844.983	0.0138136
845.061	0.0137906
845.139	0.0137246
845.217	0.0138412
845.295	0.0137868
845.373	0.0138538
845.451	0.0138113
845.530	0.0138822
845.608	0.0139066
845.686	0.0137218
845.764	0.0138422
845.842	0.0138464
845.920	0.0138364
845.998	0.0137498
846.076	0.0138183
846.155	0.0137899
846.233	0.0138887
846.311	0.0139732
846.389	0.0138165
846.467	0.0138074
846.545	0.0138017
846.623	0.0139301
846.701	0.0138135
846.780	0.0139612
846.858	0.0138791
846.936	0.0137748
847.014	0.0140755
847.092	0.0139220
847.170	0.0139757
847.248	0.0138519
847.326	0.0139409
847.405	0.0139731
847.483	0.0138235
847.561	0.0137273
847.639	0.0138602
847.717	0.0139785
847.795	0.0138738
847.873	0.0138461
847.951	0.0138509
848.030	0.0138329
848.108	0.0139343
848.186	0.0137289
848.264	0.0137998
848.342	0.0138172
848.420	0.0137172
848.498	0.0137472
848.576	0.0138264
848.655	0.0138129
848.733	0.0137080
848.811	0.0138200
848.889	0.0137326
848.967	0.0137139
849.045	0.0138146
849.123	0.0137103
849.201	0.0137646
849.280	0.0137642
849.358	0.0138905
849.436	0.0136718
849.514	0.0137693
849.592	0.0138333
849.670	0.0138485
849.748	0.0138184
849.826	0.0139197
849.905	0.0138663
849.983	0.0139482
850.061	0.0139209
850.139	0.0138151
850.217	0.0138069
850.295	0.0137698
850.373	0.0138519
850.451	0.0138759
850.530	0.0137814
850.608	0.0137210
850.686	0.0137754
850.764	0.0136239
850.842	0.0136443
850.920	0.0137681
850.998	0.0136562
851.076	0.0135793
851.155	0.0136682
851.233	0.0136390
851.311	0.0135954
851.389	0.0134869
851.467	0.0136703
851.545	0.0136784
851.623	0.0136340
851.701	0.0135266
851.780	0.0136372
851.858	0.0136521
851.936	0.0135579
852.014	0.0136661
852.092	0.0138026
852.170	0.0136517
852.248	0.0135101
852.326	0.0137560
852.405	0.0137505
852.483	0.0136923
852.561	0.0137827
852.639	0.0137379
852.717	0.0138418
852.795	0.0138135
852.873	0.0137613
852.951	0.0137692
853.030	0.0137410
853.108	0.0138445
853.186	0.0137806
853.264	0.0137663
853.342	0.0136940
853.420	0.0138568
853.498	0.0138869
853.576	0.0138192
853.655	0.0138200
853.733	0.0138467
853.811	0.0138864
853.889	0.0139887
853.967	0.0139304
854.045	0.0139281
854.123	0.0139677
854.201	0.0140505
854.280	0.0139999
854.358	0.0138760
854.436	0.0138824
854.514	0.0139682
854.592	0.0139491
854.670	0.0138926
854.748	0.0137989
854.826	0.0139806
854.905	0.0139106
854.983	0.0137299
855.061	0.0138212
855.139	0.0137136
855.217	0.0137627
855.295	0.0138091
855.373	0.0137849
855.451	0.0136263
855.530	0.0137697
855.608	0.0136846
855.686	0.0138510
855.764	0.0137581
855.842	0.0138141
855.920	0.0136573
855.998	0.0138612
856.076	0.0137458
856.155	0.0137759
856.233	0.0138316
856.311	0.0139508
856.389	0.0139376
856.467	0.0138655
856.545	0.0139602
856.623	0.0139172
856.701	0.0138163
856.780	0.0138580
856.858	0.0138841
856.936	0.0137946
857.014	0.0136696
857.092	0.0137986
857.170	0.0139211
857.248	0.0137896
857.326	0.0137746
857.405	0.0138219
857.483	0.0138476
857.561	0.0138223
857.639	0.0136769
857.717	0.0138509
857.795	0.0138826
857.873	0.0137383
857.951	0.0137518
858.030	0.0138361
858.108	0.0137531
858.186	0.0138136
858.264	0.0138112
858.342	0.0137912
858.420	0.0136989
858.498	0.0138701
858.576	0.0139957
858.655	0.0139192
858.733	0.0139159
858.811	0.0138368
858.889	0.0138769
858.967	0.0137552
859.045	0.0136980
859.123	0.0137629
859.201	0.0137758
859.280	0.0137735
859.358	0.0136595
859.436	0.0137347
859.514	0.0138073
859.592	0.0137435
859.670	0.0136681
859.748	0.0136053
859.826	0.0134315
859.905	0.0135339
859.983	0.0136480
860.061	0.0135967
860.139	0.0136086
860.217	0.0138142
860.295	0.0136213
860.373	0.0136434
860.451	0.0137109
860.530	0.0136963
860.608	0.0136849
860.686	0.0137022
860.764	0.0137973
860.842	0.0138289
860.920	0.0138880
860.998	0.0139149
861.076	0.0140028
861.155	0.0139497
861.233	0.0138958
861.311	0.0138712
861.389	0.0139595
861.467	0.0140612
861.545	0.0139339
861.623	0.0140372
861.701	0.0140265
861.780	0.0140680
861.858	0.0140606
861.936	0.0141319
862.014	0.0138914
862.092	0.0139851
862.170	0.0138771
862.248	0.0139268
862.326	0.0139168
862.405	0.0138289
862.483	0.0138740
862.561	0.0138981
862.639	0.0137670
862.717	0.0138114
862.795	0.0138346
862.873	0.0137337
862.951	0.0138614
863.030	0.0139256
863.108	0.0139623
863.186	0.0137698
863.264	0.0137860
863.342	0.0138566
863.420	0.0139384
863.498	0.0137985
863.576	0.0139465
863.655	0.0139693
863.733	0.0138839
863.811	0.0138881
863.889	0.0137104
863.967	0.0139595
864.045	0.0138328
864.123	0.0138134
864.201	0.0138237
864.280	0.0137018
864.358	0.0138373
864.436	0.0136950
864.514	0.0138770
864.592	0.0138065
864.670	0.0137148
864.748	0.0138662
864.826	0.0139757
864.905	0.0138214
864.983	0.0137511
865.061	0.0137677
865.139	0.0138789
865.217	0.0139421
865.295	0.0136797
865.373	0.0138123
865.451	0.0138561
865.530	0.0137598
865.608	0.0139122
865.686	0.0137679
865.764	0.0138616
865.842	0.0137167
865.920	0.0136380
865.998	0.0138143
866.076	0.0139068
866.155	0.0136268
866.233	0.0136003
866.311	0.0136965
866.389	0.0137630
866.467	0.0136672
866.545	0.0136448
866.623	0.0137510
866.701	0.0136186
866.780	0.0139146
866.858	0.0138259
866.936	0.0138483
867.014	0.0139256
867.092	0.0138520
867.170	0.0137636
867.248	0.0139454
867.326	0.0140052
867.405	0.0138335
867.483	0.0139054
867.561	0.0138336
867.639	0.0139511
867.717	0.0138577
867.795	0.0139060
867.873	0.0138617
867.951	0.0139392
868.030	0.0138232
868.108	0.0139114
868.186	0.0138793
868.264	0.0138670
868.342	0.0140059
868.420	0.0137847
868.498	0.0138713
868.576	0.0139225
868.655	0.0138123
868.733	0.0138123
868.811	0.0139034
868.889	0.0139133
868.967	0.0139526
869.045	0.0137508
869.123	0.0138013
869.201	0.0138393
869.280	0.0138261
869.358	0.0138104
869.436	0.0137836
869.514	0.0138029
869.592	0.0136544
869.670	0.0138199
869.748	0.0136830
869.826	0.0135796
869.905	0.0137807
869.983	0.0137910
870.061	0.0138882
870.139	0.0138242
870.217	0.0137133
870.295	0.0137466
870.373	0.0136507
870.451	0.0136990
870.530	0.0138145
870.608	0.0137659
870.686	0.0136849
870.764	0.0136792
870.842	0.0138133
870.920	0.0137763
870.998	0.0137354
871.076	0.0137756
871.155	0.0137803
871.233	0.0137671
871.311	0.0138369
871.389	0.0138189
871.467	0.0137636
871.545	0.0138869
871.623	0.0138540
871.701	0.0138766
871.780	0.0137966
871.858	0.0138616
871.936	0.0139307
872.014	0.0138885
872.092	0.0135860
872.170	0.0138511
872.248	0.0138542
872.326	0.0138050
872.405	0.0138737
872.483	0.0137985
872.561	0.0138599
872.639	0.0137945
872.717	0.0138412
872.795	0.0138489
872.873	0.0137437
872.951	0.0136802
873.030	0.0138983
873.108	0.0138536
873.186	0.0138738
873.264	0.0137522
873.342	0.0138656
873.420	0.0139783
873.498	0.0138421
873.576	0.0137669
873.655	0.0138393
873.733	0.0138089
873.811	0.0138390
873.889	0.0136871
873.967	0.0139140
874.045	0.0138171
874.123	0.0138792
874.201	0.0138061
874.280	0.0137178
874.358	0.0137043
874.436	0.0136408
874.514	0.0137111
874.592	0.0136568
874.670	0.0138879
874.748	0.0137194
874.826	0.0136778
874.905	0.0136940
874.983	0.0138519
875.061	0.0138670
875.139	0.0135794
875.217	0.0137636
875.295	0.0138494
875.373	0.0137028
875.451	0.0135690
875.530	0.0137270
875.608	0.0136143
875.686	0.0136278
875.764	0.0136492
875.842	0.0138634
875.920	0.0136300
875.998	0.0136782
876.076	0.0136398
876.155	0.0136058
876.233	0.0138033
876.311	0.0135562
876.389	0.0137288
876.467	0.0137028
876.545	0.0137709
876.623	0.0137279
876.701	0.0138217
876.780	0.0139706
876.858	0.0139268
876.936	0.0136964
877.014	0.0139144
877.092	0.0138869
877.170	0.0139643
877.248	0.0139633
877.326	0.0138914
877.405	0.0138158
877.483	0.0138893
877.561	0.0137830
877.639	0.0137200
877.717	0.0136463
877.795	0.0137526
877.873	0.0136524
877.951	0.0135661
878.030	0.0135096
878.108	0.0136668
878.186	0.0137476
878.264	0.0135398
878.342	0.0136620
878.420	0.0136224
878.498	0.0137231
878.576	0.0136737
878.655	0.0136326
878.733	0.0137881
878.811	0.0139083
878.889	0.0138947
878.967	0.0138354
879.045	0.0137914
879.123	0.0137139
879.201	0.0137099
879.280	0.0137701
879.358	0.0138487
879.436	0.0137986
879.514	0.0136877
879.592	0.0137383
879.670	0.0137764
879.748	0.0136156
879.826	0.0137896
879.905	0.0138554
879.983	0.0137376
880.061	0.0138042
880.139	0.0136762
880.217	0.0137305
880.295	0.0138216
880.373	0.0137950
880.451	0.0136788
880.530	0.0138131
880.608	0.0138488
880.686	0.0136958
880.764	0.0136182
880.842	0.0136913
880.920	0.0136563
880.998	0.0137951
881.076	0.0137031
881.155	0.0137610
881.233	0.0137854
881.311	0.0138361
881.389	0.0137099
881.467	0.0138423
881.545	0.0137827
881.623	0.0139287
881.701	0.0138321
881.780	0.0138897
881.858	0.0138823
881.936	0.0139882
882.014	0.0139189
882.092	0.0138664
882.170	0.0139679
882.248	0.0139049
882.326	0.0138400
882.405	0.0138425
882.483	0.0137670
882.561	0.0138728
882.639	0.0136796
882.717	0.0137072
882.795	0.0137188
882.873	0.0138612
882.951	0.0137914
883.030	0.0138652
883.108	0.0138154
883.186	0.0138449
883.264	0.0137836
883.342	0.0136755
883.420	0.0138087
883.498	0.0138223
883.576	0.0136732
883.655	0.0136494
883.733	0.0136875
883.811	0.0136171
883.889	0.0135255
883.967	0.0136761
884.045	0.0136667
884.123	0.0138174
884.201	0.0137704
884.280	0.0137003
884.358	0.0136680
884.436	0.0137009
884.514	0.0135840
884.592	0.0137126
884.670	0.0137652
884.748	0.0137392
884.826	0.0136839
884.905	0.0137624
884.983	0.0135594
885.061	0.0135645
885.139	0.0135894
885.217	0.0136925
885.295	0.0135976
885.373	0.0136829
885.451	0.0136568
885.530	0.0137479
885.608	0.0139693
885.686	0.0137952
885.764	0.0138171
885.842	0.0139065
885.920	0.0139957
885.998	0.0137875
886.076	0.0138136
886.155	0.0137341
886.233	0.0137999
886.311	0.0138013
886.389	0.0138544
886.467	0.0138239
886.545	0.0136499
886.623	0.0137805
886.701	0.0138312
886.780	0.0139663
886.858	0.0137459
886.936	0.0138490
887.014	0.0139256
887.092	0.0140054
887.170	0.0138551
887.248	0.0137399
887.326	0.0137017
887.405	0.0138065
887.483	0.0137294
887.561	0.0136940
887.639	0.0137080
887.717	0.0138290
887.795	0.0137697
887.873	0.0137130
887.951	0.0139072
888.030	0.0137484
888.108	0.0136409
888.186	0.0137391
888.264	0.0138078
888.342	0.0136342
888.420	0.0136893
888.498	0.0138081
888.576	0.0137913
888.655	0.0137527
888.733	0.0135860
888.811	0.0135847
888.889	0.0137701
888.967	0.0138025
889.045	0.0137427
889.123	0.0136568
889.201	0.0136638
889.280	0.0136037
889.358	0.0135408
889.436	0.0136579
889.514	0.0137125
889.592	0.0137635
889.670	0.0136462
889.748	0.0136406
889.826	0.0136116
889.905	0.0137924
889.983	0.0137341
890.061	0.0135655
890.139	0.0136186
890.217	0.0138191
890.295	0.0138265
890.373	0.0137038
890.451	0.0136330
890.530	0.0136417
890.608	0.0136972
890.686	0.0138210
890.764	0.0137456
890.842	0.0137800
890.920	0.0137270
890.998	0.0138145
891.076	0.0137958
891.155	0.0137958
891.233	0.0137900
891.311	0.0138622
891.389	0.0136735
891.467	0.0136602
891.545	0.0136901
891.623	0.0136113
891.701	0.0136847
891.780	0.0136636
891.858	0.0136467
891.936	0.0136427
892.014	0.0135295
892.092	0.0134021
892.170	0.0136378
892.248	0.0134978
892.326	0.0137489
892.405	0.0138763
892.483	0.0137763
892.561	0.0137000
892.639	0.0138304
892.717	0.0138224
892.795	0.0138212
892.873	0.0139263
892.951	0.0138479
893.030	0.0139105
893.108	0.0137046
893.186	0.0138867
893.264	0.0138006
893.342	0.0138663
893.420	0.0136784
893.498	0.0137536
893.576	0.0136352
893.655	0.0136777
893.733	0.0137489
893.811	0.0136647
893.889	0.0137097
893.967	0.0136325
894.045	0.0136087
894.123	0.0135361
894.201	0.0138982
894.280	0.0136999
894.358	0.0137209
894.436	0.0137292
894.514	0.0137364
894.592	0.0137117
894.670	0.0137447
894.748	0.0136723
894.826	0.0136417
894.905	0.0138161
894.983	0.0137285
895.061	0.0137222
895.139	0.0137033
895.217	0.0137798
895.295	0.0136541
895.373	0.0137886
895.451	0.0138584
895.530	0.0135944
895.608	0.0137119
895.686	0.0136824
895.764	0.0137408
895.842	0.0136493
895.920	0.0136095
895.998	0.0137689
896.076	0.0137550
896.155	0.0136409
896.233	0.0136598
896.311	0.0137141
896.389	0.0135356
896.467	0.0136033
896.545	0.0137699
896.623	0.0136958
896.701	0.0136330
896.780	0.0137237
896.858	0.0138177
896.936	0.0135378
897.014	0.0136275
897.092	0.0136114
897.170	0.0137005
897.248	0.0136225
897.326	0.0136305
897.405	0.0135863
897.483	0.0136903
897.561	0.0136109
897.639	0.0136786
897.717	0.0137182
897.795	0.0136605
897.873	0.0138219
897.951	0.0140195
898.030	0.0139163
898.108	0.0137892
898.186	0.0138057
898.264	0.0139616
898.342	0.0138264
898.420	0.0138182
898.498	0.0138401
898.576	0.0139240
898.655	0.0136606
898.733	0.0137077
898.811	0.0135861
898.889	0.0137593
898.967	0.0136418
899.045	0.0137191
899.123	0.0136922
899.201	0.0135110
899.280	0.0135961
899.358	0.0135806
899.436	0.0136241
899.514	0.0136507
899.592	0.0137788
899.670	0.0136535
899.748	0.0137732
899.826	0.0136990
899.905	0.0136182
899.983	0.0136832
900.061	0.0138822
900.139	0.0137170
900.217	0.0137700
900.295	0.0136655
900.373	0.0137389
900.451	0.0138561
900.530	0.0139143
900.608	0.0137888
900.686	0.0139612
900.764	0.0139008
900.842	0.0138235
900.920	0.0138820
900.998	0.0139176
901.076	0.0137658
901.155	0.0137820
901.233	0.0137495
901.311	0.0138058
901.389	0.0138161
901.467	0.0137348
901.545	0.0137506
901.623	0.0136085
901.701	0.0136929
901.780	0.0136663
901.858	0.0136890
901.936	0.0137074
902.014	0.0137145
902.092	0.0136021
902.170	0.0136440
902.248	0.0138615
902.326	0.0138156
902.405	0.0137418
902.483	0.0139362
902.561	0.0139532
902.639	0.0137900
902.717	0.0137776
902.795	0.0137686
902.873	0.0137987
902.951	0.0137431
903.030	0.0138405
903.108	0.0137986
903.186	0.0136384
903.264	0.0136326
903.342	0.0136299
903.420	0.0136108
903.498	0.0136854
903.576	0.0136614
903.655	0.0138556
903.733	0.0137953
903.811	0.0138242
903.889	0.0137245
903.967	0.0138296
904.045	0.0137356
904.123	0.0138400
904.201	0.0138751
904.280	0.0139533
904.358	0.0139090
904.436	0.0138950
904.514	0.0139023
904.592	0.0138842
904.670	0.0138379
904.748	0.0138155
904.826	0.0138200
904.905	0.0138771
904.983	0.0137306
905.061	0.0138428
905.139	0.0137587
905.217	0.0137911
905.295	0.0138695
905.373	0.0137621
905.451	0.0138031
905.530	0.0137227
905.608	0.0137333
905.686	0.0136757
905.764	0.0136499
905.842	0.0136553
905.920	0.0138271
905.998	0.0138042
906.076	0.0137306
906.155	0.0137260
906.233	0.0138064
906.311	0.0137282
906.389	0.0138454
906.467	0.0138476
906.545	0.0138876
906.623	0.0139877
906.701	0.0139510
906.780	0.0137558
906.858	0.0139372
906.936	0.0139973
907.014	0.0138682
907.092	0.0139172
907.170	0.0138267
907.248	0.0138322
907.326	0.0137831
907.405	0.0138368
907.483	0.0137834
907.561	0.0137341
907.639	0.0138441
907.717	0.0139023
907.795	0.0136996
907.873	0.0137227
907.951	0.0136819
908.030	0.0138060
908.108	0.0137362
908.186	0.0137169
908.264	0.0135863
908.342	0.0137653
908.420	0.0138161
908.498	0.0137750
908.576	0.0136460
908.655	0.0136536
908.733	0.0136990
908.811	0.0136338
908.889	0.0137103
908.967	0.0135819
909.045	0.0137482
909.123	0.0136572
909.201	0.0138559
909.280	0.0137744
909.358	0.0138055
909.436	0.0136563
909.514	0.0136539
909.592	0.0137869
909.670	0.0136121
909.748	0.0136658
909.826	0.0136891
909.905	0.0137026
909.983	0.0138275
910.061	0.0137705
910.139	0.0137450
910.217	0.0136891
910.295	0.0139348
910.373	0.0139600
910.451	0.0138336
910.530	0.0139550
910.608	0.0140922
910.686	0.0139656
910.764	0.0140928
910.842	0.0137889
910.920	0.0138986
910.998	0.0139538
911.076	0.0139977
911.155	0.0138513
911.233	0.0138675
911.311	0.0139309
911.389	0.0138087
911.467	0.0137629
911.545	0.0136812
911.623	0.0137035
911.701	0.0134926
911.780	0.0135254
911.858	0.0138032
911.936	0.0134637
912.014	0.0135861
912.092	0.0135497
912.170	0.0135209
912.248	0.0134259
912.326	0.0133878
912.405	0.0134860
912.483	0.0134361
912.561	0.0133615
912.639	0.0134435
912.717	0.0136214
912.795	0.0135799
912.873	0.0136452
912.951	0.0136284
913.030	0.0137969
913.108	0.0137534
913.186	0.0138745
913.264	0.0138264
913.342	0.0138417
913.420	0.0139448
913.498	0.0139167
913.576	0.0139488
913.655	0.0139774
913.733	0.0139455
913.811	0.0139560
913.889	0.0140068
913.967	0.0140598
914.045	0.0140247
914.123	0.0138773
914.201	0.0137988
914.280	0.0136855
914.358	0.0138899
914.436	0.0138452
914.514	0.0137164
914.592	0.0137723
914.670	0.0137251
914.748	0.0137145
914.826	0.0136812
914.905	0.0136071
914.983	0.0135901
915.061	0.0137330
915.139	0.0137288
915.217	0.0135884
915.295	0.0136301
915.373	0.0136869
915.451	0.0136877
915.530	0.0137775
915.608	0.0137914
915.686	0.0135935
915.764	0.0137944
915.842	0.0138054
915.920	0.0136857
915.998	0.0137837
916.076	0.0138664
916.155	0.0138872
916.233	0.0137452
916.311	0.0139131
916.389	0.0139040
916.467	0.0138708
916.545	0.0139990
916.623	0.0139586
916.701	0.0138699
916.780	0.0136942
916.858	0.0139655
916.936	0.0139011
917.014	0.0139050
917.092	0.0140292
917.170	0.0139625
917.248	0.0139014
917.326	0.0138579
917.405	0.0138293
917.483	0.0139337
917.561	0.0138573
917.639	0.0136508
917.717	0.0136818
917.795	0.0135559
917.873	0.0136127
917.951	0.0136733
918.030	0.0136389
918.108	0.0137328
918.186	0.0136713
918.264	0.0136708
918.342	0.0135934
918.420	0.0136456
918.498	0.0137480
918.576	0.0137794
918.655	0.0137843
918.733	0.0137469
918.811	0.0137785
918.889	0.0136543
918.967	0.0136163
919.045	0.0137305
919.123	0.0136864
919.201	0.0137888
919.280	0.0137971
919.358	0.0136117
919.436	0.0137138
919.514	0.0137701
919.592	0.0137035
919.670	0.0138400
919.748	0.0138941
919.826	0.0137359
919.905	0.0138742
919.983	0.0139169
920.061	0.0139423
920.139	0.0139164
920.217	0.0139801
920.295	0.0139471
920.373	0.0138975
920.451	0.0137929
920.530	0.0139340
920.608	0.0139440
920.686	0.0139429
920.764	0.0138338
920.842	0.0139982
920.920	0.0139627
920.998	0.0137922
921.076	0.0138554
921.155	0.0139121
921.233	0.0139304
921.311	0.0136823
921.389	0.0137043
921.467	0.0136783
921.545	0.0137061
921.623	0.0137008
921.701	0.0137315
921.780	0.0135641
921.858	0.0135632
921.936	0.0135784
922.014	0.0136007
922.092	0.0136607
922.170	0.0137511
922.248	0.0136478
922.326	0.0135866
922.405	0.0136209
922.483	0.0135854
922.561	0.0134837
922.639	0.0137600
922.717	0.0136857
922.795	0.0138484
922.873	0.0137365
922.951	0.0137898
923.030	0.0138613
923.108	0.0138491
923.186	0.0140067
923.264	0.0139230
923.342	0.0139921
923.420	0.0141020
923.498	0.0139676
923.576	0.0140975
923.655	0.0140781
923.733	0.0140814
923.811	0.0139301
923.889	0.0141370
923.967	0.0140809
924.045	0.0140222
924.123	0.0140403
924.201	0.0139400
924.280	0.0140101
924.358	0.0139359
924.436	0.0138748
924.514	0.0138220
924.592	0.0137974
924.670	0.0138866
924.748	0.0137529
924.826	0.0136620
924.905	0.0136874
924.983	0.0138058
925.061	0.0138186
925.139	0.0137335
925.217	0.0136971
925.295	0.0137777
925.373	0.0138210
925.451	0.0136688
925.530	0.0137853
925.608	0.0138051
925.686	0.0138291
925.764	0.0139114
925.842	0.0139702
925.920	0.0138783
925.998	0.0139615
926.076	0.0138109
926.155	0.0137780
926.233	0.0139105
926.311	0.0138373
926.389	0.0136759
926.467	0.0138196
926.545	0.0138760
926.623	0.0139228
926.701	0.0138419
926.780	0.0138821
926.858	0.0137912
926.936	0.0136986
927.014	0.0138349
927.092	0.0139268
927.170	0.0138178
927.248	0.0139098
927.326	0.0139319
927.405	0.0136768
927.483	0.0138855
927.561	0.0138512
927.639	0.0138426
927.717	0.0137936
927.795	0.0138361
927.873	0.0137632
927.951	0.0137199
928.030	0.0136729
928.108	0.0136348
928.186	0.0136235
928.264	0.0136798
928.342	0.0137832
928.420	0.0139087
928.498	0.0136881
928.576	0.0136774
928.655	0.0136956
928.733	0.0137736
928.811	0.0137395
928.889	0.0137304
928.967	0.0136327
929.045	0.0138489
929.123	0.0136501
929.201	0.0136127
929.280	0.0135308
929.358	0.0136247
929.436	0.0135130
929.514	0.0136170
929.592	0.0137698
929.670	0.0137310
929.748	0.0138101
929.826	0.0138489
929.905	0.0138346
929.983	0.0139258
930.061	0.0138838
930.139	0.0138740
930.217	0.0138837
930.295	0.0139845
930.373	0.0139756
930.451	0.0139600
930.530	0.0141175
930.608	0.0140437
930.686	0.0138682
930.764	0.0139117
930.842	0.0139808
930.920	0.0139495
930.998	0.0138490
931.076	0.0137762
931.155	0.0136636
931.233	0.0137575
931.311	0.0137970
931.389	0.0137414
931.467	0.0136565
931.545	0.0136813
931.623	0.0136079
931.701	0.0136185
931.780	0.0136701
931.858	0.0135680
931.936	0.0136431
932.014	0.0137363
932.092	0.0137141
932.170	0.0137236
932.248	0.0137855
932.326	0.0137728
932.405	0.0137979
932.483	0.0138144
932.561	0.0137228
932.639	0.0138325
932.717	0.0138448
932.795	0.0137447
932.873	0.0139102
932.951	0.0140202
933.030	0.0138588
933.108	0.0138378
933.186	0.0137026
933.264	0.0138179
933.342	0.0139117
933.420	0.0138799
933.498	0.0138590
933.576	0.0138597
933.655	0.0137405
933.733	0.0136768
933.811	0.0137335
933.889	0.0137134
933.967	0.0136558
934.045	0.0136631
934.123	0.0135467
934.201	0.0136549
934.280	0.0135789
934.358	0.0134372
934.436	0.0135150
934.514	0.0134812
934.592	0.0135389
934.670	0.0136057
934.748	0.0136609
934.826	0.0135700
934.905	0.0135748
934.983	0.0137373
935.061	0.0136551
935.139	0.0137437
935.217	0.0137450
935.295	0.0137925
935.373	0.0138499
935.451	0.0139517
935.530	0.0138181
935.608	0.0138329
935.686	0.0137469
935.764	0.0138444
935.842	0.0138250
935.920	0.0137796
935.998	0.0138159
936.076	0.0138313
936.155	0.0138371
936.233	0.0138184
936.311	0.0136739
936.389	0.0138793
936.467	0.0138310
936.545	0.0136277
936.623	0.0136370
936.701	0.0134972
936.780	0.0138898
936.858	0.0136996
936.936	0.0136452
937.014	0.0137156
937.092	0.0139139
937.170	0.0138808
937.248	0.0138974
937.326	0.0138357
937.405	0.0137895
937.483	0.0139655
937.561	0.0139883
937.639	0.0140284
937.717	0.0140031
937.795	0.0140049
937.873	0.0140604
937.951	0.0139252
938.030	0.0138718
938.108	0.0139208
938.186	0.0137535
938.264	0.0136503
938.342	0.0138010
938.420	0.0137419
938.498	0.0135763
938.576	0.0136082
938.655	0.0136371
938.733	0.0135266
938.811	0.0135098
938.889	0.0134782
938.967	0.0135732
939.045	0.0136513
939.123	0.0136019
939.201	0.0135455
939.280	0.0137402
939.358	0.0137949
939.436	0.0137024
939.514	0.0137126
939.592	0.0137557
939.670	0.0138258
939.748	0.0139068
939.826	0.0138678
939.905	0.0138252
939.983	0.0140067
940.061	0.0139117
940.139	0.0139023
940.217	0.0139597
940.295	0.0138190
940.373	0.0136862
940.451	0.0138702
940.530	0.0140098
940.608	0.0139351
940.686	0.0138357
940.764	0.0139913
940.842	0.0139322
940.920	0.0139214
940.998	0.0138509
941.076	0.0139703
941.155	0.0139913
941.233	0.0137833
941.311	0.0138528
941.389	0.0139889
941.467	0.0139448
941.545	0.0139100
941.623	0.0139237
941.701	0.0137851
941.780	0.0137944
941.858	0.0136494
941.936	0.0137723
942.014	0.0137957
942.092	0.0138183
942.170	0.0138669
942.248	0.0138116
942.326	0.0135667
942.405	0.0137628
942.483	0.0137078
942.561	0.0137605
942.639	0.0137955
942.717	0.0137098
942.795	0.0137275
942.873	0.0136360
942.951	0.0138285
943.030	0.0137006
943.108	0.0135754
943.186	0.0136604
943.264	0.0137090
943.342	0.0136964
943.420	0.0136227
943.498	0.0137563
943.576	0.0137907
943.655	0.0136489
943.733	0.0137844
943.811	0.0137230
943.889	0.0137239
943.967	0.0136935
944.045	0.0138129
944.123	0.0136028
944.201	0.0138046
944.280	0.0138960
944.358	0.0138016
944.436	0.0136778
944.514	0.0138763
944.592	0.0139140
944.670	0.0138821
944.748	0.0140365
944.826	0.0139230
944.905	0.0139165
944.983	0.0140568
945.061	0.0139978
945.139	0.0137958
945.217	0.0140105
945.295	0.0139636
945.373	0.0139606
945.451	0.0139421
945.530	0.0140038
945.608	0.0139541
945.686	0.0139146
945.764	0.0139413
945.842	0.0139667
945.920	0.0139973
945.998	0.0141493
946.076	0.0140929
946.155	0.0139029
946.233	0.0138426
946.311	0.0138886
946.389	0.0138707
946.467	0.0140142
946.545	0.0138432
946.623	0.0139791
946.701	0.0139017
946.780	0.0139253
946.858	0.0139679
946.936	0.0138182
947.014	0.0138630
947.092	0.0139470
947.170	0.0140002
947.248	0.0138102
947.326	0.0137631
947.405	0.0137756
947.483	0.0138416
947.561	0.0137512
947.639	0.0138483
947.717	0.0136241
947.795	0.0136816
947.873	0.0138286
947.951	0.0136326
948.030	0.0136335
948.108	0.0136697
948.186	0.0136973
948.264	0.0136382
948.342	0.0135593
948.420	0.0137009
948.498	0.0137180
948.576	0.0137515
948.655	0.0137029
948.733	0.0138091
948.811	0.0137398
948.889	0.0136863
948.967	0.0136981
949.045	0.0138132
949.123	0.0136987
949.201	0.0136839
949.280	0.0137602
949.358	0.0136958
949.436	0.0135608
949.514	0.0136263
949.592	0.0136726
949.670	0.0136934
949.748	0.0136733
949.826	0.0136548
949.905	0.0137672
949.983	0.0137875
950.061	0.0136864
950.139	0.0136283
950.217	0.0137924
950.295	0.0139359
950.373	0.0137965
950.451	0.0138197
950.530	0.0138171
950.608	0.0137157
950.686	0.0138560
950.764	0.0138000
950.842	0.0137457
950.920	0.0137671
950.998	0.0139124
951.076	0.0138332
951.155	0.0137874
951.233	0.0137883
951.311	0.0136467
951.389	0.0137632
951.467	0.0137999
951.545	0.0136743
951.623	0.0137196
951.701	0.0138668
951.780	0.0136716
951.858	0.0137458
951.936	0.0139153
952.014	0.0138022
952.092	0.0138284
952.170	0.0138213
952.248	0.0137828
952.326	0.0139883
952.405	0.0140162
952.483	0.0138880
952.561	0.0139205
952.639	0.0139208
952.717	0.0139044
952.795	0.0139834
952.873	0.0138802
952.951	0.0137608
953.030	0.0138071
953.108	0.0138206
953.186	0.0137589
953.264	0.0137501
953.342	0.0137540
953.420	0.0137132
953.498	0.0137762
953.576	0.0136272
953.655	0.0136282
953.733	0.0136084
953.811	0.0135981
953.889	0.0135490
953.967	0.0136320
954.045	0.0135510
954.123	0.0135281
954.201	0.0134333
954.280	0.0135903
954.358	0.0136427
954.436	0.0135567
954.514	0.0134932
954.592	0.0135796
954.670	0.0137018
954.748	0.0135395
954.826	0.0136342
954.905	0.0136585
954.983	0.0135612
955.061	0.0136050
955.139	0.0137709
955.217	0.0138435
955.295	0.0136337
955.373	0.0137180
955.451	0.0135135
955.530	0.0136509
955.608	0.0137533
955.686	0.0135957
955.764	0.0136189
955.842	0.0137674
955.920	0.0138060
955.998	0.0136900
956.076	0.0137312
956.155	0.0136743
956.233	0.0136512
956.311	0.0135963
956.389	0.0136367
956.467	0.0138116
956.545	0.0137529
956.623	0.0137620
956.701	0.0139085
956.780	0.0137309
956.858	0.0137383
956.936	0.0138464
957.014	0.0139073
957.092	0.0138463
957.170	0.0137707
957.248	0.0137074
957.326	0.0138637
957.405	0.0138966
957.483	0.0136887
957.561	0.0137296
957.639	0.0136556
957.717	0.0137827
957.795	0.0138639
957.873	0.0138515
957.951	0.0137574
958.030	0.0136639
958.108	0.0136791
958.186	0.0137332
958.264	0.0137572
958.342	0.0137589
958.420	0.0136761
958.498	0.0138239
958.576	0.0137674
958.655	0.0137907
958.733	0.0137331
958.811	0.0137859
958.889	0.0138113
958.967	0.0138275
959.045	0.0137575
959.123	0.0137514
959.201	0.0138271
959.280	0.0138464
959.358	0.0139200
959.436	0.0138676
959.514	0.0139384
959.592	0.0138491
959.670	0.0138088
959.748	0.0138639
959.826	0.0139024
959.905	0.0138057
