05/20/2022	16:30:22	Ver.	4.1	UNKNOWN
Optical Delay	639.982744	Delta X		0.078125	Sweeps	1	Scan Rate	0/0
Coordinates	Axis 1	NaN	Axis 2	NaN	Axis 3	NaN	Axis 4	NaN	Axis 5	NaN	Axis 6	0.000000
TX Power	0.000000	RX Power	0.000000

639.983	0.0151575
640.061	0.0150674
640.139	0.0150075
640.217	0.0151746
640.295	0.0150907
640.373	0.0150415
640.451	0.0150330
640.530	0.0150907
640.608	0.0151294
640.686	0.0149446
640.764	0.0152041
640.842	0.0151791
640.920	0.0150451
640.998	0.0150227
641.076	0.0151284
641.155	0.0151802
641.233	0.0151596
641.311	0.0151294
641.389	0.0151793
641.467	0.0152045
641.545	0.0150319
641.623	0.0150047
641.701	0.0151124
641.780	0.0151446
641.858	0.0152251
641.936	0.0150871
642.014	0.0150063
642.092	0.0150032
642.170	0.0151317
642.248	0.0150307
642.326	0.0150302
642.405	0.0152103
642.483	0.0150764
642.561	0.0151953
642.639	0.0151624
642.717	0.0151237
642.795	0.0150347
642.873	0.0151055
642.951	0.0150150
643.030	0.0150053
643.108	0.0150951
643.186	0.0150143
643.264	0.0150655
643.342	0.0150650
643.420	0.0149515
643.498	0.0151291
643.576	0.0152251
643.655	0.0151085
643.733	0.0151469
643.811	0.0150551
643.889	0.0150222
643.967	0.0151484
644.045	0.0151096
644.123	0.0150893
644.201	0.0150669
644.280	0.0150385
644.358	0.0149677
644.436	0.0151716
644.514	0.0151912
644.592	0.0150227
644.670	0.0150618
644.748	0.0151170
644.826	0.0149655
644.905	0.0151118
644.983	0.0151799
645.061	0.0150606
645.139	0.0152914
645.217	0.0152561
645.295	0.0151160
645.373	0.0151141
645.451	0.0150446
645.530	0.0150945
645.608	0.0150159
645.686	0.0151329
645.764	0.0150793
645.842	0.0149950
645.920	0.0152264
645.998	0.0151368
646.076	0.0150331
646.155	0.0151244
646.233	0.0149876
646.311	0.0150114
646.389	0.0151172
646.467	0.0151870
646.545	0.0151934
646.623	0.0150764
646.701	0.0151096
646.780	0.0152147
646.858	0.0150566
646.936	0.0150964
647.014	0.0150340
647.092	0.0151254
647.170	0.0152467
647.248	0.0152588
647.326	0.0150017
647.405	0.0151537
647.483	0.0150911
647.561	0.0150937
647.639	0.0149934
647.717	0.0150971
647.795	0.0150885
647.873	0.0149954
647.951	0.0150356
648.030	0.0150771
648.108	0.0149281
648.186	0.0150537
648.264	0.0150539
648.342	0.0149143
648.420	0.0149653
648.498	0.0150163
648.576	0.0149770
648.655	0.0150068
648.733	0.0150797
648.811	0.0150315
648.889	0.0150851
648.967	0.0149883
649.045	0.0152171
649.123	0.0149897
649.201	0.0150811
649.280	0.0150500
649.358	0.0150413
649.436	0.0150494
649.514	0.0151134
649.592	0.0151653
649.670	0.0151276
649.748	0.0150003
649.826	0.0150251
649.905	0.0150363
649.983	0.0150855
650.061	0.0150861
650.139	0.0150926
650.217	0.0149609
650.295	0.0150948
650.373	0.0151014
650.451	0.0148754
650.530	0.0150496
650.608	0.0149453
650.686	0.0148506
650.764	0.0148351
650.842	0.0149004
650.920	0.0149460
650.998	0.0149458
651.076	0.0149625
651.155	0.0149155
651.233	0.0150304
651.311	0.0148787
651.389	0.0149997
651.467	0.0150054
651.545	0.0150616
651.623	0.0151403
651.701	0.0150582
651.780	0.0152609
651.858	0.0150416
651.936	0.0151060
652.014	0.0149980
652.092	0.0150304
652.170	0.0150436
652.248	0.0149699
652.326	0.0149082
652.405	0.0150100
652.483	0.0149969
652.561	0.0149363
652.639	0.0149941
652.717	0.0150748
652.795	0.0150717
652.873	0.0151050
652.951	0.0148589
653.030	0.0149958
653.108	0.0149250
653.186	0.0150514
653.264	0.0150963
653.342	0.0149621
653.420	0.0150040
653.498	0.0151399
653.576	0.0150548
653.655	0.0150410
653.733	0.0150423
653.811	0.0150209
653.889	0.0150454
653.967	0.0149632
654.045	0.0149462
654.123	0.0150732
654.201	0.0150723
654.280	0.0150247
654.358	0.0150314
654.436	0.0150150
654.514	0.0150219
654.592	0.0149149
654.670	0.0148312
654.748	0.0150351
654.826	0.0150738
654.905	0.0149551
654.983	0.0150019
655.061	0.0150418
655.139	0.0148657
655.217	0.0148073
655.295	0.0149648
655.373	0.0151158
655.451	0.0151035
655.530	0.0149929
655.608	0.0150186
655.686	0.0150247
655.764	0.0151324
655.842	0.0151516
655.920	0.0151482
655.998	0.0151392
656.076	0.0151909
656.155	0.0151939
656.233	0.0151359
656.311	0.0152704
656.389	0.0153230
656.467	0.0151631
656.545	0.0153199
656.623	0.0152488
656.701	0.0151266
656.780	0.0152469
656.858	0.0153010
656.936	0.0151492
657.014	0.0151268
657.092	0.0150518
657.170	0.0150517
657.248	0.0150227
657.326	0.0150525
657.405	0.0150798
657.483	0.0149328
657.561	0.0150021
657.639	0.0149917
657.717	0.0150876
657.795	0.0151019
657.873	0.0148121
657.951	0.0150123
658.030	0.0150522
658.108	0.0150021
658.186	0.0150341
658.264	0.0151685
658.342	0.0150349
658.420	0.0150705
658.498	0.0150830
658.576	0.0152429
658.655	0.0150214
658.733	0.0150275
658.811	0.0150975
658.889	0.0152188
658.967	0.0150709
659.045	0.0150549
659.123	0.0151340
659.201	0.0149203
659.280	0.0150817
659.358	0.0149782
659.436	0.0150887
659.514	0.0151501
659.592	0.0151240
659.670	0.0151337
659.748	0.0150736
659.826	0.0151072
659.905	0.0150410
659.983	0.0152138
660.061	0.0150538
660.139	0.0153044
660.217	0.0151234
660.295	0.0152483
660.373	0.0151508
660.451	0.0151503
660.530	0.0150761
660.608	0.0152209
660.686	0.0151146
660.764	0.0151846
660.842	0.0151498
660.920	0.0151385
660.998	0.0153199
661.076	0.0151379
661.155	0.0150675
661.233	0.0151028
661.311	0.0151940
661.389	0.0151996
661.467	0.0151958
661.545	0.0151547
661.623	0.0151453
661.701	0.0150529
661.780	0.0151122
661.858	0.0150696
661.936	0.0151048
662.014	0.0149451
662.092	0.0150590
662.170	0.0151016
662.248	0.0150389
662.326	0.0149724
662.405	0.0150429
662.483	0.0149966
662.561	0.0149905
662.639	0.0149848
662.717	0.0150272
662.795	0.0150727
662.873	0.0149340
662.951	0.0149718
663.030	0.0150937
663.108	0.0150658
663.186	0.0150551
663.264	0.0149945
663.342	0.0150684
663.420	0.0150853
663.498	0.0150409
663.576	0.0149773
663.655	0.0150891
663.733	0.0150107
663.811	0.0149726
663.889	0.0151103
663.967	0.0150549
664.045	0.0151992
664.123	0.0150689
664.201	0.0151314
664.280	0.0152800
664.358	0.0151215
664.436	0.0152177
664.514	0.0153503
664.592	0.0153120
664.670	0.0151379
664.748	0.0151874
664.826	0.0152528
664.905	0.0151955
664.983	0.0150026
665.061	0.0151224
665.139	0.0150297
665.217	0.0151052
665.295	0.0150787
665.373	0.0149806
665.451	0.0149683
665.530	0.0149238
665.608	0.0151008
665.686	0.0151691
665.764	0.0148731
665.842	0.0150877
665.920	0.0151566
665.998	0.0150385
666.076	0.0150776
666.155	0.0149691
666.233	0.0151851
666.311	0.0150625
666.389	0.0151613
666.467	0.0152963
666.545	0.0151691
666.623	0.0152043
666.701	0.0151086
666.780	0.0151408
666.858	0.0151788
666.936	0.0152229
667.014	0.0150093
667.092	0.0150463
667.170	0.0151057
667.248	0.0150479
667.326	0.0149546
667.405	0.0149435
667.483	0.0149895
667.561	0.0150414
667.639	0.0150136
667.717	0.0150125
667.795	0.0150048
667.873	0.0149925
667.951	0.0150365
668.030	0.0151208
668.108	0.0150159
668.186	0.0151005
668.264	0.0150356
668.342	0.0149840
668.420	0.0149856
668.498	0.0150552
668.576	0.0150991
668.655	0.0151559
668.733	0.0150977
668.811	0.0151861
668.889	0.0150243
668.967	0.0151895
669.045	0.0150993
669.123	0.0151318
669.201	0.0150677
669.280	0.0151203
669.358	0.0149861
669.436	0.0150491
669.514	0.0149944
669.592	0.0152425
669.670	0.0151973
669.748	0.0151651
669.826	0.0150691
669.905	0.0149940
669.983	0.0151116
670.061	0.0150134
670.139	0.0148959
670.217	0.0149375
670.295	0.0149870
670.373	0.0149695
670.451	0.0149251
670.530	0.0149084
670.608	0.0149220
670.686	0.0149597
670.764	0.0148720
670.842	0.0148550
670.920	0.0148758
670.998	0.0149110
671.076	0.0149551
671.155	0.0147950
671.233	0.0148972
671.311	0.0150862
671.389	0.0148631
671.467	0.0149973
671.545	0.0149635
671.623	0.0150463
671.701	0.0149450
671.780	0.0151193
671.858	0.0150865
671.936	0.0150081
672.014	0.0150336
672.092	0.0150085
672.170	0.0152091
672.248	0.0152042
672.326	0.0152310
672.405	0.0151437
672.483	0.0151544
672.561	0.0152855
672.639	0.0151603
672.717	0.0151133
672.795	0.0151730
672.873	0.0151715
672.951	0.0151052
673.030	0.0151220
673.108	0.0149786
673.186	0.0148988
673.264	0.0147904
673.342	0.0148986
673.420	0.0148734
673.498	0.0148720
673.576	0.0149635
673.655	0.0149986
673.733	0.0150701
673.811	0.0150710
673.889	0.0150249
673.967	0.0151015
674.045	0.0151184
674.123	0.0152531
674.201	0.0153421
674.280	0.0153328
674.358	0.0153571
674.436	0.0154802
674.514	0.0153965
674.592	0.0154684
674.670	0.0154366
674.748	0.0154855
674.826	0.0154755
674.905	0.0153224
674.983	0.0152361
675.061	0.0151898
675.139	0.0150630
675.217	0.0150565
675.295	0.0150437
675.373	0.0147555
675.451	0.0148371
675.530	0.0147788
675.608	0.0146449
675.686	0.0145457
675.764	0.0146903
675.842	0.0145364
675.920	0.0145348
675.998	0.0145615
676.076	0.0145047
676.155	0.0146786
676.233	0.0147973
676.311	0.0148627
676.389	0.0150113
676.467	0.0151598
676.545	0.0152493
676.623	0.0155157
676.701	0.0154583
676.780	0.0156280
676.858	0.0156281
676.936	0.0159588
677.014	0.0160365
677.092	0.0160222
677.170	0.0161469
677.248	0.0160933
677.326	0.0158988
677.405	0.0159027
677.483	0.0157427
677.561	0.0156079
677.639	0.0154681
677.717	0.0154270
677.795	0.0151385
677.873	0.0149889
677.951	0.0147385
678.030	0.0148001
678.108	0.0145523
678.186	0.0145171
678.264	0.0145222
678.342	0.0143317
678.420	0.0144017
678.498	0.0143079
678.576	0.0143082
678.655	0.0143439
678.733	0.0145198
678.811	0.0143929
678.889	0.0145971
678.967	0.0147124
679.045	0.0147582
679.123	0.0149636
679.201	0.0150329
679.280	0.0150084
679.358	0.0151276
679.436	0.0152582
679.514	0.0154028
679.592	0.0155112
679.670	0.0155403
679.748	0.0155136
679.826	0.0155803
679.905	0.0157785
679.983	0.0157105
680.061	0.0156805
680.139	0.0157510
680.217	0.0157961
680.295	0.0156909
680.373	0.0155817
680.451	0.0157439
680.530	0.0157438
680.608	0.0156429
680.686	0.0155364
680.764	0.0156050
680.842	0.0156016
680.920	0.0154156
680.998	0.0153506
681.076	0.0152622
681.155	0.0150829
681.233	0.0150952
681.311	0.0150040
681.389	0.0148504
681.467	0.0147839
681.545	0.0146700
681.623	0.0144537
681.701	0.0143499
681.780	0.0144627
681.858	0.0143689
681.936	0.0143540
682.014	0.0143560
682.092	0.0143218
682.170	0.0143878
682.248	0.0145504
682.326	0.0146227
682.405	0.0146927
682.483	0.0148753
682.561	0.0149916
682.639	0.0149800
682.717	0.0153315
682.795	0.0152587
682.873	0.0154743
682.951	0.0155292
683.030	0.0156360
683.108	0.0157642
683.186	0.0155795
683.264	0.0155740
683.342	0.0157142
683.420	0.0156763
683.498	0.0155823
683.576	0.0155843
683.655	0.0154263
683.733	0.0151880
683.811	0.0151962
683.889	0.0149483
683.967	0.0148861
684.045	0.0147724
684.123	0.0146281
684.201	0.0144857
684.280	0.0145802
684.358	0.0145074
684.436	0.0144613
684.514	0.0143161
684.592	0.0144322
684.670	0.0144846
684.748	0.0145343
684.826	0.0144167
684.905	0.0145898
684.983	0.0148298
685.061	0.0147855
685.139	0.0149782
685.217	0.0150887
685.295	0.0150337
685.373	0.0153595
685.451	0.0154282
685.530	0.0154440
685.608	0.0156358
685.686	0.0157901
685.764	0.0156956
685.842	0.0158767
685.920	0.0159726
685.998	0.0157753
686.076	0.0158311
686.155	0.0158527
686.233	0.0157421
686.311	0.0156897
686.389	0.0157647
686.467	0.0155810
686.545	0.0155908
686.623	0.0153925
686.701	0.0151945
686.780	0.0151549
686.858	0.0151271
686.936	0.0149235
687.014	0.0148535
687.092	0.0147297
687.170	0.0147015
687.248	0.0144309
687.326	0.0142252
687.405	0.0141600
687.483	0.0139894
687.561	0.0138985
687.639	0.0139899
687.717	0.0138613
687.795	0.0137982
687.873	0.0136944
687.951	0.0139298
688.030	0.0139969
688.108	0.0138825
688.186	0.0141625
688.264	0.0143253
688.342	0.0146298
688.420	0.0146680
688.498	0.0148362
688.576	0.0148834
688.655	0.0150830
688.733	0.0151810
688.811	0.0152826
688.889	0.0153133
688.967	0.0153404
689.045	0.0154415
689.123	0.0154491
689.201	0.0154479
689.280	0.0155145
689.358	0.0156657
689.436	0.0156953
689.514	0.0155926
689.592	0.0156823
689.670	0.0158817
689.748	0.0158344
689.826	0.0158379
689.905	0.0159310
689.983	0.0160087
690.061	0.0161270
690.139	0.0160791
690.217	0.0160783
690.295	0.0162099
690.373	0.0161659
690.451	0.0160307
690.530	0.0159412
690.608	0.0158589
690.686	0.0158459
690.764	0.0159023
690.842	0.0156155
690.920	0.0154294
690.998	0.0155107
691.076	0.0152370
691.155	0.0152002
691.233	0.0151472
691.311	0.0151067
691.389	0.0150386
691.467	0.0149596
691.545	0.0149416
691.623	0.0149847
691.701	0.0147942
691.780	0.0146709
691.858	0.0145697
691.936	0.0146181
692.014	0.0144815
692.092	0.0142324
692.170	0.0142359
692.248	0.0139960
692.326	0.0137957
692.405	0.0138143
692.483	0.0136456
692.561	0.0136059
692.639	0.0135977
692.717	0.0135059
692.795	0.0135800
692.873	0.0136434
692.951	0.0136498
693.030	0.0137404
693.108	0.0138510
693.186	0.0138898
693.264	0.0141371
693.342	0.0141841
693.420	0.0144957
693.498	0.0147937
693.576	0.0149334
693.655	0.0151786
693.733	0.0156095
693.811	0.0158989
693.889	0.0161457
693.967	0.0164962
694.045	0.0166547
694.123	0.0170055
694.201	0.0172704
694.280	0.0175404
694.358	0.0178527
694.436	0.0180768
694.514	0.0180493
694.592	0.0180224
694.670	0.0180669
694.748	0.0178930
694.826	0.0178162
694.905	0.0174302
694.983	0.0171268
695.061	0.0170866
695.139	0.0169053
695.217	0.0162668
695.295	0.0157624
695.373	0.0154328
695.451	0.0148840
695.530	0.0143748
695.608	0.0140363
695.686	0.0137357
695.764	0.0134469
695.842	0.0129999
695.920	0.0127534
695.998	0.0127014
696.076	0.0125018
696.155	0.0124103
696.233	0.0126237
696.311	0.0127041
696.389	0.0127509
696.467	0.0126962
696.545	0.0130708
696.623	0.0132598
696.701	0.0136373
696.780	0.0140070
696.858	0.0142368
696.936	0.0147034
697.014	0.0149525
697.092	0.0152423
697.170	0.0153991
697.248	0.0157205
697.326	0.0160394
697.405	0.0161715
697.483	0.0164655
697.561	0.0165192
697.639	0.0166769
697.717	0.0165681
697.795	0.0167062
697.873	0.0166270
697.951	0.0165436
698.030	0.0164736
698.108	0.0164012
698.186	0.0161268
698.264	0.0160197
698.342	0.0157341
698.420	0.0155318
698.498	0.0152962
698.576	0.0152565
698.655	0.0152075
698.733	0.0150784
698.811	0.0149357
698.889	0.0148469
698.967	0.0149359
699.045	0.0148533
699.123	0.0148119
699.201	0.0148356
699.280	0.0148111
699.358	0.0148068
699.436	0.0147270
699.514	0.0147816
699.592	0.0147625
699.670	0.0147243
699.748	0.0148170
699.826	0.0147333
699.905	0.0149323
699.983	0.0146794
700.061	0.0148016
700.139	0.0147607
700.217	0.0148196
700.295	0.0147608
700.373	0.0147519
700.451	0.0148181
700.530	0.0146779
700.608	0.0147676
700.686	0.0147710
700.764	0.0148087
700.842	0.0148109
700.920	0.0147868
700.998	0.0149427
701.076	0.0147239
701.155	0.0149791
701.233	0.0149281
701.311	0.0148322
701.389	0.0148840
701.467	0.0149671
701.545	0.0152406
701.623	0.0151222
701.701	0.0151815
701.780	0.0152626
701.858	0.0153809
701.936	0.0154045
702.014	0.0155784
702.092	0.0155907
702.170	0.0156334
702.248	0.0157368
702.326	0.0158317
702.405	0.0161038
702.483	0.0161386
702.561	0.0162021
702.639	0.0162904
702.717	0.0161727
702.795	0.0163137
702.873	0.0163402
702.951	0.0163318
703.030	0.0161922
703.108	0.0160883
703.186	0.0158428
703.264	0.0159203
703.342	0.0156787
703.420	0.0155547
703.498	0.0153338
703.576	0.0150440
703.655	0.0147839
703.733	0.0146466
703.811	0.0144503
703.889	0.0144016
703.967	0.0141687
704.045	0.0139492
704.123	0.0139518
704.201	0.0137242
704.280	0.0138654
704.358	0.0138280
704.436	0.0136546
704.514	0.0138972
704.592	0.0140274
704.670	0.0138007
704.748	0.0139344
704.826	0.0140498
704.905	0.0140596
704.983	0.0141351
705.061	0.0143272
705.139	0.0144317
705.217	0.0145148
705.295	0.0147237
705.373	0.0147248
705.451	0.0147678
705.530	0.0149695
705.608	0.0151630
705.686	0.0153590
705.764	0.0155355
705.842	0.0156724
705.920	0.0156422
705.998	0.0157231
706.076	0.0159998
706.155	0.0159254
706.233	0.0159121
706.311	0.0161002
706.389	0.0160124
706.467	0.0158202
706.545	0.0159412
706.623	0.0158644
706.701	0.0156960
706.780	0.0155392
706.858	0.0154662
706.936	0.0153571
707.014	0.0154169
707.092	0.0151548
707.170	0.0151544
707.248	0.0150426
707.326	0.0151533
707.405	0.0150206
707.483	0.0149391
707.561	0.0150583
707.639	0.0149754
707.717	0.0149200
707.795	0.0148109
707.873	0.0148621
707.951	0.0149236
708.030	0.0147134
708.108	0.0147218
708.186	0.0147050
708.264	0.0147273
708.342	0.0147450
708.420	0.0147134
708.498	0.0149273
708.576	0.0148539
708.655	0.0149071
708.733	0.0149410
708.811	0.0151425
708.889	0.0151605
708.967	0.0153094
709.045	0.0153378
709.123	0.0152097
709.201	0.0152405
709.280	0.0152934
709.358	0.0152287
709.436	0.0150925
709.514	0.0149950
709.592	0.0150265
709.670	0.0149423
709.748	0.0146839
709.826	0.0146372
709.905	0.0147173
709.983	0.0145685
710.061	0.0145110
710.139	0.0144502
710.217	0.0144061
710.295	0.0143670
710.373	0.0144670
710.451	0.0143636
710.530	0.0141988
710.608	0.0142358
710.686	0.0143037
710.764	0.0145977
710.842	0.0145948
710.920	0.0147130
710.998	0.0147749
711.076	0.0148663
711.155	0.0151397
711.233	0.0152829
711.311	0.0153419
711.389	0.0152764
711.467	0.0154330
711.545	0.0154384
711.623	0.0154131
711.701	0.0156052
711.780	0.0154937
711.858	0.0155302
711.936	0.0154282
712.014	0.0155634
712.092	0.0155457
712.170	0.0156490
712.248	0.0157578
712.326	0.0157606
712.405	0.0159727
712.483	0.0160562
712.561	0.0161227
712.639	0.0160484
712.717	0.0162000
712.795	0.0160572
712.873	0.0157917
712.951	0.0156460
713.030	0.0155589
713.108	0.0154034
713.186	0.0153030
713.264	0.0151455
713.342	0.0149226
713.420	0.0146251
713.498	0.0145861
713.576	0.0143308
713.655	0.0141608
713.733	0.0139812
713.811	0.0139315
713.889	0.0139983
713.967	0.0138297
714.045	0.0138039
714.123	0.0139781
714.201	0.0140229
714.280	0.0139197
714.358	0.0140804
714.436	0.0142129
714.514	0.0144817
714.592	0.0145570
714.670	0.0147236
714.748	0.0147247
714.826	0.0149107
714.905	0.0149734
714.983	0.0151127
715.061	0.0151170
715.139	0.0152290
715.217	0.0152106
715.295	0.0151653
715.373	0.0152917
715.451	0.0152206
715.530	0.0151440
715.608	0.0152245
715.686	0.0152738
715.764	0.0152213
715.842	0.0153144
715.920	0.0154188
715.998	0.0154216
716.076	0.0156330
716.155	0.0156052
716.233	0.0156612
716.311	0.0159578
716.389	0.0158422
716.467	0.0159135
716.545	0.0159258
716.623	0.0159090
716.701	0.0157814
716.780	0.0159205
716.858	0.0160806
716.936	0.0159447
717.014	0.0158878
717.092	0.0157848
717.170	0.0156627
717.248	0.0155855
717.326	0.0154024
717.405	0.0154029
717.483	0.0154195
717.561	0.0150581
717.639	0.0150257
717.717	0.0148162
717.795	0.0146243
717.873	0.0145043
717.951	0.0143062
718.030	0.0141149
718.108	0.0141727
718.186	0.0139540
718.264	0.0139373
718.342	0.0139591
718.420	0.0139825
718.498	0.0139939
718.576	0.0140936
718.655	0.0140121
718.733	0.0142801
718.811	0.0143541
718.889	0.0144120
718.967	0.0146510
719.045	0.0145950
719.123	0.0146726
719.201	0.0147374
719.280	0.0148306
719.358	0.0148215
719.436	0.0146587
719.514	0.0146980
719.592	0.0149501
719.670	0.0150149
719.748	0.0148743
719.826	0.0149769
719.905	0.0150745
719.983	0.0152145
720.061	0.0152436
720.139	0.0153658
720.217	0.0155507
720.295	0.0155606
720.373	0.0156992
720.451	0.0156895
720.530	0.0157382
720.608	0.0158428
720.686	0.0159486
720.764	0.0158303
720.842	0.0158964
720.920	0.0157703
720.998	0.0158335
721.076	0.0155453
721.155	0.0155882
721.233	0.0154942
721.311	0.0154020
721.389	0.0154288
721.467	0.0153773
721.545	0.0152930
721.623	0.0154031
721.701	0.0151419
721.780	0.0151430
721.858	0.0153143
721.936	0.0152219
722.014	0.0150501
722.092	0.0149645
722.170	0.0149792
722.248	0.0149474
722.326	0.0148577
722.405	0.0147707
722.483	0.0148496
722.561	0.0148048
722.639	0.0148301
722.717	0.0146892
722.795	0.0147762
722.873	0.0147544
722.951	0.0147695
723.030	0.0148242
723.108	0.0146939
723.186	0.0146436
723.264	0.0147388
723.342	0.0147018
723.420	0.0146876
723.498	0.0148258
723.576	0.0147141
723.655	0.0147353
723.733	0.0147415
723.811	0.0146890
723.889	0.0147524
723.967	0.0149599
724.045	0.0149376
724.123	0.0148735
724.201	0.0150391
724.280	0.0149994
724.358	0.0150935
724.436	0.0150947
724.514	0.0149187
724.592	0.0150303
724.670	0.0149213
724.748	0.0150832
724.826	0.0152283
724.905	0.0152145
724.983	0.0150747
725.061	0.0150457
725.139	0.0152166
725.217	0.0153667
725.295	0.0153860
725.373	0.0154454
725.451	0.0154326
725.530	0.0155093
725.608	0.0157420
725.686	0.0156856
725.764	0.0156087
725.842	0.0155914
725.920	0.0157010
725.998	0.0155080
726.076	0.0156358
726.155	0.0155899
726.233	0.0154726
726.311	0.0153490
726.389	0.0156203
726.467	0.0155775
726.545	0.0153682
726.623	0.0153709
726.701	0.0153670
726.780	0.0153317
726.858	0.0152303
726.936	0.0152029
727.014	0.0150711
727.092	0.0152639
727.170	0.0151222
727.248	0.0150340
727.326	0.0148410
727.405	0.0148856
727.483	0.0148720
727.561	0.0146443
727.639	0.0147258
727.717	0.0147718
727.795	0.0147270
727.873	0.0146688
727.951	0.0146082
728.030	0.0147202
728.108	0.0146852
728.186	0.0146095
728.264	0.0146522
728.342	0.0144939
728.420	0.0145445
728.498	0.0145661
728.576	0.0146152
728.655	0.0146537
728.733	0.0144706
728.811	0.0147356
728.889	0.0147852
728.967	0.0148063
729.045	0.0148865
729.123	0.0147937
729.201	0.0150181
729.280	0.0150864
729.358	0.0150647
729.436	0.0151124
729.514	0.0151270
729.592	0.0152902
729.670	0.0153054
729.748	0.0151991
729.826	0.0152090
729.905	0.0152068
729.983	0.0151099
730.061	0.0151810
730.139	0.0151275
730.217	0.0149962
730.295	0.0150421
730.373	0.0150126
730.451	0.0150889
730.530	0.0150936
730.608	0.0151502
730.686	0.0152566
730.764	0.0151763
730.842	0.0153006
730.920	0.0152792
730.998	0.0152751
731.076	0.0151552
731.155	0.0152063
731.233	0.0151062
731.311	0.0149877
731.389	0.0150413
731.467	0.0151269
731.545	0.0149841
731.623	0.0150930
731.701	0.0151170
731.780	0.0151128
731.858	0.0151657
731.936	0.0151494
732.014	0.0152554
732.092	0.0153602
732.170	0.0154948
732.248	0.0153871
732.326	0.0155276
732.405	0.0155215
732.483	0.0156467
732.561	0.0155034
732.639	0.0154047
732.717	0.0152197
732.795	0.0153048
732.873	0.0152296
732.951	0.0153082
733.030	0.0153232
733.108	0.0150867
733.186	0.0151321
733.264	0.0151299
733.342	0.0152588
733.420	0.0151952
733.498	0.0150684
733.576	0.0149962
733.655	0.0150795
733.733	0.0148331
733.811	0.0149065
733.889	0.0149384
733.967	0.0148612
734.045	0.0148599
734.123	0.0149680
734.201	0.0149376
734.280	0.0149189
734.358	0.0149073
734.436	0.0150028
734.514	0.0148576
734.592	0.0148324
734.670	0.0150053
734.748	0.0148901
734.826	0.0148733
734.905	0.0148019
734.983	0.0148405
735.061	0.0147629
735.139	0.0147086
735.217	0.0146655
735.295	0.0147908
735.373	0.0145814
735.451	0.0145217
735.530	0.0147226
735.608	0.0146959
735.686	0.0148761
735.764	0.0147701
735.842	0.0147636
735.920	0.0147523
735.998	0.0148585
736.076	0.0150087
736.155	0.0150578
736.233	0.0150175
736.311	0.0151663
736.389	0.0152330
736.467	0.0151546
736.545	0.0152300
736.623	0.0153249
736.701	0.0154298
736.780	0.0155501
736.858	0.0154730
736.936	0.0154092
737.014	0.0153050
737.092	0.0154276
737.170	0.0154070
737.248	0.0153825
737.326	0.0152817
737.405	0.0152853
737.483	0.0152637
737.561	0.0151052
737.639	0.0151823
737.717	0.0150698
737.795	0.0150502
737.873	0.0150655
737.951	0.0150333
738.030	0.0151196
738.108	0.0151675
738.186	0.0152291
738.264	0.0151099
738.342	0.0150803
738.420	0.0151879
738.498	0.0151945
738.576	0.0152041
738.655	0.0152624
738.733	0.0153438
738.811	0.0153928
738.889	0.0150663
738.967	0.0152784
739.045	0.0151730
739.123	0.0152757
739.201	0.0151153
739.280	0.0150933
739.358	0.0148521
739.436	0.0149543
739.514	0.0149059
739.592	0.0147913
739.670	0.0148671
739.748	0.0147630
739.826	0.0147659
739.905	0.0148468
739.983	0.0148885
740.061	0.0149532
740.139	0.0148074
740.217	0.0150014
740.295	0.0149123
740.373	0.0149789
740.451	0.0150380
740.530	0.0148852
740.608	0.0149233
740.686	0.0149831
740.764	0.0148609
740.842	0.0148834
740.920	0.0147028
740.998	0.0146923
741.076	0.0146810
741.155	0.0147301
741.233	0.0145559
741.311	0.0146368
741.389	0.0145620
741.467	0.0145421
741.545	0.0143419
741.623	0.0145594
741.701	0.0145442
741.780	0.0144542
741.858	0.0145822
741.936	0.0148090
742.014	0.0147976
742.092	0.0148038
742.170	0.0147951
742.248	0.0148388
742.326	0.0149496
742.405	0.0150402
742.483	0.0150027
742.561	0.0150636
742.639	0.0150228
742.717	0.0151234
742.795	0.0151227
742.873	0.0151328
742.951	0.0153092
743.030	0.0152666
743.108	0.0152435
743.186	0.0151744
743.264	0.0153619
743.342	0.0152837
743.420	0.0152805
743.498	0.0152789
743.576	0.0152577
743.655	0.0153532
743.733	0.0153037
743.811	0.0153042
743.889	0.0153866
743.967	0.0153723
744.045	0.0150333
744.123	0.0149752
744.201	0.0151486
744.280	0.0150225
744.358	0.0150424
744.436	0.0148926
744.514	0.0149485
744.592	0.0148193
744.670	0.0146398
744.748	0.0147762
744.826	0.0146812
744.905	0.0147846
744.983	0.0147874
745.061	0.0146822
745.139	0.0147014
745.217	0.0147916
745.295	0.0150326
745.373	0.0148207
745.451	0.0148613
745.530	0.0150897
745.608	0.0151627
745.686	0.0152072
745.764	0.0152484
745.842	0.0152757
745.920	0.0153874
745.998	0.0153752
746.076	0.0155428
746.155	0.0156033
746.233	0.0156249
746.311	0.0154726
746.389	0.0154979
746.467	0.0154018
746.545	0.0153378
746.623	0.0152518
746.701	0.0151295
746.780	0.0151051
746.858	0.0149062
746.936	0.0149812
747.014	0.0149028
747.092	0.0146059
747.170	0.0145187
747.248	0.0146873
747.326	0.0147818
747.405	0.0146838
747.483	0.0147578
747.561	0.0147713
747.639	0.0147748
747.717	0.0148566
747.795	0.0150802
747.873	0.0150224
747.951	0.0149308
748.030	0.0149887
748.108	0.0150778
748.186	0.0148856
748.264	0.0148988
748.342	0.0149541
748.420	0.0148698
748.498	0.0148104
748.576	0.0147369
748.655	0.0147547
748.733	0.0147361
748.811	0.0146490
748.889	0.0144983
748.967	0.0144327
749.045	0.0143958
749.123	0.0144579
749.201	0.0146339
749.280	0.0146597
749.358	0.0146470
749.436	0.0145995
749.514	0.0147568
749.592	0.0149104
749.670	0.0151170
749.748	0.0152809
749.826	0.0152087
749.905	0.0154387
749.983	0.0154895
750.061	0.0155982
750.139	0.0158134
750.217	0.0156539
750.295	0.0159167
750.373	0.0156869
750.451	0.0158026
750.530	0.0158209
750.608	0.0157819
750.686	0.0155909
750.764	0.0155685
750.842	0.0155373
750.920	0.0155449
750.998	0.0153648
751.076	0.0153522
751.155	0.0153300
751.233	0.0150585
751.311	0.0151507
751.389	0.0151120
751.467	0.0151077
751.545	0.0150367
751.623	0.0151078
751.701	0.0151977
751.780	0.0150719
751.858	0.0151994
751.936	0.0150053
752.014	0.0151120
752.092	0.0149676
752.170	0.0149275
752.248	0.0149564
752.326	0.0148495
752.405	0.0148325
752.483	0.0148495
752.561	0.0148033
752.639	0.0149628
752.717	0.0149768
752.795	0.0149156
752.873	0.0150954
752.951	0.0151225
753.030	0.0150604
753.108	0.0150385
753.186	0.0150056
753.264	0.0150086
753.342	0.0149820
753.420	0.0150437
753.498	0.0151871
753.576	0.0150388
753.655	0.0150141
753.733	0.0150327
753.811	0.0149338
753.889	0.0149704
753.967	0.0148615
754.045	0.0149414
754.123	0.0149358
754.201	0.0150484
754.280	0.0150400
754.358	0.0151250
754.436	0.0151926
754.514	0.0152877
754.592	0.0154299
754.670	0.0154604
754.748	0.0154446
754.826	0.0154781
754.905	0.0155752
754.983	0.0156091
755.061	0.0157427
755.139	0.0156691
755.217	0.0155067
755.295	0.0155491
755.373	0.0156233
755.451	0.0154115
755.530	0.0153706
755.608	0.0153590
755.686	0.0152797
755.764	0.0151193
755.842	0.0152642
755.920	0.0149845
755.998	0.0150854
756.076	0.0150228
756.155	0.0150050
756.233	0.0149992
756.311	0.0150320
756.389	0.0149685
756.467	0.0148429
756.545	0.0148161
756.623	0.0149458
756.701	0.0149297
756.780	0.0150697
756.858	0.0149532
756.936	0.0152287
757.014	0.0151453
757.092	0.0154365
757.170	0.0153461
757.248	0.0153435
757.326	0.0153909
757.405	0.0154778
757.483	0.0154984
757.561	0.0154153
757.639	0.0153594
757.717	0.0153085
757.795	0.0152655
757.873	0.0152306
757.951	0.0150574
758.030	0.0150412
758.108	0.0150173
758.186	0.0149550
758.264	0.0148876
758.342	0.0146585
758.420	0.0147075
758.498	0.0147702
758.576	0.0147777
758.655	0.0146378
758.733	0.0147651
758.811	0.0148124
758.889	0.0148404
758.967	0.0149207
759.045	0.0150768
759.123	0.0150848
759.201	0.0151202
759.280	0.0149576
759.358	0.0150259
759.436	0.0150611
759.514	0.0151732
759.592	0.0150766
759.670	0.0150783
759.748	0.0151966
759.826	0.0151623
759.905	0.0150792
759.983	0.0150409
760.061	0.0150155
760.139	0.0150549
760.217	0.0149812
760.295	0.0149628
760.373	0.0149976
760.451	0.0150131
760.530	0.0149718
760.608	0.0149819
760.686	0.0150539
760.764	0.0151846
760.842	0.0151205
760.920	0.0151516
760.998	0.0149702
761.076	0.0151896
761.155	0.0151636
761.233	0.0150985
761.311	0.0150295
761.389	0.0151518
761.467	0.0150851
761.545	0.0150082
761.623	0.0150229
761.701	0.0149081
761.780	0.0149485
761.858	0.0148750
761.936	0.0150874
762.014	0.0150637
762.092	0.0148940
762.170	0.0149523
762.248	0.0149642
762.326	0.0149153
762.405	0.0148999
762.483	0.0150758
762.561	0.0150227
762.639	0.0150681
762.717	0.0149912
762.795	0.0149623
762.873	0.0149662
762.951	0.0149841
763.030	0.0149581
763.108	0.0148506
763.186	0.0148468
763.264	0.0147990
763.342	0.0147359
763.420	0.0148303
763.498	0.0147588
763.576	0.0146064
763.655	0.0146893
763.733	0.0146490
763.811	0.0146344
763.889	0.0147012
763.967	0.0145865
764.045	0.0147778
764.123	0.0147656
764.201	0.0147640
764.280	0.0148805
764.358	0.0149789
764.436	0.0150237
764.514	0.0149693
764.592	0.0151779
764.670	0.0151817
764.748	0.0153889
764.826	0.0152914
764.905	0.0152481
764.983	0.0154384
765.061	0.0153653
765.139	0.0154814
765.217	0.0153747
765.295	0.0153809
765.373	0.0154034
765.451	0.0154813
765.530	0.0152615
765.608	0.0152461
765.686	0.0151382
765.764	0.0151940
765.842	0.0151224
765.920	0.0149872
765.998	0.0151052
766.076	0.0150452
766.155	0.0149175
766.233	0.0149588
766.311	0.0150602
766.389	0.0149174
766.467	0.0149089
766.545	0.0149438
766.623	0.0149085
766.701	0.0150539
766.780	0.0150613
766.858	0.0149387
766.936	0.0148515
767.014	0.0149181
767.092	0.0149552
767.170	0.0149432
767.248	0.0149265
767.326	0.0150040
767.405	0.0151060
767.483	0.0151244
767.561	0.0150107
767.639	0.0150671
767.717	0.0150890
767.795	0.0151485
767.873	0.0151908
767.951	0.0151261
768.030	0.0152385
768.108	0.0150200
768.186	0.0151166
768.264	0.0150329
768.342	0.0149932
768.420	0.0151239
768.498	0.0151462
768.576	0.0151403
768.655	0.0150391
768.733	0.0151937
768.811	0.0150868
768.889	0.0151444
768.967	0.0151363
769.045	0.0151290
769.123	0.0151502
769.201	0.0151447
769.280	0.0152296
769.358	0.0149905
769.436	0.0151001
769.514	0.0149300
769.592	0.0149355
769.670	0.0149346
769.748	0.0148362
769.826	0.0148807
769.905	0.0150536
769.983	0.0149213
770.061	0.0148858
770.139	0.0149501
770.217	0.0149361
770.295	0.0150492
770.373	0.0149708
770.451	0.0149937
770.530	0.0151795
770.608	0.0151209
770.686	0.0150768
770.764	0.0150481
770.842	0.0151276
770.920	0.0149699
770.998	0.0150855
771.076	0.0151270
771.155	0.0151652
771.233	0.0150779
771.311	0.0151697
771.389	0.0150131
771.467	0.0149641
771.545	0.0149615
771.623	0.0148652
771.701	0.0148956
771.780	0.0150803
771.858	0.0150171
771.936	0.0150636
772.014	0.0151547
772.092	0.0150791
772.170	0.0150874
772.248	0.0150673
772.326	0.0151565
772.405	0.0150746
772.483	0.0150837
772.561	0.0151301
772.639	0.0152013
772.717	0.0153586
772.795	0.0151817
772.873	0.0152799
772.951	0.0153692
773.030	0.0153474
773.108	0.0153313
773.186	0.0152810
773.264	0.0152776
773.342	0.0152855
773.420	0.0151534
773.498	0.0152985
773.576	0.0152097
773.655	0.0153233
773.733	0.0152699
773.811	0.0151826
773.889	0.0149519
773.967	0.0151803
774.045	0.0151546
774.123	0.0150717
774.201	0.0149688
774.280	0.0149614
774.358	0.0149606
774.436	0.0150174
774.514	0.0150191
774.592	0.0148472
774.670	0.0147615
774.748	0.0149093
774.826	0.0150677
774.905	0.0149462
774.983	0.0149600
775.061	0.0150262
775.139	0.0150756
775.217	0.0151479
775.295	0.0151625
775.373	0.0152538
775.451	0.0152765
775.530	0.0151581
775.608	0.0153404
775.686	0.0154314
775.764	0.0154365
775.842	0.0153613
775.920	0.0152248
775.998	0.0153625
776.076	0.0152050
776.155	0.0151226
776.233	0.0153989
776.311	0.0153894
776.389	0.0151638
776.467	0.0151450
776.545	0.0153364
776.623	0.0152633
776.701	0.0151219
776.780	0.0152544
776.858	0.0152826
776.936	0.0153124
777.014	0.0152187
777.092	0.0152145
777.170	0.0151251
777.248	0.0152542
777.326	0.0151778
777.405	0.0149215
777.483	0.0150871
777.561	0.0151048
777.639	0.0150975
777.717	0.0150368
777.795	0.0150443
777.873	0.0151019
777.951	0.0150851
778.030	0.0150146
778.108	0.0150962
778.186	0.0149493
778.264	0.0150745
778.342	0.0150904
778.420	0.0151708
778.498	0.0151454
778.576	0.0150677
778.655	0.0151865
778.733	0.0151534
778.811	0.0151640
778.889	0.0150986
778.967	0.0151781
779.045	0.0152387
779.123	0.0152045
779.201	0.0151147
779.280	0.0151840
779.358	0.0151751
779.436	0.0151415
779.514	0.0151051
779.592	0.0152423
779.670	0.0151456
779.748	0.0152716
779.826	0.0151979
779.905	0.0150328
779.983	0.0150985
780.061	0.0150198
780.139	0.0150008
780.217	0.0151698
780.295	0.0151028
780.373	0.0150347
780.451	0.0151268
780.530	0.0150572
780.608	0.0150780
780.686	0.0150609
780.764	0.0151559
780.842	0.0151746
780.920	0.0152567
780.998	0.0151212
781.076	0.0151235
781.155	0.0151154
781.233	0.0151021
781.311	0.0151547
781.389	0.0152512
781.467	0.0151714
781.545	0.0150350
781.623	0.0151248
781.701	0.0152724
781.780	0.0151919
781.858	0.0151846
781.936	0.0152425
782.014	0.0151894
782.092	0.0151824
782.170	0.0151595
782.248	0.0152858
782.326	0.0152100
782.405	0.0151156
782.483	0.0150678
782.561	0.0150559
782.639	0.0151785
782.717	0.0151437
782.795	0.0150098
782.873	0.0151633
782.951	0.0150705
783.030	0.0150928
783.108	0.0152328
783.186	0.0151664
783.264	0.0151038
783.342	0.0151424
783.420	0.0150945
783.498	0.0150064
783.576	0.0148540
783.655	0.0149622
783.733	0.0151904
783.811	0.0150019
783.889	0.0150596
783.967	0.0150307
784.045	0.0149224
784.123	0.0149407
784.201	0.0150479
784.280	0.0149262
784.358	0.0149013
784.436	0.0150587
784.514	0.0148830
784.592	0.0148402
784.670	0.0149102
784.748	0.0149789
784.826	0.0149657
784.905	0.0149697
784.983	0.0149599
785.061	0.0149793
785.139	0.0149091
785.217	0.0149652
785.295	0.0149232
785.373	0.0149140
785.451	0.0148469
785.530	0.0148991
785.608	0.0148635
785.686	0.0150468
785.764	0.0151765
785.842	0.0150268
785.920	0.0151385
785.998	0.0151054
786.076	0.0150597
786.155	0.0151205
786.233	0.0151862
786.311	0.0153989
786.389	0.0151464
786.467	0.0152449
786.545	0.0152824
786.623	0.0152428
786.701	0.0152523
786.780	0.0150413
786.858	0.0151397
786.936	0.0151585
787.014	0.0151706
787.092	0.0151733
787.170	0.0151196
787.248	0.0149623
787.326	0.0150089
787.405	0.0150814
787.483	0.0151131
787.561	0.0149233
787.639	0.0150016
787.717	0.0148888
787.795	0.0149065
787.873	0.0148309
787.951	0.0149091
788.030	0.0148618
788.108	0.0149017
788.186	0.0148755
788.264	0.0148573
788.342	0.0148689
788.420	0.0149603
788.498	0.0150668
788.576	0.0148686
788.655	0.0148896
788.733	0.0150591
788.811	0.0148473
788.889	0.0147615
788.967	0.0148509
789.045	0.0147426
789.123	0.0146793
789.201	0.0146867
789.280	0.0148193
789.358	0.0149695
789.436	0.0147404
789.514	0.0147549
789.592	0.0148686
789.670	0.0146902
789.748	0.0149478
789.826	0.0147784
789.905	0.0149435
789.983	0.0148169
790.061	0.0150600
790.139	0.0150520
790.217	0.0149503
790.295	0.0151699
790.373	0.0150321
790.451	0.0151297
790.530	0.0151313
790.608	0.0153041
790.686	0.0151028
790.764	0.0152575
790.842	0.0153259
790.920	0.0152989
790.998	0.0154250
791.076	0.0153767
791.155	0.0155377
791.233	0.0155865
791.311	0.0154234
791.389	0.0154458
791.467	0.0156052
791.545	0.0155334
791.623	0.0153471
791.701	0.0156464
791.780	0.0154244
791.858	0.0153514
791.936	0.0153420
792.014	0.0152378
792.092	0.0150923
792.170	0.0151000
792.248	0.0149843
792.326	0.0149209
792.405	0.0149039
792.483	0.0149914
792.561	0.0148661
792.639	0.0148662
792.717	0.0147453
792.795	0.0148558
792.873	0.0148623
792.951	0.0148906
793.030	0.0149084
793.108	0.0149822
793.186	0.0150578
793.264	0.0150359
793.342	0.0149126
793.420	0.0150114
793.498	0.0150325
793.576	0.0150700
793.655	0.0151567
793.733	0.0151697
793.811	0.0152505
793.889	0.0152285
793.967	0.0152454
794.045	0.0152528
794.123	0.0152586
794.201	0.0152205
794.280	0.0152931
794.358	0.0151783
794.436	0.0152000
794.514	0.0153149
794.592	0.0152205
794.670	0.0153219
794.748	0.0153119
794.826	0.0152269
794.905	0.0152995
794.983	0.0152512
795.061	0.0151229
795.139	0.0151813
795.217	0.0152274
795.295	0.0150780
795.373	0.0148573
795.451	0.0149985
795.530	0.0150294
795.608	0.0150385
795.686	0.0151050
795.764	0.0149895
795.842	0.0149252
795.920	0.0149140
795.998	0.0148947
796.076	0.0150648
796.155	0.0150332
796.233	0.0149191
796.311	0.0149886
796.389	0.0151939
796.467	0.0150806
796.545	0.0151536
796.623	0.0151871
796.701	0.0150330
796.780	0.0150574
796.858	0.0151287
796.936	0.0150721
797.014	0.0150136
797.092	0.0151788
797.170	0.0150712
797.248	0.0150832
797.326	0.0151007
797.405	0.0151904
797.483	0.0151440
797.561	0.0150191
797.639	0.0152306
797.717	0.0151707
797.795	0.0152509
797.873	0.0152857
797.951	0.0151950
798.030	0.0152402
798.108	0.0151735
798.186	0.0151841
798.264	0.0152511
798.342	0.0153423
798.420	0.0152796
798.498	0.0151978
798.576	0.0151282
798.655	0.0152541
798.733	0.0152641
798.811	0.0153045
798.889	0.0153088
798.967	0.0153260
799.045	0.0153564
799.123	0.0151636
799.201	0.0154248
799.280	0.0153374
799.358	0.0154054
799.436	0.0154703
799.514	0.0153539
799.592	0.0153718
799.670	0.0153589
799.748	0.0153236
799.826	0.0153684
799.905	0.0153260
799.983	0.0151514
800.061	0.0151067
800.139	0.0151797
800.217	0.0151978
800.295	0.0150282
800.373	0.0150610
800.451	0.0149761
800.530	0.0150865
800.608	0.0149084
800.686	0.0149747
800.764	0.0149649
800.842	0.0150219
800.920	0.0148528
800.998	0.0149487
801.076	0.0149950
801.155	0.0150370
801.233	0.0150321
801.311	0.0150432
801.389	0.0150084
801.467	0.0149969
801.545	0.0149323
801.623	0.0149996
801.701	0.0150896
801.780	0.0152048
801.858	0.0150928
801.936	0.0150922
802.014	0.0150893
802.092	0.0150628
802.170	0.0150329
802.248	0.0151997
802.326	0.0152560
802.405	0.0151719
802.483	0.0151501
802.561	0.0150379
802.639	0.0152229
802.717	0.0152322
802.795	0.0152892
802.873	0.0152935
802.951	0.0152950
803.030	0.0152506
803.108	0.0151865
803.186	0.0151551
803.264	0.0152888
803.342	0.0152667
803.420	0.0150859
803.498	0.0149598
803.576	0.0150367
803.655	0.0150798
803.733	0.0149616
803.811	0.0148648
803.889	0.0149591
803.967	0.0149101
804.045	0.0150417
804.123	0.0150354
804.201	0.0147527
804.280	0.0147730
804.358	0.0149741
804.436	0.0149266
804.514	0.0150590
804.592	0.0149761
804.670	0.0149622
804.748	0.0150032
804.826	0.0150979
804.905	0.0149187
804.983	0.0149801
805.061	0.0149295
805.139	0.0149525
805.217	0.0150784
805.295	0.0148051
805.373	0.0148056
805.451	0.0149603
805.530	0.0150107
805.608	0.0148576
805.686	0.0148918
805.764	0.0148793
805.842	0.0150240
805.920	0.0148045
805.998	0.0149840
806.076	0.0149809
806.155	0.0150224
806.233	0.0148591
806.311	0.0149053
806.389	0.0149764
806.467	0.0149722
806.545	0.0150907
806.623	0.0150204
806.701	0.0150267
806.780	0.0150250
806.858	0.0150197
806.936	0.0150508
807.014	0.0149989
807.092	0.0150719
807.170	0.0149992
807.248	0.0151647
807.326	0.0151955
807.405	0.0152155
807.483	0.0150959
807.561	0.0153091
807.639	0.0152293
807.717	0.0152276
807.795	0.0153537
807.873	0.0152273
807.951	0.0151820
808.030	0.0149997
808.108	0.0151282
808.186	0.0151495
808.264	0.0150726
808.342	0.0149403
808.420	0.0151909
808.498	0.0149644
808.576	0.0150110
808.655	0.0150623
808.733	0.0148885
808.811	0.0150534
808.889	0.0150755
808.967	0.0149894
809.045	0.0148767
809.123	0.0150895
809.201	0.0150160
809.280	0.0151385
809.358	0.0150611
809.436	0.0149403
809.514	0.0149575
809.592	0.0150066
809.670	0.0150082
809.748	0.0150233
809.826	0.0148931
809.905	0.0148746
809.983	0.0149610
810.061	0.0148419
810.139	0.0148223
810.217	0.0148256
810.295	0.0149091
810.373	0.0147269
810.451	0.0147469
810.530	0.0147727
810.608	0.0148277
810.686	0.0147581
810.764	0.0149225
810.842	0.0147801
810.920	0.0147971
810.998	0.0147115
811.076	0.0148268
811.155	0.0148876
811.233	0.0147625
811.311	0.0148579
811.389	0.0149166
811.467	0.0149184
811.545	0.0148173
811.623	0.0148767
811.701	0.0148897
811.780	0.0147975
811.858	0.0148666
811.936	0.0148438
812.014	0.0150844
812.092	0.0149934
812.170	0.0149586
812.248	0.0151116
812.326	0.0150539
812.405	0.0150716
812.483	0.0151496
812.561	0.0152042
812.639	0.0151641
812.717	0.0151949
812.795	0.0152598
812.873	0.0152823
812.951	0.0152532
813.030	0.0153454
813.108	0.0152254
813.186	0.0151873
813.264	0.0152716
813.342	0.0151254
813.420	0.0152012
813.498	0.0152467
813.576	0.0150610
813.655	0.0151503
813.733	0.0152287
813.811	0.0150665
813.889	0.0151141
813.967	0.0149254
814.045	0.0149490
814.123	0.0149398
814.201	0.0149992
814.280	0.0149949
814.358	0.0151285
814.436	0.0150169
814.514	0.0150377
814.592	0.0151048
814.670	0.0151763
814.748	0.0149584
814.826	0.0150239
814.905	0.0151329
814.983	0.0151502
815.061	0.0151083
815.139	0.0152187
815.217	0.0152705
815.295	0.0150997
815.373	0.0149925
815.451	0.0152269
815.530	0.0150572
815.608	0.0149936
815.686	0.0152540
815.764	0.0151652
815.842	0.0151344
815.920	0.0150842
815.998	0.0150391
816.076	0.0150616
816.155	0.0151057
816.233	0.0150233
816.311	0.0151766
816.389	0.0152061
816.467	0.0150065
816.545	0.0150397
816.623	0.0150719
816.701	0.0150523
816.780	0.0149911
816.858	0.0150408
816.936	0.0149523
817.014	0.0150726
817.092	0.0149701
817.170	0.0150850
817.248	0.0151656
817.326	0.0151151
817.405	0.0151379
817.483	0.0150620
817.561	0.0151339
817.639	0.0152445
817.717	0.0153422
817.795	0.0151873
817.873	0.0152087
817.951	0.0151823
818.030	0.0153642
818.108	0.0151571
818.186	0.0153494
818.264	0.0152888
818.342	0.0151508
818.420	0.0151295
818.498	0.0151649
818.576	0.0150932
818.655	0.0150346
818.733	0.0150306
818.811	0.0151414
818.889	0.0150724
818.967	0.0149947
819.045	0.0150297
819.123	0.0150708
819.201	0.0151280
819.280	0.0149115
819.358	0.0149652
819.436	0.0151044
819.514	0.0149928
819.592	0.0149740
819.670	0.0149940
819.748	0.0149769
819.826	0.0149651
819.905	0.0149680
819.983	0.0150494
820.061	0.0150177
820.139	0.0150704
820.217	0.0151589
820.295	0.0152081
820.373	0.0150707
820.451	0.0152164
820.530	0.0152114
820.608	0.0153040
820.686	0.0152271
820.764	0.0152451
820.842	0.0152691
820.920	0.0151827
820.998	0.0152667
821.076	0.0154470
821.155	0.0153223
821.233	0.0152572
821.311	0.0153361
821.389	0.0153728
821.467	0.0153179
821.545	0.0152042
821.623	0.0152773
821.701	0.0153662
821.780	0.0152882
821.858	0.0152915
821.936	0.0152828
822.014	0.0152895
822.092	0.0153920
822.170	0.0152811
822.248	0.0153713
822.326	0.0152863
822.405	0.0152696
822.483	0.0154720
822.561	0.0155357
822.639	0.0152946
822.717	0.0152985
822.795	0.0153352
822.873	0.0155437
822.951	0.0153693
823.030	0.0154234
823.108	0.0154183
823.186	0.0154334
823.264	0.0153117
823.342	0.0153554
823.420	0.0153773
823.498	0.0153313
823.576	0.0153388
823.655	0.0153400
823.733	0.0152653
823.811	0.0153891
823.889	0.0152505
823.967	0.0152953
824.045	0.0152402
824.123	0.0152257
824.201	0.0152753
824.280	0.0151881
824.358	0.0152638
824.436	0.0152666
824.514	0.0150594
824.592	0.0150869
824.670	0.0150065
824.748	0.0150594
824.826	0.0150495
824.905	0.0150108
824.983	0.0150009
825.061	0.0150300
825.139	0.0150378
825.217	0.0150359
825.295	0.0148637
825.373	0.0149992
825.451	0.0149940
825.530	0.0149844
825.608	0.0150031
825.686	0.0150501
825.764	0.0150911
825.842	0.0149950
825.920	0.0149819
825.998	0.0149781
826.076	0.0151268
826.155	0.0149748
826.233	0.0149824
826.311	0.0150360
826.389	0.0151167
826.467	0.0151454
826.545	0.0150829
826.623	0.0149976
826.701	0.0150233
826.780	0.0150136
826.858	0.0150235
826.936	0.0150360
827.014	0.0151069
827.092	0.0149265
827.170	0.0149832
827.248	0.0149773
827.326	0.0149856
827.405	0.0149572
827.483	0.0149912
827.561	0.0150604
827.639	0.0149710
827.717	0.0150038
827.795	0.0150684
827.873	0.0149857
827.951	0.0150367
828.030	0.0149454
828.108	0.0151789
828.186	0.0151022
828.264	0.0150358
828.342	0.0150262
828.420	0.0149947
828.498	0.0151176
828.576	0.0150130
828.655	0.0150233
828.733	0.0150560
828.811	0.0148478
828.889	0.0150823
828.967	0.0150959
829.045	0.0150409
829.123	0.0151762
829.201	0.0150533
829.280	0.0150536
829.358	0.0148622
829.436	0.0150623
829.514	0.0151556
829.592	0.0149969
829.670	0.0151035
829.748	0.0149028
829.826	0.0150672
829.905	0.0150050
829.983	0.0150157
830.061	0.0149479
830.139	0.0150414
830.217	0.0150507
830.295	0.0147298
830.373	0.0149496
830.451	0.0149731
830.530	0.0149435
830.608	0.0148508
830.686	0.0149873
830.764	0.0150721
830.842	0.0150321
830.920	0.0149529
830.998	0.0149718
831.076	0.0149261
831.155	0.0150033
831.233	0.0149927
831.311	0.0149469
831.389	0.0149364
831.467	0.0148660
831.545	0.0148829
831.623	0.0150301
831.701	0.0149973
831.780	0.0149855
831.858	0.0148730
831.936	0.0149063
832.014	0.0149378
832.092	0.0149884
832.170	0.0150459
832.248	0.0148713
832.326	0.0149583
832.405	0.0148846
832.483	0.0148805
832.561	0.0149464
832.639	0.0148975
832.717	0.0151740
832.795	0.0151234
832.873	0.0150017
832.951	0.0150723
833.030	0.0150770
833.108	0.0150231
833.186	0.0150837
833.264	0.0150597
833.342	0.0150286
833.420	0.0151133
833.498	0.0151443
833.576	0.0149502
833.655	0.0150000
833.733	0.0150290
833.811	0.0150993
833.889	0.0150276
833.967	0.0149686
834.045	0.0151532
834.123	0.0150193
834.201	0.0151064
834.280	0.0150599
834.358	0.0150422
834.436	0.0150536
834.514	0.0150399
834.592	0.0150637
834.670	0.0151024
834.748	0.0150776
834.826	0.0149504
834.905	0.0149422
834.983	0.0150504
835.061	0.0150169
835.139	0.0149966
835.217	0.0150642
835.295	0.0150494
835.373	0.0148725
835.451	0.0149596
835.530	0.0148764
835.608	0.0148888
835.686	0.0149873
835.764	0.0150171
835.842	0.0149878
835.920	0.0149178
835.998	0.0150154
836.076	0.0149753
836.155	0.0149367
836.233	0.0149983
836.311	0.0151243
836.389	0.0151679
836.467	0.0149962
836.545	0.0150755
836.623	0.0150760
836.701	0.0149818
836.780	0.0150797
836.858	0.0150514
836.936	0.0151479
837.014	0.0150783
837.092	0.0150023
837.170	0.0151118
837.248	0.0150802
837.326	0.0151208
837.405	0.0150998
837.483	0.0150974
837.561	0.0151254
837.639	0.0152016
837.717	0.0151561
837.795	0.0152117
837.873	0.0149546
837.951	0.0151414
838.030	0.0150696
838.108	0.0150928
838.186	0.0150833
838.264	0.0151295
838.342	0.0150768
838.420	0.0150720
838.498	0.0151701
838.576	0.0151741
838.655	0.0149370
838.733	0.0150489
838.811	0.0152128
838.889	0.0152264
838.967	0.0152042
839.045	0.0151080
839.123	0.0152587
839.201	0.0153168
839.280	0.0154384
839.358	0.0151440
839.436	0.0151007
839.514	0.0153448
839.592	0.0151929
839.670	0.0151237
839.748	0.0151306
839.826	0.0151311
839.905	0.0151365
839.983	0.0151447
840.061	0.0150941
840.139	0.0150789
840.217	0.0150629
840.295	0.0150028
840.373	0.0151140
840.451	0.0149224
840.530	0.0149901
840.608	0.0151176
840.686	0.0151114
840.764	0.0149284
840.842	0.0149294
840.920	0.0149671
840.998	0.0150572
841.076	0.0150727
841.155	0.0149812
841.233	0.0150644
841.311	0.0150388
841.389	0.0150268
841.467	0.0149864
841.545	0.0150816
841.623	0.0150113
841.701	0.0148948
841.780	0.0149677
841.858	0.0149564
841.936	0.0148704
842.014	0.0149279
842.092	0.0149532
842.170	0.0149496
842.248	0.0149192
842.326	0.0149247
842.405	0.0148962
842.483	0.0149007
842.561	0.0149374
842.639	0.0150677
842.717	0.0150644
842.795	0.0151622
842.873	0.0151897
842.951	0.0150567
843.030	0.0151410
843.108	0.0150464
843.186	0.0151785
843.264	0.0152843
843.342	0.0151121
843.420	0.0151624
843.498	0.0150291
843.576	0.0150414
843.655	0.0151480
843.733	0.0150570
843.811	0.0150914
843.889	0.0150775
843.967	0.0151120
844.045	0.0151069
844.123	0.0151345
844.201	0.0150542
844.280	0.0150428
844.358	0.0150158
844.436	0.0149734
844.514	0.0153134
844.592	0.0152132
844.670	0.0150991
844.748	0.0151025
844.826	0.0150945
844.905	0.0151624
844.983	0.0153337
845.061	0.0152023
845.139	0.0152925
845.217	0.0152322
845.295	0.0151673
845.373	0.0150959
845.451	0.0150474
845.530	0.0151682
845.608	0.0153437
845.686	0.0151125
845.764	0.0151360
845.842	0.0150750
845.920	0.0152704
845.998	0.0152647
846.076	0.0151037
846.155	0.0151282
846.233	0.0151754
846.311	0.0150374
846.389	0.0151707
846.467	0.0149373
846.545	0.0149985
846.623	0.0150266
846.701	0.0150684
846.780	0.0150558
846.858	0.0151195
846.936	0.0150246
847.014	0.0151463
847.092	0.0150733
847.170	0.0149737
847.248	0.0152396
847.326	0.0152205
847.405	0.0152830
847.483	0.0151797
847.561	0.0151402
847.639	0.0151693
847.717	0.0151401
847.795	0.0151185
847.873	0.0151604
847.951	0.0152638
848.030	0.0152430
848.108	0.0150979
848.186	0.0151014
848.264	0.0151435
848.342	0.0150889
848.420	0.0149998
848.498	0.0150737
848.576	0.0151175
848.655	0.0150188
848.733	0.0150185
848.811	0.0150359
848.889	0.0150541
848.967	0.0150372
849.045	0.0151106
849.123	0.0150660
849.201	0.0150612
849.280	0.0151086
849.358	0.0151746
849.436	0.0151387
849.514	0.0151894
849.592	0.0152278
849.670	0.0153119
849.748	0.0152799
849.826	0.0152282
849.905	0.0152139
849.983	0.0152066
850.061	0.0152682
850.139	0.0151122
850.217	0.0151054
850.295	0.0152480
850.373	0.0151527
850.451	0.0151379
850.530	0.0151707
850.608	0.0151640
850.686	0.0151228
850.764	0.0150536
850.842	0.0151644
850.920	0.0149881
850.998	0.0151763
851.076	0.0150639
851.155	0.0153056
851.233	0.0151109
851.311	0.0150836
851.389	0.0150677
851.467	0.0152121
851.545	0.0150320
851.623	0.0150466
851.701	0.0151917
851.780	0.0151678
851.858	0.0151343
851.936	0.0150853
852.014	0.0150717
852.092	0.0150416
852.170	0.0151906
852.248	0.0151567
852.326	0.0151923
852.405	0.0150899
852.483	0.0151431
852.561	0.0150513
852.639	0.0151515
852.717	0.0151660
852.795	0.0153062
852.873	0.0151584
852.951	0.0151324
853.030	0.0149295
853.108	0.0150964
853.186	0.0151321
853.264	0.0151250
853.342	0.0150616
853.420	0.0150566
853.498	0.0149968
853.576	0.0150514
853.655	0.0151106
853.733	0.0152149
853.811	0.0150526
853.889	0.0152633
853.967	0.0151966
854.045	0.0150671
854.123	0.0151617
854.201	0.0152553
854.280	0.0152402
854.358	0.0150788
854.436	0.0152321
854.514	0.0150826
854.592	0.0150715
854.670	0.0152528
854.748	0.0151861
854.826	0.0150490
854.905	0.0151147
854.983	0.0151026
855.061	0.0151862
855.139	0.0150698
855.217	0.0151640
855.295	0.0150113
855.373	0.0151681
855.451	0.0152345
855.530	0.0151621
855.608	0.0152164
855.686	0.0151939
855.764	0.0151598
855.842	0.0150671
855.920	0.0151636
855.998	0.0152904
856.076	0.0151454
856.155	0.0151324
856.233	0.0150723
856.311	0.0150229
856.389	0.0150968
856.467	0.0151363
856.545	0.0151985
856.623	0.0149831
856.701	0.0150706
856.780	0.0150578
856.858	0.0151224
856.936	0.0149772
857.014	0.0150917
857.092	0.0149792
857.170	0.0150701
857.248	0.0151363
857.326	0.0150507
857.405	0.0151016
857.483	0.0151096
857.561	0.0150318
857.639	0.0152002
857.717	0.0152010
857.795	0.0150763
857.873	0.0152674
857.951	0.0151990
858.030	0.0151227
858.108	0.0152229
858.186	0.0152481
858.264	0.0152199
858.342	0.0150885
858.420	0.0151601
858.498	0.0151151
858.576	0.0151736
858.655	0.0150104
858.733	0.0150452
858.811	0.0150792
858.889	0.0150568
858.967	0.0151859
859.045	0.0150677
859.123	0.0150343
859.201	0.0150835
859.280	0.0151266
859.358	0.0150313
859.436	0.0150655
859.514	0.0150513
859.592	0.0149440
859.670	0.0151295
859.748	0.0149901
859.826	0.0150422
859.905	0.0150554
859.983	0.0150225
860.061	0.0149815
860.139	0.0150456
860.217	0.0149726
860.295	0.0149964
860.373	0.0149795
860.451	0.0149349
860.530	0.0149960
860.608	0.0151490
860.686	0.0150581
860.764	0.0152403
860.842	0.0151651
860.920	0.0150780
860.998	0.0150733
861.076	0.0150391
861.155	0.0150566
861.233	0.0151019
861.311	0.0151180
861.389	0.0150469
861.467	0.0148932
861.545	0.0149918
861.623	0.0150693
861.701	0.0150412
861.780	0.0149430
861.858	0.0150155
861.936	0.0149102
862.014	0.0150349
862.092	0.0150066
862.170	0.0150570
862.248	0.0149442
862.326	0.0149899
862.405	0.0150163
862.483	0.0150497
862.561	0.0151107
862.639	0.0151382
862.717	0.0149389
862.795	0.0150461
862.873	0.0150674
862.951	0.0150245
863.030	0.0150308
863.108	0.0149284
863.186	0.0149870
863.264	0.0148936
863.342	0.0150177
863.420	0.0150343
863.498	0.0148923
863.576	0.0149742
863.655	0.0150023
863.733	0.0147968
863.811	0.0148963
863.889	0.0148226
863.967	0.0149714
864.045	0.0149110
864.123	0.0150569
864.201	0.0149582
864.280	0.0149388
864.358	0.0150546
864.436	0.0149065
864.514	0.0149348
864.592	0.0150549
864.670	0.0151135
864.748	0.0149187
864.826	0.0149879
864.905	0.0151041
864.983	0.0151171
865.061	0.0150686
865.139	0.0149436
865.217	0.0149422
865.295	0.0150932
865.373	0.0150902
865.451	0.0150579
865.530	0.0150333
865.608	0.0149271
865.686	0.0149295
865.764	0.0150540
865.842	0.0150128
865.920	0.0149439
865.998	0.0149213
866.076	0.0150867
866.155	0.0149015
866.233	0.0149625
866.311	0.0149158
866.389	0.0149615
866.467	0.0148944
866.545	0.0149736
866.623	0.0150188
866.701	0.0147984
866.780	0.0148452
866.858	0.0149947
866.936	0.0150630
867.014	0.0149403
867.092	0.0148111
867.170	0.0148866
867.248	0.0150028
867.326	0.0149385
867.405	0.0150507
867.483	0.0149645
867.561	0.0148032
867.639	0.0150469
867.717	0.0151153
867.795	0.0151089
867.873	0.0151035
867.951	0.0150484
868.030	0.0151039
868.108	0.0150504
868.186	0.0150949
868.264	0.0151645
868.342	0.0149732
868.420	0.0150138
868.498	0.0150855
868.576	0.0151768
868.655	0.0150108
868.733	0.0150275
868.811	0.0150926
868.889	0.0150613
868.967	0.0151069
869.045	0.0150205
869.123	0.0151849
869.201	0.0150716
869.280	0.0150018
869.358	0.0150912
869.436	0.0150178
869.514	0.0149549
869.592	0.0150069
869.670	0.0150455
869.748	0.0151985
869.826	0.0151576
869.905	0.0151171
869.983	0.0150652
870.061	0.0151743
870.139	0.0151318
870.217	0.0150398
870.295	0.0150566
870.373	0.0151543
870.451	0.0153259
870.530	0.0152941
870.608	0.0149953
870.686	0.0151599
870.764	0.0150302
870.842	0.0151148
870.920	0.0152619
870.998	0.0152929
871.076	0.0152438
871.155	0.0151615
871.233	0.0152134
871.311	0.0151888
871.389	0.0152228
871.467	0.0152800
871.545	0.0153034
871.623	0.0152611
871.701	0.0153277
871.780	0.0153535
871.858	0.0153619
871.936	0.0151070
872.014	0.0153571
872.092	0.0153139
872.170	0.0153164
872.248	0.0152197
872.326	0.0152483
872.405	0.0152495
872.483	0.0152386
872.561	0.0153612
872.639	0.0152470
872.717	0.0152869
872.795	0.0152336
872.873	0.0152190
872.951	0.0151691
873.030	0.0152066
873.108	0.0151440
873.186	0.0151593
873.264	0.0152068
873.342	0.0151572
873.420	0.0150587
873.498	0.0151727
873.576	0.0151257
873.655	0.0149753
873.733	0.0151366
873.811	0.0150343
873.889	0.0150204
873.967	0.0149274
874.045	0.0151660
874.123	0.0153088
874.201	0.0151486
874.280	0.0151484
874.358	0.0151614
874.436	0.0152370
874.514	0.0151764
874.592	0.0151681
874.670	0.0151882
874.748	0.0152499
874.826	0.0153255
874.905	0.0151650
874.983	0.0151367
875.061	0.0152445
875.139	0.0152044
875.217	0.0152574
875.295	0.0151826
875.373	0.0151690
875.451	0.0152085
875.530	0.0151338
875.608	0.0151200
875.686	0.0152140
875.764	0.0152807
875.842	0.0152972
875.920	0.0152201
875.998	0.0151511
876.076	0.0151521
876.155	0.0152353
876.233	0.0152038
876.311	0.0152543
876.389	0.0151692
876.467	0.0151213
876.545	0.0151459
876.623	0.0151466
876.701	0.0150966
876.780	0.0151398
876.858	0.0151776
876.936	0.0151246
877.014	0.0151038
877.092	0.0151694
877.170	0.0150859
877.248	0.0149950
877.326	0.0151719
877.405	0.0152319
877.483	0.0151133
877.561	0.0152035
877.639	0.0152323
877.717	0.0152184
877.795	0.0152645
877.873	0.0150353
877.951	0.0150401
878.030	0.0152551
878.108	0.0150757
878.186	0.0152618
878.264	0.0152350
878.342	0.0151045
878.420	0.0152174
878.498	0.0150884
878.576	0.0151553
878.655	0.0153043
878.733	0.0150648
878.811	0.0150310
878.889	0.0151180
878.967	0.0152337
879.045	0.0151585
879.123	0.0151221
879.201	0.0150465
879.280	0.0149847
879.358	0.0150365
879.436	0.0150595
879.514	0.0151472
879.592	0.0153024
879.670	0.0152533
879.748	0.0150951
879.826	0.0151899
879.905	0.0151624
879.983	0.0152239
880.061	0.0152921
880.139	0.0153792
880.217	0.0152267
880.295	0.0151738
880.373	0.0153219
880.451	0.0152678
880.530	0.0153433
880.608	0.0153465
880.686	0.0151696
880.764	0.0152509
880.842	0.0153184
880.920	0.0153077
880.998	0.0151218
881.076	0.0149935
881.155	0.0152905
881.233	0.0151092
881.311	0.0152386
881.389	0.0150941
881.467	0.0150724
881.545	0.0150735
881.623	0.0152305
881.701	0.0152090
881.780	0.0151725
881.858	0.0150901
881.936	0.0151397
882.014	0.0151892
882.092	0.0152835
882.170	0.0151604
882.248	0.0151834
882.326	0.0149815
882.405	0.0150355
882.483	0.0149719
882.561	0.0150167
882.639	0.0151318
882.717	0.0150321
882.795	0.0151003
882.873	0.0150057
882.951	0.0151171
883.030	0.0151207
883.108	0.0150957
883.186	0.0150694
883.264	0.0151631
883.342	0.0151992
883.420	0.0152285
883.498	0.0150953
883.576	0.0150061
883.655	0.0149950
883.733	0.0149767
883.811	0.0151006
883.889	0.0151369
883.967	0.0151486
884.045	0.0149123
884.123	0.0150042
884.201	0.0150759
884.280	0.0148834
884.358	0.0149120
884.436	0.0149430
884.514	0.0149718
884.592	0.0148874
884.670	0.0149290
884.748	0.0150375
884.826	0.0149612
884.905	0.0149368
884.983	0.0149410
885.061	0.0149956
885.139	0.0149964
885.217	0.0150531
885.295	0.0150935
885.373	0.0150347
885.451	0.0150066
885.530	0.0151815
885.608	0.0151312
885.686	0.0150621
885.764	0.0151980
885.842	0.0152949
885.920	0.0152751
885.998	0.0151099
886.076	0.0151273
886.155	0.0151379
886.233	0.0151221
886.311	0.0151003
886.389	0.0151428
886.467	0.0151098
886.545	0.0149947
886.623	0.0150278
886.701	0.0150636
886.780	0.0149142
886.858	0.0148859
886.936	0.0149476
887.014	0.0148110
887.092	0.0148135
887.170	0.0149074
887.248	0.0147950
887.326	0.0148134
887.405	0.0149271
887.483	0.0149583
887.561	0.0148122
887.639	0.0147919
887.717	0.0149901
887.795	0.0149933
887.873	0.0149516
887.951	0.0148817
888.030	0.0149929
888.108	0.0150346
888.186	0.0149413
888.264	0.0151304
888.342	0.0151043
888.420	0.0150732
888.498	0.0150414
888.576	0.0150531
888.655	0.0150859
888.733	0.0150298
888.811	0.0151926
888.889	0.0150660
888.967	0.0150227
889.045	0.0151375
889.123	0.0150694
889.201	0.0149883
889.280	0.0151732
889.358	0.0149657
889.436	0.0148335
889.514	0.0149588
889.592	0.0150205
889.670	0.0148586
889.748	0.0148750
889.826	0.0148781
889.905	0.0148369
889.983	0.0147726
890.061	0.0147952
890.139	0.0148205
890.217	0.0148922
890.295	0.0147906
890.373	0.0147997
890.451	0.0147948
890.530	0.0147510
890.608	0.0147911
890.686	0.0149415
890.764	0.0149184
890.842	0.0150435
890.920	0.0149561
890.998	0.0148859
891.076	0.0150475
891.155	0.0149346
891.233	0.0152248
891.311	0.0151859
891.389	0.0151748
891.467	0.0149669
891.545	0.0149686
891.623	0.0151813
891.701	0.0151871
891.780	0.0150259
891.858	0.0150146
891.936	0.0150362
892.014	0.0151580
892.092	0.0150325
892.170	0.0149064
892.248	0.0150430
892.326	0.0149474
892.405	0.0150864
892.483	0.0151154
892.561	0.0149991
892.639	0.0149420
892.717	0.0149184
892.795	0.0149216
892.873	0.0149986
892.951	0.0150517
893.030	0.0150173
893.108	0.0149860
893.186	0.0149597
893.264	0.0149803
893.342	0.0150867
893.420	0.0149272
893.498	0.0150677
893.576	0.0150827
893.655	0.0150719
893.733	0.0151176
893.811	0.0150149
893.889	0.0150265
893.967	0.0151732
894.045	0.0151003
894.123	0.0150183
894.201	0.0151279
894.280	0.0150461
894.358	0.0150581
894.436	0.0150695
894.514	0.0151067
894.592	0.0149443
894.670	0.0151755
894.748	0.0151168
894.826	0.0149969
894.905	0.0150980
894.983	0.0151790
895.061	0.0152496
895.139	0.0150780
895.217	0.0150961
895.295	0.0150604
895.373	0.0150952
895.451	0.0150804
895.530	0.0150426
895.608	0.0150834
895.686	0.0151572
895.764	0.0150165
895.842	0.0150682
895.920	0.0149865
895.998	0.0150557
896.076	0.0151386
896.155	0.0152283
896.233	0.0150761
896.311	0.0150261
896.389	0.0150703
896.467	0.0150698
896.545	0.0150720
896.623	0.0149690
896.701	0.0150064
896.780	0.0150177
896.858	0.0151017
896.936	0.0149807
897.014	0.0149500
897.092	0.0150177
897.170	0.0150536
897.248	0.0150159
897.326	0.0150710
897.405	0.0151475
897.483	0.0151006
897.561	0.0152269
897.639	0.0151608
897.717	0.0151653
897.795	0.0152667
897.873	0.0153574
897.951	0.0153284
898.030	0.0153070
898.108	0.0152582
898.186	0.0153731
898.264	0.0153618
898.342	0.0152848
898.420	0.0153734
898.498	0.0153139
898.576	0.0152578
898.655	0.0152407
898.733	0.0151918
898.811	0.0152176
898.889	0.0151308
898.967	0.0152249
899.045	0.0153584
899.123	0.0152054
899.201	0.0152459
899.280	0.0152773
899.358	0.0152380
899.436	0.0151683
899.514	0.0151966
899.592	0.0151922
899.670	0.0150842
899.748	0.0151488
899.826	0.0153185
899.905	0.0150855
899.983	0.0151344
900.061	0.0150764
900.139	0.0150369
900.217	0.0151200
900.295	0.0151824
900.373	0.0150835
900.451	0.0149689
900.530	0.0151111
900.608	0.0152603
900.686	0.0151573
900.764	0.0150217
900.842	0.0150625
900.920	0.0150294
900.998	0.0150350
901.076	0.0150874
901.155	0.0151607
901.233	0.0151450
901.311	0.0151132
901.389	0.0151770
901.467	0.0151827
901.545	0.0150791
901.623	0.0150255
901.701	0.0151350
901.780	0.0152162
901.858	0.0151187
901.936	0.0152084
902.014	0.0151199
902.092	0.0152724
902.170	0.0152162
902.248	0.0153271
902.326	0.0152569
902.405	0.0151816
902.483	0.0152805
902.561	0.0152032
902.639	0.0152793
902.717	0.0152425
902.795	0.0150958
902.873	0.0152591
902.951	0.0153072
903.030	0.0153141
903.108	0.0151691
903.186	0.0151149
903.264	0.0152967
903.342	0.0151897
903.420	0.0152227
903.498	0.0152874
903.576	0.0151832
903.655	0.0151258
903.733	0.0152036
903.811	0.0151640
903.889	0.0151823
903.967	0.0152287
904.045	0.0151707
904.123	0.0149959
904.201	0.0150774
904.280	0.0151225
904.358	0.0150282
904.436	0.0151465
904.514	0.0151238
904.592	0.0151040
904.670	0.0151865
904.748	0.0150903
904.826	0.0149513
904.905	0.0149061
904.983	0.0149541
905.061	0.0149537
905.139	0.0149837
905.217	0.0149608
905.295	0.0150020
905.373	0.0149947
905.451	0.0151044
905.530	0.0150167
905.608	0.0150750
905.686	0.0151144
905.764	0.0150687
905.842	0.0150790
905.920	0.0150883
905.998	0.0150788
906.076	0.0150751
906.155	0.0150150
906.233	0.0150276
906.311	0.0150507
906.389	0.0151190
906.467	0.0151543
906.545	0.0150232
906.623	0.0152103
906.701	0.0150922
906.780	0.0152071
906.858	0.0151154
906.936	0.0150987
907.014	0.0150760
907.092	0.0151910
907.170	0.0151388
907.248	0.0150797
907.326	0.0150735
907.405	0.0151089
907.483	0.0151022
907.561	0.0151176
907.639	0.0150053
907.717	0.0149986
907.795	0.0150323
907.873	0.0150618
907.951	0.0150285
908.030	0.0149123
908.108	0.0150249
908.186	0.0149045
908.264	0.0150091
908.342	0.0150027
908.420	0.0148840
908.498	0.0149613
908.576	0.0148947
908.655	0.0148481
908.733	0.0150276
908.811	0.0148617
908.889	0.0149438
908.967	0.0149600
909.045	0.0148988
909.123	0.0151009
909.201	0.0150077
909.280	0.0150215
909.358	0.0150038
909.436	0.0151568
909.514	0.0151144
909.592	0.0147834
909.670	0.0149895
909.748	0.0152570
909.826	0.0150197
909.905	0.0149622
909.983	0.0149483
910.061	0.0149803
910.139	0.0150227
910.217	0.0150630
910.295	0.0150383
910.373	0.0151347
910.451	0.0150261
910.530	0.0149571
910.608	0.0151060
910.686	0.0150387
910.764	0.0149624
910.842	0.0149999
910.920	0.0149678
910.998	0.0149716
911.076	0.0148350
911.155	0.0149845
911.233	0.0150765
911.311	0.0149181
911.389	0.0149271
911.467	0.0147940
911.545	0.0150414
911.623	0.0150764
911.701	0.0149104
911.780	0.0149364
911.858	0.0149990
911.936	0.0151102
912.014	0.0150246
912.092	0.0150348
912.170	0.0150172
912.248	0.0150327
912.326	0.0150346
912.405	0.0151147
912.483	0.0150529
912.561	0.0150868
912.639	0.0149867
912.717	0.0149696
912.795	0.0151712
912.873	0.0150468
912.951	0.0150899
913.030	0.0150603
913.108	0.0148354
913.186	0.0151106
913.264	0.0150086
913.342	0.0149357
913.420	0.0151661
913.498	0.0149865
913.576	0.0149947
913.655	0.0150568
913.733	0.0151524
913.811	0.0150252
913.889	0.0150864
913.967	0.0152065
914.045	0.0149694
914.123	0.0150576
914.201	0.0150242
914.280	0.0150143
914.358	0.0150702
914.436	0.0149115
914.514	0.0151374
914.592	0.0152420
914.670	0.0150498
914.748	0.0150874
914.826	0.0150723
914.905	0.0151107
914.983	0.0151057
915.061	0.0149052
915.139	0.0150204
915.217	0.0149572
915.295	0.0149488
915.373	0.0150618
915.451	0.0151241
915.530	0.0150260
915.608	0.0149454
915.686	0.0149926
915.764	0.0151621
915.842	0.0150045
915.920	0.0150990
915.998	0.0150401
916.076	0.0150376
916.155	0.0149805
916.233	0.0150304
916.311	0.0151357
916.389	0.0149533
916.467	0.0150480
916.545	0.0150605
916.623	0.0149278
916.701	0.0149455
916.780	0.0150052
916.858	0.0149661
916.936	0.0148326
917.014	0.0149392
917.092	0.0150051
917.170	0.0149050
917.248	0.0149080
917.326	0.0149893
917.405	0.0150099
917.483	0.0149909
917.561	0.0149503
917.639	0.0149358
917.717	0.0150537
917.795	0.0149688
917.873	0.0150184
917.951	0.0149953
918.030	0.0150011
918.108	0.0149952
918.186	0.0151089
918.264	0.0150871
918.342	0.0151231
918.420	0.0151579
918.498	0.0151116
918.576	0.0150700
918.655	0.0152617
918.733	0.0151912
918.811	0.0152029
918.889	0.0151339
918.967	0.0152672
919.045	0.0150997
919.123	0.0152071
919.201	0.0152498
919.280	0.0151333
919.358	0.0151836
919.436	0.0151949
919.514	0.0150255
919.592	0.0149444
919.670	0.0152073
919.748	0.0151579
919.826	0.0152055
919.905	0.0152045
919.983	0.0150994
920.061	0.0149992
920.139	0.0150365
920.217	0.0151068
920.295	0.0150729
920.373	0.0149516
920.451	0.0151330
920.530	0.0151898
920.608	0.0151498
920.686	0.0152506
920.764	0.0150224
920.842	0.0151134
920.920	0.0151497
920.998	0.0151274
921.076	0.0149620
921.155	0.0150078
921.233	0.0150356
921.311	0.0149471
921.389	0.0151431
921.467	0.0150379
921.545	0.0149239
921.623	0.0150280
921.701	0.0149547
921.780	0.0149434
921.858	0.0149452
921.936	0.0150316
922.014	0.0150320
922.092	0.0151081
922.170	0.0151168
922.248	0.0149366
922.326	0.0149751
922.405	0.0150491
922.483	0.0151012
922.561	0.0151540
922.639	0.0150742
922.717	0.0150716
922.795	0.0149722
922.873	0.0150773
922.951	0.0151261
923.030	0.0151475
923.108	0.0151337
923.186	0.0150866
923.264	0.0150190
923.342	0.0150562
923.420	0.0151798
923.498	0.0152093
923.576	0.0152001
923.655	0.0151638
923.733	0.0152686
923.811	0.0151382
923.889	0.0153038
923.967	0.0154704
924.045	0.0152833
924.123	0.0152370
924.201	0.0152328
924.280	0.0151223
924.358	0.0153307
924.436	0.0151062
924.514	0.0152284
924.592	0.0152490
924.670	0.0150948
924.748	0.0150739
924.826	0.0150352
924.905	0.0150415
924.983	0.0151645
925.061	0.0150846
925.139	0.0150774
925.217	0.0150376
925.295	0.0150584
925.373	0.0150407
925.451	0.0150852
925.530	0.0151426
925.608	0.0150627
925.686	0.0150845
925.764	0.0150833
925.842	0.0152023
925.920	0.0150137
925.998	0.0150399
926.076	0.0152221
926.155	0.0150332
926.233	0.0150757
926.311	0.0149948
926.389	0.0150975
926.467	0.0150631
926.545	0.0151350
926.623	0.0151009
926.701	0.0151797
926.780	0.0151992
926.858	0.0151897
926.936	0.0150496
927.014	0.0149937
927.092	0.0150217
927.170	0.0151940
927.248	0.0151662
927.326	0.0150497
927.405	0.0150245
927.483	0.0149874
927.561	0.0150155
927.639	0.0151424
927.717	0.0151727
927.795	0.0151334
927.873	0.0152926
927.951	0.0151431
928.030	0.0150648
928.108	0.0151841
928.186	0.0153069
928.264	0.0151244
928.342	0.0150294
928.420	0.0152316
928.498	0.0152254
928.576	0.0150500
928.655	0.0150128
928.733	0.0150432
928.811	0.0151904
928.889	0.0152308
928.967	0.0150304
929.045	0.0150387
929.123	0.0150220
929.201	0.0150104
929.280	0.0150440
929.358	0.0150761
929.436	0.0149805
929.514	0.0151118
929.592	0.0149361
929.670	0.0150512
929.748	0.0150330
929.826	0.0149399
929.905	0.0151166
929.983	0.0152451
930.061	0.0151633
930.139	0.0150759
930.217	0.0150677
930.295	0.0151026
930.373	0.0150724
930.451	0.0150864
930.530	0.0151826
930.608	0.0150621
930.686	0.0150430
930.764	0.0151588
930.842	0.0149908
930.920	0.0149824
930.998	0.0149393
931.076	0.0148942
931.155	0.0149809
931.233	0.0149898
931.311	0.0150935
931.389	0.0150568
931.467	0.0150809
931.545	0.0151505
931.623	0.0149850
931.701	0.0150434
931.780	0.0151131
931.858	0.0151720
931.936	0.0151201
932.014	0.0149569
932.092	0.0150970
932.170	0.0151503
932.248	0.0149641
932.326	0.0151507
932.405	0.0151501
932.483	0.0152415
932.561	0.0152050
932.639	0.0151022
932.717	0.0150020
932.795	0.0150399
932.873	0.0150823
932.951	0.0151185
933.030	0.0152450
933.108	0.0152927
933.186	0.0152131
933.264	0.0151945
933.342	0.0150984
933.420	0.0151476
933.498	0.0152192
933.576	0.0151589
933.655	0.0152464
933.733	0.0151365
933.811	0.0152090
933.889	0.0150809
933.967	0.0151283
934.045	0.0151812
934.123	0.0151600
934.201	0.0150832
934.280	0.0151523
934.358	0.0150150
934.436	0.0150301
934.514	0.0150742
934.592	0.0150890
934.670	0.0150711
934.748	0.0149092
934.826	0.0148960
934.905	0.0149554
934.983	0.0150127
935.061	0.0151395
935.139	0.0150338
935.217	0.0151941
935.295	0.0151308
935.373	0.0150665
935.451	0.0151540
935.530	0.0151990
935.608	0.0150407
935.686	0.0150009
935.764	0.0151249
935.842	0.0150462
935.920	0.0151382
935.998	0.0151940
936.076	0.0150712
936.155	0.0149508
936.233	0.0151154
936.311	0.0150269
936.389	0.0150488
936.467	0.0151994
936.545	0.0149549
936.623	0.0149986
936.701	0.0149918
936.780	0.0150620
936.858	0.0150784
936.936	0.0151070
937.014	0.0150783
937.092	0.0149536
937.170	0.0149879
937.248	0.0150366
937.326	0.0150405
937.405	0.0150483
937.483	0.0149901
937.561	0.0150706
937.639	0.0151276
937.717	0.0150292
937.795	0.0149771
937.873	0.0151179
937.951	0.0149330
938.030	0.0150380
938.108	0.0150835
938.186	0.0149217
938.264	0.0150389
938.342	0.0149108
938.420	0.0148657
938.498	0.0150152
938.576	0.0149374
938.655	0.0149658
938.733	0.0148899
938.811	0.0149218
938.889	0.0149400
938.967	0.0150651
939.045	0.0150468
939.123	0.0149870
939.201	0.0150147
939.280	0.0150088
939.358	0.0150187
939.436	0.0151327
939.514	0.0151468
939.592	0.0151212
939.670	0.0151452
939.748	0.0149992
939.826	0.0151415
939.905	0.0151073
939.983	0.0149962
940.061	0.0149961
940.139	0.0151067
940.217	0.0150427
940.295	0.0148200
940.373	0.0150510
940.451	0.0150303
940.530	0.0149113
940.608	0.0150493
940.686	0.0150730
940.764	0.0150772
940.842	0.0150550
940.920	0.0150841
940.998	0.0151994
941.076	0.0151648
941.155	0.0151391
941.233	0.0151912
941.311	0.0152728
941.389	0.0152765
941.467	0.0151794
941.545	0.0151193
941.623	0.0151601
941.701	0.0151401
941.780	0.0152415
941.858	0.0152721
941.936	0.0151727
942.014	0.0151678
942.092	0.0150531
942.170	0.0149451
942.248	0.0149062
942.326	0.0149765
942.405	0.0150261
942.483	0.0149869
942.561	0.0149365
942.639	0.0149095
942.717	0.0150204
942.795	0.0149381
942.873	0.0149401
942.951	0.0149107
943.030	0.0149742
943.108	0.0150393
943.186	0.0148905
943.264	0.0149051
943.342	0.0149691
943.420	0.0148344
943.498	0.0149271
943.576	0.0148750
943.655	0.0147956
943.733	0.0150134
943.811	0.0148852
943.889	0.0149287
943.967	0.0150257
944.045	0.0149815
944.123	0.0151680
944.201	0.0150511
944.280	0.0151733
944.358	0.0151237
944.436	0.0150343
944.514	0.0151775
944.592	0.0152488
944.670	0.0153257
944.748	0.0151570
944.826	0.0151517
944.905	0.0151746
944.983	0.0152539
945.061	0.0152927
945.139	0.0152575
945.217	0.0152018
945.295	0.0150737
945.373	0.0151428
945.451	0.0151128
945.530	0.0151144
945.608	0.0150907
945.686	0.0152091
945.764	0.0151303
945.842	0.0150084
945.920	0.0150069
945.998	0.0151239
946.076	0.0151212
946.155	0.0151743
946.233	0.0152126
946.311	0.0150645
946.389	0.0151749
946.467	0.0151572
946.545	0.0153104
946.623	0.0153009
946.701	0.0151074
946.780	0.0151393
946.858	0.0151503
946.936	0.0152386
947.014	0.0152222
947.092	0.0151977
947.170	0.0153248
947.248	0.0151523
947.326	0.0151149
947.405	0.0151392
947.483	0.0150802
947.561	0.0151291
947.639	0.0151918
947.717	0.0150904
947.795	0.0152213
947.873	0.0151311
947.951	0.0150635
948.030	0.0150349
948.108	0.0150977
948.186	0.0151343
948.264	0.0151162
948.342	0.0150887
948.420	0.0149785
948.498	0.0151018
948.576	0.0150567
948.655	0.0150543
948.733	0.0151241
948.811	0.0149729
948.889	0.0149714
948.967	0.0150188
949.045	0.0149960
949.123	0.0148796
949.201	0.0149602
949.280	0.0149591
949.358	0.0150513
949.436	0.0149812
949.514	0.0149665
949.592	0.0151446
949.670	0.0151671
949.748	0.0149768
949.826	0.0150105
949.905	0.0150587
949.983	0.0152155
950.061	0.0150777
950.139	0.0151832
950.217	0.0150495
950.295	0.0151151
950.373	0.0152641
950.451	0.0151504
950.530	0.0151562
950.608	0.0150906
950.686	0.0151017
950.764	0.0151069
950.842	0.0151099
950.920	0.0151144
950.998	0.0151230
951.076	0.0152364
951.155	0.0150426
951.233	0.0151188
951.311	0.0151757
951.389	0.0150525
951.467	0.0151989
951.545	0.0152280
951.623	0.0149395
951.701	0.0150443
951.780	0.0151183
951.858	0.0152000
951.936	0.0151220
952.014	0.0151281
952.092	0.0150739
952.170	0.0151794
952.248	0.0152091
952.326	0.0152327
952.405	0.0151568
952.483	0.0153386
952.561	0.0151443
952.639	0.0150936
952.717	0.0151673
952.795	0.0151593
952.873	0.0151775
952.951	0.0151534
953.030	0.0150821
953.108	0.0152036
953.186	0.0151720
953.264	0.0152290
953.342	0.0152094
953.420	0.0150056
953.498	0.0151833
953.576	0.0150884
953.655	0.0151443
953.733	0.0151087
953.811	0.0152413
953.889	0.0150620
953.967	0.0150518
954.045	0.0151998
954.123	0.0150965
954.201	0.0150507
954.280	0.0151214
954.358	0.0150337
954.436	0.0150053
954.514	0.0152864
954.592	0.0151506
954.670	0.0151694
954.748	0.0150523
954.826	0.0152016
954.905	0.0150886
954.983	0.0149670
955.061	0.0153719
955.139	0.0152820
955.217	0.0151598
955.295	0.0152874
955.373	0.0152431
955.451	0.0152323
955.530	0.0152032
955.608	0.0153448
955.686	0.0152052
955.764	0.0152995
955.842	0.0152074
955.920	0.0152398
955.998	0.0152914
956.076	0.0151371
956.155	0.0149812
956.233	0.0153393
956.311	0.0153158
956.389	0.0151950
956.467	0.0152492
956.545	0.0153341
956.623	0.0153551
956.701	0.0151863
956.780	0.0152333
956.858	0.0151258
956.936	0.0152967
957.014	0.0152663
957.092	0.0152200
957.170	0.0151013
957.248	0.0150659
957.326	0.0152283
957.405	0.0150800
957.483	0.0150072
957.561	0.0151097
957.639	0.0150495
957.717	0.0151524
957.795	0.0151532
957.873	0.0149735
957.951	0.0150680
958.030	0.0151707
958.108	0.0149213
958.186	0.0150188
958.264	0.0149680
958.342	0.0150407
958.420	0.0149385
958.498	0.0150285
958.576	0.0150695
958.655	0.0151482
958.733	0.0150738
958.811	0.0150570
958.889	0.0149961
958.967	0.0151976
959.045	0.0150542
959.123	0.0150142
959.201	0.0150970
959.280	0.0151299
959.358	0.0149718
959.436	0.0150764
959.514	0.0152243
959.592	0.0149905
959.670	0.0150495
959.748	0.0149748
959.826	0.0149622
959.905	0.0150906
