05/20/2022	16:31:52	Ver.	4.1	UNKNOWN
Optical Delay	639.982744	Delta X		0.078125	Sweeps	1	Scan Rate	0/0
Coordinates	Axis 1	NaN	Axis 2	NaN	Axis 3	NaN	Axis 4	NaN	Axis 5	NaN	Axis 6	0.000000
TX Power	0.000000	RX Power	0.000000

639.983	0.0152276
640.061	0.0152409
640.139	0.0154220
640.217	0.0153584
640.295	0.0152072
640.373	0.0152360
640.451	0.0152490
640.530	0.0152834
640.608	0.0151639
640.686	0.0152048
640.764	0.0153201
640.842	0.0152946
640.920	0.0151985
640.998	0.0152946
641.076	0.0151952
641.155	0.0152985
641.233	0.0153419
641.311	0.0153532
641.389	0.0154594
641.467	0.0153045
641.545	0.0151543
641.623	0.0152244
641.701	0.0151877
641.780	0.0152309
641.858	0.0152174
641.936	0.0151452
642.014	0.0151429
642.092	0.0152410
642.170	0.0152335
642.248	0.0151427
642.326	0.0151724
642.405	0.0151544
642.483	0.0150857
642.561	0.0150636
642.639	0.0151763
642.717	0.0151398
642.795	0.0152138
642.873	0.0151281
642.951	0.0150936
643.030	0.0149525
643.108	0.0150305
643.186	0.0152052
643.264	0.0153131
643.342	0.0152197
643.420	0.0152139
643.498	0.0151453
643.576	0.0153336
643.655	0.0151285
643.733	0.0151535
643.811	0.0152190
643.889	0.0152087
643.967	0.0153713
644.045	0.0152282
644.123	0.0151535
644.201	0.0153352
644.280	0.0152766
644.358	0.0151196
644.436	0.0152539
644.514	0.0151305
644.592	0.0150438
644.670	0.0152309
644.748	0.0150954
644.826	0.0151745
644.905	0.0152183
644.983	0.0152527
645.061	0.0152295
645.139	0.0151923
645.217	0.0152122
645.295	0.0151585
645.373	0.0151781
645.451	0.0152664
645.530	0.0151993
645.608	0.0151987
645.686	0.0152721
645.764	0.0151721
645.842	0.0151436
645.920	0.0151790
645.998	0.0152155
646.076	0.0150634
646.155	0.0152145
646.233	0.0152583
646.311	0.0151730
646.389	0.0152494
646.467	0.0152417
646.545	0.0151678
646.623	0.0152364
646.701	0.0152158
646.780	0.0152118
646.858	0.0153327
646.936	0.0152302
647.014	0.0153642
647.092	0.0153030
647.170	0.0151041
647.248	0.0151648
647.326	0.0152148
647.405	0.0152214
647.483	0.0151559
647.561	0.0152325
647.639	0.0151933
647.717	0.0152773
647.795	0.0153299
647.873	0.0151990
647.951	0.0152480
648.030	0.0153098
648.108	0.0152576
648.186	0.0152019
648.264	0.0153161
648.342	0.0152684
648.420	0.0153020
648.498	0.0151704
648.576	0.0152586
648.655	0.0152676
648.733	0.0152454
648.811	0.0150970
648.889	0.0150644
648.967	0.0151322
649.045	0.0152186
649.123	0.0152027
649.201	0.0151997
649.280	0.0151963
649.358	0.0151926
649.436	0.0152346
649.514	0.0152693
649.592	0.0151084
649.670	0.0152303
649.748	0.0152130
649.826	0.0153606
649.905	0.0152710
649.983	0.0151791
650.061	0.0152725
650.139	0.0150614
650.217	0.0151581
650.295	0.0151715
650.373	0.0151437
650.451	0.0152371
650.530	0.0151765
650.608	0.0151771
650.686	0.0152116
650.764	0.0151583
650.842	0.0151482
650.920	0.0152930
650.998	0.0152142
651.076	0.0152785
651.155	0.0153170
651.233	0.0153745
651.311	0.0153075
651.389	0.0152720
651.467	0.0153491
651.545	0.0153891
651.623	0.0152424
651.701	0.0151192
651.780	0.0152593
651.858	0.0152129
651.936	0.0151557
652.014	0.0152189
652.092	0.0151856
652.170	0.0149393
652.248	0.0151105
652.326	0.0151274
652.405	0.0150552
652.483	0.0151167
652.561	0.0151578
652.639	0.0151776
652.717	0.0152567
652.795	0.0151675
652.873	0.0150898
652.951	0.0152325
653.030	0.0151939
653.108	0.0152617
653.186	0.0152911
653.264	0.0152228
653.342	0.0151236
653.420	0.0152338
653.498	0.0152588
653.576	0.0151983
653.655	0.0152123
653.733	0.0152501
653.811	0.0151960
653.889	0.0152906
653.967	0.0152609
654.045	0.0153269
654.123	0.0151752
654.201	0.0151113
654.280	0.0152132
654.358	0.0152087
654.436	0.0153023
654.514	0.0152620
654.592	0.0152903
654.670	0.0153199
654.748	0.0151754
654.826	0.0152151
654.905	0.0152192
654.983	0.0152515
655.061	0.0152474
655.139	0.0152549
655.217	0.0152557
655.295	0.0152438
655.373	0.0153065
655.451	0.0153083
655.530	0.0152882
655.608	0.0152670
655.686	0.0151911
655.764	0.0153864
655.842	0.0155080
655.920	0.0153177
655.998	0.0152579
656.076	0.0152778
656.155	0.0153371
656.233	0.0152119
656.311	0.0152453
656.389	0.0154311
656.467	0.0153220
656.545	0.0151913
656.623	0.0153671
656.701	0.0152375
656.780	0.0151354
656.858	0.0153268
656.936	0.0153619
657.014	0.0152879
657.092	0.0152699
657.170	0.0152343
657.248	0.0153404
657.326	0.0153258
657.405	0.0152930
657.483	0.0152648
657.561	0.0153870
657.639	0.0153648
657.717	0.0152457
657.795	0.0152264
657.873	0.0152520
657.951	0.0152833
658.030	0.0150269
658.108	0.0151447
658.186	0.0153736
658.264	0.0152529
658.342	0.0152935
658.420	0.0151394
658.498	0.0151829
658.576	0.0152624
658.655	0.0151063
658.733	0.0153543
658.811	0.0153270
658.889	0.0152956
658.967	0.0152451
659.045	0.0152975
659.123	0.0152729
659.201	0.0152769
659.280	0.0153439
659.358	0.0153062
659.436	0.0154310
659.514	0.0152666
659.592	0.0154005
659.670	0.0152571
659.748	0.0153050
659.826	0.0152544
659.905	0.0151853
659.983	0.0150694
660.061	0.0152980
660.139	0.0153762
660.217	0.0153146
660.295	0.0151117
660.373	0.0151671
660.451	0.0151947
660.530	0.0152122
660.608	0.0151723
660.686	0.0151779
660.764	0.0151958
660.842	0.0153493
660.920	0.0153092
660.998	0.0152382
661.076	0.0153649
661.155	0.0152612
661.233	0.0152806
661.311	0.0153968
661.389	0.0153856
661.467	0.0153651
661.545	0.0153829
661.623	0.0154293
661.701	0.0153474
661.780	0.0154301
661.858	0.0154432
661.936	0.0152567
662.014	0.0152915
662.092	0.0152483
662.170	0.0153445
662.248	0.0151958
662.326	0.0151490
662.405	0.0152462
662.483	0.0150906
662.561	0.0151460
662.639	0.0152404
662.717	0.0151134
662.795	0.0152220
662.873	0.0152326
662.951	0.0152087
663.030	0.0152657
663.108	0.0150819
663.186	0.0153689
663.264	0.0151888
663.342	0.0151598
663.420	0.0152625
663.498	0.0152756
663.576	0.0153223
663.655	0.0151073
663.733	0.0152402
663.811	0.0151154
663.889	0.0151829
663.967	0.0153135
664.045	0.0151939
664.123	0.0151579
664.201	0.0152816
664.280	0.0152287
664.358	0.0153848
664.436	0.0153315
664.514	0.0151898
664.592	0.0150584
664.670	0.0151215
664.748	0.0152225
664.826	0.0151638
664.905	0.0150847
664.983	0.0152997
665.061	0.0152576
665.139	0.0152370
665.217	0.0151471
665.295	0.0151588
665.373	0.0153798
665.451	0.0150620
665.530	0.0150442
665.608	0.0152292
665.686	0.0152238
665.764	0.0153984
665.842	0.0153191
665.920	0.0153471
665.998	0.0152449
666.076	0.0152684
666.155	0.0153429
666.233	0.0151172
666.311	0.0152319
666.389	0.0153703
666.467	0.0153491
666.545	0.0152480
666.623	0.0152451
666.701	0.0153557
666.780	0.0152956
666.858	0.0152317
666.936	0.0154058
667.014	0.0152779
667.092	0.0153497
667.170	0.0152415
667.248	0.0152446
667.326	0.0153306
667.405	0.0152090
667.483	0.0151028
667.561	0.0152357
667.639	0.0151775
667.717	0.0150833
667.795	0.0150519
667.873	0.0149740
667.951	0.0151514
668.030	0.0150259
668.108	0.0152770
668.186	0.0151257
668.264	0.0150137
668.342	0.0150987
668.420	0.0152856
668.498	0.0151321
668.576	0.0150670
668.655	0.0151894
668.733	0.0150970
668.811	0.0153775
668.889	0.0152720
668.967	0.0151384
669.045	0.0152610
669.123	0.0150807
669.201	0.0150241
669.280	0.0151196
669.358	0.0149930
669.436	0.0151162
669.514	0.0151815
669.592	0.0150980
669.670	0.0153104
669.748	0.0152626
669.826	0.0151694
669.905	0.0155096
669.983	0.0154454
670.061	0.0154672
670.139	0.0153902
670.217	0.0153606
670.295	0.0154587
670.373	0.0154874
670.451	0.0155140
670.530	0.0153641
670.608	0.0155103
670.686	0.0153452
670.764	0.0154346
670.842	0.0152969
670.920	0.0151880
670.998	0.0152170
671.076	0.0151148
671.155	0.0152724
671.233	0.0151434
671.311	0.0151160
671.389	0.0150820
671.467	0.0152168
671.545	0.0151848
671.623	0.0152103
671.701	0.0151466
671.780	0.0153539
671.858	0.0153719
671.936	0.0152390
672.014	0.0152239
672.092	0.0154280
672.170	0.0154968
672.248	0.0152662
672.326	0.0153430
672.405	0.0154529
672.483	0.0154655
672.561	0.0154952
672.639	0.0154933
672.717	0.0155566
672.795	0.0154934
672.873	0.0155370
672.951	0.0155491
673.030	0.0154135
673.108	0.0155975
673.186	0.0156139
673.264	0.0154845
673.342	0.0153168
673.420	0.0152477
673.498	0.0151131
673.576	0.0150623
673.655	0.0150146
673.733	0.0149059
673.811	0.0149762
673.889	0.0149624
673.967	0.0148396
674.045	0.0149019
674.123	0.0149329
674.201	0.0149315
674.280	0.0149303
674.358	0.0149857
674.436	0.0148920
674.514	0.0150606
674.592	0.0151369
674.670	0.0152547
674.748	0.0154214
674.826	0.0155167
674.905	0.0156017
674.983	0.0157107
675.061	0.0155793
675.139	0.0159504
675.217	0.0159840
675.295	0.0159773
675.373	0.0161922
675.451	0.0160815
675.530	0.0160531
675.608	0.0158192
675.686	0.0160538
675.764	0.0159811
675.842	0.0157161
675.920	0.0157300
675.998	0.0155463
676.076	0.0154151
676.155	0.0153051
676.233	0.0151460
676.311	0.0149673
676.389	0.0147192
676.467	0.0147676
676.545	0.0146271
676.623	0.0145321
676.701	0.0145084
676.780	0.0144000
676.858	0.0143932
676.936	0.0144058
677.014	0.0144064
677.092	0.0143864
677.170	0.0145366
677.248	0.0147092
677.326	0.0147192
677.405	0.0147678
677.483	0.0149582
677.561	0.0149384
677.639	0.0151849
677.717	0.0152359
677.795	0.0154988
677.873	0.0156253
677.951	0.0156764
678.030	0.0157874
678.108	0.0158242
678.186	0.0159790
678.264	0.0160023
678.342	0.0160202
678.420	0.0161583
678.498	0.0160249
678.576	0.0160925
678.655	0.0159624
678.733	0.0158788
678.811	0.0158340
678.889	0.0157664
678.967	0.0157373
679.045	0.0154769
679.123	0.0153653
679.201	0.0152200
679.280	0.0152946
679.358	0.0150604
679.436	0.0149973
679.514	0.0149075
679.592	0.0146966
679.670	0.0146870
679.748	0.0147024
679.826	0.0146890
679.905	0.0146958
679.983	0.0146741
680.061	0.0146085
680.139	0.0145607
680.217	0.0143713
680.295	0.0146506
680.373	0.0146352
680.451	0.0146229
680.530	0.0147102
680.608	0.0147132
680.686	0.0150414
680.764	0.0151135
680.842	0.0150813
680.920	0.0152332
680.998	0.0153353
681.076	0.0153589
681.155	0.0156234
681.233	0.0156558
681.311	0.0156362
681.389	0.0156609
681.467	0.0156846
681.545	0.0155274
681.623	0.0157938
681.701	0.0158974
681.780	0.0157305
681.858	0.0156151
681.936	0.0157602
682.014	0.0157742
682.092	0.0157947
682.170	0.0158753
682.248	0.0157005
682.326	0.0157391
682.405	0.0154934
682.483	0.0154680
682.561	0.0156252
682.639	0.0153412
682.717	0.0154913
682.795	0.0153502
682.873	0.0153722
682.951	0.0153854
683.030	0.0152131
683.108	0.0152422
683.186	0.0153070
683.264	0.0151648
683.342	0.0151311
683.420	0.0151367
683.498	0.0150483
683.576	0.0149786
683.655	0.0149090
683.733	0.0150045
683.811	0.0147417
683.889	0.0148478
683.967	0.0148113
684.045	0.0147665
684.123	0.0149586
684.201	0.0148964
684.280	0.0147357
684.358	0.0149179
684.436	0.0149776
684.514	0.0150135
684.592	0.0150363
684.670	0.0152326
684.748	0.0152222
684.826	0.0153537
684.905	0.0154987
684.983	0.0155725
685.061	0.0158009
685.139	0.0156143
685.217	0.0158006
685.295	0.0158615
685.373	0.0158636
685.451	0.0158585
685.530	0.0159823
685.608	0.0158922
685.686	0.0156294
685.764	0.0155609
685.842	0.0156351
685.920	0.0154010
685.998	0.0151708
686.076	0.0151220
686.155	0.0150156
686.233	0.0147539
686.311	0.0146056
686.389	0.0145160
686.467	0.0145136
686.545	0.0143850
686.623	0.0142941
686.701	0.0143145
686.780	0.0142375
686.858	0.0142705
686.936	0.0144413
687.014	0.0145083
687.092	0.0144614
687.170	0.0146365
687.248	0.0148647
687.326	0.0149624
687.405	0.0152628
687.483	0.0153154
687.561	0.0154677
687.639	0.0155922
687.717	0.0156530
687.795	0.0157050
687.873	0.0158881
687.951	0.0158540
688.030	0.0161438
688.108	0.0160305
688.186	0.0158575
688.264	0.0159003
688.342	0.0158278
688.420	0.0157982
688.498	0.0157682
688.576	0.0159340
688.655	0.0160169
688.733	0.0157578
688.811	0.0159693
688.889	0.0160734
688.967	0.0159998
689.045	0.0158582
689.123	0.0157933
689.201	0.0157393
689.280	0.0157494
689.358	0.0155554
689.436	0.0155319
689.514	0.0152925
689.592	0.0153654
689.670	0.0151542
689.748	0.0150555
689.826	0.0150991
689.905	0.0149409
689.983	0.0148342
690.061	0.0149201
690.139	0.0149666
690.217	0.0149562
690.295	0.0149651
690.373	0.0150286
690.451	0.0149998
690.530	0.0149627
690.608	0.0149634
690.686	0.0148528
690.764	0.0150247
690.842	0.0149159
690.920	0.0146914
690.998	0.0146261
691.076	0.0144476
691.155	0.0144087
691.233	0.0144486
691.311	0.0144176
691.389	0.0142242
691.467	0.0140948
691.545	0.0140723
691.623	0.0139689
691.701	0.0140952
691.780	0.0140134
691.858	0.0140865
691.936	0.0140881
692.014	0.0141905
692.092	0.0144153
692.170	0.0144671
692.248	0.0145472
692.326	0.0149632
692.405	0.0149564
692.483	0.0150426
692.561	0.0152966
692.639	0.0155261
692.717	0.0158503
692.795	0.0160262
692.873	0.0163245
692.951	0.0165304
693.030	0.0166866
693.108	0.0169166
693.186	0.0169225
693.264	0.0173211
693.342	0.0173638
693.420	0.0176311
693.498	0.0175945
693.576	0.0176481
693.655	0.0176000
693.733	0.0175314
693.811	0.0174598
693.889	0.0172607
693.967	0.0170515
694.045	0.0168561
694.123	0.0167901
694.201	0.0163536
694.280	0.0161649
694.358	0.0158521
694.436	0.0155869
694.514	0.0152124
694.592	0.0149993
694.670	0.0146128
694.748	0.0143655
694.826	0.0140482
694.905	0.0136656
694.983	0.0134723
695.061	0.0130746
695.139	0.0127057
695.217	0.0126136
695.295	0.0124504
695.373	0.0122515
695.451	0.0123027
695.530	0.0120863
695.608	0.0121084
695.686	0.0120502
695.764	0.0122359
695.842	0.0125962
695.920	0.0127881
695.998	0.0130739
696.076	0.0136000
696.155	0.0139877
696.233	0.0144225
696.311	0.0149821
696.389	0.0154908
696.467	0.0160075
696.545	0.0164986
696.623	0.0169502
696.701	0.0173929
696.780	0.0177889
696.858	0.0179707
696.936	0.0181915
697.014	0.0181667
697.092	0.0183260
697.170	0.0181329
697.248	0.0180866
697.326	0.0177973
697.405	0.0173470
697.483	0.0170009
697.561	0.0167713
697.639	0.0162733
697.717	0.0159730
697.795	0.0156370
697.873	0.0150620
697.951	0.0147371
698.030	0.0143409
698.108	0.0142667
698.186	0.0139341
698.264	0.0138903
698.342	0.0136865
698.420	0.0137739
698.498	0.0138396
698.576	0.0139845
698.655	0.0140154
698.733	0.0142294
698.811	0.0144378
698.889	0.0143907
698.967	0.0145635
699.045	0.0147659
699.123	0.0149136
699.201	0.0146999
699.280	0.0148796
699.358	0.0149053
699.436	0.0149969
699.514	0.0149393
699.592	0.0152662
699.670	0.0153055
699.748	0.0153506
699.826	0.0153481
699.905	0.0156152
699.983	0.0157187
700.061	0.0157448
700.139	0.0158385
700.217	0.0159370
700.295	0.0158354
700.373	0.0160319
700.451	0.0158924
700.530	0.0158121
700.608	0.0155032
700.686	0.0154582
700.764	0.0153860
700.842	0.0153162
700.920	0.0152314
700.998	0.0149687
701.076	0.0147554
701.155	0.0148803
701.233	0.0147829
701.311	0.0147815
701.389	0.0147552
701.467	0.0147435
701.545	0.0147195
701.623	0.0147433
701.701	0.0146462
701.780	0.0148915
701.858	0.0149593
701.936	0.0149635
702.014	0.0148559
702.092	0.0149305
702.170	0.0150513
702.248	0.0150158
702.326	0.0151707
702.405	0.0150900
702.483	0.0150117
702.561	0.0151656
702.639	0.0154449
702.717	0.0153527
702.795	0.0155283
702.873	0.0156175
702.951	0.0155435
703.030	0.0156595
703.108	0.0156000
703.186	0.0156087
703.264	0.0155782
703.342	0.0155503
703.420	0.0155270
703.498	0.0153525
703.576	0.0153256
703.655	0.0153002
703.733	0.0152037
703.811	0.0151762
703.889	0.0151723
703.967	0.0150339
704.045	0.0149237
704.123	0.0150421
704.201	0.0151218
704.280	0.0150382
704.358	0.0149302
704.436	0.0150291
704.514	0.0149848
704.592	0.0151189
704.670	0.0150277
704.748	0.0151334
704.826	0.0152256
704.905	0.0152005
704.983	0.0153103
705.061	0.0153326
705.139	0.0151975
705.217	0.0152485
705.295	0.0153050
705.373	0.0154805
705.451	0.0152953
705.530	0.0154928
705.608	0.0154388
705.686	0.0155235
705.764	0.0155933
705.842	0.0157014
705.920	0.0158029
705.998	0.0158654
706.076	0.0158919
706.155	0.0158182
706.233	0.0157807
706.311	0.0157247
706.389	0.0157952
706.467	0.0158390
706.545	0.0157094
706.623	0.0157100
706.701	0.0158446
706.780	0.0155994
706.858	0.0156289
706.936	0.0156741
707.014	0.0155122
707.092	0.0154259
707.170	0.0153447
707.248	0.0154717
707.326	0.0153360
707.405	0.0152970
707.483	0.0151518
707.561	0.0151362
707.639	0.0149316
707.717	0.0147166
707.795	0.0145987
707.873	0.0143753
707.951	0.0142487
708.030	0.0140895
708.108	0.0138535
708.186	0.0139013
708.264	0.0139284
708.342	0.0137860
708.420	0.0138961
708.498	0.0139339
708.576	0.0140874
708.655	0.0141981
708.733	0.0143673
708.811	0.0143961
708.889	0.0146442
708.967	0.0146317
709.045	0.0149402
709.123	0.0151157
709.201	0.0154339
709.280	0.0154687
709.358	0.0156100
709.436	0.0155164
709.514	0.0156765
709.592	0.0157553
709.670	0.0158914
709.748	0.0160434
709.826	0.0160063
709.905	0.0162557
709.983	0.0162273
710.061	0.0161447
710.139	0.0162994
710.217	0.0164686
710.295	0.0161440
710.373	0.0164109
710.451	0.0163214
710.530	0.0163491
710.608	0.0162930
710.686	0.0161360
710.764	0.0161965
710.842	0.0159530
710.920	0.0159193
710.998	0.0157204
711.076	0.0155257
711.155	0.0154449
711.233	0.0154774
711.311	0.0152333
711.389	0.0150169
711.467	0.0148911
711.545	0.0147125
711.623	0.0146003
711.701	0.0145310
711.780	0.0145440
711.858	0.0147015
711.936	0.0143825
712.014	0.0145412
712.092	0.0145605
712.170	0.0147322
712.248	0.0147627
712.326	0.0145255
712.405	0.0147791
712.483	0.0149274
712.561	0.0148302
712.639	0.0148064
712.717	0.0147768
712.795	0.0149545
712.873	0.0150147
712.951	0.0150330
713.030	0.0150533
713.108	0.0150297
713.186	0.0150523
713.264	0.0149992
713.342	0.0150838
713.420	0.0152026
713.498	0.0153374
713.576	0.0154258
713.655	0.0155205
713.733	0.0156126
713.811	0.0157259
713.889	0.0157793
713.967	0.0159225
714.045	0.0159322
714.123	0.0158824
714.201	0.0156136
714.280	0.0157293
714.358	0.0156256
714.436	0.0155771
714.514	0.0153909
714.592	0.0153570
714.670	0.0150964
714.748	0.0151339
714.826	0.0149677
714.905	0.0150062
714.983	0.0151482
715.061	0.0149913
715.139	0.0150948
715.217	0.0152525
715.295	0.0152575
715.373	0.0154262
715.451	0.0154700
715.530	0.0154112
715.608	0.0155026
715.686	0.0155193
715.764	0.0154520
715.842	0.0153739
715.920	0.0152440
715.998	0.0151357
716.076	0.0151198
716.155	0.0150042
716.233	0.0149528
716.311	0.0151786
716.389	0.0151485
716.467	0.0150575
716.545	0.0151684
716.623	0.0152686
716.701	0.0152123
716.780	0.0153083
716.858	0.0153651
716.936	0.0154918
717.014	0.0154468
717.092	0.0153922
717.170	0.0155779
717.248	0.0155424
717.326	0.0154478
717.405	0.0153485
717.483	0.0155582
717.561	0.0153356
717.639	0.0151936
717.717	0.0153575
717.795	0.0151318
717.873	0.0151909
717.951	0.0151628
718.030	0.0150534
718.108	0.0151534
718.186	0.0151405
718.264	0.0149426
718.342	0.0150491
718.420	0.0149007
718.498	0.0148998
718.576	0.0148000
718.655	0.0147607
718.733	0.0145913
718.811	0.0144530
718.889	0.0144995
718.967	0.0143995
719.045	0.0144296
719.123	0.0144324
719.201	0.0145373
719.280	0.0144870
719.358	0.0146146
719.436	0.0147890
719.514	0.0151220
719.592	0.0152186
719.670	0.0154747
719.748	0.0155499
719.826	0.0157507
719.905	0.0159420
719.983	0.0159007
720.061	0.0160236
720.139	0.0160365
720.217	0.0161098
720.295	0.0159713
720.373	0.0160319
720.451	0.0158772
720.530	0.0157871
720.608	0.0156296
720.686	0.0155332
720.764	0.0152921
720.842	0.0151415
720.920	0.0153179
720.998	0.0152843
721.076	0.0151241
721.155	0.0149683
721.233	0.0149139
721.311	0.0149363
721.389	0.0149251
721.467	0.0149242
721.545	0.0148631
721.623	0.0148894
721.701	0.0148604
721.780	0.0148635
721.858	0.0147389
721.936	0.0149635
722.014	0.0150070
722.092	0.0151360
722.170	0.0151466
722.248	0.0152866
722.326	0.0152028
722.405	0.0154816
722.483	0.0155474
722.561	0.0154926
722.639	0.0155142
722.717	0.0155718
722.795	0.0153581
722.873	0.0151871
722.951	0.0152958
723.030	0.0150658
723.108	0.0149497
723.186	0.0147690
723.264	0.0146786
723.342	0.0146403
723.420	0.0142683
723.498	0.0142818
723.576	0.0142158
723.655	0.0140751
723.733	0.0140830
723.811	0.0143342
723.889	0.0143776
723.967	0.0144514
724.045	0.0145760
724.123	0.0146266
724.201	0.0147931
724.280	0.0150021
724.358	0.0149627
724.436	0.0150443
724.514	0.0151447
724.592	0.0152364
724.670	0.0153626
724.748	0.0152926
724.826	0.0153860
724.905	0.0152799
724.983	0.0154123
725.061	0.0151733
725.139	0.0152031
725.217	0.0153471
725.295	0.0152427
725.373	0.0152501
725.451	0.0153568
725.530	0.0155272
725.608	0.0155619
725.686	0.0156544
725.764	0.0155401
725.842	0.0155898
725.920	0.0155737
725.998	0.0155624
726.076	0.0157285
726.155	0.0156453
726.233	0.0157529
726.311	0.0157018
726.389	0.0157279
726.467	0.0155296
726.545	0.0155302
726.623	0.0154986
726.701	0.0156759
726.780	0.0154039
726.858	0.0152625
726.936	0.0152773
727.014	0.0151717
727.092	0.0150679
727.170	0.0149981
727.248	0.0150674
727.326	0.0152029
727.405	0.0150838
727.483	0.0150266
727.561	0.0149570
727.639	0.0150877
727.717	0.0150613
727.795	0.0150677
727.873	0.0149049
727.951	0.0148304
728.030	0.0148919
728.108	0.0149273
728.186	0.0147826
728.264	0.0147251
728.342	0.0146315
728.420	0.0145905
728.498	0.0145590
728.576	0.0144576
728.655	0.0146223
728.733	0.0146409
728.811	0.0146609
728.889	0.0147857
728.967	0.0147423
729.045	0.0149966
729.123	0.0151488
729.201	0.0151717
729.280	0.0153030
729.358	0.0155350
729.436	0.0156891
729.514	0.0157651
729.592	0.0158750
729.670	0.0159285
729.748	0.0159359
729.826	0.0160598
729.905	0.0158401
729.983	0.0158719
730.061	0.0157926
730.139	0.0157259
730.217	0.0156102
730.295	0.0155012
730.373	0.0154626
730.451	0.0152469
730.530	0.0151495
730.608	0.0150761
730.686	0.0150208
730.764	0.0150533
730.842	0.0148564
730.920	0.0148161
730.998	0.0150043
731.076	0.0148498
731.155	0.0149150
731.233	0.0149212
731.311	0.0150448
731.389	0.0150190
731.467	0.0151330
731.545	0.0150660
731.623	0.0151202
731.701	0.0151608
731.780	0.0153209
731.858	0.0154173
731.936	0.0154271
732.014	0.0155665
732.092	0.0155360
732.170	0.0155719
732.248	0.0155374
732.326	0.0154566
732.405	0.0154868
732.483	0.0155400
732.561	0.0152279
732.639	0.0151608
732.717	0.0152709
732.795	0.0152175
732.873	0.0151017
732.951	0.0152657
733.030	0.0152532
733.108	0.0152339
733.186	0.0153214
733.264	0.0153960
733.342	0.0154399
733.420	0.0154272
733.498	0.0156496
733.576	0.0155804
733.655	0.0158992
733.733	0.0158288
733.811	0.0158092
733.889	0.0158614
733.967	0.0159049
734.045	0.0156851
734.123	0.0156913
734.201	0.0156167
734.280	0.0155686
734.358	0.0155161
734.436	0.0154318
734.514	0.0152597
734.592	0.0151195
734.670	0.0150350
734.748	0.0151281
734.826	0.0149601
734.905	0.0148876
734.983	0.0149946
735.061	0.0149989
735.139	0.0149651
735.217	0.0147961
735.295	0.0148565
735.373	0.0148637
735.451	0.0149262
735.530	0.0148130
735.608	0.0147762
735.686	0.0148669
735.764	0.0147581
735.842	0.0147426
735.920	0.0148257
735.998	0.0148110
736.076	0.0148712
736.155	0.0149625
736.233	0.0150413
736.311	0.0152356
736.389	0.0151065
736.467	0.0152949
736.545	0.0155015
736.623	0.0155387
736.701	0.0154066
736.780	0.0156062
736.858	0.0158126
736.936	0.0158792
737.014	0.0158850
737.092	0.0158370
737.170	0.0158639
737.248	0.0158871
737.326	0.0157742
737.405	0.0157645
737.483	0.0156719
737.561	0.0156132
737.639	0.0156743
737.717	0.0156638
737.795	0.0157191
737.873	0.0155355
737.951	0.0156352
738.030	0.0156586
738.108	0.0156512
738.186	0.0157477
738.264	0.0156595
738.342	0.0157296
738.420	0.0155747
738.498	0.0154778
738.576	0.0155886
738.655	0.0156216
738.733	0.0155009
738.811	0.0154939
738.889	0.0154422
738.967	0.0152849
739.045	0.0151295
739.123	0.0152010
739.201	0.0150557
739.280	0.0149908
739.358	0.0149306
739.436	0.0147063
739.514	0.0147842
739.592	0.0146162
739.670	0.0146472
739.748	0.0147433
739.826	0.0145739
739.905	0.0146144
739.983	0.0147207
740.061	0.0148018
740.139	0.0147585
740.217	0.0146629
740.295	0.0147820
740.373	0.0146838
740.451	0.0147738
740.530	0.0149310
740.608	0.0149952
740.686	0.0150143
740.764	0.0151267
740.842	0.0151570
740.920	0.0152528
740.998	0.0153182
741.076	0.0153017
741.155	0.0154193
741.233	0.0155451
741.311	0.0155367
741.389	0.0155929
741.467	0.0157298
741.545	0.0156809
741.623	0.0156575
741.701	0.0154462
741.780	0.0154285
741.858	0.0153741
741.936	0.0153614
742.014	0.0150671
742.092	0.0151039
742.170	0.0150760
742.248	0.0149431
742.326	0.0148552
742.405	0.0149088
742.483	0.0149274
742.561	0.0150227
742.639	0.0147775
742.717	0.0147089
742.795	0.0150353
742.873	0.0149845
742.951	0.0148875
743.030	0.0150089
743.108	0.0151276
743.186	0.0152038
743.264	0.0151190
743.342	0.0152227
743.420	0.0152583
743.498	0.0149773
743.576	0.0151550
743.655	0.0151981
743.733	0.0152023
743.811	0.0151620
743.889	0.0152048
743.967	0.0152009
744.045	0.0149990
744.123	0.0150928
744.201	0.0150488
744.280	0.0150475
744.358	0.0151019
744.436	0.0151688
744.514	0.0152309
744.592	0.0150396
744.670	0.0152457
744.748	0.0153283
744.826	0.0153693
744.905	0.0152207
744.983	0.0152905
745.061	0.0152053
745.139	0.0153925
745.217	0.0155052
745.295	0.0154636
745.373	0.0154000
745.451	0.0152816
745.530	0.0155000
745.608	0.0153146
745.686	0.0153182
745.764	0.0153462
745.842	0.0153698
745.920	0.0154411
745.998	0.0153246
746.076	0.0153659
746.155	0.0152991
746.233	0.0152592
746.311	0.0152689
746.389	0.0149698
746.467	0.0150085
746.545	0.0151113
746.623	0.0148942
746.701	0.0148267
746.780	0.0147556
746.858	0.0145778
746.936	0.0146120
747.014	0.0146664
747.092	0.0147949
747.170	0.0147875
747.248	0.0148618
747.326	0.0149171
747.405	0.0149165
747.483	0.0149401
747.561	0.0150805
747.639	0.0152345
747.717	0.0153386
747.795	0.0152515
747.873	0.0153873
747.951	0.0154697
748.030	0.0154041
748.108	0.0155700
748.186	0.0154821
748.264	0.0153861
748.342	0.0154874
748.420	0.0154903
748.498	0.0154562
748.576	0.0153370
748.655	0.0154256
748.733	0.0152406
748.811	0.0154065
748.889	0.0155416
748.967	0.0153194
749.045	0.0153779
749.123	0.0153681
749.201	0.0152731
749.280	0.0153500
749.358	0.0154044
749.436	0.0153591
749.514	0.0154515
749.592	0.0151696
749.670	0.0153222
749.748	0.0152915
749.826	0.0150217
749.905	0.0152256
749.983	0.0153462
750.061	0.0153302
750.139	0.0152475
750.217	0.0152788
750.295	0.0152953
750.373	0.0153767
750.451	0.0153000
750.530	0.0153624
750.608	0.0156126
750.686	0.0153540
750.764	0.0154106
750.842	0.0153903
750.920	0.0153892
750.998	0.0153706
751.076	0.0153236
751.155	0.0150787
751.233	0.0150147
751.311	0.0151147
751.389	0.0150158
751.467	0.0149509
751.545	0.0149046
751.623	0.0150027
751.701	0.0149468
751.780	0.0149623
751.858	0.0151018
751.936	0.0150926
752.014	0.0151339
752.092	0.0151269
752.170	0.0152251
752.248	0.0152523
752.326	0.0152322
752.405	0.0153992
752.483	0.0154354
752.561	0.0153119
752.639	0.0154100
752.717	0.0154185
752.795	0.0152313
752.873	0.0153709
752.951	0.0153904
753.030	0.0153191
753.108	0.0153469
753.186	0.0154010
753.264	0.0153999
753.342	0.0153900
753.420	0.0155068
753.498	0.0155175
753.576	0.0153719
753.655	0.0153690
753.733	0.0153172
753.811	0.0152592
753.889	0.0153125
753.967	0.0152426
754.045	0.0151352
754.123	0.0152386
754.201	0.0152145
754.280	0.0149891
754.358	0.0151267
754.436	0.0151122
754.514	0.0151517
754.592	0.0151086
754.670	0.0151557
754.748	0.0151283
754.826	0.0150758
754.905	0.0151637
754.983	0.0153279
755.061	0.0151834
755.139	0.0152179
755.217	0.0154689
755.295	0.0153868
755.373	0.0154064
755.451	0.0155328
755.530	0.0155179
755.608	0.0154031
755.686	0.0155231
755.764	0.0155040
755.842	0.0155071
755.920	0.0155469
755.998	0.0155590
756.076	0.0154731
756.155	0.0154165
756.233	0.0154131
756.311	0.0155779
756.389	0.0154388
756.467	0.0153348
756.545	0.0152718
756.623	0.0153710
756.701	0.0153983
756.780	0.0154269
756.858	0.0154221
756.936	0.0156269
757.014	0.0154857
757.092	0.0156149
757.170	0.0154370
757.248	0.0153797
757.326	0.0153684
757.405	0.0155462
757.483	0.0154883
757.561	0.0153880
757.639	0.0153510
757.717	0.0153577
757.795	0.0153153
757.873	0.0153992
757.951	0.0152654
758.030	0.0152738
758.108	0.0151782
758.186	0.0151307
758.264	0.0152592
758.342	0.0152704
758.420	0.0151482
758.498	0.0149905
758.576	0.0150205
758.655	0.0150001
758.733	0.0151537
758.811	0.0152158
758.889	0.0151616
758.967	0.0151986
759.045	0.0150999
759.123	0.0153313
759.201	0.0152403
759.280	0.0155047
759.358	0.0153996
759.436	0.0154523
759.514	0.0155000
759.592	0.0155077
759.670	0.0156004
759.748	0.0157005
759.826	0.0156841
759.905	0.0155699
759.983	0.0155800
760.061	0.0155391
760.139	0.0156210
760.217	0.0154013
760.295	0.0154275
760.373	0.0153812
760.451	0.0154106
760.530	0.0152662
760.608	0.0151524
760.686	0.0150810
760.764	0.0150803
760.842	0.0152454
760.920	0.0151933
760.998	0.0152457
761.076	0.0153860
761.155	0.0151898
761.233	0.0152357
761.311	0.0152892
761.389	0.0154041
761.467	0.0152547
761.545	0.0154964
761.623	0.0152264
761.701	0.0152772
761.780	0.0153622
761.858	0.0152603
761.936	0.0152398
762.014	0.0152051
762.092	0.0152242
762.170	0.0153040
762.248	0.0151820
762.326	0.0151466
762.405	0.0151272
762.483	0.0152550
762.561	0.0151459
762.639	0.0151205
762.717	0.0152580
762.795	0.0151883
762.873	0.0151270
762.951	0.0152176
763.030	0.0152694
763.108	0.0152434
763.186	0.0151001
763.264	0.0151473
763.342	0.0152223
763.420	0.0153423
763.498	0.0152052
763.576	0.0150537
763.655	0.0153448
763.733	0.0151237
763.811	0.0151154
763.889	0.0151132
763.967	0.0150709
764.045	0.0152087
764.123	0.0151009
764.201	0.0150325
764.280	0.0151074
764.358	0.0151316
764.436	0.0151608
764.514	0.0150803
764.592	0.0151460
764.670	0.0151142
764.748	0.0153114
764.826	0.0152178
764.905	0.0150738
764.983	0.0150499
765.061	0.0150536
765.139	0.0150071
765.217	0.0150369
765.295	0.0150614
765.373	0.0149902
765.451	0.0150341
765.530	0.0149860
765.608	0.0150489
765.686	0.0151640
765.764	0.0151274
765.842	0.0150884
765.920	0.0151503
765.998	0.0150472
766.076	0.0152349
766.155	0.0151822
766.233	0.0151997
766.311	0.0152364
766.389	0.0152038
766.467	0.0151462
766.545	0.0151797
766.623	0.0152087
766.701	0.0150716
766.780	0.0151514
766.858	0.0153248
766.936	0.0152738
767.014	0.0151412
767.092	0.0150800
767.170	0.0152041
767.248	0.0152422
767.326	0.0152492
767.405	0.0152521
767.483	0.0153613
767.561	0.0152213
767.639	0.0151945
767.717	0.0151794
767.795	0.0151913
767.873	0.0152744
767.951	0.0150465
768.030	0.0150775
768.108	0.0150527
768.186	0.0150450
768.264	0.0148518
768.342	0.0149709
768.420	0.0150474
768.498	0.0149691
768.576	0.0150211
768.655	0.0150592
768.733	0.0150951
768.811	0.0152030
768.889	0.0153857
768.967	0.0152487
769.045	0.0151566
769.123	0.0152254
769.201	0.0153015
769.280	0.0152953
769.358	0.0153555
769.436	0.0154086
769.514	0.0153281
769.592	0.0154276
769.670	0.0152362
769.748	0.0152994
769.826	0.0152106
769.905	0.0152721
769.983	0.0151766
770.061	0.0151029
770.139	0.0152661
770.217	0.0151849
770.295	0.0150595
770.373	0.0149080
770.451	0.0149493
770.530	0.0148906
770.608	0.0150412
770.686	0.0149227
770.764	0.0149267
770.842	0.0149902
770.920	0.0150283
770.998	0.0150180
771.076	0.0151299
771.155	0.0150344
771.233	0.0150545
771.311	0.0151614
771.389	0.0152543
771.467	0.0150845
771.545	0.0151543
771.623	0.0153664
771.701	0.0152459
771.780	0.0152509
771.858	0.0152056
771.936	0.0151187
772.014	0.0154989
772.092	0.0154903
772.170	0.0153088
772.248	0.0153601
772.326	0.0152219
772.405	0.0155212
772.483	0.0154279
772.561	0.0152899
772.639	0.0152422
772.717	0.0152974
772.795	0.0153653
772.873	0.0152503
772.951	0.0152386
773.030	0.0150303
773.108	0.0151438
773.186	0.0151194
773.264	0.0151025
773.342	0.0150539
773.420	0.0150304
773.498	0.0150062
773.576	0.0149124
773.655	0.0150190
773.733	0.0150191
773.811	0.0150166
773.889	0.0151595
773.967	0.0151156
774.045	0.0152187
774.123	0.0152416
774.201	0.0152012
774.280	0.0151881
774.358	0.0153195
774.436	0.0153932
774.514	0.0153294
774.592	0.0152832
774.670	0.0152325
774.748	0.0152835
774.826	0.0151791
774.905	0.0152652
774.983	0.0152294
775.061	0.0152473
775.139	0.0152418
775.217	0.0152869
775.295	0.0153265
775.373	0.0153029
775.451	0.0153954
775.530	0.0152522
775.608	0.0152860
775.686	0.0154753
775.764	0.0153322
775.842	0.0153051
775.920	0.0153371
775.998	0.0153712
776.076	0.0156004
776.155	0.0154555
776.233	0.0152188
776.311	0.0153426
776.389	0.0152784
776.467	0.0153461
776.545	0.0152957
776.623	0.0154108
776.701	0.0153564
776.780	0.0153094
776.858	0.0153584
776.936	0.0153550
777.014	0.0152054
777.092	0.0153761
777.170	0.0152647
777.248	0.0151672
777.326	0.0153125
777.405	0.0152928
777.483	0.0153852
777.561	0.0153168
777.639	0.0152769
777.717	0.0152794
777.795	0.0152853
777.873	0.0152253
777.951	0.0153187
778.030	0.0152794
778.108	0.0152712
778.186	0.0152316
778.264	0.0151564
778.342	0.0152213
778.420	0.0152726
778.498	0.0153257
778.576	0.0152079
778.655	0.0153002
778.733	0.0152419
778.811	0.0153756
778.889	0.0152359
778.967	0.0154132
779.045	0.0153362
779.123	0.0153851
779.201	0.0154859
779.280	0.0154252
779.358	0.0154828
779.436	0.0154084
779.514	0.0154303
779.592	0.0154231
779.670	0.0153010
779.748	0.0154838
779.826	0.0154008
779.905	0.0154562
779.983	0.0153675
780.061	0.0153329
780.139	0.0153851
780.217	0.0154024
780.295	0.0152773
780.373	0.0153365
780.451	0.0153880
780.530	0.0153473
780.608	0.0153383
780.686	0.0152843
780.764	0.0151595
780.842	0.0152757
780.920	0.0152246
780.998	0.0152038
781.076	0.0150056
781.155	0.0151112
781.233	0.0150706
781.311	0.0150635
781.389	0.0150471
781.467	0.0151334
781.545	0.0150854
781.623	0.0152341
781.701	0.0152640
781.780	0.0152013
781.858	0.0153208
781.936	0.0152176
782.014	0.0152426
782.092	0.0153693
782.170	0.0153673
782.248	0.0153770
782.326	0.0153846
782.405	0.0152741
782.483	0.0152057
782.561	0.0153537
782.639	0.0154105
782.717	0.0153049
782.795	0.0152505
782.873	0.0153603
782.951	0.0153817
783.030	0.0152490
783.108	0.0152068
783.186	0.0151698
783.264	0.0152662
783.342	0.0151498
783.420	0.0150602
783.498	0.0150865
783.576	0.0152001
783.655	0.0150163
783.733	0.0151805
783.811	0.0151238
783.889	0.0152291
783.967	0.0151824
784.045	0.0151386
784.123	0.0152082
784.201	0.0152473
784.280	0.0151518
784.358	0.0151846
784.436	0.0151498
784.514	0.0152113
784.592	0.0151798
784.670	0.0150634
784.748	0.0150677
784.826	0.0149980
784.905	0.0150584
784.983	0.0150906
785.061	0.0150652
785.139	0.0149953
785.217	0.0150187
785.295	0.0151118
785.373	0.0150102
785.451	0.0150710
785.530	0.0153400
785.608	0.0151035
785.686	0.0150968
785.764	0.0151626
785.842	0.0152412
785.920	0.0152317
785.998	0.0152634
786.076	0.0152875
786.155	0.0153224
786.233	0.0151456
786.311	0.0153207
786.389	0.0152534
786.467	0.0152500
786.545	0.0151640
786.623	0.0152103
786.701	0.0153170
786.780	0.0151934
786.858	0.0150654
786.936	0.0153291
787.014	0.0152343
787.092	0.0151299
787.170	0.0151450
787.248	0.0152346
787.326	0.0151387
787.405	0.0151501
787.483	0.0151257
787.561	0.0151791
787.639	0.0151203
787.717	0.0151437
787.795	0.0149876
787.873	0.0150892
787.951	0.0149526
788.030	0.0150781
788.108	0.0150197
788.186	0.0148840
788.264	0.0150478
788.342	0.0150460
788.420	0.0150137
788.498	0.0149869
788.576	0.0151001
788.655	0.0148499
788.733	0.0148473
788.811	0.0149973
788.889	0.0150616
788.967	0.0149808
789.045	0.0148605
789.123	0.0149560
789.201	0.0148647
789.280	0.0149469
789.358	0.0149455
789.436	0.0149707
789.514	0.0149455
789.592	0.0151471
789.670	0.0152082
789.748	0.0152575
789.826	0.0153226
789.905	0.0153204
789.983	0.0152453
790.061	0.0152358
790.139	0.0153271
790.217	0.0154446
790.295	0.0153944
790.373	0.0153751
790.451	0.0155249
790.530	0.0154760
790.608	0.0153886
790.686	0.0153592
790.764	0.0153607
790.842	0.0153722
790.920	0.0154408
790.998	0.0152630
791.076	0.0152884
791.155	0.0152241
791.233	0.0151510
791.311	0.0148569
791.389	0.0149297
791.467	0.0149009
791.545	0.0147879
791.623	0.0149105
791.701	0.0147974
791.780	0.0147160
791.858	0.0146595
791.936	0.0145058
792.014	0.0146230
792.092	0.0146243
792.170	0.0146508
792.248	0.0147868
792.326	0.0146957
792.405	0.0147555
792.483	0.0149633
792.561	0.0149623
792.639	0.0150151
792.717	0.0150941
792.795	0.0150769
792.873	0.0151157
792.951	0.0151474
793.030	0.0152232
793.108	0.0152606
793.186	0.0154556
793.264	0.0154324
793.342	0.0154234
793.420	0.0153335
793.498	0.0154974
793.576	0.0154113
793.655	0.0154849
793.733	0.0154742
793.811	0.0154886
793.889	0.0156249
793.967	0.0155950
794.045	0.0152969
794.123	0.0154465
794.201	0.0154772
794.280	0.0153976
794.358	0.0152159
794.436	0.0153630
794.514	0.0153268
794.592	0.0151767
794.670	0.0152193
794.748	0.0153127
794.826	0.0151089
794.905	0.0151316
794.983	0.0152025
795.061	0.0149654
795.139	0.0151405
795.217	0.0151299
795.295	0.0150115
795.373	0.0150990
795.451	0.0149974
795.530	0.0150190
795.608	0.0149908
795.686	0.0150007
795.764	0.0151587
795.842	0.0152148
795.920	0.0151443
795.998	0.0152045
796.076	0.0152732
796.155	0.0152495
796.233	0.0152278
796.311	0.0152753
796.389	0.0153312
796.467	0.0154369
796.545	0.0154445
796.623	0.0152614
796.701	0.0152175
796.780	0.0153741
796.858	0.0153369
796.936	0.0152731
797.014	0.0152641
797.092	0.0152070
797.170	0.0152011
797.248	0.0152129
797.326	0.0152296
797.405	0.0151523
797.483	0.0152874
797.561	0.0152039
797.639	0.0150588
797.717	0.0151522
797.795	0.0151758
797.873	0.0151343
797.951	0.0151506
798.030	0.0151302
798.108	0.0151515
798.186	0.0153034
798.264	0.0153865
798.342	0.0151709
798.420	0.0151179
798.498	0.0151696
798.576	0.0151494
798.655	0.0151767
798.733	0.0151112
798.811	0.0151947
798.889	0.0151252
798.967	0.0150661
799.045	0.0150667
799.123	0.0150753
799.201	0.0152024
799.280	0.0152400
799.358	0.0151688
799.436	0.0151537
799.514	0.0151985
799.592	0.0152763
799.670	0.0151936
799.748	0.0151421
799.826	0.0151535
799.905	0.0153195
799.983	0.0151849
800.061	0.0151629
800.139	0.0151717
800.217	0.0151913
800.295	0.0152883
800.373	0.0151242
800.451	0.0153204
800.530	0.0154137
800.608	0.0152176
800.686	0.0152286
800.764	0.0151950
800.842	0.0153050
800.920	0.0152977
800.998	0.0152795
801.076	0.0152953
801.155	0.0152162
801.233	0.0152188
801.311	0.0152517
801.389	0.0152651
801.467	0.0151993
801.545	0.0152155
801.623	0.0152062
801.701	0.0151082
801.780	0.0152368
801.858	0.0154192
801.936	0.0152386
802.014	0.0153723
802.092	0.0153694
802.170	0.0153291
802.248	0.0153186
802.326	0.0153395
802.405	0.0154160
802.483	0.0155253
802.561	0.0155596
802.639	0.0155724
802.717	0.0153997
802.795	0.0154720
802.873	0.0154238
802.951	0.0154611
803.030	0.0154143
803.108	0.0154544
803.186	0.0154336
803.264	0.0153772
803.342	0.0153225
803.420	0.0154250
803.498	0.0152689
803.576	0.0151762
803.655	0.0151231
803.733	0.0150500
803.811	0.0152721
803.889	0.0153149
803.967	0.0151531
804.045	0.0150283
804.123	0.0150577
804.201	0.0151406
804.280	0.0150845
804.358	0.0150536
804.436	0.0150713
804.514	0.0151968
804.592	0.0150680
804.670	0.0151796
804.748	0.0148759
804.826	0.0150922
804.905	0.0150913
804.983	0.0151245
805.061	0.0151723
805.139	0.0151424
805.217	0.0151058
805.295	0.0150842
805.373	0.0150792
805.451	0.0151830
805.530	0.0151395
805.608	0.0150658
805.686	0.0151948
805.764	0.0152053
805.842	0.0153318
805.920	0.0151874
805.998	0.0153120
806.076	0.0154202
806.155	0.0153263
806.233	0.0152329
806.311	0.0152744
806.389	0.0152443
806.467	0.0152786
806.545	0.0153609
806.623	0.0153459
806.701	0.0152701
806.780	0.0152625
806.858	0.0153359
806.936	0.0153111
807.014	0.0152823
807.092	0.0151003
807.170	0.0152747
807.248	0.0151501
807.326	0.0151873
807.405	0.0150807
807.483	0.0151282
807.561	0.0151524
807.639	0.0151532
807.717	0.0150159
807.795	0.0149944
807.873	0.0149963
807.951	0.0151364
808.030	0.0150923
808.108	0.0150107
808.186	0.0150209
808.264	0.0150748
808.342	0.0149730
808.420	0.0150808
808.498	0.0149933
808.576	0.0150880
808.655	0.0150648
808.733	0.0149890
808.811	0.0150131
808.889	0.0150124
808.967	0.0149953
809.045	0.0151785
809.123	0.0152400
809.201	0.0150563
809.280	0.0150610
809.358	0.0151915
809.436	0.0150670
809.514	0.0151270
809.592	0.0151331
809.670	0.0151405
809.748	0.0151349
809.826	0.0151295
809.905	0.0150688
809.983	0.0150655
810.061	0.0152521
810.139	0.0151212
810.217	0.0150510
810.295	0.0150309
810.373	0.0149777
810.451	0.0150397
810.530	0.0150436
810.608	0.0150131
810.686	0.0149840
810.764	0.0150279
810.842	0.0151955
810.920	0.0150953
810.998	0.0151905
811.076	0.0151305
811.155	0.0150858
811.233	0.0151885
811.311	0.0152950
811.389	0.0152519
811.467	0.0151039
811.545	0.0152206
811.623	0.0152450
811.701	0.0153699
811.780	0.0152074
811.858	0.0151450
811.936	0.0150572
812.014	0.0152498
812.092	0.0151326
812.170	0.0151717
812.248	0.0152512
812.326	0.0151489
812.405	0.0152052
812.483	0.0151500
812.561	0.0151140
812.639	0.0151397
812.717	0.0150257
812.795	0.0151553
812.873	0.0150123
812.951	0.0151014
813.030	0.0150576
813.108	0.0151218
813.186	0.0151209
813.264	0.0150166
813.342	0.0151308
813.420	0.0150754
813.498	0.0150249
813.576	0.0151447
813.655	0.0151660
813.733	0.0150948
813.811	0.0149664
813.889	0.0150803
813.967	0.0152887
814.045	0.0151107
814.123	0.0151860
814.201	0.0150591
814.280	0.0150887
814.358	0.0151349
814.436	0.0151237
814.514	0.0153366
814.592	0.0151891
814.670	0.0151578
814.748	0.0151337
814.826	0.0151514
814.905	0.0150999
814.983	0.0151212
815.061	0.0152040
815.139	0.0149966
815.217	0.0151079
815.295	0.0150803
815.373	0.0150334
815.451	0.0150163
815.530	0.0152195
815.608	0.0150658
815.686	0.0151299
815.764	0.0151489
815.842	0.0151194
815.920	0.0152077
815.998	0.0151957
816.076	0.0153300
816.155	0.0152917
816.233	0.0151827
816.311	0.0152921
816.389	0.0152460
816.467	0.0153941
816.545	0.0153117
816.623	0.0152857
816.701	0.0152929
816.780	0.0154088
816.858	0.0153052
816.936	0.0153704
817.014	0.0152892
817.092	0.0153569
817.170	0.0153518
817.248	0.0153047
817.326	0.0151097
817.405	0.0152795
817.483	0.0153718
817.561	0.0153016
817.639	0.0151778
817.717	0.0153612
817.795	0.0153300
817.873	0.0153992
817.951	0.0151733
818.030	0.0153091
818.108	0.0152481
818.186	0.0150780
818.264	0.0151025
818.342	0.0150170
818.420	0.0150745
818.498	0.0151762
818.576	0.0151266
818.655	0.0150917
818.733	0.0150496
818.811	0.0151589
818.889	0.0150916
818.967	0.0151221
819.045	0.0152476
819.123	0.0151763
819.201	0.0152905
819.280	0.0152566
819.358	0.0152908
819.436	0.0152205
819.514	0.0151088
819.592	0.0151865
819.670	0.0152622
819.748	0.0153234
819.826	0.0151439
819.905	0.0152380
819.983	0.0152842
820.061	0.0151870
820.139	0.0152109
820.217	0.0151510
820.295	0.0152088
820.373	0.0150916
820.451	0.0152402
820.530	0.0152785
820.608	0.0150980
820.686	0.0151000
820.764	0.0150903
820.842	0.0153491
820.920	0.0152518
820.998	0.0151900
821.076	0.0151260
821.155	0.0152979
821.233	0.0152206
821.311	0.0152309
821.389	0.0152966
821.467	0.0153571
821.545	0.0153047
821.623	0.0152224
821.701	0.0153742
821.780	0.0152452
821.858	0.0153078
821.936	0.0152810
822.014	0.0153045
822.092	0.0153150
822.170	0.0152536
822.248	0.0153617
822.326	0.0152752
822.405	0.0153040
822.483	0.0152483
822.561	0.0152500
822.639	0.0152587
822.717	0.0153600
822.795	0.0153476
822.873	0.0153287
822.951	0.0152405
823.030	0.0152003
823.108	0.0153497
823.186	0.0152370
823.264	0.0152164
823.342	0.0151856
823.420	0.0152911
823.498	0.0151269
823.576	0.0153271
823.655	0.0151443
823.733	0.0151849
823.811	0.0151273
823.889	0.0150215
823.967	0.0151694
824.045	0.0150837
824.123	0.0149885
824.201	0.0151237
824.280	0.0151347
824.358	0.0150453
824.436	0.0150793
824.514	0.0149437
824.592	0.0152184
824.670	0.0150498
824.748	0.0149762
824.826	0.0150909
824.905	0.0151314
824.983	0.0150818
825.061	0.0151480
825.139	0.0151488
825.217	0.0151488
825.295	0.0151713
825.373	0.0150289
825.451	0.0152008
825.530	0.0151726
825.608	0.0151252
825.686	0.0152222
825.764	0.0152589
825.842	0.0152434
825.920	0.0153895
825.998	0.0153261
826.076	0.0152460
826.155	0.0153583
826.233	0.0153329
826.311	0.0153849
826.389	0.0153623
826.467	0.0154095
826.545	0.0153271
826.623	0.0153027
826.701	0.0152773
826.780	0.0152914
826.858	0.0154372
826.936	0.0152488
827.014	0.0153124
827.092	0.0152572
827.170	0.0154214
827.248	0.0153079
827.326	0.0153596
827.405	0.0153762
827.483	0.0153127
827.561	0.0155627
827.639	0.0153526
827.717	0.0153920
827.795	0.0155315
827.873	0.0153562
827.951	0.0153060
828.030	0.0153278
828.108	0.0153016
828.186	0.0153074
828.264	0.0152873
828.342	0.0153471
828.420	0.0151340
828.498	0.0151736
828.576	0.0152295
828.655	0.0151918
828.733	0.0152799
828.811	0.0152163
828.889	0.0150561
828.967	0.0151781
829.045	0.0150806
829.123	0.0151392
829.201	0.0151785
829.280	0.0151862
829.358	0.0153656
829.436	0.0152082
829.514	0.0153643
829.592	0.0154334
829.670	0.0153061
829.748	0.0154170
829.826	0.0154355
829.905	0.0154053
829.983	0.0152805
830.061	0.0152815
830.139	0.0153558
830.217	0.0153880
830.295	0.0152406
830.373	0.0154675
830.451	0.0154673
830.530	0.0152813
830.608	0.0151631
830.686	0.0153132
830.764	0.0153581
830.842	0.0152290
830.920	0.0153168
830.998	0.0151141
831.076	0.0153246
831.155	0.0153211
831.233	0.0151512
831.311	0.0152567
831.389	0.0151237
831.467	0.0153319
831.545	0.0152977
831.623	0.0152791
831.701	0.0152015
831.780	0.0152694
831.858	0.0152345
831.936	0.0152708
832.014	0.0152543
832.092	0.0152079
832.170	0.0151686
832.248	0.0151929
832.326	0.0152547
832.405	0.0152465
832.483	0.0153072
832.561	0.0152794
832.639	0.0153458
832.717	0.0153372
832.795	0.0152688
832.873	0.0153690
832.951	0.0154099
833.030	0.0152753
833.108	0.0154529
833.186	0.0154101
833.264	0.0153278
833.342	0.0152222
833.420	0.0152704
833.498	0.0153405
833.576	0.0152325
833.655	0.0152596
833.733	0.0152813
833.811	0.0154043
833.889	0.0152479
833.967	0.0152802
834.045	0.0153263
834.123	0.0150330
834.201	0.0151914
834.280	0.0152713
834.358	0.0152414
834.436	0.0152464
834.514	0.0151599
834.592	0.0152152
834.670	0.0153103
834.748	0.0153265
834.826	0.0152566
834.905	0.0153175
834.983	0.0152632
835.061	0.0152615
835.139	0.0154599
835.217	0.0153299
835.295	0.0152420
835.373	0.0153733
835.451	0.0154472
835.530	0.0153076
835.608	0.0153339
835.686	0.0155181
835.764	0.0153855
835.842	0.0152795
835.920	0.0154276
835.998	0.0152251
836.076	0.0153664
836.155	0.0154227
836.233	0.0152967
836.311	0.0153811
836.389	0.0152618
836.467	0.0152988
836.545	0.0154440
836.623	0.0152290
836.701	0.0151686
836.780	0.0152732
836.858	0.0152817
836.936	0.0151904
837.014	0.0151572
837.092	0.0151585
837.170	0.0153399
837.248	0.0152056
837.326	0.0151900
837.405	0.0151463
837.483	0.0153086
837.561	0.0152194
837.639	0.0150819
837.717	0.0152194
837.795	0.0152764
837.873	0.0151363
837.951	0.0152687
838.030	0.0151324
838.108	0.0152549
838.186	0.0151946
838.264	0.0151643
838.342	0.0151627
838.420	0.0151762
838.498	0.0151075
838.576	0.0151456
838.655	0.0153126
838.733	0.0152238
838.811	0.0151352
838.889	0.0151317
838.967	0.0151017
839.045	0.0150990
839.123	0.0152788
839.201	0.0151452
839.280	0.0151591
839.358	0.0152898
839.436	0.0150584
839.514	0.0151058
839.592	0.0151112
839.670	0.0152326
839.748	0.0152023
839.826	0.0150622
839.905	0.0152164
839.983	0.0151374
840.061	0.0151788
840.139	0.0151826
840.217	0.0151105
840.295	0.0151051
840.373	0.0150854
840.451	0.0151045
840.530	0.0151259
840.608	0.0152471
840.686	0.0150523
840.764	0.0150307
840.842	0.0150568
840.920	0.0149876
840.998	0.0151575
841.076	0.0151679
841.155	0.0150884
841.233	0.0150999
841.311	0.0150278
841.389	0.0151035
841.467	0.0152129
841.545	0.0150381
841.623	0.0149528
841.701	0.0152342
841.780	0.0150709
841.858	0.0149397
841.936	0.0149766
842.014	0.0151460
842.092	0.0150539
842.170	0.0149989
842.248	0.0149675
842.326	0.0151024
842.405	0.0150922
842.483	0.0152174
842.561	0.0150578
842.639	0.0150688
842.717	0.0150794
842.795	0.0149928
842.873	0.0151307
842.951	0.0152105
843.030	0.0152010
843.108	0.0150597
843.186	0.0150795
843.264	0.0151867
843.342	0.0151759
843.420	0.0150035
843.498	0.0150798
843.576	0.0152853
843.655	0.0150975
843.733	0.0151437
843.811	0.0152909
843.889	0.0151358
843.967	0.0151885
844.045	0.0150750
844.123	0.0153343
844.201	0.0152692
844.280	0.0152633
844.358	0.0151391
844.436	0.0152374
844.514	0.0152154
844.592	0.0152735
844.670	0.0152261
844.748	0.0152112
844.826	0.0151160
844.905	0.0151180
844.983	0.0151618
845.061	0.0151829
845.139	0.0151860
845.217	0.0151334
845.295	0.0152553
845.373	0.0150195
845.451	0.0151817
845.530	0.0151836
845.608	0.0150355
845.686	0.0150700
845.764	0.0151159
845.842	0.0151144
845.920	0.0151556
845.998	0.0151752
846.076	0.0150678
846.155	0.0151134
846.233	0.0151083
846.311	0.0150838
846.389	0.0151571
846.467	0.0151546
846.545	0.0150240
846.623	0.0150778
846.701	0.0153149
846.780	0.0152099
846.858	0.0151263
846.936	0.0152478
847.014	0.0151855
847.092	0.0151801
847.170	0.0152290
847.248	0.0151898
847.326	0.0152579
847.405	0.0152879
847.483	0.0152271
847.561	0.0153396
847.639	0.0151087
847.717	0.0151910
847.795	0.0153233
847.873	0.0152250
847.951	0.0151575
848.030	0.0152295
848.108	0.0152150
848.186	0.0150622
848.264	0.0151861
848.342	0.0153406
848.420	0.0154218
848.498	0.0153858
848.576	0.0154340
848.655	0.0154971
848.733	0.0153292
848.811	0.0153857
848.889	0.0154308
848.967	0.0154344
849.045	0.0153427
849.123	0.0153780
849.201	0.0153522
849.280	0.0154646
849.358	0.0152782
849.436	0.0153110
849.514	0.0153077
849.592	0.0152496
849.670	0.0154245
849.748	0.0153904
849.826	0.0151488
849.905	0.0152924
849.983	0.0153102
850.061	0.0152406
850.139	0.0153658
850.217	0.0153289
850.295	0.0153218
850.373	0.0151398
850.451	0.0152814
850.530	0.0151669
850.608	0.0151599
850.686	0.0152773
850.764	0.0153490
850.842	0.0151393
850.920	0.0153123
850.998	0.0153111
851.076	0.0153546
851.155	0.0154203
851.233	0.0153605
851.311	0.0154556
851.389	0.0151776
851.467	0.0153226
851.545	0.0153838
851.623	0.0152361
851.701	0.0153749
851.780	0.0153886
851.858	0.0153123
851.936	0.0154889
852.014	0.0154568
852.092	0.0153195
852.170	0.0153973
852.248	0.0155174
852.326	0.0154970
852.405	0.0153846
852.483	0.0155471
852.561	0.0155581
852.639	0.0156151
852.717	0.0154853
852.795	0.0154665
852.873	0.0156351
852.951	0.0155855
853.030	0.0154935
853.108	0.0155328
853.186	0.0155363
853.264	0.0154605
853.342	0.0154330
853.420	0.0153712
853.498	0.0153436
853.576	0.0153699
853.655	0.0153581
853.733	0.0154180
853.811	0.0153639
853.889	0.0153686
853.967	0.0153656
854.045	0.0154206
854.123	0.0153635
854.201	0.0154270
854.280	0.0152748
854.358	0.0152885
854.436	0.0154080
854.514	0.0153004
854.592	0.0153832
854.670	0.0154371
854.748	0.0152546
854.826	0.0152058
854.905	0.0153074
854.983	0.0153482
855.061	0.0153386
855.139	0.0153481
855.217	0.0153678
855.295	0.0152823
855.373	0.0152669
855.451	0.0153383
855.530	0.0153278
855.608	0.0153426
855.686	0.0152229
855.764	0.0153001
855.842	0.0154147
855.920	0.0153031
855.998	0.0151676
856.076	0.0152636
856.155	0.0154620
856.233	0.0152885
856.311	0.0153232
856.389	0.0154686
856.467	0.0153362
856.545	0.0154745
856.623	0.0154655
856.701	0.0151269
856.780	0.0152981
856.858	0.0152747
856.936	0.0152370
857.014	0.0152955
857.092	0.0152985
857.170	0.0153792
857.248	0.0153728
857.326	0.0153817
857.405	0.0152522
857.483	0.0153450
857.561	0.0153019
857.639	0.0152254
857.717	0.0152921
857.795	0.0153770
857.873	0.0153084
857.951	0.0152252
858.030	0.0153799
858.108	0.0153288
858.186	0.0152570
858.264	0.0153728
858.342	0.0152352
858.420	0.0153392
858.498	0.0153574
858.576	0.0153025
858.655	0.0152233
858.733	0.0153324
858.811	0.0154238
858.889	0.0153020
858.967	0.0153880
859.045	0.0154945
859.123	0.0153860
859.201	0.0153549
859.280	0.0153249
859.358	0.0153542
859.436	0.0153727
859.514	0.0153161
859.592	0.0153764
859.670	0.0153978
859.748	0.0153523
859.826	0.0153336
859.905	0.0154537
859.983	0.0155122
860.061	0.0153452
860.139	0.0154230
860.217	0.0154333
860.295	0.0154600
860.373	0.0153679
860.451	0.0153526
860.530	0.0153761
860.608	0.0153383
860.686	0.0153362
860.764	0.0152563
860.842	0.0152975
860.920	0.0152381
860.998	0.0151368
861.076	0.0153984
861.155	0.0153741
861.233	0.0152977
861.311	0.0152803
861.389	0.0152335
861.467	0.0152332
861.545	0.0153379
861.623	0.0152666
861.701	0.0151946
861.780	0.0151579
861.858	0.0152099
861.936	0.0152904
862.014	0.0152787
862.092	0.0153091
862.170	0.0152967
862.248	0.0151804
862.326	0.0151757
862.405	0.0152449
862.483	0.0152537
862.561	0.0152258
862.639	0.0151531
862.717	0.0151888
862.795	0.0151687
862.873	0.0151437
862.951	0.0150598
863.030	0.0151824
863.108	0.0151941
863.186	0.0152753
863.264	0.0151403
863.342	0.0151117
863.420	0.0152682
863.498	0.0151794
863.576	0.0151791
863.655	0.0153294
863.733	0.0151843
863.811	0.0152134
863.889	0.0153236
863.967	0.0151759
864.045	0.0152605
864.123	0.0151532
864.201	0.0153193
864.280	0.0152853
864.358	0.0152114
864.436	0.0152216
864.514	0.0153144
864.592	0.0152582
864.670	0.0152584
864.748	0.0152027
864.826	0.0151747
864.905	0.0152145
864.983	0.0151408
865.061	0.0151511
865.139	0.0151216
865.217	0.0151580
865.295	0.0151514
865.373	0.0151460
865.451	0.0151660
865.530	0.0151232
865.608	0.0151909
865.686	0.0151704
865.764	0.0152491
865.842	0.0151343
865.920	0.0152126
865.998	0.0152455
866.076	0.0151540
866.155	0.0150426
866.233	0.0150611
866.311	0.0149953
866.389	0.0149887
866.467	0.0152325
866.545	0.0151758
866.623	0.0150295
866.701	0.0149998
866.780	0.0150712
866.858	0.0150039
866.936	0.0150977
867.014	0.0150648
867.092	0.0151227
867.170	0.0150983
867.248	0.0151195
867.326	0.0150960
867.405	0.0150621
867.483	0.0150446
867.561	0.0151519
867.639	0.0149914
867.717	0.0151200
867.795	0.0150498
867.873	0.0151235
867.951	0.0151638
868.030	0.0150673
868.108	0.0151801
868.186	0.0151330
868.264	0.0151070
868.342	0.0151775
868.420	0.0151159
868.498	0.0151077
868.576	0.0151941
868.655	0.0151049
868.733	0.0152255
868.811	0.0150765
868.889	0.0150922
868.967	0.0151237
869.045	0.0151531
869.123	0.0151757
869.201	0.0151945
869.280	0.0152159
869.358	0.0152767
869.436	0.0150495
869.514	0.0150587
869.592	0.0151229
869.670	0.0153426
869.748	0.0150118
869.826	0.0151061
869.905	0.0152407
869.983	0.0151002
870.061	0.0150706
870.139	0.0152171
870.217	0.0152349
870.295	0.0152841
870.373	0.0151230
870.451	0.0152467
870.530	0.0152098
870.608	0.0152478
870.686	0.0151583
870.764	0.0151759
870.842	0.0150396
870.920	0.0151445
870.998	0.0150285
871.076	0.0151344
871.155	0.0151625
871.233	0.0151050
871.311	0.0152911
871.389	0.0151151
871.467	0.0151431
871.545	0.0150572
871.623	0.0152105
871.701	0.0152013
871.780	0.0151837
871.858	0.0151455
871.936	0.0151370
872.014	0.0151337
872.092	0.0151791
872.170	0.0151845
872.248	0.0150170
872.326	0.0151234
872.405	0.0151712
872.483	0.0151647
872.561	0.0153448
872.639	0.0153335
872.717	0.0150903
872.795	0.0151040
872.873	0.0152171
872.951	0.0151653
873.030	0.0150819
873.108	0.0152422
873.186	0.0152284
873.264	0.0150948
873.342	0.0152787
873.420	0.0152149
873.498	0.0151387
873.576	0.0152677
873.655	0.0151234
873.733	0.0151649
873.811	0.0152785
873.889	0.0152543
873.967	0.0153346
874.045	0.0152744
874.123	0.0151440
874.201	0.0152914
874.280	0.0152444
874.358	0.0152219
874.436	0.0152148
874.514	0.0151840
874.592	0.0152018
874.670	0.0151621
874.748	0.0152864
874.826	0.0152388
874.905	0.0152774
874.983	0.0152909
875.061	0.0150826
875.139	0.0153135
875.217	0.0152778
875.295	0.0152917
875.373	0.0151987
875.451	0.0152113
875.530	0.0153281
875.608	0.0153280
875.686	0.0153368
875.764	0.0153499
875.842	0.0152630
875.920	0.0153451
875.998	0.0152634
876.076	0.0152164
876.155	0.0153184
876.233	0.0153780
876.311	0.0154897
876.389	0.0153684
876.467	0.0154373
876.545	0.0153724
876.623	0.0153077
876.701	0.0153342
876.780	0.0153893
876.858	0.0151972
876.936	0.0153677
877.014	0.0152567
877.092	0.0152009
877.170	0.0153615
877.248	0.0153205
877.326	0.0153296
877.405	0.0152385
877.483	0.0152460
877.561	0.0152069
877.639	0.0152914
877.717	0.0152574
877.795	0.0151091
877.873	0.0152012
877.951	0.0151355
878.030	0.0152666
878.108	0.0151120
878.186	0.0151363
878.264	0.0152599
878.342	0.0152276
878.420	0.0151900
878.498	0.0152705
878.576	0.0154936
878.655	0.0152082
878.733	0.0153280
878.811	0.0154750
878.889	0.0153474
878.967	0.0153709
879.045	0.0154765
879.123	0.0154586
879.201	0.0153790
879.280	0.0154242
879.358	0.0154334
879.436	0.0153777
879.514	0.0154383
879.592	0.0155217
879.670	0.0153746
879.748	0.0154237
879.826	0.0153714
879.905	0.0153804
879.983	0.0152735
880.061	0.0152383
880.139	0.0153075
880.217	0.0152819
880.295	0.0152122
880.373	0.0153159
880.451	0.0152548
880.530	0.0153226
880.608	0.0151137
880.686	0.0152934
880.764	0.0151494
880.842	0.0153034
880.920	0.0153758
880.998	0.0153857
881.076	0.0152814
881.155	0.0152806
881.233	0.0152531
881.311	0.0152280
881.389	0.0153461
881.467	0.0152197
881.545	0.0152219
881.623	0.0152499
881.701	0.0152460
881.780	0.0152081
881.858	0.0151984
881.936	0.0153265
882.014	0.0151599
882.092	0.0153365
882.170	0.0152928
882.248	0.0154514
882.326	0.0153651
882.405	0.0152126
882.483	0.0152906
882.561	0.0151460
882.639	0.0152967
882.717	0.0153734
882.795	0.0152108
882.873	0.0151443
882.951	0.0152100
883.030	0.0151694
883.108	0.0150524
883.186	0.0152547
883.264	0.0151443
883.342	0.0151310
883.420	0.0152039
883.498	0.0150038
883.576	0.0151156
883.655	0.0151959
883.733	0.0151442
883.811	0.0151704
883.889	0.0150188
883.967	0.0151111
884.045	0.0150621
884.123	0.0151553
884.201	0.0151026
884.280	0.0152059
884.358	0.0153439
884.436	0.0152060
884.514	0.0151956
884.592	0.0151315
884.670	0.0153438
884.748	0.0153497
884.826	0.0152644
884.905	0.0151798
884.983	0.0152760
885.061	0.0151818
885.139	0.0151822
885.217	0.0151418
885.295	0.0152421
885.373	0.0152203
885.451	0.0152302
885.530	0.0152711
885.608	0.0152352
885.686	0.0151377
885.764	0.0152068
885.842	0.0152178
885.920	0.0152082
885.998	0.0151733
886.076	0.0152907
886.155	0.0151886
886.233	0.0152042
886.311	0.0150892
886.389	0.0152245
886.467	0.0150617
886.545	0.0152453
886.623	0.0152410
886.701	0.0151296
886.780	0.0152540
886.858	0.0151934
886.936	0.0152071
887.014	0.0151950
887.092	0.0153188
887.170	0.0150958
887.248	0.0152195
887.326	0.0151479
887.405	0.0151173
887.483	0.0152248
887.561	0.0151844
887.639	0.0153999
887.717	0.0153103
887.795	0.0153152
887.873	0.0152636
887.951	0.0153909
888.030	0.0152915
888.108	0.0153453
888.186	0.0153925
888.264	0.0153515
888.342	0.0154238
888.420	0.0153829
888.498	0.0153766
888.576	0.0150959
888.655	0.0151579
888.733	0.0152412
888.811	0.0151423
888.889	0.0151235
888.967	0.0151960
889.045	0.0151571
889.123	0.0150076
889.201	0.0151306
889.280	0.0151290
889.358	0.0149280
889.436	0.0150082
889.514	0.0150864
889.592	0.0148982
889.670	0.0149206
889.748	0.0148610
889.826	0.0149570
889.905	0.0149320
889.983	0.0150443
890.061	0.0150060
890.139	0.0150433
890.217	0.0150937
890.295	0.0149597
890.373	0.0150597
890.451	0.0150735
890.530	0.0151065
890.608	0.0151875
890.686	0.0150751
890.764	0.0150671
890.842	0.0154053
890.920	0.0150970
890.998	0.0151092
891.076	0.0153237
891.155	0.0151020
891.233	0.0152352
891.311	0.0151980
891.389	0.0152843
891.467	0.0151796
891.545	0.0151889
891.623	0.0151613
891.701	0.0152536
891.780	0.0152740
891.858	0.0151839
891.936	0.0151778
892.014	0.0151778
892.092	0.0153013
892.170	0.0150569
892.248	0.0151564
892.326	0.0150901
892.405	0.0151038
892.483	0.0152679
892.561	0.0151529
892.639	0.0150836
892.717	0.0152097
892.795	0.0150951
892.873	0.0151619
892.951	0.0151469
893.030	0.0150874
893.108	0.0151138
893.186	0.0152140
893.264	0.0151774
893.342	0.0152435
893.420	0.0152796
893.498	0.0153314
893.576	0.0152594
893.655	0.0151926
893.733	0.0151432
893.811	0.0153523
893.889	0.0152121
893.967	0.0153752
894.045	0.0152219
894.123	0.0151685
894.201	0.0152173
894.280	0.0152039
894.358	0.0152574
894.436	0.0153313
894.514	0.0152882
894.592	0.0152852
894.670	0.0152322
894.748	0.0151462
894.826	0.0152612
894.905	0.0152666
894.983	0.0152054
895.061	0.0151785
895.139	0.0152348
895.217	0.0152079
895.295	0.0151678
895.373	0.0153806
895.451	0.0150777
895.530	0.0151000
895.608	0.0152264
895.686	0.0150340
895.764	0.0151794
895.842	0.0153160
895.920	0.0150957
895.998	0.0151210
896.076	0.0151624
896.155	0.0150453
896.233	0.0151411
896.311	0.0152447
896.389	0.0151575
896.467	0.0151688
896.545	0.0152103
896.623	0.0152586
896.701	0.0153663
896.780	0.0152991
896.858	0.0153200
896.936	0.0151189
897.014	0.0152131
897.092	0.0151817
897.170	0.0153297
897.248	0.0153526
897.326	0.0153221
897.405	0.0152044
897.483	0.0154198
897.561	0.0153841
897.639	0.0154239
897.717	0.0153729
897.795	0.0152163
897.873	0.0152901
897.951	0.0153322
898.030	0.0154965
898.108	0.0152800
898.186	0.0153828
898.264	0.0152377
898.342	0.0152460
898.420	0.0153145
898.498	0.0152750
898.576	0.0151388
898.655	0.0152147
898.733	0.0152857
898.811	0.0152051
898.889	0.0151498
898.967	0.0151589
899.045	0.0150845
899.123	0.0151307
899.201	0.0150172
899.280	0.0150299
899.358	0.0150376
899.436	0.0150447
899.514	0.0151434
899.592	0.0151292
899.670	0.0150971
899.748	0.0150914
899.826	0.0150995
899.905	0.0152670
899.983	0.0152407
900.061	0.0152376
900.139	0.0152116
900.217	0.0152951
900.295	0.0152020
900.373	0.0152245
900.451	0.0152309
900.530	0.0153796
900.608	0.0153252
900.686	0.0152094
900.764	0.0151675
900.842	0.0152654
900.920	0.0152993
900.998	0.0152798
901.076	0.0151544
901.155	0.0151326
901.233	0.0152930
901.311	0.0152699
901.389	0.0153074
901.467	0.0151605
901.545	0.0152235
901.623	0.0151740
901.701	0.0153567
901.780	0.0152900
901.858	0.0152294
901.936	0.0153565
902.014	0.0152316
902.092	0.0151849
902.170	0.0152485
902.248	0.0153056
902.326	0.0154201
902.405	0.0151022
902.483	0.0151176
902.561	0.0152161
902.639	0.0151778
902.717	0.0150460
902.795	0.0151209
902.873	0.0152308
902.951	0.0151123
903.030	0.0151543
903.108	0.0150738
903.186	0.0150429
903.264	0.0151122
903.342	0.0151398
903.420	0.0150975
903.498	0.0151473
903.576	0.0153343
903.655	0.0152497
903.733	0.0151016
903.811	0.0152511
903.889	0.0153474
903.967	0.0153666
904.045	0.0152242
904.123	0.0153383
904.201	0.0153699
904.280	0.0153526
904.358	0.0153593
904.436	0.0152667
904.514	0.0153143
904.592	0.0153062
904.670	0.0153459
904.748	0.0151533
904.826	0.0152267
904.905	0.0151157
904.983	0.0151494
905.061	0.0152660
905.139	0.0151627
905.217	0.0150321
905.295	0.0151611
905.373	0.0153278
905.451	0.0153272
905.530	0.0151838
905.608	0.0151846
905.686	0.0151995
905.764	0.0152435
905.842	0.0152171
905.920	0.0151613
905.998	0.0151265
906.076	0.0150935
906.155	0.0151445
906.233	0.0151725
906.311	0.0151917
906.389	0.0153076
906.467	0.0152295
906.545	0.0152153
906.623	0.0152380
906.701	0.0154253
906.780	0.0153846
906.858	0.0151984
906.936	0.0151836
907.014	0.0153284
907.092	0.0153065
907.170	0.0152935
907.248	0.0152830
907.326	0.0152798
907.405	0.0151461
907.483	0.0152775
907.561	0.0152641
907.639	0.0151971
907.717	0.0152515
907.795	0.0150964
907.873	0.0151192
907.951	0.0151685
908.030	0.0151852
908.108	0.0150956
908.186	0.0152029
908.264	0.0151562
908.342	0.0150440
908.420	0.0152718
908.498	0.0153406
908.576	0.0151543
908.655	0.0153549
908.733	0.0154990
908.811	0.0152801
908.889	0.0152573
908.967	0.0152472
909.045	0.0153584
909.123	0.0153512
909.201	0.0150653
909.280	0.0150684
909.358	0.0152181
909.436	0.0151485
909.514	0.0151917
909.592	0.0150779
909.670	0.0151154
909.748	0.0152135
909.826	0.0152174
909.905	0.0150548
909.983	0.0151357
910.061	0.0152471
910.139	0.0150772
910.217	0.0151007
910.295	0.0151651
910.373	0.0150714
910.451	0.0151183
910.530	0.0150833
910.608	0.0151464
910.686	0.0150522
910.764	0.0151486
910.842	0.0152666
910.920	0.0152642
910.998	0.0151897
911.076	0.0150503
911.155	0.0152757
911.233	0.0154096
911.311	0.0152367
911.389	0.0152544
911.467	0.0152916
911.545	0.0153535
911.623	0.0153870
911.701	0.0153842
911.780	0.0153468
911.858	0.0152661
911.936	0.0152425
912.014	0.0152937
912.092	0.0152395
912.170	0.0152257
912.248	0.0151842
912.326	0.0152151
912.405	0.0152294
912.483	0.0151517
912.561	0.0151801
912.639	0.0151438
912.717	0.0152133
912.795	0.0154332
912.873	0.0152708
912.951	0.0152258
913.030	0.0152545
913.108	0.0152294
913.186	0.0153538
913.264	0.0152468
913.342	0.0153337
913.420	0.0153012
913.498	0.0151254
913.576	0.0152912
913.655	0.0152326
913.733	0.0152845
913.811	0.0152247
913.889	0.0152646
913.967	0.0153492
914.045	0.0152615
914.123	0.0153008
914.201	0.0152255
914.280	0.0152766
914.358	0.0153406
914.436	0.0153877
914.514	0.0151953
914.592	0.0153953
914.670	0.0153315
914.748	0.0152973
914.826	0.0153172
914.905	0.0151743
914.983	0.0152904
915.061	0.0151115
915.139	0.0151716
915.217	0.0152263
915.295	0.0152354
915.373	0.0152770
915.451	0.0152824
915.530	0.0151431
915.608	0.0152411
915.686	0.0153027
915.764	0.0152490
915.842	0.0152030
915.920	0.0152505
915.998	0.0151992
916.076	0.0151841
916.155	0.0152649
916.233	0.0152166
916.311	0.0153207
916.389	0.0152834
916.467	0.0151934
916.545	0.0150867
916.623	0.0152010
916.701	0.0151362
916.780	0.0153198
916.858	0.0153072
916.936	0.0153075
917.014	0.0153155
917.092	0.0153519
917.170	0.0153151
917.248	0.0154449
917.326	0.0155402
917.405	0.0153928
917.483	0.0153669
917.561	0.0155132
917.639	0.0153181
917.717	0.0152892
917.795	0.0154291
917.873	0.0153988
917.951	0.0153521
918.030	0.0153864
918.108	0.0154733
918.186	0.0153400
918.264	0.0153419
918.342	0.0153363
918.420	0.0152829
918.498	0.0154553
918.576	0.0155004
918.655	0.0153725
918.733	0.0152377
918.811	0.0154121
918.889	0.0152255
918.967	0.0153256
919.045	0.0152601
919.123	0.0153300
919.201	0.0152001
919.280	0.0152939
919.358	0.0152443
919.436	0.0150978
919.514	0.0151596
919.592	0.0152033
919.670	0.0151211
919.748	0.0151749
919.826	0.0150867
919.905	0.0150920
919.983	0.0151412
920.061	0.0151779
920.139	0.0150111
920.217	0.0151196
920.295	0.0150558
920.373	0.0150021
920.451	0.0151024
920.530	0.0151679
920.608	0.0151089
920.686	0.0151562
920.764	0.0150824
920.842	0.0153049
920.920	0.0152719
920.998	0.0152415
921.076	0.0152817
921.155	0.0154138
921.233	0.0152651
921.311	0.0152683
921.389	0.0153176
921.467	0.0153687
921.545	0.0152750
921.623	0.0150906
921.701	0.0152030
921.780	0.0152077
921.858	0.0152544
921.936	0.0152419
922.014	0.0151547
922.092	0.0152220
922.170	0.0151065
922.248	0.0151621
922.326	0.0151565
922.405	0.0151491
922.483	0.0150845
922.561	0.0151289
922.639	0.0152248
922.717	0.0150617
922.795	0.0151568
922.873	0.0151521
922.951	0.0152200
923.030	0.0152856
923.108	0.0151664
923.186	0.0153045
923.264	0.0152129
923.342	0.0152443
923.420	0.0150924
923.498	0.0152031
923.576	0.0153665
923.655	0.0152467
923.733	0.0154298
923.811	0.0151958
923.889	0.0152320
923.967	0.0153891
924.045	0.0153299
924.123	0.0152925
924.201	0.0151376
924.280	0.0151432
924.358	0.0151569
924.436	0.0151784
924.514	0.0152380
924.592	0.0150161
924.670	0.0150146
924.748	0.0150828
924.826	0.0150374
924.905	0.0151118
924.983	0.0150159
925.061	0.0151250
925.139	0.0151480
925.217	0.0150688
925.295	0.0150581
925.373	0.0150506
925.451	0.0150491
925.530	0.0151101
925.608	0.0152197
925.686	0.0150980
925.764	0.0151038
925.842	0.0151214
925.920	0.0151036
925.998	0.0150450
926.076	0.0150630
926.155	0.0151013
926.233	0.0148960
926.311	0.0150413
926.389	0.0152421
926.467	0.0152097
926.545	0.0151501
926.623	0.0151492
926.701	0.0151049
926.780	0.0150821
926.858	0.0152026
926.936	0.0151632
927.014	0.0151244
927.092	0.0151979
927.170	0.0150749
927.248	0.0151826
927.326	0.0152518
927.405	0.0151455
927.483	0.0151339
927.561	0.0151357
927.639	0.0152190
927.717	0.0150947
927.795	0.0151233
927.873	0.0152953
927.951	0.0152336
928.030	0.0151715
928.108	0.0151955
928.186	0.0152919
928.264	0.0153485
928.342	0.0152007
928.420	0.0150610
928.498	0.0152686
928.576	0.0152172
928.655	0.0152199
928.733	0.0150905
928.811	0.0153106
928.889	0.0151143
928.967	0.0150850
929.045	0.0152225
929.123	0.0152414
929.201	0.0152058
929.280	0.0151698
929.358	0.0151552
929.436	0.0151597
929.514	0.0151648
929.592	0.0151870
929.670	0.0153094
929.748	0.0153064
929.826	0.0153384
929.905	0.0152781
929.983	0.0153571
930.061	0.0152221
930.139	0.0152264
930.217	0.0153276
930.295	0.0154448
930.373	0.0152279
930.451	0.0151798
930.530	0.0152567
930.608	0.0152410
930.686	0.0151376
930.764	0.0152185
930.842	0.0154147
930.920	0.0151997
930.998	0.0153758
931.076	0.0152789
931.155	0.0153252
931.233	0.0151669
931.311	0.0153228
931.389	0.0153421
931.467	0.0154512
931.545	0.0154676
931.623	0.0152565
931.701	0.0154525
931.780	0.0152821
931.858	0.0153421
931.936	0.0154353
932.014	0.0153023
932.092	0.0153715
932.170	0.0153248
932.248	0.0154683
932.326	0.0154790
932.405	0.0153274
932.483	0.0153858
932.561	0.0154675
932.639	0.0153255
932.717	0.0154287
932.795	0.0153329
932.873	0.0152649
932.951	0.0152174
933.030	0.0152512
933.108	0.0152989
933.186	0.0152005
933.264	0.0152911
933.342	0.0153578
933.420	0.0151823
933.498	0.0151973
933.576	0.0151324
933.655	0.0151320
933.733	0.0151797
933.811	0.0151855
933.889	0.0151555
933.967	0.0152348
934.045	0.0152248
934.123	0.0151893
934.201	0.0152843
934.280	0.0153539
934.358	0.0153185
934.436	0.0151570
934.514	0.0152367
934.592	0.0152949
934.670	0.0153981
934.748	0.0154865
934.826	0.0154391
934.905	0.0153699
934.983	0.0153098
935.061	0.0154295
935.139	0.0153915
935.217	0.0153715
935.295	0.0153398
935.373	0.0152042
935.451	0.0151570
935.530	0.0152541
935.608	0.0152105
935.686	0.0152783
935.764	0.0152286
935.842	0.0152956
935.920	0.0152094
935.998	0.0152717
936.076	0.0151514
936.155	0.0152030
936.233	0.0151759
936.311	0.0153122
936.389	0.0152582
936.467	0.0152185
936.545	0.0153042
936.623	0.0153107
936.701	0.0152189
936.780	0.0152673
936.858	0.0153106
936.936	0.0151873
937.014	0.0151931
937.092	0.0153306
937.170	0.0153564
937.248	0.0153465
937.326	0.0152740
937.405	0.0152637
937.483	0.0154210
937.561	0.0153683
937.639	0.0154548
937.717	0.0153400
937.795	0.0154634
937.873	0.0152664
937.951	0.0153084
938.030	0.0153990
938.108	0.0152237
938.186	0.0153711
938.264	0.0154543
938.342	0.0152010
938.420	0.0151681
938.498	0.0152493
938.576	0.0152806
938.655	0.0153426
938.733	0.0153168
938.811	0.0152483
938.889	0.0153546
938.967	0.0152727
939.045	0.0153366
939.123	0.0152946
939.201	0.0152364
939.280	0.0153097
939.358	0.0153088
939.436	0.0152954
939.514	0.0154061
939.592	0.0153521
939.670	0.0152274
939.748	0.0154581
939.826	0.0156039
939.905	0.0154324
939.983	0.0154356
940.061	0.0154128
940.139	0.0152575
940.217	0.0153767
940.295	0.0154919
940.373	0.0153333
940.451	0.0152415
940.530	0.0152027
940.608	0.0152882
940.686	0.0153068
940.764	0.0152888
940.842	0.0153715
940.920	0.0152814
940.998	0.0152180
941.076	0.0152169
941.155	0.0152015
941.233	0.0150761
941.311	0.0150288
941.389	0.0150809
941.467	0.0151547
941.545	0.0153078
941.623	0.0151739
941.701	0.0149566
941.780	0.0150272
941.858	0.0150991
941.936	0.0152592
942.014	0.0152060
942.092	0.0151694
942.170	0.0151485
942.248	0.0152170
942.326	0.0151988
942.405	0.0152039
942.483	0.0152157
942.561	0.0151129
942.639	0.0152684
942.717	0.0152051
942.795	0.0151572
942.873	0.0150885
942.951	0.0150829
943.030	0.0150941
943.108	0.0151392
943.186	0.0150320
943.264	0.0152140
943.342	0.0150894
943.420	0.0151697
943.498	0.0150737
943.576	0.0151394
943.655	0.0151353
943.733	0.0151437
943.811	0.0150946
943.889	0.0152396
943.967	0.0151765
944.045	0.0153065
944.123	0.0152535
944.201	0.0152210
944.280	0.0152898
944.358	0.0152450
944.436	0.0151741
944.514	0.0152973
944.592	0.0152875
944.670	0.0153396
944.748	0.0153945
944.826	0.0153855
944.905	0.0153058
944.983	0.0152699
945.061	0.0154123
945.139	0.0152959
945.217	0.0152608
945.295	0.0151514
945.373	0.0152666
945.451	0.0151012
945.530	0.0151778
945.608	0.0152145
945.686	0.0151865
945.764	0.0153160
945.842	0.0151693
945.920	0.0153651
945.998	0.0150546
946.076	0.0152180
946.155	0.0151328
946.233	0.0151879
946.311	0.0152578
946.389	0.0153227
946.467	0.0152457
946.545	0.0153014
946.623	0.0152925
946.701	0.0153625
946.780	0.0152811
946.858	0.0151823
946.936	0.0151336
947.014	0.0152829
947.092	0.0152554
947.170	0.0153342
947.248	0.0152766
947.326	0.0153814
947.405	0.0152815
947.483	0.0153180
947.561	0.0151768
947.639	0.0150505
947.717	0.0152432
947.795	0.0152865
947.873	0.0152074
947.951	0.0151956
948.030	0.0151536
948.108	0.0152878
948.186	0.0154048
948.264	0.0151697
948.342	0.0152359
948.420	0.0152599
948.498	0.0153745
948.576	0.0153257
948.655	0.0152585
948.733	0.0154181
948.811	0.0154477
948.889	0.0153314
948.967	0.0152228
949.045	0.0152252
949.123	0.0152808
949.201	0.0151977
949.280	0.0153222
949.358	0.0152585
949.436	0.0151021
949.514	0.0152653
949.592	0.0152026
949.670	0.0151595
949.748	0.0151788
949.826	0.0151918
949.905	0.0152365
949.983	0.0151563
950.061	0.0152221
950.139	0.0152515
950.217	0.0151949
950.295	0.0151699
950.373	0.0152245
950.451	0.0152277
950.530	0.0151584
950.608	0.0154176
950.686	0.0152544
950.764	0.0153111
950.842	0.0152894
950.920	0.0152721
950.998	0.0153156
951.076	0.0152850
951.155	0.0151504
951.233	0.0151798
951.311	0.0153364
951.389	0.0152064
951.467	0.0153099
951.545	0.0150874
951.623	0.0153731
951.701	0.0152582
951.780	0.0150775
951.858	0.0150561
951.936	0.0152319
952.014	0.0151660
952.092	0.0150703
952.170	0.0151102
952.248	0.0151357
952.326	0.0151440
952.405	0.0152180
952.483	0.0151194
952.561	0.0152180
952.639	0.0152231
952.717	0.0153268
952.795	0.0151733
952.873	0.0152936
952.951	0.0151695
953.030	0.0154347
953.108	0.0153122
953.186	0.0151763
953.264	0.0152657
953.342	0.0153030
953.420	0.0153584
953.498	0.0152886
953.576	0.0153606
953.655	0.0152206
953.733	0.0153056
953.811	0.0152998
953.889	0.0152533
953.967	0.0152847
954.045	0.0152725
954.123	0.0151466
954.201	0.0153111
954.280	0.0154241
954.358	0.0153718
954.436	0.0154148
954.514	0.0153937
954.592	0.0152440
954.670	0.0153646
954.748	0.0152499
954.826	0.0153220
954.905	0.0152740
954.983	0.0153107
955.061	0.0153795
955.139	0.0152518
955.217	0.0152786
955.295	0.0153234
955.373	0.0153488
955.451	0.0152480
955.530	0.0152320
955.608	0.0153520
955.686	0.0152792
955.764	0.0153824
955.842	0.0153542
955.920	0.0153677
955.998	0.0153314
956.076	0.0153337
956.155	0.0152676
956.233	0.0151963
956.311	0.0153773
956.389	0.0152727
956.467	0.0152611
956.545	0.0153192
956.623	0.0153786
956.701	0.0152450
956.780	0.0152850
956.858	0.0152747
956.936	0.0152382
957.014	0.0154864
957.092	0.0152023
957.170	0.0152425
957.248	0.0152219
957.326	0.0152785
957.405	0.0151336
957.483	0.0152036
957.561	0.0152939
957.639	0.0152301
957.717	0.0151951
957.795	0.0150259
957.873	0.0151856
957.951	0.0154172
958.030	0.0152188
958.108	0.0152242
958.186	0.0150883
958.264	0.0152045
958.342	0.0151808
958.420	0.0153512
958.498	0.0151790
958.576	0.0150932
958.655	0.0151551
958.733	0.0151974
958.811	0.0151620
958.889	0.0153249
958.967	0.0151958
959.045	0.0152706
959.123	0.0152133
959.201	0.0150668
959.280	0.0151858
959.358	0.0151583
959.436	0.0153262
959.514	0.0152808
959.592	0.0151030
959.670	0.0152213
959.748	0.0151615
959.826	0.0152047
959.905	0.0151709
