05/20/2022	16:33:57	Ver.	4.1	UNKNOWN
Optical Delay	639.982744	Delta X		0.078125	Sweeps	1	Scan Rate	0/0
Coordinates	Axis 1	NaN	Axis 2	NaN	Axis 3	NaN	Axis 4	NaN	Axis 5	NaN	Axis 6	0.000000
TX Power	0.000000	RX Power	0.000000

639.983	0.0154423
640.061	0.0154647
640.139	0.0153659
640.217	0.0154270
640.295	0.0154060
640.373	0.0155145
640.451	0.0155028
640.530	0.0152590
640.608	0.0153998
640.686	0.0154296
640.764	0.0154810
640.842	0.0154329
640.920	0.0156313
640.998	0.0153724
641.076	0.0154421
641.155	0.0153642
641.233	0.0154942
641.311	0.0153767
641.389	0.0154922
641.467	0.0155356
641.545	0.0155556
641.623	0.0154333
641.701	0.0153906
641.780	0.0154500
641.858	0.0154353
641.936	0.0154276
642.014	0.0154639
642.092	0.0153083
642.170	0.0155283
642.248	0.0155054
642.326	0.0156127
642.405	0.0153896
642.483	0.0155435
642.561	0.0154819
642.639	0.0154102
642.717	0.0154292
642.795	0.0155251
642.873	0.0155858
642.951	0.0154837
643.030	0.0154433
643.108	0.0155666
643.186	0.0156414
643.264	0.0155496
643.342	0.0156710
643.420	0.0154349
643.498	0.0154736
643.576	0.0155892
643.655	0.0154943
643.733	0.0153649
643.811	0.0153987
643.889	0.0155988
643.967	0.0154012
644.045	0.0154847
644.123	0.0154234
644.201	0.0155209
644.280	0.0154620
644.358	0.0155908
644.436	0.0155842
644.514	0.0155502
644.592	0.0156165
644.670	0.0155601
644.748	0.0154934
644.826	0.0155976
644.905	0.0156934
644.983	0.0155946
645.061	0.0155965
645.139	0.0155688
645.217	0.0156025
645.295	0.0155963
645.373	0.0155167
645.451	0.0155602
645.530	0.0154718
645.608	0.0154008
645.686	0.0156088
645.764	0.0155788
645.842	0.0155724
645.920	0.0155259
645.998	0.0154405
646.076	0.0154829
646.155	0.0154919
646.233	0.0157201
646.311	0.0155519
646.389	0.0155499
646.467	0.0154446
646.545	0.0154853
646.623	0.0156683
646.701	0.0154707
646.780	0.0155878
646.858	0.0156095
646.936	0.0154888
647.014	0.0155523
647.092	0.0154802
647.170	0.0154848
647.248	0.0156657
647.326	0.0154678
647.405	0.0154278
647.483	0.0155785
647.561	0.0154592
647.639	0.0154162
647.717	0.0155326
647.795	0.0155485
647.873	0.0155661
647.951	0.0153598
648.030	0.0155811
648.108	0.0154971
648.186	0.0157001
648.264	0.0154655
648.342	0.0155565
648.420	0.0155634
648.498	0.0155767
648.576	0.0155650
648.655	0.0155426
648.733	0.0156033
648.811	0.0154711
648.889	0.0155483
648.967	0.0156772
649.045	0.0156044
649.123	0.0155249
649.201	0.0154539
649.280	0.0155359
649.358	0.0156952
649.436	0.0155576
649.514	0.0154955
649.592	0.0156229
649.670	0.0154457
649.748	0.0156437
649.826	0.0155832
649.905	0.0154928
649.983	0.0154349
650.061	0.0154306
650.139	0.0154971
650.217	0.0154712
650.295	0.0156012
650.373	0.0156348
650.451	0.0154636
650.530	0.0153777
650.608	0.0155099
650.686	0.0156302
650.764	0.0154659
650.842	0.0156104
650.920	0.0156037
650.998	0.0155206
651.076	0.0155472
651.155	0.0155929
651.233	0.0155099
651.311	0.0156109
651.389	0.0155461
651.467	0.0154504
651.545	0.0153738
651.623	0.0154743
651.701	0.0153217
651.780	0.0154388
651.858	0.0155846
651.936	0.0155186
652.014	0.0155112
652.092	0.0155546
652.170	0.0155305
652.248	0.0155529
652.326	0.0153953
652.405	0.0155219
652.483	0.0155898
652.561	0.0157392
652.639	0.0155427
652.717	0.0155816
652.795	0.0156259
652.873	0.0156353
652.951	0.0155332
653.030	0.0156415
653.108	0.0155057
653.186	0.0155093
653.264	0.0155640
653.342	0.0154228
653.420	0.0154271
653.498	0.0153664
653.576	0.0153124
653.655	0.0153349
653.733	0.0154456
653.811	0.0154163
653.889	0.0153166
653.967	0.0154356
654.045	0.0153233
654.123	0.0153666
654.201	0.0154957
654.280	0.0154817
654.358	0.0154956
654.436	0.0155811
654.514	0.0154077
654.592	0.0155515
654.670	0.0154516
654.748	0.0156134
654.826	0.0154782
654.905	0.0155638
654.983	0.0155090
655.061	0.0154669
655.139	0.0154850
655.217	0.0154874
655.295	0.0154935
655.373	0.0154787
655.451	0.0154798
655.530	0.0153408
655.608	0.0152880
655.686	0.0154044
655.764	0.0153461
655.842	0.0153126
655.920	0.0153457
655.998	0.0153188
656.076	0.0153043
656.155	0.0154617
656.233	0.0154162
656.311	0.0152515
656.389	0.0152979
656.467	0.0154255
656.545	0.0154442
656.623	0.0153828
656.701	0.0154646
656.780	0.0153524
656.858	0.0154661
656.936	0.0155270
657.014	0.0155002
657.092	0.0155259
657.170	0.0154150
657.248	0.0154582
657.326	0.0154212
657.405	0.0153693
657.483	0.0154683
657.561	0.0153957
657.639	0.0155441
657.717	0.0154190
657.795	0.0154559
657.873	0.0154844
657.951	0.0155956
658.030	0.0155022
658.108	0.0153899
658.186	0.0154163
658.264	0.0155206
658.342	0.0154253
658.420	0.0154032
658.498	0.0154829
658.576	0.0154569
658.655	0.0154469
658.733	0.0154552
658.811	0.0155109
658.889	0.0154438
658.967	0.0154494
659.045	0.0154486
659.123	0.0153017
659.201	0.0155001
659.280	0.0155438
659.358	0.0155682
659.436	0.0154232
659.514	0.0154655
659.592	0.0154847
659.670	0.0154279
659.748	0.0154630
659.826	0.0156683
659.905	0.0155676
659.983	0.0154980
660.061	0.0154646
660.139	0.0154295
660.217	0.0154984
660.295	0.0154134
660.373	0.0154104
660.451	0.0155569
660.530	0.0154102
660.608	0.0153905
660.686	0.0155591
660.764	0.0153519
660.842	0.0154959
660.920	0.0154559
660.998	0.0154124
661.076	0.0154599
661.155	0.0154013
661.233	0.0153773
661.311	0.0154383
661.389	0.0155396
661.467	0.0154458
661.545	0.0155505
661.623	0.0155347
661.701	0.0154697
661.780	0.0155275
661.858	0.0155984
661.936	0.0156181
662.014	0.0155362
662.092	0.0154095
662.170	0.0154187
662.248	0.0153815
662.326	0.0155772
662.405	0.0155735
662.483	0.0154722
662.561	0.0155112
662.639	0.0156747
662.717	0.0154659
662.795	0.0154301
662.873	0.0155123
662.951	0.0154126
663.030	0.0153916
663.108	0.0154636
663.186	0.0154402
663.264	0.0154129
663.342	0.0154529
663.420	0.0154248
663.498	0.0155997
663.576	0.0154962
663.655	0.0155595
663.733	0.0156177
663.811	0.0155147
663.889	0.0155960
663.967	0.0155497
664.045	0.0155173
664.123	0.0155943
664.201	0.0155281
664.280	0.0154305
664.358	0.0155253
664.436	0.0155108
664.514	0.0155106
664.592	0.0156100
664.670	0.0154903
664.748	0.0155096
664.826	0.0154135
664.905	0.0154857
664.983	0.0155562
665.061	0.0154589
665.139	0.0153868
665.217	0.0155744
665.295	0.0155753
665.373	0.0153698
665.451	0.0154738
665.530	0.0155789
665.608	0.0153332
665.686	0.0154316
665.764	0.0155387
665.842	0.0155146
665.920	0.0154488
665.998	0.0155453
666.076	0.0154243
666.155	0.0154937
666.233	0.0153891
666.311	0.0153845
666.389	0.0156478
666.467	0.0155579
666.545	0.0154960
666.623	0.0155334
666.701	0.0155941
666.780	0.0154572
666.858	0.0156222
666.936	0.0156129
667.014	0.0155695
667.092	0.0155668
667.170	0.0155702
667.248	0.0155209
667.326	0.0156504
667.405	0.0156502
667.483	0.0155413
667.561	0.0155256
667.639	0.0156898
667.717	0.0156702
667.795	0.0155626
667.873	0.0156832
667.951	0.0156089
668.030	0.0155368
668.108	0.0155688
668.186	0.0156147
668.264	0.0155412
668.342	0.0154838
668.420	0.0157092
668.498	0.0156005
668.576	0.0155743
668.655	0.0154685
668.733	0.0153437
668.811	0.0154046
668.889	0.0153681
668.967	0.0153825
669.045	0.0153252
669.123	0.0154385
669.201	0.0153716
669.280	0.0153921
669.358	0.0153270
669.436	0.0154081
669.514	0.0154236
669.592	0.0154276
669.670	0.0154285
669.748	0.0155000
669.826	0.0155121
669.905	0.0154531
669.983	0.0156040
670.061	0.0155972
670.139	0.0156902
670.217	0.0156492
670.295	0.0155968
670.373	0.0155116
670.451	0.0155989
670.530	0.0157096
670.608	0.0156330
670.686	0.0156006
670.764	0.0157017
670.842	0.0157478
670.920	0.0157738
670.998	0.0158448
671.076	0.0157246
671.155	0.0156545
671.233	0.0154758
671.311	0.0156842
671.389	0.0157464
671.467	0.0154444
671.545	0.0154807
671.623	0.0154944
671.701	0.0153449
671.780	0.0151939
671.858	0.0152850
671.936	0.0152108
672.014	0.0152161
672.092	0.0152123
672.170	0.0150869
672.248	0.0150542
672.326	0.0151735
672.405	0.0151422
672.483	0.0151987
672.561	0.0152129
672.639	0.0153397
672.717	0.0154176
672.795	0.0155693
672.873	0.0155198
672.951	0.0155621
673.030	0.0156857
673.108	0.0157206
673.186	0.0159427
673.264	0.0159013
673.342	0.0159468
673.420	0.0161314
673.498	0.0160889
673.576	0.0160474
673.655	0.0158923
673.733	0.0159482
673.811	0.0159814
673.889	0.0159490
673.967	0.0157225
674.045	0.0158087
674.123	0.0157070
674.201	0.0156421
674.280	0.0154197
674.358	0.0153271
674.436	0.0152290
674.514	0.0150099
674.592	0.0150972
674.670	0.0149016
674.748	0.0148924
674.826	0.0147484
674.905	0.0146699
674.983	0.0147962
675.061	0.0145653
675.139	0.0144751
675.217	0.0146623
675.295	0.0147025
675.373	0.0146145
675.451	0.0147379
675.530	0.0149351
675.608	0.0150208
675.686	0.0150013
675.764	0.0153946
675.842	0.0153888
675.920	0.0155363
675.998	0.0157771
676.076	0.0157246
676.155	0.0159168
676.233	0.0159844
676.311	0.0161230
676.389	0.0162654
676.467	0.0163399
676.545	0.0162608
676.623	0.0163705
676.701	0.0165388
676.780	0.0164520
676.858	0.0165542
676.936	0.0163604
677.014	0.0161610
677.092	0.0161153
677.170	0.0159720
677.248	0.0157404
677.326	0.0156445
677.405	0.0154444
677.483	0.0152370
677.561	0.0152444
677.639	0.0149672
677.717	0.0148435
677.795	0.0146986
677.873	0.0147643
677.951	0.0144793
678.030	0.0145755
678.108	0.0143617
678.186	0.0144481
678.264	0.0144361
678.342	0.0146124
678.420	0.0146374
678.498	0.0146515
678.576	0.0148081
678.655	0.0149590
678.733	0.0150253
678.811	0.0151450
678.889	0.0153773
678.967	0.0154206
679.045	0.0155436
679.123	0.0156576
679.201	0.0158611
679.280	0.0157111
679.358	0.0157893
679.436	0.0157001
679.514	0.0159021
679.592	0.0159467
679.670	0.0159899
679.748	0.0159744
679.826	0.0158685
679.905	0.0159195
679.983	0.0160326
680.061	0.0158762
680.139	0.0158550
680.217	0.0156567
680.295	0.0156065
680.373	0.0156414
680.451	0.0157204
680.530	0.0156626
680.608	0.0157877
680.686	0.0157417
680.764	0.0157294
680.842	0.0156384
680.920	0.0158961
680.998	0.0157759
681.076	0.0157074
681.155	0.0157278
681.233	0.0157771
681.311	0.0158834
681.389	0.0157709
681.467	0.0156326
681.545	0.0157884
681.623	0.0156465
681.701	0.0155608
681.780	0.0155157
681.858	0.0154000
681.936	0.0151144
682.014	0.0150666
682.092	0.0149516
682.170	0.0148463
682.248	0.0147594
682.326	0.0146185
682.405	0.0146654
682.483	0.0144717
682.561	0.0144677
682.639	0.0144862
682.717	0.0145142
682.795	0.0144768
682.873	0.0146286
682.951	0.0147671
683.030	0.0149635
683.108	0.0149893
683.186	0.0151299
683.264	0.0152301
683.342	0.0155243
683.420	0.0155759
683.498	0.0155486
683.576	0.0157596
683.655	0.0157740
683.733	0.0159807
683.811	0.0162278
683.889	0.0163190
683.967	0.0162055
684.045	0.0162175
684.123	0.0164643
684.201	0.0161507
684.280	0.0163186
684.358	0.0162644
684.436	0.0164307
684.514	0.0163572
684.592	0.0162490
684.670	0.0161153
684.748	0.0160311
684.826	0.0159734
684.905	0.0158570
684.983	0.0158181
685.061	0.0156436
685.139	0.0154548
685.217	0.0151929
685.295	0.0151493
685.373	0.0148898
685.451	0.0148135
685.530	0.0146677
685.608	0.0145306
685.686	0.0144584
685.764	0.0144633
685.842	0.0142509
685.920	0.0142884
685.998	0.0143024
686.076	0.0143365
686.155	0.0143929
686.233	0.0143941
686.311	0.0145473
686.389	0.0146678
686.467	0.0148653
686.545	0.0148968
686.623	0.0151153
686.701	0.0151966
686.780	0.0155341
686.858	0.0156768
686.936	0.0157648
687.014	0.0160171
687.092	0.0162959
687.170	0.0162865
687.248	0.0164699
687.326	0.0166191
687.405	0.0165144
687.483	0.0168290
687.561	0.0166769
687.639	0.0166295
687.717	0.0166499
687.795	0.0167043
687.873	0.0164897
687.951	0.0164053
688.030	0.0161459
688.108	0.0160017
688.186	0.0161196
688.264	0.0157521
688.342	0.0157103
688.420	0.0155413
688.498	0.0152199
688.576	0.0150848
688.655	0.0148084
688.733	0.0148447
688.811	0.0146722
688.889	0.0145789
688.967	0.0144034
689.045	0.0142433
689.123	0.0142153
689.201	0.0142377
689.280	0.0142368
689.358	0.0142365
689.436	0.0142436
689.514	0.0142955
689.592	0.0144303
689.670	0.0142866
689.748	0.0144351
689.826	0.0145271
689.905	0.0146053
689.983	0.0149262
690.061	0.0149840
690.139	0.0151299
690.217	0.0151635
690.295	0.0152597
690.373	0.0154237
690.451	0.0155386
690.530	0.0156406
690.608	0.0158341
690.686	0.0158973
690.764	0.0158372
690.842	0.0160473
690.920	0.0161320
690.998	0.0160517
691.076	0.0160458
691.155	0.0161146
691.233	0.0161266
691.311	0.0159961
691.389	0.0161660
691.467	0.0162784
691.545	0.0162340
691.623	0.0160534
691.701	0.0161291
691.780	0.0162529
691.858	0.0163695
691.936	0.0163924
692.014	0.0163559
692.092	0.0162411
692.170	0.0165002
692.248	0.0165192
692.326	0.0163104
692.405	0.0160635
692.483	0.0161584
692.561	0.0161617
692.639	0.0159636
692.717	0.0159827
692.795	0.0157534
692.873	0.0156956
692.951	0.0156532
693.030	0.0155715
693.108	0.0154765
693.186	0.0154514
693.264	0.0152013
693.342	0.0150204
693.420	0.0149841
693.498	0.0147742
693.576	0.0145541
693.655	0.0146959
693.733	0.0142812
693.811	0.0141999
693.889	0.0141734
693.967	0.0142352
694.045	0.0139245
694.123	0.0140195
694.201	0.0140727
694.280	0.0140646
694.358	0.0142721
694.436	0.0141685
694.514	0.0141889
694.592	0.0143452
694.670	0.0145454
694.748	0.0145072
694.826	0.0144852
694.905	0.0144789
694.983	0.0147066
695.061	0.0146454
695.139	0.0148936
695.217	0.0150830
695.295	0.0148585
695.373	0.0151850
695.451	0.0152247
695.530	0.0153283
695.608	0.0153967
695.686	0.0155751
695.764	0.0158492
695.842	0.0159740
695.920	0.0160300
695.998	0.0161216
696.076	0.0162180
696.155	0.0164085
696.233	0.0164862
696.311	0.0164798
696.389	0.0165971
696.467	0.0167942
696.545	0.0167249
696.623	0.0169576
696.701	0.0170402
696.780	0.0169485
696.858	0.0170399
696.936	0.0171297
697.014	0.0171353
697.092	0.0171070
697.170	0.0169163
697.248	0.0167763
697.326	0.0167997
697.405	0.0164553
697.483	0.0163480
697.561	0.0161343
697.639	0.0158752
697.717	0.0156068
697.795	0.0153415
697.873	0.0149667
697.951	0.0147498
698.030	0.0145859
698.108	0.0142140
698.186	0.0139477
698.264	0.0138828
698.342	0.0136666
698.420	0.0136725
698.498	0.0136925
698.576	0.0135242
698.655	0.0136902
698.733	0.0135336
698.811	0.0136520
698.889	0.0138753
698.967	0.0139597
699.045	0.0139426
699.123	0.0141674
699.201	0.0144398
699.280	0.0145953
699.358	0.0146995
699.436	0.0147697
699.514	0.0149341
699.592	0.0150248
699.670	0.0151080
699.748	0.0154118
699.826	0.0153954
699.905	0.0157297
699.983	0.0157302
700.061	0.0159386
700.139	0.0161181
700.217	0.0161108
700.295	0.0162791
700.373	0.0162296
700.451	0.0162936
700.530	0.0164566
700.608	0.0161115
700.686	0.0162914
700.764	0.0161616
700.842	0.0159282
700.920	0.0158871
700.998	0.0157813
701.076	0.0156835
701.155	0.0154861
701.233	0.0155061
701.311	0.0151823
701.389	0.0150196
701.467	0.0149970
701.545	0.0149337
701.623	0.0147436
701.701	0.0146718
701.780	0.0146816
701.858	0.0146651
701.936	0.0146554
702.014	0.0148225
702.092	0.0148000
702.170	0.0147620
702.248	0.0150265
702.326	0.0151132
702.405	0.0152306
702.483	0.0153779
702.561	0.0156437
702.639	0.0159933
702.717	0.0162173
702.795	0.0162553
702.873	0.0164077
702.951	0.0164346
703.030	0.0164796
703.108	0.0165419
703.186	0.0164503
703.264	0.0163750
703.342	0.0162090
703.420	0.0161896
703.498	0.0158575
703.576	0.0157613
703.655	0.0155812
703.733	0.0155586
703.811	0.0154057
703.889	0.0152589
703.967	0.0150973
704.045	0.0152055
704.123	0.0152161
704.201	0.0149307
704.280	0.0150328
704.358	0.0149905
704.436	0.0149589
704.514	0.0149668
704.592	0.0149034
704.670	0.0148198
704.748	0.0149202
704.826	0.0149689
704.905	0.0150599
704.983	0.0152372
705.061	0.0152351
705.139	0.0151646
705.217	0.0152380
705.295	0.0154531
705.373	0.0154982
705.451	0.0153810
705.530	0.0152199
705.608	0.0153127
705.686	0.0152328
705.764	0.0153296
705.842	0.0153128
705.920	0.0153282
705.998	0.0151910
706.076	0.0152214
706.155	0.0151224
706.233	0.0151927
706.311	0.0152084
706.389	0.0153077
706.467	0.0153227
706.545	0.0153869
706.623	0.0154597
706.701	0.0156058
706.780	0.0153185
706.858	0.0153799
706.936	0.0152629
707.014	0.0152299
707.092	0.0152787
707.170	0.0153759
707.248	0.0151572
707.326	0.0152890
707.405	0.0151884
707.483	0.0151812
707.561	0.0152538
707.639	0.0151369
707.717	0.0150207
707.795	0.0151161
707.873	0.0152457
707.951	0.0152242
708.030	0.0152087
708.108	0.0152710
708.186	0.0153658
708.264	0.0155031
708.342	0.0153941
708.420	0.0157228
708.498	0.0159522
708.576	0.0159608
708.655	0.0160851
708.733	0.0161831
708.811	0.0163287
708.889	0.0164137
708.967	0.0162233
709.045	0.0164040
709.123	0.0164014
709.201	0.0165734
709.280	0.0164457
709.358	0.0163515
709.436	0.0162692
709.514	0.0164194
709.592	0.0162804
709.670	0.0160240
709.748	0.0160207
709.826	0.0157822
709.905	0.0157719
709.983	0.0154933
710.061	0.0154469
710.139	0.0154362
710.217	0.0152023
710.295	0.0152286
710.373	0.0150811
710.451	0.0149196
710.530	0.0149390
710.608	0.0147904
710.686	0.0147363
710.764	0.0149612
710.842	0.0147856
710.920	0.0146387
710.998	0.0146352
711.076	0.0145801
711.155	0.0147308
711.233	0.0148019
711.311	0.0147818
711.389	0.0149198
711.467	0.0149846
711.545	0.0149646
711.623	0.0151566
711.701	0.0154322
711.780	0.0156232
711.858	0.0156757
711.936	0.0158206
712.014	0.0158462
712.092	0.0160030
712.170	0.0159560
712.248	0.0159851
712.326	0.0160042
712.405	0.0160973
712.483	0.0159226
712.561	0.0155490
712.639	0.0154792
712.717	0.0153017
712.795	0.0151868
712.873	0.0151875
712.951	0.0149335
713.030	0.0149266
713.108	0.0148462
713.186	0.0148049
713.264	0.0149598
713.342	0.0148800
713.420	0.0148869
713.498	0.0149234
713.576	0.0149628
713.655	0.0150144
713.733	0.0151151
713.811	0.0151521
713.889	0.0152747
713.967	0.0153060
714.045	0.0156457
714.123	0.0154765
714.201	0.0155849
714.280	0.0157995
714.358	0.0159126
714.436	0.0157832
714.514	0.0161142
714.592	0.0161466
714.670	0.0160988
714.748	0.0160398
714.826	0.0160951
714.905	0.0160561
714.983	0.0160867
715.061	0.0162846
715.139	0.0160916
715.217	0.0162581
715.295	0.0163039
715.373	0.0161895
715.451	0.0160713
715.530	0.0160970
715.608	0.0161230
715.686	0.0161396
715.764	0.0160190
715.842	0.0160169
715.920	0.0159879
715.998	0.0157500
716.076	0.0155695
716.155	0.0155096
716.233	0.0154928
716.311	0.0151987
716.389	0.0151174
716.467	0.0149454
716.545	0.0148629
716.623	0.0147360
716.701	0.0145849
716.780	0.0144016
716.858	0.0144160
716.936	0.0142253
717.014	0.0143014
717.092	0.0143149
717.170	0.0144307
717.248	0.0142966
717.326	0.0144562
717.405	0.0146729
717.483	0.0146535
717.561	0.0148901
717.639	0.0151376
717.717	0.0152454
717.795	0.0153069
717.873	0.0154824
717.951	0.0156622
718.030	0.0157944
718.108	0.0158764
718.186	0.0158398
718.264	0.0158013
718.342	0.0157912
718.420	0.0159187
718.498	0.0157375
718.576	0.0157725
718.655	0.0157293
718.733	0.0156454
718.811	0.0156300
718.889	0.0156998
718.967	0.0155962
719.045	0.0155872
719.123	0.0155170
719.201	0.0156551
719.280	0.0154943
719.358	0.0157239
719.436	0.0156949
719.514	0.0157948
719.592	0.0159800
719.670	0.0159195
719.748	0.0159086
719.826	0.0159954
719.905	0.0160879
719.983	0.0163332
720.061	0.0161861
720.139	0.0161636
720.217	0.0162402
720.295	0.0161295
720.373	0.0162299
720.451	0.0160979
720.530	0.0158384
720.608	0.0157584
720.686	0.0154587
720.764	0.0153629
720.842	0.0151871
720.920	0.0148030
720.998	0.0148859
721.076	0.0147231
721.155	0.0145181
721.233	0.0143806
721.311	0.0142463
721.389	0.0140681
721.467	0.0140150
721.545	0.0139955
721.623	0.0140575
721.701	0.0141534
721.780	0.0142465
721.858	0.0140977
721.936	0.0143371
722.014	0.0144727
722.092	0.0146091
722.170	0.0147733
722.248	0.0148862
722.326	0.0151032
722.405	0.0152816
722.483	0.0154044
722.561	0.0157293
722.639	0.0157423
722.717	0.0157967
722.795	0.0158569
722.873	0.0160316
722.951	0.0161105
723.030	0.0162374
723.108	0.0163040
723.186	0.0163635
723.264	0.0162524
723.342	0.0163395
723.420	0.0163251
723.498	0.0164475
723.576	0.0163164
723.655	0.0161280
723.733	0.0161575
723.811	0.0160720
723.889	0.0157040
723.967	0.0156831
724.045	0.0156010
724.123	0.0154501
724.201	0.0153915
724.280	0.0152151
724.358	0.0151879
724.436	0.0150821
724.514	0.0149995
724.592	0.0147052
724.670	0.0148277
724.748	0.0148267
724.826	0.0149123
724.905	0.0147939
724.983	0.0150903
725.061	0.0150089
725.139	0.0150154
725.217	0.0151849
725.295	0.0152478
725.373	0.0153687
725.451	0.0152790
725.530	0.0154413
725.608	0.0154813
725.686	0.0154409
725.764	0.0155756
725.842	0.0156252
725.920	0.0156861
725.998	0.0157098
726.076	0.0156705
726.155	0.0158138
726.233	0.0155681
726.311	0.0156306
726.389	0.0156760
726.467	0.0155976
726.545	0.0155551
726.623	0.0153754
726.701	0.0154127
726.780	0.0155135
726.858	0.0154555
726.936	0.0153941
727.014	0.0153914
727.092	0.0155163
727.170	0.0155760
727.248	0.0154646
727.326	0.0155025
727.405	0.0156036
727.483	0.0156596
727.561	0.0156583
727.639	0.0155865
727.717	0.0156001
727.795	0.0156251
727.873	0.0155741
727.951	0.0156249
728.030	0.0156139
728.108	0.0156834
728.186	0.0157005
728.264	0.0155727
728.342	0.0154686
728.420	0.0154597
728.498	0.0154607
728.576	0.0155309
728.655	0.0154261
728.733	0.0153087
728.811	0.0152858
728.889	0.0152870
728.967	0.0151627
729.045	0.0151409
729.123	0.0150290
729.201	0.0150175
729.280	0.0149660
729.358	0.0150920
729.436	0.0150515
729.514	0.0151870
729.592	0.0151523
729.670	0.0152421
729.748	0.0152760
729.826	0.0153108
729.905	0.0154964
729.983	0.0154443
730.061	0.0154993
730.139	0.0157265
730.217	0.0157851
730.295	0.0157935
730.373	0.0159843
730.451	0.0160316
730.530	0.0159347
730.608	0.0157969
730.686	0.0160264
730.764	0.0160848
730.842	0.0160513
730.920	0.0160327
730.998	0.0159836
731.076	0.0158606
731.155	0.0159290
731.233	0.0158184
731.311	0.0157192
731.389	0.0157832
731.467	0.0155345
731.545	0.0154297
731.623	0.0152928
731.701	0.0153443
731.780	0.0153284
731.858	0.0154946
731.936	0.0153107
732.014	0.0152703
732.092	0.0151683
732.170	0.0152165
732.248	0.0153418
732.326	0.0153635
732.405	0.0153208
732.483	0.0156672
732.561	0.0156515
732.639	0.0156481
732.717	0.0156729
732.795	0.0157825
732.873	0.0159168
732.951	0.0160321
733.030	0.0160507
733.108	0.0159692
733.186	0.0160764
733.264	0.0160023
733.342	0.0158825
733.420	0.0157819
733.498	0.0157172
733.576	0.0155766
733.655	0.0155324
733.733	0.0154558
733.811	0.0152522
733.889	0.0152195
733.967	0.0152491
734.045	0.0151815
734.123	0.0151416
734.201	0.0149780
734.280	0.0150583
734.358	0.0151024
734.436	0.0151321
734.514	0.0151238
734.592	0.0153225
734.670	0.0154839
734.748	0.0155299
734.826	0.0156161
734.905	0.0157669
734.983	0.0158047
735.061	0.0159448
735.139	0.0158299
735.217	0.0159993
735.295	0.0159999
735.373	0.0159743
735.451	0.0158412
735.530	0.0158733
735.608	0.0157227
735.686	0.0156535
735.764	0.0156444
735.842	0.0158071
735.920	0.0155844
735.998	0.0155589
736.076	0.0154924
736.155	0.0153782
736.233	0.0154176
736.311	0.0153692
736.389	0.0154054
736.467	0.0152861
736.545	0.0152754
736.623	0.0152516
736.701	0.0152877
736.780	0.0151438
736.858	0.0151682
736.936	0.0152106
737.014	0.0152798
737.092	0.0151861
737.170	0.0152028
737.248	0.0153859
737.326	0.0151865
737.405	0.0150078
737.483	0.0152267
737.561	0.0152031
737.639	0.0153203
737.717	0.0153117
737.795	0.0152049
737.873	0.0153069
737.951	0.0152708
738.030	0.0153431
738.108	0.0155781
738.186	0.0154912
738.264	0.0154967
738.342	0.0156286
738.420	0.0156680
738.498	0.0156876
738.576	0.0157049
738.655	0.0158591
738.733	0.0159962
738.811	0.0156801
738.889	0.0157662
738.967	0.0158527
739.045	0.0158417
739.123	0.0156876
739.201	0.0156899
739.280	0.0155742
739.358	0.0155162
739.436	0.0153913
739.514	0.0151926
739.592	0.0152885
739.670	0.0151762
739.748	0.0152213
739.826	0.0151633
739.905	0.0151410
739.983	0.0151608
740.061	0.0151403
740.139	0.0152623
740.217	0.0152823
740.295	0.0151561
740.373	0.0151650
740.451	0.0153098
740.530	0.0154405
740.608	0.0153478
740.686	0.0152453
740.764	0.0154356
740.842	0.0154596
740.920	0.0153535
740.998	0.0155515
741.076	0.0153882
741.155	0.0154275
741.233	0.0155212
741.311	0.0154474
741.389	0.0154742
741.467	0.0153854
741.545	0.0152775
741.623	0.0153979
741.701	0.0154708
741.780	0.0153751
741.858	0.0152428
741.936	0.0153944
742.014	0.0152469
742.092	0.0152968
742.170	0.0153115
742.248	0.0152411
742.326	0.0152546
742.405	0.0154275
742.483	0.0154047
742.561	0.0153896
742.639	0.0155521
742.717	0.0154767
742.795	0.0155021
742.873	0.0154742
742.951	0.0156328
743.030	0.0155303
743.108	0.0154722
743.186	0.0153690
743.264	0.0152565
743.342	0.0153260
743.420	0.0153007
743.498	0.0153025
743.576	0.0150683
743.655	0.0150538
743.733	0.0153077
743.811	0.0151457
743.889	0.0149586
743.967	0.0150214
744.045	0.0151521
744.123	0.0151514
744.201	0.0151562
744.280	0.0152773
744.358	0.0155571
744.436	0.0154636
744.514	0.0155502
744.592	0.0156059
744.670	0.0156770
744.748	0.0156488
744.826	0.0156855
744.905	0.0155978
744.983	0.0155853
745.061	0.0155171
745.139	0.0155844
745.217	0.0155852
745.295	0.0155314
745.373	0.0153983
745.451	0.0155252
745.530	0.0154604
745.608	0.0154085
745.686	0.0156032
745.764	0.0154224
745.842	0.0154208
745.920	0.0154366
745.998	0.0154580
746.076	0.0155204
746.155	0.0154308
746.233	0.0155818
746.311	0.0154653
746.389	0.0154729
746.467	0.0154817
746.545	0.0152964
746.623	0.0152460
746.701	0.0154041
746.780	0.0154041
746.858	0.0152107
746.936	0.0152605
747.014	0.0153278
747.092	0.0152309
747.170	0.0152789
747.248	0.0153044
747.326	0.0152135
747.405	0.0152591
747.483	0.0152661
747.561	0.0153831
747.639	0.0154360
747.717	0.0154567
747.795	0.0154865
747.873	0.0154932
747.951	0.0156351
748.030	0.0158208
748.108	0.0157777
748.186	0.0156390
748.264	0.0156644
748.342	0.0157608
748.420	0.0156469
748.498	0.0156531
748.576	0.0155556
748.655	0.0155382
748.733	0.0155391
748.811	0.0153159
748.889	0.0153618
748.967	0.0152976
749.045	0.0151787
749.123	0.0152595
749.201	0.0152535
749.280	0.0152125
749.358	0.0150935
749.436	0.0150829
749.514	0.0152735
749.592	0.0151992
749.670	0.0152937
749.748	0.0153807
749.826	0.0153924
749.905	0.0153989
749.983	0.0153893
750.061	0.0154344
750.139	0.0154269
750.217	0.0155726
750.295	0.0155016
750.373	0.0154984
750.451	0.0155463
750.530	0.0156133
750.608	0.0156473
750.686	0.0155927
750.764	0.0154907
750.842	0.0156414
750.920	0.0156332
750.998	0.0156016
751.076	0.0154739
751.155	0.0156025
751.233	0.0156838
751.311	0.0157005
751.389	0.0157175
751.467	0.0155100
751.545	0.0155386
751.623	0.0155528
751.701	0.0155460
751.780	0.0156742
751.858	0.0155908
751.936	0.0156531
752.014	0.0155334
752.092	0.0156521
752.170	0.0156767
752.248	0.0156646
752.326	0.0155772
752.405	0.0156387
752.483	0.0157877
752.561	0.0157116
752.639	0.0157533
752.717	0.0157219
752.795	0.0156763
752.873	0.0156526
752.951	0.0154951
753.030	0.0155488
753.108	0.0155367
753.186	0.0155224
753.264	0.0153773
753.342	0.0152484
753.420	0.0151662
753.498	0.0153115
753.576	0.0154353
753.655	0.0151591
753.733	0.0151968
753.811	0.0152502
753.889	0.0151868
753.967	0.0150953
754.045	0.0151685
754.123	0.0152857
754.201	0.0152918
754.280	0.0154139
754.358	0.0152683
754.436	0.0153872
754.514	0.0154391
754.592	0.0153849
754.670	0.0153613
754.748	0.0154845
754.826	0.0155487
754.905	0.0154909
754.983	0.0155772
755.061	0.0155819
755.139	0.0158092
755.217	0.0158514
755.295	0.0156963
755.373	0.0158845
755.451	0.0157436
755.530	0.0159512
755.608	0.0161794
755.686	0.0158403
755.764	0.0157840
755.842	0.0157395
755.920	0.0156454
755.998	0.0156779
756.076	0.0155299
756.155	0.0155399
756.233	0.0154591
756.311	0.0153773
756.389	0.0153273
756.467	0.0152629
756.545	0.0152079
756.623	0.0153593
756.701	0.0153207
756.780	0.0154667
756.858	0.0152087
756.936	0.0152721
757.014	0.0154796
757.092	0.0154183
757.170	0.0155978
757.248	0.0156294
757.326	0.0155039
757.405	0.0156691
757.483	0.0156355
757.561	0.0157052
757.639	0.0155647
757.717	0.0156992
757.795	0.0156164
757.873	0.0153727
757.951	0.0154942
758.030	0.0154626
758.108	0.0155099
758.186	0.0155354
758.264	0.0155107
758.342	0.0153599
758.420	0.0153039
758.498	0.0153896
758.576	0.0152638
758.655	0.0153094
758.733	0.0152322
758.811	0.0152722
758.889	0.0154782
758.967	0.0153461
759.045	0.0152277
759.123	0.0152863
759.201	0.0154099
759.280	0.0155623
759.358	0.0154300
759.436	0.0155547
759.514	0.0155202
759.592	0.0156094
759.670	0.0155802
759.748	0.0154187
759.826	0.0155405
759.905	0.0155482
759.983	0.0155477
760.061	0.0155110
760.139	0.0154497
760.217	0.0154411
760.295	0.0154550
760.373	0.0153807
760.451	0.0153616
760.530	0.0155148
760.608	0.0153391
760.686	0.0153989
760.764	0.0152874
760.842	0.0153499
760.920	0.0152388
760.998	0.0153757
761.076	0.0154230
761.155	0.0154410
761.233	0.0152579
761.311	0.0155106
761.389	0.0154121
761.467	0.0153456
761.545	0.0153700
761.623	0.0153845
761.701	0.0154731
761.780	0.0154222
761.858	0.0152859
761.936	0.0153618
762.014	0.0154347
762.092	0.0153970
762.170	0.0153552
762.248	0.0154534
762.326	0.0153778
762.405	0.0153101
762.483	0.0152210
762.561	0.0152532
762.639	0.0153294
762.717	0.0153674
762.795	0.0152808
762.873	0.0152343
762.951	0.0152287
763.030	0.0153285
763.108	0.0151562
763.186	0.0151086
763.264	0.0153374
763.342	0.0153023
763.420	0.0153584
763.498	0.0153418
763.576	0.0152541
763.655	0.0152110
763.733	0.0152422
763.811	0.0152450
763.889	0.0153477
763.967	0.0152621
764.045	0.0152393
764.123	0.0153378
764.201	0.0152404
764.280	0.0153307
764.358	0.0153364
764.436	0.0154365
764.514	0.0153589
764.592	0.0153775
764.670	0.0153401
764.748	0.0152245
764.826	0.0153265
764.905	0.0154282
764.983	0.0154169
765.061	0.0154052
765.139	0.0154081
765.217	0.0154702
765.295	0.0153307
765.373	0.0154156
765.451	0.0154157
765.530	0.0153794
765.608	0.0154433
765.686	0.0153990
765.764	0.0155057
765.842	0.0155896
765.920	0.0154258
765.998	0.0154824
766.076	0.0154181
766.155	0.0153961
766.233	0.0155708
766.311	0.0155126
766.389	0.0154187
766.467	0.0153696
766.545	0.0154018
766.623	0.0154342
766.701	0.0154443
766.780	0.0153728
766.858	0.0152956
766.936	0.0153854
767.014	0.0153973
767.092	0.0154024
767.170	0.0152815
767.248	0.0153873
767.326	0.0153914
767.405	0.0151998
767.483	0.0153273
767.561	0.0152919
767.639	0.0151694
767.717	0.0151607
767.795	0.0152468
767.873	0.0151056
767.951	0.0151556
768.030	0.0151515
768.108	0.0150104
768.186	0.0150986
768.264	0.0153554
768.342	0.0151969
768.420	0.0153209
768.498	0.0153351
768.576	0.0153452
768.655	0.0153683
768.733	0.0154501
768.811	0.0153982
768.889	0.0154892
768.967	0.0155164
769.045	0.0154728
769.123	0.0155329
769.201	0.0156355
769.280	0.0154281
769.358	0.0155555
769.436	0.0157111
769.514	0.0155907
769.592	0.0155226
769.670	0.0154392
769.748	0.0155848
769.826	0.0155901
769.905	0.0156786
769.983	0.0154154
770.061	0.0154691
770.139	0.0156107
770.217	0.0154504
770.295	0.0155541
770.373	0.0155505
770.451	0.0155209
770.530	0.0155843
770.608	0.0155818
770.686	0.0155006
770.764	0.0155093
770.842	0.0154413
770.920	0.0156363
770.998	0.0155090
771.076	0.0154803
771.155	0.0155344
771.233	0.0155071
771.311	0.0153730
771.389	0.0153307
771.467	0.0155077
771.545	0.0153812
771.623	0.0154773
771.701	0.0155373
771.780	0.0155984
771.858	0.0155824
771.936	0.0155767
772.014	0.0155325
772.092	0.0155864
772.170	0.0155587
772.248	0.0154430
772.326	0.0154591
772.405	0.0153956
772.483	0.0153921
772.561	0.0152313
772.639	0.0152993
772.717	0.0154514
772.795	0.0154842
772.873	0.0152209
772.951	0.0150817
773.030	0.0153473
773.108	0.0153770
773.186	0.0153123
773.264	0.0154596
773.342	0.0153016
773.420	0.0153545
773.498	0.0152693
773.576	0.0155474
773.655	0.0155077
773.733	0.0153773
773.811	0.0156374
773.889	0.0155495
773.967	0.0157813
774.045	0.0157574
774.123	0.0157029
774.201	0.0157212
774.280	0.0156931
774.358	0.0156883
774.436	0.0157655
774.514	0.0156010
774.592	0.0155155
774.670	0.0154611
774.748	0.0155192
774.826	0.0154678
774.905	0.0154404
774.983	0.0154859
775.061	0.0153901
775.139	0.0154539
775.217	0.0155823
775.295	0.0155696
775.373	0.0155726
775.451	0.0156178
775.530	0.0156042
775.608	0.0154283
775.686	0.0154981
775.764	0.0154496
775.842	0.0155604
775.920	0.0155811
775.998	0.0155276
776.076	0.0154500
776.155	0.0155432
776.233	0.0155482
776.311	0.0154930
776.389	0.0153803
776.467	0.0154729
776.545	0.0154757
776.623	0.0153913
776.701	0.0154995
776.780	0.0154742
776.858	0.0154489
776.936	0.0154663
777.014	0.0156473
777.092	0.0156314
777.170	0.0155825
777.248	0.0155609
777.326	0.0156912
777.405	0.0156677
777.483	0.0154113
777.561	0.0154921
777.639	0.0155042
777.717	0.0154962
777.795	0.0155281
777.873	0.0154617
777.951	0.0153833
778.030	0.0154452
778.108	0.0153632
778.186	0.0153960
778.264	0.0154783
778.342	0.0153799
778.420	0.0154588
778.498	0.0155132
778.576	0.0155154
778.655	0.0154172
778.733	0.0154139
778.811	0.0155167
778.889	0.0153298
778.967	0.0154661
779.045	0.0156351
779.123	0.0152912
779.201	0.0152868
779.280	0.0154319
779.358	0.0155145
779.436	0.0153588
779.514	0.0154565
779.592	0.0154615
779.670	0.0154730
779.748	0.0153671
779.826	0.0154945
779.905	0.0154762
779.983	0.0154409
780.061	0.0154593
780.139	0.0154102
780.217	0.0153672
780.295	0.0153710
780.373	0.0154269
780.451	0.0153107
780.530	0.0153692
780.608	0.0155019
780.686	0.0154266
780.764	0.0153956
780.842	0.0153758
780.920	0.0153657
780.998	0.0151992
781.076	0.0152670
781.155	0.0152515
781.233	0.0153130
781.311	0.0155248
781.389	0.0154778
781.467	0.0154803
781.545	0.0155657
781.623	0.0155956
781.701	0.0156764
781.780	0.0155470
781.858	0.0154993
781.936	0.0155463
782.014	0.0156241
782.092	0.0155991
782.170	0.0155332
782.248	0.0155686
782.326	0.0154594
782.405	0.0154236
782.483	0.0154840
782.561	0.0154640
782.639	0.0154718
782.717	0.0153313
782.795	0.0153896
782.873	0.0153445
782.951	0.0151606
783.030	0.0153680
783.108	0.0152449
783.186	0.0153297
783.264	0.0153246
783.342	0.0152157
783.420	0.0152162
783.498	0.0152422
783.576	0.0151925
783.655	0.0153482
783.733	0.0153773
783.811	0.0152000
783.889	0.0153060
783.967	0.0154050
784.045	0.0155419
784.123	0.0154138
784.201	0.0154949
784.280	0.0154119
784.358	0.0155008
784.436	0.0155096
784.514	0.0154662
784.592	0.0153665
784.670	0.0153847
784.748	0.0155654
784.826	0.0154564
784.905	0.0154027
784.983	0.0152853
785.061	0.0154969
785.139	0.0153191
785.217	0.0153293
785.295	0.0153474
785.373	0.0152326
785.451	0.0152880
785.530	0.0153107
785.608	0.0153132
785.686	0.0152373
785.764	0.0151481
785.842	0.0152780
785.920	0.0152206
785.998	0.0150700
786.076	0.0153336
786.155	0.0154311
786.233	0.0152400
786.311	0.0153006
786.389	0.0153423
786.467	0.0153357
786.545	0.0154495
786.623	0.0154636
786.701	0.0154626
786.780	0.0155118
786.858	0.0153996
786.936	0.0154385
787.014	0.0154642
787.092	0.0155178
787.170	0.0155536
787.248	0.0153823
787.326	0.0153716
787.405	0.0155549
787.483	0.0153767
787.561	0.0154664
787.639	0.0155105
787.717	0.0155395
787.795	0.0154993
787.873	0.0154245
787.951	0.0154901
788.030	0.0155073
788.108	0.0154517
788.186	0.0155040
788.264	0.0153707
788.342	0.0154545
788.420	0.0156471
788.498	0.0155065
788.576	0.0154406
788.655	0.0155351
788.733	0.0155213
788.811	0.0153858
788.889	0.0154867
788.967	0.0154077
789.045	0.0155260
789.123	0.0154382
789.201	0.0154227
789.280	0.0155151
789.358	0.0153866
789.436	0.0153481
789.514	0.0152637
789.592	0.0153474
789.670	0.0154452
789.748	0.0154583
789.826	0.0154436
789.905	0.0153760
789.983	0.0153406
790.061	0.0152988
790.139	0.0153637
790.217	0.0154092
790.295	0.0153220
790.373	0.0153708
790.451	0.0152882
790.530	0.0152343
790.608	0.0151839
790.686	0.0152180
790.764	0.0153426
790.842	0.0152644
790.920	0.0151488
790.998	0.0152176
791.076	0.0152113
791.155	0.0151994
791.233	0.0151531
791.311	0.0153371
791.389	0.0152933
791.467	0.0152611
791.545	0.0151596
791.623	0.0152422
791.701	0.0152023
791.780	0.0152689
791.858	0.0151852
791.936	0.0154038
792.014	0.0153384
792.092	0.0154272
792.170	0.0155065
792.248	0.0155385
792.326	0.0154821
792.405	0.0156200
792.483	0.0156092
792.561	0.0156095
792.639	0.0157384
792.717	0.0155865
792.795	0.0156807
792.873	0.0157791
792.951	0.0158253
793.030	0.0157796
793.108	0.0157967
793.186	0.0158068
793.264	0.0157965
793.342	0.0157741
793.420	0.0157815
793.498	0.0157015
793.576	0.0157081
793.655	0.0156416
793.733	0.0156609
793.811	0.0157147
793.889	0.0156475
793.967	0.0157162
794.045	0.0154881
794.123	0.0154285
794.201	0.0155844
794.280	0.0156161
794.358	0.0153860
794.436	0.0154399
794.514	0.0154476
794.592	0.0153252
794.670	0.0155309
794.748	0.0154047
794.826	0.0152914
794.905	0.0153493
794.983	0.0152999
795.061	0.0153780
795.139	0.0153395
795.217	0.0152856
795.295	0.0153123
795.373	0.0152255
795.451	0.0152921
795.530	0.0153297
795.608	0.0152682
795.686	0.0152997
795.764	0.0153188
795.842	0.0154106
795.920	0.0154070
795.998	0.0154524
796.076	0.0154546
796.155	0.0154935
796.233	0.0155231
796.311	0.0154901
796.389	0.0155730
796.467	0.0157079
796.545	0.0156425
796.623	0.0156104
796.701	0.0156033
796.780	0.0156897
796.858	0.0155776
796.936	0.0157633
797.014	0.0156755
797.092	0.0157486
797.170	0.0155717
797.248	0.0157162
797.326	0.0156577
797.405	0.0155687
797.483	0.0155568
797.561	0.0155684
797.639	0.0155482
797.717	0.0155151
797.795	0.0155868
797.873	0.0154838
797.951	0.0153361
798.030	0.0153722
798.108	0.0154224
798.186	0.0153413
798.264	0.0154331
798.342	0.0151900
798.420	0.0152399
798.498	0.0152193
798.576	0.0153534
798.655	0.0152145
798.733	0.0152561
798.811	0.0153105
798.889	0.0152302
798.967	0.0152834
799.045	0.0152431
799.123	0.0154768
799.201	0.0154498
799.280	0.0153501
799.358	0.0156228
799.436	0.0154627
799.514	0.0154406
799.592	0.0155180
799.670	0.0154961
799.748	0.0156151
799.826	0.0155309
799.905	0.0154766
799.983	0.0154356
800.061	0.0153741
800.139	0.0154992
800.217	0.0155334
800.295	0.0154176
800.373	0.0154895
800.451	0.0153415
800.530	0.0155060
800.608	0.0155022
800.686	0.0155410
800.764	0.0156132
800.842	0.0155163
800.920	0.0154964
800.998	0.0155090
801.076	0.0155418
801.155	0.0154603
801.233	0.0155255
801.311	0.0155297
801.389	0.0154201
801.467	0.0154456
801.545	0.0153821
801.623	0.0154474
801.701	0.0153576
801.780	0.0153791
801.858	0.0154161
801.936	0.0152590
802.014	0.0154694
802.092	0.0154794
802.170	0.0154022
802.248	0.0154800
802.326	0.0155113
802.405	0.0155344
802.483	0.0155435
802.561	0.0155697
802.639	0.0154628
802.717	0.0154698
802.795	0.0157227
802.873	0.0157286
802.951	0.0156561
803.030	0.0156442
803.108	0.0156487
803.186	0.0157144
803.264	0.0156385
803.342	0.0156631
803.420	0.0156824
803.498	0.0156673
803.576	0.0155840
803.655	0.0155483
803.733	0.0154668
803.811	0.0153802
803.889	0.0155174
803.967	0.0154463
804.045	0.0153120
804.123	0.0154504
804.201	0.0154081
804.280	0.0155252
804.358	0.0153139
804.436	0.0154478
804.514	0.0155003
804.592	0.0154577
804.670	0.0153477
804.748	0.0154192
804.826	0.0155567
804.905	0.0154073
804.983	0.0156242
805.061	0.0156087
805.139	0.0156555
805.217	0.0155878
805.295	0.0155927
805.373	0.0155739
805.451	0.0155565
805.530	0.0156346
805.608	0.0154493
805.686	0.0155709
805.764	0.0157348
805.842	0.0156476
805.920	0.0156453
805.998	0.0154955
806.076	0.0154591
806.155	0.0155073
806.233	0.0155234
806.311	0.0155550
806.389	0.0155045
806.467	0.0154729
806.545	0.0153626
806.623	0.0153889
806.701	0.0152985
806.780	0.0154420
806.858	0.0154192
806.936	0.0153124
807.014	0.0153568
807.092	0.0153394
807.170	0.0153822
807.248	0.0152341
807.326	0.0151973
807.405	0.0152993
807.483	0.0154781
807.561	0.0154059
807.639	0.0152787
807.717	0.0153999
807.795	0.0155644
807.873	0.0154669
807.951	0.0153794
808.030	0.0155355
808.108	0.0154985
808.186	0.0154441
808.264	0.0154541
808.342	0.0154687
808.420	0.0154244
808.498	0.0155167
808.576	0.0155756
808.655	0.0155211
808.733	0.0156154
808.811	0.0155956
808.889	0.0154161
808.967	0.0155730
809.045	0.0155223
809.123	0.0156475
809.201	0.0155908
809.280	0.0155741
809.358	0.0155861
809.436	0.0156736
809.514	0.0155010
809.592	0.0155248
809.670	0.0155643
809.748	0.0155633
809.826	0.0156078
809.905	0.0155822
809.983	0.0155544
810.061	0.0155557
810.139	0.0155323
810.217	0.0156581
810.295	0.0155828
810.373	0.0155138
810.451	0.0156484
810.530	0.0155524
810.608	0.0153783
810.686	0.0155521
810.764	0.0154817
810.842	0.0156197
810.920	0.0155173
810.998	0.0155917
811.076	0.0156398
811.155	0.0153666
811.233	0.0154562
811.311	0.0155924
811.389	0.0155522
811.467	0.0155701
811.545	0.0155766
811.623	0.0155846
811.701	0.0156139
811.780	0.0155265
811.858	0.0155697
811.936	0.0155479
812.014	0.0155958
812.092	0.0155630
812.170	0.0155930
812.248	0.0154762
812.326	0.0153918
812.405	0.0154417
812.483	0.0155300
812.561	0.0153577
812.639	0.0155077
812.717	0.0153607
812.795	0.0154008
812.873	0.0155492
812.951	0.0154263
813.030	0.0154087
813.108	0.0154037
813.186	0.0154752
813.264	0.0154969
813.342	0.0153780
813.420	0.0152924
813.498	0.0153532
813.576	0.0154320
813.655	0.0153255
813.733	0.0152734
813.811	0.0153151
813.889	0.0152735
813.967	0.0153058
814.045	0.0153502
814.123	0.0153444
814.201	0.0155203
814.280	0.0153568
814.358	0.0154419
814.436	0.0152798
814.514	0.0152988
814.592	0.0153652
814.670	0.0154041
814.748	0.0153678
814.826	0.0153159
814.905	0.0152596
814.983	0.0154624
815.061	0.0154845
815.139	0.0153680
815.217	0.0154755
815.295	0.0154954
815.373	0.0152740
815.451	0.0153041
815.530	0.0153212
815.608	0.0153590
815.686	0.0154582
815.764	0.0154154
815.842	0.0154184
815.920	0.0153840
815.998	0.0154733
816.076	0.0153451
816.155	0.0154761
816.233	0.0155447
816.311	0.0154121
816.389	0.0154460
816.467	0.0153951
816.545	0.0156055
816.623	0.0155523
816.701	0.0153938
816.780	0.0155156
816.858	0.0155473
816.936	0.0154638
817.014	0.0151809
817.092	0.0153190
817.170	0.0153523
817.248	0.0153188
817.326	0.0153822
817.405	0.0153513
817.483	0.0153544
817.561	0.0154247
817.639	0.0152657
817.717	0.0153367
817.795	0.0154121
817.873	0.0153221
817.951	0.0153595
818.030	0.0152361
818.108	0.0152208
818.186	0.0152551
818.264	0.0152858
818.342	0.0152227
818.420	0.0152707
818.498	0.0152562
818.576	0.0152486
818.655	0.0153391
818.733	0.0152686
818.811	0.0152339
818.889	0.0154533
818.967	0.0154133
819.045	0.0153533
819.123	0.0154230
819.201	0.0153601
819.280	0.0154519
819.358	0.0154577
819.436	0.0155750
819.514	0.0154848
819.592	0.0156554
819.670	0.0155344
819.748	0.0154096
819.826	0.0155815
819.905	0.0156513
819.983	0.0155312
820.061	0.0156000
820.139	0.0155701
820.217	0.0155094
820.295	0.0154015
820.373	0.0154631
820.451	0.0152442
820.530	0.0153840
820.608	0.0156250
820.686	0.0155568
820.764	0.0155284
820.842	0.0155328
820.920	0.0154402
820.998	0.0155598
821.076	0.0154857
821.155	0.0154565
821.233	0.0155538
821.311	0.0155489
821.389	0.0155116
821.467	0.0155699
821.545	0.0154023
821.623	0.0155137
821.701	0.0154876
821.780	0.0153787
821.858	0.0155256
821.936	0.0153326
822.014	0.0154436
822.092	0.0154798
822.170	0.0154144
822.248	0.0154735
822.326	0.0155540
822.405	0.0153323
822.483	0.0153411
822.561	0.0154368
822.639	0.0153603
822.717	0.0154211
822.795	0.0155515
822.873	0.0154513
822.951	0.0155102
823.030	0.0154156
823.108	0.0154659
823.186	0.0153699
823.264	0.0155297
823.342	0.0157264
823.420	0.0155117
823.498	0.0154893
823.576	0.0155074
823.655	0.0154762
823.733	0.0155567
823.811	0.0155804
823.889	0.0154081
823.967	0.0155692
824.045	0.0156072
824.123	0.0153943
824.201	0.0153555
824.280	0.0153242
824.358	0.0155672
824.436	0.0154832
824.514	0.0154987
824.592	0.0154166
824.670	0.0153780
824.748	0.0153947
824.826	0.0152938
824.905	0.0154006
824.983	0.0154115
825.061	0.0153475
825.139	0.0152318
825.217	0.0151931
825.295	0.0152454
825.373	0.0153210
825.451	0.0152406
825.530	0.0152489
825.608	0.0153607
825.686	0.0154615
825.764	0.0152651
825.842	0.0152956
825.920	0.0154546
825.998	0.0155830
826.076	0.0153706
826.155	0.0154366
826.233	0.0156161
826.311	0.0153998
826.389	0.0155400
826.467	0.0153584
826.545	0.0155448
826.623	0.0156599
826.701	0.0156553
826.780	0.0155790
826.858	0.0155465
826.936	0.0156358
827.014	0.0156110
827.092	0.0155025
827.170	0.0154810
827.248	0.0155127
827.326	0.0156858
827.405	0.0156399
827.483	0.0156879
827.561	0.0155907
827.639	0.0154874
827.717	0.0155991
827.795	0.0155011
827.873	0.0155598
827.951	0.0154411
828.030	0.0155312
828.108	0.0155233
828.186	0.0156026
828.264	0.0155054
828.342	0.0155878
828.420	0.0155091
828.498	0.0154028
828.576	0.0155853
828.655	0.0155280
828.733	0.0155285
828.811	0.0156326
828.889	0.0155614
828.967	0.0154450
829.045	0.0156416
829.123	0.0157194
829.201	0.0156574
829.280	0.0157638
829.358	0.0157191
829.436	0.0157449
829.514	0.0156431
829.592	0.0157657
829.670	0.0156293
829.748	0.0156490
829.826	0.0158102
829.905	0.0156742
829.983	0.0156670
830.061	0.0156950
830.139	0.0156970
830.217	0.0156284
830.295	0.0154729
830.373	0.0155070
830.451	0.0154031
830.530	0.0154658
830.608	0.0154803
830.686	0.0155189
830.764	0.0154067
830.842	0.0154173
830.920	0.0153577
830.998	0.0155393
831.076	0.0155018
831.155	0.0153648
831.233	0.0153928
831.311	0.0153705
831.389	0.0154227
831.467	0.0154351
831.545	0.0154932
831.623	0.0154345
831.701	0.0154408
831.780	0.0154661
831.858	0.0154120
831.936	0.0154437
832.014	0.0154589
832.092	0.0154562
832.170	0.0155865
832.248	0.0154846
832.326	0.0154127
832.405	0.0155643
832.483	0.0154850
832.561	0.0154275
832.639	0.0156020
832.717	0.0156855
832.795	0.0156909
832.873	0.0156626
832.951	0.0156207
833.030	0.0155965
833.108	0.0156869
833.186	0.0153800
833.264	0.0156297
833.342	0.0155742
833.420	0.0155917
833.498	0.0154789
833.576	0.0154739
833.655	0.0155249
833.733	0.0155867
833.811	0.0155798
833.889	0.0155029
833.967	0.0155641
834.045	0.0155953
834.123	0.0155468
834.201	0.0156055
834.280	0.0155811
834.358	0.0155454
834.436	0.0156284
834.514	0.0157742
834.592	0.0155936
834.670	0.0156013
834.748	0.0158217
834.826	0.0158485
834.905	0.0156824
834.983	0.0156874
835.061	0.0157629
835.139	0.0156844
835.217	0.0155878
835.295	0.0154234
835.373	0.0157232
835.451	0.0156244
835.530	0.0154161
835.608	0.0155681
835.686	0.0156412
835.764	0.0153506
835.842	0.0154849
835.920	0.0155795
835.998	0.0154034
836.076	0.0155669
836.155	0.0155189
836.233	0.0154672
836.311	0.0154440
836.389	0.0155104
836.467	0.0155669
836.545	0.0155224
836.623	0.0154491
836.701	0.0153571
836.780	0.0153419
836.858	0.0154803
836.936	0.0154769
837.014	0.0152888
837.092	0.0153935
837.170	0.0152728
837.248	0.0154324
837.326	0.0154601
837.405	0.0154720
837.483	0.0153658
837.561	0.0154438
837.639	0.0153616
837.717	0.0153921
837.795	0.0155472
837.873	0.0155055
837.951	0.0155737
838.030	0.0155229
838.108	0.0154256
838.186	0.0155989
838.264	0.0153896
838.342	0.0154429
838.420	0.0155005
838.498	0.0155758
838.576	0.0154209
838.655	0.0154237
838.733	0.0155122
838.811	0.0154664
838.889	0.0156720
838.967	0.0155771
839.045	0.0153840
839.123	0.0153948
839.201	0.0155109
839.280	0.0154823
839.358	0.0154899
839.436	0.0156554
839.514	0.0155174
839.592	0.0154832
839.670	0.0154662
839.748	0.0153220
839.826	0.0155724
839.905	0.0153675
839.983	0.0154350
840.061	0.0154425
840.139	0.0153185
840.217	0.0153561
840.295	0.0153136
840.373	0.0153688
840.451	0.0153033
840.530	0.0153337
840.608	0.0152186
840.686	0.0152159
840.764	0.0153291
840.842	0.0153315
840.920	0.0153250
840.998	0.0153381
841.076	0.0153875
841.155	0.0153216
841.233	0.0153805
841.311	0.0153396
841.389	0.0154591
841.467	0.0152003
841.545	0.0152568
841.623	0.0153531
841.701	0.0154448
841.780	0.0153931
841.858	0.0153082
841.936	0.0152876
842.014	0.0153540
842.092	0.0153793
842.170	0.0153662
842.248	0.0151955
842.326	0.0152512
842.405	0.0153419
842.483	0.0153876
842.561	0.0154765
842.639	0.0154037
842.717	0.0153501
842.795	0.0152525
842.873	0.0154116
842.951	0.0152237
843.030	0.0153622
843.108	0.0152383
843.186	0.0152617
843.264	0.0153559
843.342	0.0153056
843.420	0.0152445
843.498	0.0153357
843.576	0.0153784
843.655	0.0152911
843.733	0.0153046
843.811	0.0154099
843.889	0.0153623
843.967	0.0152566
844.045	0.0152007
844.123	0.0152682
844.201	0.0151893
844.280	0.0153622
844.358	0.0152566
844.436	0.0153414
844.514	0.0153283
844.592	0.0152703
844.670	0.0153176
844.748	0.0152230
844.826	0.0154301
844.905	0.0152498
844.983	0.0153110
845.061	0.0154028
845.139	0.0154087
845.217	0.0154218
845.295	0.0153162
845.373	0.0154314
845.451	0.0153959
845.530	0.0154099
845.608	0.0154021
845.686	0.0154403
845.764	0.0155035
845.842	0.0153738
845.920	0.0154015
845.998	0.0154855
846.076	0.0154331
846.155	0.0152629
846.233	0.0153112
846.311	0.0153897
846.389	0.0153036
846.467	0.0153643
846.545	0.0154909
846.623	0.0153317
846.701	0.0153892
846.780	0.0151724
846.858	0.0153854
846.936	0.0153326
847.014	0.0154194
847.092	0.0155248
847.170	0.0152937
847.248	0.0152096
847.326	0.0153616
847.405	0.0154109
847.483	0.0153658
847.561	0.0153919
847.639	0.0154946
847.717	0.0155772
847.795	0.0154379
847.873	0.0154975
847.951	0.0156559
848.030	0.0155042
848.108	0.0155935
848.186	0.0155293
848.264	0.0155836
848.342	0.0155276
848.420	0.0155262
848.498	0.0155222
848.576	0.0155780
848.655	0.0154897
848.733	0.0155503
848.811	0.0154480
848.889	0.0154334
848.967	0.0154697
849.045	0.0153233
849.123	0.0154294
849.201	0.0155355
849.280	0.0153420
849.358	0.0153773
849.436	0.0154524
849.514	0.0155665
849.592	0.0153506
849.670	0.0155474
849.748	0.0154541
849.826	0.0155338
849.905	0.0154607
849.983	0.0154226
850.061	0.0153864
850.139	0.0155299
850.217	0.0155822
850.295	0.0155381
850.373	0.0155359
850.451	0.0155820
850.530	0.0156246
850.608	0.0155224
850.686	0.0154932
850.764	0.0155836
850.842	0.0155425
850.920	0.0154144
850.998	0.0156054
851.076	0.0155746
851.155	0.0155080
851.233	0.0156089
851.311	0.0154440
851.389	0.0156076
851.467	0.0155485
851.545	0.0155054
851.623	0.0156551
851.701	0.0156070
851.780	0.0156721
851.858	0.0155890
851.936	0.0156929
852.014	0.0156620
852.092	0.0157828
852.170	0.0154964
852.248	0.0156495
852.326	0.0155577
852.405	0.0156007
852.483	0.0157293
852.561	0.0156222
852.639	0.0155741
852.717	0.0155242
852.795	0.0154412
852.873	0.0155841
852.951	0.0155012
853.030	0.0156209
853.108	0.0154299
853.186	0.0155505
853.264	0.0155692
853.342	0.0155502
853.420	0.0155299
853.498	0.0154089
853.576	0.0154556
853.655	0.0155890
853.733	0.0155042
853.811	0.0154437
853.889	0.0155488
853.967	0.0154139
854.045	0.0154002
854.123	0.0154376
854.201	0.0154718
854.280	0.0154440
854.358	0.0153631
854.436	0.0154818
854.514	0.0155817
854.592	0.0155955
854.670	0.0153465
854.748	0.0154155
854.826	0.0153999
854.905	0.0153569
854.983	0.0154562
855.061	0.0154375
855.139	0.0154697
855.217	0.0156389
855.295	0.0154945
855.373	0.0154470
855.451	0.0155821
855.530	0.0154007
855.608	0.0155618
855.686	0.0155222
855.764	0.0155729
855.842	0.0155677
855.920	0.0155508
855.998	0.0155898
856.076	0.0155693
856.155	0.0154426
856.233	0.0154566
856.311	0.0156057
856.389	0.0154190
856.467	0.0154930
856.545	0.0155175
856.623	0.0155086
856.701	0.0154684
856.780	0.0155211
856.858	0.0156826
856.936	0.0155868
857.014	0.0155161
857.092	0.0156687
857.170	0.0156901
857.248	0.0154890
857.326	0.0154878
857.405	0.0156312
857.483	0.0155829
857.561	0.0155616
857.639	0.0155930
857.717	0.0155562
857.795	0.0155344
857.873	0.0156826
857.951	0.0155669
858.030	0.0154517
858.108	0.0155496
858.186	0.0156187
858.264	0.0154941
858.342	0.0155098
858.420	0.0155245
858.498	0.0154671
858.576	0.0155717
858.655	0.0154130
858.733	0.0155130
858.811	0.0155805
858.889	0.0155103
858.967	0.0154610
859.045	0.0154900
859.123	0.0155115
859.201	0.0152312
859.280	0.0154489
859.358	0.0153818
859.436	0.0152343
859.514	0.0154042
859.592	0.0154569
859.670	0.0154488
859.748	0.0155428
859.826	0.0154286
859.905	0.0153997
859.983	0.0154442
860.061	0.0152779
860.139	0.0153614
860.217	0.0155453
860.295	0.0153698
860.373	0.0151474
860.451	0.0154654
860.530	0.0153596
860.608	0.0154242
860.686	0.0153342
860.764	0.0154060
860.842	0.0153301
860.920	0.0152692
860.998	0.0153452
861.076	0.0152430
861.155	0.0153097
861.233	0.0152910
861.311	0.0153984
861.389	0.0153189
861.467	0.0154179
861.545	0.0154541
861.623	0.0152876
861.701	0.0154402
861.780	0.0153776
861.858	0.0152776
861.936	0.0154842
862.014	0.0155251
862.092	0.0154378
862.170	0.0154242
862.248	0.0154483
862.326	0.0154869
862.405	0.0154614
862.483	0.0154604
862.561	0.0153781
862.639	0.0154456
862.717	0.0153500
862.795	0.0154589
862.873	0.0155067
862.951	0.0155675
863.030	0.0153898
863.108	0.0153983
863.186	0.0153994
863.264	0.0154886
863.342	0.0153683
863.420	0.0154160
863.498	0.0154790
863.576	0.0154602
863.655	0.0153831
863.733	0.0154292
863.811	0.0153866
863.889	0.0153272
863.967	0.0155058
864.045	0.0154131
864.123	0.0153252
864.201	0.0152995
864.280	0.0152688
864.358	0.0153327
864.436	0.0154555
864.514	0.0153262
864.592	0.0153274
864.670	0.0153500
864.748	0.0154165
864.826	0.0153873
864.905	0.0153793
864.983	0.0154835
865.061	0.0153561
865.139	0.0151817
865.217	0.0152859
865.295	0.0154111
865.373	0.0154681
865.451	0.0153288
865.530	0.0152248
865.608	0.0152793
865.686	0.0153519
865.764	0.0153277
865.842	0.0153509
865.920	0.0152732
865.998	0.0153629
866.076	0.0152055
866.155	0.0153526
866.233	0.0153203
866.311	0.0153226
866.389	0.0154202
866.467	0.0152220
866.545	0.0152862
866.623	0.0154372
866.701	0.0154377
866.780	0.0155449
866.858	0.0154752
866.936	0.0154056
867.014	0.0155119
867.092	0.0153728
867.170	0.0154597
867.248	0.0155523
867.326	0.0154566
867.405	0.0153424
867.483	0.0154609
867.561	0.0153829
867.639	0.0155169
867.717	0.0154620
867.795	0.0155565
867.873	0.0155801
867.951	0.0154187
868.030	0.0154692
868.108	0.0155176
868.186	0.0154434
868.264	0.0156384
868.342	0.0155648
868.420	0.0155881
868.498	0.0154714
868.576	0.0155091
868.655	0.0155585
868.733	0.0155534
868.811	0.0155629
868.889	0.0156117
868.967	0.0154949
869.045	0.0155168
869.123	0.0155083
869.201	0.0155611
869.280	0.0153916
869.358	0.0155047
869.436	0.0154777
869.514	0.0154089
869.592	0.0154472
869.670	0.0154147
869.748	0.0153173
869.826	0.0155285
869.905	0.0154861
869.983	0.0153596
870.061	0.0153680
870.139	0.0155251
870.217	0.0153892
870.295	0.0154517
870.373	0.0154227
870.451	0.0154507
870.530	0.0154869
870.608	0.0153112
870.686	0.0156300
870.764	0.0154073
870.842	0.0153778
870.920	0.0153648
870.998	0.0155388
871.076	0.0152277
871.155	0.0154018
871.233	0.0154442
871.311	0.0155174
871.389	0.0153567
871.467	0.0153414
871.545	0.0154492
871.623	0.0154765
871.701	0.0153719
871.780	0.0154959
871.858	0.0154065
871.936	0.0154948
872.014	0.0154387
872.092	0.0155168
872.170	0.0154285
872.248	0.0154729
872.326	0.0154739
872.405	0.0154713
872.483	0.0154890
872.561	0.0154408
872.639	0.0154702
872.717	0.0155204
872.795	0.0154881
872.873	0.0155175
872.951	0.0155118
873.030	0.0155569
873.108	0.0154895
873.186	0.0154639
873.264	0.0153797
873.342	0.0153505
873.420	0.0154967
873.498	0.0154698
873.576	0.0154588
873.655	0.0154932
873.733	0.0153284
873.811	0.0154727
873.889	0.0153803
873.967	0.0154549
874.045	0.0153801
874.123	0.0154012
874.201	0.0154590
874.280	0.0155109
874.358	0.0155231
874.436	0.0154205
874.514	0.0154576
874.592	0.0155350
874.670	0.0155458
874.748	0.0155522
874.826	0.0155414
874.905	0.0154331
874.983	0.0155297
875.061	0.0154646
875.139	0.0155061
875.217	0.0154970
875.295	0.0155505
875.373	0.0154187
875.451	0.0154675
875.530	0.0154578
875.608	0.0154108
875.686	0.0152894
875.764	0.0152672
875.842	0.0153934
875.920	0.0152849
875.998	0.0152868
876.076	0.0153055
876.155	0.0153840
876.233	0.0153439
876.311	0.0153423
876.389	0.0153269
876.467	0.0154987
876.545	0.0154649
876.623	0.0154043
876.701	0.0153629
876.780	0.0153141
876.858	0.0152493
876.936	0.0154433
877.014	0.0155167
877.092	0.0153163
877.170	0.0153362
877.248	0.0153133
877.326	0.0153870
877.405	0.0155393
877.483	0.0154225
877.561	0.0153157
877.639	0.0155709
877.717	0.0154649
877.795	0.0155490
877.873	0.0155363
877.951	0.0154241
878.030	0.0153773
878.108	0.0155491
878.186	0.0155582
878.264	0.0154590
878.342	0.0154382
878.420	0.0156620
878.498	0.0154797
878.576	0.0154210
878.655	0.0155727
878.733	0.0156565
878.811	0.0155806
878.889	0.0155379
878.967	0.0154862
879.045	0.0156104
879.123	0.0156715
879.201	0.0155534
879.280	0.0155647
879.358	0.0153674
879.436	0.0153726
879.514	0.0155205
879.592	0.0156942
879.670	0.0155269
879.748	0.0154502
879.826	0.0154150
879.905	0.0155536
879.983	0.0155181
880.061	0.0154874
880.139	0.0152882
880.217	0.0153761
880.295	0.0154480
880.373	0.0154194
880.451	0.0153391
880.530	0.0155393
880.608	0.0154141
880.686	0.0154043
880.764	0.0154711
880.842	0.0156239
880.920	0.0155698
880.998	0.0154214
881.076	0.0153980
881.155	0.0153178
881.233	0.0154240
881.311	0.0154115
881.389	0.0154580
881.467	0.0155290
881.545	0.0155985
881.623	0.0154971
881.701	0.0153786
881.780	0.0153816
881.858	0.0154394
881.936	0.0152882
882.014	0.0153705
882.092	0.0153291
882.170	0.0154005
882.248	0.0153668
882.326	0.0153108
882.405	0.0153749
882.483	0.0155040
882.561	0.0153767
882.639	0.0153459
882.717	0.0152999
882.795	0.0152110
882.873	0.0154420
882.951	0.0154902
883.030	0.0153716
883.108	0.0152886
883.186	0.0154144
883.264	0.0154124
883.342	0.0154837
883.420	0.0154302
883.498	0.0155487
883.576	0.0155830
883.655	0.0154881
883.733	0.0155747
883.811	0.0155090
883.889	0.0154924
883.967	0.0154741
884.045	0.0156551
884.123	0.0155454
884.201	0.0154948
884.280	0.0154641
884.358	0.0154926
884.436	0.0154169
884.514	0.0155064
884.592	0.0155000
884.670	0.0154673
884.748	0.0154317
884.826	0.0154773
884.905	0.0154954
884.983	0.0153513
885.061	0.0154166
885.139	0.0153556
885.217	0.0152565
885.295	0.0153157
885.373	0.0153902
885.451	0.0153023
885.530	0.0153932
885.608	0.0153044
885.686	0.0153607
885.764	0.0154561
885.842	0.0154591
885.920	0.0154036
885.998	0.0153329
886.076	0.0154766
886.155	0.0155579
886.233	0.0153940
886.311	0.0154806
886.389	0.0154426
886.467	0.0155116
886.545	0.0155307
886.623	0.0155613
886.701	0.0154074
886.780	0.0154504
886.858	0.0154577
886.936	0.0153199
887.014	0.0152481
887.092	0.0154707
887.170	0.0154612
887.248	0.0154743
887.326	0.0155463
887.405	0.0154443
887.483	0.0155709
887.561	0.0156066
887.639	0.0155733
887.717	0.0156116
887.795	0.0155025
887.873	0.0155172
887.951	0.0154994
888.030	0.0155126
888.108	0.0154203
888.186	0.0154902
888.264	0.0155860
888.342	0.0155276
888.420	0.0154092
888.498	0.0153966
888.576	0.0155024
888.655	0.0154650
888.733	0.0154653
888.811	0.0154694
888.889	0.0154420
888.967	0.0154544
889.045	0.0156062
889.123	0.0155282
889.201	0.0154626
889.280	0.0154359
889.358	0.0154296
889.436	0.0154420
889.514	0.0155036
889.592	0.0156349
889.670	0.0154903
889.748	0.0154523
889.826	0.0155495
889.905	0.0154882
889.983	0.0153515
890.061	0.0154588
890.139	0.0155206
890.217	0.0155093
890.295	0.0156316
890.373	0.0153963
890.451	0.0154539
890.530	0.0155605
890.608	0.0154701
890.686	0.0156074
890.764	0.0156448
890.842	0.0156831
890.920	0.0156565
890.998	0.0156482
891.076	0.0157520
891.155	0.0156724
891.233	0.0156845
891.311	0.0156615
891.389	0.0158109
891.467	0.0156174
891.545	0.0156118
891.623	0.0156834
891.701	0.0156591
891.780	0.0157153
891.858	0.0157153
891.936	0.0156635
892.014	0.0156069
892.092	0.0156425
892.170	0.0155425
892.248	0.0155403
892.326	0.0157080
892.405	0.0155878
892.483	0.0154894
892.561	0.0154697
892.639	0.0155173
892.717	0.0155434
892.795	0.0154996
892.873	0.0154549
892.951	0.0153391
893.030	0.0153613
893.108	0.0154956
893.186	0.0155648
893.264	0.0154885
893.342	0.0153940
893.420	0.0155251
893.498	0.0155585
893.576	0.0155287
893.655	0.0154794
893.733	0.0155666
893.811	0.0155534
893.889	0.0155972
893.967	0.0155605
894.045	0.0154865
894.123	0.0155061
894.201	0.0155638
894.280	0.0155266
894.358	0.0155570
894.436	0.0154679
894.514	0.0155659
894.592	0.0156506
894.670	0.0156461
894.748	0.0155812
894.826	0.0154317
894.905	0.0155051
894.983	0.0155793
895.061	0.0153616
895.139	0.0153718
895.217	0.0153823
895.295	0.0152962
895.373	0.0154677
895.451	0.0154089
895.530	0.0152951
895.608	0.0153339
895.686	0.0155196
895.764	0.0154603
895.842	0.0154610
895.920	0.0154808
895.998	0.0154795
896.076	0.0155946
896.155	0.0153730
896.233	0.0153806
896.311	0.0156110
896.389	0.0154158
896.467	0.0155798
896.545	0.0154448
896.623	0.0154124
896.701	0.0155025
896.780	0.0154746
896.858	0.0154232
896.936	0.0153683
897.014	0.0154230
897.092	0.0153705
897.170	0.0153907
897.248	0.0153285
897.326	0.0153819
897.405	0.0153914
897.483	0.0153394
897.561	0.0153513
897.639	0.0153397
897.717	0.0152591
897.795	0.0152657
897.873	0.0153282
897.951	0.0153906
898.030	0.0153716
898.108	0.0152779
898.186	0.0152818
898.264	0.0153362
898.342	0.0153634
898.420	0.0152507
898.498	0.0151679
898.576	0.0153373
898.655	0.0153184
898.733	0.0153866
898.811	0.0151894
898.889	0.0152597
898.967	0.0151776
899.045	0.0153765
899.123	0.0151804
899.201	0.0152831
899.280	0.0153719
899.358	0.0152115
899.436	0.0153364
899.514	0.0152564
899.592	0.0152982
899.670	0.0153415
899.748	0.0154151
899.826	0.0155158
899.905	0.0155354
899.983	0.0154945
900.061	0.0153836
900.139	0.0155229
900.217	0.0155606
900.295	0.0155630
900.373	0.0154446
900.451	0.0154555
900.530	0.0153861
900.608	0.0153722
900.686	0.0153681
900.764	0.0154617
900.842	0.0154342
900.920	0.0153771
900.998	0.0153220
901.076	0.0152422
901.155	0.0153699
901.233	0.0154223
901.311	0.0153349
901.389	0.0152654
901.467	0.0153689
901.545	0.0153185
901.623	0.0153414
901.701	0.0153908
901.780	0.0152915
901.858	0.0151923
901.936	0.0152461
902.014	0.0151579
902.092	0.0152287
902.170	0.0152361
902.248	0.0152218
902.326	0.0152282
902.405	0.0151762
902.483	0.0152501
902.561	0.0152164
902.639	0.0151926
902.717	0.0153094
902.795	0.0151916
902.873	0.0152856
902.951	0.0153767
903.030	0.0150490
903.108	0.0153054
903.186	0.0153365
903.264	0.0153030
903.342	0.0152905
903.420	0.0152467
903.498	0.0153298
903.576	0.0154816
903.655	0.0154128
903.733	0.0153338
903.811	0.0155476
903.889	0.0155379
903.967	0.0153889
904.045	0.0153697
904.123	0.0156174
904.201	0.0155311
904.280	0.0154263
904.358	0.0154447
904.436	0.0154076
904.514	0.0155100
904.592	0.0153783
904.670	0.0153934
904.748	0.0153593
904.826	0.0154608
904.905	0.0154524
904.983	0.0154848
905.061	0.0155891
905.139	0.0154565
905.217	0.0155214
905.295	0.0154603
905.373	0.0154995
905.451	0.0153985
905.530	0.0155422
905.608	0.0155069
905.686	0.0154838
905.764	0.0154669
905.842	0.0154409
905.920	0.0154213
905.998	0.0154248
906.076	0.0156147
906.155	0.0154355
906.233	0.0154108
906.311	0.0156396
906.389	0.0155398
906.467	0.0156382
906.545	0.0155871
906.623	0.0155895
906.701	0.0156111
906.780	0.0156550
906.858	0.0155331
906.936	0.0155194
907.014	0.0156483
907.092	0.0156776
907.170	0.0155437
907.248	0.0154985
907.326	0.0155072
907.405	0.0157218
907.483	0.0155184
907.561	0.0156116
907.639	0.0155186
907.717	0.0155566
907.795	0.0154246
907.873	0.0154028
907.951	0.0156127
908.030	0.0155349
908.108	0.0154880
908.186	0.0153960
908.264	0.0155121
908.342	0.0155231
908.420	0.0154846
908.498	0.0153822
908.576	0.0154192
908.655	0.0155001
908.733	0.0154094
908.811	0.0153058
908.889	0.0154384
908.967	0.0156133
909.045	0.0153603
909.123	0.0154908
909.201	0.0155798
909.280	0.0154424
909.358	0.0154663
909.436	0.0155848
909.514	0.0156273
909.592	0.0155006
909.670	0.0155240
909.748	0.0154416
909.826	0.0156082
909.905	0.0155093
909.983	0.0153461
910.061	0.0154908
910.139	0.0155775
910.217	0.0154771
910.295	0.0154307
910.373	0.0153297
910.451	0.0153945
910.530	0.0153265
910.608	0.0154287
910.686	0.0154178
910.764	0.0154384
910.842	0.0153542
910.920	0.0154156
910.998	0.0154926
911.076	0.0154581
911.155	0.0153566
911.233	0.0154634
911.311	0.0154924
911.389	0.0155244
911.467	0.0155341
911.545	0.0154167
911.623	0.0155336
911.701	0.0155990
911.780	0.0155729
911.858	0.0155473
911.936	0.0155511
912.014	0.0155017
912.092	0.0155887
912.170	0.0155792
912.248	0.0154875
912.326	0.0155704
912.405	0.0154712
912.483	0.0156195
912.561	0.0154678
912.639	0.0154995
912.717	0.0155676
912.795	0.0155544
912.873	0.0154484
912.951	0.0155864
913.030	0.0156702
913.108	0.0155412
913.186	0.0156427
913.264	0.0156355
913.342	0.0157442
913.420	0.0157051
913.498	0.0155886
913.576	0.0157055
913.655	0.0156120
913.733	0.0156517
913.811	0.0157244
913.889	0.0157259
913.967	0.0157468
914.045	0.0156234
914.123	0.0155864
914.201	0.0155870
914.280	0.0156560
914.358	0.0155268
914.436	0.0155475
914.514	0.0155550
914.592	0.0156282
914.670	0.0155882
914.748	0.0155433
914.826	0.0155789
914.905	0.0155010
914.983	0.0156032
915.061	0.0155909
915.139	0.0154975
915.217	0.0155419
915.295	0.0157459
915.373	0.0156898
915.451	0.0154815
915.530	0.0154871
915.608	0.0154568
915.686	0.0154440
915.764	0.0154408
915.842	0.0155795
915.920	0.0154362
915.998	0.0153423
916.076	0.0153953
916.155	0.0154058
916.233	0.0153487
916.311	0.0154012
916.389	0.0153391
916.467	0.0155139
916.545	0.0153708
916.623	0.0153934
916.701	0.0155096
916.780	0.0154446
916.858	0.0155029
916.936	0.0155078
917.014	0.0155363
917.092	0.0154064
917.170	0.0154922
917.248	0.0154993
917.326	0.0153641
917.405	0.0154572
917.483	0.0154813
917.561	0.0154528
917.639	0.0153878
917.717	0.0153641
917.795	0.0153479
917.873	0.0155027
917.951	0.0153146
918.030	0.0153058
918.108	0.0152751
918.186	0.0154433
918.264	0.0153590
918.342	0.0154446
918.420	0.0153381
918.498	0.0152538
918.576	0.0153454
918.655	0.0153782
918.733	0.0154607
918.811	0.0153936
918.889	0.0152979
918.967	0.0152956
919.045	0.0153557
919.123	0.0154290
919.201	0.0153676
919.280	0.0153439
919.358	0.0154097
919.436	0.0153500
919.514	0.0155025
919.592	0.0155141
919.670	0.0152838
919.748	0.0152922
919.826	0.0153168
919.905	0.0154701
919.983	0.0153427
920.061	0.0153665
920.139	0.0155584
920.217	0.0154231
920.295	0.0153098
920.373	0.0153817
920.451	0.0153522
920.530	0.0152952
920.608	0.0153220
920.686	0.0155357
920.764	0.0155090
920.842	0.0155016
920.920	0.0154197
920.998	0.0154406
921.076	0.0154276
921.155	0.0154578
921.233	0.0154770
921.311	0.0153588
921.389	0.0155587
921.467	0.0155727
921.545	0.0153821
921.623	0.0154611
921.701	0.0155650
921.780	0.0154926
921.858	0.0156501
921.936	0.0154378
922.014	0.0154623
922.092	0.0156272
922.170	0.0155418
922.248	0.0154447
922.326	0.0155041
922.405	0.0156237
922.483	0.0156254
922.561	0.0155241
922.639	0.0156113
922.717	0.0156364
922.795	0.0155074
922.873	0.0156293
922.951	0.0155499
923.030	0.0155332
923.108	0.0155242
923.186	0.0155656
923.264	0.0154696
923.342	0.0155547
923.420	0.0154811
923.498	0.0154668
923.576	0.0155411
923.655	0.0154948
923.733	0.0154824
923.811	0.0153433
923.889	0.0154556
923.967	0.0153794
924.045	0.0153386
924.123	0.0154975
924.201	0.0154356
924.280	0.0153899
924.358	0.0155128
924.436	0.0154976
924.514	0.0153589
924.592	0.0154598
924.670	0.0154320
924.748	0.0154099
924.826	0.0153938
924.905	0.0153578
924.983	0.0153321
925.061	0.0152853
925.139	0.0153371
925.217	0.0153908
925.295	0.0154813
925.373	0.0154902
925.451	0.0153994
925.530	0.0153180
925.608	0.0153635
925.686	0.0153687
925.764	0.0153253
925.842	0.0154557
925.920	0.0154097
925.998	0.0155801
926.076	0.0155847
926.155	0.0155306
926.233	0.0154902
926.311	0.0154864
926.389	0.0155995
926.467	0.0155455
926.545	0.0154782
926.623	0.0155330
926.701	0.0154608
926.780	0.0155093
926.858	0.0155304
926.936	0.0154700
927.014	0.0156036
927.092	0.0155305
927.170	0.0155737
927.248	0.0154810
927.326	0.0154047
927.405	0.0154959
927.483	0.0155976
927.561	0.0155305
927.639	0.0156068
927.717	0.0155051
927.795	0.0154501
927.873	0.0153329
927.951	0.0154368
928.030	0.0153643
928.108	0.0154308
928.186	0.0153519
928.264	0.0155080
928.342	0.0155741
928.420	0.0152972
928.498	0.0154575
928.576	0.0153368
928.655	0.0154698
928.733	0.0154220
928.811	0.0152502
928.889	0.0154868
928.967	0.0154437
929.045	0.0156399
929.123	0.0154610
929.201	0.0153526
929.280	0.0154182
929.358	0.0154465
929.436	0.0154458
929.514	0.0154973
929.592	0.0153522
929.670	0.0154971
929.748	0.0154873
929.826	0.0155737
929.905	0.0155873
929.983	0.0155810
930.061	0.0157333
930.139	0.0156581
930.217	0.0155974
930.295	0.0156024
930.373	0.0157192
930.451	0.0156606
930.530	0.0156015
930.608	0.0157187
930.686	0.0156565
930.764	0.0157074
930.842	0.0154516
930.920	0.0156118
930.998	0.0155483
931.076	0.0156079
931.155	0.0156020
931.233	0.0155025
931.311	0.0155080
931.389	0.0154999
931.467	0.0155321
931.545	0.0154064
931.623	0.0153853
931.701	0.0153882
931.780	0.0153745
931.858	0.0154977
931.936	0.0153880
932.014	0.0154322
932.092	0.0154637
932.170	0.0152957
932.248	0.0154588
932.326	0.0154021
932.405	0.0153052
932.483	0.0152868
932.561	0.0153510
932.639	0.0153042
932.717	0.0154230
932.795	0.0153936
932.873	0.0152525
932.951	0.0154759
933.030	0.0153572
933.108	0.0153052
933.186	0.0153364
933.264	0.0154085
933.342	0.0154708
933.420	0.0153704
933.498	0.0153164
933.576	0.0154784
933.655	0.0154324
933.733	0.0153780
933.811	0.0154316
933.889	0.0153493
933.967	0.0154844
934.045	0.0155308
934.123	0.0154330
934.201	0.0154356
934.280	0.0155396
934.358	0.0155747
934.436	0.0155778
934.514	0.0156385
934.592	0.0155315
934.670	0.0154588
934.748	0.0155222
934.826	0.0156451
934.905	0.0156452
934.983	0.0155374
935.061	0.0155903
935.139	0.0154295
935.217	0.0154657
935.295	0.0155693
935.373	0.0155833
935.451	0.0154094
935.530	0.0155231
935.608	0.0155730
935.686	0.0153819
935.764	0.0153685
935.842	0.0153898
935.920	0.0153860
935.998	0.0154230
936.076	0.0154113
936.155	0.0155473
936.233	0.0153184
936.311	0.0154309
936.389	0.0154863
936.467	0.0154677
936.545	0.0154722
936.623	0.0153881
936.701	0.0153731
936.780	0.0153230
936.858	0.0153824
936.936	0.0154800
937.014	0.0154719
937.092	0.0154427
937.170	0.0154928
937.248	0.0153497
937.326	0.0153730
937.405	0.0153420
937.483	0.0154120
937.561	0.0154748
937.639	0.0154838
937.717	0.0153916
937.795	0.0154106
937.873	0.0153913
937.951	0.0155903
938.030	0.0154207
938.108	0.0153525
938.186	0.0155573
938.264	0.0154066
938.342	0.0153900
938.420	0.0153131
938.498	0.0153999
938.576	0.0154102
938.655	0.0153000
938.733	0.0153359
938.811	0.0153616
938.889	0.0153545
938.967	0.0153737
939.045	0.0152132
939.123	0.0153642
939.201	0.0154015
939.280	0.0154716
939.358	0.0153899
939.436	0.0153439
939.514	0.0152737
939.592	0.0154430
939.670	0.0153858
939.748	0.0153445
939.826	0.0155024
939.905	0.0154490
939.983	0.0154602
940.061	0.0153128
940.139	0.0154160
940.217	0.0154368
940.295	0.0153143
940.373	0.0153823
940.451	0.0153270
940.530	0.0152699
940.608	0.0154070
940.686	0.0153790
940.764	0.0153368
940.842	0.0153660
940.920	0.0155128
940.998	0.0154983
941.076	0.0155393
941.155	0.0154630
941.233	0.0154345
941.311	0.0155468
941.389	0.0153822
941.467	0.0154696
941.545	0.0154869
941.623	0.0154771
941.701	0.0155077
941.780	0.0154648
941.858	0.0155477
941.936	0.0153876
942.014	0.0153844
942.092	0.0154389
942.170	0.0154711
942.248	0.0153780
942.326	0.0152965
942.405	0.0153065
942.483	0.0154166
942.561	0.0154192
942.639	0.0154491
942.717	0.0153423
942.795	0.0153416
942.873	0.0153763
942.951	0.0154269
943.030	0.0154269
943.108	0.0153823
943.186	0.0153275
943.264	0.0154516
943.342	0.0153922
943.420	0.0153931
943.498	0.0154411
943.576	0.0153653
943.655	0.0153359
943.733	0.0154678
943.811	0.0153366
943.889	0.0152441
943.967	0.0154324
944.045	0.0153987
944.123	0.0153262
944.201	0.0155412
944.280	0.0153691
944.358	0.0153378
944.436	0.0153876
944.514	0.0152486
944.592	0.0154041
944.670	0.0154404
944.748	0.0152505
944.826	0.0152287
944.905	0.0152758
944.983	0.0152743
945.061	0.0152536
945.139	0.0152233
945.217	0.0154700
945.295	0.0153538
945.373	0.0152847
945.451	0.0153722
945.530	0.0153571
945.608	0.0154081
945.686	0.0154008
945.764	0.0154874
945.842	0.0153406
945.920	0.0152747
945.998	0.0153541
946.076	0.0153168
946.155	0.0154707
946.233	0.0153695
946.311	0.0154240
946.389	0.0154667
946.467	0.0153918
946.545	0.0154409
946.623	0.0155270
946.701	0.0154240
946.780	0.0153577
946.858	0.0154317
946.936	0.0152998
947.014	0.0154760
947.092	0.0154387
947.170	0.0155509
947.248	0.0154996
947.326	0.0155497
947.405	0.0154108
947.483	0.0155518
947.561	0.0154896
947.639	0.0155912
947.717	0.0155083
947.795	0.0155786
947.873	0.0154192
947.951	0.0152771
948.030	0.0155074
948.108	0.0155035
948.186	0.0155469
948.264	0.0154335
948.342	0.0154565
948.420	0.0154640
948.498	0.0155728
948.576	0.0154162
948.655	0.0153925
948.733	0.0155225
948.811	0.0155918
948.889	0.0155769
948.967	0.0156333
949.045	0.0155949
949.123	0.0155968
949.201	0.0155659
949.280	0.0155903
949.358	0.0156174
949.436	0.0155280
949.514	0.0155626
949.592	0.0156271
949.670	0.0154896
949.748	0.0155042
949.826	0.0154244
949.905	0.0154152
949.983	0.0155950
950.061	0.0156525
950.139	0.0156070
950.217	0.0154222
950.295	0.0154582
950.373	0.0153942
950.451	0.0154939
950.530	0.0154075
950.608	0.0154013
950.686	0.0153628
950.764	0.0153740
950.842	0.0153916
950.920	0.0153268
950.998	0.0154379
951.076	0.0154196
951.155	0.0155772
951.233	0.0153139
951.311	0.0153080
951.389	0.0155060
951.467	0.0154573
951.545	0.0154012
951.623	0.0153416
951.701	0.0154803
951.780	0.0155019
951.858	0.0153297
951.936	0.0155641
952.014	0.0154659
952.092	0.0154584
952.170	0.0154783
952.248	0.0154997
952.326	0.0153333
952.405	0.0154884
952.483	0.0156908
952.561	0.0155869
952.639	0.0155102
952.717	0.0155286
952.795	0.0155061
952.873	0.0155389
952.951	0.0155241
953.030	0.0155164
953.108	0.0154580
953.186	0.0154916
953.264	0.0153801
953.342	0.0154485
953.420	0.0153827
953.498	0.0154395
953.576	0.0155274
953.655	0.0154892
953.733	0.0154121
953.811	0.0153165
953.889	0.0154105
953.967	0.0154165
954.045	0.0153798
954.123	0.0154247
954.201	0.0155218
954.280	0.0153448
954.358	0.0153822
954.436	0.0154341
954.514	0.0153755
954.592	0.0153423
954.670	0.0154626
954.748	0.0152564
954.826	0.0154426
954.905	0.0155365
954.983	0.0154165
955.061	0.0153518
955.139	0.0153535
955.217	0.0155238
955.295	0.0154269
955.373	0.0153278
955.451	0.0153546
955.530	0.0153548
955.608	0.0154458
955.686	0.0154435
955.764	0.0153089
955.842	0.0154106
955.920	0.0153057
955.998	0.0155408
956.076	0.0153136
956.155	0.0153272
956.233	0.0153068
956.311	0.0153400
956.389	0.0154845
956.467	0.0154374
956.545	0.0153795
956.623	0.0153476
956.701	0.0152071
956.780	0.0153130
956.858	0.0154191
956.936	0.0153736
957.014	0.0152898
957.092	0.0154118
957.170	0.0153824
957.248	0.0154122
957.326	0.0152725
957.405	0.0152630
957.483	0.0151462
957.561	0.0153193
957.639	0.0152943
957.717	0.0152172
957.795	0.0152583
957.873	0.0152805
957.951	0.0153723
958.030	0.0153001
958.108	0.0152969
958.186	0.0152901
958.264	0.0153796
958.342	0.0154504
958.420	0.0153496
958.498	0.0154295
958.576	0.0153167
958.655	0.0152785
958.733	0.0154458
958.811	0.0153726
958.889	0.0154028
958.967	0.0154387
959.045	0.0154015
959.123	0.0154064
959.201	0.0154432
959.280	0.0155353
959.358	0.0154554
959.436	0.0154028
959.514	0.0152621
959.592	0.0154249
959.670	0.0153267
959.748	0.0154528
959.826	0.0155446
959.905	0.0153343
