05/20/2022	16:34:32	Ver.	4.1	UNKNOWN
Optical Delay	639.982744	Delta X		0.078125	Sweeps	1	Scan Rate	0/0
Coordinates	Axis 1	NaN	Axis 2	NaN	Axis 3	NaN	Axis 4	NaN	Axis 5	NaN	Axis 6	0.000000
TX Power	0.000000	RX Power	0.000000

639.983	0.0154331
640.061	0.0153856
640.139	0.0153969
640.217	0.0153661
640.295	0.0154057
640.373	0.0155511
640.451	0.0155149
640.530	0.0154189
640.608	0.0154485
640.686	0.0154796
640.764	0.0153799
640.842	0.0154060
640.920	0.0153204
640.998	0.0153606
641.076	0.0152375
641.155	0.0153621
641.233	0.0153208
641.311	0.0153909
641.389	0.0153901
641.467	0.0153564
641.545	0.0155288
641.623	0.0153307
641.701	0.0154026
641.780	0.0153961
641.858	0.0153471
641.936	0.0153295
642.014	0.0153066
642.092	0.0153420
642.170	0.0154109
642.248	0.0154362
642.326	0.0154047
642.405	0.0153799
642.483	0.0154384
642.561	0.0154006
642.639	0.0153803
642.717	0.0153532
642.795	0.0153800
642.873	0.0153742
642.951	0.0152663
643.030	0.0153265
643.108	0.0152452
643.186	0.0153097
643.264	0.0153308
643.342	0.0151962
643.420	0.0152873
643.498	0.0153389
643.576	0.0151912
643.655	0.0154656
643.733	0.0153227
643.811	0.0154424
643.889	0.0153075
643.967	0.0154308
644.045	0.0153925
644.123	0.0154469
644.201	0.0153432
644.280	0.0154216
644.358	0.0153754
644.436	0.0154007
644.514	0.0154142
644.592	0.0155125
644.670	0.0153361
644.748	0.0151711
644.826	0.0152434
644.905	0.0153281
644.983	0.0153477
645.061	0.0154333
645.139	0.0154256
645.217	0.0152851
645.295	0.0152811
645.373	0.0154456
645.451	0.0152802
645.530	0.0151851
645.608	0.0153097
645.686	0.0153251
645.764	0.0152541
645.842	0.0152975
645.920	0.0152728
645.998	0.0154105
646.076	0.0152513
646.155	0.0152851
646.233	0.0152694
646.311	0.0153510
646.389	0.0152902
646.467	0.0152971
646.545	0.0153778
646.623	0.0152522
646.701	0.0153690
646.780	0.0153807
646.858	0.0153856
646.936	0.0153744
647.014	0.0153359
647.092	0.0153793
647.170	0.0153091
647.248	0.0152393
647.326	0.0153456
647.405	0.0152851
647.483	0.0153452
647.561	0.0152397
647.639	0.0152225
647.717	0.0153173
647.795	0.0153399
647.873	0.0152202
647.951	0.0153159
648.030	0.0153685
648.108	0.0153077
648.186	0.0153279
648.264	0.0152957
648.342	0.0152663
648.420	0.0153403
648.498	0.0152350
648.576	0.0152963
648.655	0.0154170
648.733	0.0152759
648.811	0.0153582
648.889	0.0153725
648.967	0.0152464
649.045	0.0151774
649.123	0.0152563
649.201	0.0151899
649.280	0.0153234
649.358	0.0154079
649.436	0.0153909
649.514	0.0152878
649.592	0.0153578
649.670	0.0153557
649.748	0.0153256
649.826	0.0154373
649.905	0.0154377
649.983	0.0154080
650.061	0.0153589
650.139	0.0154719
650.217	0.0153442
650.295	0.0153024
650.373	0.0153880
650.451	0.0153993
650.530	0.0153384
650.608	0.0153954
650.686	0.0153452
650.764	0.0151812
650.842	0.0151454
650.920	0.0153672
650.998	0.0152425
651.076	0.0152192
651.155	0.0151132
651.233	0.0153179
651.311	0.0153642
651.389	0.0152667
651.467	0.0152940
651.545	0.0153286
651.623	0.0152795
651.701	0.0155694
651.780	0.0153425
651.858	0.0152966
651.936	0.0153531
652.014	0.0153730
652.092	0.0154002
652.170	0.0154012
652.248	0.0154084
652.326	0.0155090
652.405	0.0154418
652.483	0.0154559
652.561	0.0152418
652.639	0.0152714
652.717	0.0152368
652.795	0.0152895
652.873	0.0152345
652.951	0.0151934
653.030	0.0152083
653.108	0.0152953
653.186	0.0153303
653.264	0.0153860
653.342	0.0153297
653.420	0.0153458
653.498	0.0153704
653.576	0.0153132
653.655	0.0154543
653.733	0.0153742
653.811	0.0153352
653.889	0.0153453
653.967	0.0153650
654.045	0.0153353
654.123	0.0152930
654.201	0.0153515
654.280	0.0155058
654.358	0.0154063
654.436	0.0154234
654.514	0.0152644
654.592	0.0153070
654.670	0.0155534
654.748	0.0153674
654.826	0.0153213
654.905	0.0154621
654.983	0.0153986
655.061	0.0153038
655.139	0.0153596
655.217	0.0153664
655.295	0.0153961
655.373	0.0152409
655.451	0.0153478
655.530	0.0153825
655.608	0.0154116
655.686	0.0154111
655.764	0.0152946
655.842	0.0153299
655.920	0.0153716
655.998	0.0152870
656.076	0.0153301
656.155	0.0153321
656.233	0.0155019
656.311	0.0153763
656.389	0.0153615
656.467	0.0153741
656.545	0.0153645
656.623	0.0153624
656.701	0.0155342
656.780	0.0154004
656.858	0.0153194
656.936	0.0153989
657.014	0.0153962
657.092	0.0152810
657.170	0.0154039
657.248	0.0153571
657.326	0.0152121
657.405	0.0152697
657.483	0.0153244
657.561	0.0152968
657.639	0.0152795
657.717	0.0151598
657.795	0.0154007
657.873	0.0153477
657.951	0.0154011
658.030	0.0152934
658.108	0.0153352
658.186	0.0152367
658.264	0.0151945
658.342	0.0152256
658.420	0.0153520
658.498	0.0153959
658.576	0.0153464
658.655	0.0153793
658.733	0.0153238
658.811	0.0153672
658.889	0.0154200
658.967	0.0154226
659.045	0.0154232
659.123	0.0152435
659.201	0.0153575
659.280	0.0154655
659.358	0.0153574
659.436	0.0154208
659.514	0.0153819
659.592	0.0153845
659.670	0.0154681
659.748	0.0153232
659.826	0.0153294
659.905	0.0153909
659.983	0.0153862
660.061	0.0154621
660.139	0.0154404
660.217	0.0153938
660.295	0.0152823
660.373	0.0154230
660.451	0.0153508
660.530	0.0154384
660.608	0.0153477
660.686	0.0154340
660.764	0.0154269
660.842	0.0154939
660.920	0.0154053
660.998	0.0154436
661.076	0.0154839
661.155	0.0153638
661.233	0.0154253
661.311	0.0154366
661.389	0.0154941
661.467	0.0153113
661.545	0.0154873
661.623	0.0155853
661.701	0.0155342
661.780	0.0153029
661.858	0.0154536
661.936	0.0153374
662.014	0.0153687
662.092	0.0154568
662.170	0.0154031
662.248	0.0153201
662.326	0.0153996
662.405	0.0154042
662.483	0.0154076
662.561	0.0153884
662.639	0.0154465
662.717	0.0154648
662.795	0.0153117
662.873	0.0153284
662.951	0.0153608
663.030	0.0153867
663.108	0.0153473
663.186	0.0153125
663.264	0.0154389
663.342	0.0152715
663.420	0.0153912
663.498	0.0154127
663.576	0.0153695
663.655	0.0154560
663.733	0.0154304
663.811	0.0154388
663.889	0.0153905
663.967	0.0154099
664.045	0.0153329
664.123	0.0152723
664.201	0.0153415
664.280	0.0154513
664.358	0.0152965
664.436	0.0154918
664.514	0.0154670
664.592	0.0152213
664.670	0.0151863
664.748	0.0154685
664.826	0.0153320
664.905	0.0154075
664.983	0.0152992
665.061	0.0152000
665.139	0.0153577
665.217	0.0152861
665.295	0.0153405
665.373	0.0154662
665.451	0.0154939
665.530	0.0153623
665.608	0.0153790
665.686	0.0153810
665.764	0.0154479
665.842	0.0154803
665.920	0.0152536
665.998	0.0154678
666.076	0.0154304
666.155	0.0155254
666.233	0.0155621
666.311	0.0153444
666.389	0.0153107
666.467	0.0154027
666.545	0.0151751
666.623	0.0155025
666.701	0.0154583
666.780	0.0153499
666.858	0.0153674
666.936	0.0153944
667.014	0.0153591
667.092	0.0152534
667.170	0.0153006
667.248	0.0152860
667.326	0.0153504
667.405	0.0152151
667.483	0.0152818
667.561	0.0152737
667.639	0.0151501
667.717	0.0152319
667.795	0.0151074
667.873	0.0150298
667.951	0.0150632
668.030	0.0150908
668.108	0.0151226
668.186	0.0150532
668.264	0.0150614
668.342	0.0152301
668.420	0.0151588
668.498	0.0152152
668.576	0.0151888
668.655	0.0151550
668.733	0.0152459
668.811	0.0153292
668.889	0.0152279
668.967	0.0152907
669.045	0.0153695
669.123	0.0154089
669.201	0.0154623
669.280	0.0153519
669.358	0.0153359
669.436	0.0152946
669.514	0.0154934
669.592	0.0154474
669.670	0.0154567
669.748	0.0155220
669.826	0.0154679
669.905	0.0155171
669.983	0.0155942
670.061	0.0155373
670.139	0.0154948
670.217	0.0155325
670.295	0.0154824
670.373	0.0154514
670.451	0.0154890
670.530	0.0154513
670.608	0.0153048
670.686	0.0151676
670.764	0.0150683
670.842	0.0152406
670.920	0.0149144
670.998	0.0149867
671.076	0.0149674
671.155	0.0148775
671.233	0.0149656
671.311	0.0149512
671.389	0.0149100
671.467	0.0150819
671.545	0.0150381
671.623	0.0150977
671.701	0.0151575
671.780	0.0151897
671.858	0.0152242
671.936	0.0153471
672.014	0.0153503
672.092	0.0155706
672.170	0.0155922
672.248	0.0156389
672.326	0.0156944
672.405	0.0157043
672.483	0.0157928
672.561	0.0158508
672.639	0.0158866
672.717	0.0158591
672.795	0.0158425
672.873	0.0158809
672.951	0.0158479
673.030	0.0157476
673.108	0.0156389
673.186	0.0157029
673.264	0.0156397
673.342	0.0155194
673.420	0.0153404
673.498	0.0152953
673.576	0.0153062
673.655	0.0150822
673.733	0.0149569
673.811	0.0148038
673.889	0.0147853
673.967	0.0147342
674.045	0.0146862
674.123	0.0146101
674.201	0.0146005
674.280	0.0145328
674.358	0.0145442
674.436	0.0146186
674.514	0.0146092
674.592	0.0146973
674.670	0.0146805
674.748	0.0147955
674.826	0.0150089
674.905	0.0151327
674.983	0.0152544
675.061	0.0152795
675.139	0.0155933
675.217	0.0156601
675.295	0.0157718
675.373	0.0159181
675.451	0.0160036
675.530	0.0162091
675.608	0.0161560
675.686	0.0163848
675.764	0.0161853
675.842	0.0163577
675.920	0.0164366
675.998	0.0163064
676.076	0.0162628
676.155	0.0161479
676.233	0.0161989
676.311	0.0160997
676.389	0.0158739
676.467	0.0156444
676.545	0.0155483
676.623	0.0152033
676.701	0.0150523
676.780	0.0151031
676.858	0.0148401
676.936	0.0147190
677.014	0.0143211
677.092	0.0143983
677.170	0.0144052
677.248	0.0142823
677.326	0.0143310
677.405	0.0143422
677.483	0.0142434
677.561	0.0142997
677.639	0.0143610
677.717	0.0144733
677.795	0.0146232
677.873	0.0146834
677.951	0.0149409
678.030	0.0149450
678.108	0.0150948
678.186	0.0151537
678.264	0.0152924
678.342	0.0153540
678.420	0.0155099
678.498	0.0155047
678.576	0.0157232
678.655	0.0157527
678.733	0.0158006
678.811	0.0159801
678.889	0.0159103
678.967	0.0159031
679.045	0.0158527
679.123	0.0158904
679.201	0.0158632
679.280	0.0157769
679.358	0.0157689
679.436	0.0156915
679.514	0.0156197
679.592	0.0153874
679.670	0.0154682
679.748	0.0154193
679.826	0.0154471
679.905	0.0154438
679.983	0.0155411
680.061	0.0155363
680.139	0.0156001
680.217	0.0154929
680.295	0.0154559
680.373	0.0155208
680.451	0.0154343
680.530	0.0154900
680.608	0.0154945
680.686	0.0155898
680.764	0.0154491
680.842	0.0154185
680.920	0.0153672
680.998	0.0153588
681.076	0.0151366
681.155	0.0150496
681.233	0.0150421
681.311	0.0149064
681.389	0.0148129
681.467	0.0147124
681.545	0.0146346
681.623	0.0147202
681.701	0.0146219
681.780	0.0144554
681.858	0.0144355
681.936	0.0145461
682.014	0.0145301
682.092	0.0145172
682.170	0.0145287
682.248	0.0145280
682.326	0.0146939
682.405	0.0149329
682.483	0.0148944
682.561	0.0152107
682.639	0.0154247
682.717	0.0154094
682.795	0.0155861
682.873	0.0158247
682.951	0.0157697
683.030	0.0159908
683.108	0.0159558
683.186	0.0162318
683.264	0.0161394
683.342	0.0161324
683.420	0.0161201
683.498	0.0163544
683.576	0.0163165
683.655	0.0163694
683.733	0.0163337
683.811	0.0163658
683.889	0.0163906
683.967	0.0162443
684.045	0.0162930
684.123	0.0162079
684.201	0.0162347
684.280	0.0160043
684.358	0.0157939
684.436	0.0156516
684.514	0.0154829
684.592	0.0152592
684.670	0.0149736
684.748	0.0148867
684.826	0.0146935
684.905	0.0145164
684.983	0.0144763
685.061	0.0141947
685.139	0.0140132
685.217	0.0140913
685.295	0.0140399
685.373	0.0139304
685.451	0.0139229
685.530	0.0139690
685.608	0.0139945
685.686	0.0140727
685.764	0.0142415
685.842	0.0142986
685.920	0.0144267
685.998	0.0146916
686.076	0.0147674
686.155	0.0149526
686.233	0.0151809
686.311	0.0153883
686.389	0.0156300
686.467	0.0158171
686.545	0.0159530
686.623	0.0162804
686.701	0.0163994
686.780	0.0165221
686.858	0.0169048
686.936	0.0168285
687.014	0.0168745
687.092	0.0171157
687.170	0.0169730
687.248	0.0169485
687.326	0.0168607
687.405	0.0167801
687.483	0.0165209
687.561	0.0163879
687.639	0.0161864
687.717	0.0158336
687.795	0.0155901
687.873	0.0152985
687.951	0.0151633
688.030	0.0148304
688.108	0.0143932
688.186	0.0143136
688.264	0.0141150
688.342	0.0138507
688.420	0.0138696
688.498	0.0137624
688.576	0.0136575
688.655	0.0134706
688.733	0.0134398
688.811	0.0134836
688.889	0.0134314
688.967	0.0136010
689.045	0.0137427
689.123	0.0138729
689.201	0.0139839
689.280	0.0144254
689.358	0.0144774
689.436	0.0147285
689.514	0.0149750
689.592	0.0152560
689.670	0.0154966
689.748	0.0156632
689.826	0.0158241
689.905	0.0161666
689.983	0.0163571
690.061	0.0164320
690.139	0.0163741
690.217	0.0165729
690.295	0.0166527
690.373	0.0167209
690.451	0.0165601
690.530	0.0165891
690.608	0.0164963
690.686	0.0163792
690.764	0.0162612
690.842	0.0162686
690.920	0.0160155
690.998	0.0158710
691.076	0.0158868
691.155	0.0156548
691.233	0.0157201
691.311	0.0155104
691.389	0.0154876
691.467	0.0154370
691.545	0.0154376
691.623	0.0152280
691.701	0.0152865
691.780	0.0152676
691.858	0.0151626
691.936	0.0152602
692.014	0.0151264
692.092	0.0151006
692.170	0.0151546
692.248	0.0152002
692.326	0.0150972
692.405	0.0151580
692.483	0.0150729
692.561	0.0150486
692.639	0.0149681
692.717	0.0148773
692.795	0.0148775
692.873	0.0147263
692.951	0.0145763
693.030	0.0144950
693.108	0.0145353
693.186	0.0146434
693.264	0.0144968
693.342	0.0143745
693.420	0.0144415
693.498	0.0145267
693.576	0.0145572
693.655	0.0145110
693.733	0.0145364
693.811	0.0147279
693.889	0.0148102
693.967	0.0149335
694.045	0.0150095
694.123	0.0152264
694.201	0.0150616
694.280	0.0151894
694.358	0.0150795
694.436	0.0151498
694.514	0.0150976
694.592	0.0151029
694.670	0.0150869
694.748	0.0150694
694.826	0.0152025
694.905	0.0152205
694.983	0.0152734
695.061	0.0154198
695.139	0.0153872
695.217	0.0156209
695.295	0.0156560
695.373	0.0158524
695.451	0.0160041
695.530	0.0160167
695.608	0.0157882
695.686	0.0160624
695.764	0.0160983
695.842	0.0159949
695.920	0.0162197
695.998	0.0162494
696.076	0.0162244
696.155	0.0161821
696.233	0.0162702
696.311	0.0162294
696.389	0.0162637
696.467	0.0163714
696.545	0.0161471
696.623	0.0162322
696.701	0.0162971
696.780	0.0160448
696.858	0.0161244
696.936	0.0161772
697.014	0.0160217
697.092	0.0159280
697.170	0.0158063
697.248	0.0157340
697.326	0.0158535
697.405	0.0156688
697.483	0.0154788
697.561	0.0154630
697.639	0.0152481
697.717	0.0151747
697.795	0.0149243
697.873	0.0148530
697.951	0.0147276
698.030	0.0144693
698.108	0.0143322
698.186	0.0142504
698.264	0.0139564
698.342	0.0138887
698.420	0.0139257
698.498	0.0138030
698.576	0.0136769
698.655	0.0137032
698.733	0.0137135
698.811	0.0136136
698.889	0.0136551
698.967	0.0137141
699.045	0.0138245
699.123	0.0140683
699.201	0.0140595
699.280	0.0142676
699.358	0.0145694
699.436	0.0146769
699.514	0.0150190
699.592	0.0153214
699.670	0.0154246
699.748	0.0155875
699.826	0.0159052
699.905	0.0160785
699.983	0.0160342
700.061	0.0162218
700.139	0.0163549
700.217	0.0165077
700.295	0.0164801
700.373	0.0164972
700.451	0.0165617
700.530	0.0164487
700.608	0.0164407
700.686	0.0164251
700.764	0.0165273
700.842	0.0163103
700.920	0.0163077
700.998	0.0162074
701.076	0.0159350
701.155	0.0158182
701.233	0.0157204
701.311	0.0156400
701.389	0.0154733
701.467	0.0154234
701.545	0.0151565
701.623	0.0150418
701.701	0.0150734
701.780	0.0148871
701.858	0.0149988
701.936	0.0150455
702.014	0.0151236
702.092	0.0151647
702.170	0.0151947
702.248	0.0151668
702.326	0.0152781
702.405	0.0152039
702.483	0.0153749
702.561	0.0151956
702.639	0.0153529
702.717	0.0154353
702.795	0.0152409
702.873	0.0153435
702.951	0.0152358
703.030	0.0152781
703.108	0.0154029
703.186	0.0152471
703.264	0.0153742
703.342	0.0155159
703.420	0.0155119
703.498	0.0154178
703.576	0.0153635
703.655	0.0153960
703.733	0.0153570
703.811	0.0153390
703.889	0.0152676
703.967	0.0152095
704.045	0.0151122
704.123	0.0150345
704.201	0.0149416
704.280	0.0149015
704.358	0.0147741
704.436	0.0147047
704.514	0.0147407
704.592	0.0146987
704.670	0.0146918
704.748	0.0146706
704.826	0.0147671
704.905	0.0147157
704.983	0.0150245
705.061	0.0148396
705.139	0.0150102
705.217	0.0149547
705.295	0.0151891
705.373	0.0152666
705.451	0.0153387
705.530	0.0152457
705.608	0.0154020
705.686	0.0153907
705.764	0.0153607
705.842	0.0154469
705.920	0.0154209
705.998	0.0153267
706.076	0.0154156
706.155	0.0153806
706.233	0.0154893
706.311	0.0154545
706.389	0.0154741
706.467	0.0154315
706.545	0.0154827
706.623	0.0154018
706.701	0.0153963
706.780	0.0152768
706.858	0.0151337
706.936	0.0150568
707.014	0.0149130
707.092	0.0150360
707.170	0.0151768
707.248	0.0150283
707.326	0.0150297
707.405	0.0150626
707.483	0.0151313
707.561	0.0153035
707.639	0.0152636
707.717	0.0155811
707.795	0.0155793
707.873	0.0156853
707.951	0.0160186
708.030	0.0159193
708.108	0.0160815
708.186	0.0161412
708.264	0.0162705
708.342	0.0162684
708.420	0.0163346
708.498	0.0163323
708.576	0.0163256
708.655	0.0162641
708.733	0.0163175
708.811	0.0161921
708.889	0.0162211
708.967	0.0161230
709.045	0.0161248
709.123	0.0160000
709.201	0.0160181
709.280	0.0157928
709.358	0.0157455
709.436	0.0156408
709.514	0.0154560
709.592	0.0152641
709.670	0.0153091
709.748	0.0151161
709.826	0.0150818
709.905	0.0147512
709.983	0.0146698
710.061	0.0146659
710.139	0.0145772
710.217	0.0144885
710.295	0.0144791
710.373	0.0141782
710.451	0.0142104
710.530	0.0142106
710.608	0.0141109
710.686	0.0139569
710.764	0.0138724
710.842	0.0140283
710.920	0.0140859
710.998	0.0141434
711.076	0.0141791
711.155	0.0143166
711.233	0.0144960
711.311	0.0147361
711.389	0.0148615
711.467	0.0149818
711.545	0.0151235
711.623	0.0154574
711.701	0.0156001
711.780	0.0155652
711.858	0.0159031
711.936	0.0162083
712.014	0.0161002
712.092	0.0161937
712.170	0.0162357
712.248	0.0165376
712.326	0.0164259
712.405	0.0162715
712.483	0.0162167
712.561	0.0162009
712.639	0.0161597
712.717	0.0161189
712.795	0.0158012
712.873	0.0157960
712.951	0.0155619
713.030	0.0152493
713.108	0.0152297
713.186	0.0150481
713.264	0.0150758
713.342	0.0147982
713.420	0.0148244
713.498	0.0147946
713.576	0.0146798
713.655	0.0145042
713.733	0.0146500
713.811	0.0146580
713.889	0.0143681
713.967	0.0144299
714.045	0.0146175
714.123	0.0147546
714.201	0.0146747
714.280	0.0148322
714.358	0.0148749
714.436	0.0150755
714.514	0.0152666
714.592	0.0153993
714.670	0.0154519
714.748	0.0155792
714.826	0.0158772
714.905	0.0161329
714.983	0.0161852
715.061	0.0162955
715.139	0.0164981
715.217	0.0164733
715.295	0.0165694
715.373	0.0164562
715.451	0.0165629
715.530	0.0165975
715.608	0.0164926
715.686	0.0163211
715.764	0.0162672
715.842	0.0159147
715.920	0.0157471
715.998	0.0155197
716.076	0.0155154
716.155	0.0151158
716.233	0.0148526
716.311	0.0148314
716.389	0.0144238
716.467	0.0144343
716.545	0.0143704
716.623	0.0142662
716.701	0.0141956
716.780	0.0140343
716.858	0.0140913
716.936	0.0142701
717.014	0.0143108
717.092	0.0143400
717.170	0.0146634
717.248	0.0146292
717.326	0.0147258
717.405	0.0148663
717.483	0.0148175
717.561	0.0149406
717.639	0.0149416
717.717	0.0152442
717.795	0.0151905
717.873	0.0151991
717.951	0.0151202
718.030	0.0151643
718.108	0.0151745
718.186	0.0152156
718.264	0.0151553
718.342	0.0151088
718.420	0.0151399
718.498	0.0151933
718.576	0.0152353
718.655	0.0152545
718.733	0.0153834
718.811	0.0155144
718.889	0.0154136
718.967	0.0156583
719.045	0.0157418
719.123	0.0160505
719.201	0.0161215
719.280	0.0162293
719.358	0.0164571
719.436	0.0165107
719.514	0.0165554
719.592	0.0168222
719.670	0.0166711
719.748	0.0166679
719.826	0.0167968
719.905	0.0166550
719.983	0.0165372
720.061	0.0163863
720.139	0.0161645
720.217	0.0160595
720.295	0.0158018
720.373	0.0157032
720.451	0.0156351
720.530	0.0153236
720.608	0.0153174
720.686	0.0150495
720.764	0.0149324
720.842	0.0146745
720.920	0.0147301
720.998	0.0146298
721.076	0.0147610
721.155	0.0145799
721.233	0.0146200
721.311	0.0146391
721.389	0.0145715
721.467	0.0145100
721.545	0.0146288
721.623	0.0147388
721.701	0.0146622
721.780	0.0147316
721.858	0.0149910
721.936	0.0147953
722.014	0.0148923
722.092	0.0148051
722.170	0.0150159
722.248	0.0150702
722.326	0.0151936
722.405	0.0151495
722.483	0.0153025
722.561	0.0152518
722.639	0.0154501
722.717	0.0155115
722.795	0.0156821
722.873	0.0157470
722.951	0.0158871
723.030	0.0159414
723.108	0.0161227
723.186	0.0160835
723.264	0.0160210
723.342	0.0160687
723.420	0.0159919
723.498	0.0160192
723.576	0.0159843
723.655	0.0159816
723.733	0.0159633
723.811	0.0159396
723.889	0.0158187
723.967	0.0159325
724.045	0.0158882
724.123	0.0157536
724.201	0.0157323
724.280	0.0156055
724.358	0.0156799
724.436	0.0155117
724.514	0.0154984
724.592	0.0154453
724.670	0.0151889
724.748	0.0152053
724.826	0.0151665
724.905	0.0150815
724.983	0.0149802
725.061	0.0149660
725.139	0.0148480
725.217	0.0149635
725.295	0.0150445
725.373	0.0150478
725.451	0.0150153
725.530	0.0150714
725.608	0.0152139
725.686	0.0152261
725.764	0.0151754
725.842	0.0153967
725.920	0.0153196
725.998	0.0153069
726.076	0.0153515
726.155	0.0152916
726.233	0.0152955
726.311	0.0154057
726.389	0.0153493
726.467	0.0154412
726.545	0.0154431
726.623	0.0154241
726.701	0.0154437
726.780	0.0154867
726.858	0.0155875
726.936	0.0154640
727.014	0.0155064
727.092	0.0154920
727.170	0.0154283
727.248	0.0153780
727.326	0.0154232
727.405	0.0153755
727.483	0.0151880
727.561	0.0151408
727.639	0.0151569
727.717	0.0150496
727.795	0.0151332
727.873	0.0151032
727.951	0.0151834
728.030	0.0153106
728.108	0.0152398
728.186	0.0150536
728.264	0.0151828
728.342	0.0153460
728.420	0.0155759
728.498	0.0154765
728.576	0.0154746
728.655	0.0155856
728.733	0.0156235
728.811	0.0157340
728.889	0.0156403
728.967	0.0155120
729.045	0.0156263
729.123	0.0157352
729.201	0.0156007
729.280	0.0154156
729.358	0.0152373
729.436	0.0154599
729.514	0.0155519
729.592	0.0153602
729.670	0.0154206
729.748	0.0153435
729.826	0.0155193
729.905	0.0154185
729.983	0.0153795
730.061	0.0152240
730.139	0.0152271
730.217	0.0152995
730.295	0.0152940
730.373	0.0151807
730.451	0.0151389
730.530	0.0154664
730.608	0.0153025
730.686	0.0151900
730.764	0.0151717
730.842	0.0151931
730.920	0.0151481
730.998	0.0151682
731.076	0.0151350
731.155	0.0151654
731.233	0.0150501
731.311	0.0151957
731.389	0.0151439
731.467	0.0150754
731.545	0.0150739
731.623	0.0150503
731.701	0.0150742
731.780	0.0149986
731.858	0.0150982
731.936	0.0150061
732.014	0.0150307
732.092	0.0151421
732.170	0.0151930
732.248	0.0152475
732.326	0.0154295
732.405	0.0154638
732.483	0.0155990
732.561	0.0157375
732.639	0.0156686
732.717	0.0158618
732.795	0.0158331
732.873	0.0159274
732.951	0.0158833
733.030	0.0158721
733.108	0.0158602
733.186	0.0156612
733.264	0.0156968
733.342	0.0155154
733.420	0.0154933
733.498	0.0153579
733.576	0.0153891
733.655	0.0153239
733.733	0.0152324
733.811	0.0152571
733.889	0.0151051
733.967	0.0150424
734.045	0.0152251
734.123	0.0151266
734.201	0.0151822
734.280	0.0150501
734.358	0.0150700
734.436	0.0149448
734.514	0.0151892
734.592	0.0151744
734.670	0.0150488
734.748	0.0150529
734.826	0.0150443
734.905	0.0149955
734.983	0.0150027
735.061	0.0151236
735.139	0.0150770
735.217	0.0151187
735.295	0.0151494
735.373	0.0151723
735.451	0.0151544
735.530	0.0151716
735.608	0.0152790
735.686	0.0152058
735.764	0.0152477
735.842	0.0152518
735.920	0.0153470
735.998	0.0154934
736.076	0.0153255
736.155	0.0155821
736.233	0.0154221
736.311	0.0153022
736.389	0.0154236
736.467	0.0154030
736.545	0.0153157
736.623	0.0154895
736.701	0.0154706
736.780	0.0154319
736.858	0.0153951
736.936	0.0154691
737.014	0.0156077
737.092	0.0154918
737.170	0.0154513
737.248	0.0154757
737.326	0.0155721
737.405	0.0155782
737.483	0.0154203
737.561	0.0153563
737.639	0.0152261
737.717	0.0152940
737.795	0.0151989
737.873	0.0152756
737.951	0.0151597
738.030	0.0150526
738.108	0.0150225
738.186	0.0150784
738.264	0.0150589
738.342	0.0150842
738.420	0.0151055
738.498	0.0149889
738.576	0.0152318
738.655	0.0151682
738.733	0.0151785
738.811	0.0152677
738.889	0.0154782
738.967	0.0154240
739.045	0.0154673
739.123	0.0156031
739.201	0.0156043
739.280	0.0156173
739.358	0.0156968
739.436	0.0157423
739.514	0.0157248
739.592	0.0157584
739.670	0.0155950
739.748	0.0155138
739.826	0.0153396
739.905	0.0154204
739.983	0.0153498
740.061	0.0153219
740.139	0.0154533
740.217	0.0154597
740.295	0.0152236
740.373	0.0151482
740.451	0.0150655
740.530	0.0151040
740.608	0.0151652
740.686	0.0150916
740.764	0.0152093
740.842	0.0150227
740.920	0.0152074
740.998	0.0153555
741.076	0.0152337
741.155	0.0152924
741.233	0.0153107
741.311	0.0153525
741.389	0.0154813
741.467	0.0156447
741.545	0.0157308
741.623	0.0156693
741.701	0.0157848
741.780	0.0156828
741.858	0.0157336
741.936	0.0159052
742.014	0.0157212
742.092	0.0156123
742.170	0.0157135
742.248	0.0155951
742.326	0.0155611
742.405	0.0154356
742.483	0.0153288
742.561	0.0154021
742.639	0.0153593
742.717	0.0152917
742.795	0.0152110
742.873	0.0153286
742.951	0.0153431
743.030	0.0153269
743.108	0.0152435
743.186	0.0151359
743.264	0.0152763
743.342	0.0152951
743.420	0.0152077
743.498	0.0153191
743.576	0.0153312
743.655	0.0154038
743.733	0.0153983
743.811	0.0152119
743.889	0.0153123
743.967	0.0151997
744.045	0.0153556
744.123	0.0153292
744.201	0.0151070
744.280	0.0150220
744.358	0.0153083
744.436	0.0152126
744.514	0.0151771
744.592	0.0151889
744.670	0.0151457
744.748	0.0153429
744.826	0.0153396
744.905	0.0153678
744.983	0.0154260
745.061	0.0154352
745.139	0.0155244
745.217	0.0155606
745.295	0.0155037
745.373	0.0157166
745.451	0.0155865
745.530	0.0155495
745.608	0.0154897
745.686	0.0155937
745.764	0.0153914
745.842	0.0156189
745.920	0.0155051
745.998	0.0154610
746.076	0.0154496
746.155	0.0153786
746.233	0.0153664
746.311	0.0154857
746.389	0.0154167
746.467	0.0154205
746.545	0.0154788
746.623	0.0154180
746.701	0.0155757
746.780	0.0154041
746.858	0.0156145
746.936	0.0154645
747.014	0.0153545
747.092	0.0154771
747.170	0.0154153
747.248	0.0154503
747.326	0.0153608
747.405	0.0153101
747.483	0.0151373
747.561	0.0152411
747.639	0.0151622
747.717	0.0149913
747.795	0.0150365
747.873	0.0151212
747.951	0.0149864
748.030	0.0150823
748.108	0.0150331
748.186	0.0150404
748.264	0.0151077
748.342	0.0150668
748.420	0.0151656
748.498	0.0150491
748.576	0.0152072
748.655	0.0152501
748.733	0.0151823
748.811	0.0152992
748.889	0.0152549
748.967	0.0152855
749.045	0.0154816
749.123	0.0155686
749.201	0.0154611
749.280	0.0153283
749.358	0.0153826
749.436	0.0155234
749.514	0.0153437
749.592	0.0155101
749.670	0.0154996
749.748	0.0154090
749.826	0.0153936
749.905	0.0152911
749.983	0.0155159
750.061	0.0153088
750.139	0.0154508
750.217	0.0153905
750.295	0.0153928
750.373	0.0153692
750.451	0.0154590
750.530	0.0153427
750.608	0.0154976
750.686	0.0152378
750.764	0.0154533
750.842	0.0153509
750.920	0.0151907
750.998	0.0152842
751.076	0.0153261
751.155	0.0154592
751.233	0.0153958
751.311	0.0151874
751.389	0.0153650
751.467	0.0154086
751.545	0.0154200
751.623	0.0153359
751.701	0.0153545
751.780	0.0153540
751.858	0.0154092
751.936	0.0154031
752.014	0.0152836
752.092	0.0154247
752.170	0.0153423
752.248	0.0151342
752.326	0.0153718
752.405	0.0153668
752.483	0.0153476
752.561	0.0154049
752.639	0.0154657
752.717	0.0153238
752.795	0.0153437
752.873	0.0152791
752.951	0.0153282
753.030	0.0153793
753.108	0.0153849
753.186	0.0153596
753.264	0.0153857
753.342	0.0154291
753.420	0.0153220
753.498	0.0154101
753.576	0.0153103
753.655	0.0152910
753.733	0.0152531
753.811	0.0152844
753.889	0.0152829
753.967	0.0151295
754.045	0.0151884
754.123	0.0151694
754.201	0.0152428
754.280	0.0152511
754.358	0.0150713
754.436	0.0152425
754.514	0.0151889
754.592	0.0151598
754.670	0.0153322
754.748	0.0153148
754.826	0.0152133
754.905	0.0153300
754.983	0.0152703
755.061	0.0153001
755.139	0.0152917
755.217	0.0153353
755.295	0.0152396
755.373	0.0153137
755.451	0.0153083
755.530	0.0152464
755.608	0.0152557
755.686	0.0151716
755.764	0.0151014
755.842	0.0150396
755.920	0.0151115
755.998	0.0150837
756.076	0.0151548
756.155	0.0150708
756.233	0.0150534
756.311	0.0152208
756.389	0.0151486
756.467	0.0152893
756.545	0.0153072
756.623	0.0152910
756.701	0.0154502
756.780	0.0153751
756.858	0.0152717
756.936	0.0154131
757.014	0.0153896
757.092	0.0154393
757.170	0.0155360
757.248	0.0154827
757.326	0.0155112
757.405	0.0153462
757.483	0.0152997
757.561	0.0155216
757.639	0.0153504
757.717	0.0154553
757.795	0.0154816
757.873	0.0153283
757.951	0.0153070
758.030	0.0153557
758.108	0.0153349
758.186	0.0152956
758.264	0.0154238
758.342	0.0154350
758.420	0.0154224
758.498	0.0152495
758.576	0.0152279
758.655	0.0154130
758.733	0.0153031
758.811	0.0152422
758.889	0.0152827
758.967	0.0152663
759.045	0.0150936
759.123	0.0151932
759.201	0.0151642
759.280	0.0152923
759.358	0.0152877
759.436	0.0152614
759.514	0.0153083
759.592	0.0153748
759.670	0.0153332
759.748	0.0152883
759.826	0.0153891
759.905	0.0153230
759.983	0.0154029
760.061	0.0154086
760.139	0.0155726
760.217	0.0153735
760.295	0.0152553
760.373	0.0153931
760.451	0.0155019
760.530	0.0154700
760.608	0.0154298
760.686	0.0153930
760.764	0.0154028
760.842	0.0155180
760.920	0.0153922
760.998	0.0154296
761.076	0.0153976
761.155	0.0153910
761.233	0.0154362
761.311	0.0155974
761.389	0.0153604
761.467	0.0154950
761.545	0.0154508
761.623	0.0154287
761.701	0.0155518
761.780	0.0154389
761.858	0.0154787
761.936	0.0154176
762.014	0.0155328
762.092	0.0154962
762.170	0.0154955
762.248	0.0153913
762.326	0.0154871
762.405	0.0154743
762.483	0.0154518
762.561	0.0154133
762.639	0.0154585
762.717	0.0153614
762.795	0.0153207
762.873	0.0153639
762.951	0.0154178
763.030	0.0153890
763.108	0.0152284
763.186	0.0153010
763.264	0.0152551
763.342	0.0151709
763.420	0.0151459
763.498	0.0152721
763.576	0.0150957
763.655	0.0152728
763.733	0.0152466
763.811	0.0151923
763.889	0.0152245
763.967	0.0152175
764.045	0.0152472
764.123	0.0152277
764.201	0.0151976
764.280	0.0153724
764.358	0.0153638
764.436	0.0153992
764.514	0.0154330
764.592	0.0154547
764.670	0.0154051
764.748	0.0155682
764.826	0.0155895
764.905	0.0156004
764.983	0.0155743
765.061	0.0157326
765.139	0.0156153
765.217	0.0157399
765.295	0.0156199
765.373	0.0155756
765.451	0.0156196
765.530	0.0156469
765.608	0.0156087
765.686	0.0156786
765.764	0.0155034
765.842	0.0154175
765.920	0.0155077
765.998	0.0153630
766.076	0.0153805
766.155	0.0152711
766.233	0.0152834
766.311	0.0153336
766.389	0.0152428
766.467	0.0153780
766.545	0.0153973
766.623	0.0153201
766.701	0.0152898
766.780	0.0153058
766.858	0.0152255
766.936	0.0151818
767.014	0.0153220
767.092	0.0152765
767.170	0.0151855
767.248	0.0152265
767.326	0.0152265
767.405	0.0153651
767.483	0.0151336
767.561	0.0151601
767.639	0.0152428
767.717	0.0150581
767.795	0.0152530
767.873	0.0152773
767.951	0.0153677
768.030	0.0153081
768.108	0.0153233
768.186	0.0153436
768.264	0.0152214
768.342	0.0151687
768.420	0.0153898
768.498	0.0154281
768.576	0.0152884
768.655	0.0152589
768.733	0.0153322
768.811	0.0153103
768.889	0.0154315
768.967	0.0153257
769.045	0.0154837
769.123	0.0154818
769.201	0.0155234
769.280	0.0153781
769.358	0.0154233
769.436	0.0154153
769.514	0.0154223
769.592	0.0154605
769.670	0.0153630
769.748	0.0153620
769.826	0.0151478
769.905	0.0153790
769.983	0.0153331
770.061	0.0152000
770.139	0.0152857
770.217	0.0153490
770.295	0.0151772
770.373	0.0150557
770.451	0.0150295
770.530	0.0151864
770.608	0.0151477
770.686	0.0150793
770.764	0.0151521
770.842	0.0149834
770.920	0.0151099
770.998	0.0151498
771.076	0.0151441
771.155	0.0151820
771.233	0.0152595
771.311	0.0152031
771.389	0.0152103
771.467	0.0152221
771.545	0.0151542
771.623	0.0152299
771.701	0.0151689
771.780	0.0153408
771.858	0.0153116
771.936	0.0153467
772.014	0.0152441
772.092	0.0153506
772.170	0.0154445
772.248	0.0152638
772.326	0.0152824
772.405	0.0153362
772.483	0.0152962
772.561	0.0153459
772.639	0.0152116
772.717	0.0153399
772.795	0.0153570
772.873	0.0153910
772.951	0.0152650
773.030	0.0152176
773.108	0.0153021
773.186	0.0154123
773.264	0.0153159
773.342	0.0151151
773.420	0.0151781
773.498	0.0151846
773.576	0.0152537
773.655	0.0152238
773.733	0.0151367
773.811	0.0151147
773.889	0.0149552
773.967	0.0151043
774.045	0.0151768
774.123	0.0151105
774.201	0.0151839
774.280	0.0152097
774.358	0.0151754
774.436	0.0152276
774.514	0.0151495
774.592	0.0151787
774.670	0.0151758
774.748	0.0152254
774.826	0.0153780
774.905	0.0153509
774.983	0.0152282
775.061	0.0153410
775.139	0.0153487
775.217	0.0153139
775.295	0.0151971
775.373	0.0153313
775.451	0.0150555
775.530	0.0152431
775.608	0.0153516
775.686	0.0152738
775.764	0.0152615
775.842	0.0153143
775.920	0.0151860
775.998	0.0152853
776.076	0.0151783
776.155	0.0153225
776.233	0.0153322
776.311	0.0153248
776.389	0.0154472
776.467	0.0153934
776.545	0.0152520
776.623	0.0153521
776.701	0.0154099
776.780	0.0153531
776.858	0.0154114
776.936	0.0152604
777.014	0.0153902
777.092	0.0152233
777.170	0.0152340
777.248	0.0152321
777.326	0.0153188
777.405	0.0151993
777.483	0.0151006
777.561	0.0151193
777.639	0.0152285
777.717	0.0151419
777.795	0.0150831
777.873	0.0151194
777.951	0.0150610
778.030	0.0150993
778.108	0.0151528
778.186	0.0151698
778.264	0.0150496
778.342	0.0151478
778.420	0.0151158
778.498	0.0151591
778.576	0.0151003
778.655	0.0151832
778.733	0.0153091
778.811	0.0151536
778.889	0.0151321
778.967	0.0152184
779.045	0.0152619
779.123	0.0153940
779.201	0.0153545
779.280	0.0153741
779.358	0.0155399
779.436	0.0153915
779.514	0.0154177
779.592	0.0154797
779.670	0.0154859
779.748	0.0155464
779.826	0.0153376
779.905	0.0155186
779.983	0.0155238
780.061	0.0153226
780.139	0.0154353
780.217	0.0154320
780.295	0.0153620
780.373	0.0153608
780.451	0.0152732
780.530	0.0153632
780.608	0.0154148
780.686	0.0152728
780.764	0.0153157
780.842	0.0152979
780.920	0.0154951
780.998	0.0153625
781.076	0.0153282
781.155	0.0151490
781.233	0.0154060
781.311	0.0153735
781.389	0.0154169
781.467	0.0152802
781.545	0.0153965
781.623	0.0153902
781.701	0.0154180
781.780	0.0152861
781.858	0.0153170
781.936	0.0152963
782.014	0.0153175
782.092	0.0153468
782.170	0.0152998
782.248	0.0152423
782.326	0.0154495
782.405	0.0154109
782.483	0.0152911
782.561	0.0153111
782.639	0.0153678
782.717	0.0153992
782.795	0.0153750
782.873	0.0155978
782.951	0.0154982
783.030	0.0156776
783.108	0.0155642
783.186	0.0155417
783.264	0.0155434
783.342	0.0155939
783.420	0.0155336
783.498	0.0154974
783.576	0.0155937
783.655	0.0155598
783.733	0.0154211
783.811	0.0155038
783.889	0.0155534
783.967	0.0154842
784.045	0.0154276
784.123	0.0154289
784.201	0.0154818
784.280	0.0153399
784.358	0.0154012
784.436	0.0152695
784.514	0.0154547
784.592	0.0154611
784.670	0.0152625
784.748	0.0152107
784.826	0.0151749
784.905	0.0151497
784.983	0.0150958
785.061	0.0152832
785.139	0.0153130
785.217	0.0153732
785.295	0.0153555
785.373	0.0153561
785.451	0.0152779
785.530	0.0153480
785.608	0.0153024
785.686	0.0152733
785.764	0.0154527
785.842	0.0153609
785.920	0.0153737
785.998	0.0153975
786.076	0.0155569
786.155	0.0153873
786.233	0.0154685
786.311	0.0153487
786.389	0.0154951
786.467	0.0155454
786.545	0.0154713
786.623	0.0155657
786.701	0.0155270
786.780	0.0154984
786.858	0.0155006
786.936	0.0154173
787.014	0.0154703
787.092	0.0154306
787.170	0.0155318
787.248	0.0154963
787.326	0.0156105
787.405	0.0155886
787.483	0.0154391
787.561	0.0154331
787.639	0.0155574
787.717	0.0154366
787.795	0.0154059
787.873	0.0154050
787.951	0.0154023
788.030	0.0154102
788.108	0.0152831
788.186	0.0152990
788.264	0.0152223
788.342	0.0154328
788.420	0.0152801
788.498	0.0153006
788.576	0.0150848
788.655	0.0151488
788.733	0.0152654
788.811	0.0151244
788.889	0.0152618
788.967	0.0151183
789.045	0.0152251
789.123	0.0150553
789.201	0.0151128
789.280	0.0152661
789.358	0.0154583
789.436	0.0151819
789.514	0.0151798
789.592	0.0151940
789.670	0.0152382
789.748	0.0153089
789.826	0.0153313
789.905	0.0153090
789.983	0.0152524
790.061	0.0152589
790.139	0.0153035
790.217	0.0152391
790.295	0.0151712
790.373	0.0151929
790.451	0.0153003
790.530	0.0153138
790.608	0.0152508
790.686	0.0151588
790.764	0.0151068
790.842	0.0153113
790.920	0.0152457
790.998	0.0151749
791.076	0.0152846
791.155	0.0152847
791.233	0.0153418
791.311	0.0153250
791.389	0.0153478
791.467	0.0152815
791.545	0.0153913
791.623	0.0154625
791.701	0.0154124
791.780	0.0153692
791.858	0.0154655
791.936	0.0155422
792.014	0.0153381
792.092	0.0153321
792.170	0.0154659
792.248	0.0154250
792.326	0.0154430
792.405	0.0154574
792.483	0.0155844
792.561	0.0154317
792.639	0.0154939
792.717	0.0154568
792.795	0.0155453
792.873	0.0154697
792.951	0.0154532
793.030	0.0155502
793.108	0.0155962
793.186	0.0155216
793.264	0.0156075
793.342	0.0155482
793.420	0.0155055
793.498	0.0155128
793.576	0.0154729
793.655	0.0154792
793.733	0.0154459
793.811	0.0154276
793.889	0.0154545
793.967	0.0153858
794.045	0.0153099
794.123	0.0152934
794.201	0.0152608
794.280	0.0153126
794.358	0.0151536
794.436	0.0151494
794.514	0.0151438
794.592	0.0151341
794.670	0.0151169
794.748	0.0151883
794.826	0.0150533
794.905	0.0150129
794.983	0.0150491
795.061	0.0150680
795.139	0.0151362
795.217	0.0151691
795.295	0.0150683
795.373	0.0150739
795.451	0.0151186
795.530	0.0152074
795.608	0.0151620
795.686	0.0152828
795.764	0.0152327
795.842	0.0152390
795.920	0.0153728
795.998	0.0154301
796.076	0.0153754
796.155	0.0155427
796.233	0.0153836
796.311	0.0154173
796.389	0.0155743
796.467	0.0155206
796.545	0.0154490
796.623	0.0155125
796.701	0.0155311
796.780	0.0153685
796.858	0.0153696
796.936	0.0156292
797.014	0.0155975
797.092	0.0156170
797.170	0.0155080
797.248	0.0155452
797.326	0.0155440
797.405	0.0155466
797.483	0.0156248
797.561	0.0155864
797.639	0.0155093
797.717	0.0154006
797.795	0.0153765
797.873	0.0154389
797.951	0.0154393
798.030	0.0154449
798.108	0.0152956
798.186	0.0152525
798.264	0.0152129
798.342	0.0152404
798.420	0.0153490
798.498	0.0153093
798.576	0.0152683
798.655	0.0152885
798.733	0.0153793
798.811	0.0155024
798.889	0.0151952
798.967	0.0151328
799.045	0.0153398
799.123	0.0152300
799.201	0.0152438
799.280	0.0152712
799.358	0.0152108
799.436	0.0153604
799.514	0.0153788
799.592	0.0152930
799.670	0.0154474
799.748	0.0152770
799.826	0.0153922
799.905	0.0152858
799.983	0.0154198
800.061	0.0153040
800.139	0.0152541
800.217	0.0151585
800.295	0.0153098
800.373	0.0153492
800.451	0.0154078
800.530	0.0153267
800.608	0.0153321
800.686	0.0153725
800.764	0.0152456
800.842	0.0153479
800.920	0.0153201
800.998	0.0153979
801.076	0.0153606
801.155	0.0152608
801.233	0.0153854
801.311	0.0152618
801.389	0.0151127
801.467	0.0155350
801.545	0.0154533
801.623	0.0154245
801.701	0.0154520
801.780	0.0153403
801.858	0.0153814
801.936	0.0153953
802.014	0.0153886
802.092	0.0154652
802.170	0.0154291
802.248	0.0153406
802.326	0.0153263
802.405	0.0153876
802.483	0.0152970
802.561	0.0154412
802.639	0.0153490
802.717	0.0153812
802.795	0.0153616
802.873	0.0154152
802.951	0.0153689
803.030	0.0153911
803.108	0.0152247
803.186	0.0152717
803.264	0.0153917
803.342	0.0153950
803.420	0.0152335
803.498	0.0153000
803.576	0.0153131
803.655	0.0154025
803.733	0.0153692
803.811	0.0154121
803.889	0.0153878
803.967	0.0152459
804.045	0.0153391
804.123	0.0152567
804.201	0.0152906
804.280	0.0154404
804.358	0.0154116
804.436	0.0152150
804.514	0.0153314
804.592	0.0153886
804.670	0.0153101
804.748	0.0153815
804.826	0.0152558
804.905	0.0152570
804.983	0.0155613
805.061	0.0154674
805.139	0.0154116
805.217	0.0153747
805.295	0.0152931
805.373	0.0153637
805.451	0.0153329
805.530	0.0153991
805.608	0.0153876
805.686	0.0154124
805.764	0.0153091
805.842	0.0154160
805.920	0.0152936
805.998	0.0153108
806.076	0.0152570
806.155	0.0153315
806.233	0.0154469
806.311	0.0152912
806.389	0.0152415
806.467	0.0153197
806.545	0.0154425
806.623	0.0152643
806.701	0.0151403
806.780	0.0150779
806.858	0.0151971
806.936	0.0152525
807.014	0.0151873
807.092	0.0152557
807.170	0.0150864
807.248	0.0150370
807.326	0.0151727
807.405	0.0150535
807.483	0.0150569
807.561	0.0151815
807.639	0.0151669
807.717	0.0151860
807.795	0.0151649
807.873	0.0151647
807.951	0.0151399
808.030	0.0151598
808.108	0.0152966
808.186	0.0153304
808.264	0.0155004
808.342	0.0153920
808.420	0.0151999
808.498	0.0153516
808.576	0.0155039
808.655	0.0154314
808.733	0.0154948
808.811	0.0154693
808.889	0.0154767
808.967	0.0154561
809.045	0.0154930
809.123	0.0155600
809.201	0.0154752
809.280	0.0153452
809.358	0.0154235
809.436	0.0154587
809.514	0.0153683
809.592	0.0153577
809.670	0.0154993
809.748	0.0153347
809.826	0.0153561
809.905	0.0153571
809.983	0.0152757
810.061	0.0154633
810.139	0.0153187
810.217	0.0151440
810.295	0.0153786
810.373	0.0153440
810.451	0.0152386
810.530	0.0153013
810.608	0.0153093
810.686	0.0152126
810.764	0.0153815
810.842	0.0152058
810.920	0.0153920
810.998	0.0154139
811.076	0.0152737
811.155	0.0153218
811.233	0.0153398
811.311	0.0154889
811.389	0.0154590
811.467	0.0154517
811.545	0.0154139
811.623	0.0154141
811.701	0.0153683
811.780	0.0153768
811.858	0.0155569
811.936	0.0154659
812.014	0.0154214
812.092	0.0154787
812.170	0.0153694
812.248	0.0153434
812.326	0.0155110
812.405	0.0155586
812.483	0.0153748
812.561	0.0154457
812.639	0.0154694
812.717	0.0153756
812.795	0.0153336
812.873	0.0153200
812.951	0.0154069
813.030	0.0153217
813.108	0.0152679
813.186	0.0154028
813.264	0.0153602
813.342	0.0151840
813.420	0.0152354
813.498	0.0151540
813.576	0.0151258
813.655	0.0151902
813.733	0.0151211
813.811	0.0151199
813.889	0.0152028
813.967	0.0151411
814.045	0.0151231
814.123	0.0151878
814.201	0.0152280
814.280	0.0150568
814.358	0.0151846
814.436	0.0152153
814.514	0.0152691
814.592	0.0151898
814.670	0.0152586
814.748	0.0151883
814.826	0.0152925
814.905	0.0151817
814.983	0.0152917
815.061	0.0153529
815.139	0.0153750
815.217	0.0153651
815.295	0.0154740
815.373	0.0155183
815.451	0.0155395
815.530	0.0154857
815.608	0.0153855
815.686	0.0154358
815.764	0.0154398
815.842	0.0155144
815.920	0.0155571
815.998	0.0154819
816.076	0.0154671
816.155	0.0154781
816.233	0.0155772
816.311	0.0154366
816.389	0.0155238
816.467	0.0155293
816.545	0.0155044
816.623	0.0155237
816.701	0.0156084
816.780	0.0154378
816.858	0.0155079
816.936	0.0155533
817.014	0.0154991
817.092	0.0153349
817.170	0.0155005
817.248	0.0153874
817.326	0.0153782
817.405	0.0155780
817.483	0.0153622
817.561	0.0152384
817.639	0.0152956
817.717	0.0152753
817.795	0.0153648
817.873	0.0152966
817.951	0.0153385
818.030	0.0152280
818.108	0.0152842
818.186	0.0154397
818.264	0.0152388
818.342	0.0152077
818.420	0.0152912
818.498	0.0151082
818.576	0.0153502
818.655	0.0154311
818.733	0.0151968
818.811	0.0153872
818.889	0.0154691
818.967	0.0151809
819.045	0.0154190
819.123	0.0154227
819.201	0.0154104
819.280	0.0152950
819.358	0.0154478
819.436	0.0154461
819.514	0.0154997
819.592	0.0156120
819.670	0.0153931
819.748	0.0154781
819.826	0.0155128
819.905	0.0155195
819.983	0.0155126
820.061	0.0155150
820.139	0.0154665
820.217	0.0153195
820.295	0.0153301
820.373	0.0153991
820.451	0.0154775
820.530	0.0155651
820.608	0.0155581
820.686	0.0155199
820.764	0.0154725
820.842	0.0154688
820.920	0.0154344
820.998	0.0154050
821.076	0.0154115
821.155	0.0153594
821.233	0.0153529
821.311	0.0153692
821.389	0.0154154
821.467	0.0155097
821.545	0.0152818
821.623	0.0153635
821.701	0.0153132
821.780	0.0153477
821.858	0.0154151
821.936	0.0153411
822.014	0.0153117
822.092	0.0155377
822.170	0.0153481
822.248	0.0154366
822.326	0.0153109
822.405	0.0154321
822.483	0.0153778
822.561	0.0152962
822.639	0.0153743
822.717	0.0154637
822.795	0.0153878
822.873	0.0153431
822.951	0.0154494
823.030	0.0153046
823.108	0.0154754
823.186	0.0154179
823.264	0.0153296
823.342	0.0154726
823.420	0.0154598
823.498	0.0153348
823.576	0.0156252
823.655	0.0155614
823.733	0.0154062
823.811	0.0154296
823.889	0.0154618
823.967	0.0154765
824.045	0.0154510
824.123	0.0154266
824.201	0.0153653
824.280	0.0152998
824.358	0.0153987
824.436	0.0154102
824.514	0.0154819
824.592	0.0155100
824.670	0.0153576
824.748	0.0154509
824.826	0.0154610
824.905	0.0154789
824.983	0.0154198
825.061	0.0153419
825.139	0.0154375
825.217	0.0155028
825.295	0.0155717
825.373	0.0156161
825.451	0.0155044
825.530	0.0155173
825.608	0.0153928
825.686	0.0154698
825.764	0.0153811
825.842	0.0153420
825.920	0.0153188
825.998	0.0154259
826.076	0.0154086
826.155	0.0153523
826.233	0.0153992
826.311	0.0152431
826.389	0.0154514
826.467	0.0154745
826.545	0.0154667
826.623	0.0153742
826.701	0.0155263
826.780	0.0152698
826.858	0.0153583
826.936	0.0154462
827.014	0.0155294
827.092	0.0153629
827.170	0.0154034
827.248	0.0153378
827.326	0.0152338
827.405	0.0152251
827.483	0.0154622
827.561	0.0152702
827.639	0.0151514
827.717	0.0152144
827.795	0.0153271
827.873	0.0152458
827.951	0.0152786
828.030	0.0152147
828.108	0.0152184
828.186	0.0152445
828.264	0.0154204
828.342	0.0153373
828.420	0.0151902
828.498	0.0151456
828.576	0.0153066
828.655	0.0154713
828.733	0.0153686
828.811	0.0152550
828.889	0.0153143
828.967	0.0154923
829.045	0.0153491
829.123	0.0152161
829.201	0.0153310
829.280	0.0153358
829.358	0.0152297
829.436	0.0151953
829.514	0.0152956
829.592	0.0153281
829.670	0.0152448
829.748	0.0152278
829.826	0.0152650
829.905	0.0152286
829.983	0.0155843
830.061	0.0152602
830.139	0.0153214
830.217	0.0151920
830.295	0.0151419
830.373	0.0152077
830.451	0.0152227
830.530	0.0151485
830.608	0.0152541
830.686	0.0152319
830.764	0.0151635
830.842	0.0151728
830.920	0.0152231
830.998	0.0151248
831.076	0.0151891
831.155	0.0151178
831.233	0.0149908
831.311	0.0150879
831.389	0.0151279
831.467	0.0152868
831.545	0.0151837
831.623	0.0151858
831.701	0.0152702
831.780	0.0151481
831.858	0.0151537
831.936	0.0151653
832.014	0.0152023
832.092	0.0151217
832.170	0.0151936
832.248	0.0152654
832.326	0.0151894
832.405	0.0153703
832.483	0.0152551
832.561	0.0152910
832.639	0.0153476
832.717	0.0150923
832.795	0.0152827
832.873	0.0152048
832.951	0.0153454
833.030	0.0153286
833.108	0.0153426
833.186	0.0152587
833.264	0.0150916
833.342	0.0152530
833.420	0.0154206
833.498	0.0151958
833.576	0.0153031
833.655	0.0153081
833.733	0.0152296
833.811	0.0153043
833.889	0.0153110
833.967	0.0153410
834.045	0.0153056
834.123	0.0152179
834.201	0.0152375
834.280	0.0153700
834.358	0.0153310
834.436	0.0151796
834.514	0.0151597
834.592	0.0151753
834.670	0.0152169
834.748	0.0151926
834.826	0.0151962
834.905	0.0152859
834.983	0.0151990
835.061	0.0151546
835.139	0.0151500
835.217	0.0150842
835.295	0.0150600
835.373	0.0153540
835.451	0.0151280
835.530	0.0151374
835.608	0.0152273
835.686	0.0150775
835.764	0.0150754
835.842	0.0151361
835.920	0.0151756
835.998	0.0151221
836.076	0.0152798
836.155	0.0151469
836.233	0.0151684
836.311	0.0150744
836.389	0.0151985
836.467	0.0152626
836.545	0.0152364
836.623	0.0151465
836.701	0.0151738
836.780	0.0152129
836.858	0.0151987
836.936	0.0151063
837.014	0.0151876
837.092	0.0151869
837.170	0.0152754
837.248	0.0152098
837.326	0.0152750
837.405	0.0152390
837.483	0.0153246
837.561	0.0153078
837.639	0.0152650
837.717	0.0153481
837.795	0.0153191
837.873	0.0154202
837.951	0.0154838
838.030	0.0155234
838.108	0.0153211
838.186	0.0154665
838.264	0.0155171
838.342	0.0153921
838.420	0.0152911
838.498	0.0153715
838.576	0.0153629
838.655	0.0154405
838.733	0.0154484
838.811	0.0154614
838.889	0.0154346
838.967	0.0154308
839.045	0.0154427
839.123	0.0155259
839.201	0.0154069
839.280	0.0155210
839.358	0.0154723
839.436	0.0155533
839.514	0.0155000
839.592	0.0154096
839.670	0.0155566
839.748	0.0153009
839.826	0.0153024
839.905	0.0153878
839.983	0.0153192
840.061	0.0154655
840.139	0.0152985
840.217	0.0154810
840.295	0.0154307
840.373	0.0154365
840.451	0.0154785
840.530	0.0154368
840.608	0.0154545
840.686	0.0155310
840.764	0.0153806
840.842	0.0153712
840.920	0.0154657
840.998	0.0155055
841.076	0.0155058
841.155	0.0152922
841.233	0.0153830
841.311	0.0153249
841.389	0.0152385
841.467	0.0153457
841.545	0.0153368
841.623	0.0153606
841.701	0.0154774
841.780	0.0153226
841.858	0.0154042
841.936	0.0154750
842.014	0.0152587
842.092	0.0152958
842.170	0.0153009
842.248	0.0153860
842.326	0.0153126
842.405	0.0153142
842.483	0.0154920
842.561	0.0156234
842.639	0.0153688
842.717	0.0154005
842.795	0.0154111
842.873	0.0152833
842.951	0.0154443
843.030	0.0154133
843.108	0.0154377
843.186	0.0154041
843.264	0.0154407
843.342	0.0154037
843.420	0.0153684
843.498	0.0153904
843.576	0.0153209
843.655	0.0153880
843.733	0.0153456
843.811	0.0153436
843.889	0.0153664
843.967	0.0153555
844.045	0.0152431
844.123	0.0153497
844.201	0.0152593
844.280	0.0154434
844.358	0.0153693
844.436	0.0155039
844.514	0.0154195
844.592	0.0153545
844.670	0.0153096
844.748	0.0154375
844.826	0.0154500
844.905	0.0153874
844.983	0.0154456
845.061	0.0154407
845.139	0.0154852
845.217	0.0153719
845.295	0.0154723
845.373	0.0155846
845.451	0.0154383
845.530	0.0154117
845.608	0.0155624
845.686	0.0154282
845.764	0.0153408
845.842	0.0155664
845.920	0.0153524
845.998	0.0153905
846.076	0.0153538
846.155	0.0154968
846.233	0.0154469
846.311	0.0153992
846.389	0.0153300
846.467	0.0154371
846.545	0.0154453
846.623	0.0154137
846.701	0.0152702
846.780	0.0154298
846.858	0.0154137
846.936	0.0152672
847.014	0.0154400
847.092	0.0154562
847.170	0.0155629
847.248	0.0153680
847.326	0.0154020
847.405	0.0152648
847.483	0.0153448
847.561	0.0155626
847.639	0.0153576
847.717	0.0153608
847.795	0.0152435
847.873	0.0153898
847.951	0.0154977
848.030	0.0153677
848.108	0.0153386
848.186	0.0152902
848.264	0.0153248
848.342	0.0154347
848.420	0.0153015
848.498	0.0154055
848.576	0.0154518
848.655	0.0153942
848.733	0.0152969
848.811	0.0152039
848.889	0.0153487
848.967	0.0153127
849.045	0.0153207
849.123	0.0154191
849.201	0.0154688
849.280	0.0154324
849.358	0.0154036
849.436	0.0154247
849.514	0.0153926
849.592	0.0153828
849.670	0.0154972
849.748	0.0154125
849.826	0.0153466
849.905	0.0154787
849.983	0.0152757
850.061	0.0154228
850.139	0.0153577
850.217	0.0152985
850.295	0.0152873
850.373	0.0155037
850.451	0.0154205
850.530	0.0153572
850.608	0.0153324
850.686	0.0153573
850.764	0.0154358
850.842	0.0153394
850.920	0.0154455
850.998	0.0152556
851.076	0.0153513
851.155	0.0152967
851.233	0.0152701
851.311	0.0153237
851.389	0.0154771
851.467	0.0152390
851.545	0.0152712
851.623	0.0152402
851.701	0.0152806
851.780	0.0152023
851.858	0.0152750
851.936	0.0152383
852.014	0.0151404
852.092	0.0151837
852.170	0.0151209
852.248	0.0153085
852.326	0.0152317
852.405	0.0152066
852.483	0.0151373
852.561	0.0151783
852.639	0.0153425
852.717	0.0152528
852.795	0.0152557
852.873	0.0152149
852.951	0.0152175
853.030	0.0151558
853.108	0.0152921
853.186	0.0152351
853.264	0.0151864
853.342	0.0153283
853.420	0.0152697
853.498	0.0151096
853.576	0.0153146
853.655	0.0151651
853.733	0.0151535
853.811	0.0151136
853.889	0.0152264
853.967	0.0152090
854.045	0.0152072
854.123	0.0153324
854.201	0.0152766
854.280	0.0152043
854.358	0.0151154
854.436	0.0151450
854.514	0.0153048
854.592	0.0152613
854.670	0.0151752
854.748	0.0152996
854.826	0.0152907
854.905	0.0152863
854.983	0.0151663
855.061	0.0151833
855.139	0.0151114
855.217	0.0153380
855.295	0.0153777
855.373	0.0153060
855.451	0.0151604
855.530	0.0151669
855.608	0.0151688
855.686	0.0153028
855.764	0.0152035
855.842	0.0152575
855.920	0.0151074
855.998	0.0152566
856.076	0.0153146
856.155	0.0152728
856.233	0.0153319
856.311	0.0152953
856.389	0.0152360
856.467	0.0152098
856.545	0.0152847
856.623	0.0153577
856.701	0.0154649
856.780	0.0152457
856.858	0.0153635
856.936	0.0151667
857.014	0.0152551
857.092	0.0153783
857.170	0.0152731
857.248	0.0152929
857.326	0.0153305
857.405	0.0153717
857.483	0.0153044
857.561	0.0153037
857.639	0.0153864
857.717	0.0153322
857.795	0.0152646
857.873	0.0152882
857.951	0.0153227
858.030	0.0153219
858.108	0.0153864
858.186	0.0153094
858.264	0.0152899
858.342	0.0152624
858.420	0.0152151
858.498	0.0152262
858.576	0.0153971
858.655	0.0153156
858.733	0.0153747
858.811	0.0153645
858.889	0.0153462
858.967	0.0152440
859.045	0.0152551
859.123	0.0152326
859.201	0.0151286
859.280	0.0154290
859.358	0.0153229
859.436	0.0152044
859.514	0.0154011
859.592	0.0154119
859.670	0.0152291
859.748	0.0153117
859.826	0.0152356
859.905	0.0154355
859.983	0.0153506
860.061	0.0152486
860.139	0.0152219
860.217	0.0153222
860.295	0.0152760
860.373	0.0153319
860.451	0.0153020
860.530	0.0152978
860.608	0.0152123
860.686	0.0153262
860.764	0.0154826
860.842	0.0153201
860.920	0.0152390
860.998	0.0153902
861.076	0.0152872
861.155	0.0153414
861.233	0.0153874
861.311	0.0154257
861.389	0.0155350
861.467	0.0153283
861.545	0.0154995
861.623	0.0154873
861.701	0.0154925
861.780	0.0154205
861.858	0.0153646
861.936	0.0154162
862.014	0.0155843
862.092	0.0156365
862.170	0.0155943
862.248	0.0155164
862.326	0.0154448
862.405	0.0153864
862.483	0.0155193
862.561	0.0155615
862.639	0.0153817
862.717	0.0153655
862.795	0.0155441
862.873	0.0153698
862.951	0.0154654
863.030	0.0155307
863.108	0.0154574
863.186	0.0154575
863.264	0.0154436
863.342	0.0152752
863.420	0.0153101
863.498	0.0153039
863.576	0.0151795
863.655	0.0154201
863.733	0.0153794
863.811	0.0153359
863.889	0.0152722
863.967	0.0153043
864.045	0.0151796
864.123	0.0153993
864.201	0.0152078
864.280	0.0152562
864.358	0.0152986
864.436	0.0152179
864.514	0.0152124
864.592	0.0152109
864.670	0.0151218
864.748	0.0152368
864.826	0.0152880
864.905	0.0152870
864.983	0.0151987
865.061	0.0153046
865.139	0.0154897
865.217	0.0152927
865.295	0.0153235
865.373	0.0153802
865.451	0.0154167
865.530	0.0152820
865.608	0.0152785
865.686	0.0153099
865.764	0.0152691
865.842	0.0153754
865.920	0.0154101
865.998	0.0153815
866.076	0.0154961
866.155	0.0153982
866.233	0.0153680
866.311	0.0153777
866.389	0.0155069
866.467	0.0154102
866.545	0.0153933
866.623	0.0153404
866.701	0.0154839
866.780	0.0153568
866.858	0.0152274
866.936	0.0152726
867.014	0.0151806
867.092	0.0153812
867.170	0.0153339
867.248	0.0152707
867.326	0.0152968
867.405	0.0153918
867.483	0.0153183
867.561	0.0154296
867.639	0.0152299
867.717	0.0153357
867.795	0.0154634
867.873	0.0152999
867.951	0.0154043
868.030	0.0154137
868.108	0.0153596
868.186	0.0153977
868.264	0.0153773
868.342	0.0153783
868.420	0.0154164
868.498	0.0153928
868.576	0.0152443
868.655	0.0153187
868.733	0.0152696
868.811	0.0154131
868.889	0.0153618
868.967	0.0152937
869.045	0.0153241
869.123	0.0154058
869.201	0.0153075
869.280	0.0152946
869.358	0.0153544
869.436	0.0154185
869.514	0.0153608
869.592	0.0153004
869.670	0.0153434
869.748	0.0152817
869.826	0.0154247
869.905	0.0153630
869.983	0.0153268
870.061	0.0154261
870.139	0.0153976
870.217	0.0152988
870.295	0.0154139
870.373	0.0154765
870.451	0.0152513
870.530	0.0154957
870.608	0.0155227
870.686	0.0153944
870.764	0.0153185
870.842	0.0154113
870.920	0.0155432
870.998	0.0155906
871.076	0.0154767
871.155	0.0154412
871.233	0.0154320
871.311	0.0152544
871.389	0.0156515
871.467	0.0153493
871.545	0.0154964
871.623	0.0153909
871.701	0.0153843
871.780	0.0155531
871.858	0.0154809
871.936	0.0153515
872.014	0.0153438
872.092	0.0153608
872.170	0.0153333
872.248	0.0155318
872.326	0.0153020
872.405	0.0152338
872.483	0.0152921
872.561	0.0153251
872.639	0.0152837
872.717	0.0152601
872.795	0.0153541
872.873	0.0152145
872.951	0.0150985
873.030	0.0152873
873.108	0.0152321
873.186	0.0152449
873.264	0.0153732
873.342	0.0151884
873.420	0.0152335
873.498	0.0152168
873.576	0.0151467
873.655	0.0152918
873.733	0.0153263
873.811	0.0153103
873.889	0.0153683
873.967	0.0152892
874.045	0.0151474
874.123	0.0152996
874.201	0.0153297
874.280	0.0153026
874.358	0.0152865
874.436	0.0152789
874.514	0.0151726
874.592	0.0152930
874.670	0.0153783
874.748	0.0152464
874.826	0.0153464
874.905	0.0152776
874.983	0.0153949
875.061	0.0152695
875.139	0.0153395
875.217	0.0152700
875.295	0.0154286
875.373	0.0151537
875.451	0.0153325
875.530	0.0153099
875.608	0.0154179
875.686	0.0153529
875.764	0.0153697
875.842	0.0152992
875.920	0.0152339
875.998	0.0153519
876.076	0.0152378
876.155	0.0154108
876.233	0.0154286
876.311	0.0153559
876.389	0.0153890
876.467	0.0152355
876.545	0.0153059
876.623	0.0151801
876.701	0.0153280
876.780	0.0152380
876.858	0.0151596
876.936	0.0152368
877.014	0.0154207
877.092	0.0153204
877.170	0.0151402
877.248	0.0152965
877.326	0.0151664
877.405	0.0151408
877.483	0.0152898
877.561	0.0152588
877.639	0.0153526
877.717	0.0152662
877.795	0.0152601
877.873	0.0153075
877.951	0.0152959
878.030	0.0152427
878.108	0.0152750
878.186	0.0152585
878.264	0.0155717
878.342	0.0152947
878.420	0.0152488
878.498	0.0153854
878.576	0.0153632
878.655	0.0153174
878.733	0.0153516
878.811	0.0154546
878.889	0.0155975
878.967	0.0153576
879.045	0.0153733
879.123	0.0153749
879.201	0.0153719
879.280	0.0153049
879.358	0.0153078
879.436	0.0153490
879.514	0.0153113
879.592	0.0153223
879.670	0.0153697
879.748	0.0154667
879.826	0.0153932
879.905	0.0153445
879.983	0.0155051
880.061	0.0153445
880.139	0.0154558
880.217	0.0153921
880.295	0.0154550
880.373	0.0155061
880.451	0.0153433
880.530	0.0154028
880.608	0.0155794
880.686	0.0153434
880.764	0.0154527
880.842	0.0154203
880.920	0.0155288
880.998	0.0155157
881.076	0.0154530
881.155	0.0155334
881.233	0.0153291
881.311	0.0155148
881.389	0.0154546
881.467	0.0154453
881.545	0.0154036
881.623	0.0153329
881.701	0.0153943
881.780	0.0153400
881.858	0.0153031
881.936	0.0155632
882.014	0.0155352
882.092	0.0152761
882.170	0.0152927
882.248	0.0153335
882.326	0.0154102
882.405	0.0153881
882.483	0.0154363
882.561	0.0153617
882.639	0.0153493
882.717	0.0154144
882.795	0.0154723
882.873	0.0153201
882.951	0.0155300
883.030	0.0154363
883.108	0.0154284
883.186	0.0153930
883.264	0.0155250
883.342	0.0156339
883.420	0.0154595
883.498	0.0155535
883.576	0.0154836
883.655	0.0155295
883.733	0.0154960
883.811	0.0153654
883.889	0.0154816
883.967	0.0155386
884.045	0.0153858
884.123	0.0154465
884.201	0.0155297
884.280	0.0155457
884.358	0.0153204
884.436	0.0152041
884.514	0.0153339
884.592	0.0153587
884.670	0.0152631
884.748	0.0153030
884.826	0.0152697
884.905	0.0151920
884.983	0.0152502
885.061	0.0153189
885.139	0.0153169
885.217	0.0153451
885.295	0.0153179
885.373	0.0152859
885.451	0.0153630
885.530	0.0153253
885.608	0.0152677
885.686	0.0154077
885.764	0.0153355
885.842	0.0152044
885.920	0.0152968
885.998	0.0152196
886.076	0.0152817
886.155	0.0152775
886.233	0.0151826
886.311	0.0153605
886.389	0.0152129
886.467	0.0151936
886.545	0.0152615
886.623	0.0153510
886.701	0.0151298
886.780	0.0151799
886.858	0.0153074
886.936	0.0152938
887.014	0.0152031
887.092	0.0152003
887.170	0.0152904
887.248	0.0153114
887.326	0.0152939
887.405	0.0153490
887.483	0.0153719
887.561	0.0152760
887.639	0.0153164
887.717	0.0153979
887.795	0.0153304
887.873	0.0153699
887.951	0.0152755
888.030	0.0152006
888.108	0.0152023
888.186	0.0153656
888.264	0.0153000
888.342	0.0153804
888.420	0.0152972
888.498	0.0153521
888.576	0.0153412
888.655	0.0153989
888.733	0.0153810
888.811	0.0153030
888.889	0.0154482
888.967	0.0153313
889.045	0.0153496
889.123	0.0154134
889.201	0.0152611
889.280	0.0153239
889.358	0.0154137
889.436	0.0152687
889.514	0.0152473
889.592	0.0152506
889.670	0.0153204
889.748	0.0151677
889.826	0.0152157
889.905	0.0151967
889.983	0.0151301
890.061	0.0153001
890.139	0.0152400
890.217	0.0152231
890.295	0.0151961
890.373	0.0151645
890.451	0.0151937
890.530	0.0153134
890.608	0.0152589
890.686	0.0154115
890.764	0.0153468
890.842	0.0152903
890.920	0.0152972
890.998	0.0152784
891.076	0.0153848
891.155	0.0153719
891.233	0.0152394
891.311	0.0152425
891.389	0.0153449
891.467	0.0153418
891.545	0.0153455
891.623	0.0155016
891.701	0.0152832
891.780	0.0153512
891.858	0.0153725
891.936	0.0151987
892.014	0.0153386
892.092	0.0152953
892.170	0.0152191
892.248	0.0152698
892.326	0.0151424
892.405	0.0151660
892.483	0.0152693
892.561	0.0151493
892.639	0.0150852
892.717	0.0151939
892.795	0.0152013
892.873	0.0151412
892.951	0.0151334
893.030	0.0151429
893.108	0.0151160
893.186	0.0151787
893.264	0.0152559
893.342	0.0151344
893.420	0.0151179
893.498	0.0150910
893.576	0.0152734
893.655	0.0152047
893.733	0.0152502
893.811	0.0153382
893.889	0.0152961
893.967	0.0151669
894.045	0.0153535
894.123	0.0153902
894.201	0.0152985
894.280	0.0153432
894.358	0.0151929
894.436	0.0153848
894.514	0.0153495
894.592	0.0153381
894.670	0.0153442
894.748	0.0154807
894.826	0.0154549
894.905	0.0153918
894.983	0.0154236
895.061	0.0154638
895.139	0.0154374
895.217	0.0155164
895.295	0.0154467
895.373	0.0153199
895.451	0.0153156
895.530	0.0154012
895.608	0.0153753
895.686	0.0153834
895.764	0.0152800
895.842	0.0152775
895.920	0.0155111
895.998	0.0154363
896.076	0.0153185
896.155	0.0154991
896.233	0.0153791
896.311	0.0152609
896.389	0.0153619
896.467	0.0154319
896.545	0.0155390
896.623	0.0153285
896.701	0.0154150
896.780	0.0153672
896.858	0.0154532
896.936	0.0154748
897.014	0.0154081
897.092	0.0153168
897.170	0.0154960
897.248	0.0155123
897.326	0.0151887
897.405	0.0153474
897.483	0.0154224
897.561	0.0153575
897.639	0.0154092
897.717	0.0154854
897.795	0.0153648
897.873	0.0153162
897.951	0.0153033
898.030	0.0152399
898.108	0.0151201
898.186	0.0152477
898.264	0.0151537
898.342	0.0151672
898.420	0.0151122
898.498	0.0152017
898.576	0.0152133
898.655	0.0152193
898.733	0.0152130
898.811	0.0152993
898.889	0.0150937
898.967	0.0152771
899.045	0.0153129
899.123	0.0151939
899.201	0.0153303
899.280	0.0154419
899.358	0.0153378
899.436	0.0152625
899.514	0.0154286
899.592	0.0156008
899.670	0.0152702
899.748	0.0151845
899.826	0.0154639
899.905	0.0155000
899.983	0.0154053
900.061	0.0154782
900.139	0.0153851
900.217	0.0153104
900.295	0.0153301
900.373	0.0154604
900.451	0.0153533
900.530	0.0152728
900.608	0.0154111
900.686	0.0153168
900.764	0.0153976
900.842	0.0154543
900.920	0.0152912
900.998	0.0152271
901.076	0.0154379
901.155	0.0153002
901.233	0.0152969
901.311	0.0153143
901.389	0.0152076
901.467	0.0152802
901.545	0.0153801
901.623	0.0151685
901.701	0.0152432
901.780	0.0153644
901.858	0.0153027
901.936	0.0152699
902.014	0.0152533
902.092	0.0151519
902.170	0.0152819
902.248	0.0153104
902.326	0.0154523
902.405	0.0151853
902.483	0.0152674
902.561	0.0152627
902.639	0.0152999
902.717	0.0154088
902.795	0.0153770
902.873	0.0154416
902.951	0.0154154
903.030	0.0154557
903.108	0.0154751
903.186	0.0154517
903.264	0.0155417
903.342	0.0155170
903.420	0.0154479
903.498	0.0155336
903.576	0.0156907
903.655	0.0157085
903.733	0.0156161
903.811	0.0155453
903.889	0.0155798
903.967	0.0154654
904.045	0.0155312
904.123	0.0156419
904.201	0.0156618
904.280	0.0155556
904.358	0.0154951
904.436	0.0154947
904.514	0.0155836
904.592	0.0154961
904.670	0.0155640
904.748	0.0154688
904.826	0.0153866
904.905	0.0154464
904.983	0.0153910
905.061	0.0151477
905.139	0.0153671
905.217	0.0154214
905.295	0.0153954
905.373	0.0154439
905.451	0.0154373
905.530	0.0153926
905.608	0.0153282
905.686	0.0154087
905.764	0.0152433
905.842	0.0155099
905.920	0.0153827
905.998	0.0153061
906.076	0.0153230
906.155	0.0155635
906.233	0.0154002
906.311	0.0152761
906.389	0.0153791
906.467	0.0154241
906.545	0.0153738
906.623	0.0154189
906.701	0.0154203
906.780	0.0154197
906.858	0.0154380
906.936	0.0153741
907.014	0.0153355
907.092	0.0152880
907.170	0.0152288
907.248	0.0154195
907.326	0.0153367
907.405	0.0152334
907.483	0.0153666
907.561	0.0154221
907.639	0.0153555
907.717	0.0153644
907.795	0.0152969
907.873	0.0152561
907.951	0.0154036
908.030	0.0153967
908.108	0.0153349
908.186	0.0152660
908.264	0.0153309
908.342	0.0153121
908.420	0.0153782
908.498	0.0152705
908.576	0.0153280
908.655	0.0154182
908.733	0.0154841
908.811	0.0154943
908.889	0.0155730
908.967	0.0155328
909.045	0.0154093
909.123	0.0153001
909.201	0.0153410
909.280	0.0155199
909.358	0.0154829
909.436	0.0154980
909.514	0.0152435
909.592	0.0153241
909.670	0.0153642
909.748	0.0154781
909.826	0.0152102
909.905	0.0151675
909.983	0.0152988
910.061	0.0154680
910.139	0.0152782
910.217	0.0153168
910.295	0.0153785
910.373	0.0152326
910.451	0.0154353
910.530	0.0153615
910.608	0.0153991
910.686	0.0153915
910.764	0.0154092
910.842	0.0154047
910.920	0.0153044
910.998	0.0153117
911.076	0.0153514
911.155	0.0154051
911.233	0.0154595
911.311	0.0154834
911.389	0.0154237
911.467	0.0153459
911.545	0.0153561
911.623	0.0151997
911.701	0.0153178
911.780	0.0154720
911.858	0.0153952
911.936	0.0153529
912.014	0.0154865
912.092	0.0154803
912.170	0.0154600
912.248	0.0154123
912.326	0.0152181
912.405	0.0152292
912.483	0.0153633
912.561	0.0154814
912.639	0.0153684
912.717	0.0154415
912.795	0.0153043
912.873	0.0154241
912.951	0.0152762
913.030	0.0152381
913.108	0.0153100
913.186	0.0153227
913.264	0.0152461
913.342	0.0153429
913.420	0.0152624
913.498	0.0153643
913.576	0.0153315
913.655	0.0152735
913.733	0.0152943
913.811	0.0151591
913.889	0.0152570
913.967	0.0152618
914.045	0.0154330
914.123	0.0154267
914.201	0.0153717
914.280	0.0153383
914.358	0.0152836
914.436	0.0153976
914.514	0.0153888
914.592	0.0153944
914.670	0.0153634
914.748	0.0154037
914.826	0.0153310
914.905	0.0153514
914.983	0.0153855
915.061	0.0153887
915.139	0.0153294
915.217	0.0153391
915.295	0.0154439
915.373	0.0154388
915.451	0.0152687
915.530	0.0152592
915.608	0.0153619
915.686	0.0153393
915.764	0.0154920
915.842	0.0153961
915.920	0.0153809
915.998	0.0154556
916.076	0.0154961
916.155	0.0154411
916.233	0.0155063
916.311	0.0154116
916.389	0.0153300
916.467	0.0153840
916.545	0.0154309
916.623	0.0154841
916.701	0.0153297
916.780	0.0153566
916.858	0.0153966
916.936	0.0154076
917.014	0.0154647
917.092	0.0153365
917.170	0.0154549
917.248	0.0154849
917.326	0.0155319
917.405	0.0153246
917.483	0.0153768
917.561	0.0152863
917.639	0.0155124
917.717	0.0153613
917.795	0.0153366
917.873	0.0152529
917.951	0.0153964
918.030	0.0152248
918.108	0.0152898
918.186	0.0153205
918.264	0.0152940
918.342	0.0152508
918.420	0.0151670
918.498	0.0154767
918.576	0.0153327
918.655	0.0153204
918.733	0.0153396
918.811	0.0152344
918.889	0.0154025
918.967	0.0153745
919.045	0.0153687
919.123	0.0153904
919.201	0.0152316
919.280	0.0153388
919.358	0.0153076
919.436	0.0152806
919.514	0.0153425
919.592	0.0153062
919.670	0.0152729
919.748	0.0153197
919.826	0.0152875
919.905	0.0153175
919.983	0.0153600
920.061	0.0152859
920.139	0.0152745
920.217	0.0152656
920.295	0.0153737
920.373	0.0153152
920.451	0.0152282
920.530	0.0152077
920.608	0.0153065
920.686	0.0153669
920.764	0.0151878
920.842	0.0150930
920.920	0.0153668
920.998	0.0154037
921.076	0.0152254
921.155	0.0152100
921.233	0.0152511
921.311	0.0153022
921.389	0.0153717
921.467	0.0153068
921.545	0.0152624
921.623	0.0152069
921.701	0.0152216
921.780	0.0153674
921.858	0.0152417
921.936	0.0153328
922.014	0.0153104
922.092	0.0153326
922.170	0.0153024
922.248	0.0155213
922.326	0.0154227
922.405	0.0152451
922.483	0.0153739
922.561	0.0153259
922.639	0.0152955
922.717	0.0153607
922.795	0.0153927
922.873	0.0151162
922.951	0.0153020
923.030	0.0154037
923.108	0.0153242
923.186	0.0153329
923.264	0.0151597
923.342	0.0153432
923.420	0.0151966
923.498	0.0152594
923.576	0.0152655
923.655	0.0153780
923.733	0.0150803
923.811	0.0152024
923.889	0.0152931
923.967	0.0154328
924.045	0.0153610
924.123	0.0153594
924.201	0.0153127
924.280	0.0154006
924.358	0.0153530
924.436	0.0154553
924.514	0.0153397
924.592	0.0153580
924.670	0.0153931
924.748	0.0154827
924.826	0.0154086
924.905	0.0154321
924.983	0.0154436
925.061	0.0153899
925.139	0.0152982
925.217	0.0153546
925.295	0.0154354
925.373	0.0154235
925.451	0.0154333
925.530	0.0153861
925.608	0.0153532
925.686	0.0152489
925.764	0.0153170
925.842	0.0154312
925.920	0.0154058
925.998	0.0154026
926.076	0.0152985
926.155	0.0151948
926.233	0.0152459
926.311	0.0152926
926.389	0.0153738
926.467	0.0151263
926.545	0.0152592
926.623	0.0152795
926.701	0.0152120
926.780	0.0154424
926.858	0.0153297
926.936	0.0153979
927.014	0.0152530
927.092	0.0153499
927.170	0.0153728
927.248	0.0154469
927.326	0.0153976
927.405	0.0153302
927.483	0.0153377
927.561	0.0153955
927.639	0.0153279
927.717	0.0152121
927.795	0.0154070
927.873	0.0153581
927.951	0.0153615
928.030	0.0153288
928.108	0.0153367
928.186	0.0154742
928.264	0.0151789
928.342	0.0152116
928.420	0.0153161
928.498	0.0153841
928.576	0.0153732
928.655	0.0154523
928.733	0.0152780
928.811	0.0152833
928.889	0.0152987
928.967	0.0153359
929.045	0.0154308
929.123	0.0154119
929.201	0.0154191
929.280	0.0152780
929.358	0.0154288
929.436	0.0154144
929.514	0.0153879
929.592	0.0154349
929.670	0.0154116
929.748	0.0154023
929.826	0.0154114
929.905	0.0153027
929.983	0.0153970
930.061	0.0155015
930.139	0.0154188
930.217	0.0155756
930.295	0.0156702
930.373	0.0154238
930.451	0.0154150
930.530	0.0155051
930.608	0.0154366
930.686	0.0155337
930.764	0.0154073
930.842	0.0154174
930.920	0.0156246
930.998	0.0153480
931.076	0.0153363
931.155	0.0154079
931.233	0.0152134
931.311	0.0152496
931.389	0.0153671
931.467	0.0153210
931.545	0.0151049
931.623	0.0151745
931.701	0.0154597
931.780	0.0152701
931.858	0.0151452
931.936	0.0151926
932.014	0.0151536
932.092	0.0152650
932.170	0.0151135
932.248	0.0152706
932.326	0.0152058
932.405	0.0152791
932.483	0.0151394
932.561	0.0152181
932.639	0.0152637
932.717	0.0151734
932.795	0.0153843
932.873	0.0152668
932.951	0.0152490
933.030	0.0153068
933.108	0.0152153
933.186	0.0153014
933.264	0.0152735
933.342	0.0152505
933.420	0.0152304
933.498	0.0152096
933.576	0.0151514
933.655	0.0152117
933.733	0.0153271
933.811	0.0152518
933.889	0.0151913
933.967	0.0152409
934.045	0.0152153
934.123	0.0153822
934.201	0.0152995
934.280	0.0152898
934.358	0.0153533
934.436	0.0152663
934.514	0.0152202
934.592	0.0152629
934.670	0.0153038
934.748	0.0153049
934.826	0.0151823
934.905	0.0152030
934.983	0.0151270
935.061	0.0152412
935.139	0.0153014
935.217	0.0152799
935.295	0.0151583
935.373	0.0150975
935.451	0.0150825
935.530	0.0152756
935.608	0.0151675
935.686	0.0151993
935.764	0.0152206
935.842	0.0151431
935.920	0.0153262
935.998	0.0152570
936.076	0.0152921
936.155	0.0152824
936.233	0.0153990
936.311	0.0152116
936.389	0.0152925
936.467	0.0152464
936.545	0.0153218
936.623	0.0153800
936.701	0.0153310
936.780	0.0152490
936.858	0.0153689
936.936	0.0153149
937.014	0.0152363
937.092	0.0153927
937.170	0.0153629
937.248	0.0151673
937.326	0.0152357
937.405	0.0153727
937.483	0.0153104
937.561	0.0152007
937.639	0.0153310
937.717	0.0153830
937.795	0.0151595
937.873	0.0151985
937.951	0.0152225
938.030	0.0152272
938.108	0.0151730
938.186	0.0153388
938.264	0.0152711
938.342	0.0153152
938.420	0.0152402
938.498	0.0152663
938.576	0.0153694
938.655	0.0151881
938.733	0.0152418
938.811	0.0152215
938.889	0.0153527
938.967	0.0153696
939.045	0.0154042
939.123	0.0154122
939.201	0.0152985
939.280	0.0153728
939.358	0.0154081
939.436	0.0153815
939.514	0.0152955
939.592	0.0152940
939.670	0.0153877
939.748	0.0154980
939.826	0.0154409
939.905	0.0153083
939.983	0.0153002
940.061	0.0153425
940.139	0.0153631
940.217	0.0154634
940.295	0.0154852
940.373	0.0154533
940.451	0.0154035
940.530	0.0153579
940.608	0.0154344
940.686	0.0154189
940.764	0.0153103
940.842	0.0153767
940.920	0.0153149
940.998	0.0153089
941.076	0.0153198
941.155	0.0154847
941.233	0.0154858
941.311	0.0153470
941.389	0.0153524
941.467	0.0154702
941.545	0.0153873
941.623	0.0154942
941.701	0.0154413
941.780	0.0153523
941.858	0.0153570
941.936	0.0153223
942.014	0.0153801
942.092	0.0153831
942.170	0.0154065
942.248	0.0153147
942.326	0.0151088
942.405	0.0152827
942.483	0.0153137
942.561	0.0152446
942.639	0.0152882
942.717	0.0151698
942.795	0.0152658
942.873	0.0152203
942.951	0.0152948
943.030	0.0152850
943.108	0.0151335
943.186	0.0151462
943.264	0.0152489
943.342	0.0153002
943.420	0.0152405
943.498	0.0152699
943.576	0.0153423
943.655	0.0152288
943.733	0.0152724
943.811	0.0152479
943.889	0.0151797
943.967	0.0152108
944.045	0.0151415
944.123	0.0154359
944.201	0.0151798
944.280	0.0152613
944.358	0.0152866
944.436	0.0153506
944.514	0.0152299
944.592	0.0152015
944.670	0.0153204
944.748	0.0152233
944.826	0.0152950
944.905	0.0154008
944.983	0.0153074
945.061	0.0151762
945.139	0.0153217
945.217	0.0153998
945.295	0.0152708
945.373	0.0152641
945.451	0.0152339
945.530	0.0152806
945.608	0.0153230
945.686	0.0152932
945.764	0.0152235
945.842	0.0153333
945.920	0.0152749
945.998	0.0151493
946.076	0.0150628
946.155	0.0151875
946.233	0.0152330
946.311	0.0152063
946.389	0.0151727
946.467	0.0151672
946.545	0.0151348
946.623	0.0152274
946.701	0.0151273
946.780	0.0150953
946.858	0.0152204
946.936	0.0152728
947.014	0.0153893
947.092	0.0152583
947.170	0.0151032
947.248	0.0153488
947.326	0.0151416
947.405	0.0152116
947.483	0.0153232
947.561	0.0152441
947.639	0.0152720
947.717	0.0152412
947.795	0.0152873
947.873	0.0153221
947.951	0.0152802
948.030	0.0152065
948.108	0.0152911
948.186	0.0153223
948.264	0.0153555
948.342	0.0153192
948.420	0.0152298
948.498	0.0152907
948.576	0.0153613
948.655	0.0152518
948.733	0.0153358
948.811	0.0152810
948.889	0.0153857
948.967	0.0151470
949.045	0.0151230
949.123	0.0153489
949.201	0.0153033
949.280	0.0153296
949.358	0.0151758
949.436	0.0154175
949.514	0.0153211
949.592	0.0153764
949.670	0.0152274
949.748	0.0152876
949.826	0.0152733
949.905	0.0153800
949.983	0.0153951
950.061	0.0154089
950.139	0.0154048
950.217	0.0153728
950.295	0.0153568
950.373	0.0153449
950.451	0.0153240
950.530	0.0154001
950.608	0.0153609
950.686	0.0153367
950.764	0.0154594
950.842	0.0154230
950.920	0.0153535
950.998	0.0153659
951.076	0.0153587
951.155	0.0153162
951.233	0.0154446
951.311	0.0154411
951.389	0.0153541
951.467	0.0152611
951.545	0.0152572
951.623	0.0154356
951.701	0.0153648
951.780	0.0153532
951.858	0.0153635
951.936	0.0154134
952.014	0.0153835
952.092	0.0152319
952.170	0.0153520
952.248	0.0153890
952.326	0.0153727
952.405	0.0153026
952.483	0.0153150
952.561	0.0152082
952.639	0.0153058
952.717	0.0153702
952.795	0.0154099
952.873	0.0153301
952.951	0.0154864
953.030	0.0153530
953.108	0.0152137
953.186	0.0154438
953.264	0.0153878
953.342	0.0152615
953.420	0.0154085
953.498	0.0153675
953.576	0.0153281
953.655	0.0153858
953.733	0.0153298
953.811	0.0154068
953.889	0.0152855
953.967	0.0153375
954.045	0.0151717
954.123	0.0152010
954.201	0.0152455
954.280	0.0151717
954.358	0.0153200
954.436	0.0153405
954.514	0.0152316
954.592	0.0151642
954.670	0.0152161
954.748	0.0151083
954.826	0.0152738
954.905	0.0151967
954.983	0.0152187
955.061	0.0151116
955.139	0.0151894
955.217	0.0151878
955.295	0.0151382
955.373	0.0151630
955.451	0.0151367
955.530	0.0150743
955.608	0.0152110
955.686	0.0151838
955.764	0.0151944
955.842	0.0152303
955.920	0.0151535
955.998	0.0151709
956.076	0.0151027
956.155	0.0152672
956.233	0.0152828
956.311	0.0152484
956.389	0.0153970
956.467	0.0152615
956.545	0.0152557
956.623	0.0152654
956.701	0.0152490
956.780	0.0153241
956.858	0.0152359
956.936	0.0154273
957.014	0.0153616
957.092	0.0154256
957.170	0.0153783
957.248	0.0151971
957.326	0.0152921
957.405	0.0152703
957.483	0.0153131
957.561	0.0153687
957.639	0.0153978
957.717	0.0152524
957.795	0.0153287
957.873	0.0153399
957.951	0.0153271
958.030	0.0153621
958.108	0.0154698
958.186	0.0153781
958.264	0.0154465
958.342	0.0154326
958.420	0.0155116
958.498	0.0155144
958.576	0.0156049
958.655	0.0155288
958.733	0.0154021
958.811	0.0153969
958.889	0.0152798
958.967	0.0154409
959.045	0.0154635
959.123	0.0153900
959.201	0.0154642
959.280	0.0153841
959.358	0.0154603
959.436	0.0153697
959.514	0.0154093
959.592	0.0154475
959.670	0.0153417
959.748	0.0153262
959.826	0.0154205
959.905	0.0154604
