05/20/2022	16:43:33	Ver.	4.1	UNKNOWN
Optical Delay	639.982744	Delta X		0.078125	Sweeps	1	Scan Rate	0/0
Coordinates	Axis 1	NaN	Axis 2	NaN	Axis 3	NaN	Axis 4	NaN	Axis 5	NaN	Axis 6	0.000000
TX Power	0.000000	RX Power	0.000000

639.983	0.0153254
640.061	0.0154003
640.139	0.0153338
640.217	0.0153790
640.295	0.0154181
640.373	0.0154272
640.451	0.0154681
640.530	0.0153403
640.608	0.0154307
640.686	0.0154987
640.764	0.0154355
640.842	0.0153271
640.920	0.0153972
640.998	0.0153837
641.076	0.0154117
641.155	0.0153730
641.233	0.0154187
641.311	0.0153456
641.389	0.0152381
641.467	0.0152589
641.545	0.0154185
641.623	0.0155785
641.701	0.0153844
641.780	0.0153875
641.858	0.0153416
641.936	0.0155184
642.014	0.0153765
642.092	0.0153625
642.170	0.0153378
642.248	0.0153745
642.326	0.0153918
642.405	0.0153330
642.483	0.0151985
642.561	0.0152538
642.639	0.0152037
642.717	0.0153326
642.795	0.0153077
642.873	0.0153050
642.951	0.0152856
643.030	0.0153426
643.108	0.0152205
643.186	0.0153567
643.264	0.0152820
643.342	0.0152877
643.420	0.0152365
643.498	0.0153553
643.576	0.0152113
643.655	0.0153743
643.733	0.0154465
643.811	0.0152166
643.889	0.0152405
643.967	0.0153573
644.045	0.0151743
644.123	0.0152843
644.201	0.0151059
644.280	0.0152038
644.358	0.0152460
644.436	0.0153396
644.514	0.0151555
644.592	0.0151948
644.670	0.0153796
644.748	0.0151922
644.826	0.0152497
644.905	0.0152879
644.983	0.0153761
645.061	0.0153118
645.139	0.0151958
645.217	0.0152446
645.295	0.0153094
645.373	0.0152970
645.451	0.0152860
645.530	0.0152219
645.608	0.0151200
645.686	0.0150283
645.764	0.0151870
645.842	0.0152097
645.920	0.0152113
645.998	0.0152443
646.076	0.0153696
646.155	0.0151398
646.233	0.0153513
646.311	0.0152965
646.389	0.0153106
646.467	0.0153155
646.545	0.0153705
646.623	0.0153444
646.701	0.0153128
646.780	0.0153760
646.858	0.0154601
646.936	0.0153667
647.014	0.0153404
647.092	0.0153913
647.170	0.0154363
647.248	0.0155424
647.326	0.0153207
647.405	0.0153284
647.483	0.0152840
647.561	0.0153731
647.639	0.0153120
647.717	0.0154618
647.795	0.0154021
647.873	0.0153545
647.951	0.0153561
648.030	0.0153384
648.108	0.0154894
648.186	0.0154979
648.264	0.0155541
648.342	0.0155546
648.420	0.0153460
648.498	0.0154610
648.576	0.0154830
648.655	0.0154634
648.733	0.0155164
648.811	0.0155183
648.889	0.0156794
648.967	0.0155561
649.045	0.0156776
649.123	0.0155751
649.201	0.0155889
649.280	0.0156264
649.358	0.0155052
649.436	0.0155072
649.514	0.0155015
649.592	0.0155064
649.670	0.0153998
649.748	0.0154176
649.826	0.0154468
649.905	0.0154671
649.983	0.0155981
650.061	0.0154253
650.139	0.0154873
650.217	0.0154766
650.295	0.0154769
650.373	0.0155505
650.451	0.0154783
650.530	0.0153526
650.608	0.0154169
650.686	0.0155387
650.764	0.0155666
650.842	0.0154460
650.920	0.0154436
650.998	0.0155048
651.076	0.0154462
651.155	0.0154160
651.233	0.0154523
651.311	0.0153433
651.389	0.0152557
651.467	0.0153159
651.545	0.0154094
651.623	0.0154289
651.701	0.0153761
651.780	0.0153005
651.858	0.0152518
651.936	0.0152714
652.014	0.0153524
652.092	0.0154581
652.170	0.0151943
652.248	0.0151920
652.326	0.0152055
652.405	0.0153023
652.483	0.0153928
652.561	0.0152544
652.639	0.0151601
652.717	0.0151507
652.795	0.0151497
652.873	0.0152074
652.951	0.0151834
653.030	0.0152299
653.108	0.0153214
653.186	0.0152425
653.264	0.0152981
653.342	0.0153016
653.420	0.0153094
653.498	0.0152789
653.576	0.0152612
653.655	0.0152330
653.733	0.0153893
653.811	0.0153352
653.889	0.0152451
653.967	0.0152169
654.045	0.0152376
654.123	0.0152285
654.201	0.0152853
654.280	0.0151492
654.358	0.0151828
654.436	0.0152373
654.514	0.0152416
654.592	0.0151941
654.670	0.0151311
654.748	0.0151321
654.826	0.0150643
654.905	0.0151722
654.983	0.0151805
655.061	0.0150797
655.139	0.0151540
655.217	0.0152026
655.295	0.0153220
655.373	0.0151586
655.451	0.0151777
655.530	0.0151231
655.608	0.0151926
655.686	0.0151279
655.764	0.0151051
655.842	0.0153188
655.920	0.0152362
655.998	0.0150758
656.076	0.0150537
656.155	0.0150281
656.233	0.0152000
656.311	0.0151460
656.389	0.0151665
656.467	0.0152184
656.545	0.0151395
656.623	0.0150070
656.701	0.0150916
656.780	0.0150955
656.858	0.0149519
656.936	0.0150678
657.014	0.0150076
657.092	0.0149163
657.170	0.0150075
657.248	0.0149522
657.326	0.0151345
657.405	0.0151856
657.483	0.0150209
657.561	0.0150969
657.639	0.0151349
657.717	0.0151843
657.795	0.0151923
657.873	0.0150746
657.951	0.0152909
658.030	0.0152017
658.108	0.0153053
658.186	0.0150786
658.264	0.0151515
658.342	0.0151056
658.420	0.0151870
658.498	0.0152557
658.576	0.0152369
658.655	0.0151413
658.733	0.0150587
658.811	0.0150324
658.889	0.0150260
658.967	0.0150616
659.045	0.0151165
659.123	0.0150734
659.201	0.0151093
659.280	0.0151973
659.358	0.0151644
659.436	0.0151711
659.514	0.0150656
659.592	0.0152119
659.670	0.0151382
659.748	0.0152058
659.826	0.0152589
659.905	0.0151970
659.983	0.0151814
660.061	0.0151973
660.139	0.0151801
660.217	0.0151307
660.295	0.0151952
660.373	0.0151687
660.451	0.0152696
660.530	0.0152645
660.608	0.0152901
660.686	0.0153572
660.764	0.0150851
660.842	0.0152190
660.920	0.0152503
660.998	0.0151855
661.076	0.0150934
661.155	0.0152743
661.233	0.0153864
661.311	0.0152561
661.389	0.0150583
661.467	0.0152596
661.545	0.0151379
661.623	0.0151295
661.701	0.0149415
661.780	0.0151283
661.858	0.0152045
661.936	0.0151389
662.014	0.0151627
662.092	0.0149564
662.170	0.0152542
662.248	0.0153228
662.326	0.0151340
662.405	0.0150281
662.483	0.0151337
662.561	0.0151952
662.639	0.0150015
662.717	0.0149618
662.795	0.0151875
662.873	0.0151237
662.951	0.0151949
663.030	0.0149626
663.108	0.0150692
663.186	0.0150554
663.264	0.0152492
663.342	0.0149900
663.420	0.0150818
663.498	0.0151940
663.576	0.0151344
663.655	0.0150928
663.733	0.0150626
663.811	0.0150998
663.889	0.0149552
663.967	0.0149693
664.045	0.0149702
664.123	0.0148504
664.201	0.0148373
664.280	0.0149775
664.358	0.0150442
664.436	0.0148890
664.514	0.0148521
664.592	0.0149309
664.670	0.0150362
664.748	0.0151836
664.826	0.0151892
664.905	0.0151163
664.983	0.0150491
665.061	0.0151022
665.139	0.0151821
665.217	0.0150302
665.295	0.0150737
665.373	0.0150557
665.451	0.0151032
665.530	0.0151403
665.608	0.0150362
665.686	0.0151077
665.764	0.0149281
665.842	0.0148972
665.920	0.0149851
665.998	0.0148628
666.076	0.0149593
666.155	0.0150521
666.233	0.0150142
666.311	0.0149888
666.389	0.0150671
666.467	0.0149509
666.545	0.0149609
666.623	0.0150674
666.701	0.0150072
666.780	0.0149241
666.858	0.0150119
666.936	0.0149696
667.014	0.0149770
667.092	0.0150453
667.170	0.0149569
667.248	0.0148907
667.326	0.0150024
667.405	0.0151078
667.483	0.0149527
667.561	0.0150224
667.639	0.0149657
667.717	0.0149973
667.795	0.0150404
667.873	0.0151653
667.951	0.0150751
668.030	0.0152597
668.108	0.0151307
668.186	0.0153746
668.264	0.0153156
668.342	0.0153841
668.420	0.0154260
668.498	0.0154394
668.576	0.0154431
668.655	0.0153315
668.733	0.0153849
668.811	0.0154633
668.889	0.0153681
668.967	0.0153764
669.045	0.0155013
669.123	0.0154790
669.201	0.0154961
669.280	0.0153392
669.358	0.0154412
669.436	0.0154520
669.514	0.0153645
669.592	0.0153088
669.670	0.0154059
669.748	0.0151817
669.826	0.0153226
669.905	0.0150909
669.983	0.0150272
670.061	0.0149420
670.139	0.0149667
670.217	0.0150079
670.295	0.0148349
670.373	0.0148206
670.451	0.0147559
670.530	0.0148801
670.608	0.0149194
670.686	0.0149292
670.764	0.0149448
670.842	0.0150270
670.920	0.0150059
670.998	0.0150426
671.076	0.0151734
671.155	0.0152651
671.233	0.0152109
671.311	0.0152953
671.389	0.0153749
671.467	0.0155637
671.545	0.0154870
671.623	0.0155447
671.701	0.0155270
671.780	0.0156907
671.858	0.0156842
671.936	0.0156199
672.014	0.0156510
672.092	0.0156635
672.170	0.0157692
672.248	0.0157386
672.326	0.0157535
672.405	0.0157381
672.483	0.0157049
672.561	0.0156964
672.639	0.0156903
672.717	0.0155096
672.795	0.0154890
672.873	0.0154243
672.951	0.0153195
673.030	0.0152316
673.108	0.0151961
673.186	0.0149848
673.264	0.0149018
673.342	0.0147055
673.420	0.0146653
673.498	0.0145679
673.576	0.0145465
673.655	0.0146478
673.733	0.0144780
673.811	0.0145558
673.889	0.0145575
673.967	0.0145105
674.045	0.0147100
674.123	0.0147795
674.201	0.0147191
674.280	0.0148133
674.358	0.0150653
674.436	0.0151586
674.514	0.0153277
674.592	0.0153873
674.670	0.0153815
674.748	0.0156412
674.826	0.0158695
674.905	0.0159964
674.983	0.0160012
675.061	0.0162712
675.139	0.0160873
675.217	0.0161504
675.295	0.0163940
675.373	0.0161813
675.451	0.0163622
675.530	0.0160939
675.608	0.0161639
675.686	0.0161476
675.764	0.0160317
675.842	0.0157743
675.920	0.0156037
675.998	0.0154667
676.076	0.0153676
676.155	0.0150547
676.233	0.0150748
676.311	0.0148702
676.389	0.0146680
676.467	0.0145930
676.545	0.0143049
676.623	0.0142169
676.701	0.0143262
676.780	0.0142199
676.858	0.0142171
676.936	0.0141032
677.014	0.0141765
677.092	0.0141828
677.170	0.0143232
677.248	0.0143845
677.326	0.0143803
677.405	0.0145780
677.483	0.0147412
677.561	0.0149295
677.639	0.0150658
677.717	0.0151134
677.795	0.0153781
677.873	0.0154301
677.951	0.0155531
678.030	0.0156460
678.108	0.0157470
678.186	0.0160108
678.264	0.0160791
678.342	0.0160444
678.420	0.0160254
678.498	0.0162080
678.576	0.0161401
678.655	0.0159865
678.733	0.0159020
678.811	0.0159422
678.889	0.0159573
678.967	0.0158110
679.045	0.0156693
679.123	0.0156057
679.201	0.0153797
679.280	0.0154467
679.358	0.0153048
679.436	0.0153057
679.514	0.0152985
679.592	0.0152962
679.670	0.0151353
679.748	0.0151808
679.826	0.0151363
679.905	0.0151377
679.983	0.0151408
680.061	0.0151788
680.139	0.0151640
680.217	0.0151880
680.295	0.0151941
680.373	0.0152220
680.451	0.0150763
680.530	0.0150288
680.608	0.0151852
680.686	0.0148517
680.764	0.0147388
680.842	0.0147538
680.920	0.0147583
680.998	0.0146579
681.076	0.0146232
681.155	0.0146008
681.233	0.0145623
681.311	0.0146479
681.389	0.0145261
681.467	0.0145358
681.545	0.0145116
681.623	0.0144466
681.701	0.0145181
681.780	0.0146445
681.858	0.0146065
681.936	0.0147313
682.014	0.0147217
682.092	0.0148306
682.170	0.0148230
682.248	0.0149641
682.326	0.0150645
682.405	0.0150123
682.483	0.0153310
682.561	0.0155158
682.639	0.0155743
682.717	0.0158233
682.795	0.0158895
682.873	0.0160027
682.951	0.0160012
683.030	0.0161568
683.108	0.0163086
683.186	0.0162933
683.264	0.0163942
683.342	0.0163499
683.420	0.0162072
683.498	0.0159906
683.576	0.0161134
683.655	0.0160574
683.733	0.0160052
683.811	0.0160387
683.889	0.0158388
683.967	0.0156600
684.045	0.0155573
684.123	0.0154865
684.201	0.0153280
684.280	0.0151471
684.358	0.0148337
684.436	0.0146922
684.514	0.0146260
684.592	0.0142573
684.670	0.0139706
684.748	0.0137802
684.826	0.0136958
684.905	0.0135768
684.983	0.0135771
685.061	0.0133755
685.139	0.0133066
685.217	0.0132582
685.295	0.0133937
685.373	0.0136361
685.451	0.0136388
685.530	0.0137787
685.608	0.0138969
685.686	0.0140498
685.764	0.0143076
685.842	0.0144944
685.920	0.0146220
685.998	0.0149157
686.076	0.0150911
686.155	0.0153278
686.233	0.0153252
686.311	0.0156758
686.389	0.0159888
686.467	0.0162545
686.545	0.0162955
686.623	0.0164657
686.701	0.0165959
686.780	0.0168564
686.858	0.0168769
686.936	0.0168403
687.014	0.0168408
687.092	0.0166599
687.170	0.0164803
687.248	0.0164153
687.326	0.0161714
687.405	0.0158404
687.483	0.0156433
687.561	0.0153498
687.639	0.0151457
687.717	0.0147484
687.795	0.0145204
687.873	0.0141640
687.951	0.0138952
688.030	0.0135777
688.108	0.0133115
688.186	0.0131266
688.264	0.0130248
688.342	0.0130531
688.420	0.0128447
688.498	0.0127907
688.576	0.0127139
688.655	0.0129248
688.733	0.0129901
688.811	0.0131171
688.889	0.0133389
688.967	0.0136406
689.045	0.0139616
689.123	0.0141180
689.201	0.0144663
689.280	0.0147339
689.358	0.0149780
689.436	0.0152010
689.514	0.0157068
689.592	0.0160318
689.670	0.0165051
689.748	0.0166792
689.826	0.0169023
689.905	0.0171378
689.983	0.0173405
690.061	0.0173663
690.139	0.0174509
690.217	0.0175391
690.295	0.0173530
690.373	0.0172666
690.451	0.0172030
690.530	0.0170951
690.608	0.0167537
690.686	0.0165033
690.764	0.0162882
690.842	0.0162663
690.920	0.0159090
690.998	0.0156693
691.076	0.0154724
691.155	0.0152921
691.233	0.0151036
691.311	0.0149921
691.389	0.0149053
691.467	0.0147517
691.545	0.0147163
691.623	0.0147814
691.701	0.0147007
691.780	0.0148199
691.858	0.0147202
691.936	0.0146730
692.014	0.0147617
692.092	0.0146281
692.170	0.0147978
692.248	0.0148271
692.326	0.0149099
692.405	0.0149989
692.483	0.0150793
692.561	0.0152235
692.639	0.0150418
692.717	0.0150175
692.795	0.0153382
692.873	0.0153747
692.951	0.0153239
693.030	0.0152575
693.108	0.0153741
693.186	0.0152865
693.264	0.0151804
693.342	0.0152020
693.420	0.0152335
693.498	0.0151742
693.576	0.0151286
693.655	0.0152026
693.733	0.0152005
693.811	0.0153957
693.889	0.0152951
693.967	0.0152460
694.045	0.0150397
694.123	0.0150916
694.201	0.0153296
694.280	0.0151727
694.358	0.0152124
694.436	0.0153216
694.514	0.0153235
694.592	0.0152999
694.670	0.0155455
694.748	0.0157693
694.826	0.0157981
694.905	0.0158915
694.983	0.0158739
695.061	0.0160950
695.139	0.0158830
695.217	0.0159696
695.295	0.0159941
695.373	0.0158413
695.451	0.0159137
695.530	0.0160217
695.608	0.0158436
695.686	0.0158730
695.764	0.0159470
695.842	0.0159454
695.920	0.0158739
695.998	0.0156306
696.076	0.0157220
696.155	0.0156867
696.233	0.0156945
696.311	0.0155791
696.389	0.0154793
696.467	0.0154736
696.545	0.0153780
696.623	0.0153426
696.701	0.0150684
696.780	0.0151070
696.858	0.0150532
696.936	0.0150197
697.014	0.0149957
697.092	0.0150040
697.170	0.0149586
697.248	0.0150959
697.326	0.0150247
697.405	0.0151246
697.483	0.0151604
697.561	0.0152024
697.639	0.0151614
697.717	0.0153253
697.795	0.0153640
697.873	0.0154929
697.951	0.0153737
698.030	0.0154328
698.108	0.0151694
698.186	0.0151598
698.264	0.0152301
698.342	0.0149761
698.420	0.0148964
698.498	0.0147961
698.576	0.0146701
698.655	0.0143963
698.733	0.0144125
698.811	0.0142332
698.889	0.0139828
698.967	0.0139131
699.045	0.0138344
699.123	0.0137728
699.201	0.0136102
699.280	0.0136394
699.358	0.0135309
699.436	0.0135770
699.514	0.0138027
699.592	0.0139496
699.670	0.0139835
699.748	0.0140604
699.826	0.0142003
699.905	0.0144418
699.983	0.0146651
700.061	0.0148106
700.139	0.0149612
700.217	0.0151790
700.295	0.0156679
700.373	0.0157912
700.451	0.0160506
700.530	0.0161669
700.608	0.0165376
700.686	0.0164664
700.764	0.0168906
700.842	0.0170942
700.920	0.0171326
700.998	0.0173391
701.076	0.0173045
701.155	0.0173389
701.233	0.0172495
701.311	0.0172227
701.389	0.0171485
701.467	0.0170174
701.545	0.0168488
701.623	0.0165723
701.701	0.0164008
701.780	0.0160934
701.858	0.0160183
701.936	0.0155634
702.014	0.0153627
702.092	0.0151215
702.170	0.0149249
702.248	0.0145925
702.326	0.0144042
702.405	0.0143768
702.483	0.0140968
702.561	0.0142496
702.639	0.0141064
702.717	0.0139101
702.795	0.0139654
702.873	0.0138937
702.951	0.0139410
703.030	0.0139499
703.108	0.0140679
703.186	0.0140527
703.264	0.0141637
703.342	0.0143722
703.420	0.0143855
703.498	0.0145067
703.576	0.0145155
703.655	0.0146579
703.733	0.0149729
703.811	0.0149001
703.889	0.0150285
703.967	0.0150291
704.045	0.0152039
704.123	0.0153104
704.201	0.0153808
704.280	0.0153595
704.358	0.0154150
704.436	0.0155195
704.514	0.0155139
704.592	0.0153907
704.670	0.0156027
704.748	0.0154304
704.826	0.0154153
704.905	0.0155351
704.983	0.0153877
705.061	0.0156430
705.139	0.0153916
705.217	0.0154478
705.295	0.0156174
705.373	0.0155860
705.451	0.0155163
705.530	0.0155679
705.608	0.0158133
705.686	0.0155527
705.764	0.0155312
705.842	0.0156680
705.920	0.0155228
705.998	0.0155244
706.076	0.0155527
706.155	0.0155459
706.233	0.0154018
706.311	0.0154209
706.389	0.0155162
706.467	0.0153557
706.545	0.0153519
706.623	0.0152756
706.701	0.0153067
706.780	0.0152110
706.858	0.0151590
706.936	0.0151817
707.014	0.0151668
707.092	0.0150790
707.170	0.0151496
707.248	0.0150781
707.326	0.0153989
707.405	0.0152617
707.483	0.0153342
707.561	0.0152786
707.639	0.0153992
707.717	0.0154226
707.795	0.0155302
707.873	0.0156711
707.951	0.0154449
708.030	0.0156877
708.108	0.0157751
708.186	0.0155872
708.264	0.0158607
708.342	0.0157833
708.420	0.0160046
708.498	0.0159525
708.576	0.0159872
708.655	0.0158807
708.733	0.0159168
708.811	0.0160416
708.889	0.0161597
708.967	0.0159883
709.045	0.0160095
709.123	0.0160143
709.201	0.0160329
709.280	0.0161563
709.358	0.0158914
709.436	0.0158882
709.514	0.0159048
709.592	0.0155822
709.670	0.0156549
709.748	0.0155698
709.826	0.0154016
709.905	0.0152946
709.983	0.0152342
710.061	0.0150417
710.139	0.0149327
710.217	0.0148069
710.295	0.0146632
710.373	0.0145587
710.451	0.0146468
710.530	0.0144209
710.608	0.0144987
710.686	0.0144410
710.764	0.0144138
710.842	0.0144235
710.920	0.0143536
710.998	0.0142659
711.076	0.0143267
711.155	0.0142123
711.233	0.0142333
711.311	0.0143266
711.389	0.0143590
711.467	0.0144427
711.545	0.0147148
711.623	0.0145579
711.701	0.0146700
711.780	0.0148954
711.858	0.0151499
711.936	0.0151665
712.014	0.0153337
712.092	0.0156555
712.170	0.0157148
712.248	0.0158878
712.326	0.0160106
712.405	0.0161797
712.483	0.0163880
712.561	0.0163392
712.639	0.0163715
712.717	0.0164706
712.795	0.0166382
712.873	0.0165082
712.951	0.0166701
713.030	0.0164996
713.108	0.0164978
713.186	0.0165702
713.264	0.0165182
713.342	0.0162872
713.420	0.0162240
713.498	0.0161772
713.576	0.0162015
713.655	0.0158994
713.733	0.0155878
713.811	0.0155655
713.889	0.0153783
713.967	0.0152715
714.045	0.0152319
714.123	0.0150872
714.201	0.0150204
714.280	0.0149821
714.358	0.0149493
714.436	0.0150152
714.514	0.0149100
714.592	0.0150369
714.670	0.0150532
714.748	0.0150419
714.826	0.0151011
714.905	0.0150573
714.983	0.0152055
715.061	0.0151416
715.139	0.0152575
715.217	0.0151786
715.295	0.0151664
715.373	0.0152094
715.451	0.0151176
715.530	0.0151338
715.608	0.0151974
715.686	0.0151841
715.764	0.0151864
715.842	0.0151670
715.920	0.0152251
715.998	0.0152801
716.076	0.0154092
716.155	0.0153623
716.233	0.0152965
716.311	0.0154025
716.389	0.0154851
716.467	0.0155067
716.545	0.0156356
716.623	0.0156349
716.701	0.0154662
716.780	0.0154517
716.858	0.0155128
716.936	0.0154867
717.014	0.0152930
717.092	0.0151620
717.170	0.0149695
717.248	0.0150481
717.326	0.0148074
717.405	0.0146511
717.483	0.0145361
717.561	0.0147046
717.639	0.0145669
717.717	0.0145386
717.795	0.0145153
717.873	0.0142407
717.951	0.0141087
718.030	0.0142902
718.108	0.0142203
718.186	0.0140876
718.264	0.0141919
718.342	0.0142124
718.420	0.0144587
718.498	0.0143874
718.576	0.0145287
718.655	0.0145055
718.733	0.0148243
718.811	0.0148557
718.889	0.0148978
718.967	0.0150537
719.045	0.0152050
719.123	0.0152898
719.201	0.0152429
719.280	0.0154443
719.358	0.0155134
719.436	0.0157174
719.514	0.0157419
719.592	0.0157002
719.670	0.0158486
719.748	0.0158408
719.826	0.0158760
719.905	0.0160394
719.983	0.0160086
720.061	0.0160771
720.139	0.0159970
720.217	0.0161761
720.295	0.0162541
720.373	0.0164285
720.451	0.0165204
720.530	0.0164687
720.608	0.0165618
720.686	0.0164553
720.764	0.0165047
720.842	0.0163819
720.920	0.0162410
720.998	0.0161613
721.076	0.0159020
721.155	0.0157812
721.233	0.0156927
721.311	0.0154676
721.389	0.0152882
721.467	0.0150784
721.545	0.0148662
721.623	0.0146159
721.701	0.0145918
721.780	0.0144073
721.858	0.0142655
721.936	0.0142693
722.014	0.0142364
722.092	0.0140700
722.170	0.0141211
722.248	0.0139790
722.326	0.0140066
722.405	0.0140128
722.483	0.0141238
722.561	0.0142162
722.639	0.0143092
722.717	0.0143611
722.795	0.0144015
722.873	0.0144969
722.951	0.0147028
723.030	0.0147547
723.108	0.0150873
723.186	0.0151366
723.264	0.0154018
723.342	0.0155337
723.420	0.0156226
723.498	0.0156691
723.576	0.0159087
723.655	0.0159724
723.733	0.0160582
723.811	0.0160368
723.889	0.0160775
723.967	0.0161708
724.045	0.0161738
724.123	0.0160454
724.201	0.0160317
724.280	0.0160622
724.358	0.0160928
724.436	0.0159348
724.514	0.0158273
724.592	0.0158134
724.670	0.0155685
724.748	0.0155405
724.826	0.0155378
724.905	0.0155715
724.983	0.0154974
725.061	0.0154004
725.139	0.0154142
725.217	0.0153349
725.295	0.0152924
725.373	0.0153247
725.451	0.0154832
725.530	0.0154214
725.608	0.0152144
725.686	0.0153312
725.764	0.0153821
725.842	0.0153770
725.920	0.0154058
725.998	0.0152829
726.076	0.0155618
726.155	0.0154546
726.233	0.0154621
726.311	0.0154311
726.389	0.0154500
726.467	0.0153958
726.545	0.0154848
726.623	0.0151883
726.701	0.0151513
726.780	0.0150730
726.858	0.0149746
726.936	0.0150151
727.014	0.0149838
727.092	0.0149488
727.170	0.0148025
727.248	0.0147009
727.326	0.0146770
727.405	0.0145361
727.483	0.0146185
727.561	0.0147047
727.639	0.0146877
727.717	0.0145646
727.795	0.0146634
727.873	0.0146754
727.951	0.0147123
728.030	0.0149170
728.108	0.0148492
728.186	0.0149453
728.264	0.0149882
728.342	0.0149418
728.420	0.0150090
728.498	0.0151626
728.576	0.0150098
728.655	0.0151415
728.733	0.0150629
728.811	0.0152031
728.889	0.0154610
728.967	0.0152754
729.045	0.0152047
729.123	0.0153056
729.201	0.0153817
729.280	0.0154333
729.358	0.0155814
729.436	0.0155200
729.514	0.0155491
729.592	0.0155602
729.670	0.0156684
729.748	0.0159176
729.826	0.0159134
729.905	0.0159644
729.983	0.0158086
730.061	0.0159872
730.139	0.0160797
730.217	0.0159640
730.295	0.0159862
730.373	0.0160846
730.451	0.0158828
730.530	0.0159032
730.608	0.0157916
730.686	0.0158099
730.764	0.0157133
730.842	0.0156781
730.920	0.0155698
730.998	0.0153438
731.076	0.0152267
731.155	0.0151152
731.233	0.0151378
731.311	0.0150425
731.389	0.0147835
731.467	0.0148199
731.545	0.0148368
731.623	0.0146346
731.701	0.0146308
731.780	0.0145947
731.858	0.0146078
731.936	0.0145191
732.014	0.0144443
732.092	0.0146236
732.170	0.0146310
732.248	0.0146838
732.326	0.0146764
732.405	0.0146851
732.483	0.0147837
732.561	0.0149352
732.639	0.0151766
732.717	0.0151845
732.795	0.0150999
732.873	0.0154948
732.951	0.0154725
733.030	0.0153497
733.108	0.0155452
733.186	0.0157021
733.264	0.0158513
733.342	0.0158754
733.420	0.0159528
733.498	0.0159910
733.576	0.0159550
733.655	0.0160724
733.733	0.0161455
733.811	0.0160780
733.889	0.0158494
733.967	0.0159290
734.045	0.0159011
734.123	0.0156901
734.201	0.0156361
734.280	0.0155516
734.358	0.0156084
734.436	0.0155379
734.514	0.0153683
734.592	0.0153622
734.670	0.0153560
734.748	0.0152847
734.826	0.0152573
734.905	0.0153490
734.983	0.0154549
735.061	0.0154585
735.139	0.0153550
735.217	0.0152599
735.295	0.0153098
735.373	0.0154414
735.451	0.0152345
735.530	0.0152784
735.608	0.0152975
735.686	0.0151308
735.764	0.0151344
735.842	0.0151937
735.920	0.0152576
735.998	0.0150829
736.076	0.0150494
736.155	0.0150694
736.233	0.0149982
736.311	0.0149894
736.389	0.0151514
736.467	0.0148777
736.545	0.0148155
736.623	0.0150043
736.701	0.0148429
736.780	0.0149304
736.858	0.0149622
736.936	0.0150296
737.014	0.0150062
737.092	0.0149004
737.170	0.0149040
737.248	0.0149497
737.326	0.0151194
737.405	0.0150610
737.483	0.0150467
737.561	0.0149906
737.639	0.0150824
737.717	0.0150474
737.795	0.0151869
737.873	0.0152619
737.951	0.0152151
738.030	0.0155259
738.108	0.0155184
738.186	0.0155237
738.264	0.0156063
738.342	0.0156856
738.420	0.0156468
738.498	0.0156139
738.576	0.0156583
738.655	0.0156385
738.733	0.0155618
738.811	0.0155308
738.889	0.0154263
738.967	0.0155291
739.045	0.0155508
739.123	0.0155094
739.201	0.0155566
739.280	0.0154722
739.358	0.0154944
739.436	0.0155000
739.514	0.0154800
739.592	0.0154185
739.670	0.0153282
739.748	0.0154924
739.826	0.0153904
739.905	0.0155344
739.983	0.0154288
740.061	0.0153532
740.139	0.0151881
740.217	0.0151814
740.295	0.0151166
740.373	0.0150560
740.451	0.0149441
740.530	0.0148901
740.608	0.0147721
740.686	0.0147074
740.764	0.0147828
740.842	0.0148019
740.920	0.0144765
740.998	0.0145087
741.076	0.0144698
741.155	0.0144109
741.233	0.0145227
741.311	0.0144920
741.389	0.0144070
741.467	0.0143730
741.545	0.0145057
741.623	0.0144704
741.701	0.0145091
741.780	0.0146209
741.858	0.0147570
741.936	0.0148309
742.014	0.0147964
742.092	0.0147717
742.170	0.0149569
742.248	0.0151661
742.326	0.0152412
742.405	0.0150487
742.483	0.0152329
742.561	0.0152596
742.639	0.0154701
742.717	0.0154649
742.795	0.0154729
742.873	0.0154193
742.951	0.0153203
743.030	0.0154963
743.108	0.0155319
743.186	0.0155441
743.264	0.0155399
743.342	0.0155798
743.420	0.0154616
743.498	0.0153168
743.576	0.0154009
743.655	0.0153554
743.733	0.0155063
743.811	0.0154963
743.889	0.0154623
743.967	0.0153236
744.045	0.0153462
744.123	0.0153244
744.201	0.0154082
744.280	0.0154042
744.358	0.0154650
744.436	0.0153500
744.514	0.0152281
744.592	0.0150808
744.670	0.0153022
744.748	0.0151408
744.826	0.0150253
744.905	0.0148894
744.983	0.0147961
745.061	0.0148093
745.139	0.0148211
745.217	0.0146240
745.295	0.0146332
745.373	0.0146815
745.451	0.0146636
745.530	0.0147778
745.608	0.0147086
745.686	0.0146844
745.764	0.0148502
745.842	0.0149799
745.920	0.0151263
745.998	0.0151164
746.076	0.0151595
746.155	0.0152776
746.233	0.0152998
746.311	0.0153434
746.389	0.0155282
746.467	0.0156649
746.545	0.0156049
746.623	0.0155984
746.701	0.0159465
746.780	0.0158520
746.858	0.0156319
746.936	0.0156773
747.014	0.0158557
747.092	0.0157143
747.170	0.0156203
747.248	0.0156097
747.326	0.0154992
747.405	0.0153086
747.483	0.0151772
747.561	0.0153642
747.639	0.0154409
747.717	0.0151425
747.795	0.0151766
747.873	0.0150887
747.951	0.0150603
748.030	0.0150612
748.108	0.0151315
748.186	0.0151293
748.264	0.0151672
748.342	0.0151852
748.420	0.0153831
748.498	0.0154903
748.576	0.0153822
748.655	0.0153610
748.733	0.0154807
748.811	0.0153118
748.889	0.0155139
748.967	0.0155566
749.045	0.0155173
749.123	0.0156728
749.201	0.0155409
749.280	0.0155257
749.358	0.0154303
749.436	0.0154626
749.514	0.0153938
749.592	0.0154556
749.670	0.0154052
749.748	0.0154082
749.826	0.0154396
749.905	0.0153040
749.983	0.0153356
750.061	0.0153876
750.139	0.0153017
750.217	0.0151882
750.295	0.0152505
750.373	0.0152632
750.451	0.0151512
750.530	0.0151870
750.608	0.0152994
750.686	0.0152649
750.764	0.0152598
750.842	0.0152753
750.920	0.0153881
750.998	0.0153233
751.076	0.0153508
751.155	0.0153339
751.233	0.0152708
751.311	0.0153700
751.389	0.0152631
751.467	0.0153774
751.545	0.0153263
751.623	0.0153224
751.701	0.0153664
751.780	0.0154398
751.858	0.0152998
751.936	0.0152999
752.014	0.0151844
752.092	0.0151572
752.170	0.0151438
752.248	0.0151478
752.326	0.0151735
752.405	0.0151225
752.483	0.0151140
752.561	0.0149474
752.639	0.0149944
752.717	0.0151314
752.795	0.0151577
752.873	0.0152412
752.951	0.0150430
753.030	0.0151602
753.108	0.0151973
753.186	0.0153858
753.264	0.0154898
753.342	0.0154381
753.420	0.0153851
753.498	0.0153979
753.576	0.0154742
753.655	0.0154807
753.733	0.0154826
753.811	0.0155942
753.889	0.0155203
753.967	0.0155888
754.045	0.0156004
754.123	0.0155827
754.201	0.0155404
754.280	0.0154648
754.358	0.0153838
754.436	0.0153985
754.514	0.0152572
754.592	0.0151179
754.670	0.0151515
754.748	0.0149959
754.826	0.0149376
754.905	0.0149697
754.983	0.0149010
755.061	0.0149123
755.139	0.0149705
755.217	0.0148095
755.295	0.0147947
755.373	0.0148257
755.451	0.0149201
755.530	0.0149741
755.608	0.0148754
755.686	0.0150257
755.764	0.0150516
755.842	0.0151347
755.920	0.0149919
755.998	0.0151982
756.076	0.0152133
756.155	0.0152715
756.233	0.0153576
756.311	0.0154362
756.389	0.0155035
756.467	0.0154388
756.545	0.0155209
756.623	0.0154484
756.701	0.0154764
756.780	0.0154135
756.858	0.0154462
756.936	0.0155350
757.014	0.0153764
757.092	0.0153323
757.170	0.0153002
757.248	0.0153154
757.326	0.0153184
757.405	0.0151750
757.483	0.0151686
757.561	0.0152174
757.639	0.0151382
757.717	0.0152238
757.795	0.0150182
757.873	0.0150750
757.951	0.0151952
758.030	0.0151771
758.108	0.0150286
758.186	0.0152101
758.264	0.0152351
758.342	0.0150561
758.420	0.0150603
758.498	0.0150523
758.576	0.0150341
758.655	0.0151897
758.733	0.0151915
758.811	0.0151849
758.889	0.0150793
758.967	0.0151144
759.045	0.0149275
759.123	0.0150312
759.201	0.0151208
759.280	0.0153218
759.358	0.0151886
759.436	0.0152483
759.514	0.0152827
759.592	0.0150179
759.670	0.0151677
759.748	0.0152750
759.826	0.0152284
759.905	0.0151317
759.983	0.0150864
760.061	0.0151565
760.139	0.0151894
760.217	0.0151024
760.295	0.0150568
760.373	0.0148257
760.451	0.0149764
760.530	0.0150382
760.608	0.0148068
760.686	0.0147152
760.764	0.0149350
760.842	0.0148914
760.920	0.0148792
760.998	0.0149928
761.076	0.0148523
761.155	0.0149554
761.233	0.0150172
761.311	0.0151782
761.389	0.0151502
761.467	0.0150245
761.545	0.0150125
761.623	0.0151702
761.701	0.0151408
761.780	0.0151299
761.858	0.0150876
761.936	0.0153867
762.014	0.0151320
762.092	0.0152197
762.170	0.0153795
762.248	0.0153865
762.326	0.0152025
762.405	0.0151923
762.483	0.0152733
762.561	0.0150383
762.639	0.0151567
762.717	0.0151714
762.795	0.0150925
762.873	0.0151795
762.951	0.0151598
763.030	0.0150250
763.108	0.0151776
763.186	0.0151572
763.264	0.0152158
763.342	0.0152042
763.420	0.0150819
763.498	0.0152096
763.576	0.0150003
763.655	0.0150849
763.733	0.0151997
763.811	0.0151447
763.889	0.0152009
763.967	0.0151357
764.045	0.0151155
764.123	0.0152666
764.201	0.0151096
764.280	0.0151480
764.358	0.0152690
764.436	0.0152960
764.514	0.0152296
764.592	0.0151511
764.670	0.0152390
764.748	0.0150319
764.826	0.0151617
764.905	0.0151019
764.983	0.0151205
765.061	0.0151528
765.139	0.0151717
765.217	0.0150646
765.295	0.0150831
765.373	0.0150870
765.451	0.0152317
765.530	0.0152588
765.608	0.0151827
765.686	0.0151174
765.764	0.0152056
765.842	0.0153489
765.920	0.0153637
765.998	0.0154223
766.076	0.0153358
766.155	0.0152263
766.233	0.0153065
766.311	0.0151965
766.389	0.0152287
766.467	0.0151957
766.545	0.0152409
766.623	0.0151625
766.701	0.0151279
766.780	0.0151263
766.858	0.0150790
766.936	0.0151997
767.014	0.0151423
767.092	0.0150667
767.170	0.0152744
767.248	0.0150737
767.326	0.0149862
767.405	0.0151865
767.483	0.0151817
767.561	0.0150194
767.639	0.0152608
767.717	0.0152171
767.795	0.0154360
767.873	0.0152879
767.951	0.0153185
768.030	0.0152343
768.108	0.0151759
768.186	0.0151860
768.264	0.0151299
768.342	0.0151356
768.420	0.0151264
768.498	0.0151218
768.576	0.0150961
768.655	0.0152010
768.733	0.0151656
768.811	0.0151885
768.889	0.0152923
768.967	0.0152154
769.045	0.0152908
769.123	0.0153030
769.201	0.0153963
769.280	0.0153939
769.358	0.0153821
769.436	0.0153032
769.514	0.0154936
769.592	0.0155248
769.670	0.0153664
769.748	0.0154324
769.826	0.0154081
769.905	0.0154391
769.983	0.0155110
770.061	0.0153864
770.139	0.0153677
770.217	0.0154430
770.295	0.0153448
770.373	0.0154900
770.451	0.0154359
770.530	0.0152509
770.608	0.0151616
770.686	0.0151749
770.764	0.0152573
770.842	0.0152686
770.920	0.0151307
770.998	0.0150518
771.076	0.0151829
771.155	0.0152101
771.233	0.0151781
771.311	0.0152171
771.389	0.0151076
771.467	0.0153162
771.545	0.0154992
771.623	0.0152661
771.701	0.0153033
771.780	0.0152797
771.858	0.0153121
771.936	0.0154007
772.014	0.0153101
772.092	0.0155032
772.170	0.0153719
772.248	0.0154482
772.326	0.0155459
772.405	0.0154671
772.483	0.0155258
772.561	0.0155260
772.639	0.0156058
772.717	0.0155746
772.795	0.0155263
772.873	0.0155851
772.951	0.0155628
773.030	0.0153914
773.108	0.0154763
773.186	0.0154638
773.264	0.0154552
773.342	0.0154687
773.420	0.0155622
773.498	0.0152912
773.576	0.0153531
773.655	0.0154284
773.733	0.0155024
773.811	0.0155004
773.889	0.0155689
773.967	0.0155050
774.045	0.0154855
774.123	0.0153912
774.201	0.0155952
774.280	0.0155002
774.358	0.0154945
774.436	0.0153985
774.514	0.0154676
774.592	0.0154035
774.670	0.0153727
774.748	0.0152959
774.826	0.0155196
774.905	0.0154521
774.983	0.0152484
775.061	0.0153194
775.139	0.0152835
775.217	0.0153747
775.295	0.0153149
775.373	0.0153316
775.451	0.0152712
775.530	0.0153788
775.608	0.0154539
775.686	0.0153355
775.764	0.0153802
775.842	0.0153047
775.920	0.0153572
775.998	0.0154819
776.076	0.0152863
776.155	0.0152409
776.233	0.0151631
776.311	0.0152557
776.389	0.0153677
776.467	0.0152632
776.545	0.0152147
776.623	0.0152990
776.701	0.0152743
776.780	0.0152673
776.858	0.0151539
776.936	0.0153163
777.014	0.0152656
777.092	0.0152202
777.170	0.0153274
777.248	0.0153959
777.326	0.0152747
777.405	0.0152785
777.483	0.0153602
777.561	0.0152499
777.639	0.0153501
777.717	0.0153390
777.795	0.0153272
777.873	0.0155543
777.951	0.0153365
778.030	0.0152914
778.108	0.0152525
778.186	0.0153426
778.264	0.0152950
778.342	0.0152264
778.420	0.0152386
778.498	0.0151900
778.576	0.0149604
778.655	0.0151038
778.733	0.0150182
778.811	0.0149833
778.889	0.0150109
778.967	0.0149189
779.045	0.0149808
779.123	0.0150211
779.201	0.0151700
779.280	0.0150317
779.358	0.0151604
779.436	0.0152621
779.514	0.0152641
779.592	0.0150709
779.670	0.0151977
779.748	0.0152834
779.826	0.0153658
779.905	0.0153266
779.983	0.0153905
780.061	0.0153111
780.139	0.0152310
780.217	0.0154749
780.295	0.0155841
780.373	0.0155340
780.451	0.0156292
780.530	0.0155879
780.608	0.0155968
780.686	0.0154769
780.764	0.0153960
780.842	0.0154206
780.920	0.0154784
780.998	0.0153908
781.076	0.0152389
781.155	0.0153225
781.233	0.0152854
781.311	0.0150972
781.389	0.0149266
781.467	0.0149513
781.545	0.0149718
781.623	0.0149766
781.701	0.0148866
781.780	0.0148667
781.858	0.0148937
781.936	0.0149207
782.014	0.0147742
782.092	0.0149242
782.170	0.0148991
782.248	0.0150484
782.326	0.0150537
782.405	0.0153217
782.483	0.0153508
782.561	0.0151644
782.639	0.0153307
782.717	0.0153470
782.795	0.0154623
782.873	0.0155444
782.951	0.0154189
783.030	0.0154179
783.108	0.0155003
783.186	0.0155557
783.264	0.0155290
783.342	0.0155173
783.420	0.0154768
783.498	0.0154383
783.576	0.0155660
783.655	0.0155741
783.733	0.0154173
783.811	0.0154022
783.889	0.0154692
783.967	0.0154057
784.045	0.0153368
784.123	0.0152612
784.201	0.0153056
784.280	0.0152136
784.358	0.0152485
784.436	0.0151488
784.514	0.0151178
784.592	0.0151721
784.670	0.0151183
784.748	0.0152988
784.826	0.0151595
784.905	0.0151069
784.983	0.0151880
785.061	0.0150497
785.139	0.0152800
785.217	0.0151575
785.295	0.0151631
785.373	0.0152436
785.451	0.0151356
785.530	0.0151962
785.608	0.0151865
785.686	0.0153271
785.764	0.0151080
785.842	0.0151225
785.920	0.0151031
785.998	0.0152293
786.076	0.0153041
786.155	0.0152977
786.233	0.0151888
786.311	0.0153614
786.389	0.0152983
786.467	0.0151815
786.545	0.0152134
786.623	0.0152319
786.701	0.0154409
786.780	0.0153179
786.858	0.0151945
786.936	0.0152833
787.014	0.0152197
787.092	0.0152881
787.170	0.0153255
787.248	0.0152458
787.326	0.0151205
787.405	0.0152876
787.483	0.0153622
787.561	0.0153746
787.639	0.0152414
787.717	0.0152006
787.795	0.0152760
787.873	0.0152467
787.951	0.0151810
788.030	0.0150883
788.108	0.0151698
788.186	0.0150349
788.264	0.0151237
788.342	0.0151274
788.420	0.0151522
788.498	0.0150724
788.576	0.0151048
788.655	0.0151659
788.733	0.0151897
788.811	0.0151083
788.889	0.0151765
788.967	0.0151543
789.045	0.0152152
789.123	0.0153181
789.201	0.0150804
789.280	0.0153144
789.358	0.0154072
789.436	0.0151767
789.514	0.0150927
789.592	0.0151700
789.670	0.0150148
789.748	0.0150912
789.826	0.0150858
789.905	0.0151463
789.983	0.0152698
790.061	0.0151911
790.139	0.0151823
790.217	0.0150957
790.295	0.0151447
790.373	0.0152406
790.451	0.0153187
790.530	0.0151454
790.608	0.0151604
790.686	0.0151911
790.764	0.0151112
790.842	0.0152854
790.920	0.0153780
790.998	0.0152151
791.076	0.0151643
791.155	0.0153789
791.233	0.0155022
791.311	0.0152876
791.389	0.0152137
791.467	0.0152299
791.545	0.0152585
791.623	0.0153588
791.701	0.0152735
791.780	0.0152345
791.858	0.0152245
791.936	0.0152317
792.014	0.0152967
792.092	0.0151759
792.170	0.0152238
792.248	0.0151608
792.326	0.0152493
792.405	0.0151955
792.483	0.0153832
792.561	0.0152483
792.639	0.0152847
792.717	0.0152477
792.795	0.0153555
792.873	0.0153567
792.951	0.0152835
793.030	0.0152846
793.108	0.0152320
793.186	0.0152720
793.264	0.0155241
793.342	0.0153246
793.420	0.0153251
793.498	0.0154750
793.576	0.0156156
793.655	0.0154764
793.733	0.0154143
793.811	0.0155457
793.889	0.0154011
793.967	0.0152952
794.045	0.0153920
794.123	0.0154998
794.201	0.0153103
794.280	0.0153278
794.358	0.0153735
794.436	0.0153932
794.514	0.0153510
794.592	0.0151901
794.670	0.0151434
794.748	0.0153590
794.826	0.0153727
794.905	0.0153265
794.983	0.0153351
795.061	0.0152268
795.139	0.0152128
795.217	0.0152171
795.295	0.0150969
795.373	0.0151778
795.451	0.0153806
795.530	0.0152086
795.608	0.0151690
795.686	0.0153038
795.764	0.0153129
795.842	0.0151143
795.920	0.0152553
795.998	0.0151588
796.076	0.0152593
796.155	0.0151510
796.233	0.0153854
796.311	0.0152662
796.389	0.0151305
796.467	0.0152064
796.545	0.0152339
796.623	0.0153107
796.701	0.0152467
796.780	0.0153381
796.858	0.0153399
796.936	0.0153439
797.014	0.0152670
797.092	0.0153288
797.170	0.0153331
797.248	0.0153963
797.326	0.0155147
797.405	0.0155013
797.483	0.0155017
797.561	0.0154124
797.639	0.0155224
797.717	0.0152999
797.795	0.0153383
797.873	0.0153568
797.951	0.0154781
798.030	0.0154292
798.108	0.0155005
798.186	0.0153848
798.264	0.0151374
798.342	0.0152505
798.420	0.0153542
798.498	0.0151859
798.576	0.0151894
798.655	0.0152130
798.733	0.0151289
798.811	0.0152879
798.889	0.0151899
798.967	0.0151887
799.045	0.0151549
799.123	0.0151606
799.201	0.0151398
799.280	0.0151391
799.358	0.0150889
799.436	0.0151427
799.514	0.0151448
799.592	0.0152469
799.670	0.0150843
799.748	0.0149766
799.826	0.0150927
799.905	0.0152065
799.983	0.0150821
800.061	0.0151748
800.139	0.0151595
800.217	0.0151254
800.295	0.0151138
800.373	0.0150726
800.451	0.0150894
800.530	0.0152120
800.608	0.0152785
800.686	0.0150894
800.764	0.0151508
800.842	0.0151702
800.920	0.0151733
800.998	0.0152820
801.076	0.0152698
801.155	0.0152856
801.233	0.0152097
801.311	0.0152007
801.389	0.0152487
801.467	0.0153575
801.545	0.0153529
801.623	0.0152039
801.701	0.0152837
801.780	0.0153473
801.858	0.0153413
801.936	0.0154916
802.014	0.0152748
802.092	0.0152334
802.170	0.0152167
802.248	0.0151576
802.326	0.0151669
802.405	0.0153665
802.483	0.0152536
802.561	0.0153578
802.639	0.0152308
802.717	0.0153398
802.795	0.0151527
802.873	0.0153297
802.951	0.0153584
803.030	0.0150669
803.108	0.0151887
803.186	0.0152873
803.264	0.0152583
803.342	0.0151786
803.420	0.0152825
803.498	0.0153588
803.576	0.0152482
803.655	0.0150821
803.733	0.0153865
803.811	0.0152516
803.889	0.0154213
803.967	0.0153947
804.045	0.0153607
804.123	0.0153807
804.201	0.0153506
804.280	0.0154758
804.358	0.0154328
804.436	0.0155923
804.514	0.0153111
804.592	0.0154424
804.670	0.0154252
804.748	0.0152734
804.826	0.0153051
804.905	0.0154008
804.983	0.0154226
805.061	0.0153570
805.139	0.0154287
805.217	0.0154490
805.295	0.0152892
805.373	0.0152833
805.451	0.0153799
805.530	0.0152956
805.608	0.0153648
805.686	0.0155024
805.764	0.0155306
805.842	0.0154433
805.920	0.0153991
805.998	0.0153309
806.076	0.0153722
806.155	0.0153552
806.233	0.0154135
806.311	0.0152747
806.389	0.0152975
806.467	0.0153864
806.545	0.0154523
806.623	0.0154206
806.701	0.0152892
806.780	0.0152031
806.858	0.0152614
806.936	0.0153252
807.014	0.0152738
807.092	0.0152254
807.170	0.0152094
807.248	0.0151870
807.326	0.0151860
807.405	0.0153043
807.483	0.0153357
807.561	0.0152240
807.639	0.0152840
807.717	0.0152087
807.795	0.0152636
807.873	0.0151578
807.951	0.0152856
808.030	0.0153352
808.108	0.0151914
808.186	0.0153484
808.264	0.0152916
808.342	0.0154384
808.420	0.0152595
808.498	0.0152592
808.576	0.0154778
808.655	0.0152370
808.733	0.0154220
808.811	0.0153011
808.889	0.0153666
808.967	0.0154655
809.045	0.0154665
809.123	0.0153551
809.201	0.0154444
809.280	0.0155852
809.358	0.0154554
809.436	0.0156284
809.514	0.0157298
809.592	0.0155837
809.670	0.0156061
809.748	0.0155284
809.826	0.0156048
809.905	0.0153733
809.983	0.0155476
810.061	0.0153294
810.139	0.0154585
810.217	0.0155386
810.295	0.0153618
810.373	0.0153407
810.451	0.0153606
810.530	0.0153319
810.608	0.0153308
810.686	0.0152743
810.764	0.0152351
810.842	0.0151984
810.920	0.0151982
810.998	0.0152630
811.076	0.0152808
811.155	0.0151454
811.233	0.0152052
811.311	0.0151839
811.389	0.0151298
811.467	0.0151279
811.545	0.0152879
811.623	0.0151793
811.701	0.0152270
811.780	0.0151503
811.858	0.0151574
811.936	0.0151022
812.014	0.0151374
812.092	0.0150887
812.170	0.0152442
812.248	0.0151179
812.326	0.0152503
812.405	0.0153080
812.483	0.0152113
812.561	0.0152483
812.639	0.0151506
812.717	0.0151115
812.795	0.0151263
812.873	0.0152200
812.951	0.0152459
813.030	0.0151389
813.108	0.0151942
813.186	0.0152012
813.264	0.0153308
813.342	0.0152702
813.420	0.0152112
813.498	0.0152239
813.576	0.0153532
813.655	0.0152861
813.733	0.0152702
813.811	0.0151138
813.889	0.0151412
813.967	0.0151925
814.045	0.0151842
814.123	0.0151508
814.201	0.0152375
814.280	0.0152548
814.358	0.0151949
814.436	0.0150513
814.514	0.0150457
814.592	0.0152717
814.670	0.0153069
814.748	0.0153435
814.826	0.0152277
814.905	0.0151429
814.983	0.0150809
815.061	0.0150980
815.139	0.0153626
815.217	0.0151630
815.295	0.0151582
815.373	0.0151453
815.451	0.0152647
815.530	0.0152705
815.608	0.0152340
815.686	0.0152142
815.764	0.0151304
815.842	0.0151824
815.920	0.0151608
815.998	0.0151738
816.076	0.0152320
816.155	0.0152377
816.233	0.0153338
816.311	0.0151637
816.389	0.0153822
816.467	0.0153819
816.545	0.0152701
816.623	0.0154276
816.701	0.0152676
816.780	0.0152308
816.858	0.0153189
816.936	0.0153026
817.014	0.0154591
817.092	0.0153802
817.170	0.0152654
817.248	0.0152347
817.326	0.0154579
817.405	0.0153049
817.483	0.0152707
817.561	0.0152444
817.639	0.0153850
817.717	0.0153859
817.795	0.0152417
817.873	0.0152555
817.951	0.0151303
818.030	0.0152208
818.108	0.0150065
818.186	0.0151553
818.264	0.0149787
818.342	0.0150395
818.420	0.0149754
818.498	0.0150977
818.576	0.0150169
818.655	0.0150143
818.733	0.0152018
818.811	0.0150311
818.889	0.0150001
818.967	0.0150274
819.045	0.0150108
819.123	0.0151324
819.201	0.0150444
819.280	0.0151417
819.358	0.0151217
819.436	0.0152019
819.514	0.0151517
819.592	0.0152370
819.670	0.0152186
819.748	0.0150674
819.826	0.0151517
819.905	0.0151276
819.983	0.0149549
820.061	0.0150500
820.139	0.0151969
820.217	0.0151309
820.295	0.0151753
820.373	0.0151012
820.451	0.0150837
820.530	0.0151840
820.608	0.0149400
820.686	0.0150288
820.764	0.0150114
820.842	0.0150687
820.920	0.0151791
820.998	0.0151630
821.076	0.0149996
821.155	0.0150854
821.233	0.0151591
821.311	0.0151003
821.389	0.0150143
821.467	0.0152128
821.545	0.0150836
821.623	0.0151533
821.701	0.0151048
821.780	0.0150719
821.858	0.0151829
821.936	0.0150288
822.014	0.0150073
822.092	0.0151087
822.170	0.0151451
822.248	0.0150276
822.326	0.0150312
822.405	0.0151227
822.483	0.0150442
822.561	0.0151302
822.639	0.0151694
822.717	0.0149032
822.795	0.0150291
822.873	0.0151217
822.951	0.0151926
823.030	0.0150834
823.108	0.0151096
823.186	0.0151396
823.264	0.0152589
823.342	0.0151849
823.420	0.0151700
823.498	0.0150329
823.576	0.0151903
823.655	0.0152225
823.733	0.0152933
823.811	0.0152248
823.889	0.0151414
823.967	0.0151730
824.045	0.0152660
824.123	0.0151151
824.201	0.0151255
824.280	0.0151272
824.358	0.0152973
824.436	0.0152197
824.514	0.0153303
824.592	0.0153117
824.670	0.0152435
824.748	0.0153361
824.826	0.0153552
824.905	0.0154128
824.983	0.0153740
825.061	0.0152505
825.139	0.0155214
825.217	0.0155676
825.295	0.0155443
825.373	0.0153879
825.451	0.0154604
825.530	0.0154047
825.608	0.0155020
825.686	0.0155045
825.764	0.0154424
825.842	0.0153312
825.920	0.0154343
825.998	0.0154266
826.076	0.0153868
826.155	0.0153753
826.233	0.0154853
826.311	0.0154496
826.389	0.0153088
826.467	0.0154227
826.545	0.0154633
826.623	0.0155241
826.701	0.0153905
826.780	0.0155989
826.858	0.0152929
826.936	0.0153751
827.014	0.0153711
827.092	0.0153429
827.170	0.0154536
827.248	0.0153504
827.326	0.0154679
827.405	0.0153683
827.483	0.0153246
827.561	0.0154095
827.639	0.0154556
827.717	0.0153233
827.795	0.0153029
827.873	0.0153671
827.951	0.0153347
828.030	0.0153107
828.108	0.0152889
828.186	0.0152120
828.264	0.0153204
828.342	0.0152295
828.420	0.0152089
828.498	0.0154908
828.576	0.0154287
828.655	0.0154601
828.733	0.0152089
828.811	0.0152646
828.889	0.0151447
828.967	0.0152379
829.045	0.0153333
829.123	0.0153227
829.201	0.0151801
829.280	0.0152247
829.358	0.0152746
829.436	0.0151663
829.514	0.0152367
829.592	0.0152681
829.670	0.0153259
829.748	0.0153021
829.826	0.0151575
829.905	0.0151674
829.983	0.0153359
830.061	0.0152920
830.139	0.0152129
830.217	0.0150677
830.295	0.0151482
830.373	0.0151858
830.451	0.0151875
830.530	0.0151974
830.608	0.0152478
830.686	0.0151901
830.764	0.0151593
830.842	0.0152470
830.920	0.0151741
830.998	0.0152031
831.076	0.0151135
831.155	0.0151155
831.233	0.0150342
831.311	0.0152406
831.389	0.0152145
831.467	0.0150919
831.545	0.0149176
831.623	0.0150565
831.701	0.0151416
831.780	0.0150712
831.858	0.0151096
831.936	0.0152233
832.014	0.0151036
832.092	0.0150523
832.170	0.0150567
832.248	0.0150416
832.326	0.0152228
832.405	0.0150699
832.483	0.0149760
832.561	0.0151559
832.639	0.0151238
832.717	0.0151922
832.795	0.0152274
832.873	0.0150565
832.951	0.0151515
833.030	0.0152741
833.108	0.0153416
833.186	0.0153652
833.264	0.0151939
833.342	0.0151800
833.420	0.0152498
833.498	0.0153791
833.576	0.0152773
833.655	0.0152247
833.733	0.0153497
833.811	0.0154119
833.889	0.0153305
833.967	0.0152092
834.045	0.0151669
834.123	0.0152126
834.201	0.0153494
834.280	0.0153702
834.358	0.0152119
834.436	0.0152826
834.514	0.0152402
834.592	0.0150948
834.670	0.0153202
834.748	0.0152685
834.826	0.0152635
834.905	0.0152515
834.983	0.0152387
835.061	0.0151636
835.139	0.0152290
835.217	0.0152854
835.295	0.0153470
835.373	0.0153026
835.451	0.0154359
835.530	0.0152808
835.608	0.0154291
835.686	0.0155077
835.764	0.0154053
835.842	0.0154369
835.920	0.0154845
835.998	0.0154709
836.076	0.0153954
836.155	0.0154061
836.233	0.0155579
836.311	0.0155019
836.389	0.0154549
836.467	0.0154476
836.545	0.0154446
836.623	0.0153635
836.701	0.0153527
836.780	0.0152458
836.858	0.0155720
836.936	0.0153893
837.014	0.0152316
837.092	0.0152993
837.170	0.0153258
837.248	0.0153264
837.326	0.0152950
837.405	0.0153237
837.483	0.0153477
837.561	0.0152982
837.639	0.0153416
837.717	0.0153574
837.795	0.0153231
837.873	0.0152828
837.951	0.0154754
838.030	0.0152520
838.108	0.0153542
838.186	0.0151491
838.264	0.0152965
838.342	0.0151815
838.420	0.0151460
838.498	0.0152129
838.576	0.0151846
838.655	0.0152287
838.733	0.0152636
838.811	0.0151608
838.889	0.0152520
838.967	0.0152232
839.045	0.0152112
839.123	0.0153958
839.201	0.0152677
839.280	0.0152001
839.358	0.0153223
839.436	0.0152151
839.514	0.0153677
839.592	0.0153667
839.670	0.0152999
839.748	0.0152562
839.826	0.0153191
839.905	0.0153095
839.983	0.0152770
840.061	0.0153234
840.139	0.0154205
840.217	0.0152016
840.295	0.0152289
840.373	0.0150376
840.451	0.0150378
840.530	0.0150340
840.608	0.0149615
840.686	0.0150841
840.764	0.0149439
840.842	0.0150079
840.920	0.0148543
840.998	0.0149355
841.076	0.0149362
841.155	0.0148721
841.233	0.0148664
841.311	0.0148336
841.389	0.0149243
841.467	0.0149193
841.545	0.0149173
841.623	0.0148985
841.701	0.0148788
841.780	0.0148711
841.858	0.0148180
841.936	0.0149480
842.014	0.0149533
842.092	0.0148001
842.170	0.0149177
842.248	0.0149226
842.326	0.0148698
842.405	0.0150201
842.483	0.0149383
842.561	0.0149739
842.639	0.0149200
842.717	0.0150534
842.795	0.0151460
842.873	0.0149976
842.951	0.0150211
843.030	0.0151097
843.108	0.0150367
843.186	0.0151252
843.264	0.0151595
843.342	0.0151190
843.420	0.0151328
843.498	0.0152350
843.576	0.0150834
843.655	0.0150993
843.733	0.0152551
843.811	0.0152814
843.889	0.0151896
843.967	0.0151018
844.045	0.0151427
844.123	0.0152355
844.201	0.0152918
844.280	0.0153099
844.358	0.0152842
844.436	0.0149986
844.514	0.0152086
844.592	0.0153660
844.670	0.0152052
844.748	0.0152386
844.826	0.0151725
844.905	0.0150794
844.983	0.0153020
845.061	0.0151440
845.139	0.0151590
845.217	0.0152605
845.295	0.0152179
845.373	0.0152548
845.451	0.0153208
845.530	0.0152693
845.608	0.0151614
845.686	0.0152810
845.764	0.0153268
845.842	0.0153340
845.920	0.0154284
845.998	0.0153310
846.076	0.0153049
846.155	0.0154092
846.233	0.0154498
846.311	0.0152840
846.389	0.0152000
846.467	0.0152542
846.545	0.0153637
846.623	0.0153115
846.701	0.0155167
846.780	0.0151105
846.858	0.0153024
846.936	0.0153274
847.014	0.0152756
847.092	0.0153705
847.170	0.0152768
847.248	0.0151595
847.326	0.0151418
847.405	0.0152675
847.483	0.0152272
847.561	0.0151671
847.639	0.0152774
847.717	0.0150253
847.795	0.0151159
847.873	0.0150874
847.951	0.0151707
848.030	0.0152383
848.108	0.0152564
848.186	0.0153197
848.264	0.0154715
848.342	0.0152500
848.420	0.0153978
848.498	0.0155344
848.576	0.0154900
848.655	0.0154886
848.733	0.0154792
848.811	0.0154581
848.889	0.0154844
848.967	0.0155284
849.045	0.0155482
849.123	0.0156149
849.201	0.0154938
849.280	0.0155552
849.358	0.0154537
849.436	0.0156132
849.514	0.0156707
849.592	0.0153518
849.670	0.0155216
849.748	0.0154619
849.826	0.0153218
849.905	0.0153544
849.983	0.0154408
850.061	0.0153605
850.139	0.0154209
850.217	0.0154362
850.295	0.0155717
850.373	0.0153566
850.451	0.0153570
850.530	0.0154359
850.608	0.0153720
850.686	0.0153926
850.764	0.0153455
850.842	0.0153601
850.920	0.0151250
850.998	0.0152396
851.076	0.0152306
851.155	0.0153207
851.233	0.0152462
851.311	0.0151528
851.389	0.0151132
851.467	0.0152022
851.545	0.0150411
851.623	0.0151979
851.701	0.0151967
851.780	0.0150030
851.858	0.0150876
851.936	0.0149213
852.014	0.0150504
852.092	0.0152006
852.170	0.0151772
852.248	0.0150626
852.326	0.0150681
852.405	0.0151128
852.483	0.0149016
852.561	0.0149758
852.639	0.0150089
852.717	0.0149669
852.795	0.0149355
852.873	0.0148842
852.951	0.0149403
853.030	0.0150072
853.108	0.0151826
853.186	0.0150246
853.264	0.0149671
853.342	0.0150076
853.420	0.0149154
853.498	0.0149993
853.576	0.0150565
853.655	0.0151807
853.733	0.0151871
853.811	0.0151620
853.889	0.0149715
853.967	0.0150229
854.045	0.0151539
854.123	0.0152260
854.201	0.0149617
854.280	0.0149821
854.358	0.0152195
854.436	0.0151398
854.514	0.0152052
854.592	0.0152104
854.670	0.0151267
854.748	0.0151660
854.826	0.0152457
854.905	0.0151964
854.983	0.0150874
855.061	0.0151660
855.139	0.0153252
855.217	0.0151629
855.295	0.0150912
855.373	0.0151350
855.451	0.0151158
855.530	0.0150227
855.608	0.0150703
855.686	0.0150103
855.764	0.0151180
855.842	0.0151458
855.920	0.0151257
855.998	0.0150513
856.076	0.0149786
856.155	0.0150347
856.233	0.0150067
856.311	0.0151153
856.389	0.0152528
856.467	0.0150878
856.545	0.0151597
856.623	0.0150900
856.701	0.0151491
856.780	0.0151667
856.858	0.0151446
856.936	0.0151414
857.014	0.0152396
857.092	0.0152729
857.170	0.0152621
857.248	0.0152265
857.326	0.0151967
857.405	0.0152784
857.483	0.0153011
857.561	0.0152441
857.639	0.0153407
857.717	0.0153745
857.795	0.0152775
857.873	0.0153300
857.951	0.0153158
858.030	0.0152276
858.108	0.0152765
858.186	0.0154560
858.264	0.0152587
858.342	0.0152335
858.420	0.0152704
858.498	0.0152304
858.576	0.0153046
858.655	0.0152129
858.733	0.0151741
858.811	0.0152726
858.889	0.0153680
858.967	0.0151363
859.045	0.0152274
859.123	0.0153365
859.201	0.0151930
859.280	0.0152485
859.358	0.0153365
859.436	0.0151674
859.514	0.0151113
859.592	0.0151920
859.670	0.0150900
859.748	0.0150598
859.826	0.0152251
859.905	0.0152827
859.983	0.0154491
860.061	0.0151431
860.139	0.0150976
860.217	0.0151733
860.295	0.0151734
860.373	0.0150713
860.451	0.0151501
860.530	0.0150322
860.608	0.0151854
860.686	0.0152186
860.764	0.0152043
860.842	0.0152246
860.920	0.0151079
860.998	0.0151746
861.076	0.0151792
861.155	0.0151630
861.233	0.0151122
861.311	0.0150761
861.389	0.0152242
861.467	0.0151227
861.545	0.0151780
861.623	0.0150217
861.701	0.0151841
861.780	0.0152785
861.858	0.0151602
861.936	0.0152225
862.014	0.0151447
862.092	0.0150639
862.170	0.0151487
862.248	0.0150911
862.326	0.0151262
862.405	0.0152406
862.483	0.0152188
862.561	0.0152457
862.639	0.0151937
862.717	0.0151642
862.795	0.0152194
862.873	0.0151768
862.951	0.0152303
863.030	0.0152879
863.108	0.0153748
863.186	0.0153730
863.264	0.0151009
863.342	0.0152392
863.420	0.0151839
863.498	0.0152167
863.576	0.0151756
863.655	0.0153658
863.733	0.0152287
863.811	0.0151746
863.889	0.0152517
863.967	0.0153398
864.045	0.0153120
864.123	0.0149920
864.201	0.0150822
864.280	0.0152062
864.358	0.0151211
864.436	0.0151818
864.514	0.0152726
864.592	0.0152034
864.670	0.0151653
864.748	0.0150421
864.826	0.0152377
864.905	0.0151489
864.983	0.0152043
865.061	0.0151966
865.139	0.0153051
865.217	0.0151540
865.295	0.0152788
865.373	0.0152965
865.451	0.0153827
865.530	0.0152901
865.608	0.0152590
865.686	0.0152986
865.764	0.0153313
865.842	0.0153828
865.920	0.0153788
865.998	0.0153700
866.076	0.0153139
866.155	0.0153899
866.233	0.0153178
866.311	0.0153149
866.389	0.0153683
866.467	0.0154181
866.545	0.0153593
866.623	0.0154544
866.701	0.0153623
866.780	0.0153677
866.858	0.0154231
866.936	0.0153552
867.014	0.0152848
867.092	0.0154498
867.170	0.0152827
867.248	0.0154681
867.326	0.0154098
867.405	0.0153854
867.483	0.0153822
867.561	0.0153663
867.639	0.0153437
867.717	0.0152931
867.795	0.0153156
867.873	0.0154755
867.951	0.0153692
868.030	0.0153313
868.108	0.0153657
868.186	0.0153889
868.264	0.0154397
868.342	0.0155000
868.420	0.0153245
868.498	0.0154260
868.576	0.0155428
868.655	0.0154158
868.733	0.0153548
868.811	0.0153609
868.889	0.0153563
868.967	0.0154343
869.045	0.0152850
869.123	0.0153947
869.201	0.0153609
869.280	0.0153616
869.358	0.0153514
869.436	0.0153938
869.514	0.0152647
869.592	0.0153279
869.670	0.0153952
869.748	0.0154031
869.826	0.0152548
869.905	0.0152460
869.983	0.0152619
870.061	0.0152193
870.139	0.0152313
870.217	0.0152588
870.295	0.0152158
870.373	0.0151074
870.451	0.0152042
870.530	0.0151455
870.608	0.0152291
870.686	0.0153130
870.764	0.0152369
870.842	0.0151532
870.920	0.0150562
870.998	0.0151826
871.076	0.0152082
871.155	0.0152670
871.233	0.0152526
871.311	0.0151120
871.389	0.0151769
871.467	0.0153329
871.545	0.0151606
871.623	0.0151429
871.701	0.0151237
871.780	0.0152623
871.858	0.0152794
871.936	0.0151315
872.014	0.0152260
872.092	0.0150954
872.170	0.0151949
872.248	0.0151678
872.326	0.0152551
872.405	0.0152532
872.483	0.0152264
872.561	0.0151864
872.639	0.0154037
872.717	0.0151482
872.795	0.0150673
872.873	0.0153103
872.951	0.0152848
873.030	0.0151977
873.108	0.0151263
873.186	0.0151472
873.264	0.0152113
873.342	0.0152455
873.420	0.0152797
873.498	0.0151786
873.576	0.0153341
873.655	0.0151860
873.733	0.0151797
873.811	0.0151627
873.889	0.0151684
873.967	0.0151484
874.045	0.0152173
874.123	0.0151789
874.201	0.0150592
874.280	0.0152110
874.358	0.0151688
874.436	0.0151007
874.514	0.0152068
874.592	0.0152167
874.670	0.0151146
874.748	0.0151761
874.826	0.0152135
874.905	0.0151558
874.983	0.0151376
875.061	0.0150350
875.139	0.0150951
875.217	0.0150967
875.295	0.0151631
875.373	0.0151843
875.451	0.0152596
875.530	0.0150999
875.608	0.0153101
875.686	0.0153068
875.764	0.0153246
875.842	0.0152843
875.920	0.0154201
875.998	0.0153898
876.076	0.0153614
876.155	0.0155054
876.233	0.0152605
876.311	0.0152901
876.389	0.0154763
876.467	0.0155007
876.545	0.0152870
876.623	0.0153852
876.701	0.0153822
876.780	0.0153696
876.858	0.0152675
876.936	0.0153315
877.014	0.0153181
877.092	0.0153427
877.170	0.0153745
877.248	0.0152523
877.326	0.0152526
877.405	0.0152766
877.483	0.0152151
877.561	0.0152633
877.639	0.0151326
877.717	0.0151559
877.795	0.0152928
877.873	0.0151994
877.951	0.0152052
878.030	0.0150752
878.108	0.0151566
878.186	0.0152319
878.264	0.0151228
878.342	0.0152879
878.420	0.0151118
878.498	0.0151777
878.576	0.0152156
878.655	0.0150974
878.733	0.0152274
878.811	0.0152422
878.889	0.0152193
878.967	0.0151416
879.045	0.0152589
879.123	0.0152392
879.201	0.0151943
879.280	0.0152600
879.358	0.0152771
879.436	0.0153091
879.514	0.0151759
879.592	0.0152085
879.670	0.0153582
879.748	0.0153403
879.826	0.0153123
879.905	0.0152618
879.983	0.0153005
880.061	0.0153139
880.139	0.0152997
880.217	0.0153812
880.295	0.0153024
880.373	0.0153497
880.451	0.0153619
880.530	0.0154725
880.608	0.0154374
880.686	0.0153372
880.764	0.0154060
880.842	0.0154324
880.920	0.0155088
880.998	0.0153690
881.076	0.0152518
881.155	0.0153669
881.233	0.0152776
881.311	0.0152662
881.389	0.0152736
881.467	0.0151850
881.545	0.0153337
881.623	0.0153087
881.701	0.0152331
881.780	0.0152895
881.858	0.0151883
881.936	0.0152491
882.014	0.0151233
882.092	0.0151034
882.170	0.0152474
882.248	0.0151654
882.326	0.0151312
882.405	0.0150694
882.483	0.0151259
882.561	0.0151138
882.639	0.0150655
882.717	0.0150455
882.795	0.0150521
882.873	0.0151798
882.951	0.0151650
883.030	0.0151585
883.108	0.0151878
883.186	0.0152796
883.264	0.0152353
883.342	0.0154687
883.420	0.0152853
883.498	0.0151802
883.576	0.0153062
883.655	0.0151754
883.733	0.0153263
883.811	0.0152658
883.889	0.0153083
883.967	0.0152045
884.045	0.0152956
884.123	0.0151965
884.201	0.0153546
884.280	0.0152709
884.358	0.0153552
884.436	0.0152708
884.514	0.0153522
884.592	0.0152666
884.670	0.0153159
884.748	0.0153451
884.826	0.0154041
884.905	0.0153471
884.983	0.0152140
885.061	0.0153845
885.139	0.0152162
885.217	0.0151733
885.295	0.0152376
885.373	0.0149855
885.451	0.0152125
885.530	0.0152348
885.608	0.0151735
885.686	0.0152435
885.764	0.0152386
885.842	0.0152058
885.920	0.0151772
885.998	0.0150200
886.076	0.0151640
886.155	0.0151276
886.233	0.0152181
886.311	0.0153327
886.389	0.0151556
886.467	0.0153207
886.545	0.0153397
886.623	0.0152151
886.701	0.0151864
886.780	0.0151933
886.858	0.0154383
886.936	0.0152258
887.014	0.0152056
887.092	0.0152785
887.170	0.0151171
887.248	0.0151357
887.326	0.0153192
887.405	0.0151469
887.483	0.0151836
887.561	0.0152132
887.639	0.0154339
887.717	0.0152201
887.795	0.0153394
887.873	0.0152868
887.951	0.0152503
888.030	0.0153295
888.108	0.0154058
888.186	0.0153506
888.264	0.0153989
888.342	0.0154709
888.420	0.0153018
888.498	0.0153194
888.576	0.0153282
888.655	0.0153391
888.733	0.0152573
888.811	0.0152980
888.889	0.0154108
888.967	0.0153531
889.045	0.0152851
889.123	0.0153033
889.201	0.0153519
889.280	0.0152570
889.358	0.0154034
889.436	0.0153365
889.514	0.0153656
889.592	0.0154276
889.670	0.0152422
889.748	0.0152545
889.826	0.0153239
889.905	0.0153003
889.983	0.0151495
890.061	0.0152315
890.139	0.0153265
890.217	0.0154162
890.295	0.0152959
890.373	0.0152477
890.451	0.0152427
890.530	0.0152254
890.608	0.0151884
890.686	0.0153887
890.764	0.0152773
890.842	0.0153330
890.920	0.0153873
890.998	0.0154555
891.076	0.0154536
891.155	0.0153707
891.233	0.0152527
891.311	0.0154367
891.389	0.0154984
891.467	0.0154794
891.545	0.0154499
891.623	0.0156023
891.701	0.0154724
891.780	0.0155383
891.858	0.0155476
891.936	0.0154512
892.014	0.0154736
892.092	0.0155677
892.170	0.0156403
892.248	0.0154883
892.326	0.0154827
892.405	0.0154408
892.483	0.0154344
892.561	0.0154961
892.639	0.0154800
892.717	0.0154461
892.795	0.0155242
892.873	0.0152940
892.951	0.0153778
893.030	0.0153758
893.108	0.0153822
893.186	0.0153923
893.264	0.0152168
893.342	0.0152851
893.420	0.0152962
893.498	0.0153326
893.576	0.0152162
893.655	0.0152469
893.733	0.0152619
893.811	0.0153683
893.889	0.0151820
893.967	0.0152363
894.045	0.0153186
894.123	0.0152779
894.201	0.0150782
894.280	0.0153460
894.358	0.0153485
894.436	0.0153264
894.514	0.0152892
894.592	0.0153426
894.670	0.0151296
894.748	0.0152315
894.826	0.0153689
894.905	0.0153763
894.983	0.0152652
895.061	0.0153535
895.139	0.0154924
895.217	0.0153949
895.295	0.0153851
895.373	0.0153372
895.451	0.0153987
895.530	0.0152564
895.608	0.0154177
895.686	0.0152566
895.764	0.0154100
895.842	0.0153894
895.920	0.0153848
895.998	0.0152206
896.076	0.0153867
896.155	0.0155521
896.233	0.0154604
896.311	0.0153994
896.389	0.0153027
896.467	0.0153539
896.545	0.0153820
896.623	0.0154436
896.701	0.0153445
896.780	0.0153106
896.858	0.0152579
896.936	0.0150519
897.014	0.0152861
897.092	0.0152386
897.170	0.0152470
897.248	0.0153199
897.326	0.0152771
897.405	0.0151400
897.483	0.0152018
897.561	0.0151012
897.639	0.0150111
897.717	0.0150305
897.795	0.0151509
897.873	0.0151900
897.951	0.0150170
898.030	0.0151443
898.108	0.0151082
898.186	0.0152267
898.264	0.0152009
898.342	0.0150378
898.420	0.0151054
898.498	0.0151778
898.576	0.0151862
898.655	0.0150995
898.733	0.0151483
898.811	0.0150101
898.889	0.0150150
898.967	0.0152142
899.045	0.0153046
899.123	0.0151460
899.201	0.0152610
899.280	0.0152470
899.358	0.0152897
899.436	0.0152808
899.514	0.0153176
899.592	0.0154105
899.670	0.0153369
899.748	0.0153905
899.826	0.0152036
899.905	0.0152760
899.983	0.0154613
900.061	0.0154896
900.139	0.0153852
900.217	0.0155043
900.295	0.0153486
900.373	0.0152643
900.451	0.0153892
900.530	0.0154044
900.608	0.0152705
900.686	0.0153691
900.764	0.0153692
900.842	0.0153778
900.920	0.0153941
900.998	0.0152711
901.076	0.0152372
901.155	0.0151983
901.233	0.0151738
901.311	0.0152404
901.389	0.0152171
901.467	0.0151943
901.545	0.0153084
901.623	0.0150986
901.701	0.0150673
901.780	0.0150941
901.858	0.0150844
901.936	0.0150244
902.014	0.0149883
902.092	0.0149672
902.170	0.0152726
902.248	0.0150451
902.326	0.0153568
902.405	0.0152458
902.483	0.0150951
902.561	0.0152086
902.639	0.0152905
902.717	0.0153177
902.795	0.0152778
902.873	0.0152266
902.951	0.0152982
903.030	0.0153407
903.108	0.0153295
903.186	0.0153571
903.264	0.0153227
903.342	0.0154621
903.420	0.0153683
903.498	0.0153394
903.576	0.0155245
903.655	0.0155140
903.733	0.0154229
903.811	0.0153785
903.889	0.0153751
903.967	0.0155488
904.045	0.0154369
904.123	0.0154357
904.201	0.0153148
904.280	0.0153001
904.358	0.0153651
904.436	0.0154110
904.514	0.0154277
904.592	0.0153257
904.670	0.0154126
904.748	0.0153826
904.826	0.0154060
904.905	0.0154450
904.983	0.0154447
905.061	0.0154344
905.139	0.0153922
905.217	0.0152843
905.295	0.0151823
905.373	0.0152658
905.451	0.0152317
905.530	0.0152804
905.608	0.0151851
905.686	0.0151295
905.764	0.0152262
905.842	0.0151251
905.920	0.0150965
905.998	0.0151366
906.076	0.0151680
906.155	0.0152744
906.233	0.0152034
906.311	0.0150565
906.389	0.0150742
906.467	0.0152839
906.545	0.0151408
906.623	0.0151694
906.701	0.0152176
906.780	0.0151929
906.858	0.0150220
906.936	0.0151804
907.014	0.0152912
907.092	0.0151944
907.170	0.0153036
907.248	0.0150478
907.326	0.0150840
907.405	0.0151542
907.483	0.0151048
907.561	0.0152432
907.639	0.0152044
907.717	0.0152003
907.795	0.0151221
907.873	0.0152090
907.951	0.0153281
908.030	0.0154104
908.108	0.0153379
908.186	0.0152354
908.264	0.0153714
908.342	0.0153405
908.420	0.0154245
908.498	0.0153967
908.576	0.0154539
908.655	0.0153257
908.733	0.0152863
908.811	0.0154005
908.889	0.0152795
908.967	0.0153823
909.045	0.0154107
909.123	0.0154154
909.201	0.0154548
909.280	0.0152247
909.358	0.0152409
909.436	0.0153407
909.514	0.0154533
909.592	0.0153178
909.670	0.0153099
909.748	0.0151200
909.826	0.0152164
909.905	0.0153087
909.983	0.0153299
910.061	0.0151984
910.139	0.0152487
910.217	0.0152388
910.295	0.0151942
910.373	0.0151719
910.451	0.0152032
910.530	0.0152753
910.608	0.0151709
910.686	0.0151740
910.764	0.0151231
910.842	0.0150738
910.920	0.0151187
910.998	0.0151689
911.076	0.0152607
911.155	0.0152160
911.233	0.0152245
911.311	0.0151659
911.389	0.0152243
911.467	0.0151293
911.545	0.0151472
911.623	0.0152546
911.701	0.0151384
911.780	0.0152281
911.858	0.0152709
911.936	0.0152755
912.014	0.0151443
912.092	0.0152221
912.170	0.0152930
912.248	0.0152920
912.326	0.0152632
912.405	0.0153693
912.483	0.0153823
912.561	0.0154139
912.639	0.0152285
912.717	0.0152339
912.795	0.0152731
912.873	0.0152185
912.951	0.0152612
913.030	0.0152194
913.108	0.0152163
913.186	0.0153268
913.264	0.0151518
913.342	0.0152803
913.420	0.0154224
913.498	0.0152048
913.576	0.0152893
913.655	0.0152772
913.733	0.0152985
913.811	0.0154259
913.889	0.0152996
913.967	0.0153571
914.045	0.0154273
914.123	0.0152728
914.201	0.0153933
914.280	0.0153822
914.358	0.0152277
914.436	0.0153815
914.514	0.0153613
914.592	0.0153920
914.670	0.0153203
914.748	0.0153946
914.826	0.0154089
914.905	0.0152278
914.983	0.0153498
915.061	0.0153556
915.139	0.0153146
915.217	0.0152335
915.295	0.0153809
915.373	0.0152243
915.451	0.0151772
915.530	0.0151411
915.608	0.0152871
915.686	0.0153003
915.764	0.0152775
915.842	0.0153327
915.920	0.0153038
915.998	0.0151157
916.076	0.0152554
916.155	0.0151797
916.233	0.0152979
916.311	0.0154037
916.389	0.0153280
916.467	0.0154417
916.545	0.0153400
916.623	0.0154024
916.701	0.0153618
916.780	0.0154556
916.858	0.0154583
916.936	0.0153159
917.014	0.0152718
917.092	0.0153496
917.170	0.0154232
917.248	0.0154021
917.326	0.0153011
917.405	0.0151955
917.483	0.0152775
917.561	0.0153352
917.639	0.0151157
917.717	0.0151483
917.795	0.0152037
917.873	0.0151389
917.951	0.0151950
918.030	0.0151138
918.108	0.0149947
918.186	0.0152222
918.264	0.0150042
918.342	0.0151460
918.420	0.0151479
918.498	0.0150393
918.576	0.0151156
918.655	0.0150921
918.733	0.0150748
918.811	0.0149676
918.889	0.0150831
918.967	0.0152023
919.045	0.0151588
919.123	0.0150913
919.201	0.0153986
919.280	0.0150572
919.358	0.0151405
919.436	0.0152942
919.514	0.0153130
919.592	0.0151778
919.670	0.0151060
919.748	0.0152492
919.826	0.0151666
919.905	0.0151128
919.983	0.0152889
920.061	0.0151106
920.139	0.0151876
920.217	0.0151711
920.295	0.0152795
920.373	0.0152375
920.451	0.0152475
920.530	0.0151331
920.608	0.0151610
920.686	0.0151438
920.764	0.0152956
920.842	0.0152349
920.920	0.0152528
920.998	0.0153545
921.076	0.0153478
921.155	0.0153737
921.233	0.0153443
921.311	0.0152798
921.389	0.0153875
921.467	0.0154018
921.545	0.0153513
921.623	0.0154255
921.701	0.0152702
921.780	0.0153132
921.858	0.0154075
921.936	0.0154434
922.014	0.0153963
922.092	0.0153385
922.170	0.0153612
922.248	0.0153825
922.326	0.0153741
922.405	0.0154224
922.483	0.0153078
922.561	0.0153787
922.639	0.0153513
922.717	0.0153240
922.795	0.0153123
922.873	0.0152544
922.951	0.0153645
923.030	0.0153317
923.108	0.0152071
923.186	0.0152459
923.264	0.0151100
923.342	0.0151500
923.420	0.0152662
923.498	0.0150496
923.576	0.0152670
923.655	0.0151628
923.733	0.0150442
923.811	0.0151395
923.889	0.0151209
923.967	0.0151768
924.045	0.0150608
924.123	0.0151050
924.201	0.0150793
924.280	0.0150991
924.358	0.0151992
924.436	0.0151237
924.514	0.0150193
924.592	0.0151701
924.670	0.0152158
924.748	0.0152991
924.826	0.0151431
924.905	0.0150709
924.983	0.0152902
925.061	0.0152392
925.139	0.0151897
925.217	0.0152630
925.295	0.0151815
925.373	0.0151540
925.451	0.0151338
925.530	0.0152332
925.608	0.0151395
925.686	0.0150545
925.764	0.0150936
925.842	0.0151360
925.920	0.0150363
925.998	0.0149707
926.076	0.0149544
926.155	0.0150254
926.233	0.0150314
926.311	0.0149971
926.389	0.0150266
926.467	0.0149925
926.545	0.0150689
926.623	0.0151244
926.701	0.0150388
926.780	0.0149846
926.858	0.0150840
926.936	0.0151489
927.014	0.0151163
927.092	0.0150449
927.170	0.0151329
927.248	0.0151222
927.326	0.0151931
927.405	0.0152847
927.483	0.0150885
927.561	0.0151381
927.639	0.0152511
927.717	0.0152546
927.795	0.0152471
927.873	0.0152118
927.951	0.0152383
928.030	0.0150754
928.108	0.0152374
928.186	0.0152277
928.264	0.0151568
928.342	0.0151379
928.420	0.0152057
928.498	0.0150513
928.576	0.0150778
928.655	0.0152161
928.733	0.0152628
928.811	0.0151626
928.889	0.0150927
928.967	0.0152382
929.045	0.0152090
929.123	0.0150917
929.201	0.0150561
929.280	0.0151179
929.358	0.0151167
929.436	0.0152356
929.514	0.0151274
929.592	0.0151430
929.670	0.0151945
929.748	0.0150539
929.826	0.0150745
929.905	0.0151357
929.983	0.0150632
930.061	0.0151388
930.139	0.0150204
930.217	0.0151477
930.295	0.0151463
930.373	0.0151638
930.451	0.0150620
930.530	0.0151734
930.608	0.0149920
930.686	0.0150961
930.764	0.0150786
930.842	0.0150369
930.920	0.0151580
930.998	0.0151699
931.076	0.0150301
931.155	0.0152301
931.233	0.0151984
931.311	0.0152295
931.389	0.0150592
931.467	0.0151206
931.545	0.0151501
931.623	0.0151689
931.701	0.0151194
931.780	0.0151373
931.858	0.0152391
931.936	0.0150788
932.014	0.0150496
932.092	0.0150684
932.170	0.0150924
932.248	0.0150336
932.326	0.0150472
932.405	0.0150799
932.483	0.0150732
932.561	0.0151490
932.639	0.0150558
932.717	0.0150704
932.795	0.0152737
932.873	0.0151505
932.951	0.0151513
933.030	0.0151815
933.108	0.0150706
933.186	0.0151092
933.264	0.0151605
933.342	0.0152506
933.420	0.0152612
933.498	0.0152531
933.576	0.0152982
933.655	0.0153317
933.733	0.0153864
933.811	0.0153681
933.889	0.0152370
933.967	0.0153515
934.045	0.0154027
934.123	0.0153329
934.201	0.0152950
934.280	0.0153011
934.358	0.0153275
934.436	0.0152009
934.514	0.0152929
934.592	0.0152151
934.670	0.0152371
934.748	0.0152290
934.826	0.0152055
934.905	0.0150880
934.983	0.0151766
935.061	0.0149995
935.139	0.0151534
935.217	0.0151174
935.295	0.0151328
935.373	0.0151216
935.451	0.0151034
935.530	0.0150668
935.608	0.0149192
935.686	0.0151515
935.764	0.0151633
935.842	0.0150072
935.920	0.0150209
935.998	0.0151493
936.076	0.0151931
936.155	0.0152433
936.233	0.0151623
936.311	0.0152509
936.389	0.0150424
936.467	0.0151810
936.545	0.0151987
936.623	0.0152438
936.701	0.0151680
936.780	0.0150488
936.858	0.0152926
936.936	0.0152288
937.014	0.0151987
937.092	0.0151028
937.170	0.0152663
937.248	0.0153232
937.326	0.0151630
937.405	0.0152764
937.483	0.0152867
937.561	0.0152891
937.639	0.0152291
937.717	0.0152467
937.795	0.0152535
937.873	0.0152464
937.951	0.0152868
938.030	0.0152219
938.108	0.0151643
938.186	0.0152970
938.264	0.0150338
938.342	0.0150549
938.420	0.0151885
938.498	0.0152452
938.576	0.0151754
938.655	0.0151410
938.733	0.0150960
938.811	0.0151727
938.889	0.0152843
938.967	0.0152415
939.045	0.0150900
939.123	0.0152174
939.201	0.0152433
939.280	0.0151241
939.358	0.0152708
939.436	0.0152975
939.514	0.0152923
939.592	0.0153828
939.670	0.0153324
939.748	0.0152188
939.826	0.0153416
939.905	0.0154781
939.983	0.0155282
940.061	0.0155769
940.139	0.0155688
940.217	0.0154491
940.295	0.0155655
940.373	0.0155502
940.451	0.0154308
940.530	0.0154497
940.608	0.0155206
940.686	0.0154628
940.764	0.0154715
940.842	0.0153863
940.920	0.0155954
940.998	0.0154955
941.076	0.0153463
941.155	0.0153084
941.233	0.0154020
941.311	0.0153188
941.389	0.0153800
941.467	0.0153609
941.545	0.0153941
941.623	0.0152122
941.701	0.0153471
941.780	0.0153819
941.858	0.0153483
941.936	0.0152500
942.014	0.0152404
942.092	0.0152214
942.170	0.0152248
942.248	0.0151859
942.326	0.0151938
942.405	0.0153173
942.483	0.0152115
942.561	0.0153021
942.639	0.0152831
942.717	0.0152016
942.795	0.0150782
942.873	0.0151279
942.951	0.0151862
943.030	0.0150542
943.108	0.0152346
943.186	0.0151057
943.264	0.0151440
943.342	0.0150485
943.420	0.0150520
943.498	0.0150258
943.576	0.0150905
943.655	0.0151041
943.733	0.0150332
943.811	0.0150784
943.889	0.0151196
943.967	0.0149605
944.045	0.0151195
944.123	0.0150665
944.201	0.0151653
944.280	0.0150731
944.358	0.0150688
944.436	0.0150847
944.514	0.0152362
944.592	0.0152220
944.670	0.0152129
944.748	0.0151816
944.826	0.0151863
944.905	0.0152856
944.983	0.0152596
945.061	0.0153539
945.139	0.0153995
945.217	0.0154211
945.295	0.0153500
945.373	0.0154577
945.451	0.0153543
945.530	0.0155737
945.608	0.0155161
945.686	0.0152818
945.764	0.0154134
945.842	0.0153143
945.920	0.0154238
945.998	0.0153604
946.076	0.0153049
946.155	0.0153047
946.233	0.0154113
946.311	0.0153902
946.389	0.0152037
946.467	0.0152782
946.545	0.0153503
946.623	0.0153298
946.701	0.0151756
946.780	0.0152684
946.858	0.0152663
946.936	0.0154003
947.014	0.0152583
947.092	0.0152452
947.170	0.0152833
947.248	0.0153970
947.326	0.0153908
947.405	0.0152869
947.483	0.0153476
947.561	0.0153626
947.639	0.0153176
947.717	0.0152464
947.795	0.0154162
947.873	0.0153298
947.951	0.0153578
948.030	0.0153385
948.108	0.0153461
948.186	0.0154611
948.264	0.0152164
948.342	0.0152529
948.420	0.0152805
948.498	0.0153808
948.576	0.0152069
948.655	0.0151359
948.733	0.0152074
948.811	0.0151404
948.889	0.0150723
948.967	0.0150806
949.045	0.0151334
949.123	0.0150869
949.201	0.0152563
949.280	0.0150069
949.358	0.0150322
949.436	0.0151720
949.514	0.0151125
949.592	0.0149344
949.670	0.0150220
949.748	0.0152128
949.826	0.0151855
949.905	0.0151773
949.983	0.0151531
950.061	0.0151457
950.139	0.0151559
950.217	0.0150877
950.295	0.0151897
950.373	0.0153085
950.451	0.0151827
950.530	0.0152698
950.608	0.0152546
950.686	0.0153432
950.764	0.0152100
950.842	0.0150674
950.920	0.0153397
950.998	0.0151369
951.076	0.0151592
951.155	0.0152828
951.233	0.0153238
951.311	0.0152635
951.389	0.0152930
951.467	0.0153222
951.545	0.0152016
951.623	0.0152139
951.701	0.0152297
951.780	0.0151646
951.858	0.0150936
951.936	0.0153164
952.014	0.0152801
952.092	0.0151580
952.170	0.0150784
952.248	0.0151870
952.326	0.0152443
952.405	0.0150829
952.483	0.0151999
952.561	0.0151736
952.639	0.0151945
952.717	0.0152476
952.795	0.0151884
952.873	0.0151259
952.951	0.0151070
953.030	0.0153270
953.108	0.0153339
953.186	0.0151891
953.264	0.0153088
953.342	0.0153027
953.420	0.0154188
953.498	0.0153432
953.576	0.0152667
953.655	0.0151108
953.733	0.0151589
953.811	0.0153597
953.889	0.0153178
953.967	0.0152204
954.045	0.0152406
954.123	0.0152053
954.201	0.0152511
954.280	0.0151635
954.358	0.0151828
954.436	0.0152600
954.514	0.0151711
954.592	0.0153005
954.670	0.0151259
954.748	0.0151933
954.826	0.0151350
954.905	0.0152657
954.983	0.0150277
955.061	0.0149606
955.139	0.0149801
955.217	0.0151646
955.295	0.0150700
955.373	0.0149986
955.451	0.0149732
955.530	0.0150062
955.608	0.0150050
955.686	0.0149176
955.764	0.0148767
955.842	0.0149014
955.920	0.0148532
955.998	0.0149718
956.076	0.0149502
956.155	0.0149074
956.233	0.0149603
956.311	0.0148759
956.389	0.0149455
956.467	0.0150539
956.545	0.0151760
956.623	0.0151700
956.701	0.0149731
956.780	0.0150049
956.858	0.0151186
956.936	0.0151364
957.014	0.0151787
957.092	0.0149935
957.170	0.0151213
957.248	0.0151152
957.326	0.0150976
957.405	0.0151991
957.483	0.0150833
957.561	0.0151643
957.639	0.0151512
957.717	0.0151513
957.795	0.0152339
957.873	0.0151555
957.951	0.0151577
958.030	0.0153169
958.108	0.0152835
958.186	0.0153361
958.264	0.0153389
958.342	0.0152618
958.420	0.0151494
958.498	0.0152950
958.576	0.0152499
958.655	0.0153281
958.733	0.0153227
958.811	0.0153701
958.889	0.0153999
958.967	0.0153887
959.045	0.0153587
959.123	0.0154699
959.201	0.0156676
959.280	0.0155360
959.358	0.0154844
959.436	0.0154574
959.514	0.0155223
959.592	0.0155879
959.670	0.0154388
959.748	0.0155694
959.826	0.0154646
959.905	0.0155270
