05/20/2022	16:46:23	Ver.	4.1	UNKNOWN
Optical Delay	639.982744	Delta X		0.078125	Sweeps	1	Scan Rate	0/0
Coordinates	Axis 1	NaN	Axis 2	NaN	Axis 3	NaN	Axis 4	NaN	Axis 5	NaN	Axis 6	0.000000
TX Power	0.000000	RX Power	0.000000

639.983	0.0150681
640.061	0.0149680
640.139	0.0150063
640.217	0.0151657
640.295	0.0150487
640.373	0.0150690
640.451	0.0149585
640.530	0.0150607
640.608	0.0150098
640.686	0.0148640
640.764	0.0147846
640.842	0.0150060
640.920	0.0150188
640.998	0.0149928
641.076	0.0150850
641.155	0.0150340
641.233	0.0151552
641.311	0.0150211
641.389	0.0150388
641.467	0.0151163
641.545	0.0150665
641.623	0.0149932
641.701	0.0150336
641.780	0.0149020
641.858	0.0151025
641.936	0.0151759
642.014	0.0151117
642.092	0.0151337
642.170	0.0150926
642.248	0.0151965
642.326	0.0150079
642.405	0.0151304
642.483	0.0150794
642.561	0.0150925
642.639	0.0151375
642.717	0.0150629
642.795	0.0151293
642.873	0.0150288
642.951	0.0150629
643.030	0.0151850
643.108	0.0151213
643.186	0.0150703
643.264	0.0151998
643.342	0.0151888
643.420	0.0150838
643.498	0.0152350
643.576	0.0150912
643.655	0.0151248
643.733	0.0152318
643.811	0.0151125
643.889	0.0151570
643.967	0.0150985
644.045	0.0151293
644.123	0.0151551
644.201	0.0151266
644.280	0.0150773
644.358	0.0150462
644.436	0.0151456
644.514	0.0151770
644.592	0.0151517
644.670	0.0152075
644.748	0.0151760
644.826	0.0152596
644.905	0.0152102
644.983	0.0149674
645.061	0.0149655
645.139	0.0151553
645.217	0.0151565
645.295	0.0151255
645.373	0.0150761
645.451	0.0151233
645.530	0.0150283
645.608	0.0152651
645.686	0.0150559
645.764	0.0151486
645.842	0.0152370
645.920	0.0150835
645.998	0.0150931
646.076	0.0152347
646.155	0.0150877
646.233	0.0151852
646.311	0.0152805
646.389	0.0150847
646.467	0.0151747
646.545	0.0150601
646.623	0.0152265
646.701	0.0152009
646.780	0.0152448
646.858	0.0153928
646.936	0.0151817
647.014	0.0151453
647.092	0.0152266
647.170	0.0152993
647.248	0.0151674
647.326	0.0152288
647.405	0.0152204
647.483	0.0152605
647.561	0.0152757
647.639	0.0151581
647.717	0.0151888
647.795	0.0151852
647.873	0.0152884
647.951	0.0151868
648.030	0.0153650
648.108	0.0151341
648.186	0.0151772
648.264	0.0152554
648.342	0.0150603
648.420	0.0153165
648.498	0.0152112
648.576	0.0151791
648.655	0.0152760
648.733	0.0151784
648.811	0.0151697
648.889	0.0152451
648.967	0.0152114
649.045	0.0151441
649.123	0.0152012
649.201	0.0151844
649.280	0.0151653
649.358	0.0152070
649.436	0.0151745
649.514	0.0152254
649.592	0.0153375
649.670	0.0152071
649.748	0.0152470
649.826	0.0152007
649.905	0.0151151
649.983	0.0153183
650.061	0.0153514
650.139	0.0151636
650.217	0.0152699
650.295	0.0151369
650.373	0.0152219
650.451	0.0153159
650.530	0.0152422
650.608	0.0151995
650.686	0.0152219
650.764	0.0152738
650.842	0.0151974
650.920	0.0152221
650.998	0.0153495
651.076	0.0153301
651.155	0.0152602
651.233	0.0153252
651.311	0.0153011
651.389	0.0152005
651.467	0.0153483
651.545	0.0152708
651.623	0.0152356
651.701	0.0152282
651.780	0.0151572
651.858	0.0152971
651.936	0.0154571
652.014	0.0153276
652.092	0.0151400
652.170	0.0153384
652.248	0.0152783
652.326	0.0151463
652.405	0.0152641
652.483	0.0152942
652.561	0.0153459
652.639	0.0152280
652.717	0.0153223
652.795	0.0154261
652.873	0.0152436
652.951	0.0153342
653.030	0.0152869
653.108	0.0152389
653.186	0.0152541
653.264	0.0151845
653.342	0.0152529
653.420	0.0152164
653.498	0.0153661
653.576	0.0153148
653.655	0.0152814
653.733	0.0151222
653.811	0.0151347
653.889	0.0150294
653.967	0.0153604
654.045	0.0152003
654.123	0.0152316
654.201	0.0152171
654.280	0.0151560
654.358	0.0151624
654.436	0.0151822
654.514	0.0151949
654.592	0.0151270
654.670	0.0151514
654.748	0.0151272
654.826	0.0150443
654.905	0.0152687
654.983	0.0151193
655.061	0.0150265
655.139	0.0150045
655.217	0.0152878
655.295	0.0151890
655.373	0.0151100
655.451	0.0151221
655.530	0.0150210
655.608	0.0152458
655.686	0.0150842
655.764	0.0150462
655.842	0.0151173
655.920	0.0150850
655.998	0.0151776
656.076	0.0150519
656.155	0.0151364
656.233	0.0151899
656.311	0.0150702
656.389	0.0151787
656.467	0.0150474
656.545	0.0152216
656.623	0.0150430
656.701	0.0151077
656.780	0.0150124
656.858	0.0150188
656.936	0.0150479
657.014	0.0151801
657.092	0.0149874
657.170	0.0151373
657.248	0.0151418
657.326	0.0149745
657.405	0.0152132
657.483	0.0151907
657.561	0.0150090
657.639	0.0151839
657.717	0.0151665
657.795	0.0152746
657.873	0.0151843
657.951	0.0151523
658.030	0.0151401
658.108	0.0151476
658.186	0.0152540
658.264	0.0152234
658.342	0.0151185
658.420	0.0150830
658.498	0.0151359
658.576	0.0152403
658.655	0.0151796
658.733	0.0151576
658.811	0.0150997
658.889	0.0149792
658.967	0.0149936
659.045	0.0150213
659.123	0.0150630
659.201	0.0150943
659.280	0.0150358
659.358	0.0150613
659.436	0.0152178
659.514	0.0151523
659.592	0.0150709
659.670	0.0150415
659.748	0.0149707
659.826	0.0150758
659.905	0.0151411
659.983	0.0151099
660.061	0.0150111
660.139	0.0150687
660.217	0.0151153
660.295	0.0150040
660.373	0.0150840
660.451	0.0152908
660.530	0.0151765
660.608	0.0149729
660.686	0.0151625
660.764	0.0151949
660.842	0.0152093
660.920	0.0151620
660.998	0.0150868
661.076	0.0152361
661.155	0.0151147
661.233	0.0150044
661.311	0.0148987
661.389	0.0150616
661.467	0.0150739
661.545	0.0149649
661.623	0.0151431
661.701	0.0150121
661.780	0.0149976
661.858	0.0150821
661.936	0.0149315
662.014	0.0149482
662.092	0.0148975
662.170	0.0149725
662.248	0.0149057
662.326	0.0150060
662.405	0.0150240
662.483	0.0150765
662.561	0.0150857
662.639	0.0150387
662.717	0.0151907
662.795	0.0150415
662.873	0.0149829
662.951	0.0149567
663.030	0.0150597
663.108	0.0150506
663.186	0.0151122
663.264	0.0150069
663.342	0.0149682
663.420	0.0151704
663.498	0.0150796
663.576	0.0149129
663.655	0.0150745
663.733	0.0149277
663.811	0.0150456
663.889	0.0151153
663.967	0.0150967
664.045	0.0152475
664.123	0.0152107
664.201	0.0152342
664.280	0.0151686
664.358	0.0152907
664.436	0.0152838
664.514	0.0152549
664.592	0.0152236
664.670	0.0152666
664.748	0.0151075
664.826	0.0152570
664.905	0.0152404
664.983	0.0152720
665.061	0.0153037
665.139	0.0153402
665.217	0.0149450
665.295	0.0151659
665.373	0.0151972
665.451	0.0152011
665.530	0.0151415
665.608	0.0151277
665.686	0.0151861
665.764	0.0150195
665.842	0.0151590
665.920	0.0151415
665.998	0.0149104
666.076	0.0150922
666.155	0.0150804
666.233	0.0148584
666.311	0.0148029
666.389	0.0149587
666.467	0.0148562
666.545	0.0148710
666.623	0.0149345
666.701	0.0148600
666.780	0.0148901
666.858	0.0147642
666.936	0.0147530
667.014	0.0148537
667.092	0.0149447
667.170	0.0148549
667.248	0.0150095
667.326	0.0149765
667.405	0.0150951
667.483	0.0149844
667.561	0.0149751
667.639	0.0152408
667.717	0.0152657
667.795	0.0153675
667.873	0.0152763
667.951	0.0153323
668.030	0.0153737
668.108	0.0154195
668.186	0.0154291
668.264	0.0153806
668.342	0.0155367
668.420	0.0154478
668.498	0.0154977
668.576	0.0154142
668.655	0.0155592
668.733	0.0154495
668.811	0.0155059
668.889	0.0154388
668.967	0.0155631
669.045	0.0155128
669.123	0.0154415
669.201	0.0153775
669.280	0.0154140
669.358	0.0153149
669.436	0.0153686
669.514	0.0151218
669.592	0.0150549
669.670	0.0148975
669.748	0.0148564
669.826	0.0146843
669.905	0.0146803
669.983	0.0146487
670.061	0.0146473
670.139	0.0146693
670.217	0.0145605
670.295	0.0147252
670.373	0.0146169
670.451	0.0146813
670.530	0.0147860
670.608	0.0149110
670.686	0.0148192
670.764	0.0149849
670.842	0.0149747
670.920	0.0152204
670.998	0.0151658
671.076	0.0153359
671.155	0.0154849
671.233	0.0157089
671.311	0.0156955
671.389	0.0159055
671.467	0.0160458
671.545	0.0161785
671.623	0.0162866
671.701	0.0164203
671.780	0.0165015
671.858	0.0165552
671.936	0.0164845
672.014	0.0164269
672.092	0.0164855
672.170	0.0164013
672.248	0.0163213
672.326	0.0162102
672.405	0.0161249
672.483	0.0158759
672.561	0.0157681
672.639	0.0156107
672.717	0.0153867
672.795	0.0153034
672.873	0.0150620
672.951	0.0148915
673.030	0.0145914
673.108	0.0144361
673.186	0.0144614
673.264	0.0142705
673.342	0.0141709
673.420	0.0141487
673.498	0.0140401
673.576	0.0140826
673.655	0.0140627
673.733	0.0140430
673.811	0.0140277
673.889	0.0139658
673.967	0.0141753
674.045	0.0142721
674.123	0.0143254
674.201	0.0145306
674.280	0.0145980
674.358	0.0146964
674.436	0.0148750
674.514	0.0150621
674.592	0.0152876
674.670	0.0154971
674.748	0.0157239
674.826	0.0158502
674.905	0.0160123
674.983	0.0161172
675.061	0.0160749
675.139	0.0162524
675.217	0.0163918
675.295	0.0162368
675.373	0.0161375
675.451	0.0163086
675.530	0.0163158
675.608	0.0161159
675.686	0.0161668
675.764	0.0159364
675.842	0.0158174
675.920	0.0158733
675.998	0.0156376
676.076	0.0154470
676.155	0.0152419
676.233	0.0152100
676.311	0.0151620
676.389	0.0147515
676.467	0.0146690
676.545	0.0146346
676.623	0.0144226
676.701	0.0143171
676.780	0.0141914
676.858	0.0140493
676.936	0.0142358
677.014	0.0140473
677.092	0.0140193
677.170	0.0140295
677.248	0.0141845
677.326	0.0139687
677.405	0.0140589
677.483	0.0142588
677.561	0.0144213
677.639	0.0143446
677.717	0.0143072
677.795	0.0144685
677.873	0.0147572
677.951	0.0147237
678.030	0.0147358
678.108	0.0147659
678.186	0.0146777
678.264	0.0149454
678.342	0.0149472
678.420	0.0149989
678.498	0.0149649
678.576	0.0149552
678.655	0.0149994
678.733	0.0150469
678.811	0.0149951
678.889	0.0151252
678.967	0.0151262
679.045	0.0153316
679.123	0.0152133
679.201	0.0152640
679.280	0.0153361
679.358	0.0153981
679.436	0.0154041
679.514	0.0155330
679.592	0.0155334
679.670	0.0156143
679.748	0.0157142
679.826	0.0156757
679.905	0.0158677
679.983	0.0159778
680.061	0.0159045
680.139	0.0158665
680.217	0.0158255
680.295	0.0158633
680.373	0.0158680
680.451	0.0159789
680.530	0.0157555
680.608	0.0159364
680.686	0.0158253
680.764	0.0156584
680.842	0.0156716
680.920	0.0154114
680.998	0.0154532
681.076	0.0153883
681.155	0.0152483
681.233	0.0151421
681.311	0.0149340
681.389	0.0147436
681.467	0.0147055
681.545	0.0145227
681.623	0.0143112
681.701	0.0141608
681.780	0.0140340
681.858	0.0139581
681.936	0.0139616
682.014	0.0138993
682.092	0.0137622
682.170	0.0137672
682.248	0.0139139
682.326	0.0140079
682.405	0.0141048
682.483	0.0142435
682.561	0.0142950
682.639	0.0144706
682.717	0.0145936
682.795	0.0148067
682.873	0.0150974
682.951	0.0153640
683.030	0.0154238
683.108	0.0156519
683.186	0.0158778
683.264	0.0158994
683.342	0.0161482
683.420	0.0163414
683.498	0.0165095
683.576	0.0166051
683.655	0.0165559
683.733	0.0165190
683.811	0.0167219
683.889	0.0167159
683.967	0.0167156
684.045	0.0166689
684.123	0.0165540
684.201	0.0164506
684.280	0.0165162
684.358	0.0163805
684.436	0.0163142
684.514	0.0161731
684.592	0.0160057
684.670	0.0159245
684.748	0.0156764
684.826	0.0156080
684.905	0.0154630
684.983	0.0152126
685.061	0.0152365
685.139	0.0149791
685.217	0.0147792
685.295	0.0146333
685.373	0.0145407
685.451	0.0144288
685.530	0.0143208
685.608	0.0141753
685.686	0.0143110
685.764	0.0140638
685.842	0.0140936
685.920	0.0142195
685.998	0.0141622
686.076	0.0141287
686.155	0.0142119
686.233	0.0143871
686.311	0.0144381
686.389	0.0145600
686.467	0.0144888
686.545	0.0146156
686.623	0.0149678
686.701	0.0150436
686.780	0.0151775
686.858	0.0151994
686.936	0.0155714
687.014	0.0156448
687.092	0.0156099
687.170	0.0158298
687.248	0.0160430
687.326	0.0160131
687.405	0.0160977
687.483	0.0161864
687.561	0.0161707
687.639	0.0162823
687.717	0.0163322
687.795	0.0163407
687.873	0.0163082
687.951	0.0164190
688.030	0.0163125
688.108	0.0162443
688.186	0.0162252
688.264	0.0160748
688.342	0.0161438
688.420	0.0158603
688.498	0.0157848
688.576	0.0156606
688.655	0.0156669
688.733	0.0155118
688.811	0.0154102
688.889	0.0152799
688.967	0.0150722
689.045	0.0150584
689.123	0.0148113
689.201	0.0148141
689.280	0.0145984
689.358	0.0144621
689.436	0.0144546
689.514	0.0143182
689.592	0.0143519
689.670	0.0142677
689.748	0.0142207
689.826	0.0142735
689.905	0.0143984
689.983	0.0143832
690.061	0.0143523
690.139	0.0143100
690.217	0.0144247
690.295	0.0145530
690.373	0.0144508
690.451	0.0146387
690.530	0.0147034
690.608	0.0147650
690.686	0.0149717
690.764	0.0151035
690.842	0.0152010
690.920	0.0153226
690.998	0.0155449
691.076	0.0156796
691.155	0.0158160
691.233	0.0159686
691.311	0.0160248
691.389	0.0161529
691.467	0.0162376
691.545	0.0161763
691.623	0.0162341
691.701	0.0162823
691.780	0.0162053
691.858	0.0160835
691.936	0.0161405
692.014	0.0161360
692.092	0.0160759
692.170	0.0159139
692.248	0.0159477
692.326	0.0158228
692.405	0.0158280
692.483	0.0156910
692.561	0.0157224
692.639	0.0156625
692.717	0.0155988
692.795	0.0155190
692.873	0.0152937
692.951	0.0153796
693.030	0.0152782
693.108	0.0152173
693.186	0.0151005
693.264	0.0150020
693.342	0.0148545
693.420	0.0148955
693.498	0.0148663
693.576	0.0146081
693.655	0.0145964
693.733	0.0146303
693.811	0.0146548
693.889	0.0146069
693.967	0.0146472
694.045	0.0147663
694.123	0.0149128
694.201	0.0148952
694.280	0.0148956
694.358	0.0148469
694.436	0.0149400
694.514	0.0148624
694.592	0.0148965
694.670	0.0148811
694.748	0.0148524
694.826	0.0147719
694.905	0.0148484
694.983	0.0148351
695.061	0.0147990
695.139	0.0149030
695.217	0.0149146
695.295	0.0149837
695.373	0.0149247
695.451	0.0150970
695.530	0.0151243
695.608	0.0151992
695.686	0.0152103
695.764	0.0153796
695.842	0.0154558
695.920	0.0154791
695.998	0.0154915
696.076	0.0154974
696.155	0.0155444
696.233	0.0155408
696.311	0.0153905
696.389	0.0155560
696.467	0.0154572
696.545	0.0152994
696.623	0.0154607
696.701	0.0154205
696.780	0.0152271
696.858	0.0151012
696.936	0.0149982
697.014	0.0150163
697.092	0.0149336
697.170	0.0149197
697.248	0.0148003
697.326	0.0147638
697.405	0.0147843
697.483	0.0146220
697.561	0.0146201
697.639	0.0145321
697.717	0.0144260
697.795	0.0145160
697.873	0.0145208
697.951	0.0145085
698.030	0.0145356
698.108	0.0144933
698.186	0.0146429
698.264	0.0145600
698.342	0.0145568
698.420	0.0145789
698.498	0.0148352
698.576	0.0149862
698.655	0.0150999
698.733	0.0152311
698.811	0.0155264
698.889	0.0155639
698.967	0.0158412
699.045	0.0161260
699.123	0.0161023
699.201	0.0162785
699.280	0.0164569
699.358	0.0165496
699.436	0.0167852
699.514	0.0168291
699.592	0.0169103
699.670	0.0168985
699.748	0.0168725
699.826	0.0167862
699.905	0.0166444
699.983	0.0166962
700.061	0.0166758
700.139	0.0164274
700.217	0.0163486
700.295	0.0162543
700.373	0.0159601
700.451	0.0157663
700.530	0.0156410
700.608	0.0152389
700.686	0.0148435
700.764	0.0146465
700.842	0.0144160
700.920	0.0141416
700.998	0.0137794
701.076	0.0135423
701.155	0.0133782
701.233	0.0132183
701.311	0.0129475
701.389	0.0128191
701.467	0.0128409
701.545	0.0128011
701.623	0.0128553
701.701	0.0129741
701.780	0.0131084
701.858	0.0133437
701.936	0.0135150
702.014	0.0136575
702.092	0.0138767
702.170	0.0141933
702.248	0.0143672
702.326	0.0145982
702.405	0.0148193
702.483	0.0151025
702.561	0.0153114
702.639	0.0154703
702.717	0.0158909
702.795	0.0159027
702.873	0.0162232
702.951	0.0164512
703.030	0.0166180
703.108	0.0168837
703.186	0.0170508
703.264	0.0172128
703.342	0.0173193
703.420	0.0173267
703.498	0.0172318
703.576	0.0173051
703.655	0.0173179
703.733	0.0171724
703.811	0.0172409
703.889	0.0170266
703.967	0.0166837
704.045	0.0165876
704.123	0.0165197
704.201	0.0163007
704.280	0.0160296
704.358	0.0158392
704.436	0.0156027
704.514	0.0153964
704.592	0.0152753
704.670	0.0150401
704.748	0.0149075
704.826	0.0147104
704.905	0.0146837
704.983	0.0144373
705.061	0.0142450
705.139	0.0143509
705.217	0.0140053
705.295	0.0139668
705.373	0.0139964
705.451	0.0139314
705.530	0.0139733
705.608	0.0140086
705.686	0.0141571
705.764	0.0141679
705.842	0.0143218
705.920	0.0144600
705.998	0.0144970
706.076	0.0146743
706.155	0.0147648
706.233	0.0148407
706.311	0.0149612
706.389	0.0151053
706.467	0.0152195
706.545	0.0152466
706.623	0.0154822
706.701	0.0153359
706.780	0.0155743
706.858	0.0154513
706.936	0.0154790
707.014	0.0154149
707.092	0.0152776
707.170	0.0153756
707.248	0.0151617
707.326	0.0149907
707.405	0.0150127
707.483	0.0150500
707.561	0.0150943
707.639	0.0149937
707.717	0.0148917
707.795	0.0147851
707.873	0.0150243
707.951	0.0150056
708.030	0.0149411
708.108	0.0150513
708.186	0.0151797
708.264	0.0150228
708.342	0.0151629
708.420	0.0152139
708.498	0.0151176
708.576	0.0153118
708.655	0.0151441
708.733	0.0151131
708.811	0.0151530
708.889	0.0150539
708.967	0.0151218
709.045	0.0151121
709.123	0.0150160
709.201	0.0150923
709.280	0.0149456
709.358	0.0152026
709.436	0.0151262
709.514	0.0149984
709.592	0.0149671
709.670	0.0149154
709.748	0.0150813
709.826	0.0147799
709.905	0.0148087
709.983	0.0148799
710.061	0.0149053
710.139	0.0149234
710.217	0.0148816
710.295	0.0147598
710.373	0.0149092
710.451	0.0147058
710.530	0.0146082
710.608	0.0147108
710.686	0.0147557
710.764	0.0148746
710.842	0.0152718
710.920	0.0150079
710.998	0.0151015
711.076	0.0153066
711.155	0.0156582
711.233	0.0155887
711.311	0.0158282
711.389	0.0158136
711.467	0.0160317
711.545	0.0162200
711.623	0.0163573
711.701	0.0164635
711.780	0.0163800
711.858	0.0165140
711.936	0.0164828
712.014	0.0164484
712.092	0.0165353
712.170	0.0164829
712.248	0.0164289
712.326	0.0162181
712.405	0.0160504
712.483	0.0159686
712.561	0.0157549
712.639	0.0156521
712.717	0.0154632
712.795	0.0154207
712.873	0.0151290
712.951	0.0149426
713.030	0.0148013
713.108	0.0147225
713.186	0.0145924
713.264	0.0145514
713.342	0.0141827
713.420	0.0140782
713.498	0.0142336
713.576	0.0139381
713.655	0.0140715
713.733	0.0139548
713.811	0.0138663
713.889	0.0137816
713.967	0.0140099
714.045	0.0140632
714.123	0.0139593
714.201	0.0141744
714.280	0.0140321
714.358	0.0141965
714.436	0.0142770
714.514	0.0144653
714.592	0.0144604
714.670	0.0145395
714.748	0.0146333
714.826	0.0145992
714.905	0.0148495
714.983	0.0149659
715.061	0.0149667
715.139	0.0149800
715.217	0.0152579
715.295	0.0153040
715.373	0.0154775
715.451	0.0155928
715.530	0.0157470
715.608	0.0157992
715.686	0.0159645
715.764	0.0160632
715.842	0.0162104
715.920	0.0163897
715.998	0.0163517
716.076	0.0164029
716.155	0.0163678
716.233	0.0165709
716.311	0.0165469
716.389	0.0163300
716.467	0.0164868
716.545	0.0163635
716.623	0.0163848
716.701	0.0163054
716.780	0.0161037
716.858	0.0160108
716.936	0.0160054
717.014	0.0158867
717.092	0.0157144
717.170	0.0155164
717.248	0.0154883
717.326	0.0154692
717.405	0.0152537
717.483	0.0151014
717.561	0.0149307
717.639	0.0149189
717.717	0.0147695
717.795	0.0148977
717.873	0.0148399
717.951	0.0145573
718.030	0.0145530
718.108	0.0145399
718.186	0.0145718
718.264	0.0144630
718.342	0.0144501
718.420	0.0143945
718.498	0.0144541
718.576	0.0143157
718.655	0.0143487
718.733	0.0144044
718.811	0.0144411
718.889	0.0144191
718.967	0.0144584
719.045	0.0145016
719.123	0.0146049
719.201	0.0144893
719.280	0.0146210
719.358	0.0147147
719.436	0.0147604
719.514	0.0148886
719.592	0.0148492
719.670	0.0149169
719.748	0.0150169
719.826	0.0150564
719.905	0.0150974
719.983	0.0150099
720.061	0.0151987
720.139	0.0150538
720.217	0.0151183
720.295	0.0152051
720.373	0.0151398
720.451	0.0150766
720.530	0.0152202
720.608	0.0152457
720.686	0.0152457
720.764	0.0151438
720.842	0.0151888
720.920	0.0151144
720.998	0.0152351
721.076	0.0152584
721.155	0.0151499
721.233	0.0152892
721.311	0.0152025
721.389	0.0151558
721.467	0.0151087
721.545	0.0151822
721.623	0.0151752
721.701	0.0151276
721.780	0.0151688
721.858	0.0151981
721.936	0.0152547
722.014	0.0151118
722.092	0.0151889
722.170	0.0151733
722.248	0.0150912
722.326	0.0151408
722.405	0.0152338
722.483	0.0151609
722.561	0.0152361
722.639	0.0153815
722.717	0.0153883
722.795	0.0152956
722.873	0.0153770
722.951	0.0152156
723.030	0.0152045
723.108	0.0154176
723.186	0.0151798
723.264	0.0152319
723.342	0.0152415
723.420	0.0151573
723.498	0.0152263
723.576	0.0152177
723.655	0.0149485
723.733	0.0148600
723.811	0.0150313
723.889	0.0149400
723.967	0.0148843
724.045	0.0148637
724.123	0.0148935
724.201	0.0147849
724.280	0.0147974
724.358	0.0149563
724.436	0.0149772
724.514	0.0148958
724.592	0.0151386
724.670	0.0151972
724.748	0.0152317
724.826	0.0154390
724.905	0.0154794
724.983	0.0154945
725.061	0.0157433
725.139	0.0156946
725.217	0.0158028
725.295	0.0157500
725.373	0.0156815
725.451	0.0158400
725.530	0.0159582
725.608	0.0159826
725.686	0.0158653
725.764	0.0159075
725.842	0.0157085
725.920	0.0156790
725.998	0.0155888
726.076	0.0156896
726.155	0.0154642
726.233	0.0153287
726.311	0.0152304
726.389	0.0151017
726.467	0.0149897
726.545	0.0150040
726.623	0.0148325
726.701	0.0147224
726.780	0.0147172
726.858	0.0146825
726.936	0.0145237
727.014	0.0146268
727.092	0.0146116
727.170	0.0144579
727.248	0.0146557
727.326	0.0145767
727.405	0.0146045
727.483	0.0146862
727.561	0.0144772
727.639	0.0146287
727.717	0.0146583
727.795	0.0147878
727.873	0.0147306
727.951	0.0148392
728.030	0.0148537
728.108	0.0149647
728.186	0.0150213
728.264	0.0150743
728.342	0.0151328
728.420	0.0151830
728.498	0.0153157
728.576	0.0153063
728.655	0.0154611
728.733	0.0156617
728.811	0.0154086
728.889	0.0154749
728.967	0.0156837
729.045	0.0156493
729.123	0.0156072
729.201	0.0156721
729.280	0.0155434
729.358	0.0157425
729.436	0.0156946
729.514	0.0158459
729.592	0.0159275
729.670	0.0157776
729.748	0.0157162
729.826	0.0157471
729.905	0.0157001
729.983	0.0157407
730.061	0.0155328
730.139	0.0155934
730.217	0.0156512
730.295	0.0156425
730.373	0.0154601
730.451	0.0156158
730.530	0.0154965
730.608	0.0154654
730.686	0.0154253
730.764	0.0153061
730.842	0.0151939
730.920	0.0151749
730.998	0.0150166
731.076	0.0149709
731.155	0.0149139
731.233	0.0149722
731.311	0.0149558
731.389	0.0148804
731.467	0.0147632
731.545	0.0146659
731.623	0.0147451
731.701	0.0148679
731.780	0.0147240
731.858	0.0146639
731.936	0.0146593
732.014	0.0149197
732.092	0.0148717
732.170	0.0148241
732.248	0.0149175
732.326	0.0149101
732.405	0.0150130
732.483	0.0150306
732.561	0.0148980
732.639	0.0149749
732.717	0.0151993
732.795	0.0151237
732.873	0.0151230
732.951	0.0151717
733.030	0.0152219
733.108	0.0151640
733.186	0.0152047
733.264	0.0153717
733.342	0.0153705
733.420	0.0152492
733.498	0.0153625
733.576	0.0154340
733.655	0.0152436
733.733	0.0151561
733.811	0.0152075
733.889	0.0151680
733.967	0.0150951
734.045	0.0150882
734.123	0.0150984
734.201	0.0148864
734.280	0.0148338
734.358	0.0149894
734.436	0.0149923
734.514	0.0148402
734.592	0.0149139
734.670	0.0147984
734.748	0.0149689
734.826	0.0150475
734.905	0.0149832
734.983	0.0150816
735.061	0.0148936
735.139	0.0151546
735.217	0.0152446
735.295	0.0152457
735.373	0.0149940
735.451	0.0150982
735.530	0.0152588
735.608	0.0151010
735.686	0.0151268
735.764	0.0150083
735.842	0.0150719
735.920	0.0152363
735.998	0.0151514
736.076	0.0150957
736.155	0.0150513
736.233	0.0149862
736.311	0.0150349
736.389	0.0150120
736.467	0.0149331
736.545	0.0148653
736.623	0.0148354
736.701	0.0147865
736.780	0.0150131
736.858	0.0147761
736.936	0.0148373
737.014	0.0149504
737.092	0.0150671
737.170	0.0150606
737.248	0.0150349
737.326	0.0150134
737.405	0.0151315
737.483	0.0152389
737.561	0.0150735
737.639	0.0150471
737.717	0.0152217
737.795	0.0150498
737.873	0.0151279
737.951	0.0151167
738.030	0.0150238
738.108	0.0151435
738.186	0.0150104
738.264	0.0148769
738.342	0.0148130
738.420	0.0149911
738.498	0.0150945
738.576	0.0149053
738.655	0.0149592
738.733	0.0149642
738.811	0.0149298
738.889	0.0149400
738.967	0.0148795
739.045	0.0149693
739.123	0.0151451
739.201	0.0150539
739.280	0.0149852
739.358	0.0150127
739.436	0.0149908
739.514	0.0152148
739.592	0.0152412
739.670	0.0152619
739.748	0.0152497
739.826	0.0151818
739.905	0.0152714
739.983	0.0154512
740.061	0.0154716
740.139	0.0153396
740.217	0.0154350
740.295	0.0155162
740.373	0.0156145
740.451	0.0157120
740.530	0.0157874
740.608	0.0157641
740.686	0.0156759
740.764	0.0157139
740.842	0.0157773
740.920	0.0156327
740.998	0.0156265
741.076	0.0155333
741.155	0.0153852
741.233	0.0154736
741.311	0.0153184
741.389	0.0151875
741.467	0.0150722
741.545	0.0149584
741.623	0.0149142
741.701	0.0148286
741.780	0.0147279
741.858	0.0146978
741.936	0.0145926
742.014	0.0146217
742.092	0.0145237
742.170	0.0145555
742.248	0.0146417
742.326	0.0146030
742.405	0.0147559
742.483	0.0147842
742.561	0.0147879
742.639	0.0148134
742.717	0.0148384
742.795	0.0148464
742.873	0.0149460
742.951	0.0150410
743.030	0.0149648
743.108	0.0151773
743.186	0.0150695
743.264	0.0150774
743.342	0.0151646
743.420	0.0153069
743.498	0.0151438
743.576	0.0149958
743.655	0.0149982
743.733	0.0151785
743.811	0.0152322
743.889	0.0151179
743.967	0.0151012
744.045	0.0152148
744.123	0.0151122
744.201	0.0151023
744.280	0.0150797
744.358	0.0151933
744.436	0.0151801
744.514	0.0154589
744.592	0.0153288
744.670	0.0154294
744.748	0.0156216
744.826	0.0156293
744.905	0.0154885
744.983	0.0156425
745.061	0.0156635
745.139	0.0155809
745.217	0.0156559
745.295	0.0157121
745.373	0.0156599
745.451	0.0156413
745.530	0.0157215
745.608	0.0157016
745.686	0.0156206
745.764	0.0154533
745.842	0.0154858
745.920	0.0153723
745.998	0.0154646
746.076	0.0153667
746.155	0.0151485
746.233	0.0152151
746.311	0.0150901
746.389	0.0150338
746.467	0.0147828
746.545	0.0148105
746.623	0.0148817
746.701	0.0148946
746.780	0.0147549
746.858	0.0148389
746.936	0.0149510
747.014	0.0147408
747.092	0.0150057
747.170	0.0150937
747.248	0.0148653
747.326	0.0148773
747.405	0.0151395
747.483	0.0151719
747.561	0.0152234
747.639	0.0153882
747.717	0.0153201
747.795	0.0153894
747.873	0.0154224
747.951	0.0155809
748.030	0.0156361
748.108	0.0156245
748.186	0.0157319
748.264	0.0157098
748.342	0.0156087
748.420	0.0156894
748.498	0.0156875
748.576	0.0157172
748.655	0.0154971
748.733	0.0155305
748.811	0.0153752
748.889	0.0153676
748.967	0.0153517
749.045	0.0153653
749.123	0.0153391
749.201	0.0152411
749.280	0.0151652
749.358	0.0151665
749.436	0.0150539
749.514	0.0149799
749.592	0.0149774
749.670	0.0149176
749.748	0.0150916
749.826	0.0149902
749.905	0.0148884
749.983	0.0149487
750.061	0.0149489
750.139	0.0150510
750.217	0.0149174
750.295	0.0150225
750.373	0.0149623
750.451	0.0150420
750.530	0.0150806
750.608	0.0150816
750.686	0.0150999
750.764	0.0151669
750.842	0.0151955
750.920	0.0151416
750.998	0.0152567
751.076	0.0152596
751.155	0.0151316
751.233	0.0152733
751.311	0.0151969
751.389	0.0150320
751.467	0.0151870
751.545	0.0149497
751.623	0.0150410
751.701	0.0148421
751.780	0.0150235
751.858	0.0148785
751.936	0.0149125
752.014	0.0147182
752.092	0.0148633
752.170	0.0148116
752.248	0.0146703
752.326	0.0150822
752.405	0.0149531
752.483	0.0149712
752.561	0.0149200
752.639	0.0151092
752.717	0.0150977
752.795	0.0151318
752.873	0.0150690
752.951	0.0151091
753.030	0.0152764
753.108	0.0150883
753.186	0.0152337
753.264	0.0153198
753.342	0.0153561
753.420	0.0152946
753.498	0.0152945
753.576	0.0153043
753.655	0.0154114
753.733	0.0154373
753.811	0.0153666
753.889	0.0152984
753.967	0.0153096
754.045	0.0154214
754.123	0.0152927
754.201	0.0152196
754.280	0.0152174
754.358	0.0152577
754.436	0.0153876
754.514	0.0152337
754.592	0.0152198
754.670	0.0152493
754.748	0.0151434
754.826	0.0151562
754.905	0.0151278
754.983	0.0149507
755.061	0.0150674
755.139	0.0151987
755.217	0.0151727
755.295	0.0151611
755.373	0.0152573
755.451	0.0151787
755.530	0.0151968
755.608	0.0151323
755.686	0.0150270
755.764	0.0150329
755.842	0.0150276
755.920	0.0151604
755.998	0.0150198
756.076	0.0149567
756.155	0.0148743
756.233	0.0149528
756.311	0.0149776
756.389	0.0150825
756.467	0.0150241
756.545	0.0150039
756.623	0.0149790
756.701	0.0148712
756.780	0.0149574
756.858	0.0149543
756.936	0.0150186
757.014	0.0149287
757.092	0.0149829
757.170	0.0152091
757.248	0.0149987
757.326	0.0150169
757.405	0.0150730
757.483	0.0150621
757.561	0.0151614
757.639	0.0150609
757.717	0.0150755
757.795	0.0151016
757.873	0.0150923
757.951	0.0151655
758.030	0.0151358
758.108	0.0150360
758.186	0.0150523
758.264	0.0151928
758.342	0.0152007
758.420	0.0151019
758.498	0.0152301
758.576	0.0151096
758.655	0.0151781
758.733	0.0152480
758.811	0.0152599
758.889	0.0153790
758.967	0.0153749
759.045	0.0152441
759.123	0.0153594
759.201	0.0152904
759.280	0.0152193
759.358	0.0152918
759.436	0.0153491
759.514	0.0153688
759.592	0.0153135
759.670	0.0151568
759.748	0.0153134
759.826	0.0153094
759.905	0.0152129
759.983	0.0152773
760.061	0.0151550
760.139	0.0151768
760.217	0.0152451
760.295	0.0150780
760.373	0.0150842
760.451	0.0150582
760.530	0.0150336
760.608	0.0150251
760.686	0.0150852
760.764	0.0150088
760.842	0.0149432
760.920	0.0149979
760.998	0.0151395
761.076	0.0150641
761.155	0.0149180
761.233	0.0149417
761.311	0.0151122
761.389	0.0150077
761.467	0.0151053
761.545	0.0150276
761.623	0.0150037
761.701	0.0149924
761.780	0.0150748
761.858	0.0151006
761.936	0.0151726
762.014	0.0150902
762.092	0.0150949
762.170	0.0150352
762.248	0.0151130
762.326	0.0150394
762.405	0.0150784
762.483	0.0152070
762.561	0.0151312
762.639	0.0151860
762.717	0.0151348
762.795	0.0150831
762.873	0.0150835
762.951	0.0151142
763.030	0.0152779
763.108	0.0151764
763.186	0.0150706
763.264	0.0149866
763.342	0.0152505
763.420	0.0151281
763.498	0.0151595
763.576	0.0150622
763.655	0.0152056
763.733	0.0150269
763.811	0.0150924
763.889	0.0151945
763.967	0.0153070
764.045	0.0151668
764.123	0.0151836
764.201	0.0151569
764.280	0.0153648
764.358	0.0153375
764.436	0.0153278
764.514	0.0152999
764.592	0.0153085
764.670	0.0154356
764.748	0.0153609
764.826	0.0153764
764.905	0.0155179
764.983	0.0154460
765.061	0.0152354
765.139	0.0153471
765.217	0.0154534
765.295	0.0151565
765.373	0.0152360
765.451	0.0152396
765.530	0.0151023
765.608	0.0150743
765.686	0.0150892
765.764	0.0151865
765.842	0.0149854
765.920	0.0149915
765.998	0.0149064
766.076	0.0149713
766.155	0.0150430
766.233	0.0152327
766.311	0.0152236
766.389	0.0151588
766.467	0.0152134
766.545	0.0151997
766.623	0.0152102
766.701	0.0152525
766.780	0.0153629
766.858	0.0153764
766.936	0.0153884
767.014	0.0154421
767.092	0.0153882
767.170	0.0154549
767.248	0.0154458
767.326	0.0154177
767.405	0.0153822
767.483	0.0154053
767.561	0.0153888
767.639	0.0152538
767.717	0.0153818
767.795	0.0152979
767.873	0.0153412
767.951	0.0152917
768.030	0.0152478
768.108	0.0152408
768.186	0.0152560
768.264	0.0152445
768.342	0.0152708
768.420	0.0152592
768.498	0.0153641
768.576	0.0154094
768.655	0.0154353
768.733	0.0154204
768.811	0.0154704
768.889	0.0154517
768.967	0.0156388
769.045	0.0155618
769.123	0.0154507
769.201	0.0155627
769.280	0.0155716
769.358	0.0155145
769.436	0.0156104
769.514	0.0153677
769.592	0.0153793
769.670	0.0152805
769.748	0.0152724
769.826	0.0152307
769.905	0.0152958
769.983	0.0151387
770.061	0.0151733
770.139	0.0151470
770.217	0.0150378
770.295	0.0149582
770.373	0.0151337
770.451	0.0150087
770.530	0.0150107
770.608	0.0150748
770.686	0.0150819
770.764	0.0150393
770.842	0.0151654
770.920	0.0152238
770.998	0.0151051
771.076	0.0150546
771.155	0.0150877
771.233	0.0152299
771.311	0.0151257
771.389	0.0153441
771.467	0.0150750
771.545	0.0150776
771.623	0.0152946
771.701	0.0152882
771.780	0.0152336
771.858	0.0151868
771.936	0.0151984
772.014	0.0151973
772.092	0.0151228
772.170	0.0152040
772.248	0.0153053
772.326	0.0152791
772.405	0.0152601
772.483	0.0152101
772.561	0.0151631
772.639	0.0150559
772.717	0.0151136
772.795	0.0150635
772.873	0.0150806
772.951	0.0149513
773.030	0.0151127
773.108	0.0149022
773.186	0.0149248
773.264	0.0149830
773.342	0.0150219
773.420	0.0149780
773.498	0.0149290
773.576	0.0149332
773.655	0.0148688
773.733	0.0149223
773.811	0.0149986
773.889	0.0149575
773.967	0.0148759
774.045	0.0150923
774.123	0.0149979
774.201	0.0150562
774.280	0.0150482
774.358	0.0150034
774.436	0.0150936
774.514	0.0150529
774.592	0.0150263
774.670	0.0151017
774.748	0.0150578
774.826	0.0150888
774.905	0.0150708
774.983	0.0151266
775.061	0.0151103
775.139	0.0151861
775.217	0.0149521
775.295	0.0150201
775.373	0.0152275
775.451	0.0151400
775.530	0.0150929
775.608	0.0151334
775.686	0.0150696
775.764	0.0151197
775.842	0.0151028
775.920	0.0151493
775.998	0.0150304
776.076	0.0151118
776.155	0.0150410
776.233	0.0150377
776.311	0.0151350
776.389	0.0152341
776.467	0.0151791
776.545	0.0150802
776.623	0.0153040
776.701	0.0151447
776.780	0.0151482
776.858	0.0153094
776.936	0.0150925
777.014	0.0151451
777.092	0.0150073
777.170	0.0151971
777.248	0.0152113
777.326	0.0151729
777.405	0.0151216
777.483	0.0151129
777.561	0.0151617
777.639	0.0151421
777.717	0.0151918
777.795	0.0149580
777.873	0.0151830
777.951	0.0151716
778.030	0.0149222
778.108	0.0149498
778.186	0.0149293
778.264	0.0150463
778.342	0.0150506
778.420	0.0149328
778.498	0.0149730
778.576	0.0150204
778.655	0.0149883
778.733	0.0150168
778.811	0.0150182
778.889	0.0150136
778.967	0.0150258
779.045	0.0151046
779.123	0.0151079
779.201	0.0149921
779.280	0.0151532
779.358	0.0150534
779.436	0.0152536
779.514	0.0152567
779.592	0.0152543
779.670	0.0153236
779.748	0.0152370
779.826	0.0152040
779.905	0.0153547
779.983	0.0155106
780.061	0.0153001
780.139	0.0153418
780.217	0.0153140
780.295	0.0153798
780.373	0.0153192
780.451	0.0154063
780.530	0.0153258
780.608	0.0153696
780.686	0.0154567
780.764	0.0153272
780.842	0.0153596
780.920	0.0153503
780.998	0.0151675
781.076	0.0151904
781.155	0.0153445
781.233	0.0154746
781.311	0.0153558
781.389	0.0152848
781.467	0.0154472
781.545	0.0152672
781.623	0.0154034
781.701	0.0152792
781.780	0.0151944
781.858	0.0153699
781.936	0.0152201
782.014	0.0149960
782.092	0.0150970
782.170	0.0151749
782.248	0.0150115
782.326	0.0149335
782.405	0.0150577
782.483	0.0149786
782.561	0.0151170
782.639	0.0151105
782.717	0.0149805
782.795	0.0150286
782.873	0.0150896
782.951	0.0151325
783.030	0.0150850
783.108	0.0150656
783.186	0.0150528
783.264	0.0149223
783.342	0.0150500
783.420	0.0152417
783.498	0.0150210
783.576	0.0150539
783.655	0.0151749
783.733	0.0150854
783.811	0.0152097
783.889	0.0151416
783.967	0.0151130
784.045	0.0151860
784.123	0.0150941
784.201	0.0151642
784.280	0.0151896
784.358	0.0152478
784.436	0.0153597
784.514	0.0152070
784.592	0.0153702
784.670	0.0153209
784.748	0.0152110
784.826	0.0152165
784.905	0.0152848
784.983	0.0152734
785.061	0.0151951
785.139	0.0152319
785.217	0.0153992
785.295	0.0152110
785.373	0.0150935
785.451	0.0150579
785.530	0.0152211
785.608	0.0151258
785.686	0.0150172
785.764	0.0151086
785.842	0.0149223
785.920	0.0149720
785.998	0.0149374
786.076	0.0149831
786.155	0.0149684
786.233	0.0148452
786.311	0.0149866
786.389	0.0150026
786.467	0.0149731
786.545	0.0150481
786.623	0.0148655
786.701	0.0148391
786.780	0.0149398
786.858	0.0150018
786.936	0.0151552
787.014	0.0150780
787.092	0.0150582
787.170	0.0149975
787.248	0.0152206
787.326	0.0151771
787.405	0.0153414
787.483	0.0152368
787.561	0.0154913
787.639	0.0154639
787.717	0.0152679
787.795	0.0153860
787.873	0.0154008
787.951	0.0153999
788.030	0.0153510
788.108	0.0153258
788.186	0.0152999
788.264	0.0154488
788.342	0.0154272
788.420	0.0154073
788.498	0.0153526
788.576	0.0153095
788.655	0.0153841
788.733	0.0153458
788.811	0.0152366
788.889	0.0152496
788.967	0.0153135
789.045	0.0153248
789.123	0.0153056
789.201	0.0153335
789.280	0.0153197
789.358	0.0154368
789.436	0.0151810
789.514	0.0152451
789.592	0.0153951
789.670	0.0153166
789.748	0.0152334
789.826	0.0153252
789.905	0.0152567
789.983	0.0152808
790.061	0.0153260
790.139	0.0152007
790.217	0.0151630
790.295	0.0152604
790.373	0.0152164
790.451	0.0151749
790.530	0.0151429
790.608	0.0152289
790.686	0.0152856
790.764	0.0151910
790.842	0.0152200
790.920	0.0153611
790.998	0.0153594
791.076	0.0152392
791.155	0.0152046
791.233	0.0153695
791.311	0.0153668
791.389	0.0152837
791.467	0.0152535
791.545	0.0153334
791.623	0.0152015
791.701	0.0152980
791.780	0.0153221
791.858	0.0154082
791.936	0.0152464
792.014	0.0152255
792.092	0.0152626
792.170	0.0154115
792.248	0.0152820
792.326	0.0152636
792.405	0.0152345
792.483	0.0152374
792.561	0.0150754
792.639	0.0152478
792.717	0.0150665
792.795	0.0152077
792.873	0.0151424
792.951	0.0151646
793.030	0.0153090
793.108	0.0150864
793.186	0.0151602
793.264	0.0151601
793.342	0.0153631
793.420	0.0151759
793.498	0.0152052
793.576	0.0152864
793.655	0.0152943
793.733	0.0152120
793.811	0.0151624
793.889	0.0152112
793.967	0.0152771
794.045	0.0152520
794.123	0.0153439
794.201	0.0152229
794.280	0.0152169
794.358	0.0151840
794.436	0.0152740
794.514	0.0152496
794.592	0.0151387
794.670	0.0150150
794.748	0.0151881
794.826	0.0150981
794.905	0.0149658
794.983	0.0151196
795.061	0.0151574
795.139	0.0150838
795.217	0.0151980
795.295	0.0151251
795.373	0.0153293
795.451	0.0152285
795.530	0.0153107
795.608	0.0153777
795.686	0.0153275
795.764	0.0152980
795.842	0.0152782
795.920	0.0152496
795.998	0.0153387
796.076	0.0152741
796.155	0.0153225
796.233	0.0152644
796.311	0.0151743
796.389	0.0152373
796.467	0.0152564
796.545	0.0152442
796.623	0.0153657
796.701	0.0150889
796.780	0.0151346
796.858	0.0151092
796.936	0.0151586
797.014	0.0150040
797.092	0.0150325
797.170	0.0150641
797.248	0.0150833
797.326	0.0149646
797.405	0.0149129
797.483	0.0149470
797.561	0.0148917
797.639	0.0149432
797.717	0.0148669
797.795	0.0148717
797.873	0.0146438
797.951	0.0149448
798.030	0.0148825
798.108	0.0149272
798.186	0.0149190
798.264	0.0147293
798.342	0.0147975
798.420	0.0149588
798.498	0.0148951
798.576	0.0149118
798.655	0.0149419
798.733	0.0149088
798.811	0.0149783
798.889	0.0148883
798.967	0.0150046
799.045	0.0149921
799.123	0.0150385
799.201	0.0150654
799.280	0.0150483
799.358	0.0150568
799.436	0.0152313
799.514	0.0153362
799.592	0.0151767
799.670	0.0152150
799.748	0.0151560
799.826	0.0153125
799.905	0.0153310
799.983	0.0153827
800.061	0.0152530
800.139	0.0153331
800.217	0.0152892
800.295	0.0154421
800.373	0.0153168
800.451	0.0152683
800.530	0.0153404
800.608	0.0152016
800.686	0.0153094
800.764	0.0152125
800.842	0.0152188
800.920	0.0152412
800.998	0.0153584
801.076	0.0151597
801.155	0.0152744
801.233	0.0152647
801.311	0.0150412
801.389	0.0149715
801.467	0.0150575
801.545	0.0149491
801.623	0.0150639
801.701	0.0149200
801.780	0.0149900
801.858	0.0150576
801.936	0.0151498
802.014	0.0148658
802.092	0.0149569
802.170	0.0151521
802.248	0.0152314
802.326	0.0150603
802.405	0.0150129
802.483	0.0150329
802.561	0.0150958
802.639	0.0150339
802.717	0.0150013
802.795	0.0150254
802.873	0.0151534
802.951	0.0150951
803.030	0.0150873
803.108	0.0150830
803.186	0.0151181
803.264	0.0151638
803.342	0.0151576
803.420	0.0150500
803.498	0.0152081
803.576	0.0152267
803.655	0.0152154
803.733	0.0151717
803.811	0.0151449
803.889	0.0151111
803.967	0.0152258
804.045	0.0152768
804.123	0.0152222
804.201	0.0151165
804.280	0.0151666
804.358	0.0151405
804.436	0.0151921
804.514	0.0152254
804.592	0.0153471
804.670	0.0151485
804.748	0.0150813
804.826	0.0151381
804.905	0.0152459
804.983	0.0151676
805.061	0.0150723
805.139	0.0150563
805.217	0.0151067
805.295	0.0151331
805.373	0.0151346
805.451	0.0151405
805.530	0.0150474
805.608	0.0151677
805.686	0.0152037
805.764	0.0151589
805.842	0.0152150
805.920	0.0152508
805.998	0.0152130
806.076	0.0151216
806.155	0.0151747
806.233	0.0151491
806.311	0.0152396
806.389	0.0152085
806.467	0.0151765
806.545	0.0150601
806.623	0.0152026
806.701	0.0151862
806.780	0.0151057
806.858	0.0149632
806.936	0.0151180
807.014	0.0150616
807.092	0.0150688
807.170	0.0150035
807.248	0.0149582
807.326	0.0150295
807.405	0.0150044
807.483	0.0150485
807.561	0.0150301
807.639	0.0149952
807.717	0.0149640
807.795	0.0150163
807.873	0.0150275
807.951	0.0151474
808.030	0.0151625
808.108	0.0151451
808.186	0.0151111
808.264	0.0151508
808.342	0.0151942
808.420	0.0152131
808.498	0.0150523
808.576	0.0151781
808.655	0.0153207
808.733	0.0152150
808.811	0.0152606
808.889	0.0152190
808.967	0.0153211
809.045	0.0151093
809.123	0.0151941
809.201	0.0152026
809.280	0.0151366
809.358	0.0151259
809.436	0.0152071
809.514	0.0150909
809.592	0.0150557
809.670	0.0150697
809.748	0.0150820
809.826	0.0150471
809.905	0.0150253
809.983	0.0150857
810.061	0.0149771
810.139	0.0148389
810.217	0.0149334
810.295	0.0148705
810.373	0.0149666
810.451	0.0149101
810.530	0.0147739
810.608	0.0150134
810.686	0.0150636
810.764	0.0149505
810.842	0.0149090
810.920	0.0150314
810.998	0.0149786
811.076	0.0149164
811.155	0.0150182
811.233	0.0151865
811.311	0.0151613
811.389	0.0150743
811.467	0.0150909
811.545	0.0151832
811.623	0.0151484
811.701	0.0153379
811.780	0.0152618
811.858	0.0152652
811.936	0.0154644
812.014	0.0153612
812.092	0.0153959
812.170	0.0154437
812.248	0.0153790
812.326	0.0154379
812.405	0.0154694
812.483	0.0156056
812.561	0.0155134
812.639	0.0155620
812.717	0.0155083
812.795	0.0155262
812.873	0.0155934
812.951	0.0153708
813.030	0.0154008
813.108	0.0155607
813.186	0.0153740
813.264	0.0152834
813.342	0.0154119
813.420	0.0154502
813.498	0.0153843
813.576	0.0152177
813.655	0.0151904
813.733	0.0153606
813.811	0.0152161
813.889	0.0151955
813.967	0.0151984
814.045	0.0152029
814.123	0.0154483
814.201	0.0153703
814.280	0.0152177
814.358	0.0152248
814.436	0.0152615
814.514	0.0150861
814.592	0.0149913
814.670	0.0153051
814.748	0.0151805
814.826	0.0150577
814.905	0.0150307
814.983	0.0151664
815.061	0.0150555
815.139	0.0149818
815.217	0.0151745
815.295	0.0151343
815.373	0.0151330
815.451	0.0151772
815.530	0.0151789
815.608	0.0151456
815.686	0.0150194
815.764	0.0151292
815.842	0.0151459
815.920	0.0151427
815.998	0.0152002
816.076	0.0152153
816.155	0.0150385
816.233	0.0152525
816.311	0.0150359
816.389	0.0151404
816.467	0.0151772
816.545	0.0152043
816.623	0.0151773
816.701	0.0150941
816.780	0.0150955
816.858	0.0151750
816.936	0.0153220
817.014	0.0151627
817.092	0.0151801
817.170	0.0152108
817.248	0.0152095
817.326	0.0150414
817.405	0.0150884
817.483	0.0151514
817.561	0.0151318
817.639	0.0152393
817.717	0.0151389
817.795	0.0150414
817.873	0.0150756
817.951	0.0150298
818.030	0.0151798
818.108	0.0152371
818.186	0.0150910
818.264	0.0152787
818.342	0.0151424
818.420	0.0151725
818.498	0.0151340
818.576	0.0151829
818.655	0.0152157
818.733	0.0151019
818.811	0.0150220
818.889	0.0152029
818.967	0.0150967
819.045	0.0151792
819.123	0.0150198
819.201	0.0151177
819.280	0.0153098
819.358	0.0150914
819.436	0.0152235
819.514	0.0151866
819.592	0.0151546
819.670	0.0150927
819.748	0.0150730
819.826	0.0150515
819.905	0.0149817
819.983	0.0151214
820.061	0.0151654
820.139	0.0151774
820.217	0.0150822
820.295	0.0151572
820.373	0.0151642
820.451	0.0151593
820.530	0.0151688
820.608	0.0151556
820.686	0.0151230
820.764	0.0151768
820.842	0.0151892
820.920	0.0150381
820.998	0.0151354
821.076	0.0151788
821.155	0.0151831
821.233	0.0152355
821.311	0.0152251
821.389	0.0153625
821.467	0.0152183
821.545	0.0150475
821.623	0.0153098
821.701	0.0152137
821.780	0.0153862
821.858	0.0151390
821.936	0.0151589
822.014	0.0152172
822.092	0.0152627
822.170	0.0152422
822.248	0.0151495
822.326	0.0153825
822.405	0.0152588
822.483	0.0152068
822.561	0.0152388
822.639	0.0152293
822.717	0.0152866
822.795	0.0153586
822.873	0.0154362
822.951	0.0151981
823.030	0.0151434
823.108	0.0153593
823.186	0.0153252
823.264	0.0151105
823.342	0.0151350
823.420	0.0152660
823.498	0.0152393
823.576	0.0150422
823.655	0.0151543
823.733	0.0150579
823.811	0.0150967
823.889	0.0149719
823.967	0.0150953
824.045	0.0149253
824.123	0.0149852
824.201	0.0151135
824.280	0.0149519
824.358	0.0151611
824.436	0.0150312
824.514	0.0150855
824.592	0.0151037
824.670	0.0150671
824.748	0.0150687
824.826	0.0151692
824.905	0.0150379
824.983	0.0151723
825.061	0.0152845
825.139	0.0154237
825.217	0.0153103
825.295	0.0152244
825.373	0.0152776
825.451	0.0152663
825.530	0.0151439
825.608	0.0153615
825.686	0.0154279
825.764	0.0154458
825.842	0.0154825
825.920	0.0153980
825.998	0.0155264
826.076	0.0154444
826.155	0.0154066
826.233	0.0154941
826.311	0.0155895
826.389	0.0154529
826.467	0.0156332
826.545	0.0155790
826.623	0.0155548
826.701	0.0155819
826.780	0.0155126
826.858	0.0153747
826.936	0.0153207
827.014	0.0153691
827.092	0.0153961
827.170	0.0154565
827.248	0.0154207
827.326	0.0153179
827.405	0.0153301
827.483	0.0153344
827.561	0.0152562
827.639	0.0151643
827.717	0.0152438
827.795	0.0153645
827.873	0.0153251
827.951	0.0154057
828.030	0.0153025
828.108	0.0152191
828.186	0.0152924
828.264	0.0152159
828.342	0.0152363
828.420	0.0152422
828.498	0.0152473
828.576	0.0151809
828.655	0.0152745
828.733	0.0150999
828.811	0.0151331
828.889	0.0152449
828.967	0.0151983
829.045	0.0152413
829.123	0.0151778
829.201	0.0151325
829.280	0.0150517
829.358	0.0151069
829.436	0.0151702
829.514	0.0150665
829.592	0.0150425
829.670	0.0150649
829.748	0.0149079
829.826	0.0150742
829.905	0.0149564
829.983	0.0150008
830.061	0.0149412
830.139	0.0150879
830.217	0.0150181
830.295	0.0149647
830.373	0.0149999
830.451	0.0149546
830.530	0.0150819
830.608	0.0150385
830.686	0.0149710
830.764	0.0149104
830.842	0.0150394
830.920	0.0150290
830.998	0.0149092
831.076	0.0148711
831.155	0.0148469
831.233	0.0150091
831.311	0.0149221
831.389	0.0149237
831.467	0.0149914
831.545	0.0150062
831.623	0.0150381
831.701	0.0150355
831.780	0.0151883
831.858	0.0151109
831.936	0.0150202
832.014	0.0150785
832.092	0.0150586
832.170	0.0152158
832.248	0.0151672
832.326	0.0151928
832.405	0.0151021
832.483	0.0150983
832.561	0.0152023
832.639	0.0152642
832.717	0.0153358
832.795	0.0151736
832.873	0.0152242
832.951	0.0153566
833.030	0.0153899
833.108	0.0151529
833.186	0.0152090
833.264	0.0152585
833.342	0.0152763
833.420	0.0152214
833.498	0.0151381
833.576	0.0152776
833.655	0.0152105
833.733	0.0151673
833.811	0.0153929
833.889	0.0152573
833.967	0.0152844
834.045	0.0151797
834.123	0.0151813
834.201	0.0152332
834.280	0.0151871
834.358	0.0152499
834.436	0.0153141
834.514	0.0152771
834.592	0.0152714
834.670	0.0150706
834.748	0.0150896
834.826	0.0151776
834.905	0.0151777
834.983	0.0150529
835.061	0.0152032
835.139	0.0150365
835.217	0.0151311
835.295	0.0151413
835.373	0.0150706
835.451	0.0152281
835.530	0.0152837
835.608	0.0152952
835.686	0.0153107
835.764	0.0151270
835.842	0.0152686
835.920	0.0152480
835.998	0.0153404
836.076	0.0153912
836.155	0.0154813
836.233	0.0153289
836.311	0.0154550
836.389	0.0152835
836.467	0.0152416
836.545	0.0152707
836.623	0.0152336
836.701	0.0150728
836.780	0.0152411
836.858	0.0153053
836.936	0.0152029
837.014	0.0151226
837.092	0.0150981
837.170	0.0152416
837.248	0.0151147
837.326	0.0152205
837.405	0.0151572
837.483	0.0151696
837.561	0.0151424
837.639	0.0150065
837.717	0.0149572
837.795	0.0148887
837.873	0.0151303
837.951	0.0150681
838.030	0.0151464
838.108	0.0149324
838.186	0.0150320
838.264	0.0149838
838.342	0.0148492
838.420	0.0151158
838.498	0.0150625
838.576	0.0150534
838.655	0.0149154
838.733	0.0150870
838.811	0.0149073
838.889	0.0149142
838.967	0.0149729
839.045	0.0150654
839.123	0.0149855
839.201	0.0150375
839.280	0.0150791
839.358	0.0149664
839.436	0.0151630
839.514	0.0150674
839.592	0.0150264
839.670	0.0150227
839.748	0.0150135
839.826	0.0150928
839.905	0.0150983
839.983	0.0151614
840.061	0.0152287
840.139	0.0151936
840.217	0.0149560
840.295	0.0151705
840.373	0.0150839
840.451	0.0150538
840.530	0.0151366
840.608	0.0151149
840.686	0.0151315
840.764	0.0151076
840.842	0.0151965
840.920	0.0151623
840.998	0.0151411
841.076	0.0151749
841.155	0.0152311
841.233	0.0152726
841.311	0.0152176
841.389	0.0151509
841.467	0.0153478
841.545	0.0152225
841.623	0.0151555
841.701	0.0152103
841.780	0.0153310
841.858	0.0154260
841.936	0.0152550
842.014	0.0152635
842.092	0.0152547
842.170	0.0153206
842.248	0.0151894
842.326	0.0152450
842.405	0.0152734
842.483	0.0151832
842.561	0.0153015
842.639	0.0152360
842.717	0.0151804
842.795	0.0153281
842.873	0.0151482
842.951	0.0151032
843.030	0.0151140
843.108	0.0151122
843.186	0.0151344
843.264	0.0149753
843.342	0.0149770
843.420	0.0150279
843.498	0.0150661
843.576	0.0149972
843.655	0.0150767
843.733	0.0150040
843.811	0.0148920
843.889	0.0152266
843.967	0.0151887
844.045	0.0151024
844.123	0.0150231
844.201	0.0150417
844.280	0.0150508
844.358	0.0151376
844.436	0.0150761
844.514	0.0151797
844.592	0.0151611
844.670	0.0151978
844.748	0.0152750
844.826	0.0152776
844.905	0.0152444
844.983	0.0151039
845.061	0.0151578
845.139	0.0151833
845.217	0.0151959
845.295	0.0151875
845.373	0.0151545
845.451	0.0150829
845.530	0.0151832
845.608	0.0150600
845.686	0.0151463
845.764	0.0153329
845.842	0.0152657
845.920	0.0150800
845.998	0.0151366
846.076	0.0151568
846.155	0.0152435
846.233	0.0151997
846.311	0.0151859
846.389	0.0152102
846.467	0.0152648
846.545	0.0153381
846.623	0.0152777
846.701	0.0153982
846.780	0.0152636
846.858	0.0153524
846.936	0.0153790
847.014	0.0152923
847.092	0.0152097
847.170	0.0151321
847.248	0.0151867
847.326	0.0149821
847.405	0.0151859
847.483	0.0151965
847.561	0.0152381
847.639	0.0152003
847.717	0.0151393
847.795	0.0151889
847.873	0.0149700
847.951	0.0152505
848.030	0.0151977
848.108	0.0151276
848.186	0.0149870
848.264	0.0152183
848.342	0.0151225
848.420	0.0151936
848.498	0.0151033
848.576	0.0150961
848.655	0.0150996
848.733	0.0153358
848.811	0.0151745
848.889	0.0150716
848.967	0.0153090
849.045	0.0153873
849.123	0.0152143
849.201	0.0152242
849.280	0.0151955
849.358	0.0151976
849.436	0.0152359
849.514	0.0150563
849.592	0.0150956
849.670	0.0151610
849.748	0.0150212
849.826	0.0151233
849.905	0.0150504
849.983	0.0150982
850.061	0.0150747
850.139	0.0150165
850.217	0.0149681
850.295	0.0151113
850.373	0.0151585
850.451	0.0151726
850.530	0.0151810
850.608	0.0151770
850.686	0.0152423
850.764	0.0149509
850.842	0.0151986
850.920	0.0150713
850.998	0.0152307
851.076	0.0150650
851.155	0.0152048
851.233	0.0152087
851.311	0.0151675
851.389	0.0150974
851.467	0.0151226
851.545	0.0151651
851.623	0.0150718
851.701	0.0152083
851.780	0.0151595
851.858	0.0150784
851.936	0.0151645
852.014	0.0152796
852.092	0.0151707
852.170	0.0152497
852.248	0.0153248
852.326	0.0152413
852.405	0.0151878
852.483	0.0150225
852.561	0.0151839
852.639	0.0152221
852.717	0.0150657
852.795	0.0150379
852.873	0.0150668
852.951	0.0152827
853.030	0.0151997
853.108	0.0150920
853.186	0.0152146
853.264	0.0153661
853.342	0.0152529
853.420	0.0151344
853.498	0.0151511
853.576	0.0153118
853.655	0.0153455
853.733	0.0152893
853.811	0.0153116
853.889	0.0152444
853.967	0.0153690
854.045	0.0152953
854.123	0.0153924
854.201	0.0154082
854.280	0.0154979
854.358	0.0154797
854.436	0.0154295
854.514	0.0154580
854.592	0.0153485
854.670	0.0152874
854.748	0.0153599
854.826	0.0154127
854.905	0.0154897
854.983	0.0153764
855.061	0.0153944
855.139	0.0153032
855.217	0.0152624
855.295	0.0154351
855.373	0.0153681
855.451	0.0152335
855.530	0.0153810
855.608	0.0152694
855.686	0.0153363
855.764	0.0153303
855.842	0.0153737
855.920	0.0153725
855.998	0.0151713
856.076	0.0153377
856.155	0.0152729
856.233	0.0152675
856.311	0.0153362
856.389	0.0152883
856.467	0.0152403
856.545	0.0151750
856.623	0.0151384
856.701	0.0152492
856.780	0.0152062
856.858	0.0153191
856.936	0.0152313
857.014	0.0153403
857.092	0.0153246
857.170	0.0152338
857.248	0.0153087
857.326	0.0150881
857.405	0.0151671
857.483	0.0153015
857.561	0.0154159
857.639	0.0153851
857.717	0.0153566
857.795	0.0153181
857.873	0.0153352
857.951	0.0153327
858.030	0.0153403
858.108	0.0150252
858.186	0.0152837
858.264	0.0152216
858.342	0.0151951
858.420	0.0152103
858.498	0.0151698
858.576	0.0152126
858.655	0.0151307
858.733	0.0151172
858.811	0.0151998
858.889	0.0151282
858.967	0.0150455
859.045	0.0152871
859.123	0.0151281
859.201	0.0151289
859.280	0.0152399
859.358	0.0151138
859.436	0.0150343
859.514	0.0152383
859.592	0.0151303
859.670	0.0152398
859.748	0.0150945
859.826	0.0150163
859.905	0.0152583
859.983	0.0152132
860.061	0.0151198
860.139	0.0149838
860.217	0.0151553
860.295	0.0150085
860.373	0.0149384
860.451	0.0151910
860.530	0.0150832
860.608	0.0151074
860.686	0.0150559
860.764	0.0151688
860.842	0.0149746
860.920	0.0150785
860.998	0.0150430
861.076	0.0149882
861.155	0.0150523
861.233	0.0149172
861.311	0.0149743
861.389	0.0149078
861.467	0.0148840
861.545	0.0149303
861.623	0.0149412
861.701	0.0149406
861.780	0.0150278
861.858	0.0149885
861.936	0.0150459
862.014	0.0150351
862.092	0.0149201
862.170	0.0148922
862.248	0.0148572
862.326	0.0150065
862.405	0.0151019
862.483	0.0149583
862.561	0.0148967
862.639	0.0149648
862.717	0.0150130
862.795	0.0150036
862.873	0.0149390
862.951	0.0150912
863.030	0.0151048
863.108	0.0151226
863.186	0.0149513
863.264	0.0150378
863.342	0.0149911
863.420	0.0151492
863.498	0.0151813
863.576	0.0151510
863.655	0.0151901
863.733	0.0150736
863.811	0.0150030
863.889	0.0151844
863.967	0.0151530
864.045	0.0152328
864.123	0.0150919
864.201	0.0150061
864.280	0.0150473
864.358	0.0150986
864.436	0.0151154
864.514	0.0151211
864.592	0.0150909
864.670	0.0150515
864.748	0.0151484
864.826	0.0150951
864.905	0.0152082
864.983	0.0152438
865.061	0.0152505
865.139	0.0150808
865.217	0.0150922
865.295	0.0150778
865.373	0.0151441
865.451	0.0152685
865.530	0.0152454
865.608	0.0151640
865.686	0.0152681
865.764	0.0151673
865.842	0.0150652
865.920	0.0150943
865.998	0.0150234
866.076	0.0152332
866.155	0.0151428
866.233	0.0151867
866.311	0.0152279
866.389	0.0152367
866.467	0.0151098
866.545	0.0152025
866.623	0.0151856
866.701	0.0150796
866.780	0.0151470
866.858	0.0151534
866.936	0.0151609
867.014	0.0151659
867.092	0.0151398
867.170	0.0151738
867.248	0.0151989
867.326	0.0151393
867.405	0.0152321
867.483	0.0152139
867.561	0.0152568
867.639	0.0152222
867.717	0.0152527
867.795	0.0153123
867.873	0.0153188
867.951	0.0151568
868.030	0.0151970
868.108	0.0151726
868.186	0.0151644
868.264	0.0150954
868.342	0.0150257
868.420	0.0150779
868.498	0.0150666
868.576	0.0151369
868.655	0.0150735
868.733	0.0151101
868.811	0.0150787
868.889	0.0150173
868.967	0.0150999
869.045	0.0151487
869.123	0.0151389
869.201	0.0151064
869.280	0.0151729
869.358	0.0150827
869.436	0.0151862
869.514	0.0151672
869.592	0.0151175
869.670	0.0151122
869.748	0.0151098
869.826	0.0152023
869.905	0.0149995
869.983	0.0151261
870.061	0.0152294
870.139	0.0150512
870.217	0.0152092
870.295	0.0151434
870.373	0.0151803
870.451	0.0150970
870.530	0.0151019
870.608	0.0152372
870.686	0.0152765
870.764	0.0152987
870.842	0.0153045
870.920	0.0151616
870.998	0.0151534
871.076	0.0151208
871.155	0.0152348
871.233	0.0152139
871.311	0.0152925
871.389	0.0152801
871.467	0.0152151
871.545	0.0153088
871.623	0.0150821
871.701	0.0151568
871.780	0.0152403
871.858	0.0154159
871.936	0.0152370
872.014	0.0151841
872.092	0.0153522
872.170	0.0152765
872.248	0.0153068
872.326	0.0152440
872.405	0.0152231
872.483	0.0153030
872.561	0.0154179
872.639	0.0153281
872.717	0.0152709
872.795	0.0152616
872.873	0.0153477
872.951	0.0152222
873.030	0.0151986
873.108	0.0149306
873.186	0.0151945
873.264	0.0152447
873.342	0.0151196
873.420	0.0151549
873.498	0.0150201
873.576	0.0149718
873.655	0.0150606
873.733	0.0149702
873.811	0.0149996
873.889	0.0150943
873.967	0.0149742
874.045	0.0149438
874.123	0.0150035
874.201	0.0150027
874.280	0.0149298
874.358	0.0151120
874.436	0.0150270
874.514	0.0149468
874.592	0.0150925
874.670	0.0151695
874.748	0.0151597
874.826	0.0151805
874.905	0.0150690
874.983	0.0152184
875.061	0.0151507
875.139	0.0151117
875.217	0.0150547
875.295	0.0151042
875.373	0.0152699
875.451	0.0152627
875.530	0.0151418
875.608	0.0152329
875.686	0.0152458
875.764	0.0151740
875.842	0.0152974
875.920	0.0151244
875.998	0.0152702
876.076	0.0153358
876.155	0.0151147
876.233	0.0152334
876.311	0.0151720
876.389	0.0151031
876.467	0.0153138
876.545	0.0153586
876.623	0.0152327
876.701	0.0152531
876.780	0.0152064
876.858	0.0152522
876.936	0.0151322
877.014	0.0152118
877.092	0.0151506
877.170	0.0151925
877.248	0.0151377
877.326	0.0150821
877.405	0.0151762
877.483	0.0151855
877.561	0.0151132
877.639	0.0152720
877.717	0.0151263
877.795	0.0152173
877.873	0.0151208
877.951	0.0151644
878.030	0.0151532
878.108	0.0150401
878.186	0.0151801
878.264	0.0151430
878.342	0.0151376
878.420	0.0150725
878.498	0.0153043
878.576	0.0153470
878.655	0.0153062
878.733	0.0153674
878.811	0.0150298
878.889	0.0152302
878.967	0.0153819
879.045	0.0152907
879.123	0.0152566
879.201	0.0152415
879.280	0.0152977
879.358	0.0153368
879.436	0.0151871
879.514	0.0151566
879.592	0.0153065
879.670	0.0152389
879.748	0.0152965
879.826	0.0152209
879.905	0.0152078
879.983	0.0151012
880.061	0.0153251
880.139	0.0152695
880.217	0.0151395
880.295	0.0151319
880.373	0.0152314
880.451	0.0151250
880.530	0.0151486
880.608	0.0152050
880.686	0.0152498
880.764	0.0151325
880.842	0.0151788
880.920	0.0152007
880.998	0.0150864
881.076	0.0150941
881.155	0.0151642
881.233	0.0153231
881.311	0.0152777
881.389	0.0151943
881.467	0.0153746
881.545	0.0153623
881.623	0.0153564
881.701	0.0152503
881.780	0.0154295
881.858	0.0154066
881.936	0.0153688
882.014	0.0153982
882.092	0.0154571
882.170	0.0155449
882.248	0.0155020
882.326	0.0154076
882.405	0.0154739
882.483	0.0154346
882.561	0.0154312
882.639	0.0154994
882.717	0.0154314
882.795	0.0154224
882.873	0.0154094
882.951	0.0153985
883.030	0.0152968
883.108	0.0152480
883.186	0.0153242
883.264	0.0153827
883.342	0.0152747
883.420	0.0152576
883.498	0.0150536
883.576	0.0151016
883.655	0.0150449
883.733	0.0151633
883.811	0.0152000
883.889	0.0151065
883.967	0.0151643
884.045	0.0151052
884.123	0.0151806
884.201	0.0151462
884.280	0.0151601
884.358	0.0153090
884.436	0.0151711
884.514	0.0152808
884.592	0.0152092
884.670	0.0151433
884.748	0.0151933
884.826	0.0151521
884.905	0.0151609
884.983	0.0152374
885.061	0.0150795
885.139	0.0150816
885.217	0.0150134
885.295	0.0148859
885.373	0.0150314
885.451	0.0152157
885.530	0.0150452
885.608	0.0149480
885.686	0.0150073
885.764	0.0149406
885.842	0.0151454
885.920	0.0150552
885.998	0.0150585
886.076	0.0151490
886.155	0.0149754
886.233	0.0150950
886.311	0.0150427
886.389	0.0151602
886.467	0.0150377
886.545	0.0150139
886.623	0.0150932
886.701	0.0149584
886.780	0.0149605
886.858	0.0150185
886.936	0.0150870
887.014	0.0150613
887.092	0.0151334
887.170	0.0151561
887.248	0.0152056
887.326	0.0151273
887.405	0.0152196
887.483	0.0150719
887.561	0.0151877
887.639	0.0152454
887.717	0.0151934
887.795	0.0151140
887.873	0.0150537
887.951	0.0152518
888.030	0.0149834
888.108	0.0149413
888.186	0.0150977
888.264	0.0149383
888.342	0.0150239
888.420	0.0150856
888.498	0.0151992
888.576	0.0150266
888.655	0.0151122
888.733	0.0150510
888.811	0.0150609
888.889	0.0150403
888.967	0.0151043
889.045	0.0149472
889.123	0.0150227
889.201	0.0151154
889.280	0.0152071
889.358	0.0150629
889.436	0.0150293
889.514	0.0150456
889.592	0.0150385
889.670	0.0149557
889.748	0.0148929
889.826	0.0150531
889.905	0.0151485
889.983	0.0152034
890.061	0.0150945
890.139	0.0150939
890.217	0.0151256
890.295	0.0150972
890.373	0.0151983
890.451	0.0152335
890.530	0.0151479
890.608	0.0151095
890.686	0.0152323
890.764	0.0152106
890.842	0.0150369
890.920	0.0152780
890.998	0.0153245
891.076	0.0151199
891.155	0.0151831
891.233	0.0151678
891.311	0.0152579
891.389	0.0151659
891.467	0.0152069
891.545	0.0152868
891.623	0.0151933
891.701	0.0151596
891.780	0.0151722
891.858	0.0151898
891.936	0.0152381
892.014	0.0151623
892.092	0.0150423
892.170	0.0152624
892.248	0.0149910
892.326	0.0151756
892.405	0.0151504
892.483	0.0150253
892.561	0.0149326
892.639	0.0150407
892.717	0.0152364
892.795	0.0152353
892.873	0.0150554
892.951	0.0151490
893.030	0.0150558
893.108	0.0151789
893.186	0.0151270
893.264	0.0151003
893.342	0.0152085
893.420	0.0152475
893.498	0.0151965
893.576	0.0152983
893.655	0.0152321
893.733	0.0155158
893.811	0.0152952
893.889	0.0153403
893.967	0.0153101
894.045	0.0152928
894.123	0.0153144
894.201	0.0152098
894.280	0.0153042
894.358	0.0151194
894.436	0.0152314
894.514	0.0151708
894.592	0.0152560
894.670	0.0154652
894.748	0.0153777
894.826	0.0152567
894.905	0.0152272
894.983	0.0152380
895.061	0.0153069
895.139	0.0153750
895.217	0.0151815
895.295	0.0150818
895.373	0.0150700
895.451	0.0149857
895.530	0.0151016
895.608	0.0151482
895.686	0.0150570
895.764	0.0149462
895.842	0.0149824
895.920	0.0149874
895.998	0.0149417
896.076	0.0149780
896.155	0.0149864
896.233	0.0149729
896.311	0.0149347
896.389	0.0151070
896.467	0.0150848
896.545	0.0151317
896.623	0.0151332
896.701	0.0151324
896.780	0.0151895
896.858	0.0152230
896.936	0.0151542
897.014	0.0150433
897.092	0.0151543
897.170	0.0151043
897.248	0.0149622
897.326	0.0150404
897.405	0.0152368
897.483	0.0152939
897.561	0.0151771
897.639	0.0151838
897.717	0.0153164
897.795	0.0151804
897.873	0.0151713
897.951	0.0151739
898.030	0.0152427
898.108	0.0152245
898.186	0.0152100
898.264	0.0151929
898.342	0.0152211
898.420	0.0152026
898.498	0.0152376
898.576	0.0151746
898.655	0.0151500
898.733	0.0152604
898.811	0.0151720
898.889	0.0150663
898.967	0.0150547
899.045	0.0150676
899.123	0.0150740
899.201	0.0151159
899.280	0.0148944
899.358	0.0150620
899.436	0.0150216
899.514	0.0149196
899.592	0.0150243
899.670	0.0150409
899.748	0.0149522
899.826	0.0150958
899.905	0.0150636
899.983	0.0149926
900.061	0.0151182
900.139	0.0150032
900.217	0.0149409
900.295	0.0151295
900.373	0.0151276
900.451	0.0150237
900.530	0.0149868
900.608	0.0150180
900.686	0.0150232
900.764	0.0150477
900.842	0.0149006
900.920	0.0151226
900.998	0.0149823
901.076	0.0149535
901.155	0.0150742
901.233	0.0150343
901.311	0.0151302
901.389	0.0150185
901.467	0.0150890
901.545	0.0151379
901.623	0.0152303
901.701	0.0152213
901.780	0.0152084
901.858	0.0151791
901.936	0.0151170
902.014	0.0151173
902.092	0.0151318
902.170	0.0151654
902.248	0.0151986
902.326	0.0151394
902.405	0.0151704
902.483	0.0152204
902.561	0.0151860
902.639	0.0150155
902.717	0.0151458
902.795	0.0151707
902.873	0.0152763
902.951	0.0151631
903.030	0.0152173
903.108	0.0153220
903.186	0.0153427
903.264	0.0151954
903.342	0.0153191
903.420	0.0152508
903.498	0.0150745
903.576	0.0152194
903.655	0.0151772
903.733	0.0153281
903.811	0.0152513
903.889	0.0152581
903.967	0.0151192
904.045	0.0151206
904.123	0.0152296
904.201	0.0150825
904.280	0.0151360
904.358	0.0152970
904.436	0.0152231
904.514	0.0151062
904.592	0.0151564
904.670	0.0151620
904.748	0.0151845
904.826	0.0151141
904.905	0.0151487
904.983	0.0151216
905.061	0.0152383
905.139	0.0150652
905.217	0.0150791
905.295	0.0151663
905.373	0.0150301
905.451	0.0149683
905.530	0.0150060
905.608	0.0151751
905.686	0.0151740
905.764	0.0149062
905.842	0.0151090
905.920	0.0150179
905.998	0.0150677
906.076	0.0151010
906.155	0.0150089
906.233	0.0150699
906.311	0.0150181
906.389	0.0150335
906.467	0.0150967
906.545	0.0152177
906.623	0.0150301
906.701	0.0149725
906.780	0.0150833
906.858	0.0150272
906.936	0.0150721
907.014	0.0149780
907.092	0.0150362
907.170	0.0150762
907.248	0.0148655
907.326	0.0149776
907.405	0.0149024
907.483	0.0149654
907.561	0.0149654
907.639	0.0149447
907.717	0.0149876
907.795	0.0149577
907.873	0.0149038
907.951	0.0149885
908.030	0.0149747
908.108	0.0150505
908.186	0.0150035
908.264	0.0150851
908.342	0.0149574
908.420	0.0150022
908.498	0.0151169
908.576	0.0150962
908.655	0.0148808
908.733	0.0150745
908.811	0.0151971
908.889	0.0149503
908.967	0.0151685
909.045	0.0151589
909.123	0.0152285
909.201	0.0151441
909.280	0.0151831
909.358	0.0151559
909.436	0.0152260
909.514	0.0152222
909.592	0.0150675
909.670	0.0152264
909.748	0.0152619
909.826	0.0153146
909.905	0.0152759
909.983	0.0151157
910.061	0.0152133
910.139	0.0150916
910.217	0.0153717
910.295	0.0152275
910.373	0.0152535
910.451	0.0153362
910.530	0.0152830
910.608	0.0151976
910.686	0.0152560
910.764	0.0153169
910.842	0.0151524
910.920	0.0151742
910.998	0.0152009
911.076	0.0152603
911.155	0.0152155
911.233	0.0152174
911.311	0.0152798
911.389	0.0152349
911.467	0.0152157
911.545	0.0151487
911.623	0.0151485
911.701	0.0152110
911.780	0.0149953
911.858	0.0151268
911.936	0.0151860
912.014	0.0150813
912.092	0.0150802
912.170	0.0150821
912.248	0.0151833
912.326	0.0150537
912.405	0.0150825
912.483	0.0151452
912.561	0.0151210
912.639	0.0151773
912.717	0.0152621
912.795	0.0152479
912.873	0.0151247
912.951	0.0153322
913.030	0.0153554
913.108	0.0152805
913.186	0.0153228
913.264	0.0152774
913.342	0.0152231
913.420	0.0152451
913.498	0.0153789
913.576	0.0153909
913.655	0.0154230
913.733	0.0153307
913.811	0.0151891
913.889	0.0152524
913.967	0.0154127
914.045	0.0153283
914.123	0.0152420
914.201	0.0152734
914.280	0.0152854
914.358	0.0152456
914.436	0.0153416
914.514	0.0151491
914.592	0.0151208
914.670	0.0150302
914.748	0.0152010
914.826	0.0151139
914.905	0.0150692
914.983	0.0152774
915.061	0.0152298
915.139	0.0151633
915.217	0.0151184
915.295	0.0150174
915.373	0.0151483
915.451	0.0152116
915.530	0.0153242
915.608	0.0151897
915.686	0.0151804
915.764	0.0152665
915.842	0.0152113
915.920	0.0152197
915.998	0.0152122
916.076	0.0153384
916.155	0.0152684
916.233	0.0151752
916.311	0.0152969
916.389	0.0153875
916.467	0.0152456
916.545	0.0152574
916.623	0.0152911
916.701	0.0152934
916.780	0.0154166
916.858	0.0151036
916.936	0.0152531
917.014	0.0153110
917.092	0.0154508
917.170	0.0153508
917.248	0.0151952
917.326	0.0153113
917.405	0.0152544
917.483	0.0152592
917.561	0.0152341
917.639	0.0151810
917.717	0.0152022
917.795	0.0151231
917.873	0.0152357
917.951	0.0149957
918.030	0.0151145
918.108	0.0152622
918.186	0.0151286
918.264	0.0150313
918.342	0.0151274
918.420	0.0150651
918.498	0.0151458
918.576	0.0151989
918.655	0.0151279
918.733	0.0149884
918.811	0.0150443
918.889	0.0151997
918.967	0.0151533
919.045	0.0151334
919.123	0.0150113
919.201	0.0150908
919.280	0.0150285
919.358	0.0151322
919.436	0.0150729
919.514	0.0150309
919.592	0.0150696
919.670	0.0150906
919.748	0.0150591
919.826	0.0150083
919.905	0.0149836
919.983	0.0150836
920.061	0.0149833
920.139	0.0150006
920.217	0.0150543
920.295	0.0150282
920.373	0.0149313
920.451	0.0149770
920.530	0.0148914
920.608	0.0149316
920.686	0.0149017
920.764	0.0148181
920.842	0.0149258
920.920	0.0149930
920.998	0.0149236
921.076	0.0149883
921.155	0.0150646
921.233	0.0149900
921.311	0.0149680
921.389	0.0149596
921.467	0.0149258
921.545	0.0148650
921.623	0.0150022
921.701	0.0149504
921.780	0.0149192
921.858	0.0148481
921.936	0.0149567
922.014	0.0148690
922.092	0.0149648
922.170	0.0150024
922.248	0.0150687
922.326	0.0148893
922.405	0.0150444
922.483	0.0148890
922.561	0.0150307
922.639	0.0149770
922.717	0.0149974
922.795	0.0150731
922.873	0.0149911
922.951	0.0149802
923.030	0.0149183
923.108	0.0149550
923.186	0.0149786
923.264	0.0149931
923.342	0.0150733
923.420	0.0151274
923.498	0.0150388
923.576	0.0151018
923.655	0.0150208
923.733	0.0151604
923.811	0.0152069
923.889	0.0151497
923.967	0.0151970
924.045	0.0152598
924.123	0.0151907
924.201	0.0150996
924.280	0.0149320
924.358	0.0151539
924.436	0.0151305
924.514	0.0152417
924.592	0.0151246
924.670	0.0152463
924.748	0.0152315
924.826	0.0152721
924.905	0.0152917
924.983	0.0152940
925.061	0.0153145
925.139	0.0152103
925.217	0.0153942
925.295	0.0153043
925.373	0.0151597
925.451	0.0150291
925.530	0.0151770
925.608	0.0151176
925.686	0.0151308
925.764	0.0151167
925.842	0.0152033
925.920	0.0152872
925.998	0.0151944
926.076	0.0151224
926.155	0.0150899
926.233	0.0151240
926.311	0.0152548
926.389	0.0151414
926.467	0.0151790
926.545	0.0151941
926.623	0.0151106
926.701	0.0151212
926.780	0.0150605
926.858	0.0152037
926.936	0.0151353
927.014	0.0151888
927.092	0.0152821
927.170	0.0152917
927.248	0.0152097
927.326	0.0152936
927.405	0.0152119
927.483	0.0153637
927.561	0.0153380
927.639	0.0153629
927.717	0.0152535
927.795	0.0152777
927.873	0.0153852
927.951	0.0152969
928.030	0.0151620
928.108	0.0152266
928.186	0.0153882
928.264	0.0153023
928.342	0.0151740
928.420	0.0152876
928.498	0.0152670
928.576	0.0152336
928.655	0.0152647
928.733	0.0152638
928.811	0.0152397
928.889	0.0152135
928.967	0.0152476
929.045	0.0152638
929.123	0.0153716
929.201	0.0154004
929.280	0.0152650
929.358	0.0154504
929.436	0.0153486
929.514	0.0153745
929.592	0.0152962
929.670	0.0153107
929.748	0.0153596
929.826	0.0153087
929.905	0.0153799
929.983	0.0153539
930.061	0.0152875
930.139	0.0152846
930.217	0.0153069
930.295	0.0151907
930.373	0.0152647
930.451	0.0152381
930.530	0.0151508
930.608	0.0152171
930.686	0.0152071
930.764	0.0150718
930.842	0.0152561
930.920	0.0153337
930.998	0.0150737
931.076	0.0150259
931.155	0.0151131
931.233	0.0151337
931.311	0.0150609
931.389	0.0151873
931.467	0.0149691
931.545	0.0150543
931.623	0.0150395
931.701	0.0151540
931.780	0.0149789
931.858	0.0150494
931.936	0.0153714
932.014	0.0150922
932.092	0.0149754
932.170	0.0151637
932.248	0.0151643
932.326	0.0151199
932.405	0.0151865
932.483	0.0150961
932.561	0.0151711
932.639	0.0151821
932.717	0.0152046
932.795	0.0152003
932.873	0.0152385
932.951	0.0152512
933.030	0.0152244
933.108	0.0152192
933.186	0.0151405
933.264	0.0152814
933.342	0.0152222
933.420	0.0151856
933.498	0.0151730
933.576	0.0151309
933.655	0.0152065
933.733	0.0151571
933.811	0.0152046
933.889	0.0152052
933.967	0.0152376
934.045	0.0151717
934.123	0.0151762
934.201	0.0151780
934.280	0.0151243
934.358	0.0152411
934.436	0.0153130
934.514	0.0153348
934.592	0.0151131
934.670	0.0152808
934.748	0.0151977
934.826	0.0152082
934.905	0.0153033
934.983	0.0152325
935.061	0.0151347
935.139	0.0152011
935.217	0.0152210
935.295	0.0152397
935.373	0.0152422
935.451	0.0151074
935.530	0.0153043
935.608	0.0152572
935.686	0.0151997
935.764	0.0152605
935.842	0.0152718
935.920	0.0153159
935.998	0.0152208
936.076	0.0151946
936.155	0.0153191
936.233	0.0153947
936.311	0.0154238
936.389	0.0153493
936.467	0.0154179
936.545	0.0154847
936.623	0.0153400
936.701	0.0153494
936.780	0.0153146
936.858	0.0153631
936.936	0.0152776
937.014	0.0153036
937.092	0.0154019
937.170	0.0153704
937.248	0.0153574
937.326	0.0153769
937.405	0.0154547
937.483	0.0154190
937.561	0.0154166
937.639	0.0152647
937.717	0.0154507
937.795	0.0155159
937.873	0.0153744
937.951	0.0152295
938.030	0.0153533
938.108	0.0154446
938.186	0.0153549
938.264	0.0153661
938.342	0.0152229
938.420	0.0151999
938.498	0.0153722
938.576	0.0154365
938.655	0.0152725
938.733	0.0152969
938.811	0.0152421
938.889	0.0153500
938.967	0.0151537
939.045	0.0152422
939.123	0.0152781
939.201	0.0152036
939.280	0.0151006
939.358	0.0151483
939.436	0.0151979
939.514	0.0150877
939.592	0.0151035
939.670	0.0150417
939.748	0.0149734
939.826	0.0149603
939.905	0.0150751
939.983	0.0148441
940.061	0.0149399
940.139	0.0151331
940.217	0.0150605
940.295	0.0150553
940.373	0.0150865
940.451	0.0150195
940.530	0.0149380
940.608	0.0150455
940.686	0.0150321
940.764	0.0151175
940.842	0.0150570
940.920	0.0149575
940.998	0.0149993
941.076	0.0150688
941.155	0.0151174
941.233	0.0151937
941.311	0.0151744
941.389	0.0151960
941.467	0.0151159
941.545	0.0152538
941.623	0.0152985
941.701	0.0153027
941.780	0.0153336
941.858	0.0152930
941.936	0.0152822
942.014	0.0153528
942.092	0.0154879
942.170	0.0153051
942.248	0.0153291
942.326	0.0153387
942.405	0.0153152
942.483	0.0153391
942.561	0.0152697
942.639	0.0153593
942.717	0.0152078
942.795	0.0151886
942.873	0.0154250
942.951	0.0151772
943.030	0.0152659
943.108	0.0153633
943.186	0.0151638
943.264	0.0152850
943.342	0.0152372
943.420	0.0152139
943.498	0.0151579
943.576	0.0152393
943.655	0.0152423
943.733	0.0153276
943.811	0.0151016
943.889	0.0151814
943.967	0.0152411
944.045	0.0152043
944.123	0.0152057
944.201	0.0152469
944.280	0.0152861
944.358	0.0152463
944.436	0.0151436
944.514	0.0151243
944.592	0.0153190
944.670	0.0152382
944.748	0.0151753
944.826	0.0151209
944.905	0.0152163
944.983	0.0151265
945.061	0.0151283
945.139	0.0150903
945.217	0.0152283
945.295	0.0150555
945.373	0.0151933
945.451	0.0153487
945.530	0.0151450
945.608	0.0150994
945.686	0.0152267
945.764	0.0153072
945.842	0.0152426
945.920	0.0151428
945.998	0.0152382
946.076	0.0151022
946.155	0.0152703
946.233	0.0151887
946.311	0.0152605
946.389	0.0152826
946.467	0.0152450
946.545	0.0152643
946.623	0.0152332
946.701	0.0152165
946.780	0.0151073
946.858	0.0153252
946.936	0.0153617
947.014	0.0153175
947.092	0.0152195
947.170	0.0153792
947.248	0.0151781
947.326	0.0151547
947.405	0.0152069
947.483	0.0152764
947.561	0.0152450
947.639	0.0151543
947.717	0.0152045
947.795	0.0152406
947.873	0.0152525
947.951	0.0152504
948.030	0.0151272
948.108	0.0150951
948.186	0.0151160
948.264	0.0151809
948.342	0.0151910
948.420	0.0150315
948.498	0.0151358
948.576	0.0151419
948.655	0.0149946
948.733	0.0151562
948.811	0.0150928
948.889	0.0150025
948.967	0.0151428
949.045	0.0151867
949.123	0.0152448
949.201	0.0151259
949.280	0.0151917
949.358	0.0151975
949.436	0.0150400
949.514	0.0152122
949.592	0.0152167
949.670	0.0150785
949.748	0.0152625
949.826	0.0152420
949.905	0.0151853
949.983	0.0153870
950.061	0.0152782
950.139	0.0152766
950.217	0.0153567
950.295	0.0153985
950.373	0.0151805
950.451	0.0153974
950.530	0.0152856
950.608	0.0152400
950.686	0.0152123
950.764	0.0151837
950.842	0.0152518
950.920	0.0152605
950.998	0.0153031
951.076	0.0153282
951.155	0.0153940
951.233	0.0153222
951.311	0.0152447
951.389	0.0152221
951.467	0.0152787
951.545	0.0152727
951.623	0.0152709
951.701	0.0153139
951.780	0.0152179
951.858	0.0152979
951.936	0.0152856
952.014	0.0151789
952.092	0.0153423
952.170	0.0152275
952.248	0.0151530
952.326	0.0152704
952.405	0.0151300
952.483	0.0151133
952.561	0.0151919
952.639	0.0152190
952.717	0.0152381
952.795	0.0151048
952.873	0.0151266
952.951	0.0151920
953.030	0.0152106
953.108	0.0152381
953.186	0.0152499
953.264	0.0152628
953.342	0.0151236
953.420	0.0152807
953.498	0.0153529
953.576	0.0153441
953.655	0.0152962
953.733	0.0153382
953.811	0.0153116
953.889	0.0152461
953.967	0.0153349
954.045	0.0153527
954.123	0.0153837
954.201	0.0153407
954.280	0.0152744
954.358	0.0152643
954.436	0.0153316
954.514	0.0151431
954.592	0.0153284
954.670	0.0152108
954.748	0.0151713
954.826	0.0152087
954.905	0.0152571
954.983	0.0152554
955.061	0.0153299
955.139	0.0152853
955.217	0.0152357
955.295	0.0152601
955.373	0.0152344
955.451	0.0151720
955.530	0.0152747
955.608	0.0153333
955.686	0.0151465
955.764	0.0153385
955.842	0.0154553
955.920	0.0152745
955.998	0.0153281
956.076	0.0153312
956.155	0.0152374
956.233	0.0154000
956.311	0.0153656
956.389	0.0154293
956.467	0.0153974
956.545	0.0154659
956.623	0.0154710
956.701	0.0154893
956.780	0.0154636
956.858	0.0154592
956.936	0.0153918
957.014	0.0154454
957.092	0.0154448
957.170	0.0155013
957.248	0.0153297
957.326	0.0153503
957.405	0.0153189
957.483	0.0154160
957.561	0.0153656
957.639	0.0153629
957.717	0.0154336
957.795	0.0152449
957.873	0.0152892
957.951	0.0153716
958.030	0.0152974
958.108	0.0153754
958.186	0.0154594
958.264	0.0153309
958.342	0.0153683
958.420	0.0153501
958.498	0.0152367
958.576	0.0153046
958.655	0.0153403
958.733	0.0152660
958.811	0.0152396
958.889	0.0152042
958.967	0.0151301
959.045	0.0152261
959.123	0.0151773
959.201	0.0150336
959.280	0.0151623
959.358	0.0151303
959.436	0.0151897
959.514	0.0150585
959.592	0.0149915
959.670	0.0150714
959.748	0.0151383
959.826	0.0152073
959.905	0.0151703
