05/24/2022	19:58:42	Ver.	4.1	UNKNOWN
Optical Delay	580.001249	Delta X		0.078125	Sweeps	1	Scan Rate	0/0
Coordinates	Axis 1	NaN	Axis 2	NaN	Axis 3	NaN	Axis 4	NaN	Axis 5	NaN	Axis 6	0.000000
TX Power	0.000000	RX Power	0.000000

580.001	0.0165620
580.079	0.0166693
580.157	0.0166199
580.236	0.0164966
580.314	0.0165275
580.392	0.0164288
580.470	0.0163766
580.548	0.0165433
580.626	0.0166565
580.704	0.0165369
580.782	0.0165380
580.861	0.0166835
580.939	0.0165428
581.017	0.0167170
581.095	0.0165658
581.173	0.0165105
581.251	0.0165296
581.329	0.0165215
581.407	0.0165610
581.486	0.0165768
581.564	0.0165699
581.642	0.0165561
581.720	0.0166475
581.798	0.0165485
581.876	0.0165628
581.954	0.0164735
582.032	0.0165057
582.111	0.0165697
582.189	0.0165828
582.267	0.0166083
582.345	0.0165897
582.423	0.0165387
582.501	0.0166381
582.579	0.0165968
582.657	0.0165702
582.736	0.0166567
582.814	0.0167161
582.892	0.0165874
582.970	0.0164086
583.048	0.0165704
583.126	0.0165352
583.204	0.0165962
583.282	0.0165949
583.361	0.0166784
583.439	0.0165788
583.517	0.0166331
583.595	0.0165170
583.673	0.0165180
583.751	0.0166529
583.829	0.0165447
583.907	0.0165899
583.986	0.0164892
584.064	0.0164501
584.142	0.0165868
584.220	0.0166093
584.298	0.0165453
584.376	0.0165331
584.454	0.0164793
584.532	0.0164466
584.611	0.0163844
584.689	0.0165559
584.767	0.0165851
584.845	0.0166874
584.923	0.0165624
585.001	0.0165314
585.079	0.0164602
585.157	0.0164410
585.236	0.0164811
585.314	0.0167137
585.392	0.0166508
585.470	0.0166360
585.548	0.0166185
585.626	0.0165041
585.704	0.0165491
585.782	0.0165247
585.861	0.0163875
585.939	0.0164807
586.017	0.0165526
586.095	0.0164934
586.173	0.0166088
586.251	0.0164585
586.329	0.0165381
586.407	0.0165278
586.486	0.0163946
586.564	0.0164410
586.642	0.0165248
586.720	0.0164748
586.798	0.0165709
586.876	0.0164725
586.954	0.0166363
587.032	0.0166669
587.111	0.0165162
587.189	0.0165414
587.267	0.0164700
587.345	0.0164910
587.423	0.0165626
587.501	0.0165588
587.579	0.0165594
587.657	0.0164439
587.736	0.0164107
587.814	0.0165730
587.892	0.0164971
587.970	0.0164767
588.048	0.0164458
588.126	0.0165165
588.204	0.0165643
588.282	0.0165747
588.361	0.0164368
588.439	0.0163696
588.517	0.0165601
588.595	0.0164726
588.673	0.0164238
588.751	0.0165390
588.829	0.0164894
588.907	0.0165869
588.986	0.0164862
589.064	0.0165993
589.142	0.0164404
589.220	0.0164704
589.298	0.0165497
589.376	0.0165615
589.454	0.0165527
589.532	0.0165518
589.611	0.0165314
589.689	0.0165765
589.767	0.0164912
589.845	0.0164628
589.923	0.0165630
590.001	0.0165424
590.079	0.0165314
590.157	0.0166120
590.236	0.0165266
590.314	0.0166154
590.392	0.0165155
590.470	0.0166647
590.548	0.0165161
590.626	0.0165566
590.704	0.0165515
590.782	0.0164699
590.861	0.0165831
590.939	0.0164860
591.017	0.0166264
591.095	0.0164673
591.173	0.0165728
591.251	0.0165047
591.329	0.0165611
591.407	0.0165316
591.486	0.0163416
591.564	0.0165191
591.642	0.0166736
591.720	0.0164952
591.798	0.0164835
591.876	0.0164001
591.954	0.0166479
592.032	0.0166231
592.111	0.0163731
592.189	0.0163796
592.267	0.0166054
592.345	0.0166522
592.423	0.0165410
592.501	0.0164033
592.579	0.0165813
592.657	0.0164883
592.736	0.0165054
592.814	0.0165845
592.892	0.0166425
592.970	0.0167568
593.048	0.0165499
593.126	0.0165324
593.204	0.0165328
593.282	0.0163978
593.361	0.0165104
593.439	0.0164605
593.517	0.0165095
593.595	0.0164925
593.673	0.0165901
593.751	0.0164940
593.829	0.0165260
593.907	0.0165385
593.986	0.0165742
594.064	0.0165788
594.142	0.0164970
594.220	0.0166013
594.298	0.0165741
594.376	0.0165412
594.454	0.0165421
594.532	0.0165345
594.611	0.0165351
594.689	0.0164886
594.767	0.0165990
594.845	0.0166799
594.923	0.0164774
595.001	0.0163840
595.079	0.0165955
595.157	0.0166422
595.236	0.0166394
595.314	0.0165005
595.392	0.0166443
595.470	0.0164503
595.548	0.0164877
595.626	0.0166865
595.704	0.0164771
595.782	0.0165479
595.861	0.0166269
595.939	0.0164967
596.017	0.0165083
596.095	0.0164890
596.173	0.0165577
596.251	0.0166495
596.329	0.0166022
596.407	0.0164413
596.486	0.0165520
596.564	0.0165125
596.642	0.0165935
596.720	0.0166857
596.798	0.0165929
596.876	0.0164330
596.954	0.0165475
597.032	0.0166440
597.111	0.0166338
597.189	0.0163827
597.267	0.0165437
597.345	0.0166685
597.423	0.0164886
597.501	0.0166026
597.579	0.0166056
597.657	0.0165208
597.736	0.0165624
597.814	0.0165667
597.892	0.0166445
597.970	0.0165708
598.048	0.0166138
598.126	0.0164853
598.204	0.0165385
598.282	0.0165198
598.361	0.0164771
598.439	0.0165956
598.517	0.0165630
598.595	0.0165795
598.673	0.0166197
598.751	0.0165052
598.829	0.0165224
598.907	0.0165187
598.986	0.0165134
599.064	0.0165647
599.142	0.0164765
599.220	0.0164562
599.298	0.0165521
599.376	0.0166730
599.454	0.0166528
599.532	0.0165303
599.611	0.0165365
599.689	0.0165713
599.767	0.0165474
599.845	0.0165275
599.923	0.0164256
600.001	0.0165214
600.079	0.0166733
600.157	0.0166278
600.236	0.0164887
600.314	0.0164698
600.392	0.0164114
600.470	0.0164536
600.548	0.0166022
600.626	0.0165136
600.704	0.0165308
600.782	0.0164267
600.861	0.0164605
600.939	0.0164295
601.017	0.0165347
601.095	0.0165319
601.173	0.0165817
601.251	0.0165059
601.329	0.0166389
601.407	0.0165932
601.486	0.0164610
601.564	0.0164902
601.642	0.0164754
601.720	0.0164794
601.798	0.0166062
601.876	0.0165502
601.954	0.0165809
602.032	0.0166388
602.111	0.0165670
602.189	0.0164541
602.267	0.0165955
602.345	0.0165215
602.423	0.0165378
602.501	0.0165684
602.579	0.0164856
602.657	0.0166424
602.736	0.0165868
602.814	0.0164801
602.892	0.0165061
602.970	0.0166288
603.048	0.0165551
603.126	0.0164990
603.204	0.0165477
603.282	0.0165649
603.361	0.0165611
603.439	0.0165772
603.517	0.0166710
603.595	0.0165046
603.673	0.0165656
603.751	0.0165203
603.829	0.0165121
603.907	0.0165665
603.986	0.0166035
604.064	0.0165868
604.142	0.0165723
604.220	0.0164944
604.298	0.0165670
604.376	0.0165191
604.454	0.0166595
604.532	0.0164623
604.611	0.0165603
604.689	0.0164923
604.767	0.0167094
604.845	0.0165222
604.923	0.0163665
605.001	0.0166081
605.079	0.0166026
605.157	0.0164595
605.236	0.0165759
605.314	0.0166272
605.392	0.0165853
605.470	0.0164855
605.548	0.0165363
605.626	0.0166401
605.704	0.0166689
605.782	0.0166412
605.861	0.0165027
605.939	0.0165150
606.017	0.0165611
606.095	0.0165168
606.173	0.0165900
606.251	0.0166384
606.329	0.0165749
606.407	0.0165285
606.486	0.0164694
606.564	0.0165221
606.642	0.0164077
606.720	0.0165560
606.798	0.0164932
606.876	0.0165668
606.954	0.0164952
607.032	0.0165319
607.111	0.0164090
607.189	0.0165619
607.267	0.0165230
607.345	0.0164944
607.423	0.0166361
607.501	0.0165410
607.579	0.0165611
607.657	0.0165317
607.736	0.0165037
607.814	0.0166822
607.892	0.0164698
607.970	0.0165900
608.048	0.0164979
608.126	0.0166355
608.204	0.0165141
608.282	0.0165067
608.361	0.0165065
608.439	0.0165550
608.517	0.0165948
608.595	0.0164458
608.673	0.0165253
608.751	0.0166541
608.829	0.0165687
608.907	0.0165383
608.986	0.0164073
609.064	0.0164524
609.142	0.0165772
609.220	0.0166309
609.298	0.0165782
609.376	0.0167158
609.454	0.0165619
609.532	0.0164825
609.611	0.0165228
609.689	0.0165174
609.767	0.0165307
609.845	0.0165549
609.923	0.0165818
610.001	0.0165468
610.079	0.0165676
610.157	0.0165555
610.236	0.0165779
610.314	0.0165226
610.392	0.0166676
610.470	0.0165977
610.548	0.0165582
610.626	0.0165995
610.704	0.0164506
610.782	0.0165805
610.861	0.0164529
610.939	0.0165266
611.017	0.0165730
611.095	0.0165556
611.173	0.0165880
611.251	0.0166433
611.329	0.0165462
611.407	0.0165514
611.486	0.0165477
611.564	0.0166013
611.642	0.0165077
611.720	0.0166109
611.798	0.0166808
611.876	0.0166279
611.954	0.0166744
612.032	0.0164849
612.111	0.0167199
612.189	0.0165044
612.267	0.0164326
612.345	0.0165008
612.423	0.0164536
612.501	0.0165927
612.579	0.0166461
612.657	0.0166295
612.736	0.0164931
612.814	0.0164682
612.892	0.0165211
612.970	0.0163262
613.048	0.0166377
613.126	0.0166302
613.204	0.0163120
613.282	0.0165978
613.361	0.0165641
613.439	0.0164999
613.517	0.0165399
613.595	0.0165989
613.673	0.0166772
613.751	0.0166119
613.829	0.0165062
613.907	0.0164941
613.986	0.0165011
614.064	0.0164412
614.142	0.0165943
614.220	0.0166454
614.298	0.0164417
614.376	0.0165052
614.454	0.0166099
614.532	0.0163606
614.611	0.0165066
614.689	0.0166927
614.767	0.0165648
614.845	0.0165041
614.923	0.0165059
615.001	0.0165251
615.079	0.0166120
615.157	0.0166472
615.236	0.0165586
615.314	0.0164754
615.392	0.0166159
615.470	0.0166084
615.548	0.0165789
615.626	0.0163844
615.704	0.0165192
615.782	0.0167078
615.861	0.0165728
615.939	0.0164892
616.017	0.0166149
616.095	0.0166951
616.173	0.0167084
616.251	0.0166066
616.329	0.0165814
616.407	0.0164488
616.486	0.0164397
616.564	0.0164794
616.642	0.0164935
616.720	0.0165881
616.798	0.0166251
616.876	0.0165530
616.954	0.0166120
617.032	0.0165864
617.111	0.0165907
617.189	0.0165589
617.267	0.0165321
617.345	0.0164668
617.423	0.0166091
617.501	0.0167185
617.579	0.0166096
617.657	0.0165243
617.736	0.0164299
617.814	0.0165463
617.892	0.0167428
617.970	0.0165459
618.048	0.0165538
618.126	0.0165379
618.204	0.0165228
618.282	0.0165562
618.361	0.0165344
618.439	0.0164877
618.517	0.0164468
618.595	0.0165376
618.673	0.0165311
618.751	0.0165131
618.829	0.0166651
618.907	0.0165948
618.986	0.0165656
619.064	0.0165499
619.142	0.0165960
619.220	0.0166830
619.298	0.0165862
619.376	0.0164980
619.454	0.0167068
619.532	0.0165182
619.611	0.0163651
619.689	0.0165268
619.767	0.0165412
619.845	0.0165905
619.923	0.0166301
620.001	0.0166616
620.079	0.0166072
620.157	0.0165482
620.236	0.0164711
620.314	0.0166144
620.392	0.0166048
620.470	0.0164897
620.548	0.0165092
620.626	0.0165694
620.704	0.0165225
620.782	0.0165693
620.861	0.0166376
620.939	0.0167693
621.017	0.0164980
621.095	0.0164870
621.173	0.0164448
621.251	0.0164742
621.329	0.0165019
621.407	0.0166655
621.486	0.0164503
621.564	0.0166337
621.642	0.0167007
621.720	0.0166019
621.798	0.0166322
621.876	0.0165460
621.954	0.0165816
622.032	0.0164566
622.111	0.0165028
622.189	0.0165434
622.267	0.0165193
622.345	0.0164817
622.423	0.0165484
622.501	0.0165631
622.579	0.0164752
622.657	0.0165329
622.736	0.0165272
622.814	0.0165479
622.892	0.0165225
622.970	0.0165668
623.048	0.0164455
623.126	0.0164667
623.204	0.0165385
623.282	0.0165606
623.361	0.0165317
623.439	0.0166476
623.517	0.0165115
623.595	0.0166739
623.673	0.0166993
623.751	0.0165449
623.829	0.0166670
623.907	0.0165305
623.986	0.0163924
624.064	0.0165553
624.142	0.0166397
624.220	0.0164837
624.298	0.0165570
624.376	0.0164997
624.454	0.0165293
624.532	0.0164767
624.611	0.0166263
624.689	0.0166135
624.767	0.0166102
624.845	0.0165211
624.923	0.0164896
625.001	0.0166492
625.079	0.0165438
625.157	0.0164838
625.236	0.0165899
625.314	0.0164652
625.392	0.0164649
625.470	0.0166315
625.548	0.0166814
625.626	0.0165819
625.704	0.0166026
625.782	0.0165915
625.861	0.0165273
625.939	0.0166362
626.017	0.0164998
626.095	0.0164608
626.173	0.0165649
626.251	0.0165838
626.329	0.0165504
626.407	0.0165765
626.486	0.0165731
626.564	0.0164867
626.642	0.0163930
626.720	0.0166174
626.798	0.0164584
626.876	0.0165237
626.954	0.0165633
627.032	0.0164786
627.111	0.0164281
627.189	0.0164149
627.267	0.0165300
627.345	0.0164976
627.423	0.0163793
627.501	0.0165520
627.579	0.0166627
627.657	0.0164720
627.736	0.0167122
627.814	0.0165900
627.892	0.0164720
627.970	0.0164435
628.048	0.0164574
628.126	0.0164971
628.204	0.0165170
628.282	0.0166378
628.361	0.0166523
628.439	0.0166404
628.517	0.0165868
628.595	0.0164680
628.673	0.0165885
628.751	0.0164682
628.829	0.0166033
628.907	0.0165659
628.986	0.0166052
629.064	0.0165482
629.142	0.0164104
629.220	0.0165257
629.298	0.0165824
629.376	0.0164886
629.454	0.0164474
629.532	0.0165157
629.611	0.0165233
629.689	0.0166179
629.767	0.0166612
629.845	0.0165791
629.923	0.0165051
630.001	0.0165044
630.079	0.0165578
630.157	0.0165807
630.236	0.0165157
630.314	0.0165637
630.392	0.0165060
630.470	0.0164909
630.548	0.0165475
630.626	0.0165278
630.704	0.0164391
630.782	0.0165863
630.861	0.0165430
630.939	0.0163462
631.017	0.0165274
631.095	0.0164965
631.173	0.0164866
631.251	0.0164945
631.329	0.0164278
631.407	0.0165186
631.486	0.0165224
631.564	0.0164883
631.642	0.0167107
631.720	0.0165434
631.798	0.0166228
631.876	0.0165039
631.954	0.0165263
632.032	0.0165878
632.111	0.0165536
632.189	0.0165363
632.267	0.0165869
632.345	0.0165946
632.423	0.0166336
632.501	0.0167503
632.579	0.0165268
632.657	0.0163993
632.736	0.0165446
632.814	0.0165449
632.892	0.0165204
632.970	0.0164680
633.048	0.0165047
633.126	0.0167316
633.204	0.0165847
633.282	0.0164862
633.361	0.0166528
633.439	0.0164091
633.517	0.0164261
633.595	0.0165441
633.673	0.0166231
633.751	0.0166324
633.829	0.0164632
633.907	0.0164450
633.986	0.0165712
634.064	0.0165517
634.142	0.0165395
634.220	0.0165572
634.298	0.0166472
634.376	0.0165253
634.454	0.0163881
634.532	0.0164126
634.611	0.0166557
634.689	0.0164618
634.767	0.0164338
634.845	0.0166222
634.923	0.0164317
635.001	0.0166042
635.079	0.0166431
635.157	0.0164907
635.236	0.0165262
635.314	0.0165187
635.392	0.0164690
635.470	0.0164513
635.548	0.0165503
635.626	0.0163522
635.704	0.0164264
635.782	0.0167023
635.861	0.0166090
635.939	0.0164338
636.017	0.0165044
636.095	0.0165234
636.173	0.0165214
636.251	0.0163696
636.329	0.0166046
636.407	0.0165682
636.486	0.0164350
636.564	0.0165940
636.642	0.0166587
636.720	0.0163216
636.798	0.0166049
636.876	0.0167353
636.954	0.0165186
637.032	0.0164873
637.111	0.0165717
637.189	0.0165565
637.267	0.0166361
637.345	0.0165990
637.423	0.0166016
637.501	0.0166140
637.579	0.0166806
637.657	0.0166793
637.736	0.0164583
637.814	0.0164325
637.892	0.0165181
637.970	0.0165711
638.048	0.0165739
638.126	0.0164993
638.204	0.0165277
638.282	0.0165243
638.361	0.0165204
638.439	0.0164440
638.517	0.0164332
638.595	0.0166171
638.673	0.0165646
638.751	0.0165637
638.829	0.0166017
638.907	0.0165063
638.986	0.0165561
639.064	0.0164196
639.142	0.0165902
639.220	0.0165508
639.298	0.0165359
639.376	0.0165605
639.454	0.0164625
639.532	0.0165728
639.611	0.0165794
639.689	0.0164418
639.767	0.0165564
639.845	0.0165388
639.923	0.0165069
640.001	0.0165730
640.079	0.0165687
640.157	0.0164902
640.236	0.0165668
640.314	0.0166177
640.392	0.0165877
640.470	0.0164759
640.548	0.0166041
640.626	0.0166508
640.704	0.0164766
640.782	0.0165180
640.861	0.0165424
640.939	0.0165291
641.017	0.0165470
641.095	0.0166288
641.173	0.0165595
641.251	0.0165127
641.329	0.0165034
641.407	0.0166448
641.486	0.0165396
641.564	0.0165541
641.642	0.0165128
641.720	0.0165319
641.798	0.0165962
641.876	0.0165754
641.954	0.0164812
642.032	0.0163989
642.111	0.0165215
642.189	0.0166786
642.267	0.0165771
642.345	0.0164578
642.423	0.0166103
642.501	0.0164799
642.579	0.0164593
642.657	0.0164422
642.736	0.0166010
642.814	0.0164877
642.892	0.0164062
642.970	0.0164860
643.048	0.0164369
643.126	0.0163313
643.204	0.0163789
643.282	0.0166378
643.361	0.0164729
643.439	0.0164199
643.517	0.0165990
643.595	0.0166517
643.673	0.0165099
643.751	0.0165827
643.829	0.0164784
643.907	0.0164568
643.986	0.0166064
644.064	0.0165522
644.142	0.0165921
644.220	0.0164784
644.298	0.0164792
644.376	0.0165001
644.454	0.0165807
644.532	0.0167023
644.611	0.0165396
644.689	0.0164843
644.767	0.0165211
644.845	0.0166016
644.923	0.0164886
645.001	0.0164824
645.079	0.0165991
645.157	0.0166207
645.236	0.0165804
645.314	0.0164903
645.392	0.0165774
645.470	0.0165551
645.548	0.0165461
645.626	0.0165903
645.704	0.0165343
645.782	0.0165993
645.861	0.0165237
645.939	0.0164804
646.017	0.0164408
646.095	0.0166338
646.173	0.0164695
646.251	0.0166426
646.329	0.0165772
646.407	0.0166248
646.486	0.0165373
646.564	0.0165278
646.642	0.0165819
646.720	0.0164469
646.798	0.0165441
646.876	0.0165921
646.954	0.0164182
647.032	0.0167067
647.111	0.0164700
647.189	0.0164106
647.267	0.0163859
647.345	0.0166703
647.423	0.0165907
647.501	0.0164876
647.579	0.0165125
647.657	0.0165096
647.736	0.0166008
647.814	0.0164577
647.892	0.0165773
647.970	0.0165717
648.048	0.0165928
648.126	0.0166536
648.204	0.0164478
648.282	0.0165182
648.361	0.0165215
648.439	0.0164317
648.517	0.0164576
648.595	0.0165733
648.673	0.0165657
648.751	0.0164932
648.829	0.0166407
648.907	0.0165746
648.986	0.0165546
649.064	0.0165688
649.142	0.0165720
649.220	0.0166360
649.298	0.0166442
649.376	0.0164931
649.454	0.0165285
649.532	0.0165909
649.611	0.0165524
649.689	0.0165713
649.767	0.0166573
649.845	0.0165710
649.923	0.0164519
650.001	0.0164256
650.079	0.0164817
650.157	0.0164581
650.236	0.0164099
650.314	0.0166217
650.392	0.0164861
650.470	0.0164238
650.548	0.0165726
650.626	0.0165880
650.704	0.0165219
650.782	0.0164756
650.861	0.0164829
650.939	0.0166448
651.017	0.0165006
651.095	0.0165932
651.173	0.0164284
651.251	0.0165116
651.329	0.0166742
651.407	0.0166146
651.486	0.0166866
651.564	0.0165089
651.642	0.0165022
651.720	0.0165288
651.798	0.0164905
651.876	0.0166254
651.954	0.0165345
652.032	0.0164783
652.111	0.0165675
652.189	0.0165405
652.267	0.0165943
652.345	0.0165146
652.423	0.0164136
652.501	0.0165812
652.579	0.0165402
652.657	0.0165366
652.736	0.0165459
652.814	0.0165025
652.892	0.0165504
652.970	0.0165156
653.048	0.0164151
653.126	0.0165076
653.204	0.0165023
653.282	0.0165799
653.361	0.0164374
653.439	0.0164362
653.517	0.0164529
653.595	0.0166475
653.673	0.0166418
653.751	0.0166605
653.829	0.0164495
653.907	0.0164330
653.986	0.0164733
654.064	0.0165614
654.142	0.0165423
654.220	0.0166492
654.298	0.0165701
654.376	0.0165608
654.454	0.0164778
654.532	0.0165214
654.611	0.0164555
654.689	0.0165938
654.767	0.0164660
654.845	0.0165246
654.923	0.0165631
655.001	0.0165546
655.079	0.0165112
655.157	0.0167445
655.236	0.0164611
655.314	0.0164650
655.392	0.0165492
655.470	0.0165931
655.548	0.0164417
655.626	0.0166977
655.704	0.0165567
655.782	0.0166306
655.861	0.0165375
655.939	0.0163929
656.017	0.0166280
656.095	0.0164418
656.173	0.0164897
656.251	0.0166528
656.329	0.0165128
656.407	0.0165620
656.486	0.0166282
656.564	0.0164433
656.642	0.0164852
656.720	0.0164669
656.798	0.0164889
656.876	0.0165049
656.954	0.0165180
657.032	0.0165379
657.111	0.0163840
657.189	0.0165593
657.267	0.0164217
657.345	0.0165250
657.423	0.0163918
657.501	0.0165413
657.579	0.0165173
657.657	0.0166537
657.736	0.0165552
657.814	0.0165733
657.892	0.0165394
657.970	0.0165154
658.048	0.0165103
658.126	0.0164648
658.204	0.0164283
658.282	0.0165351
658.361	0.0164341
658.439	0.0165019
658.517	0.0166035
658.595	0.0163783
658.673	0.0165854
658.751	0.0165793
658.829	0.0165224
658.907	0.0165211
658.986	0.0165671
659.064	0.0166672
659.142	0.0164558
659.220	0.0165514
659.298	0.0165502
659.376	0.0165376
659.454	0.0165814
659.532	0.0166850
659.611	0.0165466
659.689	0.0167036
659.767	0.0164874
659.845	0.0164828
659.923	0.0166625
660.001	0.0165173
660.079	0.0165221
660.157	0.0164393
660.236	0.0165976
660.314	0.0165424
660.392	0.0163826
660.470	0.0164678
660.548	0.0165420
660.626	0.0165448
660.704	0.0166003
660.782	0.0165518
660.861	0.0164951
660.939	0.0165431
661.017	0.0164616
661.095	0.0166048
661.173	0.0166541
661.251	0.0165279
661.329	0.0163770
661.407	0.0166138
661.486	0.0165292
661.564	0.0165881
661.642	0.0166016
661.720	0.0165098
661.798	0.0165107
661.876	0.0165765
661.954	0.0166401
662.032	0.0166171
662.111	0.0164446
662.189	0.0165506
662.267	0.0165874
662.345	0.0165727
662.423	0.0165994
662.501	0.0165714
662.579	0.0164991
662.657	0.0167228
662.736	0.0166222
662.814	0.0165903
662.892	0.0164566
662.970	0.0164840
663.048	0.0166171
663.126	0.0165517
663.204	0.0166010
663.282	0.0165781
663.361	0.0164162
663.439	0.0166638
663.517	0.0164979
663.595	0.0164774
663.673	0.0163865
663.751	0.0164478
663.829	0.0166231
663.907	0.0165283
663.986	0.0166505
664.064	0.0164801
664.142	0.0166161
664.220	0.0166479
664.298	0.0164649
664.376	0.0164503
664.454	0.0165632
664.532	0.0166082
664.611	0.0166302
664.689	0.0165195
664.767	0.0165221
664.845	0.0166294
664.923	0.0163568
665.001	0.0165864
665.079	0.0165608
665.157	0.0166110
665.236	0.0166515
665.314	0.0166498
665.392	0.0165648
665.470	0.0166199
665.548	0.0164224
665.626	0.0164849
665.704	0.0164805
665.782	0.0166123
665.861	0.0166930
665.939	0.0165865
666.017	0.0164687
666.095	0.0165825
666.173	0.0166567
666.251	0.0165566
666.329	0.0165366
666.407	0.0164391
666.486	0.0165461
666.564	0.0165986
666.642	0.0166838
666.720	0.0165518
666.798	0.0164774
666.876	0.0164204
666.954	0.0165158
667.032	0.0165002
667.111	0.0164662
667.189	0.0165847
667.267	0.0165270
667.345	0.0166461
667.423	0.0165986
667.501	0.0164491
667.579	0.0165829
667.657	0.0164529
667.736	0.0165765
667.814	0.0165201
667.892	0.0164599
667.970	0.0166638
668.048	0.0166328
668.126	0.0164861
668.204	0.0165038
668.282	0.0166035
668.361	0.0165348
668.439	0.0165224
668.517	0.0166315
668.595	0.0166149
668.673	0.0165730
668.751	0.0164426
668.829	0.0166365
668.907	0.0165822
668.986	0.0165085
669.064	0.0164751
669.142	0.0165889
669.220	0.0165061
669.298	0.0166191
669.376	0.0165385
669.454	0.0165086
669.532	0.0164887
669.611	0.0165700
669.689	0.0165437
669.767	0.0165421
669.845	0.0165771
669.923	0.0165448
670.001	0.0165189
670.079	0.0165891
670.157	0.0164591
670.236	0.0166290
670.314	0.0165914
670.392	0.0166454
670.470	0.0165674
670.548	0.0166078
670.626	0.0165258
670.704	0.0165131
670.782	0.0165296
670.861	0.0165837
670.939	0.0164537
671.017	0.0164954
671.095	0.0167273
671.173	0.0166949
671.251	0.0166017
671.329	0.0164656
671.407	0.0164365
671.486	0.0165397
671.564	0.0166467
671.642	0.0165895
671.720	0.0165205
671.798	0.0166298
671.876	0.0166671
671.954	0.0165220
672.032	0.0165158
672.111	0.0165207
672.189	0.0164985
672.267	0.0165188
672.345	0.0165675
672.423	0.0164161
672.501	0.0165781
672.579	0.0165754
672.657	0.0165456
672.736	0.0166183
672.814	0.0165096
672.892	0.0165603
672.970	0.0164204
673.048	0.0166384
673.126	0.0165424
673.204	0.0164716
673.282	0.0164782
673.361	0.0166050
673.439	0.0163882
673.517	0.0164521
673.595	0.0166271
673.673	0.0165971
673.751	0.0164713
673.829	0.0166718
673.907	0.0165523
673.986	0.0164924
674.064	0.0164747
674.142	0.0165999
674.220	0.0165546
674.298	0.0164969
674.376	0.0165551
674.454	0.0165846
674.532	0.0164578
674.611	0.0165441
674.689	0.0167022
674.767	0.0165797
674.845	0.0167112
674.923	0.0166078
675.001	0.0166622
675.079	0.0165613
675.157	0.0165046
675.236	0.0166887
675.314	0.0165585
675.392	0.0165070
675.470	0.0165208
675.548	0.0165825
675.626	0.0164973
675.704	0.0166335
675.782	0.0165767
675.861	0.0164610
675.939	0.0166095
676.017	0.0164537
676.095	0.0165449
676.173	0.0165102
676.251	0.0166518
676.329	0.0165228
676.407	0.0165210
676.486	0.0165307
676.564	0.0165765
676.642	0.0164862
676.720	0.0165341
676.798	0.0166082
676.876	0.0165445
676.954	0.0165894
677.032	0.0165949
677.111	0.0166619
677.189	0.0166107
677.267	0.0165060
677.345	0.0165601
677.423	0.0165542
677.501	0.0165447
677.579	0.0165559
677.657	0.0167107
677.736	0.0165961
677.814	0.0166368
677.892	0.0164571
677.970	0.0165037
678.048	0.0166502
678.126	0.0166031
678.204	0.0166570
678.282	0.0165853
678.361	0.0166985
678.439	0.0165071
678.517	0.0166320
678.595	0.0166829
678.673	0.0165131
678.751	0.0166470
678.829	0.0166297
678.907	0.0165620
678.986	0.0166602
679.064	0.0166685
679.142	0.0164502
679.220	0.0165148
679.298	0.0165102
679.376	0.0166419
679.454	0.0164508
679.532	0.0165501
679.611	0.0164764
679.689	0.0165861
679.767	0.0165575
679.845	0.0165131
679.923	0.0167204
680.001	0.0164320
680.079	0.0165761
680.157	0.0165724
680.236	0.0164452
680.314	0.0164037
680.392	0.0165936
680.470	0.0165268
680.548	0.0164911
680.626	0.0166016
680.704	0.0164410
680.782	0.0166541
680.861	0.0166077
680.939	0.0165834
681.017	0.0166310
681.095	0.0166019
681.173	0.0165574
681.251	0.0165327
681.329	0.0166138
681.407	0.0165564
681.486	0.0165160
681.564	0.0166347
681.642	0.0166376
681.720	0.0166501
681.798	0.0165878
681.876	0.0164991
681.954	0.0166867
682.032	0.0164411
682.111	0.0165260
682.189	0.0166058
682.267	0.0165712
682.345	0.0165056
682.423	0.0164838
682.501	0.0165249
682.579	0.0164687
682.657	0.0164579
682.736	0.0164989
682.814	0.0166010
682.892	0.0165572
682.970	0.0165784
683.048	0.0164026
683.126	0.0163948
683.204	0.0165362
683.282	0.0165129
683.361	0.0165830
683.439	0.0165282
683.517	0.0165662
683.595	0.0166111
683.673	0.0165694
683.751	0.0165022
683.829	0.0164136
683.907	0.0163670
683.986	0.0165733
684.064	0.0164336
684.142	0.0164297
684.220	0.0165289
684.298	0.0164651
684.376	0.0164569
684.454	0.0164143
684.532	0.0165369
684.611	0.0164615
684.689	0.0165067
684.767	0.0164223
684.845	0.0164386
684.923	0.0165985
685.001	0.0166008
685.079	0.0164206
685.157	0.0163997
685.236	0.0165003
685.314	0.0164130
685.392	0.0165423
685.470	0.0164906
685.548	0.0164234
685.626	0.0166053
685.704	0.0166132
685.782	0.0164894
685.861	0.0164699
685.939	0.0166013
686.017	0.0164957
686.095	0.0166040
686.173	0.0165292
686.251	0.0167283
686.329	0.0165196
686.407	0.0166132
686.486	0.0165653
686.564	0.0164645
686.642	0.0163870
686.720	0.0165606
686.798	0.0166579
686.876	0.0167239
686.954	0.0165995
687.032	0.0164412
687.111	0.0164523
687.189	0.0165449
687.267	0.0164972
687.345	0.0164980
687.423	0.0166415
687.501	0.0166256
687.579	0.0165351
687.657	0.0165340
687.736	0.0165125
687.814	0.0164846
687.892	0.0164816
687.970	0.0165689
688.048	0.0166671
688.126	0.0165168
688.204	0.0164127
688.282	0.0164438
688.361	0.0164487
688.439	0.0165866
688.517	0.0163972
688.595	0.0164385
688.673	0.0165316
688.751	0.0165532
688.829	0.0165317
688.907	0.0164474
688.986	0.0164906
689.064	0.0165416
689.142	0.0165297
689.220	0.0165397
689.298	0.0165075
689.376	0.0166321
689.454	0.0166382
689.532	0.0165932
689.611	0.0166801
689.689	0.0166725
689.767	0.0166930
689.845	0.0165477
689.923	0.0165473
690.001	0.0165830
690.079	0.0166285
690.157	0.0166238
690.236	0.0166223
690.314	0.0165926
690.392	0.0164825
690.470	0.0166635
690.548	0.0166246
690.626	0.0164357
690.704	0.0166158
690.782	0.0165464
690.861	0.0165491
690.939	0.0166114
691.017	0.0166905
691.095	0.0166145
691.173	0.0164723
691.251	0.0165821
691.329	0.0165350
691.407	0.0165214
691.486	0.0163852
691.564	0.0166661
691.642	0.0165878
691.720	0.0166600
691.798	0.0166449
691.876	0.0165729
691.954	0.0165901
692.032	0.0165356
692.111	0.0165202
692.189	0.0166149
692.267	0.0168549
692.345	0.0166317
692.423	0.0166550
692.501	0.0166253
692.579	0.0165853
692.657	0.0164097
692.736	0.0166565
692.814	0.0165486
692.892	0.0165579
692.970	0.0164576
693.048	0.0164451
693.126	0.0164267
693.204	0.0164937
693.282	0.0164441
693.361	0.0163907
693.439	0.0164980
693.517	0.0165851
693.595	0.0164105
693.673	0.0164538
693.751	0.0165632
693.829	0.0165218
693.907	0.0165758
693.986	0.0165777
694.064	0.0164606
694.142	0.0165337
694.220	0.0165280
694.298	0.0164841
694.376	0.0165973
694.454	0.0166724
694.532	0.0166994
694.611	0.0166262
694.689	0.0164434
694.767	0.0165961
694.845	0.0164833
694.923	0.0165916
695.001	0.0165332
695.079	0.0166236
695.157	0.0165890
695.236	0.0165509
695.314	0.0165650
695.392	0.0165707
695.470	0.0165994
695.548	0.0164710
695.626	0.0164162
695.704	0.0165707
695.782	0.0166043
695.861	0.0164763
695.939	0.0165625
696.017	0.0166176
696.095	0.0164602
696.173	0.0163695
696.251	0.0163953
696.329	0.0165336
696.407	0.0165029
696.486	0.0165451
696.564	0.0164230
696.642	0.0164743
696.720	0.0164793
696.798	0.0164911
696.876	0.0164515
696.954	0.0165002
697.032	0.0166202
697.111	0.0164901
697.189	0.0166808
697.267	0.0165803
697.345	0.0162862
697.423	0.0163789
697.501	0.0165314
697.579	0.0164841
697.657	0.0164964
697.736	0.0163894
697.814	0.0165233
697.892	0.0165427
697.970	0.0164444
698.048	0.0166673
698.126	0.0165662
698.204	0.0166286
698.282	0.0165386
698.361	0.0166179
698.439	0.0168119
698.517	0.0166407
698.595	0.0166563
698.673	0.0165319
698.751	0.0167690
698.829	0.0166776
698.907	0.0167140
698.986	0.0167070
699.064	0.0166137
699.142	0.0164542
699.220	0.0165170
699.298	0.0164719
699.376	0.0166688
699.454	0.0164041
699.532	0.0165287
699.611	0.0164996
699.689	0.0164935
699.767	0.0164229
699.845	0.0163753
699.923	0.0164198
700.001	0.0163186
700.079	0.0164096
700.157	0.0162865
700.236	0.0162565
700.314	0.0162417
700.392	0.0163380
700.470	0.0163561
700.548	0.0163550
700.626	0.0164132
700.704	0.0164073
700.782	0.0164055
700.861	0.0164472
700.939	0.0164638
701.017	0.0165803
701.095	0.0165423
701.173	0.0164620
701.251	0.0166171
701.329	0.0166144
701.407	0.0165612
701.486	0.0165738
701.564	0.0167292
701.642	0.0167725
701.720	0.0167566
701.798	0.0167050
701.876	0.0166601
701.954	0.0168027
702.032	0.0167968
702.111	0.0167377
702.189	0.0167860
702.267	0.0167010
702.345	0.0167194
702.423	0.0166893
702.501	0.0165618
702.579	0.0167247
702.657	0.0166253
702.736	0.0164761
702.814	0.0165034
702.892	0.0164624
702.970	0.0163926
703.048	0.0164473
703.126	0.0164302
703.204	0.0165098
703.282	0.0164218
703.361	0.0164897
703.439	0.0163145
703.517	0.0164088
703.595	0.0163981
703.673	0.0164683
703.751	0.0163849
703.829	0.0164071
703.907	0.0165865
703.986	0.0164722
704.064	0.0164026
704.142	0.0164220
704.220	0.0163052
704.298	0.0164828
704.376	0.0164345
704.454	0.0165672
704.532	0.0164778
704.611	0.0163887
704.689	0.0164767
704.767	0.0164184
704.845	0.0165221
704.923	0.0165684
705.001	0.0163840
705.079	0.0165696
705.157	0.0167458
705.236	0.0166814
705.314	0.0166442
705.392	0.0166757
705.470	0.0166142
705.548	0.0166463
705.626	0.0167022
705.704	0.0167200
705.782	0.0167442
705.861	0.0167919
705.939	0.0166916
706.017	0.0167313
706.095	0.0166815
706.173	0.0166730
706.251	0.0166580
706.329	0.0167471
706.407	0.0166074
706.486	0.0165363
706.564	0.0165250
706.642	0.0165613
706.720	0.0165400
706.798	0.0164639
706.876	0.0165728
706.954	0.0165491
707.032	0.0165520
707.111	0.0164603
707.189	0.0164729
707.267	0.0163650
707.345	0.0164098
707.423	0.0166621
707.501	0.0165200
707.579	0.0164449
707.657	0.0162315
707.736	0.0163548
707.814	0.0165138
707.892	0.0165498
707.970	0.0164595
708.048	0.0165665
708.126	0.0165578
708.204	0.0163719
708.282	0.0164419
708.361	0.0164314
708.439	0.0164478
708.517	0.0164194
708.595	0.0163770
708.673	0.0164855
708.751	0.0163956
708.829	0.0164343
708.907	0.0165181
708.986	0.0163348
709.064	0.0164566
709.142	0.0164118
709.220	0.0164458
709.298	0.0163865
709.376	0.0164376
709.454	0.0165092
709.532	0.0164101
709.611	0.0164529
709.689	0.0165603
709.767	0.0164999
709.845	0.0166076
709.923	0.0165927
710.001	0.0166454
710.079	0.0166278
710.157	0.0166488
710.236	0.0166301
710.314	0.0167015
710.392	0.0167393
710.470	0.0165927
710.548	0.0166799
710.626	0.0164571
710.704	0.0167165
710.782	0.0166734
710.861	0.0166200
710.939	0.0167673
711.017	0.0166032
711.095	0.0165554
711.173	0.0165465
711.251	0.0166232
711.329	0.0165362
711.407	0.0166039
711.486	0.0166113
711.564	0.0165054
711.642	0.0165868
711.720	0.0166541
711.798	0.0165443
711.876	0.0165563
711.954	0.0165710
712.032	0.0166025
712.111	0.0165664
712.189	0.0166937
712.267	0.0166205
712.345	0.0166073
712.423	0.0166224
712.501	0.0164507
712.579	0.0165660
712.657	0.0164684
712.736	0.0164416
712.814	0.0164713
712.892	0.0164681
712.970	0.0164759
713.048	0.0164891
713.126	0.0165578
713.204	0.0164188
713.282	0.0165411
713.361	0.0165718
713.439	0.0165096
713.517	0.0164723
713.595	0.0165549
713.673	0.0164909
713.751	0.0164922
713.829	0.0165080
713.907	0.0166178
713.986	0.0166111
714.064	0.0165320
714.142	0.0165736
714.220	0.0165041
714.298	0.0165158
714.376	0.0164930
714.454	0.0165155
714.532	0.0165942
714.611	0.0165701
714.689	0.0164657
714.767	0.0165099
714.845	0.0164200
714.923	0.0165322
715.001	0.0164767
715.079	0.0162622
715.157	0.0165388
715.236	0.0165007
715.314	0.0164412
715.392	0.0165438
715.470	0.0165221
715.548	0.0164363
715.626	0.0165614
715.704	0.0165982
715.782	0.0165359
715.861	0.0167239
715.939	0.0164921
716.017	0.0165926
716.095	0.0166443
716.173	0.0165878
716.251	0.0166222
716.329	0.0165343
716.407	0.0164188
716.486	0.0165645
716.564	0.0165081
716.642	0.0165089
716.720	0.0164870
716.798	0.0164792
716.876	0.0165394
716.954	0.0164520
717.032	0.0163677
717.111	0.0164175
717.189	0.0164503
717.267	0.0163858
717.345	0.0163263
717.423	0.0163235
717.501	0.0165092
717.579	0.0164235
717.657	0.0164856
717.736	0.0164210
717.814	0.0164472
717.892	0.0164619
717.970	0.0164787
718.048	0.0164129
718.126	0.0163108
718.204	0.0163744
718.282	0.0164488
718.361	0.0165514
718.439	0.0164725
718.517	0.0163087
718.595	0.0164668
718.673	0.0164051
718.751	0.0164336
718.829	0.0164039
718.907	0.0164603
718.986	0.0165004
719.064	0.0164149
719.142	0.0163757
719.220	0.0165121
719.298	0.0165250
719.376	0.0163773
719.454	0.0165838
719.532	0.0164047
719.611	0.0165066
719.689	0.0165383
719.767	0.0167493
719.845	0.0166023
719.923	0.0166247
720.001	0.0167822
720.079	0.0166525
720.157	0.0165364
720.236	0.0166512
720.314	0.0167402
720.392	0.0167805
720.470	0.0167712
720.548	0.0166297
720.626	0.0167284
720.704	0.0166740
720.782	0.0166662
720.861	0.0164809
720.939	0.0164645
721.017	0.0165247
721.095	0.0166030
721.173	0.0164568
721.251	0.0164516
721.329	0.0164078
721.407	0.0165523
721.486	0.0164611
721.564	0.0164539
721.642	0.0165794
721.720	0.0164671
721.798	0.0164925
721.876	0.0164637
721.954	0.0164407
722.032	0.0164176
722.111	0.0164161
722.189	0.0164264
722.267	0.0166079
722.345	0.0163930
722.423	0.0165298
722.501	0.0164460
722.579	0.0165082
722.657	0.0165086
722.736	0.0163913
722.814	0.0164417
722.892	0.0163953
722.970	0.0164451
723.048	0.0164371
723.126	0.0164412
723.204	0.0163689
723.282	0.0164237
723.361	0.0164050
723.439	0.0164856
723.517	0.0163709
723.595	0.0164754
723.673	0.0165726
723.751	0.0164673
723.829	0.0164846
723.907	0.0165379
723.986	0.0166443
724.064	0.0164380
724.142	0.0163783
724.220	0.0165253
724.298	0.0165988
724.376	0.0166253
724.454	0.0164575
724.532	0.0164972
724.611	0.0165348
724.689	0.0166927
724.767	0.0166845
724.845	0.0167113
724.923	0.0167120
725.001	0.0165318
725.079	0.0165170
725.157	0.0165513
725.236	0.0165647
725.314	0.0166525
725.392	0.0166442
725.470	0.0166132
725.548	0.0165986
725.626	0.0166631
725.704	0.0166534
725.782	0.0165854
725.861	0.0166306
725.939	0.0165673
726.017	0.0166433
726.095	0.0167478
726.173	0.0167358
726.251	0.0166782
726.329	0.0165782
726.407	0.0165868
726.486	0.0166617
726.564	0.0165623
726.642	0.0165420
726.720	0.0164951
726.798	0.0164854
726.876	0.0165466
726.954	0.0164606
727.032	0.0165071
727.111	0.0165343
727.189	0.0163472
727.267	0.0164624
727.345	0.0164021
727.423	0.0164700
727.501	0.0164925
727.579	0.0165823
727.657	0.0165136
727.736	0.0164139
727.814	0.0165325
727.892	0.0165528
727.970	0.0165464
728.048	0.0164956
728.126	0.0166154
728.204	0.0165980
728.282	0.0165857
728.361	0.0166476
728.439	0.0164738
728.517	0.0165087
728.595	0.0165600
728.673	0.0165067
728.751	0.0165047
728.829	0.0165260
728.907	0.0165594
728.986	0.0165263
729.064	0.0163876
729.142	0.0165892
729.220	0.0165138
729.298	0.0164076
729.376	0.0164901
729.454	0.0165113
729.532	0.0166329
729.611	0.0165083
729.689	0.0165575
729.767	0.0164550
729.845	0.0165556
729.923	0.0166854
730.001	0.0165472
730.079	0.0165771
730.157	0.0165202
730.236	0.0165786
730.314	0.0166190
730.392	0.0165509
730.470	0.0165833
730.548	0.0165692
730.626	0.0164958
730.704	0.0164644
730.782	0.0165316
730.861	0.0164787
730.939	0.0163538
731.017	0.0164915
731.095	0.0165118
731.173	0.0165435
731.251	0.0166228
731.329	0.0166875
731.407	0.0165838
731.486	0.0166390
731.564	0.0164236
731.642	0.0166015
731.720	0.0166212
731.798	0.0165034
731.876	0.0166023
731.954	0.0165985
732.032	0.0166604
732.111	0.0166953
732.189	0.0166479
732.267	0.0167372
732.345	0.0165047
732.423	0.0165112
732.501	0.0167179
732.579	0.0165656
732.657	0.0165217
732.736	0.0165683
732.814	0.0166991
732.892	0.0165465
732.970	0.0165963
733.048	0.0165153
733.126	0.0165876
733.204	0.0165348
733.282	0.0163725
733.361	0.0165227
733.439	0.0165810
733.517	0.0165604
733.595	0.0166393
733.673	0.0165330
733.751	0.0164971
733.829	0.0164738
733.907	0.0165952
733.986	0.0166116
734.064	0.0166632
734.142	0.0165884
734.220	0.0164590
734.298	0.0165106
734.376	0.0165214
734.454	0.0166247
734.532	0.0163667
734.611	0.0164201
734.689	0.0165863
734.767	0.0165084
734.845	0.0164815
734.923	0.0165227
735.001	0.0166373
735.079	0.0166180
735.157	0.0164876
735.236	0.0166084
735.314	0.0165562
735.392	0.0164988
735.470	0.0165586
735.548	0.0165616
735.626	0.0164486
735.704	0.0164204
735.782	0.0166824
735.861	0.0166050
735.939	0.0165712
736.017	0.0165289
736.095	0.0165978
736.173	0.0165099
736.251	0.0164406
736.329	0.0165656
736.407	0.0163856
736.486	0.0166315
736.564	0.0166302
736.642	0.0165051
736.720	0.0165619
736.798	0.0165164
736.876	0.0165456
736.954	0.0164502
737.032	0.0164200
737.111	0.0164919
737.189	0.0165059
737.267	0.0165446
737.345	0.0164240
737.423	0.0164746
737.501	0.0164573
737.579	0.0165620
737.657	0.0165538
737.736	0.0164684
737.814	0.0165273
737.892	0.0165122
737.970	0.0163914
738.048	0.0165143
738.126	0.0165746
738.204	0.0165307
738.282	0.0165498
738.361	0.0163913
738.439	0.0166203
738.517	0.0166386
738.595	0.0164905
738.673	0.0165274
738.751	0.0164401
738.829	0.0165910
738.907	0.0164682
738.986	0.0165515
739.064	0.0165723
739.142	0.0166193
739.220	0.0164362
739.298	0.0165964
739.376	0.0165491
739.454	0.0164995
739.532	0.0164748
739.611	0.0165678
739.689	0.0164886
739.767	0.0164880
739.845	0.0164395
739.923	0.0163712
740.001	0.0165426
740.079	0.0164680
740.157	0.0164186
740.236	0.0163532
740.314	0.0164863
740.392	0.0165002
740.470	0.0164824
740.548	0.0164981
740.626	0.0163695
740.704	0.0165270
740.782	0.0164002
740.861	0.0164855
740.939	0.0165302
741.017	0.0166372
741.095	0.0165494
741.173	0.0164799
741.251	0.0164568
741.329	0.0166235
741.407	0.0165575
741.486	0.0165742
741.564	0.0165525
741.642	0.0165947
741.720	0.0166366
741.798	0.0165456
741.876	0.0165157
741.954	0.0165907
742.032	0.0165811
742.111	0.0166577
742.189	0.0164889
742.267	0.0164980
742.345	0.0165342
742.423	0.0166073
742.501	0.0165745
742.579	0.0164869
742.657	0.0165188
742.736	0.0166640
742.814	0.0165559
742.892	0.0165385
742.970	0.0165627
743.048	0.0165046
743.126	0.0166280
743.204	0.0165708
743.282	0.0164796
743.361	0.0165690
743.439	0.0164568
743.517	0.0164667
743.595	0.0164450
743.673	0.0164538
743.751	0.0165628
743.829	0.0164047
743.907	0.0165201
743.986	0.0164574
744.064	0.0164814
744.142	0.0164557
744.220	0.0164622
744.298	0.0163855
744.376	0.0165215
744.454	0.0165634
744.532	0.0164864
744.611	0.0165476
744.689	0.0164537
744.767	0.0164688
744.845	0.0165659
744.923	0.0166636
745.001	0.0165059
745.079	0.0166483
745.157	0.0165238
745.236	0.0166056
745.314	0.0166688
745.392	0.0165437
745.470	0.0165044
745.548	0.0164953
745.626	0.0166384
745.704	0.0166451
745.782	0.0166264
745.861	0.0165446
745.939	0.0166512
746.017	0.0167641
746.095	0.0165951
746.173	0.0165947
746.251	0.0164616
746.329	0.0164400
746.407	0.0165095
746.486	0.0166010
746.564	0.0164906
746.642	0.0163464
746.720	0.0164344
746.798	0.0164256
746.876	0.0164445
746.954	0.0164523
747.032	0.0164496
747.111	0.0163851
747.189	0.0166085
747.267	0.0163654
747.345	0.0164455
747.423	0.0166448
747.501	0.0165846
747.579	0.0165577
747.657	0.0165735
747.736	0.0163518
747.814	0.0163667
747.892	0.0165453
747.970	0.0165221
748.048	0.0166069
748.126	0.0165125
748.204	0.0164866
748.282	0.0165781
748.361	0.0165632
748.439	0.0164975
748.517	0.0164766
748.595	0.0165136
748.673	0.0165578
748.751	0.0166045
748.829	0.0165628
748.907	0.0165372
748.986	0.0166045
749.064	0.0165118
749.142	0.0165187
749.220	0.0166825
749.298	0.0165536
749.376	0.0165878
749.454	0.0165562
749.532	0.0164433
749.611	0.0164462
749.689	0.0164734
749.767	0.0165773
749.845	0.0166380
749.923	0.0165113
750.001	0.0164146
750.079	0.0165567
750.157	0.0165823
750.236	0.0166392
750.314	0.0166269
750.392	0.0166132
750.470	0.0166260
750.548	0.0164940
750.626	0.0164812
750.704	0.0166302
750.782	0.0165985
750.861	0.0166200
750.939	0.0166011
751.017	0.0165289
751.095	0.0164914
751.173	0.0164689
751.251	0.0165298
751.329	0.0165471
751.407	0.0164323
751.486	0.0163416
751.564	0.0165003
751.642	0.0163582
751.720	0.0165273
751.798	0.0166330
751.876	0.0165654
751.954	0.0165746
752.032	0.0163871
752.111	0.0165583
752.189	0.0164065
752.267	0.0164267
752.345	0.0165887
752.423	0.0165960
752.501	0.0165762
752.579	0.0165952
752.657	0.0166496
752.736	0.0164584
752.814	0.0165898
752.892	0.0165598
752.970	0.0164842
753.048	0.0164460
753.126	0.0165658
753.204	0.0165744
753.282	0.0164214
753.361	0.0165110
753.439	0.0165866
753.517	0.0165183
753.595	0.0165136
753.673	0.0165779
753.751	0.0165664
753.829	0.0165509
753.907	0.0165412
753.986	0.0165234
754.064	0.0164260
754.142	0.0166290
754.220	0.0164914
754.298	0.0166481
754.376	0.0166238
754.454	0.0164774
754.532	0.0165450
754.611	0.0165465
754.689	0.0166486
754.767	0.0166253
754.845	0.0165542
754.923	0.0166021
755.001	0.0165079
755.079	0.0166254
755.157	0.0166553
755.236	0.0165665
755.314	0.0166082
755.392	0.0166463
755.470	0.0166832
755.548	0.0166563
755.626	0.0164504
755.704	0.0166092
755.782	0.0166147
755.861	0.0165240
755.939	0.0166031
756.017	0.0165434
756.095	0.0164616
756.173	0.0165960
756.251	0.0165987
756.329	0.0165486
756.407	0.0165243
756.486	0.0164648
756.564	0.0164355
756.642	0.0166752
756.720	0.0165676
756.798	0.0164217
756.876	0.0164430
756.954	0.0165254
757.032	0.0165402
757.111	0.0166098
757.189	0.0165623
757.267	0.0165343
757.345	0.0163908
757.423	0.0163233
757.501	0.0164198
757.579	0.0165377
757.657	0.0164908
757.736	0.0165604
757.814	0.0165497
757.892	0.0164327
757.970	0.0164809
758.048	0.0165630
758.126	0.0164838
758.204	0.0163927
758.282	0.0164264
758.361	0.0164558
758.439	0.0163245
758.517	0.0165055
758.595	0.0164799
758.673	0.0165649
758.751	0.0164104
758.829	0.0164835
758.907	0.0165552
758.986	0.0164542
759.064	0.0165891
759.142	0.0164469
759.220	0.0165006
759.298	0.0165144
759.376	0.0165700
759.454	0.0165831
759.532	0.0166151
759.611	0.0165588
759.689	0.0166216
759.767	0.0166406
759.845	0.0164676
759.923	0.0165720
760.001	0.0165616
760.079	0.0166299
760.157	0.0166245
760.236	0.0166734
760.314	0.0165684
760.392	0.0165176
760.470	0.0165713
760.548	0.0166245
760.626	0.0166209
760.704	0.0166618
760.782	0.0166354
760.861	0.0165688
760.939	0.0165336
761.017	0.0165009
761.095	0.0164400
761.173	0.0164693
761.251	0.0165081
761.329	0.0165850
761.407	0.0165340
761.486	0.0165015
761.564	0.0165954
761.642	0.0166318
761.720	0.0166276
761.798	0.0167451
761.876	0.0164904
761.954	0.0163806
762.032	0.0164475
762.111	0.0164960
762.189	0.0164537
762.267	0.0166133
762.345	0.0164664
762.423	0.0165331
762.501	0.0166129
762.579	0.0164294
762.657	0.0164747
762.736	0.0164143
762.814	0.0165187
762.892	0.0166349
762.970	0.0164728
763.048	0.0165632
763.126	0.0164529
763.204	0.0164439
763.282	0.0165430
763.361	0.0166923
763.439	0.0164896
763.517	0.0164809
763.595	0.0166505
763.673	0.0164890
763.751	0.0164755
763.829	0.0164673
763.907	0.0165057
763.986	0.0165372
764.064	0.0164730
764.142	0.0167068
764.220	0.0166652
764.298	0.0166525
764.376	0.0165455
764.454	0.0165450
764.532	0.0165391
764.611	0.0165654
764.689	0.0165347
764.767	0.0165365
764.845	0.0164391
764.923	0.0165135
765.001	0.0166309
765.079	0.0165382
765.157	0.0165993
765.236	0.0166526
765.314	0.0165102
765.392	0.0165728
765.470	0.0166566
765.548	0.0165973
765.626	0.0165784
765.704	0.0165864
765.782	0.0167068
765.861	0.0165071
765.939	0.0165862
766.017	0.0166502
766.095	0.0164991
766.173	0.0165194
766.251	0.0166074
766.329	0.0164811
766.407	0.0164156
766.486	0.0164256
766.564	0.0166275
766.642	0.0164211
766.720	0.0163011
766.798	0.0164414
766.876	0.0164471
766.954	0.0164245
767.032	0.0165274
767.111	0.0164331
767.189	0.0163329
767.267	0.0164394
767.345	0.0165173
767.423	0.0166507
767.501	0.0165359
767.579	0.0164247
767.657	0.0164754
767.736	0.0164276
767.814	0.0165993
767.892	0.0165632
767.970	0.0164241
768.048	0.0164820
768.126	0.0164375
768.204	0.0165316
768.282	0.0164127
768.361	0.0164873
768.439	0.0165429
768.517	0.0164270
768.595	0.0164919
768.673	0.0164592
768.751	0.0164876
768.829	0.0165077
768.907	0.0165425
768.986	0.0165024
769.064	0.0165154
769.142	0.0164594
769.220	0.0166186
769.298	0.0165331
769.376	0.0164968
769.454	0.0166213
769.532	0.0166232
769.611	0.0164843
769.689	0.0165128
769.767	0.0165772
769.845	0.0166210
769.923	0.0164805
770.001	0.0165823
770.079	0.0165858
770.157	0.0166800
770.236	0.0165243
770.314	0.0165199
770.392	0.0165444
770.470	0.0165369
770.548	0.0167238
770.626	0.0166396
770.704	0.0164880
770.782	0.0167183
770.861	0.0166049
770.939	0.0165215
771.017	0.0166315
771.095	0.0165495
771.173	0.0166238
771.251	0.0166564
771.329	0.0166102
771.407	0.0165369
771.486	0.0166737
771.564	0.0166553
771.642	0.0165208
771.720	0.0165496
771.798	0.0166214
771.876	0.0165396
771.954	0.0166830
772.032	0.0165922
772.111	0.0165526
772.189	0.0165021
772.267	0.0165265
772.345	0.0167052
772.423	0.0165263
772.501	0.0164121
772.579	0.0165131
772.657	0.0167126
772.736	0.0166309
772.814	0.0165236
772.892	0.0163961
772.970	0.0164511
773.048	0.0166415
773.126	0.0166045
773.204	0.0165020
773.282	0.0166492
773.361	0.0165155
773.439	0.0165414
773.517	0.0165217
773.595	0.0164158
773.673	0.0166197
773.751	0.0165583
773.829	0.0165969
773.907	0.0165544
773.986	0.0164610
774.064	0.0166013
774.142	0.0164459
774.220	0.0164528
774.298	0.0165240
774.376	0.0166791
774.454	0.0166545
774.532	0.0165101
774.611	0.0164983
774.689	0.0165059
774.767	0.0165937
774.845	0.0165754
774.923	0.0164153
775.001	0.0165075
775.079	0.0165670
775.157	0.0166451
775.236	0.0165339
775.314	0.0165982
775.392	0.0165121
775.470	0.0164186
775.548	0.0165173
775.626	0.0166306
775.704	0.0165855
775.782	0.0166124
775.861	0.0166552
775.939	0.0165620
776.017	0.0165889
776.095	0.0167287
776.173	0.0165429
776.251	0.0164461
776.329	0.0165903
776.407	0.0164410
776.486	0.0166291
776.564	0.0165915
776.642	0.0165408
776.720	0.0165182
776.798	0.0164496
776.876	0.0165727
776.954	0.0165607
777.032	0.0165113
777.111	0.0165916
777.189	0.0165552
777.267	0.0165116
777.345	0.0166363
777.423	0.0165723
777.501	0.0167561
777.579	0.0163707
777.657	0.0164307
777.736	0.0166380
777.814	0.0164816
777.892	0.0164925
777.970	0.0165350
778.048	0.0165526
778.126	0.0166238
778.204	0.0166525
778.282	0.0166084
778.361	0.0165401
778.439	0.0165279
778.517	0.0165846
778.595	0.0165117
778.673	0.0164587
778.751	0.0166087
778.829	0.0165313
778.907	0.0164425
778.986	0.0165937
779.064	0.0164826
779.142	0.0164994
779.220	0.0165962
779.298	0.0165265
779.376	0.0164487
779.454	0.0165060
779.532	0.0165993
779.611	0.0166420
779.689	0.0165689
779.767	0.0164938
779.845	0.0165660
779.923	0.0165108
780.001	0.0166402
780.079	0.0163847
780.157	0.0164729
780.236	0.0164740
780.314	0.0166808
780.392	0.0166029
780.470	0.0165714
780.548	0.0166837
780.626	0.0165091
780.704	0.0165051
780.782	0.0165494
780.861	0.0164503
780.939	0.0165273
781.017	0.0166281
781.095	0.0165549
781.173	0.0165215
781.251	0.0166994
781.329	0.0166365
781.407	0.0165604
781.486	0.0165845
781.564	0.0164490
781.642	0.0164526
781.720	0.0165701
781.798	0.0166329
781.876	0.0164834
781.954	0.0165418
782.032	0.0165815
782.111	0.0166404
782.189	0.0166386
782.267	0.0165591
782.345	0.0164492
782.423	0.0165121
782.501	0.0166109
782.579	0.0165855
782.657	0.0164926
782.736	0.0165394
782.814	0.0165043
782.892	0.0165797
782.970	0.0166020
783.048	0.0165031
783.126	0.0165435
783.204	0.0165469
783.282	0.0165276
783.361	0.0166499
783.439	0.0165472
783.517	0.0166405
783.595	0.0164555
783.673	0.0165453
783.751	0.0165916
783.829	0.0165074
783.907	0.0166457
783.986	0.0166185
784.064	0.0166128
784.142	0.0165547
784.220	0.0165369
784.298	0.0165150
784.376	0.0165040
784.454	0.0165701
784.532	0.0165296
784.611	0.0166048
784.689	0.0166231
784.767	0.0165818
784.845	0.0165731
784.923	0.0163861
785.001	0.0165802
785.079	0.0166325
785.157	0.0164662
785.236	0.0165015
785.314	0.0165362
785.392	0.0166042
785.470	0.0163624
785.548	0.0165556
785.626	0.0164963
785.704	0.0165553
785.782	0.0164951
785.861	0.0165572
785.939	0.0165606
786.017	0.0166751
786.095	0.0165596
786.173	0.0165687
786.251	0.0166636
786.329	0.0166131
786.407	0.0165306
786.486	0.0165009
786.564	0.0163690
786.642	0.0165268
786.720	0.0166215
786.798	0.0163877
786.876	0.0164735
786.954	0.0165080
787.032	0.0164275
787.111	0.0166159
787.189	0.0165478
787.267	0.0165072
787.345	0.0165018
787.423	0.0166206
787.501	0.0164137
787.579	0.0165597
787.657	0.0165429
787.736	0.0166289
787.814	0.0166479
787.892	0.0165548
787.970	0.0164452
788.048	0.0164051
788.126	0.0165040
788.204	0.0165154
788.282	0.0165189
788.361	0.0166217
788.439	0.0165466
788.517	0.0165392
788.595	0.0166254
788.673	0.0165360
788.751	0.0165543
788.829	0.0164659
788.907	0.0164232
788.986	0.0166023
789.064	0.0164939
789.142	0.0164375
789.220	0.0165186
789.298	0.0166018
789.376	0.0165402
789.454	0.0165501
789.532	0.0164751
789.611	0.0165446
789.689	0.0164544
789.767	0.0166531
789.845	0.0163403
789.923	0.0165137
790.001	0.0165334
790.079	0.0166898
790.157	0.0166177
790.236	0.0165566
790.314	0.0165146
790.392	0.0165668
790.470	0.0165523
790.548	0.0165613
790.626	0.0164973
790.704	0.0166597
790.782	0.0166325
790.861	0.0166358
790.939	0.0164614
791.017	0.0164458
791.095	0.0164871
791.173	0.0165917
791.251	0.0165939
791.329	0.0166460
791.407	0.0164699
791.486	0.0165762
791.564	0.0164075
791.642	0.0165371
791.720	0.0165709
791.798	0.0165587
791.876	0.0165221
791.954	0.0166435
792.032	0.0165283
792.111	0.0165237
792.189	0.0164906
792.267	0.0165790
792.345	0.0164923
792.423	0.0165465
792.501	0.0165013
792.579	0.0165599
792.657	0.0167345
792.736	0.0165427
792.814	0.0165148
792.892	0.0165839
792.970	0.0165285
793.048	0.0165079
793.126	0.0165436
793.204	0.0165012
793.282	0.0164207
793.361	0.0165762
793.439	0.0165867
793.517	0.0165762
793.595	0.0164448
793.673	0.0163897
793.751	0.0165268
793.829	0.0165108
793.907	0.0164961
793.986	0.0164776
794.064	0.0165856
794.142	0.0166204
794.220	0.0164788
794.298	0.0165908
794.376	0.0165929
794.454	0.0164616
794.532	0.0164867
794.611	0.0165122
794.689	0.0166502
794.767	0.0164190
794.845	0.0166235
794.923	0.0165250
795.001	0.0165695
795.079	0.0164365
795.157	0.0164882
795.236	0.0165724
795.314	0.0165227
795.392	0.0165088
795.470	0.0165673
795.548	0.0165266
795.626	0.0166581
795.704	0.0164971
795.782	0.0165469
795.861	0.0164875
795.939	0.0164926
796.017	0.0165495
796.095	0.0165369
796.173	0.0167069
796.251	0.0165646
796.329	0.0164923
796.407	0.0166313
796.486	0.0164111
796.564	0.0166046
796.642	0.0166374
796.720	0.0165485
796.798	0.0164279
796.876	0.0165898
796.954	0.0164735
797.032	0.0165785
797.111	0.0164548
797.189	0.0164499
797.267	0.0164474
797.345	0.0164925
797.423	0.0164230
797.501	0.0163647
797.579	0.0163709
797.657	0.0166004
797.736	0.0164816
797.814	0.0164499
797.892	0.0163713
797.970	0.0165072
798.048	0.0165359
798.126	0.0164451
798.204	0.0165466
798.282	0.0166108
798.361	0.0165844
798.439	0.0165887
798.517	0.0165141
798.595	0.0164461
798.673	0.0164770
798.751	0.0165573
798.829	0.0165931
798.907	0.0164697
798.986	0.0164870
799.064	0.0165471
799.142	0.0166089
799.220	0.0165409
799.298	0.0166805
799.376	0.0166270
799.454	0.0165850
799.532	0.0165063
799.611	0.0164386
799.689	0.0165411
799.767	0.0165949
799.845	0.0165724
799.923	0.0164922
800.001	0.0163445
800.079	0.0164504
800.157	0.0167190
800.236	0.0167063
800.314	0.0164966
800.392	0.0165221
800.470	0.0165026
800.548	0.0164786
800.626	0.0165764
800.704	0.0165199
800.782	0.0165261
800.861	0.0165258
800.939	0.0164321
801.017	0.0165736
801.095	0.0165435
801.173	0.0165078
801.251	0.0166335
801.329	0.0166252
801.407	0.0165610
801.486	0.0164708
801.564	0.0166774
801.642	0.0166243
801.720	0.0165000
801.798	0.0165644
801.876	0.0165577
801.954	0.0165610
802.032	0.0165516
802.111	0.0165727
802.189	0.0166217
802.267	0.0165933
802.345	0.0165686
802.423	0.0165195
802.501	0.0164364
802.579	0.0167061
802.657	0.0164634
802.736	0.0165201
802.814	0.0166121
802.892	0.0166029
802.970	0.0166264
803.048	0.0165875
803.126	0.0166222
803.204	0.0166412
803.282	0.0167068
803.361	0.0166450
803.439	0.0166020
803.517	0.0164052
803.595	0.0164997
803.673	0.0166693
803.751	0.0165373
803.829	0.0165472
803.907	0.0163773
803.986	0.0163532
804.064	0.0164719
804.142	0.0165583
804.220	0.0165443
804.298	0.0166914
804.376	0.0166177
804.454	0.0164582
804.532	0.0164848
804.611	0.0164111
804.689	0.0164257
804.767	0.0164673
804.845	0.0165263
804.923	0.0165986
805.001	0.0165507
805.079	0.0165451
805.157	0.0165866
805.236	0.0163425
805.314	0.0165774
805.392	0.0166000
805.470	0.0165308
805.548	0.0165979
805.626	0.0167023
805.704	0.0165182
805.782	0.0165221
805.861	0.0167442
805.939	0.0166756
806.017	0.0166750
806.095	0.0164988
806.173	0.0166399
806.251	0.0166797
806.329	0.0165466
806.407	0.0164920
806.486	0.0165563
806.564	0.0165840
806.642	0.0165063
806.720	0.0164346
806.798	0.0165454
806.876	0.0165418
806.954	0.0165173
807.032	0.0165524
807.111	0.0166916
807.189	0.0165772
807.267	0.0165863
807.345	0.0166073
807.423	0.0166748
807.501	0.0165910
807.579	0.0166823
807.657	0.0164900
807.736	0.0166509
807.814	0.0165334
807.892	0.0166418
807.970	0.0166726
808.048	0.0164938
808.126	0.0165824
808.204	0.0166415
808.282	0.0165862
808.361	0.0166570
808.439	0.0165701
808.517	0.0164439
808.595	0.0165240
808.673	0.0165547
808.751	0.0166517
808.829	0.0165752
808.907	0.0164596
808.986	0.0163972
809.064	0.0165901
809.142	0.0164851
809.220	0.0165172
809.298	0.0164408
809.376	0.0164232
809.454	0.0165572
809.532	0.0164928
809.611	0.0166267
809.689	0.0165525
809.767	0.0164608
809.845	0.0167281
809.923	0.0165237
810.001	0.0164230
810.079	0.0165857
810.157	0.0165768
810.236	0.0166172
810.314	0.0163799
810.392	0.0165424
810.470	0.0164971
810.548	0.0164552
810.626	0.0164163
810.704	0.0164934
810.782	0.0164778
810.861	0.0164897
810.939	0.0163635
811.017	0.0164823
811.095	0.0165654
811.173	0.0164050
811.251	0.0165387
811.329	0.0164143
811.407	0.0165148
811.486	0.0165259
811.564	0.0165742
811.642	0.0165456
811.720	0.0165295
811.798	0.0164697
811.876	0.0165173
811.954	0.0167193
812.032	0.0165955
812.111	0.0166960
812.189	0.0165885
812.267	0.0165611
812.345	0.0165081
812.423	0.0164120
812.501	0.0165253
812.579	0.0165040
812.657	0.0164980
812.736	0.0165417
812.814	0.0165820
812.892	0.0165625
812.970	0.0163516
813.048	0.0164259
813.126	0.0164668
813.204	0.0165479
813.282	0.0164469
813.361	0.0164734
813.439	0.0164685
813.517	0.0164787
813.595	0.0166858
813.673	0.0165687
813.751	0.0163609
813.829	0.0165485
813.907	0.0165930
813.986	0.0165634
814.064	0.0165581
814.142	0.0166199
814.220	0.0165861
814.298	0.0165759
814.376	0.0166029
814.454	0.0165794
814.532	0.0164951
814.611	0.0165736
814.689	0.0164956
814.767	0.0165450
814.845	0.0165687
814.923	0.0164700
815.001	0.0164502
815.079	0.0165356
815.157	0.0165657
815.236	0.0166019
815.314	0.0164446
815.392	0.0165845
815.470	0.0164188
815.548	0.0164938
815.626	0.0166992
815.704	0.0164809
815.782	0.0165257
815.861	0.0166724
815.939	0.0166044
816.017	0.0164658
816.095	0.0164835
816.173	0.0165000
816.251	0.0164106
816.329	0.0165286
816.407	0.0164581
816.486	0.0164188
816.564	0.0164066
816.642	0.0163670
816.720	0.0164193
816.798	0.0163708
816.876	0.0162558
816.954	0.0163529
817.032	0.0163071
817.111	0.0163519
817.189	0.0163316
817.267	0.0164163
817.345	0.0163731
817.423	0.0163957
817.501	0.0164374
817.579	0.0165529
817.657	0.0166737
817.736	0.0166120
817.814	0.0167155
817.892	0.0167625
817.970	0.0167809
818.048	0.0166870
818.126	0.0167439
818.204	0.0167558
818.282	0.0166973
818.361	0.0167572
818.439	0.0166698
818.517	0.0168195
818.595	0.0165627
818.673	0.0165186
818.751	0.0167063
818.829	0.0165419
818.907	0.0165250
818.986	0.0165405
819.064	0.0164978
819.142	0.0165245
819.220	0.0163940
819.298	0.0162825
819.376	0.0164047
819.454	0.0164207
819.532	0.0163538
819.611	0.0163838
819.689	0.0162586
819.767	0.0163388
819.845	0.0162492
819.923	0.0163424
820.001	0.0163307
820.079	0.0163746
820.157	0.0163654
820.236	0.0163649
820.314	0.0164510
820.392	0.0164001
820.470	0.0163763
820.548	0.0164112
820.626	0.0164476
820.704	0.0165766
820.782	0.0164007
820.861	0.0165739
820.939	0.0164888
821.017	0.0165205
821.095	0.0166321
821.173	0.0165975
821.251	0.0165289
821.329	0.0165742
821.407	0.0165106
821.486	0.0165772
821.564	0.0167747
821.642	0.0167445
821.720	0.0165404
821.798	0.0167870
821.876	0.0168526
821.954	0.0166740
822.032	0.0165669
822.111	0.0166779
822.189	0.0165462
822.267	0.0165687
822.345	0.0166155
822.423	0.0165186
822.501	0.0164771
822.579	0.0163763
822.657	0.0164752
822.736	0.0165050
822.814	0.0164728
822.892	0.0164412
822.970	0.0165326
823.048	0.0164783
823.126	0.0163647
823.204	0.0163378
823.282	0.0163394
823.361	0.0164199
823.439	0.0163978
823.517	0.0163362
823.595	0.0164635
823.673	0.0165432
823.751	0.0164661
823.829	0.0165126
823.907	0.0165757
823.986	0.0166254
824.064	0.0164787
824.142	0.0165392
824.220	0.0165036
824.298	0.0165870
824.376	0.0166525
824.454	0.0165557
824.532	0.0164917
824.611	0.0164802
824.689	0.0164940
824.767	0.0165992
824.845	0.0165873
824.923	0.0166902
825.001	0.0165502
825.079	0.0166611
825.157	0.0165462
825.236	0.0165929
825.314	0.0163270
825.392	0.0165213
825.470	0.0163634
825.548	0.0165390
825.626	0.0165442
825.704	0.0164442
825.782	0.0165308
825.861	0.0164709
825.939	0.0164355
826.017	0.0164492
826.095	0.0164517
826.173	0.0164551
826.251	0.0164486
826.329	0.0163881
826.407	0.0163860
826.486	0.0164330
826.564	0.0165891
826.642	0.0166093
826.720	0.0164882
826.798	0.0164824
826.876	0.0166261
826.954	0.0166656
827.032	0.0166770
827.111	0.0167731
827.189	0.0166645
827.267	0.0166288
827.345	0.0165975
827.423	0.0167793
827.501	0.0166399
827.579	0.0166013
827.657	0.0166749
827.736	0.0165989
827.814	0.0166404
827.892	0.0164832
827.970	0.0166039
828.048	0.0165446
828.126	0.0164758
828.204	0.0164310
828.282	0.0163663
828.361	0.0164030
828.439	0.0163184
828.517	0.0163574
828.595	0.0164098
828.673	0.0163750
828.751	0.0164400
828.829	0.0164141
828.907	0.0164553
828.986	0.0164444
829.064	0.0164638
829.142	0.0164239
829.220	0.0163781
829.298	0.0165249
829.376	0.0165483
829.454	0.0165985
829.532	0.0164517
829.611	0.0165089
829.689	0.0165781
829.767	0.0166145
829.845	0.0165778
829.923	0.0165093
830.001	0.0166003
830.079	0.0165379
830.157	0.0165689
830.236	0.0165139
830.314	0.0165578
830.392	0.0166094
830.470	0.0165817
830.548	0.0166455
830.626	0.0167267
830.704	0.0167142
830.782	0.0165125
830.861	0.0166280
830.939	0.0167062
831.017	0.0167052
831.095	0.0166788
831.173	0.0166124
831.251	0.0167249
831.329	0.0167822
831.407	0.0165737
831.486	0.0166491
831.564	0.0166704
831.642	0.0165923
831.720	0.0166331
831.798	0.0164604
831.876	0.0164775
831.954	0.0165218
832.032	0.0165215
832.111	0.0164759
832.189	0.0163888
832.267	0.0163424
832.345	0.0162672
832.423	0.0163625
832.501	0.0163618
832.579	0.0163357
832.657	0.0163277
832.736	0.0163385
832.814	0.0164336
832.892	0.0163661
832.970	0.0164342
833.048	0.0165104
833.126	0.0165398
833.204	0.0166511
833.282	0.0165558
833.361	0.0167323
833.439	0.0165978
833.517	0.0165507
833.595	0.0166196
833.673	0.0166781
833.751	0.0166802
833.829	0.0167397
833.907	0.0167700
833.986	0.0166593
834.064	0.0167313
834.142	0.0166769
834.220	0.0166187
834.298	0.0167109
834.376	0.0166117
834.454	0.0166660
834.532	0.0164889
834.611	0.0166508
834.689	0.0166091
834.767	0.0165914
834.845	0.0165326
834.923	0.0165626
835.001	0.0164396
835.079	0.0167105
835.157	0.0164506
835.236	0.0164677
835.314	0.0164556
835.392	0.0163419
835.470	0.0164716
835.548	0.0165723
835.626	0.0164105
835.704	0.0163837
835.782	0.0163755
835.861	0.0163516
835.939	0.0164109
836.017	0.0165813
836.095	0.0165928
836.173	0.0166034
836.251	0.0166057
836.329	0.0166555
836.407	0.0165620
836.486	0.0166903
836.564	0.0166866
836.642	0.0166296
836.720	0.0165885
836.798	0.0165669
836.876	0.0165663
836.954	0.0166081
837.032	0.0166563
837.111	0.0166403
837.189	0.0165077
837.267	0.0165891
837.345	0.0165773
837.423	0.0164777
837.501	0.0165134
837.579	0.0163924
837.657	0.0163247
837.736	0.0163898
837.814	0.0164876
837.892	0.0164785
837.970	0.0165678
838.048	0.0165201
838.126	0.0164906
838.204	0.0164037
838.282	0.0166000
838.361	0.0166518
838.439	0.0163437
838.517	0.0165556
838.595	0.0165216
838.673	0.0164311
838.751	0.0166725
838.829	0.0164970
838.907	0.0164573
838.986	0.0165862
839.064	0.0165987
839.142	0.0164400
839.220	0.0163662
839.298	0.0164741
839.376	0.0166922
839.454	0.0165850
839.532	0.0165938
839.611	0.0165923
839.689	0.0165794
839.767	0.0165580
839.845	0.0165286
839.923	0.0164300
840.001	0.0165450
840.079	0.0165882
840.157	0.0165040
840.236	0.0165950
840.314	0.0166249
840.392	0.0164246
840.470	0.0165818
840.548	0.0164925
840.626	0.0165426
840.704	0.0163663
840.782	0.0166088
840.861	0.0164694
840.939	0.0165294
841.017	0.0166656
841.095	0.0165950
841.173	0.0167102
841.251	0.0166566
841.329	0.0165393
841.407	0.0166009
841.486	0.0166205
841.564	0.0166583
841.642	0.0165717
841.720	0.0165446
841.798	0.0166411
841.876	0.0165044
841.954	0.0164774
842.032	0.0165352
842.111	0.0165645
842.189	0.0164832
842.267	0.0166296
842.345	0.0163952
842.423	0.0164664
842.501	0.0165994
842.579	0.0164944
842.657	0.0163273
842.736	0.0163616
842.814	0.0165418
842.892	0.0165211
842.970	0.0164703
843.048	0.0165357
843.126	0.0164833
843.204	0.0164924
843.282	0.0164078
843.361	0.0165047
843.439	0.0165707
843.517	0.0166196
843.595	0.0165531
843.673	0.0164919
843.751	0.0164054
843.829	0.0165745
843.907	0.0164941
843.986	0.0164408
844.064	0.0165911
844.142	0.0165932
844.220	0.0165464
844.298	0.0164837
844.376	0.0166216
844.454	0.0166705
844.532	0.0165304
844.611	0.0165898
844.689	0.0165923
844.767	0.0166924
844.845	0.0166026
844.923	0.0166508
845.001	0.0167117
845.079	0.0167168
845.157	0.0164769
845.236	0.0164766
845.314	0.0165165
845.392	0.0165632
845.470	0.0166655
845.548	0.0165221
845.626	0.0164687
845.704	0.0166360
845.782	0.0165646
845.861	0.0165499
845.939	0.0166041
846.017	0.0166080
846.095	0.0166365
846.173	0.0165608
846.251	0.0165291
846.329	0.0165965
846.407	0.0165432
846.486	0.0166429
846.564	0.0165677
846.642	0.0166714
846.720	0.0165244
846.798	0.0166486
846.876	0.0166021
846.954	0.0166075
847.032	0.0165575
847.111	0.0164860
847.189	0.0165027
847.267	0.0166280
847.345	0.0164566
847.423	0.0165650
847.501	0.0165434
847.579	0.0165465
847.657	0.0165419
847.736	0.0166594
847.814	0.0166871
847.892	0.0165855
847.970	0.0164940
848.048	0.0165743
848.126	0.0166856
848.204	0.0165305
848.282	0.0165556
848.361	0.0166304
848.439	0.0167365
848.517	0.0166029
848.595	0.0167073
848.673	0.0167150
848.751	0.0166515
848.829	0.0165661
848.907	0.0166965
848.986	0.0164256
849.064	0.0165301
849.142	0.0165781
849.220	0.0165798
849.298	0.0164436
849.376	0.0165455
849.454	0.0164272
849.532	0.0163973
849.611	0.0164694
849.689	0.0163764
849.767	0.0164582
849.845	0.0164208
849.923	0.0165091
850.001	0.0164510
850.079	0.0164549
850.157	0.0164162
850.236	0.0164729
850.314	0.0164615
850.392	0.0162479
850.470	0.0164432
850.548	0.0164462
850.626	0.0164725
850.704	0.0164368
850.782	0.0165742
850.861	0.0165092
850.939	0.0163881
851.017	0.0163425
851.095	0.0165428
851.173	0.0166601
851.251	0.0166224
851.329	0.0165312
851.407	0.0167521
851.486	0.0164333
851.564	0.0166412
851.642	0.0166508
851.720	0.0166458
851.798	0.0166788
851.876	0.0166460
851.954	0.0168401
852.032	0.0166862
852.111	0.0167395
852.189	0.0166673
852.267	0.0167687
852.345	0.0167027
852.423	0.0166519
852.501	0.0167061
852.579	0.0165604
852.657	0.0167288
852.736	0.0166779
852.814	0.0166788
852.892	0.0164162
852.970	0.0166312
853.048	0.0165932
853.126	0.0165821
853.204	0.0165598
853.282	0.0166401
853.361	0.0166343
853.439	0.0165350
853.517	0.0166078
853.595	0.0165413
853.673	0.0166898
853.751	0.0165690
853.829	0.0165540
853.907	0.0164737
853.986	0.0165260
854.064	0.0164554
854.142	0.0163567
854.220	0.0164778
854.298	0.0165437
854.376	0.0165004
854.454	0.0164609
854.532	0.0163442
854.611	0.0164106
854.689	0.0164056
854.767	0.0163539
854.845	0.0164545
854.923	0.0163307
855.001	0.0163655
855.079	0.0163111
855.157	0.0163087
855.236	0.0163784
855.314	0.0162406
855.392	0.0164159
855.470	0.0163667
855.548	0.0165466
855.626	0.0164119
855.704	0.0163698
855.782	0.0164371
855.861	0.0165959
855.939	0.0166207
856.017	0.0165343
856.095	0.0164345
856.173	0.0165501
856.251	0.0165733
856.329	0.0166238
856.407	0.0167591
856.486	0.0167187
856.564	0.0167651
856.642	0.0166418
856.720	0.0166785
856.798	0.0166973
856.876	0.0167262
856.954	0.0166692
857.032	0.0166850
857.111	0.0167041
857.189	0.0167138
857.267	0.0167702
857.345	0.0167175
857.423	0.0167142
857.501	0.0167896
857.579	0.0166277
857.657	0.0167426
857.736	0.0167549
857.814	0.0167326
857.892	0.0167478
857.970	0.0166444
858.048	0.0167370
858.126	0.0167456
858.204	0.0166769
858.282	0.0167317
858.361	0.0166036
858.439	0.0166360
858.517	0.0166523
858.595	0.0167087
858.673	0.0166093
858.751	0.0165346
858.829	0.0165427
858.907	0.0164207
858.986	0.0165176
859.064	0.0163572
859.142	0.0164452
859.220	0.0165366
859.298	0.0164363
859.376	0.0163478
859.454	0.0162809
859.532	0.0164257
859.611	0.0163985
859.689	0.0165041
859.767	0.0163821
859.845	0.0164355
859.923	0.0163636
860.001	0.0164031
860.079	0.0164336
860.157	0.0165693
860.236	0.0165795
860.314	0.0165536
860.392	0.0164873
860.470	0.0165358
860.548	0.0165664
860.626	0.0167336
860.704	0.0167348
860.782	0.0166161
860.861	0.0165809
860.939	0.0166946
861.017	0.0165897
861.095	0.0166747
861.173	0.0167921
861.251	0.0168393
861.329	0.0166560
861.407	0.0167382
861.486	0.0166416
861.564	0.0165193
861.642	0.0166077
861.720	0.0166038
861.798	0.0165469
861.876	0.0167001
861.954	0.0165519
862.032	0.0164750
862.111	0.0165899
862.189	0.0165567
862.267	0.0165042
862.345	0.0164409
862.423	0.0164611
862.501	0.0164491
862.579	0.0163927
862.657	0.0164819
862.736	0.0164344
862.814	0.0165577
862.892	0.0164453
862.970	0.0165628
863.048	0.0164674
863.126	0.0164641
863.204	0.0163850
863.282	0.0163056
863.361	0.0163824
863.439	0.0164436
863.517	0.0165484
863.595	0.0165805
863.673	0.0163935
863.751	0.0164783
863.829	0.0164658
863.907	0.0164285
863.986	0.0163838
864.064	0.0164663
864.142	0.0166917
864.220	0.0165740
864.298	0.0165935
864.376	0.0164995
864.454	0.0166025
864.532	0.0166870
864.611	0.0166106
864.689	0.0168201
864.767	0.0167071
864.845	0.0165290
864.923	0.0167246
865.001	0.0167677
865.079	0.0166431
865.157	0.0167255
865.236	0.0167575
865.314	0.0167480
865.392	0.0167241
865.470	0.0166024
865.548	0.0166547
865.626	0.0165882
865.704	0.0166303
865.782	0.0166518
865.861	0.0167281
865.939	0.0166092
866.017	0.0165851
866.095	0.0166184
866.173	0.0165705
866.251	0.0166424
866.329	0.0165456
866.407	0.0165517
866.486	0.0164991
866.564	0.0165199
866.642	0.0164259
866.720	0.0164046
866.798	0.0164635
866.876	0.0164211
866.954	0.0163489
867.032	0.0162737
867.111	0.0163470
867.189	0.0164429
867.267	0.0163001
867.345	0.0163768
867.423	0.0162819
867.501	0.0163608
867.579	0.0164449
867.657	0.0163364
867.736	0.0161990
867.814	0.0163275
867.892	0.0162843
867.970	0.0162026
868.048	0.0162895
868.126	0.0162688
868.204	0.0163080
868.282	0.0164836
868.361	0.0165841
868.439	0.0164586
868.517	0.0164680
868.595	0.0166744
868.673	0.0166048
868.751	0.0164378
868.829	0.0166518
868.907	0.0168178
868.986	0.0167015
869.064	0.0166434
869.142	0.0166769
869.220	0.0166154
869.298	0.0166116
869.376	0.0166605
869.454	0.0167455
869.532	0.0167090
869.611	0.0167387
869.689	0.0167313
869.767	0.0167223
869.845	0.0167719
869.923	0.0166808
870.001	0.0166923
870.079	0.0167793
870.157	0.0167589
870.236	0.0166336
870.314	0.0166219
870.392	0.0166277
870.470	0.0166873
870.548	0.0167136
870.626	0.0165852
870.704	0.0164045
870.782	0.0166309
870.861	0.0168097
870.939	0.0165381
871.017	0.0165289
871.095	0.0165482
871.173	0.0163831
871.251	0.0164246
871.329	0.0165822
871.407	0.0164783
871.486	0.0163776
871.564	0.0164706
871.642	0.0163457
871.720	0.0164889
871.798	0.0163590
871.876	0.0163575
871.954	0.0163404
872.032	0.0162720
872.111	0.0163844
872.189	0.0164411
872.267	0.0164740
872.345	0.0164346
872.423	0.0163454
872.501	0.0165488
872.579	0.0165490
872.657	0.0164628
872.736	0.0164833
872.814	0.0167613
872.892	0.0166364
872.970	0.0164738
873.048	0.0165268
873.126	0.0165818
873.204	0.0167299
873.282	0.0166883
873.361	0.0165898
873.439	0.0166152
873.517	0.0165659
873.595	0.0165097
873.673	0.0165085
873.751	0.0165462
873.829	0.0165465
873.907	0.0165960
873.986	0.0164279
874.064	0.0164732
874.142	0.0165582
874.220	0.0164929
874.298	0.0165348
874.376	0.0166162
874.454	0.0165045
874.532	0.0165717
874.611	0.0164911
874.689	0.0163584
874.767	0.0164492
874.845	0.0166127
874.923	0.0165865
875.001	0.0166216
875.079	0.0164764
875.157	0.0165882
875.236	0.0166614
875.314	0.0166096
875.392	0.0166621
875.470	0.0166938
875.548	0.0165994
875.626	0.0164648
875.704	0.0165492
875.782	0.0165144
875.861	0.0165757
875.939	0.0166250
876.017	0.0166212
876.095	0.0165898
876.173	0.0165022
876.251	0.0165302
876.329	0.0165031
876.407	0.0165073
876.486	0.0166946
876.564	0.0165428
876.642	0.0166000
876.720	0.0163593
876.798	0.0164257
876.876	0.0166364
876.954	0.0164818
877.032	0.0166408
877.111	0.0165965
877.189	0.0165519
877.267	0.0165543
877.345	0.0165710
877.423	0.0165774
877.501	0.0166339
877.579	0.0165508
877.657	0.0165710
877.736	0.0166995
877.814	0.0166814
877.892	0.0166995
877.970	0.0167048
878.048	0.0165501
878.126	0.0165204
878.204	0.0165840
878.282	0.0165310
878.361	0.0165309
878.439	0.0165954
878.517	0.0163965
878.595	0.0164978
878.673	0.0165206
878.751	0.0164767
878.829	0.0165090
878.907	0.0164551
878.986	0.0164655
879.064	0.0164635
879.142	0.0164058
879.220	0.0165998
879.298	0.0164716
879.376	0.0164404
879.454	0.0165137
879.532	0.0164205
879.611	0.0163930
879.689	0.0163795
879.767	0.0166167
879.845	0.0163821
879.923	0.0165551
880.001	0.0165113
880.079	0.0163583
880.157	0.0165513
880.236	0.0165503
880.314	0.0166261
880.392	0.0166458
880.470	0.0165649
880.548	0.0166307
880.626	0.0165726
880.704	0.0165102
880.782	0.0164838
880.861	0.0165673
880.939	0.0165121
881.017	0.0166013
881.095	0.0166821
881.173	0.0165166
881.251	0.0165229
881.329	0.0165142
881.407	0.0165388
881.486	0.0165608
881.564	0.0165034
881.642	0.0163551
881.720	0.0165884
881.798	0.0165131
881.876	0.0164668
881.954	0.0165353
882.032	0.0165286
882.111	0.0164530
882.189	0.0164465
882.267	0.0165778
882.345	0.0165660
882.423	0.0164878
882.501	0.0163908
882.579	0.0164935
882.657	0.0166560
882.736	0.0165223
882.814	0.0164845
882.892	0.0164773
882.970	0.0165005
883.048	0.0163583
883.126	0.0164639
883.204	0.0164878
883.282	0.0164841
883.361	0.0166629
883.439	0.0164083
883.517	0.0165411
883.595	0.0164508
883.673	0.0165427
883.751	0.0165969
883.829	0.0165140
883.907	0.0167384
883.986	0.0166624
884.064	0.0167615
884.142	0.0166498
884.220	0.0167105
884.298	0.0167269
884.376	0.0165514
884.454	0.0167500
884.532	0.0167134
884.611	0.0165994
884.689	0.0166875
884.767	0.0166270
884.845	0.0165837
884.923	0.0166144
885.001	0.0166352
885.079	0.0165453
885.157	0.0165515
885.236	0.0165749
885.314	0.0166186
885.392	0.0166074
885.470	0.0164802
885.548	0.0165179
885.626	0.0163566
885.704	0.0166463
885.782	0.0164623
885.861	0.0164682
885.939	0.0164367
886.017	0.0164530
886.095	0.0164758
886.173	0.0164380
886.251	0.0164924
886.329	0.0164443
886.407	0.0163732
886.486	0.0165264
886.564	0.0164710
886.642	0.0164394
886.720	0.0164540
886.798	0.0164695
886.876	0.0165198
886.954	0.0163836
887.032	0.0164111
887.111	0.0164843
887.189	0.0163346
887.267	0.0163715
887.345	0.0164183
887.423	0.0164108
887.501	0.0164544
887.579	0.0164410
887.657	0.0165096
887.736	0.0164940
887.814	0.0164594
887.892	0.0166061
887.970	0.0165897
888.048	0.0164034
888.126	0.0165302
888.204	0.0165638
888.282	0.0165463
888.361	0.0165453
888.439	0.0166274
888.517	0.0165298
888.595	0.0165723
888.673	0.0164829
888.751	0.0165794
888.829	0.0164906
888.907	0.0165440
888.986	0.0165523
889.064	0.0166977
889.142	0.0167388
889.220	0.0167785
889.298	0.0167465
889.376	0.0166811
889.454	0.0166657
889.532	0.0168222
889.611	0.0168505
889.689	0.0166799
889.767	0.0167308
889.845	0.0167267
889.923	0.0166872
890.001	0.0165223
890.079	0.0164607
890.157	0.0166704
890.236	0.0164384
890.314	0.0164929
890.392	0.0165057
890.470	0.0164230
890.548	0.0164989
890.626	0.0164722
890.704	0.0164110
890.782	0.0164826
890.861	0.0164415
890.939	0.0163354
891.017	0.0163450
891.095	0.0163159
891.173	0.0164113
891.251	0.0163896
891.329	0.0164135
891.407	0.0165233
891.486	0.0165994
891.564	0.0164059
891.642	0.0166232
891.720	0.0163799
891.798	0.0163715
891.876	0.0165231
891.954	0.0164880
892.032	0.0167678
892.111	0.0166114
892.189	0.0165749
892.267	0.0165649
892.345	0.0164811
892.423	0.0166316
892.501	0.0167206
892.579	0.0166509
892.657	0.0165847
892.736	0.0165570
892.814	0.0166109
892.892	0.0166536
892.970	0.0164706
893.048	0.0166216
893.126	0.0166152
893.204	0.0166397
893.282	0.0165733
893.361	0.0165369
893.439	0.0165089
893.517	0.0166474
893.595	0.0165405
893.673	0.0166349
893.751	0.0166130
893.829	0.0164337
893.907	0.0165918
893.986	0.0166058
894.064	0.0164503
894.142	0.0166268
894.220	0.0166621
894.298	0.0165055
894.376	0.0167317
894.454	0.0166371
894.532	0.0164065
894.611	0.0165611
894.689	0.0166130
894.767	0.0165491
894.845	0.0165815
894.923	0.0165769
895.001	0.0165837
895.079	0.0165407
895.157	0.0166347
895.236	0.0165279
895.314	0.0164562
895.392	0.0165541
895.470	0.0164751
895.548	0.0165251
895.626	0.0164675
895.704	0.0164235
895.782	0.0163576
895.861	0.0165469
895.939	0.0164438
896.017	0.0165125
896.095	0.0164632
896.173	0.0164855
896.251	0.0165406
896.329	0.0164999
896.407	0.0166486
896.486	0.0166022
896.564	0.0165374
896.642	0.0164391
896.720	0.0165536
896.798	0.0165766
896.876	0.0166196
896.954	0.0164088
897.032	0.0163850
897.111	0.0164955
897.189	0.0164411
897.267	0.0166010
897.345	0.0164178
897.423	0.0164084
897.501	0.0164877
897.579	0.0164304
897.657	0.0164425
897.736	0.0163535
897.814	0.0164098
897.892	0.0166010
897.970	0.0164005
898.048	0.0164787
898.126	0.0164677
898.204	0.0164149
898.282	0.0165376
898.361	0.0165675
898.439	0.0164034
898.517	0.0164507
898.595	0.0165025
898.673	0.0164897
898.751	0.0163206
898.829	0.0164920
898.907	0.0165585
898.986	0.0166746
899.064	0.0166055
899.142	0.0164678
899.220	0.0166491
899.298	0.0166491
899.376	0.0165282
899.454	0.0166460
899.532	0.0165783
899.611	0.0165450
899.689	0.0166683
899.767	0.0167128
899.845	0.0166476
899.923	0.0165440
