05/24/2022	20:39:36	Ver.	4.1	UNKNOWN
Optical Delay	599.988409	Delta X		0.078125	Sweeps	1	Scan Rate	0/0
Coordinates	Axis 1	NaN	Axis 2	NaN	Axis 3	NaN	Axis 4	NaN	Axis 5	NaN	Axis 6	0.000000
TX Power	0.000000	RX Power	0.000000

599.988	0.0162490
600.067	0.0163251
600.145	0.0164051
600.223	0.0164787
600.301	0.0165472
600.379	0.0162011
600.457	0.0163144
600.535	0.0162697
600.613	0.0163067
600.692	0.0162939
600.770	0.0163602
600.848	0.0162135
600.926	0.0162083
601.004	0.0161635
601.082	0.0161954
601.160	0.0161927
601.238	0.0162159
601.317	0.0160366
601.395	0.0161861
601.473	0.0162125
601.551	0.0161874
601.629	0.0162755
601.707	0.0164059
601.785	0.0163802
601.863	0.0164159
601.942	0.0163212
602.020	0.0164449
602.098	0.0164353
602.176	0.0164450
602.254	0.0163957
602.332	0.0162897
602.410	0.0164893
602.488	0.0163625
602.567	0.0163358
602.645	0.0163787
602.723	0.0164885
602.801	0.0163343
602.879	0.0163786
602.957	0.0164660
603.035	0.0164219
603.113	0.0163272
603.192	0.0163469
603.270	0.0164195
603.348	0.0163973
603.426	0.0162394
603.504	0.0165063
603.582	0.0165610
603.660	0.0165413
603.738	0.0165762
603.817	0.0164941
603.895	0.0164649
603.973	0.0165443
604.051	0.0165383
604.129	0.0165641
604.207	0.0166257
604.285	0.0166060
604.363	0.0164600
604.442	0.0165398
604.520	0.0166147
604.598	0.0166209
604.676	0.0165513
604.754	0.0165362
604.832	0.0165131
604.910	0.0166357
604.988	0.0164912
605.067	0.0164542
605.145	0.0165398
605.223	0.0164553
605.301	0.0163296
605.379	0.0164297
605.457	0.0164214
605.535	0.0164341
605.613	0.0163239
605.692	0.0164138
605.770	0.0165657
605.848	0.0165372
605.926	0.0164275
606.004	0.0166220
606.082	0.0166772
606.160	0.0167073
606.238	0.0166366
606.317	0.0164996
606.395	0.0166731
606.473	0.0166270
606.551	0.0167270
606.629	0.0165728
606.707	0.0166834
606.785	0.0166499
606.863	0.0167027
606.942	0.0165820
607.020	0.0165353
607.098	0.0165308
607.176	0.0167043
607.254	0.0166154
607.332	0.0164863
607.410	0.0164977
607.488	0.0166133
607.567	0.0165466
607.645	0.0166473
607.723	0.0166694
607.801	0.0168211
607.879	0.0165623
607.957	0.0166474
608.035	0.0166940
608.113	0.0166767
608.192	0.0166375
608.270	0.0165856
608.348	0.0167292
608.426	0.0166350
608.504	0.0167020
608.582	0.0166294
608.660	0.0166286
608.738	0.0166058
608.817	0.0164565
608.895	0.0164972
608.973	0.0165041
609.051	0.0166837
609.129	0.0166315
609.207	0.0166702
609.285	0.0164708
609.363	0.0165283
609.442	0.0164139
609.520	0.0164977
609.598	0.0164369
609.676	0.0163857
609.754	0.0164901
609.832	0.0164664
609.910	0.0163675
609.988	0.0164381
610.067	0.0165123
610.145	0.0164893
610.223	0.0163972
610.301	0.0164309
610.379	0.0164703
610.457	0.0165485
610.535	0.0164667
610.613	0.0164636
610.692	0.0163680
610.770	0.0164848
610.848	0.0163297
610.926	0.0163126
611.004	0.0164433
611.082	0.0163641
611.160	0.0163849
611.238	0.0164635
611.317	0.0163401
611.395	0.0164696
611.473	0.0165018
611.551	0.0164858
611.629	0.0163941
611.707	0.0165321
611.785	0.0164438
611.863	0.0165021
611.942	0.0165740
612.020	0.0166349
612.098	0.0165718
612.176	0.0163801
612.254	0.0165092
612.332	0.0164678
612.410	0.0164112
612.488	0.0164450
612.567	0.0165106
612.645	0.0164621
612.723	0.0163213
612.801	0.0164673
612.879	0.0164317
612.957	0.0163815
613.035	0.0164641
613.113	0.0164633
613.192	0.0165601
613.270	0.0165700
613.348	0.0164495
613.426	0.0164993
613.504	0.0164508
613.582	0.0163749
613.660	0.0166093
613.738	0.0164526
613.817	0.0163065
613.895	0.0164848
613.973	0.0163683
614.051	0.0165495
614.129	0.0164561
614.207	0.0163437
614.285	0.0163831
614.363	0.0165350
614.442	0.0164770
614.520	0.0163403
614.598	0.0164826
614.676	0.0163554
614.754	0.0164937
614.832	0.0164769
614.910	0.0163157
614.988	0.0163256
615.067	0.0162928
615.145	0.0163465
615.223	0.0163673
615.301	0.0163573
615.379	0.0165759
615.457	0.0164008
615.535	0.0163862
615.613	0.0162453
615.692	0.0161931
615.770	0.0164341
615.848	0.0163107
615.926	0.0163067
616.004	0.0162482
616.082	0.0164306
616.160	0.0163387
616.238	0.0162897
616.317	0.0163490
616.395	0.0163677
616.473	0.0163652
616.551	0.0163084
616.629	0.0164136
616.707	0.0163324
616.785	0.0163709
616.863	0.0165482
616.942	0.0166087
617.020	0.0164704
617.098	0.0164733
617.176	0.0165305
617.254	0.0165351
617.332	0.0164487
617.410	0.0164904
617.488	0.0164706
617.567	0.0167378
617.645	0.0165292
617.723	0.0165579
617.801	0.0166766
617.879	0.0165768
617.957	0.0165089
618.035	0.0165948
618.113	0.0164934
618.192	0.0163692
618.270	0.0164162
618.348	0.0165242
618.426	0.0165768
618.504	0.0165866
618.582	0.0165693
618.660	0.0165649
618.738	0.0165337
618.817	0.0164812
618.895	0.0165402
618.973	0.0166068
619.051	0.0166689
619.129	0.0166585
619.207	0.0166497
619.285	0.0166817
619.363	0.0165097
619.442	0.0164536
619.520	0.0165793
619.598	0.0165410
619.676	0.0165913
619.754	0.0165205
619.832	0.0165860
619.910	0.0165121
619.988	0.0164353
620.067	0.0164111
620.145	0.0163166
620.223	0.0163313
620.301	0.0163728
620.379	0.0163611
620.457	0.0162778
620.535	0.0162859
620.613	0.0162714
620.692	0.0162462
620.770	0.0161775
620.848	0.0162486
620.926	0.0162885
621.004	0.0163277
621.082	0.0163399
621.160	0.0163256
621.238	0.0161911
621.317	0.0162935
621.395	0.0162949
621.473	0.0163152
621.551	0.0162385
621.629	0.0162624
621.707	0.0164101
621.785	0.0163063
621.863	0.0163393
621.942	0.0162849
622.020	0.0164056
622.098	0.0164421
622.176	0.0162675
622.254	0.0164140
622.332	0.0161202
622.410	0.0163171
622.488	0.0163055
622.567	0.0162101
622.645	0.0163307
622.723	0.0162845
622.801	0.0162781
622.879	0.0162253
622.957	0.0161386
623.035	0.0163232
623.113	0.0162267
623.192	0.0161083
623.270	0.0161405
623.348	0.0162154
623.426	0.0162163
623.504	0.0162647
623.582	0.0162043
623.660	0.0162942
623.738	0.0162384
623.817	0.0160547
623.895	0.0161665
623.973	0.0162832
624.051	0.0162556
624.129	0.0161236
624.207	0.0161057
624.285	0.0161998
624.363	0.0162637
624.442	0.0161343
624.520	0.0162576
624.598	0.0163316
624.676	0.0164491
624.754	0.0163334
624.832	0.0162623
624.910	0.0164180
624.988	0.0164637
625.067	0.0163953
625.145	0.0165320
625.223	0.0164464
625.301	0.0166361
625.379	0.0165328
625.457	0.0165215
625.535	0.0165081
625.613	0.0164718
625.692	0.0164827
625.770	0.0165329
625.848	0.0166419
625.926	0.0165214
626.004	0.0166402
626.082	0.0165418
626.160	0.0164645
626.238	0.0166001
626.317	0.0166618
626.395	0.0165086
626.473	0.0165993
626.551	0.0165701
626.629	0.0165263
626.707	0.0166769
626.785	0.0164564
626.863	0.0164198
626.942	0.0164194
627.020	0.0164500
627.098	0.0164526
627.176	0.0164882
627.254	0.0163423
627.332	0.0163020
627.410	0.0163300
627.488	0.0165051
627.567	0.0163077
627.645	0.0164644
627.723	0.0164574
627.801	0.0163538
627.879	0.0164055
627.957	0.0164012
628.035	0.0164597
628.113	0.0164677
628.192	0.0165458
628.270	0.0162786
628.348	0.0163847
628.426	0.0163958
628.504	0.0162633
628.582	0.0163877
628.660	0.0164954
628.738	0.0165714
628.817	0.0164590
628.895	0.0164843
628.973	0.0165582
629.051	0.0165491
629.129	0.0164610
629.207	0.0166132
629.285	0.0166154
629.363	0.0164817
629.442	0.0166257
629.520	0.0166078
629.598	0.0164388
629.676	0.0163841
629.754	0.0165060
629.832	0.0164075
629.910	0.0163678
629.988	0.0163116
630.067	0.0162651
630.145	0.0162270
630.223	0.0162327
630.301	0.0163268
630.379	0.0163359
630.457	0.0164287
630.535	0.0164412
630.613	0.0164260
630.692	0.0164178
630.770	0.0166706
630.848	0.0165343
630.926	0.0166895
631.004	0.0167999
631.082	0.0168463
631.160	0.0167803
631.238	0.0168465
631.317	0.0168903
631.395	0.0169492
631.473	0.0169884
631.551	0.0169920
631.629	0.0170848
631.707	0.0170251
631.785	0.0169378
631.863	0.0168315
631.942	0.0167793
632.020	0.0167458
632.098	0.0165822
632.176	0.0165190
632.254	0.0163913
632.332	0.0163871
632.410	0.0162420
632.488	0.0160675
632.567	0.0160104
632.645	0.0159959
632.723	0.0159224
632.801	0.0156886
632.879	0.0157806
632.957	0.0158293
633.035	0.0160034
633.113	0.0158330
633.192	0.0159805
633.270	0.0159860
633.348	0.0161296
633.426	0.0161510
633.504	0.0161374
633.582	0.0162241
633.660	0.0162313
633.738	0.0162801
633.817	0.0163592
633.895	0.0165166
633.973	0.0165374
634.051	0.0165594
634.129	0.0168503
634.207	0.0171238
634.285	0.0170891
634.363	0.0172903
634.442	0.0174075
634.520	0.0175514
634.598	0.0175008
634.676	0.0175486
634.754	0.0176862
634.832	0.0176404
634.910	0.0175574
634.988	0.0174094
635.067	0.0173293
635.145	0.0172806
635.223	0.0170628
635.301	0.0169039
635.379	0.0167313
635.457	0.0165981
635.535	0.0164097
635.613	0.0162419
635.692	0.0160927
635.770	0.0157972
635.848	0.0156770
635.926	0.0155315
636.004	0.0149969
636.082	0.0150539
636.160	0.0148162
636.238	0.0146043
636.317	0.0145671
636.395	0.0145576
636.473	0.0144348
636.551	0.0143701
636.629	0.0145296
636.707	0.0144691
636.785	0.0146937
636.863	0.0149335
636.942	0.0150990
637.020	0.0154533
637.098	0.0156450
637.176	0.0160567
637.254	0.0162796
637.332	0.0166619
637.410	0.0171070
637.488	0.0174203
637.567	0.0177435
637.645	0.0180859
637.723	0.0184143
637.801	0.0186326
637.879	0.0190153
637.957	0.0192068
638.035	0.0193086
638.113	0.0193702
638.192	0.0195627
638.270	0.0195661
638.348	0.0195687
638.426	0.0193865
638.504	0.0191491
638.582	0.0190208
638.660	0.0186693
638.738	0.0182632
638.817	0.0179874
638.895	0.0174397
638.973	0.0170024
639.051	0.0164926
639.129	0.0161058
639.207	0.0157697
639.285	0.0151094
639.363	0.0148810
639.442	0.0144246
639.520	0.0142704
639.598	0.0139217
639.676	0.0136610
639.754	0.0135677
639.832	0.0135369
639.910	0.0133514
639.988	0.0133681
640.067	0.0135611
640.145	0.0137196
640.223	0.0137798
640.301	0.0140583
640.379	0.0143206
640.457	0.0147092
640.535	0.0149141
640.613	0.0154639
640.692	0.0157729
640.770	0.0161825
640.848	0.0167762
640.926	0.0172530
641.004	0.0176689
641.082	0.0180492
641.160	0.0187010
641.238	0.0190638
641.317	0.0194218
641.395	0.0197202
641.473	0.0199367
641.551	0.0200823
641.629	0.0201747
641.707	0.0199174
641.785	0.0198182
641.863	0.0196297
641.942	0.0192923
642.020	0.0191091
642.098	0.0186530
642.176	0.0183034
642.254	0.0178703
642.332	0.0175311
642.410	0.0169531
642.488	0.0168529
642.567	0.0164470
642.645	0.0160334
642.723	0.0157455
642.801	0.0155571
642.879	0.0152112
642.957	0.0148489
643.035	0.0146353
643.113	0.0144534
643.192	0.0143260
643.270	0.0143779
643.348	0.0142621
643.426	0.0143362
643.504	0.0142886
643.582	0.0144570
643.660	0.0147153
643.738	0.0148726
643.817	0.0151224
643.895	0.0152979
643.973	0.0155304
644.051	0.0158839
644.129	0.0159747
644.207	0.0161235
644.285	0.0163525
644.363	0.0163829
644.442	0.0166290
644.520	0.0165318
644.598	0.0166464
644.676	0.0167804
644.754	0.0169092
644.832	0.0167880
644.910	0.0169560
644.988	0.0169055
645.067	0.0169095
645.145	0.0168813
645.223	0.0168823
645.301	0.0168190
645.379	0.0168062
645.457	0.0167084
645.535	0.0166116
645.613	0.0163784
645.692	0.0163380
645.770	0.0163947
645.848	0.0162749
645.926	0.0162675
646.004	0.0163625
646.082	0.0163739
646.160	0.0164725
646.238	0.0166511
646.317	0.0168344
646.395	0.0170019
646.473	0.0170584
646.551	0.0172797
646.629	0.0175918
646.707	0.0178397
646.785	0.0177744
646.863	0.0179735
646.942	0.0179396
647.020	0.0179562
647.098	0.0180563
647.176	0.0179064
647.254	0.0177470
647.332	0.0174922
647.410	0.0174495
647.488	0.0173800
647.567	0.0170871
647.645	0.0168394
647.723	0.0164833
647.801	0.0162514
647.879	0.0161575
647.957	0.0158629
648.035	0.0155777
648.113	0.0154081
648.192	0.0150501
648.270	0.0149619
648.348	0.0147112
648.426	0.0145811
648.504	0.0144880
648.582	0.0141578
648.660	0.0142760
648.738	0.0140933
648.817	0.0140437
648.895	0.0142361
648.973	0.0142566
649.051	0.0143391
649.129	0.0143581
649.207	0.0146545
649.285	0.0148997
649.363	0.0151075
649.442	0.0155098
649.520	0.0157777
649.598	0.0162280
649.676	0.0165190
649.754	0.0169628
649.832	0.0171845
649.910	0.0176767
649.988	0.0179955
650.067	0.0181850
650.145	0.0184144
650.223	0.0187032
650.301	0.0187085
650.379	0.0187682
650.457	0.0188103
650.535	0.0186945
650.613	0.0184877
650.692	0.0184364
650.770	0.0183335
650.848	0.0181228
650.926	0.0177682
651.004	0.0176428
651.082	0.0173843
651.160	0.0172558
651.238	0.0170094
651.317	0.0169408
651.395	0.0165466
651.473	0.0164426
651.551	0.0163701
651.629	0.0159748
651.707	0.0158855
651.785	0.0157206
651.863	0.0155748
651.942	0.0155338
652.020	0.0153759
652.098	0.0152470
652.176	0.0151338
652.254	0.0150769
652.332	0.0150462
652.410	0.0149901
652.488	0.0148689
652.567	0.0151251
652.645	0.0151978
652.723	0.0150742
652.801	0.0151457
652.879	0.0152576
652.957	0.0155093
653.035	0.0155276
653.113	0.0156514
653.192	0.0157310
653.270	0.0157823
653.348	0.0159481
653.426	0.0161260
653.504	0.0162373
653.582	0.0161803
653.660	0.0162794
653.738	0.0164463
653.817	0.0165331
653.895	0.0166455
653.973	0.0168777
654.051	0.0168612
654.129	0.0171220
654.207	0.0172745
654.285	0.0174182
654.363	0.0176663
654.442	0.0179053
654.520	0.0180807
654.598	0.0182448
654.676	0.0184078
654.754	0.0184233
654.832	0.0186101
654.910	0.0185307
654.988	0.0184776
655.067	0.0184328
655.145	0.0184726
655.223	0.0180378
655.301	0.0177831
655.379	0.0175163
655.457	0.0171773
655.535	0.0169220
655.613	0.0167118
655.692	0.0163844
655.770	0.0159982
655.848	0.0155978
655.926	0.0152872
656.004	0.0150491
656.082	0.0149597
656.160	0.0145661
656.238	0.0144691
656.317	0.0143858
656.395	0.0142821
656.473	0.0142024
656.551	0.0141687
656.629	0.0144813
656.707	0.0145314
656.785	0.0143510
656.863	0.0145192
656.942	0.0148217
657.020	0.0150658
657.098	0.0152589
657.176	0.0155368
657.254	0.0157644
657.332	0.0160348
657.410	0.0166327
657.488	0.0167930
657.567	0.0170547
657.645	0.0173615
657.723	0.0176057
657.801	0.0179356
657.879	0.0180979
657.957	0.0183189
658.035	0.0183911
658.113	0.0183492
658.192	0.0182499
658.270	0.0182588
658.348	0.0182990
658.426	0.0181015
658.504	0.0180012
658.582	0.0177707
658.660	0.0177542
658.738	0.0174619
658.817	0.0173026
658.895	0.0171909
658.973	0.0172379
659.051	0.0172665
659.129	0.0170600
659.207	0.0168642
659.285	0.0169081
659.363	0.0166583
659.442	0.0167383
659.520	0.0165909
659.598	0.0165866
659.676	0.0163939
659.754	0.0164684
659.832	0.0163850
659.910	0.0164360
659.988	0.0164061
660.067	0.0164216
660.145	0.0164114
660.223	0.0164106
660.301	0.0164182
660.379	0.0164735
660.457	0.0164441
660.535	0.0163809
660.613	0.0165238
660.692	0.0163708
660.770	0.0162342
660.848	0.0162389
660.926	0.0160774
661.004	0.0161523
661.082	0.0159750
661.160	0.0157852
661.238	0.0157256
661.317	0.0157629
661.395	0.0156049
661.473	0.0156477
661.551	0.0156206
661.629	0.0156438
661.707	0.0155728
661.785	0.0155914
661.863	0.0154935
661.942	0.0154780
662.020	0.0154633
662.098	0.0153760
662.176	0.0155544
662.254	0.0154214
662.332	0.0155437
662.410	0.0154559
662.488	0.0155926
662.567	0.0158341
662.645	0.0159325
662.723	0.0160159
662.801	0.0162273
662.879	0.0162801
662.957	0.0164739
663.035	0.0167413
663.113	0.0171034
663.192	0.0170947
663.270	0.0172151
663.348	0.0174666
663.426	0.0174431
663.504	0.0176151
663.582	0.0178365
663.660	0.0180677
663.738	0.0180924
663.817	0.0180302
663.895	0.0180431
663.973	0.0182049
664.051	0.0182729
664.129	0.0182304
664.207	0.0180367
664.285	0.0179915
664.363	0.0180420
664.442	0.0179181
664.520	0.0176419
664.598	0.0174769
664.676	0.0175350
664.754	0.0172552
664.832	0.0170341
664.910	0.0168313
664.988	0.0166638
665.067	0.0165199
665.145	0.0164333
665.223	0.0164644
665.301	0.0162663
665.379	0.0161494
665.457	0.0161626
665.535	0.0163316
665.613	0.0163675
665.692	0.0164548
665.770	0.0163361
665.848	0.0165018
665.926	0.0164838
666.004	0.0164492
666.082	0.0165549
666.160	0.0166303
666.238	0.0164342
666.317	0.0163572
666.395	0.0163537
666.473	0.0161764
666.551	0.0160523
666.629	0.0159837
666.707	0.0155801
666.785	0.0153194
666.863	0.0151797
666.942	0.0149165
667.020	0.0146011
667.098	0.0144807
667.176	0.0143848
667.254	0.0139836
667.332	0.0138212
667.410	0.0137984
667.488	0.0136485
667.567	0.0135785
667.645	0.0135680
667.723	0.0135621
667.801	0.0136927
667.879	0.0139725
667.957	0.0140932
668.035	0.0143949
668.113	0.0146626
668.192	0.0148296
668.270	0.0150834
668.348	0.0156831
668.426	0.0159726
668.504	0.0163847
668.582	0.0166461
668.660	0.0172506
668.738	0.0176600
668.817	0.0180285
668.895	0.0184394
668.973	0.0187774
669.051	0.0191856
669.129	0.0193819
669.207	0.0197736
669.285	0.0198192
669.363	0.0198843
669.442	0.0199188
669.520	0.0200157
669.598	0.0197507
669.676	0.0198016
669.754	0.0195202
669.832	0.0192008
669.910	0.0190359
669.988	0.0188750
670.067	0.0185537
670.145	0.0181574
670.223	0.0177377
670.301	0.0176890
670.379	0.0172501
670.457	0.0170766
670.535	0.0168250
670.613	0.0167011
670.692	0.0164337
670.770	0.0162563
670.848	0.0160529
670.926	0.0159912
671.004	0.0158453
671.082	0.0155531
671.160	0.0153531
671.238	0.0150826
671.317	0.0149039
671.395	0.0146717
671.473	0.0145358
671.551	0.0143813
671.629	0.0142993
671.707	0.0142231
671.785	0.0139568
671.863	0.0138966
671.942	0.0137795
672.020	0.0137583
672.098	0.0138000
672.176	0.0138179
672.254	0.0138924
672.332	0.0139669
672.410	0.0141560
672.488	0.0144618
672.567	0.0143803
672.645	0.0148714
672.723	0.0150253
672.801	0.0152678
672.879	0.0155366
672.957	0.0158420
673.035	0.0160278
673.113	0.0163042
673.192	0.0166243
673.270	0.0167780
673.348	0.0170902
673.426	0.0173646
673.504	0.0173981
673.582	0.0174627
673.660	0.0176851
673.738	0.0177848
673.817	0.0178449
673.895	0.0178100
673.973	0.0177579
674.051	0.0179153
674.129	0.0177641
674.207	0.0178488
674.285	0.0175955
674.363	0.0173862
674.442	0.0174072
674.520	0.0175043
674.598	0.0172638
674.676	0.0171297
674.754	0.0171462
674.832	0.0172970
674.910	0.0171568
674.988	0.0170454
675.067	0.0171382
675.145	0.0170390
675.223	0.0169869
675.301	0.0169807
675.379	0.0169865
675.457	0.0169398
675.535	0.0169867
675.613	0.0168896
675.692	0.0168034
675.770	0.0168282
675.848	0.0168137
675.926	0.0168234
676.004	0.0169115
676.082	0.0167224
676.160	0.0167263
676.238	0.0169204
676.317	0.0167706
676.395	0.0165012
676.473	0.0165975
676.551	0.0165250
676.629	0.0165004
676.707	0.0163565
676.785	0.0162559
676.863	0.0161009
676.942	0.0161073
677.020	0.0157942
677.098	0.0157014
677.176	0.0156894
677.254	0.0157178
677.332	0.0156665
677.410	0.0157215
677.488	0.0155483
677.567	0.0156399
677.645	0.0157349
677.723	0.0156931
677.801	0.0156873
677.879	0.0156671
677.957	0.0157317
678.035	0.0157803
678.113	0.0158869
678.192	0.0159078
678.270	0.0158041
678.348	0.0158802
678.426	0.0158704
678.504	0.0158954
678.582	0.0158778
678.660	0.0161311
678.738	0.0161126
678.817	0.0161205
678.895	0.0159899
678.973	0.0160870
679.051	0.0162168
679.129	0.0161947
679.207	0.0161248
679.285	0.0161049
679.363	0.0161440
679.442	0.0163062
679.520	0.0163391
679.598	0.0163138
679.676	0.0164426
679.754	0.0165520
679.832	0.0165289
679.910	0.0165604
679.988	0.0165534
680.067	0.0165191
680.145	0.0165745
680.223	0.0166458
680.301	0.0166091
680.379	0.0164708
680.457	0.0166079
680.535	0.0167330
680.613	0.0164745
680.692	0.0165260
680.770	0.0164219
680.848	0.0164398
680.926	0.0164795
681.004	0.0164732
681.082	0.0165526
681.160	0.0167414
681.238	0.0166637
681.317	0.0168289
681.395	0.0170591
681.473	0.0172581
681.551	0.0173264
681.629	0.0173660
681.707	0.0175665
681.785	0.0177107
681.863	0.0177991
681.942	0.0177844
682.020	0.0178824
682.098	0.0179343
682.176	0.0178576
682.254	0.0178334
682.332	0.0178802
682.410	0.0177988
682.488	0.0177455
682.567	0.0174259
682.645	0.0173334
682.723	0.0171590
682.801	0.0169707
682.879	0.0169062
682.957	0.0166791
683.035	0.0167091
683.113	0.0164039
683.192	0.0161800
683.270	0.0160682
683.348	0.0158305
683.426	0.0156074
683.504	0.0154463
683.582	0.0152753
683.660	0.0151904
683.738	0.0151257
683.817	0.0149884
683.895	0.0149600
683.973	0.0147688
684.051	0.0147718
684.129	0.0147565
684.207	0.0146431
684.285	0.0148470
684.363	0.0149182
684.442	0.0149731
684.520	0.0149799
684.598	0.0154092
684.676	0.0156130
684.754	0.0156382
684.832	0.0157405
684.910	0.0159601
684.988	0.0161816
685.067	0.0162105
685.145	0.0164631
685.223	0.0165514
685.301	0.0166867
685.379	0.0166460
685.457	0.0167086
685.535	0.0168514
685.613	0.0169340
685.692	0.0172128
685.770	0.0172285
685.848	0.0173692
685.926	0.0176906
686.004	0.0177091
686.082	0.0177193
686.160	0.0179496
686.238	0.0180343
686.317	0.0181744
686.395	0.0182901
686.473	0.0183507
686.551	0.0183662
686.629	0.0183583
686.707	0.0180404
686.785	0.0178654
686.863	0.0179214
686.942	0.0176769
687.020	0.0174596
687.098	0.0172175
687.176	0.0169788
687.254	0.0168217
687.332	0.0163808
687.410	0.0162706
687.488	0.0161367
687.567	0.0160319
687.645	0.0159840
687.723	0.0158571
687.801	0.0155455
687.879	0.0155565
687.957	0.0155725
688.035	0.0154316
688.113	0.0152204
688.192	0.0154559
688.270	0.0154831
688.348	0.0154734
688.426	0.0155940
688.504	0.0157817
688.582	0.0159558
688.660	0.0160182
688.738	0.0160428
688.817	0.0162625
688.895	0.0164185
688.973	0.0165748
689.051	0.0166572
689.129	0.0168723
689.207	0.0167555
689.285	0.0170826
689.363	0.0170947
689.442	0.0171188
689.520	0.0172325
689.598	0.0171691
689.676	0.0169938
689.754	0.0171915
689.832	0.0172102
689.910	0.0171211
689.988	0.0170407
690.067	0.0169434
690.145	0.0168842
690.223	0.0166146
690.301	0.0165627
690.379	0.0164703
690.457	0.0164143
690.535	0.0161717
690.613	0.0161617
690.692	0.0160739
690.770	0.0158645
690.848	0.0157990
690.926	0.0158305
691.004	0.0158228
691.082	0.0157175
691.160	0.0155479
691.238	0.0156632
691.317	0.0157010
691.395	0.0156003
691.473	0.0156044
691.551	0.0155464
691.629	0.0156400
691.707	0.0156084
691.785	0.0154351
691.863	0.0155703
691.942	0.0157300
692.020	0.0156586
692.098	0.0157240
692.176	0.0158258
692.254	0.0159140
692.332	0.0159222
692.410	0.0160736
692.488	0.0162026
692.567	0.0162786
692.645	0.0161728
692.723	0.0162079
692.801	0.0162180
692.879	0.0164914
692.957	0.0164861
693.035	0.0165470
693.113	0.0166839
693.192	0.0168689
693.270	0.0168160
693.348	0.0167728
693.426	0.0169840
693.504	0.0170563
693.582	0.0169952
693.660	0.0171867
693.738	0.0172549
693.817	0.0172304
693.895	0.0173060
693.973	0.0172285
694.051	0.0172372
694.129	0.0173277
694.207	0.0173298
694.285	0.0172000
694.363	0.0172313
694.442	0.0171839
694.520	0.0171223
694.598	0.0169955
694.676	0.0170597
694.754	0.0170024
694.832	0.0169652
694.910	0.0167298
694.988	0.0167371
695.067	0.0166653
695.145	0.0166488
695.223	0.0165570
695.301	0.0165688
695.379	0.0165357
695.457	0.0163605
695.535	0.0163065
695.613	0.0161086
695.692	0.0161594
695.770	0.0160940
695.848	0.0158048
695.926	0.0159391
696.004	0.0158669
696.082	0.0159215
696.160	0.0158637
696.238	0.0156898
696.317	0.0157890
696.395	0.0156962
696.473	0.0156975
696.551	0.0159791
696.629	0.0158468
696.707	0.0158941
696.785	0.0159624
696.863	0.0160833
696.942	0.0163020
697.020	0.0162477
697.098	0.0162711
697.176	0.0163891
697.254	0.0164388
697.332	0.0165398
697.410	0.0166994
697.488	0.0166455
697.567	0.0165414
697.645	0.0167777
697.723	0.0167535
697.801	0.0167900
697.879	0.0166306
697.957	0.0166397
698.035	0.0167402
698.113	0.0166518
698.192	0.0163652
698.270	0.0163949
698.348	0.0163541
698.426	0.0161871
698.504	0.0161726
698.582	0.0161763
698.660	0.0159445
698.738	0.0158552
698.817	0.0159995
698.895	0.0158617
698.973	0.0157907
699.051	0.0158894
699.129	0.0160804
699.207	0.0160268
699.285	0.0161918
699.363	0.0163406
699.442	0.0164363
699.520	0.0164003
699.598	0.0164178
699.676	0.0165438
699.754	0.0165170
699.832	0.0167308
699.910	0.0169206
699.988	0.0167793
700.067	0.0168889
700.145	0.0168699
700.223	0.0170042
700.301	0.0170767
700.379	0.0170144
700.457	0.0170621
700.535	0.0169770
700.613	0.0169650
700.692	0.0168625
700.770	0.0169099
700.848	0.0166504
700.926	0.0165453
701.004	0.0167006
701.082	0.0164831
701.160	0.0164487
701.238	0.0164367
701.317	0.0160609
701.395	0.0162048
701.473	0.0162689
701.551	0.0161882
701.629	0.0160588
701.707	0.0160970
701.785	0.0160767
701.863	0.0161021
701.942	0.0160418
702.020	0.0162112
702.098	0.0160545
702.176	0.0161539
702.254	0.0164178
702.332	0.0162955
702.410	0.0164594
702.488	0.0166142
702.567	0.0165361
702.645	0.0165556
702.723	0.0166447
702.801	0.0167020
702.879	0.0167570
702.957	0.0166837
703.035	0.0167150
703.113	0.0167147
703.192	0.0165781
703.270	0.0165459
703.348	0.0166585
703.426	0.0165533
703.504	0.0165256
703.582	0.0164477
703.660	0.0163963
703.738	0.0165583
703.817	0.0164696
703.895	0.0164714
703.973	0.0163550
704.051	0.0162183
704.129	0.0162855
704.207	0.0163144
704.285	0.0163640
704.363	0.0162559
704.442	0.0163201
704.520	0.0163175
704.598	0.0164000
704.676	0.0164127
704.754	0.0164574
704.832	0.0165136
704.910	0.0165408
704.988	0.0165655
705.067	0.0167800
705.145	0.0166299
705.223	0.0167945
705.301	0.0166794
705.379	0.0166181
705.457	0.0166203
705.535	0.0167995
705.613	0.0168369
705.692	0.0166095
705.770	0.0166978
705.848	0.0166127
705.926	0.0166776
706.004	0.0165070
706.082	0.0167836
706.160	0.0166654
706.238	0.0167657
706.317	0.0165805
706.395	0.0165474
706.473	0.0166969
706.551	0.0164927
706.629	0.0165771
706.707	0.0165276
706.785	0.0164993
706.863	0.0164889
706.942	0.0166379
707.020	0.0164778
707.098	0.0162032
707.176	0.0163578
707.254	0.0163782
707.332	0.0165784
707.410	0.0165065
707.488	0.0164361
707.567	0.0164072
707.645	0.0165720
707.723	0.0167211
707.801	0.0166758
707.879	0.0167604
707.957	0.0168283
708.035	0.0168850
708.113	0.0168023
708.192	0.0168657
708.270	0.0168194
708.348	0.0167268
708.426	0.0167309
708.504	0.0164848
708.582	0.0165463
708.660	0.0164293
708.738	0.0162196
708.817	0.0163387
708.895	0.0162682
708.973	0.0162720
709.051	0.0163466
709.129	0.0162862
709.207	0.0161742
709.285	0.0162493
709.363	0.0161720
709.442	0.0162376
709.520	0.0162728
709.598	0.0163015
709.676	0.0163212
709.754	0.0162131
709.832	0.0162740
709.910	0.0163127
709.988	0.0162597
710.067	0.0162308
710.145	0.0161688
710.223	0.0162277
710.301	0.0162157
710.379	0.0162971
710.457	0.0160915
710.535	0.0160889
710.613	0.0161079
710.692	0.0161555
710.770	0.0162556
710.848	0.0161268
710.926	0.0161849
711.004	0.0161664
711.082	0.0161903
711.160	0.0161938
711.238	0.0163385
711.317	0.0162719
711.395	0.0163530
711.473	0.0164584
711.551	0.0164450
711.629	0.0164784
711.707	0.0164146
711.785	0.0166464
711.863	0.0167541
711.942	0.0166351
712.020	0.0165240
712.098	0.0167104
712.176	0.0167934
712.254	0.0167258
712.332	0.0168456
712.410	0.0168346
712.488	0.0168493
712.567	0.0167932
712.645	0.0167419
712.723	0.0168401
712.801	0.0168517
712.879	0.0169729
712.957	0.0169305
713.035	0.0168843
713.113	0.0170009
713.192	0.0170521
713.270	0.0171473
713.348	0.0170753
713.426	0.0171642
713.504	0.0170892
713.582	0.0168131
713.660	0.0169489
713.738	0.0170099
713.817	0.0169025
713.895	0.0167842
713.973	0.0166991
714.051	0.0165746
714.129	0.0166028
714.207	0.0165362
714.285	0.0165708
714.363	0.0165037
714.442	0.0162752
714.520	0.0163798
714.598	0.0161576
714.676	0.0162640
714.754	0.0163098
714.832	0.0162813
714.910	0.0160914
714.988	0.0161682
715.067	0.0162497
715.145	0.0161753
715.223	0.0161506
715.301	0.0161681
715.379	0.0160415
715.457	0.0163129
715.535	0.0163157
715.613	0.0160999
715.692	0.0162662
715.770	0.0161470
715.848	0.0162057
715.926	0.0162373
716.004	0.0164140
716.082	0.0164194
716.160	0.0163814
716.238	0.0164101
716.317	0.0164838
716.395	0.0166051
716.473	0.0164540
716.551	0.0164933
716.629	0.0166061
716.707	0.0166133
716.785	0.0166220
716.863	0.0164953
716.942	0.0165312
717.020	0.0165220
717.098	0.0164961
717.176	0.0165499
717.254	0.0165958
717.332	0.0166047
717.410	0.0164547
717.488	0.0165184
717.567	0.0165939
717.645	0.0165363
717.723	0.0165225
717.801	0.0165821
717.879	0.0165593
717.957	0.0166290
718.035	0.0165609
718.113	0.0167667
718.192	0.0169169
718.270	0.0168693
718.348	0.0169259
718.426	0.0167590
718.504	0.0168530
718.582	0.0170070
718.660	0.0169615
718.738	0.0170358
718.817	0.0169796
718.895	0.0170727
718.973	0.0168554
719.051	0.0169030
719.129	0.0167889
719.207	0.0168150
719.285	0.0168085
719.363	0.0167842
719.442	0.0167451
719.520	0.0165883
719.598	0.0165253
719.676	0.0165781
719.754	0.0164252
719.832	0.0165086
719.910	0.0164233
719.988	0.0163376
720.067	0.0162236
720.145	0.0164492
720.223	0.0162677
720.301	0.0164439
720.379	0.0163107
720.457	0.0163240
720.535	0.0163678
720.613	0.0164640
720.692	0.0165568
720.770	0.0164381
720.848	0.0165424
720.926	0.0165058
721.004	0.0164780
721.082	0.0164278
721.160	0.0163660
721.238	0.0163777
721.317	0.0163901
721.395	0.0163927
721.473	0.0162982
721.551	0.0163727
721.629	0.0162188
721.707	0.0162254
721.785	0.0163887
721.863	0.0162177
721.942	0.0162785
722.020	0.0162617
722.098	0.0164567
722.176	0.0164195
722.254	0.0163802
722.332	0.0164078
722.410	0.0165721
722.488	0.0164840
722.567	0.0164668
722.645	0.0165374
722.723	0.0165012
722.801	0.0164690
722.879	0.0165796
722.957	0.0165870
723.035	0.0165924
723.113	0.0164782
723.192	0.0164857
723.270	0.0165688
723.348	0.0166020
723.426	0.0164336
723.504	0.0165701
723.582	0.0165551
723.660	0.0165366
723.738	0.0166228
723.817	0.0167005
723.895	0.0166621
723.973	0.0164927
724.051	0.0165308
724.129	0.0166379
724.207	0.0167621
724.285	0.0167300
724.363	0.0166697
724.442	0.0167228
724.520	0.0166831
724.598	0.0167352
724.676	0.0166865
724.754	0.0165289
724.832	0.0166112
724.910	0.0167100
724.988	0.0166896
725.067	0.0165888
725.145	0.0166425
725.223	0.0166387
725.301	0.0165207
725.379	0.0166821
725.457	0.0166257
725.535	0.0165075
725.613	0.0166003
725.692	0.0166985
725.770	0.0167356
725.848	0.0165884
725.926	0.0165373
726.004	0.0165068
726.082	0.0165911
726.160	0.0165380
726.238	0.0166552
726.317	0.0165547
726.395	0.0164870
726.473	0.0166098
726.551	0.0166373
726.629	0.0164464
726.707	0.0165137
726.785	0.0165089
726.863	0.0164823
726.942	0.0165300
727.020	0.0164327
727.098	0.0164091
727.176	0.0162551
727.254	0.0162925
727.332	0.0161923
727.410	0.0161219
727.488	0.0160779
727.567	0.0160111
727.645	0.0161414
727.723	0.0160621
727.801	0.0161213
727.879	0.0160716
727.957	0.0160232
728.035	0.0159682
728.113	0.0159651
728.192	0.0160860
728.270	0.0161172
728.348	0.0161024
728.426	0.0161295
728.504	0.0159621
728.582	0.0160883
728.660	0.0162516
728.738	0.0161990
728.817	0.0161359
728.895	0.0161244
728.973	0.0162865
729.051	0.0161667
729.129	0.0161747
729.207	0.0162978
729.285	0.0163056
729.363	0.0162524
729.442	0.0162646
729.520	0.0163503
729.598	0.0163681
729.676	0.0162560
729.754	0.0163759
729.832	0.0165070
729.910	0.0166026
729.988	0.0165320
730.067	0.0165211
730.145	0.0165375
730.223	0.0166150
730.301	0.0165385
730.379	0.0165018
730.457	0.0165482
730.535	0.0164533
730.613	0.0165657
730.692	0.0166542
730.770	0.0165030
730.848	0.0164907
730.926	0.0165457
731.004	0.0166088
731.082	0.0166000
731.160	0.0165815
731.238	0.0165117
731.317	0.0165198
731.395	0.0167014
731.473	0.0166820
731.551	0.0166566
731.629	0.0167641
731.707	0.0166649
731.785	0.0166141
731.863	0.0165630
731.942	0.0166051
732.020	0.0163892
732.098	0.0164342
732.176	0.0165302
732.254	0.0165202
732.332	0.0163805
732.410	0.0163570
732.488	0.0162740
732.567	0.0163020
732.645	0.0163262
732.723	0.0161754
732.801	0.0162184
732.879	0.0161350
732.957	0.0160951
733.035	0.0160594
733.113	0.0159740
733.192	0.0161280
733.270	0.0160241
733.348	0.0161741
733.426	0.0160405
733.504	0.0161086
733.582	0.0160571
733.660	0.0162284
733.738	0.0161877
733.817	0.0163172
733.895	0.0164537
733.973	0.0164314
734.051	0.0164690
734.129	0.0165879
734.207	0.0165380
734.285	0.0165759
734.363	0.0165919
734.442	0.0168209
734.520	0.0167759
734.598	0.0166930
734.676	0.0167996
734.754	0.0167928
734.832	0.0168145
734.910	0.0167489
734.988	0.0167045
735.067	0.0165696
735.145	0.0167194
735.223	0.0168172
735.301	0.0167665
735.379	0.0166100
735.457	0.0165721
735.535	0.0166364
735.613	0.0166871
735.692	0.0167062
735.770	0.0166906
735.848	0.0164700
735.926	0.0165103
736.004	0.0165514
736.082	0.0163734
736.160	0.0163543
736.238	0.0161736
736.317	0.0162698
736.395	0.0163217
736.473	0.0163670
736.551	0.0161550
736.629	0.0163116
736.707	0.0162102
736.785	0.0162660
736.863	0.0162173
736.942	0.0165064
737.020	0.0164544
737.098	0.0165237
737.176	0.0163453
737.254	0.0165587
737.332	0.0165698
737.410	0.0166013
737.488	0.0167613
737.567	0.0167334
737.645	0.0167776
737.723	0.0167270
737.801	0.0168373
737.879	0.0168160
737.957	0.0168919
738.035	0.0168961
738.113	0.0169011
738.192	0.0167924
738.270	0.0168187
738.348	0.0169126
738.426	0.0168497
738.504	0.0168313
738.582	0.0168621
738.660	0.0167690
738.738	0.0165771
738.817	0.0165987
738.895	0.0167059
738.973	0.0165156
739.051	0.0164318
739.129	0.0164888
739.207	0.0163291
739.285	0.0164053
739.363	0.0163099
739.442	0.0162702
739.520	0.0163197
739.598	0.0162901
739.676	0.0161980
739.754	0.0163087
739.832	0.0162405
739.910	0.0161800
739.988	0.0162140
740.067	0.0161391
740.145	0.0162146
740.223	0.0163789
740.301	0.0161329
740.379	0.0163120
740.457	0.0160974
740.535	0.0161228
740.613	0.0162776
740.692	0.0162265
740.770	0.0162289
740.848	0.0162402
740.926	0.0163070
741.004	0.0162230
741.082	0.0162573
741.160	0.0163690
741.238	0.0163564
741.317	0.0161670
741.395	0.0162679
741.473	0.0164603
741.551	0.0164993
741.629	0.0165567
741.707	0.0164092
741.785	0.0163376
741.863	0.0165065
741.942	0.0163371
742.020	0.0164532
742.098	0.0164119
742.176	0.0164799
742.254	0.0163911
742.332	0.0164871
742.410	0.0164137
742.488	0.0163475
742.567	0.0162960
742.645	0.0164210
742.723	0.0166063
742.801	0.0164205
742.879	0.0163715
742.957	0.0164801
743.035	0.0164592
743.113	0.0165098
743.192	0.0164700
743.270	0.0167551
743.348	0.0165844
743.426	0.0165173
743.504	0.0166209
743.582	0.0165456
743.660	0.0166087
743.738	0.0166358
743.817	0.0165543
743.895	0.0165322
743.973	0.0166386
744.051	0.0164385
744.129	0.0165400
744.207	0.0167036
744.285	0.0165143
744.363	0.0165109
744.442	0.0166298
744.520	0.0164455
744.598	0.0165311
744.676	0.0164767
744.754	0.0166500
744.832	0.0166126
744.910	0.0164048
744.988	0.0164856
745.067	0.0165160
745.145	0.0164851
745.223	0.0164323
745.301	0.0163853
745.379	0.0162510
745.457	0.0164845
745.535	0.0163759
745.613	0.0164188
745.692	0.0164624
745.770	0.0164057
745.848	0.0165319
745.926	0.0164787
746.004	0.0166150
746.082	0.0165651
746.160	0.0165209
746.238	0.0165866
746.317	0.0166891
746.395	0.0165934
746.473	0.0166928
746.551	0.0167347
746.629	0.0167265
746.707	0.0167833
746.785	0.0166338
746.863	0.0167787
746.942	0.0167621
747.020	0.0167480
747.098	0.0167102
747.176	0.0168819
747.254	0.0168272
747.332	0.0167011
747.410	0.0167262
747.488	0.0166866
747.567	0.0167794
747.645	0.0167056
747.723	0.0166481
747.801	0.0165223
747.879	0.0164012
747.957	0.0166245
748.035	0.0165674
748.113	0.0164268
748.192	0.0162462
748.270	0.0163496
748.348	0.0164022
748.426	0.0162463
748.504	0.0161530
748.582	0.0162278
748.660	0.0163257
748.738	0.0162981
748.817	0.0162144
748.895	0.0162051
748.973	0.0163029
749.051	0.0161950
749.129	0.0161478
749.207	0.0162212
749.285	0.0159956
749.363	0.0160758
749.442	0.0160897
749.520	0.0162158
749.598	0.0162395
749.676	0.0161576
749.754	0.0160538
749.832	0.0161152
749.910	0.0161441
749.988	0.0161617
750.067	0.0161357
750.145	0.0163102
750.223	0.0162080
750.301	0.0161321
750.379	0.0162048
750.457	0.0164494
750.535	0.0163512
750.613	0.0164989
750.692	0.0164113
750.770	0.0163889
750.848	0.0165896
750.926	0.0165711
751.004	0.0167037
751.082	0.0167281
751.160	0.0167293
751.238	0.0167168
751.317	0.0165556
751.395	0.0167715
751.473	0.0167760
751.551	0.0167271
751.629	0.0167144
751.707	0.0168108
751.785	0.0167207
751.863	0.0168481
751.942	0.0166582
752.020	0.0166341
752.098	0.0166208
752.176	0.0165553
752.254	0.0165440
752.332	0.0165145
752.410	0.0165012
752.488	0.0163783
752.567	0.0164717
752.645	0.0164757
752.723	0.0165144
752.801	0.0162532
752.879	0.0163744
752.957	0.0163605
753.035	0.0164909
753.113	0.0163443
753.192	0.0165295
753.270	0.0163558
753.348	0.0164430
753.426	0.0164780
753.504	0.0164859
753.582	0.0165762
753.660	0.0165636
753.738	0.0166720
753.817	0.0165769
753.895	0.0167824
753.973	0.0166568
754.051	0.0166650
754.129	0.0166178
754.207	0.0166605
754.285	0.0166461
754.363	0.0166865
754.442	0.0166753
754.520	0.0165609
754.598	0.0166467
754.676	0.0166091
754.754	0.0165297
754.832	0.0165137
754.910	0.0165110
754.988	0.0165029
755.067	0.0164386
755.145	0.0164855
755.223	0.0163965
755.301	0.0163689
755.379	0.0165276
755.457	0.0164677
755.535	0.0164689
755.613	0.0163245
755.692	0.0162959
755.770	0.0162898
755.848	0.0162666
755.926	0.0163619
756.004	0.0163874
756.082	0.0162979
756.160	0.0162814
756.238	0.0162225
756.317	0.0163166
756.395	0.0163953
756.473	0.0164310
756.551	0.0163702
756.629	0.0161246
756.707	0.0163554
756.785	0.0163105
756.863	0.0162660
756.942	0.0161821
757.020	0.0161984
757.098	0.0162926
757.176	0.0161697
757.254	0.0159233
757.332	0.0160492
757.410	0.0160527
757.488	0.0161745
757.567	0.0160870
757.645	0.0159906
757.723	0.0160082
757.801	0.0160533
757.879	0.0160509
757.957	0.0160155
758.035	0.0161246
758.113	0.0161397
758.192	0.0161393
758.270	0.0161265
758.348	0.0160835
758.426	0.0162151
758.504	0.0161089
758.582	0.0162628
758.660	0.0162276
758.738	0.0164738
758.817	0.0162365
758.895	0.0163536
758.973	0.0164392
759.051	0.0164132
759.129	0.0163554
759.207	0.0166122
759.285	0.0166419
759.363	0.0166078
759.442	0.0164874
759.520	0.0164841
759.598	0.0166360
759.676	0.0166720
759.754	0.0166727
759.832	0.0166177
759.910	0.0165520
759.988	0.0166407
760.067	0.0166364
760.145	0.0165601
760.223	0.0166946
760.301	0.0166960
760.379	0.0166012
760.457	0.0166292
760.535	0.0166845
760.613	0.0166584
760.692	0.0166193
760.770	0.0166918
760.848	0.0166503
760.926	0.0167408
761.004	0.0166314
761.082	0.0166188
761.160	0.0166378
761.238	0.0165449
761.317	0.0165179
761.395	0.0166254
761.473	0.0165068
761.551	0.0164264
761.629	0.0165800
761.707	0.0165624
761.785	0.0165691
761.863	0.0163416
761.942	0.0163020
762.020	0.0164252
762.098	0.0163804
762.176	0.0164022
762.254	0.0164509
762.332	0.0163891
762.410	0.0163118
762.488	0.0162622
762.567	0.0163974
762.645	0.0164884
762.723	0.0164767
762.801	0.0163583
762.879	0.0164365
762.957	0.0164542
763.035	0.0162450
763.113	0.0161901
763.192	0.0163891
763.270	0.0163519
763.348	0.0161850
763.426	0.0161932
763.504	0.0162614
763.582	0.0162495
763.660	0.0161532
763.738	0.0161257
763.817	0.0160590
763.895	0.0160712
763.973	0.0161909
764.051	0.0159573
764.129	0.0160443
764.207	0.0161591
764.285	0.0162344
764.363	0.0162918
764.442	0.0162308
764.520	0.0162798
764.598	0.0163145
764.676	0.0163050
764.754	0.0163474
764.832	0.0162302
764.910	0.0163160
764.988	0.0164934
765.067	0.0165979
765.145	0.0166334
765.223	0.0166042
765.301	0.0165575
765.379	0.0166458
765.457	0.0166984
765.535	0.0167783
765.613	0.0167895
765.692	0.0168373
765.770	0.0167332
765.848	0.0168841
765.926	0.0169407
766.004	0.0168688
766.082	0.0167751
766.160	0.0169249
766.238	0.0168155
766.317	0.0167963
766.395	0.0171088
766.473	0.0167892
766.551	0.0167541
766.629	0.0168877
766.707	0.0167467
766.785	0.0167374
766.863	0.0167311
766.942	0.0167661
767.020	0.0167564
767.098	0.0166070
767.176	0.0167375
767.254	0.0166734
767.332	0.0166187
767.410	0.0167431
767.488	0.0164653
767.567	0.0164268
767.645	0.0165866
767.723	0.0164662
767.801	0.0165871
767.879	0.0166122
767.957	0.0164709
768.035	0.0164742
768.113	0.0164362
768.192	0.0163864
768.270	0.0165342
768.348	0.0163633
768.426	0.0163168
768.504	0.0162991
768.582	0.0163741
768.660	0.0163270
768.738	0.0161840
768.817	0.0161088
768.895	0.0162161
768.973	0.0161205
769.051	0.0159935
769.129	0.0161539
769.207	0.0161647
769.285	0.0161615
769.363	0.0162817
769.442	0.0162012
769.520	0.0161757
769.598	0.0161032
769.676	0.0162054
769.754	0.0162103
769.832	0.0161256
769.910	0.0162586
769.988	0.0163664
770.067	0.0164420
770.145	0.0163573
770.223	0.0162373
770.301	0.0164196
770.379	0.0163525
770.457	0.0163694
770.535	0.0164114
770.613	0.0164197
770.692	0.0164248
770.770	0.0164479
770.848	0.0165872
770.926	0.0166064
771.004	0.0166718
771.082	0.0165775
771.160	0.0165906
771.238	0.0165037
771.317	0.0166354
771.395	0.0166223
771.473	0.0166526
771.551	0.0166422
771.629	0.0165470
771.707	0.0167512
771.785	0.0165578
771.863	0.0166100
771.942	0.0166673
772.020	0.0165922
772.098	0.0166181
772.176	0.0165160
772.254	0.0163103
772.332	0.0164643
772.410	0.0165385
772.488	0.0165194
772.567	0.0164085
772.645	0.0163412
772.723	0.0164452
772.801	0.0165559
772.879	0.0163715
772.957	0.0163861
773.035	0.0165439
773.113	0.0166477
773.192	0.0164033
773.270	0.0165369
773.348	0.0163869
773.426	0.0164889
773.504	0.0164807
773.582	0.0165040
773.660	0.0166396
773.738	0.0164977
773.817	0.0165240
773.895	0.0165754
773.973	0.0165340
774.051	0.0166142
774.129	0.0164592
774.207	0.0164471
774.285	0.0165363
774.363	0.0165069
774.442	0.0164410
774.520	0.0164072
774.598	0.0164214
774.676	0.0165477
774.754	0.0164330
774.832	0.0164779
774.910	0.0164382
774.988	0.0164027
775.067	0.0162399
775.145	0.0162296
775.223	0.0163954
775.301	0.0163447
775.379	0.0164643
775.457	0.0163726
775.535	0.0165521
775.613	0.0164446
775.692	0.0163786
775.770	0.0163853
775.848	0.0166118
775.926	0.0165917
776.004	0.0165312
776.082	0.0164986
776.160	0.0164555
776.238	0.0165279
776.317	0.0166922
776.395	0.0166478
776.473	0.0165826
776.551	0.0165940
776.629	0.0167413
776.707	0.0166722
776.785	0.0167059
776.863	0.0166759
776.942	0.0166335
777.020	0.0166348
777.098	0.0165334
777.176	0.0167031
777.254	0.0166261
777.332	0.0166254
777.410	0.0165513
777.488	0.0164752
777.567	0.0166966
777.645	0.0164861
777.723	0.0164369
777.801	0.0165392
777.879	0.0165311
777.957	0.0164217
778.035	0.0165923
778.113	0.0166112
778.192	0.0164217
778.270	0.0164175
778.348	0.0164890
778.426	0.0165594
778.504	0.0165419
778.582	0.0163518
778.660	0.0164626
778.738	0.0164502
778.817	0.0162243
778.895	0.0163384
778.973	0.0163505
779.051	0.0162823
779.129	0.0164142
779.207	0.0162495
779.285	0.0162158
779.363	0.0163937
779.442	0.0162348
779.520	0.0163253
779.598	0.0162708
779.676	0.0161892
779.754	0.0161919
779.832	0.0162576
779.910	0.0162427
779.988	0.0161282
780.067	0.0163380
780.145	0.0162537
780.223	0.0162745
780.301	0.0163690
780.379	0.0162938
780.457	0.0165289
780.535	0.0164390
780.613	0.0163642
780.692	0.0163277
780.770	0.0164278
780.848	0.0162920
780.926	0.0165574
781.004	0.0163921
781.082	0.0163890
781.160	0.0163879
781.238	0.0166400
781.317	0.0165542
781.395	0.0164664
781.473	0.0166109
781.551	0.0165340
781.629	0.0165063
781.707	0.0165371
781.785	0.0166237
781.863	0.0166220
781.942	0.0167393
782.020	0.0167130
782.098	0.0167894
782.176	0.0168272
782.254	0.0168154
782.332	0.0168555
782.410	0.0168838
782.488	0.0167360
782.567	0.0166733
782.645	0.0166321
782.723	0.0168095
782.801	0.0168286
782.879	0.0168342
782.957	0.0167822
783.035	0.0167687
783.113	0.0166502
783.192	0.0167352
783.270	0.0168393
783.348	0.0166294
783.426	0.0166340
783.504	0.0165107
783.582	0.0166615
783.660	0.0167767
783.738	0.0165396
783.817	0.0165572
783.895	0.0166102
783.973	0.0165228
784.051	0.0165590
784.129	0.0165040
784.207	0.0164407
784.285	0.0164020
784.363	0.0165408
784.442	0.0163361
784.520	0.0165134
784.598	0.0164516
784.676	0.0163395
784.754	0.0165199
784.832	0.0164120
784.910	0.0164362
784.988	0.0164736
785.067	0.0162805
785.145	0.0164851
785.223	0.0164700
785.301	0.0163472
785.379	0.0163628
785.457	0.0164864
785.535	0.0164674
785.613	0.0164787
785.692	0.0165012
785.770	0.0164695
785.848	0.0164050
785.926	0.0163566
786.004	0.0163924
786.082	0.0164681
786.160	0.0164185
786.238	0.0164977
786.317	0.0164832
786.395	0.0162782
786.473	0.0164133
786.551	0.0164447
786.629	0.0164797
786.707	0.0164012
786.785	0.0163613
786.863	0.0163836
786.942	0.0164014
787.020	0.0165771
787.098	0.0164227
787.176	0.0163002
787.254	0.0163863
787.332	0.0164061
787.410	0.0165236
787.488	0.0163177
787.567	0.0164359
787.645	0.0166423
787.723	0.0164642
787.801	0.0164101
787.879	0.0163813
787.957	0.0165271
788.035	0.0165004
788.113	0.0165520
788.192	0.0164887
788.270	0.0164690
788.348	0.0164817
788.426	0.0164506
788.504	0.0165080
788.582	0.0164214
788.660	0.0163931
788.738	0.0163551
788.817	0.0165079
788.895	0.0163715
788.973	0.0163585
789.051	0.0163525
789.129	0.0163562
789.207	0.0163633
789.285	0.0163370
789.363	0.0163622
789.442	0.0162915
789.520	0.0163431
789.598	0.0163628
789.676	0.0164453
789.754	0.0163577
789.832	0.0163157
789.910	0.0163234
789.988	0.0163819
790.067	0.0164074
790.145	0.0163978
790.223	0.0165757
790.301	0.0164806
790.379	0.0163432
790.457	0.0164358
790.535	0.0165675
790.613	0.0163187
790.692	0.0162538
790.770	0.0164619
790.848	0.0163021
790.926	0.0162885
791.004	0.0162694
791.082	0.0162714
791.160	0.0163098
791.238	0.0163522
791.317	0.0164105
791.395	0.0162933
791.473	0.0164206
791.551	0.0162970
791.629	0.0163831
791.707	0.0162661
791.785	0.0161836
791.863	0.0163332
791.942	0.0162424
792.020	0.0162930
792.098	0.0161597
792.176	0.0162586
792.254	0.0163293
792.332	0.0161459
792.410	0.0161929
792.488	0.0163197
792.567	0.0162849
792.645	0.0163725
792.723	0.0164975
792.801	0.0164754
792.879	0.0164333
792.957	0.0164619
793.035	0.0165816
793.113	0.0164260
793.192	0.0164479
793.270	0.0166055
793.348	0.0165611
793.426	0.0163757
793.504	0.0164335
793.582	0.0165008
793.660	0.0165791
793.738	0.0164804
793.817	0.0164948
793.895	0.0163666
793.973	0.0164441
794.051	0.0164744
794.129	0.0163932
794.207	0.0163699
794.285	0.0164665
794.363	0.0162781
794.442	0.0164032
794.520	0.0165307
794.598	0.0164478
794.676	0.0163549
794.754	0.0165507
794.832	0.0165511
794.910	0.0165729
794.988	0.0165714
795.067	0.0165923
795.145	0.0165730
795.223	0.0165302
795.301	0.0165462
795.379	0.0166776
795.457	0.0166476
795.535	0.0167663
795.613	0.0166479
795.692	0.0166512
795.770	0.0166981
795.848	0.0166470
795.926	0.0168125
796.004	0.0167867
796.082	0.0167188
796.160	0.0167162
796.238	0.0166903
796.317	0.0169042
796.395	0.0167032
796.473	0.0165828
796.551	0.0167862
796.629	0.0167219
796.707	0.0167848
796.785	0.0167358
796.863	0.0166957
796.942	0.0167929
797.020	0.0166339
797.098	0.0167033
797.176	0.0167503
797.254	0.0167889
797.332	0.0167673
797.410	0.0166056
797.488	0.0165643
797.567	0.0166055
797.645	0.0165852
797.723	0.0165434
797.801	0.0164960
797.879	0.0165240
797.957	0.0166060
798.035	0.0164790
798.113	0.0164050
798.192	0.0164853
798.270	0.0164091
798.348	0.0165322
798.426	0.0163071
798.504	0.0164126
798.582	0.0165781
798.660	0.0163772
798.738	0.0163760
798.817	0.0164053
798.895	0.0163804
798.973	0.0163971
799.051	0.0164176
799.129	0.0164422
799.207	0.0164593
799.285	0.0164005
799.363	0.0163467
799.442	0.0163686
799.520	0.0162933
799.598	0.0162871
799.676	0.0163733
799.754	0.0162534
799.832	0.0162867
799.910	0.0162771
799.988	0.0164272
800.067	0.0162172
800.145	0.0164275
800.223	0.0162924
800.301	0.0163639
800.379	0.0163313
800.457	0.0163144
800.535	0.0164589
800.613	0.0164019
800.692	0.0163934
800.770	0.0164465
800.848	0.0163939
800.926	0.0165544
801.004	0.0164784
801.082	0.0164870
801.160	0.0165771
801.238	0.0166273
801.317	0.0165186
801.395	0.0165708
801.473	0.0165681
801.551	0.0167023
801.629	0.0165462
801.707	0.0166211
801.785	0.0166695
801.863	0.0165784
801.942	0.0166411
802.020	0.0166965
802.098	0.0166890
802.176	0.0167535
802.254	0.0166821
802.332	0.0165658
802.410	0.0166247
802.488	0.0165840
802.567	0.0166354
802.645	0.0166501
802.723	0.0166676
802.801	0.0169312
802.879	0.0166694
802.957	0.0165181
803.035	0.0167973
803.113	0.0169044
803.192	0.0168091
803.270	0.0167845
803.348	0.0167812
803.426	0.0165782
803.504	0.0166544
803.582	0.0166093
803.660	0.0166376
803.738	0.0166168
803.817	0.0166916
803.895	0.0167078
803.973	0.0165778
804.051	0.0165330
804.129	0.0169096
804.207	0.0165968
804.285	0.0165041
804.363	0.0165361
804.442	0.0167172
804.520	0.0168356
804.598	0.0166171
804.676	0.0166457
804.754	0.0165515
804.832	0.0165308
804.910	0.0166304
804.988	0.0165331
805.067	0.0165163
805.145	0.0166207
805.223	0.0164861
805.301	0.0164210
805.379	0.0164919
805.457	0.0164944
805.535	0.0164183
805.613	0.0164746
805.692	0.0165174
805.770	0.0163369
805.848	0.0161651
805.926	0.0163335
806.004	0.0161623
806.082	0.0162772
806.160	0.0161281
806.238	0.0162620
806.317	0.0161967
806.395	0.0161201
806.473	0.0161446
806.551	0.0162111
806.629	0.0161459
806.707	0.0162017
806.785	0.0162820
806.863	0.0161384
806.942	0.0162942
807.020	0.0162443
807.098	0.0161736
807.176	0.0162702
807.254	0.0162720
807.332	0.0163838
807.410	0.0163954
807.488	0.0163357
807.567	0.0164343
807.645	0.0164487
807.723	0.0165462
807.801	0.0165015
807.879	0.0164604
807.957	0.0165582
808.035	0.0166615
808.113	0.0165788
808.192	0.0165164
808.270	0.0165976
808.348	0.0165356
808.426	0.0165633
808.504	0.0166566
808.582	0.0167175
808.660	0.0165171
808.738	0.0166338
808.817	0.0166183
808.895	0.0166245
808.973	0.0166148
809.051	0.0165590
809.129	0.0166332
809.207	0.0166130
809.285	0.0164758
809.363	0.0164902
809.442	0.0165427
809.520	0.0165824
809.598	0.0165244
809.676	0.0165646
809.754	0.0165958
809.832	0.0166399
809.910	0.0166115
809.988	0.0165305
810.067	0.0165523
810.145	0.0165251
810.223	0.0165611
810.301	0.0165895
810.379	0.0165785
810.457	0.0165206
810.535	0.0165932
810.613	0.0165507
810.692	0.0165144
810.770	0.0165251
810.848	0.0166587
810.926	0.0166557
811.004	0.0166576
811.082	0.0165229
811.160	0.0166571
811.238	0.0167395
811.317	0.0166928
811.395	0.0166045
811.473	0.0167480
811.551	0.0166930
811.629	0.0167319
811.707	0.0167298
811.785	0.0165399
811.863	0.0167956
811.942	0.0167387
812.020	0.0165752
812.098	0.0167575
812.176	0.0167213
812.254	0.0166961
812.332	0.0166582
812.410	0.0166054
812.488	0.0166298
812.567	0.0166508
812.645	0.0165285
812.723	0.0164696
812.801	0.0164709
812.879	0.0165728
812.957	0.0165544
813.035	0.0164975
813.113	0.0163216
813.192	0.0163659
813.270	0.0164901
813.348	0.0164259
813.426	0.0164253
813.504	0.0165978
813.582	0.0163724
813.660	0.0163811
813.738	0.0164931
813.817	0.0164159
813.895	0.0164057
813.973	0.0162739
814.051	0.0165334
814.129	0.0163742
814.207	0.0164123
814.285	0.0163471
814.363	0.0163642
814.442	0.0165012
814.520	0.0164658
814.598	0.0164986
814.676	0.0164699
814.754	0.0165261
814.832	0.0164962
814.910	0.0165022
814.988	0.0165192
815.067	0.0166766
815.145	0.0165552
815.223	0.0164989
815.301	0.0165115
815.379	0.0165689
815.457	0.0164744
815.535	0.0164182
815.613	0.0164589
815.692	0.0162934
815.770	0.0164570
815.848	0.0165170
815.926	0.0165900
816.004	0.0165105
816.082	0.0166150
816.160	0.0164000
816.238	0.0166418
816.317	0.0164931
816.395	0.0165685
816.473	0.0164851
816.551	0.0164561
816.629	0.0164679
816.707	0.0165686
816.785	0.0165567
816.863	0.0164918
816.942	0.0165863
817.020	0.0165471
817.098	0.0164729
817.176	0.0163644
817.254	0.0166603
817.332	0.0165820
817.410	0.0164860
817.488	0.0165541
817.567	0.0165477
817.645	0.0165389
817.723	0.0164210
817.801	0.0165083
817.879	0.0166117
817.957	0.0164980
818.035	0.0164555
818.113	0.0165134
818.192	0.0164795
818.270	0.0164491
818.348	0.0165313
818.426	0.0164834
818.504	0.0164453
818.582	0.0164488
818.660	0.0163925
818.738	0.0163976
818.817	0.0163025
818.895	0.0162666
818.973	0.0163824
819.051	0.0163010
819.129	0.0163920
819.207	0.0164386
819.285	0.0163717
819.363	0.0164742
819.442	0.0164164
819.520	0.0165536
819.598	0.0166936
819.676	0.0166698
819.754	0.0164996
819.832	0.0164811
819.910	0.0166622
819.988	0.0167819
820.067	0.0168854
820.145	0.0167650
820.223	0.0166774
820.301	0.0166450
820.379	0.0168030
820.457	0.0166208
820.535	0.0166820
820.613	0.0167633
820.692	0.0167303
820.770	0.0167065
820.848	0.0166747
820.926	0.0166486
821.004	0.0166167
821.082	0.0165929
821.160	0.0165690
821.238	0.0165587
821.317	0.0165009
821.395	0.0164605
821.473	0.0164042
821.551	0.0165051
821.629	0.0163703
821.707	0.0164718
821.785	0.0164895
821.863	0.0163724
821.942	0.0161340
822.020	0.0162348
822.098	0.0163360
822.176	0.0165281
822.254	0.0162469
822.332	0.0162453
822.410	0.0162492
822.488	0.0162344
822.567	0.0164333
822.645	0.0163506
822.723	0.0163346
822.801	0.0163041
822.879	0.0163316
822.957	0.0164144
823.035	0.0163393
823.113	0.0163398
823.192	0.0162393
823.270	0.0162682
823.348	0.0162743
823.426	0.0162077
823.504	0.0163910
823.582	0.0164667
823.660	0.0163977
823.738	0.0163404
823.817	0.0162766
823.895	0.0165069
823.973	0.0164368
824.051	0.0164047
824.129	0.0163790
824.207	0.0164802
824.285	0.0164435
824.363	0.0164236
824.442	0.0163643
824.520	0.0163531
824.598	0.0164911
824.676	0.0164036
824.754	0.0163319
824.832	0.0162983
824.910	0.0163082
824.988	0.0163097
825.067	0.0163966
825.145	0.0164485
825.223	0.0162598
825.301	0.0164137
825.379	0.0164055
825.457	0.0162921
825.535	0.0163855
825.613	0.0163885
825.692	0.0165977
825.770	0.0164927
825.848	0.0165681
825.926	0.0164817
826.004	0.0165546
826.082	0.0166235
826.160	0.0167107
826.238	0.0166888
826.317	0.0165874
826.395	0.0167576
826.473	0.0166928
826.551	0.0166837
826.629	0.0164007
826.707	0.0165101
826.785	0.0166500
826.863	0.0164929
826.942	0.0163919
827.020	0.0165258
827.098	0.0165903
827.176	0.0165165
827.254	0.0163948
827.332	0.0163559
827.410	0.0163641
827.488	0.0163173
827.567	0.0162257
827.645	0.0163432
827.723	0.0164194
827.801	0.0163505
827.879	0.0162999
827.957	0.0163136
828.035	0.0163432
828.113	0.0162281
828.192	0.0162794
828.270	0.0163219
828.348	0.0163438
828.426	0.0162444
828.504	0.0163322
828.582	0.0163968
828.660	0.0163312
828.738	0.0164626
828.817	0.0165055
828.895	0.0164197
828.973	0.0164386
829.051	0.0166134
829.129	0.0164513
829.207	0.0164845
829.285	0.0166827
829.363	0.0165946
829.442	0.0166180
829.520	0.0164589
829.598	0.0167059
829.676	0.0167175
829.754	0.0167587
829.832	0.0168944
829.910	0.0165890
829.988	0.0166349
830.067	0.0168142
830.145	0.0168343
830.223	0.0166787
830.301	0.0167396
830.379	0.0166354
830.457	0.0166939
830.535	0.0166727
830.613	0.0167307
830.692	0.0165315
830.770	0.0165736
830.848	0.0165807
830.926	0.0165874
831.004	0.0164580
831.082	0.0165092
831.160	0.0165154
831.238	0.0163532
831.317	0.0164516
831.395	0.0164019
831.473	0.0163099
831.551	0.0163232
831.629	0.0163022
831.707	0.0165305
831.785	0.0164204
831.863	0.0165345
831.942	0.0163940
832.020	0.0165242
832.098	0.0165074
832.176	0.0165304
832.254	0.0165317
832.332	0.0166080
832.410	0.0165511
832.488	0.0165408
832.567	0.0167469
832.645	0.0169613
832.723	0.0167793
832.801	0.0169372
832.879	0.0167887
832.957	0.0168726
833.035	0.0170139
833.113	0.0167282
833.192	0.0166935
833.270	0.0169535
833.348	0.0167596
833.426	0.0167409
833.504	0.0165691
833.582	0.0166346
833.660	0.0166732
833.738	0.0166591
833.817	0.0166364
833.895	0.0165496
833.973	0.0163545
834.051	0.0164670
834.129	0.0164072
834.207	0.0164665
834.285	0.0163184
834.363	0.0165332
834.442	0.0163912
834.520	0.0163895
834.598	0.0163609
834.676	0.0164899
834.754	0.0163184
834.832	0.0162839
834.910	0.0164015
834.988	0.0164351
835.067	0.0163610
835.145	0.0165209
835.223	0.0165067
835.301	0.0163325
835.379	0.0164935
835.457	0.0164240
835.535	0.0165727
835.613	0.0163208
835.692	0.0163835
835.770	0.0165794
835.848	0.0165610
835.926	0.0165991
836.004	0.0164740
836.082	0.0165599
836.160	0.0165964
836.238	0.0165546
836.317	0.0165185
836.395	0.0165283
836.473	0.0165517
836.551	0.0165383
836.629	0.0165226
836.707	0.0165326
836.785	0.0165276
836.863	0.0164246
836.942	0.0164568
837.020	0.0165103
837.098	0.0166408
837.176	0.0166469
837.254	0.0165498
837.332	0.0165679
837.410	0.0165441
837.488	0.0166520
837.567	0.0166393
837.645	0.0165641
837.723	0.0166444
837.801	0.0165833
837.879	0.0168236
837.957	0.0166124
838.035	0.0167662
838.113	0.0165292
838.192	0.0167283
838.270	0.0167172
838.348	0.0166431
838.426	0.0167646
838.504	0.0167741
838.582	0.0166793
838.660	0.0165358
838.738	0.0166803
838.817	0.0165584
838.895	0.0165715
838.973	0.0165665
839.051	0.0166171
839.129	0.0165837
839.207	0.0164467
839.285	0.0164687
839.363	0.0164611
839.442	0.0164070
839.520	0.0163575
839.598	0.0162165
839.676	0.0162811
839.754	0.0163280
839.832	0.0163326
839.910	0.0161462
839.988	0.0161797
840.067	0.0162697
840.145	0.0161728
840.223	0.0163101
840.301	0.0163428
840.379	0.0161790
840.457	0.0164240
840.535	0.0163417
840.613	0.0162334
840.692	0.0162991
840.770	0.0164156
840.848	0.0164243
840.926	0.0164820
841.004	0.0164221
841.082	0.0165180
841.160	0.0164638
841.238	0.0164568
841.317	0.0165316
841.395	0.0165896
841.473	0.0165571
841.551	0.0165945
841.629	0.0165960
841.707	0.0164666
841.785	0.0164858
841.863	0.0165540
841.942	0.0166727
842.020	0.0167108
842.098	0.0166118
842.176	0.0165665
842.254	0.0165517
842.332	0.0164783
842.410	0.0164417
842.488	0.0165128
842.567	0.0163672
842.645	0.0164399
842.723	0.0163138
842.801	0.0162201
842.879	0.0163094
842.957	0.0162659
843.035	0.0162235
843.113	0.0162132
843.192	0.0163306
843.270	0.0162775
843.348	0.0163784
843.426	0.0164468
843.504	0.0163985
843.582	0.0164832
843.660	0.0163874
843.738	0.0163763
843.817	0.0163250
843.895	0.0162688
843.973	0.0166338
844.051	0.0166323
844.129	0.0164435
844.207	0.0163916
844.285	0.0165276
844.363	0.0164983
844.442	0.0165931
844.520	0.0165028
844.598	0.0165329
844.676	0.0166914
844.754	0.0164368
844.832	0.0165081
844.910	0.0165789
844.988	0.0166766
845.067	0.0165529
845.145	0.0165558
845.223	0.0164488
845.301	0.0164690
845.379	0.0167329
845.457	0.0165598
845.535	0.0165940
845.613	0.0164341
845.692	0.0163993
845.770	0.0165139
845.848	0.0165362
845.926	0.0163381
846.004	0.0164531
846.082	0.0164449
846.160	0.0164581
846.238	0.0163935
846.317	0.0164405
846.395	0.0164462
846.473	0.0163274
846.551	0.0164100
846.629	0.0164294
846.707	0.0164178
846.785	0.0164240
846.863	0.0163402
846.942	0.0163968
847.020	0.0162656
847.098	0.0162727
847.176	0.0162333
847.254	0.0162185
847.332	0.0161370
847.410	0.0161313
847.488	0.0163298
847.567	0.0162521
847.645	0.0161894
847.723	0.0162309
847.801	0.0161927
847.879	0.0161637
847.957	0.0161303
848.035	0.0162387
848.113	0.0162621
848.192	0.0163414
848.270	0.0162459
848.348	0.0162669
848.426	0.0162774
848.504	0.0163593
848.582	0.0163241
848.660	0.0161125
848.738	0.0164422
848.817	0.0164285
848.895	0.0163803
848.973	0.0162582
849.051	0.0163899
849.129	0.0164819
849.207	0.0163591
849.285	0.0163789
849.363	0.0163372
849.442	0.0165210
849.520	0.0163979
849.598	0.0164474
849.676	0.0163935
849.754	0.0163994
849.832	0.0165433
849.910	0.0163052
849.988	0.0164046
850.067	0.0163361
850.145	0.0163910
850.223	0.0164933
850.301	0.0164985
850.379	0.0163557
850.457	0.0164063
850.535	0.0163354
850.613	0.0165652
850.692	0.0164433
850.770	0.0165131
850.848	0.0164644
850.926	0.0166302
851.004	0.0167165
851.082	0.0165937
851.160	0.0165855
851.238	0.0166338
851.317	0.0167098
851.395	0.0167165
851.473	0.0165862
851.551	0.0166005
851.629	0.0166780
851.707	0.0166619
851.785	0.0166666
851.863	0.0165579
851.942	0.0166217
852.020	0.0166363
852.098	0.0163902
852.176	0.0165262
852.254	0.0163909
852.332	0.0164662
852.410	0.0164223
852.488	0.0162936
852.567	0.0163438
852.645	0.0162785
852.723	0.0162738
852.801	0.0163116
852.879	0.0163855
852.957	0.0162352
853.035	0.0162032
853.113	0.0162509
853.192	0.0163486
853.270	0.0162440
853.348	0.0162514
853.426	0.0163804
853.504	0.0163547
853.582	0.0162037
853.660	0.0162657
853.738	0.0162421
853.817	0.0163161
853.895	0.0163541
853.973	0.0164587
854.051	0.0163390
854.129	0.0163699
854.207	0.0165742
854.285	0.0165153
854.363	0.0163707
854.442	0.0165014
854.520	0.0165322
854.598	0.0164587
854.676	0.0164157
854.754	0.0164104
854.832	0.0163888
854.910	0.0164524
854.988	0.0165001
855.067	0.0164225
855.145	0.0164181
855.223	0.0164454
855.301	0.0164314
855.379	0.0164063
855.457	0.0164873
855.535	0.0164458
855.613	0.0165779
855.692	0.0165835
855.770	0.0165458
855.848	0.0164887
855.926	0.0165321
856.004	0.0165782
856.082	0.0165692
856.160	0.0166000
856.238	0.0165791
856.317	0.0165067
856.395	0.0165895
856.473	0.0165388
856.551	0.0166971
856.629	0.0165790
856.707	0.0164492
856.785	0.0164754
856.863	0.0165507
856.942	0.0164003
857.020	0.0165324
857.098	0.0165520
857.176	0.0163171
857.254	0.0163747
857.332	0.0165379
857.410	0.0165975
857.488	0.0166196
857.567	0.0164800
857.645	0.0164009
857.723	0.0165309
857.801	0.0164034
857.879	0.0164120
857.957	0.0164853
858.035	0.0163758
858.113	0.0164158
858.192	0.0164820
858.270	0.0164539
858.348	0.0165076
858.426	0.0165332
858.504	0.0163409
858.582	0.0162659
858.660	0.0164040
858.738	0.0163458
858.817	0.0163892
858.895	0.0162761
858.973	0.0163325
859.051	0.0163457
859.129	0.0163203
859.207	0.0162133
859.285	0.0161953
859.363	0.0163871
859.442	0.0161784
859.520	0.0161929
859.598	0.0162633
859.676	0.0165261
859.754	0.0163951
859.832	0.0164955
859.910	0.0165648
859.988	0.0163753
860.067	0.0164238
860.145	0.0164968
860.223	0.0165534
860.301	0.0165740
860.379	0.0164451
860.457	0.0165302
860.535	0.0164898
860.613	0.0166101
860.692	0.0165673
860.770	0.0166062
860.848	0.0166130
860.926	0.0165245
861.004	0.0164839
861.082	0.0164159
861.160	0.0165163
861.238	0.0165471
861.317	0.0164351
861.395	0.0165102
861.473	0.0163454
861.551	0.0163165
861.629	0.0163610
861.707	0.0164507
861.785	0.0162805
861.863	0.0163805
861.942	0.0164255
862.020	0.0163198
862.098	0.0162386
862.176	0.0163452
862.254	0.0165031
862.332	0.0164919
862.410	0.0164468
862.488	0.0164169
862.567	0.0164140
862.645	0.0165997
862.723	0.0163270
862.801	0.0164189
862.879	0.0164688
862.957	0.0164092
863.035	0.0163866
863.113	0.0164470
863.192	0.0162059
863.270	0.0162855
863.348	0.0164399
863.426	0.0164231
863.504	0.0163214
863.582	0.0162930
863.660	0.0163073
863.738	0.0164993
863.817	0.0163029
863.895	0.0162169
863.973	0.0164141
864.051	0.0163933
864.129	0.0163895
864.207	0.0163268
864.285	0.0163227
864.363	0.0164639
864.442	0.0164463
864.520	0.0165154
864.598	0.0164604
864.676	0.0165874
864.754	0.0166994
864.832	0.0163483
864.910	0.0165742
864.988	0.0165521
865.067	0.0165413
865.145	0.0166453
865.223	0.0166109
865.301	0.0164949
865.379	0.0166430
865.457	0.0165425
865.535	0.0165285
865.613	0.0166157
865.692	0.0166385
865.770	0.0164771
865.848	0.0163824
865.926	0.0163413
866.004	0.0165193
866.082	0.0165226
866.160	0.0164432
866.238	0.0163293
866.317	0.0164622
866.395	0.0164571
866.473	0.0163081
866.551	0.0163403
866.629	0.0165385
866.707	0.0164449
866.785	0.0164907
866.863	0.0164605
866.942	0.0163652
867.020	0.0164014
867.098	0.0164335
867.176	0.0163348
867.254	0.0163425
867.332	0.0162869
867.410	0.0164159
867.488	0.0164925
867.567	0.0164645
867.645	0.0164096
867.723	0.0164819
867.801	0.0166114
867.879	0.0163708
867.957	0.0165256
868.035	0.0165232
868.113	0.0165469
868.192	0.0165223
868.270	0.0164587
868.348	0.0166241
868.426	0.0165182
868.504	0.0166477
868.582	0.0164841
868.660	0.0165466
868.738	0.0165729
868.817	0.0164754
868.895	0.0164063
868.973	0.0164249
869.051	0.0166014
869.129	0.0163921
869.207	0.0163493
869.285	0.0164704
869.363	0.0163895
869.442	0.0164661
869.520	0.0162894
869.598	0.0163995
869.676	0.0165262
869.754	0.0163824
869.832	0.0164684
869.910	0.0164493
869.988	0.0164671
870.067	0.0162179
870.145	0.0164298
870.223	0.0163592
870.301	0.0164788
870.379	0.0166760
870.457	0.0166021
870.535	0.0164697
870.613	0.0165745
870.692	0.0164986
870.770	0.0164367
870.848	0.0165465
870.926	0.0166313
871.004	0.0165755
871.082	0.0165172
871.160	0.0166724
871.238	0.0166825
871.317	0.0165990
871.395	0.0165018
871.473	0.0165523
871.551	0.0166304
871.629	0.0166602
871.707	0.0165057
871.785	0.0166216
871.863	0.0166211
871.942	0.0165851
872.020	0.0165095
872.098	0.0165153
872.176	0.0165484
872.254	0.0164092
872.332	0.0164080
872.410	0.0164207
872.488	0.0164698
872.567	0.0164391
872.645	0.0163815
872.723	0.0164530
872.801	0.0163239
872.879	0.0163071
872.957	0.0163713
873.035	0.0165651
873.113	0.0164101
873.192	0.0163261
873.270	0.0163708
873.348	0.0163757
873.426	0.0162822
873.504	0.0164661
873.582	0.0164510
873.660	0.0163235
873.738	0.0164835
873.817	0.0164351
873.895	0.0164065
873.973	0.0165483
874.051	0.0164435
874.129	0.0163734
874.207	0.0163656
874.285	0.0164148
874.363	0.0165630
874.442	0.0163838
874.520	0.0163706
874.598	0.0163104
874.676	0.0163542
874.754	0.0163220
874.832	0.0164601
874.910	0.0163404
874.988	0.0163033
875.067	0.0163386
875.145	0.0163269
875.223	0.0162521
875.301	0.0164231
875.379	0.0162540
875.457	0.0162757
875.535	0.0163202
875.613	0.0162422
875.692	0.0162498
875.770	0.0162079
875.848	0.0162320
875.926	0.0163467
876.004	0.0163307
876.082	0.0163606
876.160	0.0162762
876.238	0.0163273
876.317	0.0163670
876.395	0.0164756
876.473	0.0163731
876.551	0.0163895
876.629	0.0164727
876.707	0.0163610
876.785	0.0164491
876.863	0.0164877
876.942	0.0164649
877.020	0.0164973
877.098	0.0164424
877.176	0.0165218
877.254	0.0164334
877.332	0.0165044
877.410	0.0165352
877.488	0.0163731
877.567	0.0165623
877.645	0.0166281
877.723	0.0165511
877.801	0.0164069
877.879	0.0165026
877.957	0.0166237
878.035	0.0165373
878.113	0.0163322
878.192	0.0164141
878.270	0.0165382
878.348	0.0163573
878.426	0.0163788
878.504	0.0165086
878.582	0.0164182
878.660	0.0164461
878.738	0.0164835
878.817	0.0163594
878.895	0.0161470
878.973	0.0164852
879.051	0.0164648
879.129	0.0162368
879.207	0.0163242
879.285	0.0164172
879.363	0.0161681
879.442	0.0162022
879.520	0.0162178
879.598	0.0163091
879.676	0.0162977
879.754	0.0163597
879.832	0.0161542
879.910	0.0162730
879.988	0.0164212
880.067	0.0163972
880.145	0.0163813
880.223	0.0163317
880.301	0.0164239
880.379	0.0164356
880.457	0.0165843
880.535	0.0164060
880.613	0.0165271
880.692	0.0165968
880.770	0.0165699
880.848	0.0166608
880.926	0.0166453
881.004	0.0165279
881.082	0.0164500
881.160	0.0165859
881.238	0.0166891
881.317	0.0166115
881.395	0.0164510
881.473	0.0166052
881.551	0.0166557
881.629	0.0165295
881.707	0.0164867
881.785	0.0164722
881.863	0.0166238
881.942	0.0165034
882.020	0.0164336
882.098	0.0166135
882.176	0.0165344
882.254	0.0165063
882.332	0.0164371
882.410	0.0164751
882.488	0.0162969
882.567	0.0163655
882.645	0.0164156
882.723	0.0164588
882.801	0.0164810
882.879	0.0163329
882.957	0.0162965
883.035	0.0164349
883.113	0.0163081
883.192	0.0163209
883.270	0.0164530
883.348	0.0164420
883.426	0.0165007
883.504	0.0166955
883.582	0.0166310
883.660	0.0164796
883.738	0.0166372
883.817	0.0166858
883.895	0.0167220
883.973	0.0166736
884.051	0.0166661
884.129	0.0167343
884.207	0.0167572
884.285	0.0166187
884.363	0.0165517
884.442	0.0167706
884.520	0.0166168
884.598	0.0166823
884.676	0.0167085
884.754	0.0165713
884.832	0.0166363
884.910	0.0167295
884.988	0.0167841
885.067	0.0166136
885.145	0.0168082
885.223	0.0167640
885.301	0.0166338
885.379	0.0167101
885.457	0.0168922
885.535	0.0165530
885.613	0.0166252
885.692	0.0166852
885.770	0.0166782
885.848	0.0167361
885.926	0.0167643
886.004	0.0165881
886.082	0.0166675
886.160	0.0167252
886.238	0.0165980
886.317	0.0165939
886.395	0.0166788
886.473	0.0167272
886.551	0.0166650
886.629	0.0166998
886.707	0.0166236
886.785	0.0166332
886.863	0.0165480
886.942	0.0166508
887.020	0.0166553
887.098	0.0166689
887.176	0.0167029
887.254	0.0165867
887.332	0.0165664
887.410	0.0166161
887.488	0.0164970
887.567	0.0165266
887.645	0.0165174
887.723	0.0164709
887.801	0.0164489
887.879	0.0163300
887.957	0.0163681
888.035	0.0165852
888.113	0.0164235
888.192	0.0164015
888.270	0.0164649
888.348	0.0164587
888.426	0.0163638
888.504	0.0163735
888.582	0.0163950
888.660	0.0164485
888.738	0.0165168
888.817	0.0164188
888.895	0.0163831
888.973	0.0165034
889.051	0.0164842
889.129	0.0163577
889.207	0.0164301
889.285	0.0164635
889.363	0.0164141
889.442	0.0164817
889.520	0.0163337
889.598	0.0164278
889.676	0.0162347
889.754	0.0162491
889.832	0.0163848
889.910	0.0164474
889.988	0.0163142
890.067	0.0162376
890.145	0.0163750
890.223	0.0163419
890.301	0.0162481
890.379	0.0162733
890.457	0.0162279
890.535	0.0162545
890.613	0.0163809
890.692	0.0164143
890.770	0.0165351
890.848	0.0163978
890.926	0.0165786
891.004	0.0164940
891.082	0.0164355
891.160	0.0164675
891.238	0.0166150
891.317	0.0166413
891.395	0.0165736
891.473	0.0166489
891.551	0.0165437
891.629	0.0165723
891.707	0.0165157
891.785	0.0165562
891.863	0.0166344
891.942	0.0164492
892.020	0.0164658
892.098	0.0164562
892.176	0.0164820
892.254	0.0163510
892.332	0.0164490
892.410	0.0165028
892.488	0.0164011
892.567	0.0163345
892.645	0.0162440
892.723	0.0163475
892.801	0.0163271
892.879	0.0163720
892.957	0.0163586
893.035	0.0163929
893.113	0.0164227
893.192	0.0163959
893.270	0.0163421
893.348	0.0163806
893.426	0.0164946
893.504	0.0166228
893.582	0.0164395
893.660	0.0163076
893.738	0.0164859
893.817	0.0164716
893.895	0.0164201
893.973	0.0164400
894.051	0.0164131
894.129	0.0165958
894.207	0.0165049
894.285	0.0165849
894.363	0.0164893
894.442	0.0164477
894.520	0.0164874
894.598	0.0165449
894.676	0.0165255
894.754	0.0165387
894.832	0.0165129
894.910	0.0164360
894.988	0.0163608
895.067	0.0164744
895.145	0.0163770
895.223	0.0164683
895.301	0.0164675
895.379	0.0163477
895.457	0.0163630
895.535	0.0162377
895.613	0.0162831
895.692	0.0164172
895.770	0.0163406
895.848	0.0163850
895.926	0.0163462
896.004	0.0163267
896.082	0.0162605
896.160	0.0163330
896.238	0.0163619
896.317	0.0164236
896.395	0.0163016
896.473	0.0163775
896.551	0.0164410
896.629	0.0164266
896.707	0.0166182
896.785	0.0165675
896.863	0.0164571
896.942	0.0166126
897.020	0.0166083
897.098	0.0166352
897.176	0.0166392
897.254	0.0166242
897.332	0.0167082
897.410	0.0166631
897.488	0.0166883
897.567	0.0165573
897.645	0.0165636
897.723	0.0165873
897.801	0.0167310
897.879	0.0167848
897.957	0.0166109
898.035	0.0165784
898.113	0.0165846
898.192	0.0167326
898.270	0.0166573
898.348	0.0164716
898.426	0.0166449
898.504	0.0165664
898.582	0.0166001
898.660	0.0166156
898.738	0.0166990
898.817	0.0166493
898.895	0.0165115
898.973	0.0165727
899.051	0.0165381
899.129	0.0165045
899.207	0.0165558
899.285	0.0167233
899.363	0.0166677
899.442	0.0166845
899.520	0.0165660
899.598	0.0165881
899.676	0.0167123
899.754	0.0166980
899.832	0.0166316
899.910	0.0165195
899.988	0.0164668
900.067	0.0165782
900.145	0.0163658
900.223	0.0164603
900.301	0.0164525
900.379	0.0163990
900.457	0.0165111
900.535	0.0164732
900.613	0.0163837
900.692	0.0163935
900.770	0.0164559
900.848	0.0164143
900.926	0.0164551
901.004	0.0166102
901.082	0.0166742
901.160	0.0164394
901.238	0.0165031
901.317	0.0165974
901.395	0.0166838
901.473	0.0165527
901.551	0.0165527
901.629	0.0167417
901.707	0.0166056
901.785	0.0165595
901.863	0.0164796
901.942	0.0166095
902.020	0.0166027
902.098	0.0164129
902.176	0.0164581
902.254	0.0165585
902.332	0.0165237
902.410	0.0164574
902.488	0.0165032
902.567	0.0164658
902.645	0.0164619
902.723	0.0165079
902.801	0.0165194
902.879	0.0165138
902.957	0.0165141
903.035	0.0164005
903.113	0.0164968
903.192	0.0165396
903.270	0.0164904
903.348	0.0165640
903.426	0.0165441
903.504	0.0166809
903.582	0.0166668
903.660	0.0165810
903.738	0.0165727
903.817	0.0166708
903.895	0.0165456
903.973	0.0167166
904.051	0.0166261
904.129	0.0166919
904.207	0.0167459
904.285	0.0166940
904.363	0.0165089
904.442	0.0167162
904.520	0.0168382
904.598	0.0166649
904.676	0.0167281
904.754	0.0167944
904.832	0.0167210
904.910	0.0166850
904.988	0.0166106
905.067	0.0167054
905.145	0.0167640
905.223	0.0166995
905.301	0.0165989
905.379	0.0166441
905.457	0.0165520
905.535	0.0164336
905.613	0.0164453
905.692	0.0165408
905.770	0.0165111
905.848	0.0164155
905.926	0.0163663
906.004	0.0164522
906.082	0.0163808
906.160	0.0162099
906.238	0.0162189
906.317	0.0162691
906.395	0.0162828
906.473	0.0161663
906.551	0.0163206
906.629	0.0162894
906.707	0.0162684
906.785	0.0161576
906.863	0.0162374
906.942	0.0161588
907.020	0.0160436
907.098	0.0163242
907.176	0.0164036
907.254	0.0163439
907.332	0.0162500
907.410	0.0162985
907.488	0.0162888
907.567	0.0164763
907.645	0.0163727
907.723	0.0165147
907.801	0.0165026
907.879	0.0164474
907.957	0.0164683
908.035	0.0164942
908.113	0.0165757
908.192	0.0165363
908.270	0.0165002
908.348	0.0164998
908.426	0.0164182
908.504	0.0164972
908.582	0.0164319
908.660	0.0165424
908.738	0.0166306
908.817	0.0164687
908.895	0.0164527
908.973	0.0164841
909.051	0.0164693
909.129	0.0165222
909.207	0.0165108
909.285	0.0165602
909.363	0.0166582
909.442	0.0166040
909.520	0.0165331
909.598	0.0164275
909.676	0.0165733
909.754	0.0166933
909.832	0.0166811
909.910	0.0166473
909.988	0.0166741
910.067	0.0166900
910.145	0.0167533
910.223	0.0167291
910.301	0.0167208
910.379	0.0168061
910.457	0.0166048
910.535	0.0165921
910.613	0.0165726
910.692	0.0166200
910.770	0.0166260
910.848	0.0165346
910.926	0.0165328
911.004	0.0164228
911.082	0.0164916
911.160	0.0165526
911.238	0.0164293
911.317	0.0162465
911.395	0.0164371
911.473	0.0163589
911.551	0.0163959
911.629	0.0164000
911.707	0.0163745
911.785	0.0163432
911.863	0.0163639
911.942	0.0164346
912.020	0.0165072
912.098	0.0162968
912.176	0.0163266
912.254	0.0164175
912.332	0.0163934
912.410	0.0165628
912.488	0.0164571
912.567	0.0164108
912.645	0.0165066
912.723	0.0165466
912.801	0.0165225
912.879	0.0164746
912.957	0.0165360
913.035	0.0164711
913.113	0.0164986
913.192	0.0166006
913.270	0.0166522
913.348	0.0164960
913.426	0.0164288
913.504	0.0165508
913.582	0.0166493
913.660	0.0165327
913.738	0.0166475
913.817	0.0166387
913.895	0.0164983
913.973	0.0166525
914.051	0.0166749
914.129	0.0167266
914.207	0.0166070
914.285	0.0167657
914.363	0.0167928
914.442	0.0166604
914.520	0.0167233
914.598	0.0166781
914.676	0.0165366
914.754	0.0167205
914.832	0.0167218
914.910	0.0167051
914.988	0.0165739
915.067	0.0165041
915.145	0.0166940
915.223	0.0166553
915.301	0.0164925
915.379	0.0166231
915.457	0.0165823
915.535	0.0164424
915.613	0.0164957
915.692	0.0166030
915.770	0.0165576
915.848	0.0165380
915.926	0.0164729
916.004	0.0165858
916.082	0.0162753
916.160	0.0164124
916.238	0.0164265
916.317	0.0164279
916.395	0.0165059
916.473	0.0164714
916.551	0.0163609
916.629	0.0163942
916.707	0.0164976
916.785	0.0164475
916.863	0.0163930
916.942	0.0163036
917.020	0.0164469
917.098	0.0164146
917.176	0.0164945
917.254	0.0164996
917.332	0.0162846
917.410	0.0163667
917.488	0.0163223
917.567	0.0164730
917.645	0.0163728
917.723	0.0163567
917.801	0.0164698
917.879	0.0163129
917.957	0.0163700
918.035	0.0164297
918.113	0.0162264
918.192	0.0163845
918.270	0.0164684
918.348	0.0163465
918.426	0.0163235
918.504	0.0163442
918.582	0.0163409
918.660	0.0163509
918.738	0.0161403
918.817	0.0162800
918.895	0.0162723
918.973	0.0162351
919.051	0.0162166
919.129	0.0162074
919.207	0.0161628
919.285	0.0161793
919.363	0.0161802
919.442	0.0162409
919.520	0.0161603
919.598	0.0162530
919.676	0.0162226
919.754	0.0162630
919.832	0.0164449
919.910	0.0164972
