05/24/2022	20:40:01	Ver.	4.1	UNKNOWN
Optical Delay	599.981738	Delta X		0.078125	Sweeps	1	Scan Rate	0/0
Coordinates	Axis 1	NaN	Axis 2	NaN	Axis 3	NaN	Axis 4	NaN	Axis 5	NaN	Axis 6	0.000000
TX Power	0.000000	RX Power	0.000000

599.982	0.0160090
600.060	0.0162267
600.138	0.0162123
600.216	0.0163481
600.294	0.0163170
600.372	0.0162411
600.450	0.0163134
600.529	0.0161865
600.607	0.0162354
600.685	0.0162359
600.763	0.0161819
600.841	0.0160517
600.919	0.0161925
600.997	0.0161145
601.075	0.0162968
601.154	0.0161283
601.232	0.0161897
601.310	0.0160638
601.388	0.0160610
601.466	0.0160776
601.544	0.0162234
601.622	0.0160493
601.700	0.0160411
601.779	0.0161334
601.857	0.0160102
601.935	0.0161163
602.013	0.0162582
602.091	0.0162560
602.169	0.0161961
602.247	0.0162017
602.325	0.0162997
602.404	0.0162115
602.482	0.0163612
602.560	0.0165041
602.638	0.0162473
602.716	0.0161441
602.794	0.0163559
602.872	0.0162406
602.950	0.0161095
603.029	0.0163134
603.107	0.0162280
603.185	0.0161524
603.263	0.0162188
603.341	0.0161726
603.419	0.0160472
603.497	0.0160851
603.575	0.0161131
603.654	0.0160668
603.732	0.0160818
603.810	0.0160857
603.888	0.0160519
603.966	0.0160130
604.044	0.0160660
604.122	0.0161818
604.200	0.0161491
604.279	0.0161370
604.357	0.0161459
604.435	0.0161934
604.513	0.0161819
604.591	0.0163412
604.669	0.0162176
604.747	0.0163219
604.825	0.0162550
604.904	0.0162623
604.982	0.0161552
605.060	0.0162194
605.138	0.0161028
605.216	0.0162181
605.294	0.0162081
605.372	0.0162941
605.450	0.0160741
605.529	0.0160441
605.607	0.0162381
605.685	0.0161691
605.763	0.0160955
605.841	0.0160306
605.919	0.0160700
605.997	0.0162091
606.075	0.0161202
606.154	0.0162748
606.232	0.0161293
606.310	0.0160865
606.388	0.0161776
606.466	0.0161765
606.544	0.0161364
606.622	0.0162524
606.700	0.0162761
606.779	0.0161742
606.857	0.0161515
606.935	0.0161815
607.013	0.0160970
607.091	0.0161253
607.169	0.0162234
607.247	0.0162244
607.325	0.0161964
607.404	0.0161079
607.482	0.0161351
607.560	0.0161744
607.638	0.0161426
607.716	0.0161081
607.794	0.0161716
607.872	0.0161245
607.950	0.0163425
608.029	0.0162643
608.107	0.0161456
608.185	0.0161858
608.263	0.0161533
608.341	0.0160707
608.419	0.0162698
608.497	0.0161466
608.575	0.0160466
608.654	0.0161996
608.732	0.0160454
608.810	0.0161888
608.888	0.0162677
608.966	0.0161302
609.044	0.0158998
609.122	0.0161505
609.200	0.0161127
609.279	0.0162053
609.357	0.0160309
609.435	0.0160512
609.513	0.0161714
609.591	0.0160796
609.669	0.0160712
609.747	0.0161427
609.825	0.0160972
609.904	0.0160245
609.982	0.0160872
610.060	0.0161830
610.138	0.0161517
610.216	0.0162644
610.294	0.0161488
610.372	0.0160723
610.450	0.0161293
610.529	0.0162225
610.607	0.0160784
610.685	0.0160771
610.763	0.0161490
610.841	0.0161113
610.919	0.0160884
610.997	0.0160257
611.075	0.0160030
611.154	0.0159885
611.232	0.0160769
611.310	0.0159997
611.388	0.0160094
611.466	0.0159255
611.544	0.0160130
611.622	0.0159892
611.700	0.0160400
611.779	0.0160622
611.857	0.0161567
611.935	0.0159971
612.013	0.0161111
612.091	0.0160249
612.169	0.0161647
612.247	0.0159582
612.325	0.0162207
612.404	0.0160243
612.482	0.0158883
612.560	0.0161728
612.638	0.0162301
612.716	0.0161102
612.794	0.0160137
612.872	0.0160761
612.950	0.0160920
613.029	0.0161286
613.107	0.0161230
613.185	0.0161232
613.263	0.0160596
613.341	0.0161879
613.419	0.0160613
613.497	0.0160851
613.575	0.0161665
613.654	0.0162124
613.732	0.0161811
613.810	0.0162507
613.888	0.0162058
613.966	0.0161109
614.044	0.0161217
614.122	0.0162005
614.200	0.0160446
614.279	0.0160811
614.357	0.0161443
614.435	0.0161853
614.513	0.0161466
614.591	0.0160719
614.669	0.0161459
614.747	0.0161109
614.825	0.0162181
614.904	0.0161790
614.982	0.0161346
615.060	0.0160687
615.138	0.0161445
615.216	0.0161494
615.294	0.0161934
615.372	0.0162912
615.450	0.0161962
615.529	0.0161366
615.607	0.0161229
615.685	0.0161698
615.763	0.0160590
615.841	0.0161774
615.919	0.0159859
615.997	0.0160208
616.075	0.0161058
616.154	0.0160089
616.232	0.0159538
616.310	0.0159439
616.388	0.0160465
616.466	0.0158796
616.544	0.0156642
616.622	0.0158373
616.700	0.0158230
616.779	0.0157379
616.857	0.0158907
616.935	0.0158246
617.013	0.0158927
617.091	0.0158485
617.169	0.0159264
617.247	0.0159173
617.325	0.0158659
617.404	0.0158905
617.482	0.0159898
617.560	0.0161715
617.638	0.0161638
617.716	0.0160156
617.794	0.0160278
617.872	0.0159563
617.950	0.0161379
618.029	0.0161626
618.107	0.0159947
618.185	0.0160217
618.263	0.0160304
618.341	0.0159592
618.419	0.0159117
618.497	0.0160976
618.575	0.0159830
618.654	0.0160479
618.732	0.0159845
618.810	0.0159574
618.888	0.0160394
618.966	0.0159035
619.044	0.0158766
619.122	0.0158517
619.200	0.0158869
619.279	0.0159373
619.357	0.0158897
619.435	0.0158308
619.513	0.0157913
619.591	0.0158023
619.669	0.0158318
619.747	0.0157130
619.825	0.0157776
619.904	0.0157681
619.982	0.0157137
620.060	0.0156902
620.138	0.0157623
620.216	0.0157607
620.294	0.0159486
620.372	0.0158357
620.450	0.0159029
620.529	0.0160491
620.607	0.0160776
620.685	0.0160089
620.763	0.0161310
620.841	0.0161218
620.919	0.0161452
620.997	0.0160477
621.075	0.0159800
621.154	0.0161074
621.232	0.0161475
621.310	0.0163092
621.388	0.0160667
621.466	0.0160888
621.544	0.0160458
621.622	0.0162003
621.700	0.0160905
621.779	0.0161702
621.857	0.0160744
621.935	0.0160427
622.013	0.0161626
622.091	0.0162364
622.169	0.0161195
622.247	0.0162394
622.325	0.0161870
622.404	0.0161356
622.482	0.0162013
622.560	0.0161338
622.638	0.0160087
622.716	0.0161541
622.794	0.0162460
622.872	0.0160496
622.950	0.0161299
623.029	0.0160926
623.107	0.0161295
623.185	0.0159676
623.263	0.0161565
623.341	0.0161142
623.419	0.0161037
623.497	0.0160366
623.575	0.0159752
623.654	0.0160062
623.732	0.0161395
623.810	0.0160525
623.888	0.0160369
623.966	0.0159664
624.044	0.0158646
624.122	0.0158842
624.200	0.0158715
624.279	0.0158355
624.357	0.0157621
624.435	0.0157922
624.513	0.0156989
624.591	0.0158222
624.669	0.0157643
624.747	0.0159602
624.825	0.0158635
624.904	0.0157951
624.982	0.0159299
625.060	0.0160532
625.138	0.0160041
625.216	0.0160712
625.294	0.0161539
625.372	0.0161226
625.450	0.0162317
625.529	0.0161909
625.607	0.0161973
625.685	0.0161679
625.763	0.0160847
625.841	0.0162799
625.919	0.0161758
625.997	0.0161951
626.075	0.0158918
626.154	0.0160152
626.232	0.0161745
626.310	0.0160574
626.388	0.0160874
626.466	0.0159907
626.544	0.0159361
626.622	0.0160228
626.700	0.0162311
626.779	0.0162269
626.857	0.0162859
626.935	0.0164475
627.013	0.0165482
627.091	0.0164524
627.169	0.0165278
627.247	0.0164014
627.325	0.0164346
627.404	0.0166084
627.482	0.0164671
627.560	0.0165856
627.638	0.0165269
627.716	0.0164364
627.794	0.0164819
627.872	0.0165220
627.950	0.0163868
628.029	0.0163729
628.107	0.0163265
628.185	0.0164818
628.263	0.0164164
628.341	0.0165060
628.419	0.0165482
628.497	0.0161921
628.575	0.0163161
628.654	0.0162621
628.732	0.0163042
628.810	0.0160899
628.888	0.0160840
628.966	0.0160360
629.044	0.0160484
629.122	0.0158807
629.200	0.0159328
629.279	0.0159103
629.357	0.0158334
629.435	0.0157993
629.513	0.0158721
629.591	0.0159424
629.669	0.0159066
629.747	0.0159390
629.825	0.0160170
629.904	0.0159888
629.982	0.0160649
630.060	0.0159975
630.138	0.0161409
630.216	0.0162733
630.294	0.0161986
630.372	0.0163268
630.450	0.0162247
630.529	0.0162125
630.607	0.0162092
630.685	0.0162078
630.763	0.0163522
630.841	0.0163964
630.919	0.0161724
630.997	0.0162428
631.075	0.0161913
631.154	0.0161069
631.232	0.0162186
631.310	0.0159759
631.388	0.0158688
631.466	0.0157847
631.544	0.0157217
631.622	0.0157790
631.700	0.0154818
631.779	0.0155299
631.857	0.0155164
631.935	0.0155720
632.013	0.0155037
632.091	0.0156281
632.169	0.0157023
632.247	0.0156975
632.325	0.0157104
632.404	0.0158139
632.482	0.0159901
632.560	0.0160000
632.638	0.0160093
632.716	0.0160316
632.794	0.0163084
632.872	0.0161893
632.950	0.0162535
633.029	0.0163385
633.107	0.0165998
633.185	0.0167296
633.263	0.0169336
633.341	0.0171090
633.419	0.0173563
633.497	0.0173264
633.575	0.0173339
633.654	0.0174841
633.732	0.0174798
633.810	0.0176331
633.888	0.0175744
633.966	0.0174371
634.044	0.0172851
634.122	0.0172444
634.200	0.0170078
634.279	0.0168325
634.357	0.0167683
634.435	0.0165880
634.513	0.0162464
634.591	0.0161970
634.669	0.0160089
634.747	0.0157352
634.825	0.0157400
634.904	0.0154426
634.982	0.0152178
635.060	0.0151309
635.138	0.0148100
635.216	0.0147514
635.294	0.0145480
635.372	0.0144151
635.450	0.0142750
635.529	0.0141628
635.607	0.0141739
635.685	0.0142918
635.763	0.0144358
635.841	0.0144045
635.919	0.0145825
635.997	0.0147913
636.075	0.0149841
636.154	0.0152687
636.232	0.0155946
636.310	0.0158338
636.388	0.0162621
636.466	0.0166474
636.544	0.0170377
636.622	0.0172491
636.700	0.0174120
636.779	0.0177862
636.857	0.0180891
636.935	0.0184020
637.013	0.0186048
637.091	0.0186591
637.169	0.0190541
637.247	0.0191160
637.325	0.0190266
637.404	0.0188783
637.482	0.0188922
637.560	0.0188612
637.638	0.0185955
637.716	0.0182116
637.794	0.0180511
637.872	0.0178640
637.950	0.0173380
638.029	0.0168928
638.107	0.0164075
638.185	0.0160120
638.263	0.0157864
638.341	0.0152807
638.419	0.0147951
638.497	0.0144862
638.575	0.0142324
638.654	0.0137491
638.732	0.0134241
638.810	0.0132757
638.888	0.0130773
638.966	0.0129396
639.044	0.0129237
639.122	0.0128307
639.200	0.0129648
639.279	0.0130825
639.357	0.0133337
639.435	0.0135158
639.513	0.0138914
639.591	0.0140636
639.669	0.0143587
639.747	0.0148959
639.825	0.0153131
639.904	0.0159092
639.982	0.0161082
640.060	0.0166537
640.138	0.0173103
640.216	0.0176091
640.294	0.0182105
640.372	0.0184676
640.450	0.0189141
640.529	0.0193856
640.607	0.0193572
640.685	0.0195775
640.763	0.0196240
640.841	0.0194727
640.919	0.0193803
640.997	0.0194473
641.075	0.0189790
641.154	0.0185719
641.232	0.0182245
641.310	0.0179530
641.388	0.0175368
641.466	0.0171311
641.544	0.0165356
641.622	0.0162970
641.700	0.0157664
641.779	0.0152398
641.857	0.0151339
641.935	0.0147629
642.013	0.0145712
642.091	0.0142534
642.169	0.0140570
642.247	0.0138154
642.325	0.0137415
642.404	0.0136535
642.482	0.0136971
642.560	0.0137785
642.638	0.0139518
642.716	0.0138058
642.794	0.0140673
642.872	0.0143463
642.950	0.0145152
643.029	0.0149147
643.107	0.0152453
643.185	0.0154055
643.263	0.0156859
643.341	0.0158635
643.419	0.0159955
643.497	0.0161259
643.575	0.0164262
643.654	0.0164240
643.732	0.0164925
643.810	0.0166510
643.888	0.0167542
643.966	0.0167656
644.044	0.0167494
644.122	0.0167761
644.200	0.0167891
644.279	0.0167333
644.357	0.0167124
644.435	0.0166479
644.513	0.0165705
644.591	0.0164744
644.669	0.0163865
644.747	0.0162987
644.825	0.0163116
644.904	0.0160905
644.982	0.0161539
645.060	0.0160291
645.138	0.0159888
645.216	0.0159928
645.294	0.0159915
645.372	0.0161791
645.450	0.0162622
645.529	0.0163627
645.607	0.0166186
645.685	0.0167439
645.763	0.0169228
645.841	0.0172076
645.919	0.0175508
645.997	0.0176775
646.075	0.0176192
646.154	0.0176168
646.232	0.0177300
646.310	0.0176955
646.388	0.0176481
646.466	0.0173843
646.544	0.0172392
646.622	0.0170018
646.700	0.0167578
646.779	0.0165755
646.857	0.0162976
646.935	0.0159975
647.013	0.0158805
647.091	0.0155920
647.169	0.0151785
647.247	0.0151532
647.325	0.0148022
647.404	0.0146530
647.482	0.0145158
647.560	0.0144071
647.638	0.0140796
647.716	0.0139893
647.794	0.0138792
647.872	0.0137354
647.950	0.0136565
648.029	0.0137067
648.107	0.0138085
648.185	0.0138926
648.263	0.0140640
648.341	0.0142799
648.419	0.0143684
648.497	0.0148256
648.575	0.0151466
648.654	0.0154133
648.732	0.0158840
648.810	0.0161714
648.888	0.0165274
648.966	0.0167813
649.044	0.0170676
649.122	0.0175275
649.200	0.0177618
649.279	0.0178942
649.357	0.0180576
649.435	0.0184908
649.513	0.0185286
649.591	0.0186834
649.669	0.0185287
649.747	0.0186013
649.825	0.0184463
649.904	0.0183559
649.982	0.0180212
650.060	0.0178198
650.138	0.0176745
650.216	0.0173391
650.294	0.0171829
650.372	0.0168937
650.450	0.0166965
650.529	0.0163823
650.607	0.0161394
650.685	0.0161365
650.763	0.0159530
650.841	0.0158241
650.919	0.0156316
650.997	0.0156038
651.075	0.0154754
651.154	0.0152830
651.232	0.0152628
651.310	0.0152628
651.388	0.0152558
651.466	0.0150718
651.544	0.0150789
651.622	0.0151008
651.700	0.0150266
651.779	0.0149567
651.857	0.0149312
651.935	0.0149854
652.013	0.0150086
652.091	0.0150061
652.169	0.0149781
652.247	0.0149945
652.325	0.0150392
652.404	0.0150958
652.482	0.0150237
652.560	0.0152345
652.638	0.0151812
652.716	0.0152702
652.794	0.0153885
652.872	0.0154131
652.950	0.0156747
653.029	0.0157834
653.107	0.0159615
653.185	0.0161124
653.263	0.0162809
653.341	0.0166383
653.419	0.0167813
653.497	0.0170748
653.575	0.0174638
653.654	0.0177879
653.732	0.0180009
653.810	0.0179955
653.888	0.0183026
653.966	0.0184034
654.044	0.0184921
654.122	0.0185762
654.200	0.0185948
654.279	0.0183864
654.357	0.0182777
654.435	0.0181496
654.513	0.0178268
654.591	0.0175774
654.669	0.0173717
654.747	0.0168420
654.825	0.0163905
654.904	0.0160382
654.982	0.0156075
655.060	0.0153091
655.138	0.0148540
655.216	0.0145483
655.294	0.0142773
655.372	0.0140641
655.450	0.0138049
655.529	0.0137031
655.607	0.0135236
655.685	0.0134532
655.763	0.0135106
655.841	0.0135902
655.919	0.0136688
655.997	0.0137370
656.075	0.0138082
656.154	0.0141086
656.232	0.0145308
656.310	0.0146854
656.388	0.0150872
656.466	0.0154643
656.544	0.0159113
656.622	0.0161738
656.700	0.0165557
656.779	0.0171852
656.857	0.0173811
656.935	0.0176850
657.013	0.0180345
657.091	0.0183998
657.169	0.0185456
657.247	0.0186707
657.325	0.0188947
657.404	0.0189257
657.482	0.0186664
657.560	0.0186171
657.638	0.0186005
657.716	0.0184172
657.794	0.0182793
657.872	0.0180546
657.950	0.0176165
658.029	0.0173563
658.107	0.0170855
658.185	0.0169975
658.263	0.0167302
658.341	0.0164380
658.419	0.0162034
658.497	0.0159509
658.575	0.0157578
658.654	0.0156554
658.732	0.0154169
658.810	0.0154009
658.888	0.0153898
658.966	0.0152667
659.044	0.0151717
659.122	0.0152840
659.200	0.0152471
659.279	0.0155192
659.357	0.0155392
659.435	0.0156651
659.513	0.0157173
659.591	0.0158597
659.669	0.0160810
659.747	0.0159898
659.825	0.0161707
659.904	0.0162524
659.982	0.0161448
660.060	0.0162434
660.138	0.0161880
660.216	0.0161411
660.294	0.0160577
660.372	0.0160243
660.450	0.0158370
660.529	0.0156579
660.607	0.0156400
660.685	0.0155003
660.763	0.0153265
660.841	0.0149930
660.919	0.0151498
660.997	0.0151330
661.075	0.0150249
661.154	0.0150008
661.232	0.0150512
661.310	0.0151264
661.388	0.0151000
661.466	0.0149583
661.544	0.0149871
661.622	0.0150411
661.700	0.0150941
661.779	0.0150751
661.857	0.0152616
661.935	0.0152901
662.013	0.0155537
662.091	0.0156926
662.169	0.0158893
662.247	0.0160644
662.325	0.0163796
662.404	0.0165352
662.482	0.0168230
662.560	0.0168458
662.638	0.0171394
662.716	0.0174414
662.794	0.0174587
662.872	0.0175853
662.950	0.0177081
663.029	0.0176918
663.107	0.0176211
663.185	0.0176289
663.263	0.0176825
663.341	0.0177370
663.419	0.0176968
663.497	0.0177392
663.575	0.0175523
663.654	0.0175108
663.732	0.0172513
663.810	0.0172196
663.888	0.0169403
663.966	0.0167719
664.044	0.0164661
664.122	0.0162653
664.200	0.0159763
664.279	0.0156374
664.357	0.0155665
664.435	0.0154706
664.513	0.0152362
664.591	0.0153805
664.669	0.0151625
664.747	0.0153096
664.825	0.0153272
664.904	0.0154372
664.982	0.0156312
665.060	0.0157937
665.138	0.0157571
665.216	0.0157996
665.294	0.0160515
665.372	0.0160400
665.450	0.0161717
665.529	0.0160932
665.607	0.0161778
665.685	0.0162395
665.763	0.0162201
665.841	0.0160365
665.919	0.0162463
665.997	0.0160952
666.075	0.0157380
666.154	0.0155221
666.232	0.0154769
666.310	0.0153149
666.388	0.0150217
666.466	0.0147315
666.544	0.0145392
666.622	0.0142710
666.700	0.0140767
666.779	0.0138274
666.857	0.0137562
666.935	0.0136891
667.013	0.0136111
667.091	0.0134969
667.169	0.0135727
667.247	0.0136778
667.325	0.0138271
667.404	0.0139095
667.482	0.0140758
667.560	0.0143500
667.638	0.0146004
667.716	0.0150227
667.794	0.0155184
667.872	0.0158418
667.950	0.0163751
668.029	0.0165604
668.107	0.0172800
668.185	0.0175684
668.263	0.0179390
668.341	0.0183686
668.419	0.0187731
668.497	0.0190042
668.575	0.0192974
668.654	0.0196348
668.732	0.0196316
668.810	0.0198099
668.888	0.0198695
668.966	0.0198354
669.044	0.0198612
669.122	0.0196320
669.200	0.0195327
669.279	0.0192954
669.357	0.0190898
669.435	0.0187870
669.513	0.0183923
669.591	0.0181990
669.669	0.0177943
669.747	0.0173215
669.825	0.0172117
669.904	0.0168655
669.982	0.0165145
670.060	0.0161651
670.138	0.0158014
670.216	0.0154567
670.294	0.0152966
670.372	0.0149142
670.450	0.0145385
670.529	0.0143091
670.607	0.0141327
670.685	0.0139078
670.763	0.0135694
670.841	0.0133634
670.919	0.0132580
670.997	0.0129841
671.075	0.0128317
671.154	0.0128694
671.232	0.0126917
671.310	0.0125826
671.388	0.0125562
671.466	0.0125037
671.544	0.0125850
671.622	0.0128342
671.700	0.0130994
671.779	0.0133099
671.857	0.0135486
671.935	0.0139429
672.013	0.0141946
672.091	0.0146348
672.169	0.0148154
672.247	0.0154748
672.325	0.0160683
672.404	0.0162545
672.482	0.0166024
672.560	0.0170466
672.638	0.0172912
672.716	0.0174583
672.794	0.0176360
672.872	0.0179256
672.950	0.0180163
673.029	0.0179410
673.107	0.0181171
673.185	0.0182544
673.263	0.0183119
673.341	0.0181249
673.419	0.0180065
673.497	0.0180040
673.575	0.0178075
673.654	0.0176749
673.732	0.0174748
673.810	0.0174232
673.888	0.0171803
673.966	0.0170315
674.044	0.0168379
674.122	0.0167374
674.200	0.0166088
674.279	0.0164989
674.357	0.0163028
674.435	0.0162775
674.513	0.0162241
674.591	0.0162860
674.669	0.0161913
674.747	0.0161849
674.825	0.0162944
674.904	0.0162971
674.982	0.0163112
675.060	0.0162231
675.138	0.0163498
675.216	0.0163969
675.294	0.0161787
675.372	0.0162868
675.450	0.0163741
675.529	0.0163396
675.607	0.0161460
675.685	0.0162273
675.763	0.0160349
675.841	0.0161010
675.919	0.0161793
675.997	0.0159753
676.075	0.0159357
676.154	0.0160260
676.232	0.0158734
676.310	0.0157188
676.388	0.0157525
676.466	0.0155567
676.544	0.0155561
676.622	0.0154687
676.700	0.0152823
676.779	0.0153339
676.857	0.0153521
676.935	0.0153471
677.013	0.0153991
677.091	0.0152305
677.169	0.0152866
677.247	0.0151973
677.325	0.0155269
677.404	0.0154679
677.482	0.0152539
677.560	0.0153468
677.638	0.0154647
677.716	0.0154393
677.794	0.0155479
677.872	0.0155260
677.950	0.0155997
678.029	0.0155720
678.107	0.0154935
678.185	0.0155933
678.263	0.0158578
678.341	0.0157806
678.419	0.0157764
678.497	0.0158442
678.575	0.0160861
678.654	0.0161612
678.732	0.0162202
678.810	0.0162537
678.888	0.0163015
678.966	0.0164158
679.044	0.0165541
679.122	0.0164443
679.200	0.0166186
679.279	0.0166119
679.357	0.0165172
679.435	0.0165743
679.513	0.0165761
679.591	0.0165862
679.669	0.0165224
679.747	0.0164741
679.825	0.0163950
679.904	0.0163502
679.982	0.0162900
680.060	0.0162279
680.138	0.0162590
680.216	0.0161205
680.294	0.0163020
680.372	0.0162965
680.450	0.0164262
680.529	0.0163721
680.607	0.0164814
680.685	0.0166006
680.763	0.0168446
680.841	0.0168571
680.919	0.0170435
680.997	0.0172069
681.075	0.0172209
681.154	0.0174899
681.232	0.0176768
681.310	0.0176728
681.388	0.0175575
681.466	0.0176975
681.544	0.0177544
681.622	0.0177438
681.700	0.0174639
681.779	0.0172532
681.857	0.0170388
681.935	0.0169119
682.013	0.0166976
682.091	0.0166463
682.169	0.0164870
682.247	0.0163204
682.325	0.0161096
682.404	0.0158833
682.482	0.0158385
682.560	0.0156068
682.638	0.0155176
682.716	0.0155048
682.794	0.0153799
682.872	0.0151829
682.950	0.0151582
683.029	0.0151331
683.107	0.0151427
683.185	0.0150158
683.263	0.0148031
683.341	0.0149294
683.419	0.0148006
683.497	0.0146732
683.575	0.0147844
683.654	0.0148851
683.732	0.0147862
683.810	0.0149070
683.888	0.0147729
683.966	0.0149531
684.044	0.0150414
684.122	0.0151849
684.200	0.0151441
684.279	0.0153037
684.357	0.0154015
684.435	0.0155624
684.513	0.0156569
684.591	0.0158010
684.669	0.0158643
684.747	0.0159140
684.825	0.0159216
684.904	0.0162429
684.982	0.0162173
685.060	0.0164570
685.138	0.0165625
685.216	0.0168130
685.294	0.0169492
685.372	0.0169720
685.450	0.0172258
685.529	0.0172800
685.607	0.0175400
685.685	0.0176447
685.763	0.0176828
685.841	0.0176292
685.919	0.0178654
685.997	0.0177785
686.075	0.0176962
686.154	0.0177392
686.232	0.0175528
686.310	0.0173750
686.388	0.0174236
686.466	0.0172366
686.544	0.0169865
686.622	0.0168509
686.700	0.0166424
686.779	0.0162331
686.857	0.0159812
686.935	0.0158057
687.013	0.0156635
687.091	0.0153473
687.169	0.0151433
687.247	0.0151555
687.325	0.0148756
687.404	0.0148828
687.482	0.0149276
687.560	0.0150714
687.638	0.0150631
687.716	0.0149616
687.794	0.0152332
687.872	0.0150610
687.950	0.0152573
688.029	0.0155709
688.107	0.0155444
688.185	0.0155327
688.263	0.0157009
688.341	0.0158312
688.419	0.0157438
688.497	0.0158812
688.575	0.0160239
688.654	0.0160339
688.732	0.0161147
688.810	0.0159388
688.888	0.0161629
688.966	0.0163210
689.044	0.0163813
689.122	0.0162665
689.200	0.0163380
689.279	0.0163750
689.357	0.0163103
689.435	0.0163383
689.513	0.0164417
689.591	0.0162836
689.669	0.0162141
689.747	0.0161729
689.825	0.0162024
689.904	0.0160553
689.982	0.0160079
690.060	0.0158704
690.138	0.0158329
690.216	0.0157578
690.294	0.0157361
690.372	0.0156660
690.450	0.0156454
690.529	0.0154657
690.607	0.0155453
690.685	0.0154425
690.763	0.0155692
690.841	0.0154790
690.919	0.0153828
690.997	0.0154272
691.075	0.0155389
691.154	0.0155616
691.232	0.0155869
691.310	0.0156183
691.388	0.0158221
691.466	0.0157552
691.544	0.0159512
691.622	0.0160403
691.700	0.0161513
691.779	0.0162762
691.857	0.0163350
691.935	0.0163393
692.013	0.0164604
692.091	0.0165266
692.169	0.0164969
692.247	0.0165714
692.325	0.0166212
692.404	0.0166405
692.482	0.0165115
692.560	0.0164539
692.638	0.0165870
692.716	0.0165037
692.794	0.0164712
692.872	0.0165762
692.950	0.0162994
693.029	0.0164760
693.107	0.0166293
693.185	0.0166563
693.263	0.0166120
693.341	0.0166843
693.419	0.0166667
693.497	0.0168991
693.575	0.0169013
693.654	0.0166685
693.732	0.0165890
693.810	0.0167218
693.888	0.0164951
693.966	0.0166317
694.044	0.0165785
694.122	0.0163377
694.200	0.0163561
694.279	0.0161987
694.357	0.0163374
694.435	0.0161049
694.513	0.0163259
694.591	0.0161684
694.669	0.0161073
694.747	0.0159598
694.825	0.0159535
694.904	0.0158390
694.982	0.0158796
695.060	0.0156815
695.138	0.0156165
695.216	0.0155262
695.294	0.0153252
695.372	0.0152805
695.450	0.0152868
695.529	0.0150734
695.607	0.0151888
695.685	0.0151202
695.763	0.0150060
695.841	0.0148975
695.919	0.0151330
695.997	0.0151200
696.075	0.0149850
696.154	0.0152499
696.232	0.0153673
696.310	0.0155215
696.388	0.0156348
696.466	0.0156814
696.544	0.0158884
696.622	0.0160821
696.700	0.0162599
696.779	0.0163759
696.857	0.0164693
696.935	0.0165087
697.013	0.0166671
697.091	0.0165466
697.169	0.0166400
697.247	0.0165044
697.325	0.0165974
697.404	0.0163467
697.482	0.0164939
697.560	0.0163645
697.638	0.0162750
697.716	0.0161882
697.794	0.0161904
697.872	0.0162362
697.950	0.0160556
698.029	0.0160392
698.107	0.0158058
698.185	0.0157411
698.263	0.0157647
698.341	0.0157818
698.419	0.0157799
698.497	0.0157244
698.575	0.0156623
698.654	0.0158312
698.732	0.0158841
698.810	0.0159573
698.888	0.0160383
698.966	0.0160786
699.044	0.0163477
699.122	0.0164820
699.200	0.0164851
699.279	0.0166415
699.357	0.0165719
699.435	0.0167102
699.513	0.0168337
699.591	0.0166130
699.669	0.0168123
699.747	0.0168656
699.825	0.0169527
699.904	0.0168210
699.982	0.0168852
700.060	0.0168323
700.138	0.0168324
700.216	0.0167678
700.294	0.0167569
700.372	0.0166390
700.450	0.0166754
700.529	0.0164967
700.607	0.0163800
700.685	0.0163271
700.763	0.0162108
700.841	0.0160275
700.919	0.0160294
700.997	0.0159859
701.075	0.0159673
701.154	0.0157304
701.232	0.0157105
701.310	0.0158899
701.388	0.0159435
701.466	0.0160342
701.544	0.0159367
701.622	0.0159975
701.700	0.0159814
701.779	0.0159944
701.857	0.0161688
701.935	0.0161962
702.013	0.0162536
702.091	0.0162096
702.169	0.0163690
702.247	0.0164483
702.325	0.0163678
702.404	0.0163390
702.482	0.0162790
702.560	0.0162609
702.638	0.0162788
702.716	0.0163447
702.794	0.0162301
702.872	0.0161854
702.950	0.0159917
703.029	0.0161778
703.107	0.0159897
703.185	0.0160358
703.263	0.0159581
703.341	0.0160538
703.419	0.0158893
703.497	0.0159322
703.575	0.0159620
703.654	0.0159508
703.732	0.0158141
703.810	0.0157843
703.888	0.0158246
703.966	0.0159371
704.044	0.0158604
704.122	0.0159454
704.200	0.0159019
704.279	0.0158850
704.357	0.0158228
704.435	0.0158961
704.513	0.0159995
704.591	0.0160247
704.669	0.0159594
704.747	0.0161268
704.825	0.0158786
704.904	0.0160457
704.982	0.0160892
705.060	0.0161217
705.138	0.0160160
705.216	0.0161256
705.294	0.0162297
705.372	0.0162232
705.450	0.0162019
705.529	0.0162968
705.607	0.0163610
705.685	0.0163525
705.763	0.0162381
705.841	0.0163349
705.919	0.0163034
705.997	0.0162826
706.075	0.0162795
706.154	0.0163018
706.232	0.0162769
706.310	0.0162556
706.388	0.0161327
706.466	0.0160732
706.544	0.0161005
706.622	0.0163327
706.700	0.0162364
706.779	0.0163801
706.857	0.0162303
706.935	0.0165147
707.013	0.0164629
707.091	0.0164954
707.169	0.0165367
707.247	0.0167424
707.325	0.0165756
707.404	0.0167405
707.482	0.0165225
707.560	0.0165754
707.638	0.0165477
707.716	0.0166957
707.794	0.0165451
707.872	0.0165053
707.950	0.0164671
708.029	0.0163660
708.107	0.0162722
708.185	0.0161140
708.263	0.0161277
708.341	0.0160449
708.419	0.0160376
708.497	0.0159257
708.575	0.0160459
708.654	0.0160680
708.732	0.0157715
708.810	0.0157472
708.888	0.0158021
708.966	0.0160253
709.044	0.0159079
709.122	0.0158892
709.200	0.0158733
709.279	0.0159613
709.357	0.0158769
709.435	0.0159129
709.513	0.0159901
709.591	0.0158166
709.669	0.0159043
709.747	0.0158874
709.825	0.0159627
709.904	0.0159536
709.982	0.0158839
710.060	0.0160211
710.138	0.0158719
710.216	0.0158662
710.294	0.0159400
710.372	0.0159470
710.450	0.0158731
710.529	0.0160890
710.607	0.0162323
710.685	0.0161666
710.763	0.0162345
710.841	0.0162050
710.919	0.0162710
710.997	0.0162476
711.075	0.0162305
711.154	0.0164842
711.232	0.0163014
711.310	0.0163091
711.388	0.0163263
711.466	0.0162632
711.544	0.0161416
711.622	0.0162474
711.700	0.0163270
711.779	0.0162063
711.857	0.0162508
711.935	0.0163197
712.013	0.0165325
712.091	0.0165443
712.169	0.0164184
712.247	0.0165964
712.325	0.0165243
712.404	0.0165733
712.482	0.0167918
712.560	0.0167401
712.638	0.0168957
712.716	0.0166783
712.794	0.0166613
712.872	0.0166383
712.950	0.0167260
713.029	0.0167754
713.107	0.0165151
713.185	0.0164849
713.263	0.0164771
713.341	0.0165149
713.419	0.0163723
713.497	0.0160729
713.575	0.0161323
713.654	0.0159750
713.732	0.0157482
713.810	0.0158623
713.888	0.0157425
713.966	0.0158030
714.044	0.0158421
714.122	0.0157313
714.200	0.0157653
714.279	0.0158212
714.357	0.0158446
714.435	0.0158608
714.513	0.0160177
714.591	0.0159295
714.669	0.0161097
714.747	0.0160693
714.825	0.0160756
714.904	0.0161196
714.982	0.0161015
715.060	0.0159747
715.138	0.0159241
715.216	0.0161720
715.294	0.0160619
715.372	0.0160079
715.450	0.0160329
715.529	0.0161012
715.607	0.0161025
715.685	0.0160276
715.763	0.0161172
715.841	0.0161479
715.919	0.0161070
715.997	0.0160927
716.075	0.0161167
716.154	0.0161184
716.232	0.0161366
716.310	0.0162048
716.388	0.0161214
716.466	0.0159119
716.544	0.0160606
716.622	0.0161001
716.700	0.0159814
716.779	0.0158968
716.857	0.0158801
716.935	0.0157962
717.013	0.0159203
717.091	0.0158742
717.169	0.0159595
717.247	0.0158456
717.325	0.0159917
717.404	0.0160708
717.482	0.0160583
717.560	0.0161626
717.638	0.0161395
717.716	0.0161721
717.794	0.0162804
717.872	0.0164164
717.950	0.0164585
718.029	0.0164674
718.107	0.0164283
718.185	0.0165833
718.263	0.0166264
718.341	0.0166953
718.419	0.0166655
718.497	0.0164807
718.575	0.0164796
718.654	0.0163859
718.732	0.0165841
718.810	0.0165533
718.888	0.0163927
718.966	0.0164534
719.044	0.0162659
719.122	0.0162482
719.200	0.0162508
719.279	0.0161555
719.357	0.0162289
719.435	0.0162671
719.513	0.0161745
719.591	0.0162209
719.669	0.0163398
719.747	0.0160830
719.825	0.0161721
719.904	0.0162074
719.982	0.0161194
720.060	0.0160748
720.138	0.0160583
720.216	0.0162063
720.294	0.0161288
720.372	0.0160831
720.450	0.0160714
720.529	0.0159373
720.607	0.0159819
720.685	0.0159756
720.763	0.0158802
720.841	0.0159215
720.919	0.0159132
720.997	0.0158813
721.075	0.0159442
721.154	0.0158680
721.232	0.0157343
721.310	0.0157634
721.388	0.0160004
721.466	0.0159446
721.544	0.0159332
721.622	0.0158511
721.700	0.0161042
721.779	0.0159956
721.857	0.0159910
721.935	0.0159572
722.013	0.0161977
722.091	0.0161201
722.169	0.0161001
722.247	0.0162370
722.325	0.0161206
722.404	0.0162891
722.482	0.0162289
722.560	0.0163641
722.638	0.0163338
722.716	0.0162794
722.794	0.0161991
722.872	0.0163152
722.950	0.0162957
723.029	0.0162537
723.107	0.0162901
723.185	0.0162981
723.263	0.0163345
723.341	0.0163246
723.419	0.0161092
723.497	0.0161921
723.575	0.0161190
723.654	0.0160752
723.732	0.0161517
723.810	0.0160064
723.888	0.0159614
723.966	0.0159663
724.044	0.0159991
724.122	0.0161098
724.200	0.0160545
724.279	0.0161081
724.357	0.0161440
724.435	0.0161854
724.513	0.0160819
724.591	0.0161380
724.669	0.0162486
724.747	0.0162627
724.825	0.0162178
724.904	0.0161483
724.982	0.0162538
725.060	0.0163834
725.138	0.0162919
725.216	0.0161887
725.294	0.0162262
725.372	0.0162500
725.450	0.0162041
725.529	0.0162398
725.607	0.0161803
725.685	0.0161997
725.763	0.0163615
725.841	0.0162708
725.919	0.0162815
725.997	0.0161592
726.075	0.0161370
726.154	0.0161798
726.232	0.0160828
726.310	0.0160371
726.388	0.0161131
726.466	0.0161194
726.544	0.0159344
726.622	0.0159532
726.700	0.0159430
726.779	0.0159188
726.857	0.0158067
726.935	0.0159190
727.013	0.0155779
727.091	0.0156067
727.169	0.0157590
727.247	0.0156988
727.325	0.0156868
727.404	0.0156458
727.482	0.0156232
727.560	0.0156472
727.638	0.0157064
727.716	0.0156860
727.794	0.0155655
727.872	0.0157268
727.950	0.0157651
728.029	0.0157665
728.107	0.0158457
728.185	0.0158639
728.263	0.0158244
728.341	0.0159222
728.419	0.0161341
728.497	0.0159572
728.575	0.0161032
728.654	0.0161937
728.732	0.0161871
728.810	0.0161217
728.888	0.0161707
728.966	0.0162885
729.044	0.0162640
729.122	0.0162473
729.200	0.0163933
729.279	0.0160667
729.357	0.0162924
729.435	0.0163106
729.513	0.0163949
729.591	0.0164189
729.669	0.0162141
729.747	0.0164106
729.825	0.0164310
729.904	0.0162466
729.982	0.0163416
730.060	0.0164415
730.138	0.0163615
730.216	0.0163261
730.294	0.0163712
730.372	0.0164333
730.450	0.0164716
730.529	0.0164836
730.607	0.0165413
730.685	0.0164422
730.763	0.0164139
730.841	0.0164684
730.919	0.0165082
730.997	0.0164243
731.075	0.0163031
731.154	0.0162766
731.232	0.0163977
731.310	0.0162612
731.388	0.0163993
731.466	0.0162193
731.544	0.0162571
731.622	0.0162817
731.700	0.0161363
731.779	0.0162007
731.857	0.0163697
731.935	0.0161995
732.013	0.0160110
732.091	0.0160904
732.169	0.0159769
732.247	0.0160879
732.325	0.0159406
732.404	0.0159494
732.482	0.0158463
732.560	0.0160332
732.638	0.0158809
732.716	0.0158834
732.794	0.0159402
732.872	0.0160091
732.950	0.0159617
733.029	0.0159737
733.107	0.0160464
733.185	0.0160280
733.263	0.0162007
733.341	0.0161887
733.419	0.0162898
733.497	0.0160927
733.575	0.0163264
733.654	0.0163255
733.732	0.0162885
733.810	0.0163271
733.888	0.0161889
733.966	0.0163715
734.044	0.0163073
734.122	0.0162104
734.200	0.0162052
734.279	0.0163082
734.357	0.0163251
734.435	0.0162925
734.513	0.0160986
734.591	0.0161916
734.669	0.0161801
734.747	0.0160609
734.825	0.0161240
734.904	0.0160506
734.982	0.0160207
735.060	0.0160334
735.138	0.0159736
735.216	0.0158878
735.294	0.0157586
735.372	0.0158919
735.450	0.0156767
735.529	0.0155929
735.607	0.0156985
735.685	0.0158202
735.763	0.0156278
735.841	0.0156590
735.919	0.0158374
735.997	0.0158258
736.075	0.0157771
736.154	0.0159253
736.232	0.0159937
736.310	0.0159425
736.388	0.0160970
736.466	0.0162154
736.544	0.0162108
736.622	0.0163747
736.700	0.0163233
736.779	0.0163474
736.857	0.0163844
736.935	0.0163628
737.013	0.0162390
737.091	0.0163506
737.169	0.0165279
737.247	0.0164023
737.325	0.0165684
737.404	0.0166532
737.482	0.0165999
737.560	0.0165025
737.638	0.0164462
737.716	0.0164258
737.794	0.0164436
737.872	0.0163804
737.950	0.0163761
738.029	0.0161951
738.107	0.0161011
738.185	0.0162376
738.263	0.0160468
738.341	0.0160308
738.419	0.0160703
738.497	0.0159615
738.575	0.0159275
738.654	0.0158706
738.732	0.0159583
738.810	0.0159504
738.888	0.0158762
738.966	0.0160385
739.044	0.0159814
739.122	0.0159945
739.200	0.0159061
739.279	0.0158641
739.357	0.0158809
739.435	0.0158785
739.513	0.0160174
739.591	0.0160421
739.669	0.0160754
739.747	0.0158490
739.825	0.0160081
739.904	0.0160545
739.982	0.0160001
740.060	0.0160661
740.138	0.0161924
740.216	0.0161275
740.294	0.0160175
740.372	0.0161173
740.450	0.0161222
740.529	0.0162053
740.607	0.0161848
740.685	0.0162540
740.763	0.0162809
740.841	0.0162390
740.919	0.0160878
740.997	0.0162965
741.075	0.0162269
741.154	0.0160206
741.232	0.0160896
741.310	0.0162239
741.388	0.0162269
741.466	0.0162662
741.544	0.0162360
741.622	0.0162596
741.700	0.0161722
741.779	0.0161918
741.857	0.0163482
741.935	0.0164024
742.013	0.0163679
742.091	0.0163889
742.169	0.0163493
742.247	0.0162966
742.325	0.0163374
742.404	0.0163980
742.482	0.0164283
742.560	0.0164861
742.638	0.0163060
742.716	0.0163071
742.794	0.0163318
742.872	0.0163326
742.950	0.0161470
743.029	0.0163338
743.107	0.0161458
743.185	0.0162514
743.263	0.0162000
743.341	0.0161117
743.419	0.0161339
743.497	0.0162727
743.575	0.0161036
743.654	0.0162408
743.732	0.0161739
743.810	0.0161502
743.888	0.0161345
743.966	0.0160451
744.044	0.0161324
744.122	0.0160939
744.200	0.0158906
744.279	0.0159354
744.357	0.0160634
744.435	0.0159548
744.513	0.0159552
744.591	0.0159000
744.669	0.0157839
744.747	0.0157393
744.825	0.0160503
744.904	0.0158087
744.982	0.0158588
745.060	0.0159119
745.138	0.0158542
745.216	0.0159383
745.294	0.0159332
745.372	0.0160029
745.450	0.0159959
745.529	0.0161174
745.607	0.0159123
745.685	0.0159799
745.763	0.0159485
745.841	0.0162206
745.919	0.0162439
745.997	0.0162601
746.075	0.0162576
746.154	0.0161541
746.232	0.0162631
746.310	0.0164748
746.388	0.0162633
746.466	0.0160891
746.544	0.0163299
746.622	0.0163168
746.700	0.0162674
746.779	0.0163112
746.857	0.0161576
746.935	0.0162033
747.013	0.0161861
747.091	0.0160580
747.169	0.0162093
747.247	0.0161552
747.325	0.0160593
747.404	0.0159758
747.482	0.0161003
747.560	0.0160923
747.638	0.0160020
747.716	0.0161163
747.794	0.0160884
747.872	0.0159624
747.950	0.0159447
748.029	0.0160593
748.107	0.0159639
748.185	0.0160609
748.263	0.0160223
748.341	0.0159856
748.419	0.0159618
748.497	0.0159436
748.575	0.0159543
748.654	0.0158945
748.732	0.0160216
748.810	0.0160271
748.888	0.0159270
748.966	0.0158473
749.044	0.0160011
749.122	0.0159701
749.200	0.0159992
749.279	0.0160563
749.357	0.0160331
749.435	0.0161951
749.513	0.0162321
749.591	0.0160900
749.669	0.0161958
749.747	0.0162440
749.825	0.0162884
749.904	0.0163136
749.982	0.0163309
750.060	0.0162566
750.138	0.0163943
750.216	0.0163353
750.294	0.0163085
750.372	0.0164071
750.450	0.0165030
750.529	0.0163250
750.607	0.0163116
750.685	0.0163842
750.763	0.0162992
750.841	0.0162791
750.919	0.0164024
750.997	0.0164031
751.075	0.0162904
751.154	0.0162899
751.232	0.0162318
751.310	0.0162125
751.388	0.0163750
751.466	0.0162119
751.544	0.0161227
751.622	0.0160238
751.700	0.0160070
751.779	0.0158907
751.857	0.0159794
751.935	0.0158121
752.013	0.0159843
752.091	0.0157158
752.169	0.0158416
752.247	0.0158736
752.325	0.0158375
752.404	0.0158456
752.482	0.0157417
752.560	0.0157893
752.638	0.0159502
752.716	0.0159367
752.794	0.0161276
752.872	0.0159081
752.950	0.0159148
753.029	0.0161655
753.107	0.0160958
753.185	0.0159991
753.263	0.0160416
753.341	0.0160432
753.419	0.0161124
753.497	0.0160973
753.575	0.0160968
753.654	0.0159972
753.732	0.0160814
753.810	0.0159667
753.888	0.0159676
753.966	0.0159518
754.044	0.0159689
754.122	0.0159715
754.200	0.0159643
754.279	0.0158553
754.357	0.0158920
754.435	0.0158237
754.513	0.0158379
754.591	0.0158573
754.669	0.0157558
754.747	0.0158328
754.825	0.0158305
754.904	0.0157155
754.982	0.0158585
755.060	0.0159073
755.138	0.0157861
755.216	0.0157538
755.294	0.0157921
755.372	0.0158257
755.450	0.0156308
755.529	0.0158483
755.607	0.0159000
755.685	0.0159383
755.763	0.0157401
755.841	0.0158755
755.919	0.0158848
755.997	0.0158892
756.075	0.0158091
756.154	0.0158744
756.232	0.0159177
756.310	0.0158503
756.388	0.0159601
756.466	0.0158607
756.544	0.0157832
756.622	0.0160709
756.700	0.0159982
756.779	0.0158479
756.857	0.0160777
756.935	0.0161478
757.013	0.0159702
757.091	0.0160579
757.169	0.0160808
757.247	0.0159762
757.325	0.0160418
757.404	0.0160854
757.482	0.0161670
757.560	0.0161169
757.638	0.0161546
757.716	0.0161085
757.794	0.0160175
757.872	0.0162069
757.950	0.0160760
758.029	0.0160092
758.107	0.0161862
758.185	0.0161393
758.263	0.0163002
758.341	0.0163242
758.419	0.0163633
758.497	0.0163766
758.575	0.0162794
758.654	0.0164145
758.732	0.0163753
758.810	0.0163014
758.888	0.0162732
758.966	0.0163501
759.044	0.0162289
759.122	0.0164539
759.200	0.0163466
759.279	0.0162610
759.357	0.0163929
759.435	0.0163882
759.513	0.0163769
759.591	0.0163958
759.669	0.0163289
759.747	0.0163380
759.825	0.0162296
759.904	0.0164040
759.982	0.0162479
760.060	0.0162402
760.138	0.0161929
760.216	0.0162879
760.294	0.0162640
760.372	0.0163426
760.450	0.0161759
760.529	0.0161829
760.607	0.0160878
760.685	0.0161389
760.763	0.0161308
760.841	0.0159940
760.919	0.0161242
760.997	0.0161474
761.075	0.0159291
761.154	0.0159726
761.232	0.0160424
761.310	0.0159768
761.388	0.0159530
761.466	0.0161222
761.544	0.0159489
761.622	0.0159183
761.700	0.0160129
761.779	0.0160258
761.857	0.0159750
761.935	0.0159831
762.013	0.0160462
762.091	0.0160473
762.169	0.0158869
762.247	0.0159343
762.325	0.0160139
762.404	0.0159655
762.482	0.0159224
762.560	0.0158916
762.638	0.0159637
762.716	0.0158681
762.794	0.0157906
762.872	0.0159386
762.950	0.0159973
763.029	0.0159940
763.107	0.0158141
763.185	0.0158993
763.263	0.0158359
763.341	0.0159494
763.419	0.0158955
763.497	0.0158334
763.575	0.0157926
763.654	0.0158651
763.732	0.0159618
763.810	0.0158371
763.888	0.0160018
763.966	0.0160338
764.044	0.0160438
764.122	0.0160851
764.200	0.0160619
764.279	0.0161384
764.357	0.0162542
764.435	0.0161697
764.513	0.0163271
764.591	0.0163190
764.669	0.0165229
764.747	0.0163994
764.825	0.0163757
764.904	0.0165402
764.982	0.0164730
765.060	0.0165322
765.138	0.0166631
765.216	0.0165523
765.294	0.0165702
765.372	0.0166731
765.450	0.0166674
765.529	0.0166104
765.607	0.0166512
765.685	0.0167035
765.763	0.0166282
765.841	0.0166163
765.919	0.0166025
765.997	0.0165208
766.075	0.0164388
766.154	0.0166277
766.232	0.0164805
766.310	0.0163852
766.388	0.0163532
766.466	0.0163693
766.544	0.0164458
766.622	0.0163664
766.700	0.0162677
766.779	0.0163107
766.857	0.0162049
766.935	0.0161696
767.013	0.0162179
767.091	0.0161200
767.169	0.0159147
767.247	0.0158775
767.325	0.0160686
767.404	0.0160828
767.482	0.0158782
767.560	0.0159126
767.638	0.0158537
767.716	0.0158372
767.794	0.0157494
767.872	0.0157933
767.950	0.0154967
768.029	0.0155033
768.107	0.0156318
768.185	0.0156812
768.263	0.0155598
768.341	0.0156049
768.419	0.0157045
768.497	0.0156979
768.575	0.0157072
768.654	0.0156466
768.732	0.0156980
768.810	0.0157407
768.888	0.0159578
768.966	0.0158599
769.044	0.0159893
769.122	0.0160257
769.200	0.0161287
769.279	0.0160239
769.357	0.0160680
769.435	0.0161704
769.513	0.0161319
769.591	0.0162273
769.669	0.0163560
769.747	0.0161875
769.825	0.0161654
769.904	0.0161897
769.982	0.0163355
770.060	0.0162605
770.138	0.0163239
770.216	0.0161750
770.294	0.0163071
770.372	0.0165048
770.450	0.0164165
770.529	0.0164874
770.607	0.0163283
770.685	0.0165217
770.763	0.0163451
770.841	0.0164996
770.919	0.0164682
770.997	0.0164115
771.075	0.0163741
771.154	0.0163248
771.232	0.0162550
771.310	0.0164191
771.388	0.0163048
771.466	0.0163014
771.544	0.0163336
771.622	0.0162733
771.700	0.0161169
771.779	0.0162762
771.857	0.0162907
771.935	0.0160975
772.013	0.0161635
772.091	0.0162953
772.169	0.0162520
772.247	0.0162823
772.325	0.0162756
772.404	0.0162590
772.482	0.0163160
772.560	0.0162904
772.638	0.0163064
772.716	0.0163095
772.794	0.0162516
772.872	0.0162881
772.950	0.0162476
773.029	0.0162292
773.107	0.0162733
773.185	0.0163367
773.263	0.0159833
773.341	0.0162139
773.419	0.0162798
773.497	0.0161788
773.575	0.0161972
773.654	0.0161329
773.732	0.0161509
773.810	0.0161547
773.888	0.0161285
773.966	0.0160904
774.044	0.0162489
774.122	0.0161761
774.200	0.0159614
774.279	0.0160790
774.357	0.0159895
774.435	0.0160530
774.513	0.0160603
774.591	0.0160165
774.669	0.0159605
774.747	0.0159558
774.825	0.0161346
774.904	0.0160601
774.982	0.0161204
775.060	0.0159881
775.138	0.0160573
775.216	0.0161058
775.294	0.0161201
775.372	0.0160806
775.450	0.0159634
775.529	0.0160091
775.607	0.0161343
775.685	0.0161743
775.763	0.0162171
775.841	0.0161238
775.919	0.0160506
775.997	0.0161658
776.075	0.0160838
776.154	0.0161931
776.232	0.0161943
776.310	0.0163543
776.388	0.0161536
776.466	0.0162852
776.544	0.0162076
776.622	0.0162560
776.700	0.0162491
776.779	0.0162663
776.857	0.0162308
776.935	0.0162275
777.013	0.0161886
777.091	0.0161536
777.169	0.0162966
777.247	0.0163605
777.325	0.0162127
777.404	0.0161530
777.482	0.0161854
777.560	0.0162910
777.638	0.0162086
777.716	0.0161710
777.794	0.0161146
777.872	0.0162778
777.950	0.0161928
778.029	0.0161121
778.107	0.0161131
778.185	0.0161761
778.263	0.0160633
778.341	0.0161332
778.419	0.0161671
778.497	0.0162333
778.575	0.0162003
778.654	0.0161519
778.732	0.0160820
778.810	0.0161094
778.888	0.0161075
778.966	0.0161636
779.044	0.0161325
779.122	0.0160803
779.200	0.0160619
779.279	0.0162405
779.357	0.0161107
779.435	0.0161516
779.513	0.0161366
779.591	0.0160944
779.669	0.0162503
779.747	0.0162121
779.825	0.0160654
779.904	0.0160014
779.982	0.0161705
780.060	0.0161108
780.138	0.0160743
780.216	0.0161706
780.294	0.0162025
780.372	0.0161584
780.450	0.0162992
780.529	0.0162219
780.607	0.0163188
780.685	0.0161822
780.763	0.0163242
780.841	0.0163762
780.919	0.0162907
780.997	0.0164295
781.075	0.0163510
781.154	0.0163412
781.232	0.0163638
781.310	0.0163651
781.388	0.0164503
781.466	0.0165635
781.544	0.0164859
781.622	0.0165237
781.700	0.0165019
781.779	0.0165853
781.857	0.0165881
781.935	0.0166096
782.013	0.0163486
782.091	0.0165382
782.169	0.0164087
782.247	0.0164099
782.325	0.0163467
782.404	0.0164208
782.482	0.0163156
782.560	0.0163080
782.638	0.0163113
782.716	0.0162684
782.794	0.0161235
782.872	0.0161550
782.950	0.0160246
783.029	0.0161383
783.107	0.0161784
783.185	0.0160238
783.263	0.0160110
783.341	0.0158479
783.419	0.0159686
783.497	0.0160760
783.575	0.0160270
783.654	0.0159723
783.732	0.0159562
783.810	0.0158826
783.888	0.0159261
783.966	0.0159109
784.044	0.0158557
784.122	0.0158352
784.200	0.0158112
784.279	0.0158825
784.357	0.0157661
784.435	0.0159112
784.513	0.0159270
784.591	0.0158214
784.669	0.0158167
784.747	0.0158753
784.825	0.0158898
784.904	0.0157793
784.982	0.0158381
785.060	0.0159358
785.138	0.0158811
785.216	0.0158471
785.294	0.0160038
785.372	0.0159101
785.450	0.0160246
785.529	0.0159614
785.607	0.0159971
785.685	0.0159954
785.763	0.0159810
785.841	0.0159908
785.919	0.0160613
785.997	0.0160452
786.075	0.0159512
786.154	0.0161542
786.232	0.0160840
786.310	0.0161406
786.388	0.0160922
786.466	0.0159540
786.544	0.0160517
786.622	0.0159981
786.700	0.0160564
786.779	0.0162881
786.857	0.0161453
786.935	0.0161482
787.013	0.0161896
787.091	0.0161404
787.169	0.0161312
787.247	0.0161563
787.325	0.0162725
787.404	0.0162206
787.482	0.0160985
787.560	0.0162789
787.638	0.0162316
787.716	0.0162607
787.794	0.0162074
787.872	0.0161563
787.950	0.0160388
788.029	0.0161185
788.107	0.0161360
788.185	0.0160017
788.263	0.0161420
788.341	0.0162138
788.419	0.0160264
788.497	0.0160493
788.575	0.0160532
788.654	0.0160318
788.732	0.0161337
788.810	0.0161182
788.888	0.0160650
788.966	0.0161080
789.044	0.0161419
789.122	0.0161820
789.200	0.0162011
789.279	0.0160680
789.357	0.0160600
789.435	0.0162407
789.513	0.0161694
789.591	0.0161408
789.669	0.0161924
789.747	0.0161703
789.825	0.0162116
789.904	0.0162747
789.982	0.0160910
790.060	0.0163110
790.138	0.0161964
790.216	0.0161777
790.294	0.0161169
790.372	0.0162598
790.450	0.0161884
790.529	0.0161343
790.607	0.0162966
790.685	0.0162468
790.763	0.0163209
790.841	0.0163115
790.919	0.0161230
790.997	0.0161811
791.075	0.0162816
791.154	0.0163042
791.232	0.0162048
791.310	0.0163303
791.388	0.0163129
791.466	0.0161887
791.544	0.0162749
791.622	0.0163495
791.700	0.0162463
791.779	0.0162826
791.857	0.0162331
791.935	0.0160993
792.013	0.0162680
792.091	0.0162860
792.169	0.0160241
792.247	0.0163385
792.325	0.0161678
792.404	0.0161932
792.482	0.0163061
792.560	0.0162556
792.638	0.0160699
792.716	0.0161092
792.794	0.0161129
792.872	0.0161535
792.950	0.0161242
793.029	0.0161487
793.107	0.0161732
793.185	0.0162383
793.263	0.0160707
793.341	0.0159963
793.419	0.0160088
793.497	0.0159315
793.575	0.0159615
793.654	0.0161237
793.732	0.0160912
793.810	0.0160438
793.888	0.0160263
793.966	0.0160556
794.044	0.0160572
794.122	0.0161171
794.200	0.0161132
794.279	0.0160493
794.357	0.0161127
794.435	0.0161110
794.513	0.0161454
794.591	0.0160526
794.669	0.0160871
794.747	0.0162253
794.825	0.0163048
794.904	0.0162372
794.982	0.0161574
795.060	0.0161977
795.138	0.0162670
795.216	0.0162701
795.294	0.0163995
795.372	0.0165651
795.450	0.0165372
795.529	0.0164648
795.607	0.0164420
795.685	0.0164249
795.763	0.0164532
795.841	0.0164535
795.919	0.0164294
795.997	0.0164317
796.075	0.0165462
796.154	0.0166070
796.232	0.0164134
796.310	0.0163863
796.388	0.0164938
796.466	0.0165128
796.544	0.0165126
796.622	0.0163228
796.700	0.0162727
796.779	0.0162283
796.857	0.0162654
796.935	0.0163317
797.013	0.0161842
797.091	0.0160374
797.169	0.0159892
797.247	0.0163044
797.325	0.0162411
797.404	0.0161165
797.482	0.0161112
797.560	0.0160060
797.638	0.0160562
797.716	0.0160366
797.794	0.0160720
797.872	0.0161062
797.950	0.0160236
798.029	0.0160400
798.107	0.0160853
798.185	0.0160885
798.263	0.0159783
798.341	0.0161105
798.419	0.0161166
798.497	0.0160538
798.575	0.0160571
798.654	0.0161984
798.732	0.0160756
798.810	0.0161416
798.888	0.0160521
798.966	0.0162216
799.044	0.0162577
799.122	0.0161942
799.200	0.0160762
799.279	0.0160699
799.357	0.0161320
799.435	0.0160913
799.513	0.0161853
799.591	0.0162077
799.669	0.0162173
799.747	0.0162286
799.825	0.0162752
799.904	0.0160225
799.982	0.0161224
800.060	0.0162121
800.138	0.0163539
800.216	0.0161382
800.294	0.0162296
800.372	0.0162928
800.450	0.0161875
800.529	0.0163060
800.607	0.0160915
800.685	0.0161414
800.763	0.0162778
800.841	0.0163123
800.919	0.0162416
800.997	0.0162727
801.075	0.0162532
801.154	0.0162707
801.232	0.0161010
801.310	0.0161317
801.388	0.0163405
801.466	0.0163206
801.544	0.0162537
801.622	0.0163523
801.700	0.0163520
801.779	0.0164300
801.857	0.0163702
801.935	0.0162915
802.013	0.0162403
802.091	0.0162611
802.169	0.0162889
802.247	0.0162044
802.325	0.0161264
802.404	0.0160741
802.482	0.0163822
802.560	0.0163081
802.638	0.0161255
802.716	0.0161814
802.794	0.0162547
802.872	0.0162056
802.950	0.0161993
803.029	0.0160954
803.107	0.0163146
803.185	0.0162481
803.263	0.0163116
803.341	0.0161934
803.419	0.0163245
803.497	0.0162526
803.575	0.0163148
803.654	0.0161656
803.732	0.0162304
803.810	0.0162282
803.888	0.0162772
803.966	0.0163106
804.044	0.0161240
804.122	0.0162003
804.200	0.0162983
804.279	0.0162672
804.357	0.0160493
804.435	0.0160367
804.513	0.0160541
804.591	0.0161555
804.669	0.0161660
804.747	0.0161333
804.825	0.0161965
804.904	0.0161842
804.982	0.0160927
805.060	0.0160477
805.138	0.0160702
805.216	0.0161418
805.294	0.0161261
805.372	0.0160159
805.450	0.0160069
805.529	0.0160140
805.607	0.0160727
805.685	0.0159435
805.763	0.0161105
805.841	0.0159267
805.919	0.0161128
805.997	0.0159705
806.075	0.0159293
806.154	0.0160224
806.232	0.0160058
806.310	0.0159438
806.388	0.0160427
806.466	0.0161723
806.544	0.0160953
806.622	0.0160967
806.700	0.0160519
806.779	0.0159948
806.857	0.0161115
806.935	0.0162500
807.013	0.0161095
807.091	0.0160316
807.169	0.0162127
807.247	0.0161495
807.325	0.0162021
807.404	0.0160869
807.482	0.0161964
807.560	0.0161761
807.638	0.0163380
807.716	0.0163299
807.794	0.0162186
807.872	0.0162549
807.950	0.0162067
808.029	0.0161883
808.107	0.0162847
808.185	0.0161229
808.263	0.0162431
808.341	0.0162199
808.419	0.0161870
808.497	0.0162902
808.575	0.0162488
808.654	0.0162254
808.732	0.0162743
808.810	0.0162348
808.888	0.0163139
808.966	0.0163364
809.044	0.0162105
809.122	0.0161956
809.200	0.0162604
809.279	0.0161503
809.357	0.0161279
809.435	0.0160634
809.513	0.0160670
809.591	0.0161661
809.669	0.0162315
809.747	0.0162103
809.825	0.0160688
809.904	0.0162827
809.982	0.0161493
810.060	0.0160090
810.138	0.0161022
810.216	0.0160674
810.294	0.0160630
810.372	0.0161593
810.450	0.0162860
810.529	0.0162110
810.607	0.0160043
810.685	0.0161430
810.763	0.0162064
810.841	0.0162975
810.919	0.0160950
810.997	0.0161746
811.075	0.0163405
811.154	0.0161988
811.232	0.0162817
811.310	0.0161873
811.388	0.0162046
811.466	0.0162691
811.544	0.0160988
811.622	0.0162896
811.700	0.0163346
811.779	0.0161135
811.857	0.0163888
811.935	0.0163716
812.013	0.0161062
812.091	0.0162187
812.169	0.0159899
812.247	0.0162586
812.325	0.0163503
812.404	0.0162131
812.482	0.0161305
812.560	0.0159879
812.638	0.0160423
812.716	0.0160267
812.794	0.0160377
812.872	0.0160851
812.950	0.0160700
813.029	0.0159589
813.107	0.0160094
813.185	0.0159319
813.263	0.0158923
813.341	0.0160650
813.419	0.0159419
813.497	0.0158974
813.575	0.0161172
813.654	0.0158708
813.732	0.0159935
813.810	0.0159995
813.888	0.0159200
813.966	0.0160896
814.044	0.0158468
814.122	0.0159278
814.200	0.0162061
814.279	0.0162122
814.357	0.0159299
814.435	0.0160378
814.513	0.0160786
814.591	0.0160590
814.669	0.0160677
814.747	0.0159828
814.825	0.0159671
814.904	0.0160650
814.982	0.0161083
815.060	0.0158944
815.138	0.0159375
815.216	0.0160813
815.294	0.0160198
815.372	0.0160033
815.450	0.0158161
815.529	0.0160255
815.607	0.0160806
815.685	0.0161477
815.763	0.0160099
815.841	0.0162047
815.919	0.0161190
815.997	0.0163061
816.075	0.0161529
816.154	0.0161093
816.232	0.0161909
816.310	0.0161414
816.388	0.0162214
816.466	0.0163659
816.544	0.0163461
816.622	0.0162301
816.700	0.0162731
816.779	0.0163989
816.857	0.0163681
816.935	0.0162916
817.013	0.0162757
817.091	0.0162344
817.169	0.0162755
817.247	0.0162681
817.325	0.0162360
817.404	0.0160858
817.482	0.0162537
817.560	0.0159875
817.638	0.0160909
817.716	0.0161288
817.794	0.0161267
817.872	0.0160015
817.950	0.0160406
818.029	0.0160619
818.107	0.0160269
818.185	0.0160773
818.263	0.0161166
818.341	0.0160239
818.419	0.0160526
818.497	0.0161803
818.575	0.0160361
818.654	0.0160703
818.732	0.0161497
818.810	0.0161256
818.888	0.0162309
818.966	0.0162777
819.044	0.0162395
819.122	0.0161685
819.200	0.0161936
819.279	0.0160928
819.357	0.0161697
819.435	0.0162186
819.513	0.0161961
819.591	0.0161280
819.669	0.0160632
819.747	0.0160889
819.825	0.0159735
819.904	0.0161404
819.982	0.0160970
820.060	0.0160835
820.138	0.0161448
820.216	0.0161533
820.294	0.0160725
820.372	0.0160683
820.450	0.0160500
820.529	0.0159705
820.607	0.0159939
820.685	0.0160111
820.763	0.0158535
820.841	0.0158763
820.919	0.0159855
820.997	0.0157871
821.075	0.0158482
821.154	0.0159689
821.232	0.0158762
821.310	0.0159725
821.388	0.0158763
821.466	0.0158636
821.544	0.0158881
821.622	0.0158855
821.700	0.0158015
821.779	0.0160130
821.857	0.0158920
821.935	0.0159689
822.013	0.0159167
822.091	0.0160210
822.169	0.0160701
822.247	0.0160122
822.325	0.0159225
822.404	0.0160593
822.482	0.0160352
822.560	0.0161225
822.638	0.0160786
822.716	0.0161678
822.794	0.0161512
822.872	0.0160494
822.950	0.0161436
823.029	0.0162149
823.107	0.0160943
823.185	0.0161583
823.263	0.0161718
823.341	0.0160365
823.419	0.0160799
823.497	0.0161884
823.575	0.0161298
823.654	0.0160968
823.732	0.0160915
823.810	0.0162009
823.888	0.0161740
823.966	0.0161543
824.044	0.0162269
824.122	0.0162273
824.200	0.0162507
824.279	0.0161622
824.357	0.0160130
824.435	0.0163371
824.513	0.0165526
824.591	0.0162928
824.669	0.0164809
824.747	0.0164119
824.825	0.0163448
824.904	0.0164094
824.982	0.0163229
825.060	0.0163760
825.138	0.0164510
825.216	0.0163503
825.294	0.0163662
825.372	0.0164744
825.450	0.0163250
825.529	0.0163846
825.607	0.0162761
825.685	0.0163107
825.763	0.0163023
825.841	0.0162865
825.919	0.0162619
825.997	0.0162498
826.075	0.0161841
826.154	0.0162406
826.232	0.0162789
826.310	0.0161813
826.388	0.0160643
826.466	0.0160790
826.544	0.0160599
826.622	0.0161069
826.700	0.0160965
826.779	0.0160374
826.857	0.0159853
826.935	0.0160004
827.013	0.0160284
827.091	0.0160326
827.169	0.0161173
827.247	0.0161102
827.325	0.0159698
827.404	0.0159154
827.482	0.0161589
827.560	0.0160414
827.638	0.0160687
827.716	0.0159187
827.794	0.0161359
827.872	0.0160908
827.950	0.0161800
828.029	0.0161250
828.107	0.0160398
828.185	0.0161980
828.263	0.0160822
828.341	0.0162095
828.419	0.0161710
828.497	0.0163016
828.575	0.0162225
828.654	0.0162821
828.732	0.0163315
828.810	0.0161408
828.888	0.0163748
828.966	0.0162922
829.044	0.0161703
829.122	0.0163547
829.200	0.0163132
829.279	0.0162169
829.357	0.0163618
829.435	0.0161865
829.513	0.0163411
829.591	0.0161911
829.669	0.0161792
829.747	0.0162835
829.825	0.0160767
829.904	0.0161871
829.982	0.0162038
830.060	0.0161300
830.138	0.0160343
830.216	0.0160677
830.294	0.0160717
830.372	0.0162040
830.450	0.0161172
830.529	0.0160733
830.607	0.0160257
830.685	0.0160703
830.763	0.0160515
830.841	0.0161313
830.919	0.0160612
830.997	0.0160138
831.075	0.0159645
831.154	0.0159602
831.232	0.0160319
831.310	0.0160594
831.388	0.0162376
831.466	0.0161031
831.544	0.0160994
831.622	0.0161511
831.700	0.0160738
831.779	0.0162822
831.857	0.0163294
831.935	0.0163194
832.013	0.0163442
832.091	0.0162428
832.169	0.0162967
832.247	0.0163715
832.325	0.0163662
832.404	0.0162901
832.482	0.0164033
832.560	0.0162492
832.638	0.0163067
832.716	0.0161676
832.794	0.0160806
832.872	0.0161852
832.950	0.0162942
833.029	0.0161349
833.107	0.0160078
833.185	0.0160172
833.263	0.0160902
833.341	0.0159943
833.419	0.0161271
833.497	0.0159181
833.575	0.0158773
833.654	0.0159455
833.732	0.0159605
833.810	0.0158659
833.888	0.0160966
833.966	0.0160234
834.044	0.0159749
834.122	0.0159335
834.200	0.0158456
834.279	0.0160542
834.357	0.0161633
834.435	0.0160617
834.513	0.0160982
834.591	0.0161505
834.669	0.0161082
834.747	0.0161342
834.825	0.0160551
834.904	0.0161607
834.982	0.0161981
835.060	0.0161941
835.138	0.0161562
835.216	0.0159761
835.294	0.0163202
835.372	0.0160236
835.450	0.0161908
835.529	0.0161632
835.607	0.0160224
835.685	0.0161348
835.763	0.0162389
835.841	0.0160471
835.919	0.0160213
835.997	0.0160031
836.075	0.0159875
836.154	0.0159688
836.232	0.0158141
836.310	0.0158920
836.388	0.0160172
836.466	0.0161994
836.544	0.0160502
836.622	0.0159808
836.700	0.0160149
836.779	0.0160411
836.857	0.0160332
836.935	0.0161385
837.013	0.0161682
837.091	0.0162177
837.169	0.0161028
837.247	0.0161456
837.325	0.0161884
837.404	0.0162883
837.482	0.0162852
837.560	0.0161521
837.638	0.0162144
837.716	0.0162066
837.794	0.0162244
837.872	0.0161985
837.950	0.0162023
838.029	0.0161767
838.107	0.0162887
838.185	0.0162563
838.263	0.0161510
838.341	0.0159812
838.419	0.0160999
838.497	0.0159785
838.575	0.0160480
838.654	0.0160544
838.732	0.0161768
838.810	0.0159486
838.888	0.0161417
838.966	0.0161386
839.044	0.0160889
839.122	0.0162019
839.200	0.0160943
839.279	0.0161475
839.357	0.0160059
839.435	0.0161466
839.513	0.0161521
839.591	0.0161710
839.669	0.0162245
839.747	0.0162207
839.825	0.0161259
839.904	0.0161059
839.982	0.0162306
840.060	0.0162740
840.138	0.0161991
840.216	0.0163403
840.294	0.0161916
840.372	0.0163681
840.450	0.0163318
840.529	0.0162579
840.607	0.0162745
840.685	0.0163850
840.763	0.0163433
840.841	0.0163410
840.919	0.0163285
840.997	0.0161649
841.075	0.0162309
841.154	0.0162859
841.232	0.0161534
841.310	0.0162460
841.388	0.0161671
841.466	0.0161086
841.544	0.0161817
841.622	0.0160397
841.700	0.0160651
841.779	0.0161616
841.857	0.0160015
841.935	0.0160272
842.013	0.0160448
842.091	0.0158151
842.169	0.0159114
842.247	0.0159386
842.325	0.0159544
842.404	0.0159451
842.482	0.0158996
842.560	0.0159056
842.638	0.0158804
842.716	0.0159093
842.794	0.0157160
842.872	0.0157454
842.950	0.0157510
843.029	0.0157614
843.107	0.0158447
843.185	0.0157613
843.263	0.0158523
843.341	0.0158900
843.419	0.0157956
843.497	0.0158114
843.575	0.0159306
843.654	0.0159633
843.732	0.0159171
843.810	0.0157902
843.888	0.0158262
843.966	0.0159295
844.044	0.0158906
844.122	0.0157969
844.200	0.0158616
844.279	0.0159811
844.357	0.0158891
844.435	0.0159246
844.513	0.0159019
844.591	0.0159756
844.669	0.0161340
844.747	0.0159653
844.825	0.0160302
844.904	0.0160100
844.982	0.0160798
845.060	0.0159855
845.138	0.0160570
845.216	0.0161234
845.294	0.0163317
845.372	0.0162387
845.450	0.0162249
845.529	0.0161947
845.607	0.0162064
845.685	0.0163019
845.763	0.0163438
845.841	0.0162614
845.919	0.0163591
845.997	0.0161904
846.075	0.0161412
846.154	0.0161485
846.232	0.0162649
846.310	0.0161652
846.388	0.0160400
846.466	0.0160607
846.544	0.0161506
846.622	0.0160830
846.700	0.0160552
846.779	0.0160899
846.857	0.0161031
846.935	0.0160341
847.013	0.0159530
847.091	0.0160141
847.169	0.0159800
847.247	0.0159599
847.325	0.0159428
847.404	0.0160043
847.482	0.0159862
847.560	0.0160383
847.638	0.0160843
847.716	0.0161874
847.794	0.0161146
847.872	0.0160542
847.950	0.0160242
848.029	0.0160983
848.107	0.0160551
848.185	0.0162080
848.263	0.0162434
848.341	0.0160954
848.419	0.0161019
848.497	0.0161549
848.575	0.0162712
848.654	0.0162402
848.732	0.0160477
848.810	0.0161057
848.888	0.0163381
848.966	0.0161375
849.044	0.0160502
849.122	0.0161404
849.200	0.0162011
849.279	0.0160620
849.357	0.0160628
849.435	0.0161106
849.513	0.0159796
849.591	0.0160442
849.669	0.0163107
849.747	0.0159721
849.825	0.0160331
849.904	0.0161172
849.982	0.0160509
850.060	0.0159602
850.138	0.0160493
850.216	0.0161803
850.294	0.0160548
850.372	0.0160904
850.450	0.0161236
850.529	0.0162199
850.607	0.0160447
850.685	0.0160207
850.763	0.0161053
850.841	0.0161521
850.919	0.0161222
850.997	0.0161485
851.075	0.0159938
851.154	0.0161035
851.232	0.0160345
851.310	0.0161791
851.388	0.0160293
851.466	0.0160508
851.544	0.0160838
851.622	0.0159851
851.700	0.0159883
851.779	0.0161089
851.857	0.0160979
851.935	0.0158495
852.013	0.0161684
852.091	0.0160934
852.169	0.0158331
852.247	0.0158049
852.325	0.0160240
852.404	0.0160481
852.482	0.0158628
852.560	0.0159615
852.638	0.0160139
852.716	0.0159439
852.794	0.0160443
852.872	0.0159890
852.950	0.0160012
853.029	0.0161313
853.107	0.0161363
853.185	0.0160136
853.263	0.0161301
853.341	0.0160864
853.419	0.0161543
853.497	0.0161938
853.575	0.0162216
853.654	0.0161863
853.732	0.0162778
853.810	0.0162997
853.888	0.0163187
853.966	0.0161259
854.044	0.0161832
854.122	0.0162749
854.200	0.0161783
854.279	0.0160023
854.357	0.0161501
854.435	0.0161571
854.513	0.0160444
854.591	0.0161239
854.669	0.0160423
854.747	0.0160664
854.825	0.0160954
854.904	0.0161662
854.982	0.0160226
855.060	0.0159772
855.138	0.0160571
855.216	0.0159766
855.294	0.0160450
855.372	0.0160916
855.450	0.0160760
855.529	0.0161147
855.607	0.0160528
855.685	0.0160282
855.763	0.0160643
855.841	0.0160664
855.919	0.0159972
855.997	0.0160294
856.075	0.0160770
856.154	0.0160303
856.232	0.0160077
856.310	0.0160442
856.388	0.0161007
856.466	0.0160831
856.544	0.0161444
856.622	0.0161035
856.700	0.0160656
856.779	0.0162050
856.857	0.0162678
856.935	0.0160479
857.013	0.0160824
857.091	0.0161098
857.169	0.0160168
857.247	0.0160584
857.325	0.0159955
857.404	0.0160732
857.482	0.0161442
857.560	0.0160201
857.638	0.0161939
857.716	0.0160332
857.794	0.0159422
857.872	0.0160364
857.950	0.0160758
858.029	0.0160055
858.107	0.0159102
858.185	0.0159377
858.263	0.0159666
858.341	0.0158839
858.419	0.0159832
858.497	0.0159438
858.575	0.0159439
858.654	0.0159955
858.732	0.0159619
858.810	0.0160368
858.888	0.0159234
858.966	0.0159099
859.044	0.0158865
859.122	0.0160216
859.200	0.0160828
859.279	0.0161052
859.357	0.0160118
859.435	0.0160780
859.513	0.0161574
859.591	0.0161090
859.669	0.0160883
859.747	0.0163015
859.825	0.0162237
859.904	0.0161932
859.982	0.0161799
860.060	0.0162872
860.138	0.0161540
860.216	0.0162062
860.294	0.0161411
860.372	0.0160988
860.450	0.0161832
860.529	0.0162361
860.607	0.0161841
860.685	0.0161544
860.763	0.0162813
860.841	0.0160883
860.919	0.0160907
860.997	0.0161185
861.075	0.0160356
861.154	0.0160671
861.232	0.0161474
861.310	0.0161076
861.388	0.0160287
861.466	0.0160546
861.544	0.0161626
861.622	0.0162379
861.700	0.0161877
861.779	0.0162060
861.857	0.0162100
861.935	0.0161235
862.013	0.0161001
862.091	0.0163123
862.169	0.0162830
862.247	0.0161645
862.325	0.0160422
862.404	0.0160261
862.482	0.0159756
862.560	0.0160034
862.638	0.0159811
862.716	0.0159328
862.794	0.0160204
862.872	0.0160803
862.950	0.0160288
863.029	0.0158856
863.107	0.0159556
863.185	0.0159835
863.263	0.0158526
863.341	0.0159537
863.419	0.0160660
863.497	0.0160339
863.575	0.0157965
863.654	0.0160516
863.732	0.0161957
863.810	0.0159988
863.888	0.0161172
863.966	0.0161660
864.044	0.0161688
864.122	0.0161068
864.200	0.0162058
864.279	0.0160942
864.357	0.0162048
864.435	0.0161522
864.513	0.0162386
864.591	0.0162666
864.669	0.0161376
864.747	0.0161203
864.825	0.0160581
864.904	0.0161118
864.982	0.0161416
865.060	0.0161677
865.138	0.0160705
865.216	0.0160867
865.294	0.0161758
865.372	0.0161026
865.450	0.0160368
865.529	0.0159951
865.607	0.0160427
865.685	0.0159689
865.763	0.0160052
865.841	0.0160059
865.919	0.0159614
865.997	0.0159511
866.075	0.0159252
866.154	0.0158819
866.232	0.0159779
866.310	0.0159812
866.388	0.0159827
866.466	0.0161153
866.544	0.0159977
866.622	0.0159159
866.700	0.0159451
866.779	0.0160944
866.857	0.0161136
866.935	0.0161518
867.013	0.0161057
867.091	0.0160987
867.169	0.0161935
867.247	0.0161282
867.325	0.0162850
867.404	0.0162956
867.482	0.0160503
867.560	0.0162542
867.638	0.0163486
867.716	0.0161757
867.794	0.0162532
867.872	0.0161962
867.950	0.0161317
868.029	0.0162109
868.107	0.0161826
868.185	0.0160329
868.263	0.0161501
868.341	0.0160918
868.419	0.0161012
868.497	0.0160101
868.575	0.0161568
868.654	0.0161334
868.732	0.0161714
868.810	0.0160590
868.888	0.0159316
868.966	0.0161621
869.044	0.0160701
869.122	0.0160466
869.200	0.0162767
869.279	0.0161647
869.357	0.0161502
869.435	0.0160781
869.513	0.0161338
869.591	0.0161764
869.669	0.0160242
869.747	0.0162595
869.825	0.0162086
869.904	0.0159920
869.982	0.0161585
870.060	0.0160047
870.138	0.0161575
870.216	0.0161253
870.294	0.0160427
870.372	0.0161414
870.450	0.0160170
870.529	0.0160938
870.607	0.0160231
870.685	0.0161102
870.763	0.0160142
870.841	0.0159536
870.919	0.0159801
870.997	0.0159751
871.075	0.0160038
871.154	0.0158145
871.232	0.0159193
871.310	0.0160855
871.388	0.0158905
871.466	0.0160210
871.544	0.0159086
871.622	0.0158433
871.700	0.0158575
871.779	0.0158648
871.857	0.0159174
871.935	0.0159132
872.013	0.0160893
872.091	0.0159644
872.169	0.0159715
872.247	0.0158763
872.325	0.0159891
872.404	0.0160960
872.482	0.0160455
872.560	0.0160738
872.638	0.0161907
872.716	0.0162189
872.794	0.0162154
872.872	0.0163100
872.950	0.0161620
873.029	0.0161542
873.107	0.0162286
873.185	0.0161451
873.263	0.0161485
873.341	0.0162666
873.419	0.0159763
873.497	0.0159738
873.575	0.0161124
873.654	0.0159686
873.732	0.0160127
873.810	0.0160614
873.888	0.0161436
873.966	0.0160007
874.044	0.0160885
874.122	0.0160895
874.200	0.0159567
874.279	0.0160128
874.357	0.0161030
874.435	0.0161916
874.513	0.0160755
874.591	0.0159864
874.669	0.0161539
874.747	0.0161018
874.825	0.0161822
874.904	0.0161570
874.982	0.0160836
875.060	0.0161121
875.138	0.0160004
875.216	0.0160963
875.294	0.0161053
875.372	0.0160805
875.450	0.0159926
875.529	0.0160808
875.607	0.0160358
875.685	0.0160938
875.763	0.0162215
875.841	0.0161502
875.919	0.0161794
875.997	0.0161970
876.075	0.0161908
876.154	0.0161749
876.232	0.0161311
876.310	0.0163272
876.388	0.0161494
876.466	0.0163010
876.544	0.0161883
876.622	0.0160955
876.700	0.0161620
876.779	0.0162468
876.857	0.0162072
876.935	0.0162165
877.013	0.0161901
877.091	0.0162285
877.169	0.0162157
877.247	0.0161664
877.325	0.0162144
877.404	0.0162073
877.482	0.0162532
877.560	0.0162585
877.638	0.0161275
877.716	0.0162041
877.794	0.0162154
877.872	0.0161835
877.950	0.0160476
878.029	0.0162621
878.107	0.0160681
878.185	0.0160069
878.263	0.0160403
878.341	0.0160740
878.419	0.0160005
878.497	0.0159637
878.575	0.0159468
878.654	0.0158894
878.732	0.0159645
878.810	0.0159818
878.888	0.0159860
878.966	0.0158491
879.044	0.0159895
879.122	0.0160519
879.200	0.0160165
879.279	0.0159611
879.357	0.0160043
879.435	0.0161578
879.513	0.0160425
879.591	0.0161917
879.669	0.0162032
879.747	0.0161954
879.825	0.0161746
879.904	0.0163733
879.982	0.0162276
880.060	0.0162201
880.138	0.0162080
880.216	0.0162296
880.294	0.0163216
880.372	0.0161802
880.450	0.0163690
880.529	0.0164985
880.607	0.0164011
880.685	0.0166008
880.763	0.0163499
880.841	0.0165188
880.919	0.0165064
880.997	0.0164562
881.075	0.0164095
881.154	0.0164329
881.232	0.0163626
881.310	0.0164223
881.388	0.0164001
881.466	0.0165022
881.544	0.0162885
881.622	0.0162666
881.700	0.0162656
881.779	0.0163351
881.857	0.0164852
881.935	0.0163102
882.013	0.0163580
882.091	0.0163634
882.169	0.0163499
882.247	0.0163448
882.325	0.0163786
882.404	0.0162595
882.482	0.0162915
882.560	0.0163445
882.638	0.0163227
882.716	0.0162566
882.794	0.0161459
882.872	0.0162827
882.950	0.0163091
883.029	0.0161795
883.107	0.0161716
883.185	0.0163181
883.263	0.0162902
883.341	0.0163039
883.419	0.0161113
883.497	0.0161993
883.575	0.0161539
883.654	0.0161082
883.732	0.0160739
883.810	0.0162547
883.888	0.0160718
883.966	0.0160634
884.044	0.0161049
884.122	0.0160957
884.200	0.0160974
884.279	0.0160706
884.357	0.0160154
884.435	0.0160580
884.513	0.0159841
884.591	0.0161065
884.669	0.0161074
884.747	0.0160885
884.825	0.0161811
884.904	0.0161472
884.982	0.0161563
885.060	0.0160648
885.138	0.0162013
885.216	0.0162966
885.294	0.0161800
885.372	0.0163471
885.450	0.0162566
885.529	0.0159861
885.607	0.0161581
885.685	0.0161826
885.763	0.0161416
885.841	0.0160863
885.919	0.0160739
885.997	0.0162085
886.075	0.0160796
886.154	0.0161433
886.232	0.0160852
886.310	0.0163221
886.388	0.0162247
886.466	0.0160297
886.544	0.0161555
886.622	0.0161639
886.700	0.0162105
886.779	0.0160519
886.857	0.0160531
886.935	0.0161274
887.013	0.0160576
887.091	0.0159267
887.169	0.0159205
887.247	0.0161493
887.325	0.0159843
887.404	0.0159045
887.482	0.0160316
887.560	0.0159745
887.638	0.0160430
887.716	0.0159653
887.794	0.0160899
887.872	0.0160824
887.950	0.0160758
888.029	0.0160542
888.107	0.0161199
888.185	0.0161559
888.263	0.0161506
888.341	0.0161194
888.419	0.0161352
888.497	0.0161606
888.575	0.0163067
888.654	0.0162367
888.732	0.0162219
888.810	0.0162047
888.888	0.0161007
888.966	0.0161126
889.044	0.0161670
889.122	0.0161705
889.200	0.0161257
889.279	0.0160719
889.357	0.0161880
889.435	0.0162063
889.513	0.0162172
889.591	0.0161478
889.669	0.0160392
889.747	0.0159795
889.825	0.0160268
889.904	0.0160005
889.982	0.0161187
890.060	0.0159737
890.138	0.0162886
890.216	0.0160774
890.294	0.0161423
890.372	0.0161057
890.450	0.0160429
890.529	0.0161778
890.607	0.0161697
890.685	0.0163030
890.763	0.0162428
890.841	0.0161526
890.919	0.0162445
890.997	0.0162980
891.075	0.0161773
891.154	0.0162212
891.232	0.0161771
891.310	0.0161523
891.388	0.0162645
891.466	0.0161472
891.544	0.0161716
891.622	0.0162909
891.700	0.0161070
891.779	0.0160132
891.857	0.0160473
891.935	0.0159958
892.013	0.0160625
892.091	0.0160291
892.169	0.0160242
892.247	0.0158489
892.325	0.0158971
892.404	0.0161344
892.482	0.0160098
892.560	0.0158624
892.638	0.0161073
892.716	0.0160502
892.794	0.0160806
892.872	0.0161230
892.950	0.0161583
893.029	0.0162704
893.107	0.0163126
893.185	0.0161272
893.263	0.0163696
893.341	0.0163676
893.419	0.0162401
893.497	0.0163426
893.575	0.0164153
893.654	0.0162206
893.732	0.0162717
893.810	0.0162875
893.888	0.0162893
893.966	0.0162051
894.044	0.0163069
894.122	0.0161309
894.200	0.0162363
894.279	0.0161150
894.357	0.0160876
894.435	0.0160067
894.513	0.0159254
894.591	0.0160785
894.669	0.0160780
894.747	0.0161780
894.825	0.0158803
894.904	0.0159914
894.982	0.0160670
895.060	0.0160738
895.138	0.0161624
895.216	0.0160766
895.294	0.0160793
895.372	0.0160152
895.450	0.0162373
895.529	0.0162131
895.607	0.0162478
895.685	0.0162338
895.763	0.0163073
895.841	0.0163564
895.919	0.0163228
895.997	0.0163338
896.075	0.0162715
896.154	0.0163735
896.232	0.0164244
896.310	0.0163699
896.388	0.0163047
896.466	0.0163918
896.544	0.0163018
896.622	0.0163829
896.700	0.0164945
896.779	0.0164668
896.857	0.0162359
896.935	0.0162198
897.013	0.0163114
897.091	0.0162596
897.169	0.0163967
897.247	0.0163168
897.325	0.0162063
897.404	0.0162726
897.482	0.0162109
897.560	0.0164126
897.638	0.0162886
897.716	0.0161698
897.794	0.0161253
897.872	0.0161569
897.950	0.0161344
898.029	0.0162146
898.107	0.0163074
898.185	0.0161954
898.263	0.0162377
898.341	0.0162791
898.419	0.0161031
898.497	0.0161240
898.575	0.0163390
898.654	0.0163653
898.732	0.0162217
898.810	0.0161924
898.888	0.0163573
898.966	0.0165218
899.044	0.0164659
899.122	0.0162959
899.200	0.0163224
899.279	0.0163360
899.357	0.0163272
899.435	0.0163602
899.513	0.0163769
899.591	0.0163337
899.669	0.0162466
899.747	0.0163157
899.825	0.0162558
899.904	0.0162219
899.982	0.0162569
900.060	0.0161863
900.138	0.0161208
900.216	0.0160564
900.294	0.0161629
900.372	0.0162298
900.450	0.0161507
900.529	0.0161295
900.607	0.0161475
900.685	0.0162106
900.763	0.0160524
900.841	0.0163190
900.919	0.0161534
900.997	0.0161694
901.075	0.0161475
901.154	0.0162026
901.232	0.0161352
901.310	0.0162344
901.388	0.0162518
901.466	0.0162955
901.544	0.0162428
901.622	0.0162085
901.700	0.0160770
901.779	0.0162192
901.857	0.0162156
901.935	0.0162013
902.013	0.0159627
902.091	0.0161062
902.169	0.0161784
902.247	0.0160054
902.325	0.0160430
902.404	0.0161087
902.482	0.0160121
902.560	0.0160142
902.638	0.0159800
902.716	0.0160038
902.794	0.0159498
902.872	0.0160464
902.950	0.0160286
903.029	0.0158846
903.107	0.0160577
903.185	0.0160851
903.263	0.0159727
903.341	0.0160697
903.419	0.0160184
903.497	0.0160921
903.575	0.0159906
903.654	0.0160212
903.732	0.0161908
903.810	0.0161293
903.888	0.0161744
903.966	0.0162427
904.044	0.0162278
904.122	0.0161205
904.200	0.0161860
904.279	0.0161642
904.357	0.0162405
904.435	0.0161537
904.513	0.0160963
904.591	0.0161910
904.669	0.0160943
904.747	0.0160193
904.825	0.0159537
904.904	0.0160901
904.982	0.0161545
905.060	0.0158990
905.138	0.0159424
905.216	0.0159772
905.294	0.0160352
905.372	0.0160993
905.450	0.0159271
905.529	0.0160073
905.607	0.0159949
905.685	0.0159612
905.763	0.0160589
905.841	0.0161376
905.919	0.0161560
905.997	0.0161033
906.075	0.0161424
906.154	0.0160442
906.232	0.0162134
906.310	0.0162103
906.388	0.0162507
906.466	0.0162590
906.544	0.0163086
906.622	0.0161473
906.700	0.0162720
906.779	0.0162186
906.857	0.0164715
906.935	0.0163988
907.013	0.0162778
907.091	0.0162867
907.169	0.0162735
907.247	0.0162291
907.325	0.0163511
907.404	0.0162797
907.482	0.0163156
907.560	0.0163878
907.638	0.0162891
907.716	0.0162340
907.794	0.0162968
907.872	0.0163389
907.950	0.0162189
908.029	0.0163007
908.107	0.0163206
908.185	0.0161759
908.263	0.0161715
908.341	0.0163306
908.419	0.0162618
908.497	0.0162807
908.575	0.0163354
908.654	0.0161995
908.732	0.0162809
908.810	0.0161505
908.888	0.0162141
908.966	0.0162902
909.044	0.0162524
909.122	0.0163052
909.200	0.0162877
909.279	0.0162486
909.357	0.0162663
909.435	0.0163701
909.513	0.0162882
909.591	0.0163200
909.669	0.0164351
909.747	0.0163615
909.825	0.0163684
909.904	0.0162608
909.982	0.0163090
910.060	0.0162922
910.138	0.0163509
910.216	0.0160884
910.294	0.0162537
910.372	0.0162145
910.450	0.0162865
910.529	0.0163031
910.607	0.0161670
910.685	0.0161549
910.763	0.0160944
910.841	0.0160645
910.919	0.0160410
910.997	0.0160886
911.075	0.0161868
911.154	0.0160233
911.232	0.0161343
911.310	0.0161923
911.388	0.0161025
911.466	0.0158926
911.544	0.0160551
911.622	0.0159426
911.700	0.0159223
911.779	0.0160403
911.857	0.0160630
911.935	0.0161563
912.013	0.0161948
912.091	0.0161152
912.169	0.0161417
912.247	0.0161309
912.325	0.0161842
912.404	0.0160783
912.482	0.0161000
912.560	0.0161765
912.638	0.0161269
912.716	0.0162712
912.794	0.0161995
912.872	0.0162132
912.950	0.0161250
913.029	0.0162247
913.107	0.0162428
913.185	0.0162276
913.263	0.0162570
913.341	0.0162354
913.419	0.0162362
913.497	0.0161781
913.575	0.0162088
913.654	0.0161533
913.732	0.0161646
913.810	0.0163853
913.888	0.0163223
913.966	0.0160957
914.044	0.0161745
914.122	0.0162444
914.200	0.0162381
914.279	0.0161620
914.357	0.0162331
914.435	0.0163113
914.513	0.0162232
914.591	0.0161458
914.669	0.0160822
914.747	0.0161308
914.825	0.0161796
914.904	0.0162875
914.982	0.0160909
915.060	0.0159947
915.138	0.0161376
915.216	0.0161925
915.294	0.0160495
915.372	0.0159830
915.450	0.0160345
915.529	0.0162111
915.607	0.0160513
915.685	0.0161392
915.763	0.0159238
915.841	0.0160820
915.919	0.0161797
915.997	0.0160589
916.075	0.0159555
916.154	0.0160945
916.232	0.0161125
916.310	0.0160936
916.388	0.0160838
916.466	0.0159810
916.544	0.0161769
916.622	0.0160394
916.700	0.0161150
916.779	0.0161127
916.857	0.0160092
916.935	0.0161401
917.013	0.0160440
917.091	0.0160352
917.169	0.0161546
917.247	0.0161209
917.325	0.0160951
917.404	0.0161821
917.482	0.0161550
917.560	0.0161493
917.638	0.0160846
917.716	0.0160957
917.794	0.0161242
917.872	0.0160426
917.950	0.0161677
918.029	0.0161121
918.107	0.0161908
918.185	0.0160739
918.263	0.0161111
918.341	0.0160033
918.419	0.0161451
918.497	0.0161390
918.575	0.0161810
918.654	0.0161145
918.732	0.0160272
918.810	0.0160882
918.888	0.0161011
918.966	0.0161722
919.044	0.0161725
919.122	0.0161270
919.200	0.0162368
919.279	0.0162164
919.357	0.0162584
919.435	0.0162033
919.513	0.0162469
919.591	0.0161407
919.669	0.0161586
919.747	0.0161453
919.825	0.0161045
919.904	0.0162431
