05/24/2022	20:41:11	Ver.	4.1	UNKNOWN
Optical Delay	599.981738	Delta X		0.078125	Sweeps	1	Scan Rate	0/0
Coordinates	Axis 1	NaN	Axis 2	NaN	Axis 3	NaN	Axis 4	NaN	Axis 5	NaN	Axis 6	0.000000
TX Power	0.000000	RX Power	0.000000

599.982	0.0166589
600.060	0.0167041
600.138	0.0167705
600.216	0.0165953
600.294	0.0167617
600.372	0.0166944
600.450	0.0167623
600.529	0.0167683
600.607	0.0166111
600.685	0.0167767
600.763	0.0167583
600.841	0.0165734
600.919	0.0167764
600.997	0.0166898
601.075	0.0166266
601.154	0.0166612
601.232	0.0168278
601.310	0.0167565
601.388	0.0166493
601.466	0.0166519
601.544	0.0166959
601.622	0.0166330
601.700	0.0168159
601.779	0.0165892
601.857	0.0166792
601.935	0.0166592
602.013	0.0166526
602.091	0.0167405
602.169	0.0166831
602.247	0.0166903
602.325	0.0165450
602.404	0.0166032
602.482	0.0167083
602.560	0.0165172
602.638	0.0164899
602.716	0.0166138
602.794	0.0165250
602.872	0.0164670
602.950	0.0164477
603.029	0.0164381
603.107	0.0165505
603.185	0.0165694
603.263	0.0163381
603.341	0.0165170
603.419	0.0165633
603.497	0.0164100
603.575	0.0165018
603.654	0.0163020
603.732	0.0164017
603.810	0.0164554
603.888	0.0164572
603.966	0.0165239
604.044	0.0165083
604.122	0.0165700
604.200	0.0165704
604.279	0.0166091
604.357	0.0165347
604.435	0.0164254
604.513	0.0164880
604.591	0.0165862
604.669	0.0167258
604.747	0.0165965
604.825	0.0165379
604.904	0.0166299
604.982	0.0165562
605.060	0.0165632
605.138	0.0165324
605.216	0.0164374
605.294	0.0165495
605.372	0.0164865
605.450	0.0165502
605.529	0.0166271
605.607	0.0166026
605.685	0.0164970
605.763	0.0166310
605.841	0.0165617
605.919	0.0166328
605.997	0.0165671
606.075	0.0165779
606.154	0.0165582
606.232	0.0165083
606.310	0.0167169
606.388	0.0165791
606.466	0.0164842
606.544	0.0165647
606.622	0.0165527
606.700	0.0166948
606.779	0.0165815
606.857	0.0166753
606.935	0.0166302
607.013	0.0165704
607.091	0.0166624
607.169	0.0165742
607.247	0.0167121
607.325	0.0166380
607.404	0.0166477
607.482	0.0164465
607.560	0.0166309
607.638	0.0167017
607.716	0.0165215
607.794	0.0166752
607.872	0.0166593
607.950	0.0165726
608.029	0.0165297
608.107	0.0166856
608.185	0.0166339
608.263	0.0165837
608.341	0.0168082
608.419	0.0166954
608.497	0.0167057
608.575	0.0168153
608.654	0.0168236
608.732	0.0167594
608.810	0.0167116
608.888	0.0168082
608.966	0.0166634
609.044	0.0165936
609.122	0.0167873
609.200	0.0166171
609.279	0.0166608
609.357	0.0166177
609.435	0.0166392
609.513	0.0165969
609.591	0.0165264
609.669	0.0164989
609.747	0.0165832
609.825	0.0164447
609.904	0.0163686
609.982	0.0166323
610.060	0.0165385
610.138	0.0163405
610.216	0.0164173
610.294	0.0164079
610.372	0.0164270
610.450	0.0163364
610.529	0.0163907
610.607	0.0163174
610.685	0.0161886
610.763	0.0163203
610.841	0.0164571
610.919	0.0163712
610.997	0.0164228
611.075	0.0162800
611.154	0.0163350
611.232	0.0163885
611.310	0.0163733
611.388	0.0164252
611.466	0.0163979
611.544	0.0163517
611.622	0.0163087
611.700	0.0163969
611.779	0.0162258
611.857	0.0163058
611.935	0.0164198
612.013	0.0163354
612.091	0.0165371
612.169	0.0165121
612.247	0.0164111
612.325	0.0165621
612.404	0.0165377
612.482	0.0164912
612.560	0.0164763
612.638	0.0165848
612.716	0.0165846
612.794	0.0164584
612.872	0.0167462
612.950	0.0166229
613.029	0.0166032
613.107	0.0167108
613.185	0.0167691
613.263	0.0166258
613.341	0.0166815
613.419	0.0166605
613.497	0.0166442
613.575	0.0166766
613.654	0.0167099
613.732	0.0165919
613.810	0.0168565
613.888	0.0166366
613.966	0.0167332
614.044	0.0167567
614.122	0.0166581
614.200	0.0167559
614.279	0.0168624
614.357	0.0169087
614.435	0.0169106
614.513	0.0168851
614.591	0.0168329
614.669	0.0171432
614.747	0.0169652
614.825	0.0169552
614.904	0.0169834
614.982	0.0170507
615.060	0.0169418
615.138	0.0170721
615.216	0.0170016
615.294	0.0168929
615.372	0.0170078
615.450	0.0169428
615.529	0.0169339
615.607	0.0168755
615.685	0.0169263
615.763	0.0167833
615.841	0.0167976
615.919	0.0168060
615.997	0.0168327
616.075	0.0168419
616.154	0.0168606
616.232	0.0168204
616.310	0.0168929
616.388	0.0166601
616.466	0.0166198
616.544	0.0167372
616.622	0.0167659
616.700	0.0166645
616.779	0.0167043
616.857	0.0166071
616.935	0.0167231
617.013	0.0166885
617.091	0.0166006
617.169	0.0165157
617.247	0.0165660
617.325	0.0165171
617.404	0.0166044
617.482	0.0166490
617.560	0.0165528
617.638	0.0168186
617.716	0.0166486
617.794	0.0165795
617.872	0.0166654
617.950	0.0166737
618.029	0.0168140
618.107	0.0166282
618.185	0.0166949
618.263	0.0166074
618.341	0.0165448
618.419	0.0165417
618.497	0.0166156
618.575	0.0165203
618.654	0.0165581
618.732	0.0164907
618.810	0.0164637
618.888	0.0165089
618.966	0.0165702
619.044	0.0166354
619.122	0.0166083
619.200	0.0166171
619.279	0.0166182
619.357	0.0165873
619.435	0.0166206
619.513	0.0167437
619.591	0.0167543
619.669	0.0167347
619.747	0.0167255
619.825	0.0165755
619.904	0.0167138
619.982	0.0165984
620.060	0.0166438
620.138	0.0167064
620.216	0.0167082
620.294	0.0166280
620.372	0.0165980
620.450	0.0166336
620.529	0.0165887
620.607	0.0166840
620.685	0.0164483
620.763	0.0165633
620.841	0.0166085
620.919	0.0167101
620.997	0.0167141
621.075	0.0166109
621.154	0.0165505
621.232	0.0166792
621.310	0.0166301
621.388	0.0166884
621.466	0.0167074
621.544	0.0166613
621.622	0.0166349
621.700	0.0166547
621.779	0.0166816
621.857	0.0166555
621.935	0.0167590
622.013	0.0167829
622.091	0.0166770
622.169	0.0166058
622.247	0.0166338
622.325	0.0167242
622.404	0.0166117
622.482	0.0167838
622.560	0.0167443
622.638	0.0167701
622.716	0.0166381
622.794	0.0167471
622.872	0.0168121
622.950	0.0166708
623.029	0.0167822
623.107	0.0167287
623.185	0.0166009
623.263	0.0165903
623.341	0.0167198
623.419	0.0164710
623.497	0.0166402
623.575	0.0167448
623.654	0.0165083
623.732	0.0166889
623.810	0.0166587
623.888	0.0168121
623.966	0.0167957
624.044	0.0168020
624.122	0.0166853
624.200	0.0168820
624.279	0.0168929
624.357	0.0169727
624.435	0.0170031
624.513	0.0171869
624.591	0.0173101
624.669	0.0171830
624.747	0.0170254
624.825	0.0169809
624.904	0.0170120
624.982	0.0169938
625.060	0.0171201
625.138	0.0169267
625.216	0.0168423
625.294	0.0168561
625.372	0.0167891
625.450	0.0167905
625.529	0.0168786
625.607	0.0168176
625.685	0.0167730
625.763	0.0167760
625.841	0.0168311
625.919	0.0168140
625.997	0.0168369
626.075	0.0168264
626.154	0.0168333
626.232	0.0167439
626.310	0.0166909
626.388	0.0167638
626.466	0.0165498
626.544	0.0165688
626.622	0.0165137
626.700	0.0164045
626.779	0.0164840
626.857	0.0165514
626.935	0.0165443
627.013	0.0164731
627.091	0.0166472
627.169	0.0165023
627.247	0.0165128
627.325	0.0164874
627.404	0.0167261
627.482	0.0167426
627.560	0.0166949
627.638	0.0167168
627.716	0.0167399
627.794	0.0168730
627.872	0.0167996
627.950	0.0168130
628.029	0.0168571
628.107	0.0169264
628.185	0.0170236
628.263	0.0170461
628.341	0.0169076
628.419	0.0167998
628.497	0.0169048
628.575	0.0169840
628.654	0.0168237
628.732	0.0166988
628.810	0.0166171
628.888	0.0164748
628.966	0.0165953
629.044	0.0164769
629.122	0.0163209
629.200	0.0162235
629.279	0.0162263
629.357	0.0161581
629.435	0.0161190
629.513	0.0161237
629.591	0.0162102
629.669	0.0161871
629.747	0.0162186
629.825	0.0164915
629.904	0.0163937
629.982	0.0163474
630.060	0.0165682
630.138	0.0166601
630.216	0.0166855
630.294	0.0167876
630.372	0.0167828
630.450	0.0168023
630.529	0.0169613
630.607	0.0170192
630.685	0.0171228
630.763	0.0170998
630.841	0.0173215
630.919	0.0173490
630.997	0.0175054
631.075	0.0175469
631.154	0.0176640
631.232	0.0177000
631.310	0.0176746
631.388	0.0177163
631.466	0.0178419
631.544	0.0176178
631.622	0.0176018
631.700	0.0173862
631.779	0.0172383
631.857	0.0170850
631.935	0.0168034
632.013	0.0165853
632.091	0.0165640
632.169	0.0162775
632.247	0.0158928
632.325	0.0158541
632.404	0.0158066
632.482	0.0156320
632.560	0.0155167
632.638	0.0154662
632.716	0.0155091
632.794	0.0154636
632.872	0.0151569
632.950	0.0150743
633.029	0.0151823
633.107	0.0150030
633.185	0.0149332
633.263	0.0151257
633.341	0.0151627
633.419	0.0152196
633.497	0.0153903
633.575	0.0154487
633.654	0.0158028
633.732	0.0160218
633.810	0.0162521
633.888	0.0165795
633.966	0.0168019
634.044	0.0170463
634.122	0.0173954
634.200	0.0175060
634.279	0.0177254
634.357	0.0180994
634.435	0.0182816
634.513	0.0185535
634.591	0.0187112
634.669	0.0187938
634.747	0.0190304
634.825	0.0189320
634.904	0.0190245
634.982	0.0189995
635.060	0.0190005
635.138	0.0188641
635.216	0.0185502
635.294	0.0184594
635.372	0.0181643
635.450	0.0178924
635.529	0.0175500
635.607	0.0171412
635.685	0.0167892
635.763	0.0165394
635.841	0.0162338
635.919	0.0158244
635.997	0.0154208
636.075	0.0151411
636.154	0.0146316
636.232	0.0143968
636.310	0.0142564
636.388	0.0139995
636.466	0.0136095
636.544	0.0136285
636.622	0.0135464
636.700	0.0134368
636.779	0.0135306
636.857	0.0133248
636.935	0.0134869
637.013	0.0138831
637.091	0.0141360
637.169	0.0143863
637.247	0.0148647
637.325	0.0150751
637.404	0.0155360
637.482	0.0160543
637.560	0.0165069
637.638	0.0170935
637.716	0.0175187
637.794	0.0180213
637.872	0.0185924
637.950	0.0188824
638.029	0.0193219
638.107	0.0196301
638.185	0.0199561
638.263	0.0200562
638.341	0.0201903
638.419	0.0203053
638.497	0.0203365
638.575	0.0202030
638.654	0.0201366
638.732	0.0199101
638.810	0.0194991
638.888	0.0193071
638.966	0.0187698
639.044	0.0182943
639.122	0.0179018
639.200	0.0174760
639.279	0.0170895
639.357	0.0164246
639.435	0.0160256
639.513	0.0156035
639.591	0.0152428
639.669	0.0149342
639.747	0.0144915
639.825	0.0142687
639.904	0.0141110
639.982	0.0138539
640.060	0.0136521
640.138	0.0137480
640.216	0.0138486
640.294	0.0137794
640.372	0.0139117
640.450	0.0140681
640.529	0.0140895
640.607	0.0145716
640.685	0.0147566
640.763	0.0149977
640.841	0.0153868
640.919	0.0158028
640.997	0.0160915
641.075	0.0163980
641.154	0.0168393
641.232	0.0170290
641.310	0.0172221
641.388	0.0174509
641.466	0.0176259
641.544	0.0178404
641.622	0.0177732
641.700	0.0179223
641.779	0.0180029
641.857	0.0179916
641.935	0.0178925
642.013	0.0178778
642.091	0.0178960
642.169	0.0176744
642.247	0.0176031
642.325	0.0175758
642.404	0.0174144
642.482	0.0173161
642.560	0.0172479
642.638	0.0169606
642.716	0.0168921
642.794	0.0168301
642.872	0.0166244
642.950	0.0166814
643.029	0.0165347
643.107	0.0167619
643.185	0.0167133
643.263	0.0166305
643.341	0.0169289
643.419	0.0170001
643.497	0.0171149
643.575	0.0172677
643.654	0.0176043
643.732	0.0176577
643.810	0.0177499
643.888	0.0180792
643.966	0.0180902
644.044	0.0181041
644.122	0.0182941
644.200	0.0182950
644.279	0.0179550
644.357	0.0177800
644.435	0.0177157
644.513	0.0174049
644.591	0.0171664
644.669	0.0168295
644.747	0.0165510
644.825	0.0163104
644.904	0.0160104
644.982	0.0158405
645.060	0.0155664
645.138	0.0153842
645.216	0.0152182
645.294	0.0150246
645.372	0.0147844
645.450	0.0148409
645.529	0.0145441
645.607	0.0145681
645.685	0.0145466
645.763	0.0144154
645.841	0.0145858
645.919	0.0147171
645.997	0.0147880
646.075	0.0149584
646.154	0.0152023
646.232	0.0154437
646.310	0.0158974
646.388	0.0163753
646.466	0.0165278
646.544	0.0169357
646.622	0.0173015
646.700	0.0174937
646.779	0.0178685
646.857	0.0180792
646.935	0.0182066
647.013	0.0182774
647.091	0.0186018
647.169	0.0188210
647.247	0.0186793
647.325	0.0189072
647.404	0.0190166
647.482	0.0187664
647.560	0.0189148
647.638	0.0189172
647.716	0.0189009
647.794	0.0189678
647.872	0.0187817
647.950	0.0187383
648.029	0.0182529
648.107	0.0181378
648.185	0.0178703
648.263	0.0176096
648.341	0.0171991
648.419	0.0168388
648.497	0.0164905
648.575	0.0162592
648.654	0.0160982
648.732	0.0158192
648.810	0.0158270
648.888	0.0156741
648.966	0.0155885
649.044	0.0155637
649.122	0.0155885
649.200	0.0155035
649.279	0.0156044
649.357	0.0154004
649.435	0.0155553
649.513	0.0155804
649.591	0.0155755
649.669	0.0153265
649.747	0.0153609
649.825	0.0155083
649.904	0.0153923
649.982	0.0153660
650.060	0.0152150
650.138	0.0151994
650.216	0.0152682
650.294	0.0153378
650.372	0.0153496
650.450	0.0152360
650.529	0.0153191
650.607	0.0155159
650.685	0.0155968
650.763	0.0157051
650.841	0.0156512
650.919	0.0158968
650.997	0.0160641
651.075	0.0161742
651.154	0.0163265
651.232	0.0167497
651.310	0.0169273
651.388	0.0171751
651.466	0.0176344
651.544	0.0179863
651.622	0.0183224
651.700	0.0186572
651.779	0.0190244
651.857	0.0191483
651.935	0.0194588
652.013	0.0194856
652.091	0.0195517
652.169	0.0194991
652.247	0.0192503
652.325	0.0193349
652.404	0.0189815
652.482	0.0187672
652.560	0.0185480
652.638	0.0180589
652.716	0.0176365
652.794	0.0174252
652.872	0.0170163
652.950	0.0166304
653.029	0.0161116
653.107	0.0157887
653.185	0.0153504
653.263	0.0148071
653.341	0.0144605
653.419	0.0140926
653.497	0.0135580
653.575	0.0133395
653.654	0.0130625
653.732	0.0128561
653.810	0.0126170
653.888	0.0126653
653.966	0.0129484
654.044	0.0131431
654.122	0.0134052
654.200	0.0138299
654.279	0.0142311
654.357	0.0150353
654.435	0.0155781
654.513	0.0161313
654.591	0.0167844
654.669	0.0172475
654.747	0.0178038
654.825	0.0181779
654.904	0.0185178
654.982	0.0188058
655.060	0.0192022
655.138	0.0194061
655.216	0.0196568
655.294	0.0197945
655.372	0.0196171
655.450	0.0198543
655.529	0.0197438
655.607	0.0197120
655.685	0.0195290
655.763	0.0194202
655.841	0.0191340
655.919	0.0185915
655.997	0.0184675
656.075	0.0179948
656.154	0.0175157
656.232	0.0170181
656.310	0.0165752
656.388	0.0161922
656.466	0.0156802
656.544	0.0153172
656.622	0.0149814
656.700	0.0147484
656.779	0.0145555
656.857	0.0143123
656.935	0.0141358
657.013	0.0141211
657.091	0.0142994
657.169	0.0142969
657.247	0.0144989
657.325	0.0146837
657.404	0.0148430
657.482	0.0150588
657.560	0.0153478
657.638	0.0156417
657.716	0.0157941
657.794	0.0161510
657.872	0.0163702
657.950	0.0166894
658.029	0.0169714
658.107	0.0173539
658.185	0.0175470
658.263	0.0176740
658.341	0.0177300
658.419	0.0177427
658.497	0.0178622
658.575	0.0177857
658.654	0.0175994
658.732	0.0174691
658.810	0.0172160
658.888	0.0168880
658.966	0.0166643
659.044	0.0163821
659.122	0.0163187
659.200	0.0159310
659.279	0.0157967
659.357	0.0157769
659.435	0.0156613
659.513	0.0157137
659.591	0.0156750
659.669	0.0157982
659.747	0.0157344
659.825	0.0161764
659.904	0.0158971
659.982	0.0161999
660.060	0.0162232
660.138	0.0164324
660.216	0.0163980
660.294	0.0164814
660.372	0.0165032
660.450	0.0165710
660.529	0.0168212
660.607	0.0169887
660.685	0.0171257
660.763	0.0174528
660.841	0.0175384
660.919	0.0176918
660.997	0.0178358
661.075	0.0179990
661.154	0.0181089
661.232	0.0182555
661.310	0.0182784
661.388	0.0183037
661.466	0.0180378
661.544	0.0181574
661.622	0.0179444
661.700	0.0178164
661.779	0.0175622
661.857	0.0172423
661.935	0.0171902
662.013	0.0169374
662.091	0.0166929
662.169	0.0165956
662.247	0.0162871
662.325	0.0161346
662.404	0.0159760
662.482	0.0159011
662.560	0.0156575
662.638	0.0156068
662.716	0.0155205
662.794	0.0154768
662.872	0.0152572
662.950	0.0154268
663.029	0.0153267
663.107	0.0153988
663.185	0.0154545
663.263	0.0156272
663.341	0.0157348
663.419	0.0159278
663.497	0.0161011
663.575	0.0163449
663.654	0.0165006
663.732	0.0168092
663.810	0.0168196
663.888	0.0170399
663.966	0.0172488
664.044	0.0172647
664.122	0.0171519
664.200	0.0173267
664.279	0.0173119
664.357	0.0171503
664.435	0.0171316
664.513	0.0170788
664.591	0.0167913
664.669	0.0168117
664.747	0.0166364
664.825	0.0164829
664.904	0.0163943
664.982	0.0161474
665.060	0.0161494
665.138	0.0160440
665.216	0.0158546
665.294	0.0158418
665.372	0.0156760
665.450	0.0156909
665.529	0.0157100
665.607	0.0155355
665.685	0.0154245
665.763	0.0155488
665.841	0.0155711
665.919	0.0156273
665.997	0.0157827
666.075	0.0158142
666.154	0.0159867
666.232	0.0163069
666.310	0.0163186
666.388	0.0165180
666.466	0.0167912
666.544	0.0171516
666.622	0.0172266
666.700	0.0175323
666.779	0.0176829
666.857	0.0181036
666.935	0.0182903
667.013	0.0183384
667.091	0.0188046
667.169	0.0189319
667.247	0.0192332
667.325	0.0193280
667.404	0.0195308
667.482	0.0198137
667.560	0.0197760
667.638	0.0198510
667.716	0.0199972
667.794	0.0196957
667.872	0.0197132
667.950	0.0194881
668.029	0.0192498
668.107	0.0190128
668.185	0.0188506
668.263	0.0182258
668.341	0.0177977
668.419	0.0175873
668.497	0.0170026
668.575	0.0165745
668.654	0.0161436
668.732	0.0155679
668.810	0.0150074
668.888	0.0146274
668.966	0.0140875
669.044	0.0137492
669.122	0.0134203
669.200	0.0129706
669.279	0.0126264
669.357	0.0126085
669.435	0.0124337
669.513	0.0123349
669.591	0.0123778
669.669	0.0124028
669.747	0.0125677
669.825	0.0127869
669.904	0.0132373
669.982	0.0133649
670.060	0.0137566
670.138	0.0141264
670.216	0.0145506
670.294	0.0150031
670.372	0.0154144
670.450	0.0160175
670.529	0.0163865
670.607	0.0167227
670.685	0.0172223
670.763	0.0176113
670.841	0.0181583
670.919	0.0184662
670.997	0.0187696
671.075	0.0192231
671.154	0.0195597
671.232	0.0197806
671.310	0.0199098
671.388	0.0202880
671.466	0.0202956
671.544	0.0202896
671.622	0.0204182
671.700	0.0204693
671.779	0.0201841
671.857	0.0201294
671.935	0.0199596
672.013	0.0196980
672.091	0.0191981
672.169	0.0189340
672.247	0.0187363
672.325	0.0184643
672.404	0.0179385
672.482	0.0177569
672.560	0.0173335
672.638	0.0169670
672.716	0.0168066
672.794	0.0166084
672.872	0.0163464
672.950	0.0160814
673.029	0.0159414
673.107	0.0159702
673.185	0.0157729
673.263	0.0158301
673.341	0.0157726
673.419	0.0155673
673.497	0.0156788
673.575	0.0155628
673.654	0.0154381
673.732	0.0155925
673.810	0.0156212
673.888	0.0155612
673.966	0.0155766
674.044	0.0156567
674.122	0.0155328
674.200	0.0156696
674.279	0.0156937
674.357	0.0156963
674.435	0.0156099
674.513	0.0156654
674.591	0.0157760
674.669	0.0159040
674.747	0.0158006
674.825	0.0156178
674.904	0.0158801
674.982	0.0159755
675.060	0.0160012
675.138	0.0159703
675.216	0.0160827
675.294	0.0162710
675.372	0.0162300
675.450	0.0164061
675.529	0.0163222
675.607	0.0163925
675.685	0.0166388
675.763	0.0165402
675.841	0.0167326
675.919	0.0166723
675.997	0.0166731
676.075	0.0163840
676.154	0.0164576
676.232	0.0166211
676.310	0.0165120
676.388	0.0164790
676.466	0.0165319
676.544	0.0166208
676.622	0.0166730
676.700	0.0166548
676.779	0.0167140
676.857	0.0167610
676.935	0.0169693
677.013	0.0170118
677.091	0.0170437
677.169	0.0172321
677.247	0.0170995
677.325	0.0171891
677.404	0.0172145
677.482	0.0171632
677.560	0.0172517
677.638	0.0172784
677.716	0.0171635
677.794	0.0171780
677.872	0.0169733
677.950	0.0169603
678.029	0.0168146
678.107	0.0166989
678.185	0.0165166
678.263	0.0165052
678.341	0.0163776
678.419	0.0163918
678.497	0.0164540
678.575	0.0162558
678.654	0.0161048
678.732	0.0163737
678.810	0.0164522
678.888	0.0162678
678.966	0.0166045
679.044	0.0166138
679.122	0.0167539
679.200	0.0167526
679.279	0.0169090
679.357	0.0169042
679.435	0.0169970
679.513	0.0170633
679.591	0.0169946
679.669	0.0168788
679.747	0.0167609
679.825	0.0167763
679.904	0.0167186
679.982	0.0166476
680.060	0.0166483
680.138	0.0165962
680.216	0.0164342
680.294	0.0165554
680.372	0.0164912
680.450	0.0164109
680.529	0.0164194
680.607	0.0163905
680.685	0.0164684
680.763	0.0164352
680.841	0.0164192
680.919	0.0163922
680.997	0.0164278
681.075	0.0163064
681.154	0.0163799
681.232	0.0162321
681.310	0.0161078
681.388	0.0161340
681.466	0.0159731
681.544	0.0159645
681.622	0.0157697
681.700	0.0157824
681.779	0.0158417
681.857	0.0157626
681.935	0.0155928
682.013	0.0156976
682.091	0.0156178
682.169	0.0156212
682.247	0.0156981
682.325	0.0155132
682.404	0.0156287
682.482	0.0158749
682.560	0.0159902
682.638	0.0160085
682.716	0.0161699
682.794	0.0163500
682.872	0.0163899
682.950	0.0164410
683.029	0.0166576
683.107	0.0167547
683.185	0.0167359
683.263	0.0167846
683.341	0.0167735
683.419	0.0169598
683.497	0.0170926
683.575	0.0170861
683.654	0.0172308
683.732	0.0172390
683.810	0.0170707
683.888	0.0172893
683.966	0.0173930
684.044	0.0174648
684.122	0.0176406
684.200	0.0176145
684.279	0.0176739
684.357	0.0176526
684.435	0.0175969
684.513	0.0176340
684.591	0.0176860
684.669	0.0176340
684.747	0.0175240
684.825	0.0174818
684.904	0.0175352
684.982	0.0173862
685.060	0.0174000
685.138	0.0174483
685.216	0.0173473
685.294	0.0173729
685.372	0.0171323
685.450	0.0171253
685.529	0.0171133
685.607	0.0172189
685.685	0.0171825
685.763	0.0169508
685.841	0.0171001
685.919	0.0169619
685.997	0.0167049
686.075	0.0166940
686.154	0.0165998
686.232	0.0165607
686.310	0.0163955
686.388	0.0162350
686.466	0.0163197
686.544	0.0160575
686.622	0.0160344
686.700	0.0159845
686.779	0.0158925
686.857	0.0159394
686.935	0.0159261
687.013	0.0158501
687.091	0.0158234
687.169	0.0159362
687.247	0.0159338
687.325	0.0160149
687.404	0.0160234
687.482	0.0159779
687.560	0.0160811
687.638	0.0161369
687.716	0.0161913
687.794	0.0162766
687.872	0.0163532
687.950	0.0164224
688.029	0.0163047
688.107	0.0164880
688.185	0.0163616
688.263	0.0165990
688.341	0.0167496
688.419	0.0165722
688.497	0.0166240
688.575	0.0167064
688.654	0.0167725
688.732	0.0168105
688.810	0.0169014
688.888	0.0168215
688.966	0.0167782
689.044	0.0168309
689.122	0.0169034
689.200	0.0169762
689.279	0.0169325
689.357	0.0169037
689.435	0.0169727
689.513	0.0169325
689.591	0.0168620
689.669	0.0169569
689.747	0.0169516
689.825	0.0170444
689.904	0.0170457
689.982	0.0170562
690.060	0.0172100
690.138	0.0171212
690.216	0.0169609
690.294	0.0171102
690.372	0.0170661
690.450	0.0170628
690.529	0.0170467
690.607	0.0172028
690.685	0.0172059
690.763	0.0172733
690.841	0.0173398
690.919	0.0173645
690.997	0.0175479
691.075	0.0174450
691.154	0.0174209
691.232	0.0173988
691.310	0.0174386
691.388	0.0172855
691.466	0.0173100
691.544	0.0172076
691.622	0.0170798
691.700	0.0171187
691.779	0.0170524
691.857	0.0169687
691.935	0.0167822
692.013	0.0166275
692.091	0.0168342
692.169	0.0167891
692.247	0.0165807
692.325	0.0165208
692.404	0.0163867
692.482	0.0163589
692.560	0.0164167
692.638	0.0162540
692.716	0.0161007
692.794	0.0160290
692.872	0.0159499
692.950	0.0158441
693.029	0.0158630
693.107	0.0158346
693.185	0.0160011
693.263	0.0159746
693.341	0.0159482
693.419	0.0160500
693.497	0.0160797
693.575	0.0161546
693.654	0.0164208
693.732	0.0162631
693.810	0.0163296
693.888	0.0165995
693.966	0.0165328
694.044	0.0165715
694.122	0.0165425
694.200	0.0165639
694.279	0.0165735
694.357	0.0166588
694.435	0.0167415
694.513	0.0167915
694.591	0.0167486
694.669	0.0167330
694.747	0.0169184
694.825	0.0169800
694.904	0.0168907
694.982	0.0169780
695.060	0.0170240
695.138	0.0169779
695.216	0.0169643
695.294	0.0170930
695.372	0.0170319
695.450	0.0170956
695.529	0.0171340
695.607	0.0170765
695.685	0.0171497
695.763	0.0170786
695.841	0.0170917
695.919	0.0170509
695.997	0.0170452
696.075	0.0170544
696.154	0.0168650
696.232	0.0171007
696.310	0.0169828
696.388	0.0169142
696.466	0.0168530
696.544	0.0168080
696.622	0.0168823
696.700	0.0166110
696.779	0.0165887
696.857	0.0163838
696.935	0.0162266
697.013	0.0164088
697.091	0.0162850
697.169	0.0163007
697.247	0.0163432
697.325	0.0163467
697.404	0.0163588
697.482	0.0163159
697.560	0.0164686
697.638	0.0166677
697.716	0.0166764
697.794	0.0167612
697.872	0.0167290
697.950	0.0168356
698.029	0.0170513
698.107	0.0170292
698.185	0.0170441
698.263	0.0170860
698.341	0.0171365
698.419	0.0169644
698.497	0.0168893
698.575	0.0169579
698.654	0.0168121
698.732	0.0168639
698.810	0.0168715
698.888	0.0167824
698.966	0.0167563
699.044	0.0167007
699.122	0.0166456
699.200	0.0166031
699.279	0.0165336
699.357	0.0165690
699.435	0.0167277
699.513	0.0166572
699.591	0.0164384
699.669	0.0164426
699.747	0.0164416
699.825	0.0164091
699.904	0.0163887
699.982	0.0162733
700.060	0.0164060
700.138	0.0164599
700.216	0.0163604
700.294	0.0163267
700.372	0.0164034
700.450	0.0164365
700.529	0.0163706
700.607	0.0164738
700.685	0.0165046
700.763	0.0165929
700.841	0.0166705
700.919	0.0165811
700.997	0.0165778
701.075	0.0165188
701.154	0.0166662
701.232	0.0166515
701.310	0.0166442
701.388	0.0165836
701.466	0.0167873
701.544	0.0167751
701.622	0.0166660
701.700	0.0167062
701.779	0.0167834
701.857	0.0168004
701.935	0.0167706
702.013	0.0167376
702.091	0.0167516
702.169	0.0166016
702.247	0.0166923
702.325	0.0167551
702.404	0.0168762
702.482	0.0167035
702.560	0.0167656
702.638	0.0168440
702.716	0.0168097
702.794	0.0168894
702.872	0.0170882
702.950	0.0171523
703.029	0.0170309
703.107	0.0169419
703.185	0.0170461
703.263	0.0169943
703.341	0.0169669
703.419	0.0169292
703.497	0.0167694
703.575	0.0167262
703.654	0.0166270
703.732	0.0166419
703.810	0.0165453
703.888	0.0166658
703.966	0.0165105
704.044	0.0163972
704.122	0.0163875
704.200	0.0163216
704.279	0.0163461
704.357	0.0164236
704.435	0.0164310
704.513	0.0164745
704.591	0.0164352
704.669	0.0164342
704.747	0.0164828
704.825	0.0165929
704.904	0.0167234
704.982	0.0166515
705.060	0.0165701
705.138	0.0167394
705.216	0.0167775
705.294	0.0166372
705.372	0.0167262
705.450	0.0168583
705.529	0.0166714
705.607	0.0168652
705.685	0.0169500
705.763	0.0169691
705.841	0.0170045
705.919	0.0169044
705.997	0.0169556
706.075	0.0171651
706.154	0.0169924
706.232	0.0168780
706.310	0.0169753
706.388	0.0168466
706.466	0.0167242
706.544	0.0165637
706.622	0.0166066
706.700	0.0166688
706.779	0.0165412
706.857	0.0164832
706.935	0.0164674
707.013	0.0164004
707.091	0.0163964
707.169	0.0162639
707.247	0.0161755
707.325	0.0161689
707.404	0.0161335
707.482	0.0160551
707.560	0.0161640
707.638	0.0161109
707.716	0.0162897
707.794	0.0161499
707.872	0.0162151
707.950	0.0162328
708.029	0.0162604
708.107	0.0162235
708.185	0.0163458
708.263	0.0163911
708.341	0.0163242
708.419	0.0162756
708.497	0.0164075
708.575	0.0164796
708.654	0.0164669
708.732	0.0164165
708.810	0.0164992
708.888	0.0165996
708.966	0.0166628
709.044	0.0168874
709.122	0.0168146
709.200	0.0167495
709.279	0.0168063
709.357	0.0169199
709.435	0.0169854
709.513	0.0169472
709.591	0.0171426
709.669	0.0171017
709.747	0.0171645
709.825	0.0172694
709.904	0.0173000
709.982	0.0171651
710.060	0.0172015
710.138	0.0173973
710.216	0.0172688
710.294	0.0172581
710.372	0.0172807
710.450	0.0172348
710.529	0.0171574
710.607	0.0172179
710.685	0.0170663
710.763	0.0170038
710.841	0.0169062
710.919	0.0169299
710.997	0.0168847
711.075	0.0168012
711.154	0.0168031
711.232	0.0166516
711.310	0.0167332
711.388	0.0166393
711.466	0.0165439
711.544	0.0164237
711.622	0.0164056
711.700	0.0164137
711.779	0.0163086
711.857	0.0162742
711.935	0.0161490
712.013	0.0160784
712.091	0.0162909
712.169	0.0162010
712.247	0.0161351
712.325	0.0161317
712.404	0.0160369
712.482	0.0161396
712.560	0.0162190
712.638	0.0163276
712.716	0.0162595
712.794	0.0163175
712.872	0.0163477
712.950	0.0164275
713.029	0.0165031
713.107	0.0164484
713.185	0.0165914
713.263	0.0167843
713.341	0.0166539
713.419	0.0168033
713.497	0.0168068
713.575	0.0167571
713.654	0.0167861
713.732	0.0166508
713.810	0.0168873
713.888	0.0169487
713.966	0.0167554
714.044	0.0167612
714.122	0.0168317
714.200	0.0168572
714.279	0.0167131
714.357	0.0166383
714.435	0.0166881
714.513	0.0166904
714.591	0.0166459
714.669	0.0166390
714.747	0.0163843
714.825	0.0165202
714.904	0.0166144
714.982	0.0164394
715.060	0.0162678
715.138	0.0163544
715.216	0.0162643
715.294	0.0162202
715.372	0.0161794
715.450	0.0163276
715.529	0.0161436
715.607	0.0161851
715.685	0.0162690
715.763	0.0162733
715.841	0.0161997
715.919	0.0162164
715.997	0.0162545
716.075	0.0162669
716.154	0.0163114
716.232	0.0163879
716.310	0.0162225
716.388	0.0164455
716.466	0.0161474
716.544	0.0164009
716.622	0.0164325
716.700	0.0164779
716.779	0.0165212
716.857	0.0164964
716.935	0.0166637
717.013	0.0167134
717.091	0.0168056
717.169	0.0167551
717.247	0.0168759
717.325	0.0170184
717.404	0.0169304
717.482	0.0167159
717.560	0.0168894
717.638	0.0170197
717.716	0.0170123
717.794	0.0169160
717.872	0.0168836
717.950	0.0169034
718.029	0.0169080
718.107	0.0167992
718.185	0.0167908
718.263	0.0170017
718.341	0.0169064
718.419	0.0167525
718.497	0.0168220
718.575	0.0168209
718.654	0.0168135
718.732	0.0167706
718.810	0.0166986
718.888	0.0168831
718.966	0.0167765
719.044	0.0167220
719.122	0.0166912
719.200	0.0165951
719.279	0.0166720
719.357	0.0166353
719.435	0.0167033
719.513	0.0165924
719.591	0.0166658
719.669	0.0166850
719.747	0.0166089
719.825	0.0165097
719.904	0.0165731
719.982	0.0164668
720.060	0.0166569
720.138	0.0165952
720.216	0.0167036
720.294	0.0165840
720.372	0.0167425
720.450	0.0166312
720.529	0.0166478
720.607	0.0166859
720.685	0.0166244
720.763	0.0167049
720.841	0.0167951
720.919	0.0167058
720.997	0.0168218
721.075	0.0166850
721.154	0.0166982
721.232	0.0167605
721.310	0.0166747
721.388	0.0165212
721.466	0.0165937
721.544	0.0166518
721.622	0.0165987
721.700	0.0166000
721.779	0.0164972
721.857	0.0164352
721.935	0.0164378
722.013	0.0165282
722.091	0.0166706
722.169	0.0166177
722.247	0.0165286
722.325	0.0165752
722.404	0.0165581
722.482	0.0166875
722.560	0.0167106
722.638	0.0168188
722.716	0.0167475
722.794	0.0167444
722.872	0.0167027
722.950	0.0167390
723.029	0.0167771
723.107	0.0167057
723.185	0.0168201
723.263	0.0167733
723.341	0.0169324
723.419	0.0169473
723.497	0.0169608
723.575	0.0168690
723.654	0.0170622
723.732	0.0170949
723.810	0.0169823
723.888	0.0169700
723.966	0.0171243
724.044	0.0169228
724.122	0.0169550
724.200	0.0168845
724.279	0.0170181
724.357	0.0169310
724.435	0.0168938
724.513	0.0169241
724.591	0.0170256
724.669	0.0169761
724.747	0.0168784
724.825	0.0168940
724.904	0.0167992
724.982	0.0166670
725.060	0.0167717
725.138	0.0166035
725.216	0.0166203
725.294	0.0165608
725.372	0.0164282
725.450	0.0164774
725.529	0.0165107
725.607	0.0162900
725.685	0.0161472
725.763	0.0160929
725.841	0.0161986
725.919	0.0160944
725.997	0.0160570
726.075	0.0161507
726.154	0.0160770
726.232	0.0161870
726.310	0.0161124
726.388	0.0160900
726.466	0.0163116
726.544	0.0163752
726.622	0.0164108
726.700	0.0164077
726.779	0.0164211
726.857	0.0165550
726.935	0.0166575
727.013	0.0165059
727.091	0.0165829
727.169	0.0167178
727.247	0.0167830
727.325	0.0167348
727.404	0.0166715
727.482	0.0168250
727.560	0.0168852
727.638	0.0169243
727.716	0.0168566
727.794	0.0168912
727.872	0.0167350
727.950	0.0168591
728.029	0.0169532
728.107	0.0168303
728.185	0.0168578
728.263	0.0169172
728.341	0.0167547
728.419	0.0167097
728.497	0.0168446
728.575	0.0168153
728.654	0.0167578
728.732	0.0168216
728.810	0.0167928
728.888	0.0167931
728.966	0.0168166
729.044	0.0167103
729.122	0.0166415
729.200	0.0167130
729.279	0.0167413
729.357	0.0166080
729.435	0.0165837
729.513	0.0166608
729.591	0.0166943
729.669	0.0167290
729.747	0.0166726
729.825	0.0166196
729.904	0.0167661
729.982	0.0167523
730.060	0.0168491
730.138	0.0167218
730.216	0.0166022
730.294	0.0168048
730.372	0.0166953
730.450	0.0168112
730.529	0.0167327
730.607	0.0166050
730.685	0.0168610
730.763	0.0166920
730.841	0.0166490
730.919	0.0167374
730.997	0.0168684
731.075	0.0167033
731.154	0.0166106
731.232	0.0168111
731.310	0.0166962
731.388	0.0167063
731.466	0.0167236
731.544	0.0167776
731.622	0.0166591
731.700	0.0166926
731.779	0.0166321
731.857	0.0164896
731.935	0.0165517
732.013	0.0167104
732.091	0.0166489
732.169	0.0164746
732.247	0.0166759
732.325	0.0164969
732.404	0.0164087
732.482	0.0163305
732.560	0.0163266
732.638	0.0161852
732.716	0.0162069
732.794	0.0161937
732.872	0.0160654
732.950	0.0160215
733.029	0.0159819
733.107	0.0160268
733.185	0.0161264
733.263	0.0160934
733.341	0.0161349
733.419	0.0160708
733.497	0.0161626
733.575	0.0161414
733.654	0.0161939
733.732	0.0162246
733.810	0.0164084
733.888	0.0164906
733.966	0.0163274
734.044	0.0165291
734.122	0.0165047
734.200	0.0166795
734.279	0.0166825
734.357	0.0168182
734.435	0.0169291
734.513	0.0170603
734.591	0.0169737
734.669	0.0170122
734.747	0.0171165
734.825	0.0171403
734.904	0.0171019
734.982	0.0171399
735.060	0.0171698
735.138	0.0170357
735.216	0.0171444
735.294	0.0169940
735.372	0.0169647
735.450	0.0170834
735.529	0.0168037
735.607	0.0168041
735.685	0.0168240
735.763	0.0168256
735.841	0.0165981
735.919	0.0165950
735.997	0.0166570
736.075	0.0164824
736.154	0.0165022
736.232	0.0163606
736.310	0.0164620
736.388	0.0164133
736.466	0.0163402
736.544	0.0164392
736.622	0.0164163
736.700	0.0164516
736.779	0.0163628
736.857	0.0162920
736.935	0.0163560
737.013	0.0164319
737.091	0.0164863
737.169	0.0164326
737.247	0.0163577
737.325	0.0164789
737.404	0.0164175
737.482	0.0163677
737.560	0.0163668
737.638	0.0164935
737.716	0.0166968
737.794	0.0165639
737.872	0.0165764
737.950	0.0167357
738.029	0.0166470
738.107	0.0166393
738.185	0.0167697
738.263	0.0166582
738.341	0.0167749
738.419	0.0167608
738.497	0.0165519
738.575	0.0167377
738.654	0.0165973
738.732	0.0165899
738.810	0.0166132
738.888	0.0165179
738.966	0.0163805
739.044	0.0165319
739.122	0.0164137
739.200	0.0164845
739.279	0.0164951
739.357	0.0164685
739.435	0.0163869
739.513	0.0164644
739.591	0.0164777
739.669	0.0165261
739.747	0.0163428
739.825	0.0163621
739.904	0.0163869
739.982	0.0165887
740.060	0.0166455
740.138	0.0164660
740.216	0.0165798
740.294	0.0165211
740.372	0.0166346
740.450	0.0167084
740.529	0.0166131
740.607	0.0166853
740.685	0.0167061
740.763	0.0166504
740.841	0.0167072
740.919	0.0166176
740.997	0.0166314
741.075	0.0168330
741.154	0.0167007
741.232	0.0167471
741.310	0.0167245
741.388	0.0165964
741.466	0.0166564
741.544	0.0165689
741.622	0.0167537
741.700	0.0166107
741.779	0.0165292
741.857	0.0164999
741.935	0.0164746
742.013	0.0164384
742.091	0.0165257
742.169	0.0164001
742.247	0.0164589
742.325	0.0163625
742.404	0.0163761
742.482	0.0165417
742.560	0.0165774
742.638	0.0166226
742.716	0.0166508
742.794	0.0166996
742.872	0.0165469
742.950	0.0166560
743.029	0.0167326
743.107	0.0168307
743.185	0.0168654
743.263	0.0168056
743.341	0.0168768
743.419	0.0169016
743.497	0.0170284
743.575	0.0170065
743.654	0.0170310
743.732	0.0168953
743.810	0.0168732
743.888	0.0169036
743.966	0.0169392
744.044	0.0170782
744.122	0.0170263
744.200	0.0169656
744.279	0.0169932
744.357	0.0168916
744.435	0.0169896
744.513	0.0169337
744.591	0.0167784
744.669	0.0168436
744.747	0.0168138
744.825	0.0167162
744.904	0.0166883
744.982	0.0166680
745.060	0.0165812
745.138	0.0164445
745.216	0.0164967
745.294	0.0164690
745.372	0.0163531
745.450	0.0163730
745.529	0.0163439
745.607	0.0163272
745.685	0.0161227
745.763	0.0162691
745.841	0.0162254
745.919	0.0163789
745.997	0.0161617
746.075	0.0163351
746.154	0.0163362
746.232	0.0162321
746.310	0.0162057
746.388	0.0162525
746.466	0.0161796
746.544	0.0162463
746.622	0.0163829
746.700	0.0163535
746.779	0.0163734
746.857	0.0164279
746.935	0.0165022
747.013	0.0164484
747.091	0.0164798
747.169	0.0165345
747.247	0.0165861
747.325	0.0165709
747.404	0.0166028
747.482	0.0167284
747.560	0.0166688
747.638	0.0166407
747.716	0.0165959
747.794	0.0168461
747.872	0.0168823
747.950	0.0168713
748.029	0.0169312
748.107	0.0169617
748.185	0.0168412
748.263	0.0169493
748.341	0.0169624
748.419	0.0171006
748.497	0.0170490
748.575	0.0169404
748.654	0.0170709
748.732	0.0170747
748.810	0.0169024
748.888	0.0171066
748.966	0.0170230
749.044	0.0169626
749.122	0.0169088
749.200	0.0169173
749.279	0.0167652
749.357	0.0167779
749.435	0.0168264
749.513	0.0166145
749.591	0.0165645
749.669	0.0165504
749.747	0.0165924
749.825	0.0165184
749.904	0.0165585
749.982	0.0164691
750.060	0.0165504
750.138	0.0164381
750.216	0.0164031
750.294	0.0163238
750.372	0.0163863
750.450	0.0163406
750.529	0.0164686
750.607	0.0163698
750.685	0.0164761
750.763	0.0166164
750.841	0.0164863
750.919	0.0166156
750.997	0.0166323
751.075	0.0166004
751.154	0.0167377
751.232	0.0166729
751.310	0.0166969
751.388	0.0168229
751.466	0.0167692
751.544	0.0168264
751.622	0.0167768
751.700	0.0168613
751.779	0.0170298
751.857	0.0167973
751.935	0.0166685
752.013	0.0166719
752.091	0.0168991
752.169	0.0168867
752.247	0.0169709
752.325	0.0167747
752.404	0.0167043
752.482	0.0166628
752.560	0.0167528
752.638	0.0167667
752.716	0.0164707
752.794	0.0167596
752.872	0.0166127
752.950	0.0165250
753.029	0.0165176
753.107	0.0166132
753.185	0.0164344
753.263	0.0164958
753.341	0.0164803
753.419	0.0164468
753.497	0.0164940
753.575	0.0163799
753.654	0.0163831
753.732	0.0164956
753.810	0.0163614
753.888	0.0165123
753.966	0.0166068
754.044	0.0164645
754.122	0.0164404
754.200	0.0165549
754.279	0.0166943
754.357	0.0165772
754.435	0.0165402
754.513	0.0166277
754.591	0.0166788
754.669	0.0166610
754.747	0.0166135
754.825	0.0168066
754.904	0.0167690
754.982	0.0167469
755.060	0.0167878
755.138	0.0168006
755.216	0.0167782
755.294	0.0169633
755.372	0.0168707
755.450	0.0167887
755.529	0.0168551
755.607	0.0168493
755.685	0.0169093
755.763	0.0170534
755.841	0.0168583
755.919	0.0168211
755.997	0.0169255
756.075	0.0167437
756.154	0.0168575
756.232	0.0167155
756.310	0.0168170
756.388	0.0167995
756.466	0.0168282
756.544	0.0167179
756.622	0.0168436
756.700	0.0168012
756.779	0.0166219
756.857	0.0165835
756.935	0.0167060
757.013	0.0165554
757.091	0.0166702
757.169	0.0166035
757.247	0.0166075
757.325	0.0167632
757.404	0.0167286
757.482	0.0166273
757.560	0.0166661
757.638	0.0167238
757.716	0.0165671
757.794	0.0165965
757.872	0.0165706
757.950	0.0165351
758.029	0.0166801
758.107	0.0165484
758.185	0.0166489
758.263	0.0165431
758.341	0.0166010
758.419	0.0164400
758.497	0.0166113
758.575	0.0166773
758.654	0.0166347
758.732	0.0164828
758.810	0.0164867
758.888	0.0166614
758.966	0.0166056
759.044	0.0166339
759.122	0.0165359
759.200	0.0165063
759.279	0.0165291
759.357	0.0166489
759.435	0.0165984
759.513	0.0165110
759.591	0.0164572
759.669	0.0164691
759.747	0.0165125
759.825	0.0165133
759.904	0.0165958
759.982	0.0166422
760.060	0.0165478
760.138	0.0163940
760.216	0.0165107
760.294	0.0166412
760.372	0.0167127
760.450	0.0165584
760.529	0.0165772
760.607	0.0165940
760.685	0.0166535
760.763	0.0166570
760.841	0.0167117
760.919	0.0165976
760.997	0.0166551
761.075	0.0166957
761.154	0.0165848
761.232	0.0167442
761.310	0.0166298
761.388	0.0166753
761.466	0.0166551
761.544	0.0167081
761.622	0.0167969
761.700	0.0166643
761.779	0.0165542
761.857	0.0166196
761.935	0.0166422
762.013	0.0165424
762.091	0.0165749
762.169	0.0166830
762.247	0.0166691
762.325	0.0167025
762.404	0.0165422
762.482	0.0167522
762.560	0.0166655
762.638	0.0165708
762.716	0.0166169
762.794	0.0167495
762.872	0.0167298
762.950	0.0167149
763.029	0.0167090
763.107	0.0167254
763.185	0.0167849
763.263	0.0168972
763.341	0.0167236
763.419	0.0168165
763.497	0.0167381
763.575	0.0170220
763.654	0.0170427
763.732	0.0171130
763.810	0.0170536
763.888	0.0171471
763.966	0.0171149
764.044	0.0171379
764.122	0.0172395
764.200	0.0173177
764.279	0.0173795
764.357	0.0172867
764.435	0.0174544
764.513	0.0172064
764.591	0.0173173
764.669	0.0172742
764.747	0.0171615
764.825	0.0172110
764.904	0.0171342
764.982	0.0172022
765.060	0.0170377
765.138	0.0169615
765.216	0.0166020
765.294	0.0167628
765.372	0.0166531
765.450	0.0165409
765.529	0.0166456
765.607	0.0164999
765.685	0.0164319
765.763	0.0162328
765.841	0.0162059
765.919	0.0161031
765.997	0.0161205
766.075	0.0161652
766.154	0.0161456
766.232	0.0161026
766.310	0.0159978
766.388	0.0160478
766.466	0.0161365
766.544	0.0161074
766.622	0.0161105
766.700	0.0161140
766.779	0.0162151
766.857	0.0162592
766.935	0.0163614
767.013	0.0165154
767.091	0.0165714
767.169	0.0165704
767.247	0.0166025
767.325	0.0166024
767.404	0.0166042
767.482	0.0167584
767.560	0.0166973
767.638	0.0168968
767.716	0.0170085
767.794	0.0169387
767.872	0.0168944
767.950	0.0168934
768.029	0.0170716
768.107	0.0170605
768.185	0.0170049
768.263	0.0169620
768.341	0.0170200
768.419	0.0170422
768.497	0.0170987
768.575	0.0169468
768.654	0.0170756
768.732	0.0169949
768.810	0.0169891
768.888	0.0168867
768.966	0.0168506
769.044	0.0168526
769.122	0.0167397
769.200	0.0166554
769.279	0.0166550
769.357	0.0165469
769.435	0.0166196
769.513	0.0166541
769.591	0.0166073
769.669	0.0166052
769.747	0.0166440
769.825	0.0165742
769.904	0.0166086
769.982	0.0166051
770.060	0.0165374
770.138	0.0165891
770.216	0.0166656
770.294	0.0166441
770.372	0.0167278
770.450	0.0166755
770.529	0.0166765
770.607	0.0166292
770.685	0.0165098
770.763	0.0166942
770.841	0.0167541
770.919	0.0166271
770.997	0.0164893
771.075	0.0166547
771.154	0.0166238
771.232	0.0165688
771.310	0.0166238
771.388	0.0166068
771.466	0.0166600
771.544	0.0166113
771.622	0.0165872
771.700	0.0165154
771.779	0.0165368
771.857	0.0165862
771.935	0.0164939
772.013	0.0164845
772.091	0.0166077
772.169	0.0166436
772.247	0.0165634
772.325	0.0164797
772.404	0.0164017
772.482	0.0165459
772.560	0.0164690
772.638	0.0165295
772.716	0.0165359
772.794	0.0164936
772.872	0.0163982
772.950	0.0165086
773.029	0.0166399
773.107	0.0166571
773.185	0.0166540
773.263	0.0166194
773.341	0.0166724
773.419	0.0167032
773.497	0.0164674
773.575	0.0167364
773.654	0.0167153
773.732	0.0165269
773.810	0.0165631
773.888	0.0166306
773.966	0.0164983
774.044	0.0166173
774.122	0.0164713
774.200	0.0165005
774.279	0.0165110
774.357	0.0165346
774.435	0.0165434
774.513	0.0165810
774.591	0.0164905
774.669	0.0164745
774.747	0.0165635
774.825	0.0166132
774.904	0.0163964
774.982	0.0165928
775.060	0.0167040
775.138	0.0162999
775.216	0.0164812
775.294	0.0164489
775.372	0.0164842
775.450	0.0164527
775.529	0.0164011
775.607	0.0164437
775.685	0.0163654
775.763	0.0164311
775.841	0.0165064
775.919	0.0165073
775.997	0.0164635
776.075	0.0166385
776.154	0.0164859
776.232	0.0166323
776.310	0.0165967
776.388	0.0164965
776.466	0.0165129
776.544	0.0167109
776.622	0.0165918
776.700	0.0166492
776.779	0.0165195
776.857	0.0166738
776.935	0.0165904
777.013	0.0165538
777.091	0.0163681
777.169	0.0165702
777.247	0.0166364
777.325	0.0164643
777.404	0.0166457
777.482	0.0166833
777.560	0.0166912
777.638	0.0164440
777.716	0.0165821
777.794	0.0164570
777.872	0.0165582
777.950	0.0165163
778.029	0.0165261
778.107	0.0165345
778.185	0.0165405
778.263	0.0165855
778.341	0.0164651
778.419	0.0163918
778.497	0.0166126
778.575	0.0165958
778.654	0.0164661
778.732	0.0166173
778.810	0.0167070
778.888	0.0167194
778.966	0.0166679
779.044	0.0167217
779.122	0.0168094
779.200	0.0168213
779.279	0.0168806
779.357	0.0168060
779.435	0.0166957
779.513	0.0167807
779.591	0.0169189
779.669	0.0169604
779.747	0.0169823
779.825	0.0168489
779.904	0.0168632
779.982	0.0169989
780.060	0.0167964
780.138	0.0169316
780.216	0.0169697
780.294	0.0169624
780.372	0.0170940
780.450	0.0170734
780.529	0.0169304
780.607	0.0168993
780.685	0.0168874
780.763	0.0168763
780.841	0.0168447
780.919	0.0169027
780.997	0.0167666
781.075	0.0169215
781.154	0.0169479
781.232	0.0168182
781.310	0.0166544
781.388	0.0167081
781.466	0.0167357
781.544	0.0165257
781.622	0.0167164
781.700	0.0167496
781.779	0.0164639
781.857	0.0165630
781.935	0.0167210
782.013	0.0166022
782.091	0.0164045
782.169	0.0164535
782.247	0.0166116
782.325	0.0165430
782.404	0.0164887
782.482	0.0166414
782.560	0.0166235
782.638	0.0163840
782.716	0.0164581
782.794	0.0165824
782.872	0.0164220
782.950	0.0164545
783.029	0.0165921
783.107	0.0165378
783.185	0.0163763
783.263	0.0164788
783.341	0.0165745
783.419	0.0166735
783.497	0.0165168
783.575	0.0165446
783.654	0.0165220
783.732	0.0165269
783.810	0.0167912
783.888	0.0167058
783.966	0.0166073
784.044	0.0167329
784.122	0.0167719
784.200	0.0167793
784.279	0.0168517
784.357	0.0167341
784.435	0.0165958
784.513	0.0167838
784.591	0.0167984
784.669	0.0168526
784.747	0.0169551
784.825	0.0170710
784.904	0.0168806
784.982	0.0168915
785.060	0.0169267
785.138	0.0170095
785.216	0.0169151
785.294	0.0171023
785.372	0.0170688
785.450	0.0171351
785.529	0.0169371
785.607	0.0170721
785.685	0.0171179
785.763	0.0171249
785.841	0.0170805
785.919	0.0169376
785.997	0.0169006
786.075	0.0171263
786.154	0.0170741
786.232	0.0169367
786.310	0.0167224
786.388	0.0168036
786.466	0.0169831
786.544	0.0166640
786.622	0.0167635
786.700	0.0166986
786.779	0.0167791
786.857	0.0167882
786.935	0.0166084
787.013	0.0167663
787.091	0.0169168
787.169	0.0167512
787.247	0.0166839
787.325	0.0167427
787.404	0.0166904
787.482	0.0167471
787.560	0.0168933
787.638	0.0166806
787.716	0.0168022
787.794	0.0168446
787.872	0.0168102
787.950	0.0167175
788.029	0.0167677
788.107	0.0166495
788.185	0.0167806
788.263	0.0168974
788.341	0.0168806
788.419	0.0168325
788.497	0.0168490
788.575	0.0166852
788.654	0.0169698
788.732	0.0168274
788.810	0.0167413
788.888	0.0167395
788.966	0.0169894
789.044	0.0167110
789.122	0.0167107
789.200	0.0167716
789.279	0.0168659
789.357	0.0168233
789.435	0.0167919
789.513	0.0168168
789.591	0.0166730
789.669	0.0166927
789.747	0.0166750
789.825	0.0166351
789.904	0.0165508
789.982	0.0165768
790.060	0.0167219
790.138	0.0165797
790.216	0.0166389
790.294	0.0165952
790.372	0.0164476
790.450	0.0164851
790.529	0.0166109
790.607	0.0165849
790.685	0.0166909
790.763	0.0166115
790.841	0.0165241
790.919	0.0165823
790.997	0.0164583
791.075	0.0165123
791.154	0.0165895
791.232	0.0165262
791.310	0.0166217
791.388	0.0166932
791.466	0.0166275
791.544	0.0165566
791.622	0.0165433
791.700	0.0165499
791.779	0.0166291
791.857	0.0164810
791.935	0.0165296
792.013	0.0165636
792.091	0.0165714
792.169	0.0165656
792.247	0.0166323
792.325	0.0165919
792.404	0.0166243
792.482	0.0164858
792.560	0.0164191
792.638	0.0165668
792.716	0.0165898
792.794	0.0166833
792.872	0.0164912
792.950	0.0165915
793.029	0.0166386
793.107	0.0166472
793.185	0.0167217
793.263	0.0166145
793.341	0.0167566
793.419	0.0168389
793.497	0.0166685
793.575	0.0166372
793.654	0.0167037
793.732	0.0165981
793.810	0.0167613
793.888	0.0168034
793.966	0.0167109
794.044	0.0167709
794.122	0.0167691
794.200	0.0166603
794.279	0.0166330
794.357	0.0166469
794.435	0.0166257
794.513	0.0166270
794.591	0.0165710
794.669	0.0165297
794.747	0.0164829
794.825	0.0165583
794.904	0.0164493
794.982	0.0164886
795.060	0.0164347
795.138	0.0165452
795.216	0.0164017
795.294	0.0163943
795.372	0.0164283
795.450	0.0163266
795.529	0.0163948
795.607	0.0163879
795.685	0.0165482
795.763	0.0164591
795.841	0.0162962
795.919	0.0165009
795.997	0.0164519
796.075	0.0162774
796.154	0.0164548
796.232	0.0163145
796.310	0.0163766
796.388	0.0163687
796.466	0.0163741
796.544	0.0163889
796.622	0.0163023
796.700	0.0164610
796.779	0.0164089
796.857	0.0165115
796.935	0.0165394
797.013	0.0164100
797.091	0.0164954
797.169	0.0165498
797.247	0.0165099
797.325	0.0165640
797.404	0.0164208
797.482	0.0165326
797.560	0.0166360
797.638	0.0166798
797.716	0.0166377
797.794	0.0167162
797.872	0.0166419
797.950	0.0167642
798.029	0.0168105
798.107	0.0166882
798.185	0.0168787
798.263	0.0167977
798.341	0.0167325
798.419	0.0167981
798.497	0.0168725
798.575	0.0167725
798.654	0.0168447
798.732	0.0168845
798.810	0.0168332
798.888	0.0168046
798.966	0.0168680
799.044	0.0168645
799.122	0.0167850
799.200	0.0168526
799.279	0.0167520
799.357	0.0167965
799.435	0.0166560
799.513	0.0166459
799.591	0.0166360
799.669	0.0166036
799.747	0.0166167
799.825	0.0166997
799.904	0.0167444
799.982	0.0165633
800.060	0.0166071
800.138	0.0167494
800.216	0.0166006
800.294	0.0166125
800.372	0.0165132
800.450	0.0165481
800.529	0.0166209
800.607	0.0167082
800.685	0.0165372
800.763	0.0166480
800.841	0.0168157
800.919	0.0165766
800.997	0.0166068
801.075	0.0165733
801.154	0.0167019
801.232	0.0167463
801.310	0.0166824
801.388	0.0166879
801.466	0.0166626
801.544	0.0167377
801.622	0.0166863
801.700	0.0168137
801.779	0.0166737
801.857	0.0167821
801.935	0.0167269
802.013	0.0166449
802.091	0.0165850
802.169	0.0166708
802.247	0.0168996
802.325	0.0166301
802.404	0.0167669
802.482	0.0166056
802.560	0.0166460
802.638	0.0166032
802.716	0.0166337
802.794	0.0166187
802.872	0.0166792
802.950	0.0166193
803.029	0.0166395
803.107	0.0166901
803.185	0.0165811
803.263	0.0165983
803.341	0.0166646
803.419	0.0167088
803.497	0.0167625
803.575	0.0165481
803.654	0.0165948
803.732	0.0166626
803.810	0.0165964
803.888	0.0166042
803.966	0.0167352
804.044	0.0167960
804.122	0.0166750
804.200	0.0167278
804.279	0.0167780
804.357	0.0165928
804.435	0.0165446
804.513	0.0165888
804.591	0.0166646
804.669	0.0167223
804.747	0.0166383
804.825	0.0166032
804.904	0.0165993
804.982	0.0166656
805.060	0.0167326
805.138	0.0165469
805.216	0.0165258
805.294	0.0165796
805.372	0.0166216
805.450	0.0167165
805.529	0.0166151
805.607	0.0166378
805.685	0.0166728
805.763	0.0167023
805.841	0.0166573
805.919	0.0168605
805.997	0.0167273
806.075	0.0167875
806.154	0.0168678
806.232	0.0167860
806.310	0.0168732
806.388	0.0167513
806.466	0.0168000
806.544	0.0168928
806.622	0.0168027
806.700	0.0170613
806.779	0.0168808
806.857	0.0168820
806.935	0.0168161
807.013	0.0167319
807.091	0.0166875
807.169	0.0167477
807.247	0.0167829
807.325	0.0167862
807.404	0.0168724
807.482	0.0166251
807.560	0.0167374
807.638	0.0166278
807.716	0.0167050
807.794	0.0167046
807.872	0.0167194
807.950	0.0165863
808.029	0.0166461
808.107	0.0165850
808.185	0.0166134
808.263	0.0165997
808.341	0.0164281
808.419	0.0165838
808.497	0.0166305
808.575	0.0166824
808.654	0.0166359
808.732	0.0166287
808.810	0.0166824
808.888	0.0164935
808.966	0.0166030
809.044	0.0167439
809.122	0.0165893
809.200	0.0168306
809.279	0.0167587
809.357	0.0167390
809.435	0.0168525
809.513	0.0168080
809.591	0.0167031
809.669	0.0168553
809.747	0.0169215
809.825	0.0167958
809.904	0.0167683
809.982	0.0167808
810.060	0.0168102
810.138	0.0168145
810.216	0.0167510
810.294	0.0169565
810.372	0.0167316
810.450	0.0168129
810.529	0.0169016
810.607	0.0169218
810.685	0.0169189
810.763	0.0168024
810.841	0.0167646
810.919	0.0167344
810.997	0.0166647
811.075	0.0168521
811.154	0.0167533
811.232	0.0166691
811.310	0.0166097
811.388	0.0166991
811.466	0.0166922
811.544	0.0167570
811.622	0.0166865
811.700	0.0164792
811.779	0.0166922
811.857	0.0167715
811.935	0.0167424
812.013	0.0167521
812.091	0.0165798
812.169	0.0166748
812.247	0.0165890
812.325	0.0165880
812.404	0.0165997
812.482	0.0165154
812.560	0.0165401
812.638	0.0164712
812.716	0.0165317
812.794	0.0165175
812.872	0.0165321
812.950	0.0165730
813.029	0.0165694
813.107	0.0165360
813.185	0.0165631
813.263	0.0165342
813.341	0.0165248
813.419	0.0165302
813.497	0.0165981
813.575	0.0166024
813.654	0.0164658
813.732	0.0166370
813.810	0.0165671
813.888	0.0165317
813.966	0.0166325
814.044	0.0166684
814.122	0.0166808
814.200	0.0165951
814.279	0.0166425
814.357	0.0165202
814.435	0.0164984
814.513	0.0166569
814.591	0.0166705
814.669	0.0165287
814.747	0.0166921
814.825	0.0166271
814.904	0.0165192
814.982	0.0166001
815.060	0.0166993
815.138	0.0166313
815.216	0.0164581
815.294	0.0165606
815.372	0.0166031
815.450	0.0165527
815.529	0.0166769
815.607	0.0166157
815.685	0.0165195
815.763	0.0166468
815.841	0.0167298
815.919	0.0166008
815.997	0.0165369
816.075	0.0166426
816.154	0.0165446
816.232	0.0166136
816.310	0.0165860
816.388	0.0165327
816.466	0.0166149
816.544	0.0165165
816.622	0.0165952
816.700	0.0165692
816.779	0.0165844
816.857	0.0167699
816.935	0.0166671
817.013	0.0165778
817.091	0.0165594
817.169	0.0167784
817.247	0.0166027
817.325	0.0165981
817.404	0.0167087
817.482	0.0166091
817.560	0.0166575
817.638	0.0166618
817.716	0.0167112
817.794	0.0167842
817.872	0.0165933
817.950	0.0166567
818.029	0.0165959
818.107	0.0165601
818.185	0.0164974
818.263	0.0165485
818.341	0.0165362
818.419	0.0166136
818.497	0.0165800
818.575	0.0165373
818.654	0.0166766
818.732	0.0166033
818.810	0.0165806
818.888	0.0165808
818.966	0.0165591
819.044	0.0166727
819.122	0.0166899
819.200	0.0165350
819.279	0.0165912
819.357	0.0165837
819.435	0.0166302
819.513	0.0165846
819.591	0.0166748
819.669	0.0165984
819.747	0.0165252
819.825	0.0164985
819.904	0.0166055
819.982	0.0165762
820.060	0.0166454
820.138	0.0165717
820.216	0.0165588
820.294	0.0166381
820.372	0.0165735
820.450	0.0167375
820.529	0.0167325
820.607	0.0164829
820.685	0.0166566
820.763	0.0164424
820.841	0.0165730
820.919	0.0166210
820.997	0.0167039
821.075	0.0166288
821.154	0.0166112
821.232	0.0168328
821.310	0.0167392
821.388	0.0166811
821.466	0.0167221
821.544	0.0167835
821.622	0.0167012
821.700	0.0166851
821.779	0.0168455
821.857	0.0167401
821.935	0.0165735
822.013	0.0167148
822.091	0.0168312
822.169	0.0168620
822.247	0.0167332
822.325	0.0169302
822.404	0.0169835
822.482	0.0168043
822.560	0.0167444
822.638	0.0168121
822.716	0.0167702
822.794	0.0167619
822.872	0.0167397
822.950	0.0168098
823.029	0.0167853
823.107	0.0167215
823.185	0.0168677
823.263	0.0166736
823.341	0.0168689
823.419	0.0168032
823.497	0.0166854
823.575	0.0166849
823.654	0.0165814
823.732	0.0166476
823.810	0.0166962
823.888	0.0165647
823.966	0.0165433
824.044	0.0165401
824.122	0.0166623
824.200	0.0165282
824.279	0.0166024
824.357	0.0165939
824.435	0.0166386
824.513	0.0166740
824.591	0.0165743
824.669	0.0165970
824.747	0.0166206
824.825	0.0166354
824.904	0.0166343
824.982	0.0165646
825.060	0.0167254
825.138	0.0165868
825.216	0.0164983
825.294	0.0166080
825.372	0.0165761
825.450	0.0165867
825.529	0.0166245
825.607	0.0166072
825.685	0.0167881
825.763	0.0167380
825.841	0.0166483
825.919	0.0166978
825.997	0.0167429
826.075	0.0167294
826.154	0.0166294
826.232	0.0166771
826.310	0.0166588
826.388	0.0167554
826.466	0.0168354
826.544	0.0169378
826.622	0.0167782
826.700	0.0168993
826.779	0.0168314
826.857	0.0167921
826.935	0.0169094
827.013	0.0168317
827.091	0.0167442
827.169	0.0167928
827.247	0.0168195
827.325	0.0168920
827.404	0.0167721
827.482	0.0168289
827.560	0.0166338
827.638	0.0166734
827.716	0.0166846
827.794	0.0167281
827.872	0.0167599
827.950	0.0166259
828.029	0.0167027
828.107	0.0166425
828.185	0.0166232
828.263	0.0166580
828.341	0.0165589
828.419	0.0166940
828.497	0.0165971
828.575	0.0165932
828.654	0.0164780
828.732	0.0167564
828.810	0.0166931
828.888	0.0165880
828.966	0.0166655
829.044	0.0167843
829.122	0.0166878
829.200	0.0166941
829.279	0.0167121
829.357	0.0167146
829.435	0.0167072
829.513	0.0166978
829.591	0.0167957
829.669	0.0168228
829.747	0.0167626
829.825	0.0168274
829.904	0.0167461
829.982	0.0165307
830.060	0.0167406
830.138	0.0165393
830.216	0.0166473
830.294	0.0166875
830.372	0.0165330
830.450	0.0166364
830.529	0.0166621
830.607	0.0165546
830.685	0.0166205
830.763	0.0165389
830.841	0.0164938
830.919	0.0165793
830.997	0.0165584
831.075	0.0163502
831.154	0.0164991
831.232	0.0164742
831.310	0.0163480
831.388	0.0164830
831.466	0.0165591
831.544	0.0165550
831.622	0.0165973
831.700	0.0165089
831.779	0.0164479
831.857	0.0166051
831.935	0.0165012
832.013	0.0165448
832.091	0.0166045
832.169	0.0166782
832.247	0.0166216
832.325	0.0166298
832.404	0.0165641
832.482	0.0166109
832.560	0.0166339
832.638	0.0166422
832.716	0.0165944
832.794	0.0166578
832.872	0.0166362
832.950	0.0165172
833.029	0.0165540
833.107	0.0168494
833.185	0.0166706
833.263	0.0165923
833.341	0.0166830
833.419	0.0165226
833.497	0.0167046
833.575	0.0167162
833.654	0.0165561
833.732	0.0165924
833.810	0.0164855
833.888	0.0165028
833.966	0.0166731
834.044	0.0165697
834.122	0.0165481
834.200	0.0166313
834.279	0.0166805
834.357	0.0165747
834.435	0.0165687
834.513	0.0166634
834.591	0.0165603
834.669	0.0166743
834.747	0.0166819
834.825	0.0166443
834.904	0.0166798
834.982	0.0167413
835.060	0.0167620
835.138	0.0168117
835.216	0.0168303
835.294	0.0166388
835.372	0.0166033
835.450	0.0167056
835.529	0.0167245
835.607	0.0165713
835.685	0.0165499
835.763	0.0166999
835.841	0.0166679
835.919	0.0166670
835.997	0.0166638
836.075	0.0164585
836.154	0.0166150
836.232	0.0166773
836.310	0.0165356
836.388	0.0165929
836.466	0.0165720
836.544	0.0164484
836.622	0.0164375
836.700	0.0165459
836.779	0.0163738
836.857	0.0165228
836.935	0.0164729
837.013	0.0163918
837.091	0.0163834
837.169	0.0164462
837.247	0.0164213
837.325	0.0165498
837.404	0.0165093
837.482	0.0164530
837.560	0.0165165
837.638	0.0164736
837.716	0.0165660
837.794	0.0166246
837.872	0.0166731
837.950	0.0166296
838.029	0.0166277
838.107	0.0166970
838.185	0.0167178
838.263	0.0168320
838.341	0.0168552
838.419	0.0167743
838.497	0.0168016
838.575	0.0168802
838.654	0.0168186
838.732	0.0168184
838.810	0.0167999
838.888	0.0168369
838.966	0.0167530
839.044	0.0169048
839.122	0.0167829
839.200	0.0166375
839.279	0.0167093
839.357	0.0167624
839.435	0.0167882
839.513	0.0167922
839.591	0.0166526
839.669	0.0165958
839.747	0.0165016
839.825	0.0166986
839.904	0.0166211
839.982	0.0165922
840.060	0.0165739
840.138	0.0165027
840.216	0.0164531
840.294	0.0165505
840.372	0.0165451
840.450	0.0165412
840.529	0.0166314
840.607	0.0164630
840.685	0.0165736
840.763	0.0166742
840.841	0.0166833
840.919	0.0167296
840.997	0.0167578
841.075	0.0167611
841.154	0.0167254
841.232	0.0166115
841.310	0.0166278
841.388	0.0167339
841.466	0.0167381
841.544	0.0166875
841.622	0.0165987
841.700	0.0167795
841.779	0.0166493
841.857	0.0165170
841.935	0.0165768
842.013	0.0167119
842.091	0.0165556
842.169	0.0165849
842.247	0.0166316
842.325	0.0165852
842.404	0.0167210
842.482	0.0165434
842.560	0.0166006
842.638	0.0166950
842.716	0.0165316
842.794	0.0166911
842.872	0.0166393
842.950	0.0166432
843.029	0.0167816
843.107	0.0168464
843.185	0.0167443
843.263	0.0169143
843.341	0.0170045
843.419	0.0169135
843.497	0.0169180
843.575	0.0169820
843.654	0.0170019
843.732	0.0170292
843.810	0.0170847
843.888	0.0171011
843.966	0.0170706
844.044	0.0171680
844.122	0.0170708
844.200	0.0169517
844.279	0.0168529
844.357	0.0168814
844.435	0.0168319
844.513	0.0168038
844.591	0.0166861
844.669	0.0166830
844.747	0.0167028
844.825	0.0164614
844.904	0.0167508
844.982	0.0164885
845.060	0.0164648
845.138	0.0165013
845.216	0.0163537
845.294	0.0163000
845.372	0.0163610
845.450	0.0162778
845.529	0.0163812
845.607	0.0163988
845.685	0.0163425
845.763	0.0164410
845.841	0.0164411
845.919	0.0163757
845.997	0.0165220
846.075	0.0166199
846.154	0.0166331
846.232	0.0166883
846.310	0.0166041
846.388	0.0168513
846.466	0.0168156
846.544	0.0167807
846.622	0.0168605
846.700	0.0167955
846.779	0.0169070
846.857	0.0170267
846.935	0.0167623
847.013	0.0167371
847.091	0.0170396
847.169	0.0168452
847.247	0.0168978
847.325	0.0167769
847.404	0.0168447
847.482	0.0168291
847.560	0.0168259
847.638	0.0167765
847.716	0.0167604
847.794	0.0166809
847.872	0.0166319
847.950	0.0166438
848.029	0.0166815
848.107	0.0166553
848.185	0.0164490
848.263	0.0164445
848.341	0.0166196
848.419	0.0166370
848.497	0.0165153
848.575	0.0164455
848.654	0.0164352
848.732	0.0164934
848.810	0.0164288
848.888	0.0164501
848.966	0.0165409
849.044	0.0166516
849.122	0.0163960
849.200	0.0165707
849.279	0.0166983
849.357	0.0165708
849.435	0.0165134
849.513	0.0165147
849.591	0.0166784
849.669	0.0166757
849.747	0.0165226
849.825	0.0166025
849.904	0.0166305
849.982	0.0165733
850.060	0.0167188
850.138	0.0166676
850.216	0.0165705
850.294	0.0165397
850.372	0.0167821
850.450	0.0166441
850.529	0.0164510
850.607	0.0167036
850.685	0.0166199
850.763	0.0165308
850.841	0.0165427
850.919	0.0166402
850.997	0.0165798
851.075	0.0166285
851.154	0.0165038
851.232	0.0164361
851.310	0.0167587
851.388	0.0167458
851.466	0.0167835
851.544	0.0166917
851.622	0.0166077
851.700	0.0166157
851.779	0.0167257
851.857	0.0167006
851.935	0.0167047
852.013	0.0166963
852.091	0.0167086
852.169	0.0166210
852.247	0.0165990
852.325	0.0165396
852.404	0.0166665
852.482	0.0168004
852.560	0.0164806
852.638	0.0165486
852.716	0.0166100
852.794	0.0165400
852.872	0.0167179
852.950	0.0164473
853.029	0.0164950
853.107	0.0165288
853.185	0.0165718
853.263	0.0165408
853.341	0.0165319
853.419	0.0164664
853.497	0.0164317
853.575	0.0163836
853.654	0.0165747
853.732	0.0163555
853.810	0.0165327
853.888	0.0164666
853.966	0.0165492
854.044	0.0164978
854.122	0.0166691
854.200	0.0164777
854.279	0.0164744
854.357	0.0165797
854.435	0.0166717
854.513	0.0166337
854.591	0.0166740
854.669	0.0167400
854.747	0.0166590
854.825	0.0167255
854.904	0.0166312
854.982	0.0167217
855.060	0.0168150
855.138	0.0167899
855.216	0.0166460
855.294	0.0168312
855.372	0.0168562
855.450	0.0167063
855.529	0.0166926
855.607	0.0167701
855.685	0.0167785
855.763	0.0168636
855.841	0.0167991
855.919	0.0167462
855.997	0.0167386
856.075	0.0167912
856.154	0.0168417
856.232	0.0167596
856.310	0.0167520
856.388	0.0167961
856.466	0.0167076
856.544	0.0166439
856.622	0.0168995
856.700	0.0166740
856.779	0.0166652
856.857	0.0165587
856.935	0.0166605
857.013	0.0166940
857.091	0.0166335
857.169	0.0165472
857.247	0.0165232
857.325	0.0167020
857.404	0.0165012
857.482	0.0165636
857.560	0.0164320
857.638	0.0165101
857.716	0.0165208
857.794	0.0165941
857.872	0.0166064
857.950	0.0166122
858.029	0.0166728
858.107	0.0165407
858.185	0.0166226
858.263	0.0165270
858.341	0.0166070
858.419	0.0166946
858.497	0.0165795
858.575	0.0167721
858.654	0.0166579
858.732	0.0166959
858.810	0.0167546
858.888	0.0167673
858.966	0.0167496
859.044	0.0167854
859.122	0.0168277
859.200	0.0168275
859.279	0.0170100
859.357	0.0169080
859.435	0.0169012
859.513	0.0167027
859.591	0.0168288
859.669	0.0169624
859.747	0.0167567
859.825	0.0168299
859.904	0.0167673
859.982	0.0166867
860.060	0.0167713
860.138	0.0166437
860.216	0.0167285
860.294	0.0165830
860.372	0.0164685
860.450	0.0165201
860.529	0.0164340
860.607	0.0165871
860.685	0.0165520
860.763	0.0165005
860.841	0.0164571
860.919	0.0163616
860.997	0.0163834
861.075	0.0164386
861.154	0.0164609
861.232	0.0165199
861.310	0.0163501
861.388	0.0165720
861.466	0.0165765
861.544	0.0163993
861.622	0.0165219
861.700	0.0164272
861.779	0.0165336
861.857	0.0166370
861.935	0.0166209
862.013	0.0166500
862.091	0.0167695
862.169	0.0167612
862.247	0.0166117
862.325	0.0167104
862.404	0.0167570
862.482	0.0169019
862.560	0.0168174
862.638	0.0166773
862.716	0.0167194
862.794	0.0167824
862.872	0.0167931
862.950	0.0167230
863.029	0.0167680
863.107	0.0167129
863.185	0.0166743
863.263	0.0167103
863.341	0.0166991
863.419	0.0167001
863.497	0.0166843
863.575	0.0167159
863.654	0.0165909
863.732	0.0165562
863.810	0.0166249
863.888	0.0166045
863.966	0.0165384
864.044	0.0165128
864.122	0.0164921
864.200	0.0165366
864.279	0.0166430
864.357	0.0165349
864.435	0.0165666
864.513	0.0166335
864.591	0.0165744
864.669	0.0166174
864.747	0.0167129
864.825	0.0166541
864.904	0.0167841
864.982	0.0166993
865.060	0.0166457
865.138	0.0167441
865.216	0.0167681
865.294	0.0166913
865.372	0.0166534
865.450	0.0166575
865.529	0.0166528
865.607	0.0166355
865.685	0.0165746
865.763	0.0166281
865.841	0.0166795
865.919	0.0166448
865.997	0.0166225
866.075	0.0166174
866.154	0.0165903
866.232	0.0164725
866.310	0.0165633
866.388	0.0166615
866.466	0.0166256
866.544	0.0166553
866.622	0.0166628
866.700	0.0166677
866.779	0.0166358
866.857	0.0166829
866.935	0.0166769
867.013	0.0167432
867.091	0.0168004
867.169	0.0167934
867.247	0.0167960
867.325	0.0168124
867.404	0.0168631
867.482	0.0168723
867.560	0.0168903
867.638	0.0168465
867.716	0.0167847
867.794	0.0168632
867.872	0.0168513
867.950	0.0168509
868.029	0.0167818
868.107	0.0167316
868.185	0.0168620
868.263	0.0168883
868.341	0.0166680
868.419	0.0168204
868.497	0.0167735
868.575	0.0168400
868.654	0.0167563
868.732	0.0167228
868.810	0.0167516
868.888	0.0167587
868.966	0.0168222
869.044	0.0168587
869.122	0.0167703
869.200	0.0167332
869.279	0.0166708
869.357	0.0166652
869.435	0.0166035
869.513	0.0167241
869.591	0.0165954
869.669	0.0166500
869.747	0.0165627
869.825	0.0167783
869.904	0.0167284
869.982	0.0167376
870.060	0.0166874
870.138	0.0167379
870.216	0.0166443
870.294	0.0166424
870.372	0.0167675
870.450	0.0167506
870.529	0.0167450
870.607	0.0167699
870.685	0.0168266
870.763	0.0168231
870.841	0.0169132
870.919	0.0167731
870.997	0.0167300
871.075	0.0168999
871.154	0.0168540
871.232	0.0168932
871.310	0.0167251
871.388	0.0168245
871.466	0.0167855
871.544	0.0166469
871.622	0.0167173
871.700	0.0167890
871.779	0.0167015
871.857	0.0167902
871.935	0.0168678
872.013	0.0167429
872.091	0.0167482
872.169	0.0168142
872.247	0.0167275
872.325	0.0166405
872.404	0.0167561
872.482	0.0167577
872.560	0.0167849
872.638	0.0167676
872.716	0.0167018
872.794	0.0169077
872.872	0.0167321
872.950	0.0167130
873.029	0.0167410
873.107	0.0168388
873.185	0.0167162
873.263	0.0166705
873.341	0.0167705
873.419	0.0168065
873.497	0.0166290
873.575	0.0167632
873.654	0.0168045
873.732	0.0166486
873.810	0.0167389
873.888	0.0166898
873.966	0.0168526
874.044	0.0167120
874.122	0.0165768
874.200	0.0166876
874.279	0.0167287
874.357	0.0165198
874.435	0.0165152
874.513	0.0165914
874.591	0.0164858
874.669	0.0165952
874.747	0.0166264
874.825	0.0164744
874.904	0.0164452
874.982	0.0166052
875.060	0.0165942
875.138	0.0165213
875.216	0.0165534
875.294	0.0167329
875.372	0.0165512
875.450	0.0164773
875.529	0.0165748
875.607	0.0165265
875.685	0.0165668
875.763	0.0165656
875.841	0.0165874
875.919	0.0166571
875.997	0.0166523
876.075	0.0167532
876.154	0.0166196
876.232	0.0165895
876.310	0.0165890
876.388	0.0167733
876.466	0.0166922
876.544	0.0166203
876.622	0.0166453
876.700	0.0166215
876.779	0.0166621
876.857	0.0164892
876.935	0.0165306
877.013	0.0166088
877.091	0.0165818
877.169	0.0165445
877.247	0.0165132
877.325	0.0166258
877.404	0.0166535
877.482	0.0166896
877.560	0.0166553
877.638	0.0166364
877.716	0.0167233
877.794	0.0165672
877.872	0.0166720
877.950	0.0167165
878.029	0.0167460
878.107	0.0168033
878.185	0.0166333
878.263	0.0165556
878.341	0.0166277
878.419	0.0167789
878.497	0.0167239
878.575	0.0165884
878.654	0.0167434
878.732	0.0166785
878.810	0.0167503
878.888	0.0166928
878.966	0.0166212
879.044	0.0167306
879.122	0.0167525
879.200	0.0167942
879.279	0.0168839
879.357	0.0166644
879.435	0.0167524
879.513	0.0167330
879.591	0.0168580
879.669	0.0166344
879.747	0.0166845
879.825	0.0167039
879.904	0.0164712
879.982	0.0168105
880.060	0.0168999
880.138	0.0167772
880.216	0.0168295
880.294	0.0166950
880.372	0.0166969
880.450	0.0167282
880.529	0.0168082
880.607	0.0167464
880.685	0.0167796
880.763	0.0166271
880.841	0.0166026
880.919	0.0168028
880.997	0.0167485
881.075	0.0167434
881.154	0.0166680
881.232	0.0165335
881.310	0.0166344
881.388	0.0167203
881.466	0.0166856
881.544	0.0166068
881.622	0.0166347
881.700	0.0166807
881.779	0.0165636
881.857	0.0166282
881.935	0.0166811
882.013	0.0166526
882.091	0.0166413
882.169	0.0166655
882.247	0.0166712
882.325	0.0166341
882.404	0.0167188
882.482	0.0165842
882.560	0.0166647
882.638	0.0166975
882.716	0.0168121
882.794	0.0167919
882.872	0.0166727
882.950	0.0167487
883.029	0.0167112
883.107	0.0165961
883.185	0.0167600
883.263	0.0167242
883.341	0.0167015
883.419	0.0167117
883.497	0.0167451
883.575	0.0168903
883.654	0.0168169
883.732	0.0166399
883.810	0.0167190
883.888	0.0169099
883.966	0.0168523
884.044	0.0167314
884.122	0.0168591
884.200	0.0168489
884.279	0.0168735
884.357	0.0168598
884.435	0.0169090
884.513	0.0169746
884.591	0.0170724
884.669	0.0170422
884.747	0.0167229
884.825	0.0167525
884.904	0.0169638
884.982	0.0169624
885.060	0.0170872
885.138	0.0169340
885.216	0.0169546
885.294	0.0170102
885.372	0.0169327
885.450	0.0168242
885.529	0.0168005
885.607	0.0168847
885.685	0.0168402
885.763	0.0168356
885.841	0.0168152
885.919	0.0167419
885.997	0.0167443
886.075	0.0166965
886.154	0.0168683
886.232	0.0167578
886.310	0.0168241
886.388	0.0166974
886.466	0.0167210
886.544	0.0166576
886.622	0.0166642
886.700	0.0167883
886.779	0.0166395
886.857	0.0165899
886.935	0.0166582
887.013	0.0168150
887.091	0.0166283
887.169	0.0166833
887.247	0.0166289
887.325	0.0167525
887.404	0.0164680
887.482	0.0165176
887.560	0.0165865
887.638	0.0166019
887.716	0.0165141
887.794	0.0164777
887.872	0.0166351
887.950	0.0166653
888.029	0.0165249
888.107	0.0165894
888.185	0.0167031
888.263	0.0164018
888.341	0.0165178
888.419	0.0166262
888.497	0.0165691
888.575	0.0165517
888.654	0.0164590
888.732	0.0166233
888.810	0.0166009
888.888	0.0164395
888.966	0.0165028
889.044	0.0166573
889.122	0.0166853
889.200	0.0166653
889.279	0.0165910
889.357	0.0165864
889.435	0.0165578
889.513	0.0165483
889.591	0.0166063
889.669	0.0165810
889.747	0.0165408
889.825	0.0165334
889.904	0.0165952
889.982	0.0167406
890.060	0.0166314
890.138	0.0164847
890.216	0.0166067
890.294	0.0164633
890.372	0.0166102
890.450	0.0165526
890.529	0.0165557
890.607	0.0165440
890.685	0.0167509
890.763	0.0166834
890.841	0.0165201
890.919	0.0165437
890.997	0.0167152
891.075	0.0168330
891.154	0.0166454
891.232	0.0167036
891.310	0.0167789
891.388	0.0167040
891.466	0.0166657
891.544	0.0166557
891.622	0.0168750
891.700	0.0165826
891.779	0.0166241
891.857	0.0165289
891.935	0.0166111
892.013	0.0166139
892.091	0.0165650
892.169	0.0164738
892.247	0.0164438
892.325	0.0165526
892.404	0.0163774
892.482	0.0164079
892.560	0.0164140
892.638	0.0163731
892.716	0.0163142
892.794	0.0163048
892.872	0.0164191
892.950	0.0164595
893.029	0.0164382
893.107	0.0164375
893.185	0.0164877
893.263	0.0164861
893.341	0.0165074
893.419	0.0164849
893.497	0.0165681
893.575	0.0165834
893.654	0.0166315
893.732	0.0164716
893.810	0.0167339
893.888	0.0166991
893.966	0.0167596
894.044	0.0167484
894.122	0.0166438
894.200	0.0166889
894.279	0.0166402
894.357	0.0167258
894.435	0.0166129
894.513	0.0166588
894.591	0.0167770
894.669	0.0166747
894.747	0.0166595
894.825	0.0165549
894.904	0.0166531
894.982	0.0164842
895.060	0.0165455
895.138	0.0166307
895.216	0.0165304
895.294	0.0164468
895.372	0.0166587
895.450	0.0167470
895.529	0.0165933
895.607	0.0166292
895.685	0.0165607
895.763	0.0166977
895.841	0.0167130
895.919	0.0166351
895.997	0.0167953
896.075	0.0168771
896.154	0.0168030
896.232	0.0167511
896.310	0.0168006
896.388	0.0168798
896.466	0.0169135
896.544	0.0168868
896.622	0.0168918
896.700	0.0168214
896.779	0.0168375
896.857	0.0168740
896.935	0.0168983
897.013	0.0168607
897.091	0.0167464
897.169	0.0167985
897.247	0.0169637
897.325	0.0166918
897.404	0.0166826
897.482	0.0167698
897.560	0.0168332
897.638	0.0167466
897.716	0.0168250
897.794	0.0168495
897.872	0.0168005
897.950	0.0167931
898.029	0.0169414
898.107	0.0168491
898.185	0.0167803
898.263	0.0168562
898.341	0.0168335
898.419	0.0167821
898.497	0.0169066
898.575	0.0168799
898.654	0.0168614
898.732	0.0168745
898.810	0.0169141
898.888	0.0167399
898.966	0.0169389
899.044	0.0169324
899.122	0.0168266
899.200	0.0169032
899.279	0.0168903
899.357	0.0168028
899.435	0.0169917
899.513	0.0169206
899.591	0.0168924
899.669	0.0169377
899.747	0.0168849
899.825	0.0168611
899.904	0.0168504
899.982	0.0167055
900.060	0.0168910
900.138	0.0168565
900.216	0.0169316
900.294	0.0168089
900.372	0.0166950
900.450	0.0167612
900.529	0.0167433
900.607	0.0166619
900.685	0.0167400
900.763	0.0167480
900.841	0.0166605
900.919	0.0167600
900.997	0.0167432
901.075	0.0167465
901.154	0.0168224
901.232	0.0166719
901.310	0.0167726
901.388	0.0167757
901.466	0.0167357
901.544	0.0167608
901.622	0.0168338
901.700	0.0169397
901.779	0.0169022
901.857	0.0168141
901.935	0.0167650
902.013	0.0167772
902.091	0.0166943
902.169	0.0168662
902.247	0.0169061
902.325	0.0167113
902.404	0.0167915
902.482	0.0168200
902.560	0.0168090
902.638	0.0166792
902.716	0.0167826
902.794	0.0167631
902.872	0.0167919
902.950	0.0165968
903.029	0.0167477
903.107	0.0166292
903.185	0.0166502
903.263	0.0165778
903.341	0.0165128
903.419	0.0165631
903.497	0.0166313
903.575	0.0165302
903.654	0.0166313
903.732	0.0164471
903.810	0.0165984
903.888	0.0165355
903.966	0.0165714
904.044	0.0165717
904.122	0.0164777
904.200	0.0164745
904.279	0.0165629
904.357	0.0165675
904.435	0.0165426
904.513	0.0165691
904.591	0.0166571
904.669	0.0167116
904.747	0.0168056
904.825	0.0167165
904.904	0.0167137
904.982	0.0166459
905.060	0.0167001
905.138	0.0168067
905.216	0.0168153
905.294	0.0168275
905.372	0.0168438
905.450	0.0169528
905.529	0.0167931
905.607	0.0168147
905.685	0.0166868
905.763	0.0168309
905.841	0.0167271
905.919	0.0169099
905.997	0.0168736
906.075	0.0167685
906.154	0.0167751
906.232	0.0166930
906.310	0.0168661
906.388	0.0167181
906.466	0.0167838
906.544	0.0168611
906.622	0.0167937
906.700	0.0167704
906.779	0.0167585
906.857	0.0168606
906.935	0.0169195
907.013	0.0166865
907.091	0.0169361
907.169	0.0167159
907.247	0.0166509
907.325	0.0167111
907.404	0.0167171
907.482	0.0167049
907.560	0.0168097
907.638	0.0166251
907.716	0.0167190
907.794	0.0166999
907.872	0.0167372
907.950	0.0167287
908.029	0.0166604
908.107	0.0166521
908.185	0.0167236
908.263	0.0166655
908.341	0.0166061
908.419	0.0165092
908.497	0.0165759
908.575	0.0166557
908.654	0.0165763
908.732	0.0165998
908.810	0.0165968
908.888	0.0165472
908.966	0.0164144
909.044	0.0166138
909.122	0.0165079
909.200	0.0165823
909.279	0.0166318
909.357	0.0165057
909.435	0.0165116
909.513	0.0165720
909.591	0.0165209
909.669	0.0165844
909.747	0.0166038
909.825	0.0165199
909.904	0.0167568
909.982	0.0166587
910.060	0.0166050
910.138	0.0165441
910.216	0.0166706
910.294	0.0166639
910.372	0.0165562
910.450	0.0167519
910.529	0.0165858
910.607	0.0166232
910.685	0.0166181
910.763	0.0165969
910.841	0.0166739
910.919	0.0165662
910.997	0.0166785
911.075	0.0167002
911.154	0.0166167
911.232	0.0167240
911.310	0.0166391
911.388	0.0167720
911.466	0.0166998
911.544	0.0166810
911.622	0.0166174
911.700	0.0166483
911.779	0.0166936
911.857	0.0166379
911.935	0.0166092
912.013	0.0166872
912.091	0.0167258
912.169	0.0166107
912.247	0.0167613
912.325	0.0166951
912.404	0.0166936
912.482	0.0167030
912.560	0.0167788
912.638	0.0166171
912.716	0.0166035
912.794	0.0167400
912.872	0.0166657
912.950	0.0167072
913.029	0.0166565
913.107	0.0166991
913.185	0.0166282
913.263	0.0165934
913.341	0.0166335
913.419	0.0166471
913.497	0.0167558
913.575	0.0165453
913.654	0.0166096
913.732	0.0166109
913.810	0.0165775
913.888	0.0165594
913.966	0.0166367
914.044	0.0166338
914.122	0.0166756
914.200	0.0166151
914.279	0.0165511
914.357	0.0164793
914.435	0.0166415
914.513	0.0166264
914.591	0.0166531
914.669	0.0165686
914.747	0.0166348
914.825	0.0165813
914.904	0.0164870
914.982	0.0167152
915.060	0.0168025
915.138	0.0165782
915.216	0.0166181
915.294	0.0167130
915.372	0.0167223
915.450	0.0165868
915.529	0.0165947
915.607	0.0167179
915.685	0.0165244
915.763	0.0166768
915.841	0.0167040
915.919	0.0165082
915.997	0.0165300
916.075	0.0166607
916.154	0.0166737
916.232	0.0167054
916.310	0.0165306
916.388	0.0165783
916.466	0.0167259
916.544	0.0165193
916.622	0.0165346
916.700	0.0166002
916.779	0.0165189
916.857	0.0164314
916.935	0.0165636
917.013	0.0165150
917.091	0.0165063
917.169	0.0164207
917.247	0.0164404
917.325	0.0164372
917.404	0.0164923
917.482	0.0165508
917.560	0.0164311
917.638	0.0163306
917.716	0.0165063
917.794	0.0163744
917.872	0.0165192
917.950	0.0164804
918.029	0.0164721
918.107	0.0164804
918.185	0.0165688
918.263	0.0165250
918.341	0.0165408
918.419	0.0165726
918.497	0.0166103
918.575	0.0165544
918.654	0.0164339
918.732	0.0167415
918.810	0.0166949
918.888	0.0165373
918.966	0.0165379
919.044	0.0167629
919.122	0.0166488
919.200	0.0165722
919.279	0.0166627
919.357	0.0165093
919.435	0.0166406
919.513	0.0165417
919.591	0.0164831
919.669	0.0165257
919.747	0.0165749
919.825	0.0166389
919.904	0.0166367
