05/24/2022	20:41:31	Ver.	4.1	UNKNOWN
Optical Delay	599.981738	Delta X		0.078125	Sweeps	1	Scan Rate	0/0
Coordinates	Axis 1	NaN	Axis 2	NaN	Axis 3	NaN	Axis 4	NaN	Axis 5	NaN	Axis 6	0.000000
TX Power	0.000000	RX Power	0.000000

599.982	0.0159361
600.060	0.0160156
600.138	0.0157437
600.216	0.0157542
600.294	0.0158396
600.372	0.0160037
600.450	0.0159492
600.529	0.0158279
600.607	0.0158163
600.685	0.0158132
600.763	0.0158103
600.841	0.0158472
600.919	0.0157596
600.997	0.0157883
601.075	0.0158218
601.154	0.0158128
601.232	0.0159145
601.310	0.0158385
601.388	0.0157649
601.466	0.0157718
601.544	0.0157744
601.622	0.0158346
601.700	0.0157838
601.779	0.0158013
601.857	0.0159080
601.935	0.0158070
602.013	0.0157076
602.091	0.0157970
602.169	0.0158535
602.247	0.0159200
602.325	0.0158780
602.404	0.0157845
602.482	0.0159220
602.560	0.0159328
602.638	0.0158900
602.716	0.0158179
602.794	0.0158046
602.872	0.0158029
602.950	0.0158925
603.029	0.0158975
603.107	0.0158928
603.185	0.0159045
603.263	0.0159710
603.341	0.0158638
603.419	0.0159801
603.497	0.0160035
603.575	0.0159364
603.654	0.0158755
603.732	0.0159486
603.810	0.0160542
603.888	0.0159869
603.966	0.0159193
604.044	0.0158900
604.122	0.0160901
604.200	0.0160691
604.279	0.0161125
604.357	0.0160403
604.435	0.0161465
604.513	0.0161272
604.591	0.0161167
604.669	0.0161750
604.747	0.0161685
604.825	0.0159165
604.904	0.0160634
604.982	0.0159534
605.060	0.0160371
605.138	0.0161428
605.216	0.0159644
605.294	0.0159149
605.372	0.0160937
605.450	0.0160880
605.529	0.0159617
605.607	0.0159682
605.685	0.0159414
605.763	0.0159192
605.841	0.0158349
605.919	0.0157093
605.997	0.0157793
606.075	0.0157839
606.154	0.0157300
606.232	0.0156680
606.310	0.0155715
606.388	0.0156551
606.466	0.0157336
606.544	0.0156134
606.622	0.0156578
606.700	0.0156617
606.779	0.0155927
606.857	0.0156309
606.935	0.0156107
607.013	0.0156319
607.091	0.0156252
607.169	0.0156758
607.247	0.0156723
607.325	0.0156961
607.404	0.0157137
607.482	0.0156643
607.560	0.0156945
607.638	0.0157275
607.716	0.0157666
607.794	0.0158187
607.872	0.0157788
607.950	0.0157919
608.029	0.0156750
608.107	0.0157137
608.185	0.0158693
608.263	0.0158736
608.341	0.0156831
608.419	0.0157655
608.497	0.0157513
608.575	0.0157665
608.654	0.0158412
608.732	0.0156652
608.810	0.0157179
608.888	0.0157204
608.966	0.0157104
609.044	0.0159263
609.122	0.0157581
609.200	0.0158217
609.279	0.0158681
609.357	0.0158952
609.435	0.0157188
609.513	0.0160131
609.591	0.0159904
609.669	0.0158741
609.747	0.0159843
609.825	0.0160501
609.904	0.0160333
609.982	0.0161265
610.060	0.0160307
610.138	0.0160305
610.216	0.0160705
610.294	0.0160905
610.372	0.0159253
610.450	0.0159755
610.529	0.0160590
610.607	0.0160841
610.685	0.0161111
610.763	0.0161355
610.841	0.0160016
610.919	0.0161921
610.997	0.0160748
611.075	0.0161279
611.154	0.0160821
611.232	0.0162040
611.310	0.0162803
611.388	0.0161853
611.466	0.0161954
611.544	0.0163113
611.622	0.0163111
611.700	0.0161491
611.779	0.0161172
611.857	0.0162234
611.935	0.0161989
612.013	0.0163842
612.091	0.0162098
612.169	0.0161062
612.247	0.0158717
612.325	0.0161228
612.404	0.0161669
612.482	0.0160233
612.560	0.0158023
612.638	0.0159748
612.716	0.0160088
612.794	0.0158725
612.872	0.0159588
612.950	0.0159727
613.029	0.0158006
613.107	0.0159167
613.185	0.0159192
613.263	0.0158549
613.341	0.0158811
613.419	0.0159273
613.497	0.0157743
613.575	0.0158015
613.654	0.0159605
613.732	0.0160416
613.810	0.0159348
613.888	0.0158874
613.966	0.0158287
614.044	0.0158740
614.122	0.0160224
614.200	0.0159425
614.279	0.0159396
614.357	0.0158447
614.435	0.0160094
614.513	0.0159408
614.591	0.0159642
614.669	0.0157167
614.747	0.0159790
614.825	0.0159259
614.904	0.0159838
614.982	0.0159331
615.060	0.0159625
615.138	0.0158090
615.216	0.0158336
615.294	0.0158109
615.372	0.0159460
615.450	0.0159176
615.529	0.0159228
615.607	0.0159582
615.685	0.0159473
615.763	0.0158354
615.841	0.0157256
615.919	0.0158076
615.997	0.0158247
616.075	0.0159618
616.154	0.0158714
616.232	0.0158707
616.310	0.0158961
616.388	0.0158210
616.466	0.0159300
616.544	0.0159016
616.622	0.0158919
616.700	0.0160350
616.779	0.0159476
616.857	0.0159956
616.935	0.0159474
617.013	0.0158631
617.091	0.0159673
617.169	0.0160207
617.247	0.0159769
617.325	0.0160286
617.404	0.0159485
617.482	0.0158139
617.560	0.0159766
617.638	0.0160571
617.716	0.0159779
617.794	0.0159030
617.872	0.0160507
617.950	0.0160284
618.029	0.0160596
618.107	0.0160165
618.185	0.0159260
618.263	0.0161710
618.341	0.0160514
618.419	0.0160792
618.497	0.0160801
618.575	0.0161560
618.654	0.0161407
618.732	0.0161314
618.810	0.0162582
618.888	0.0162650
618.966	0.0162218
619.044	0.0161453
619.122	0.0161638
619.200	0.0160599
619.279	0.0161811
619.357	0.0160529
619.435	0.0159553
619.513	0.0160484
619.591	0.0160396
619.669	0.0160544
619.747	0.0159492
619.825	0.0159985
619.904	0.0160321
619.982	0.0162634
620.060	0.0160222
620.138	0.0160611
620.216	0.0160117
620.294	0.0161040
620.372	0.0160773
620.450	0.0162056
620.529	0.0161227
620.607	0.0160671
620.685	0.0161607
620.763	0.0159779
620.841	0.0160311
620.919	0.0160792
620.997	0.0160778
621.075	0.0161121
621.154	0.0161108
621.232	0.0160465
621.310	0.0160663
621.388	0.0160615
621.466	0.0161434
621.544	0.0159205
621.622	0.0161936
621.700	0.0161272
621.779	0.0159491
621.857	0.0160467
621.935	0.0160511
622.013	0.0161761
622.091	0.0162187
622.169	0.0160975
622.247	0.0161000
622.325	0.0161526
622.404	0.0159630
622.482	0.0159010
622.560	0.0159909
622.638	0.0159429
622.716	0.0159116
622.794	0.0159219
622.872	0.0158915
622.950	0.0159515
623.029	0.0158354
623.107	0.0157114
623.185	0.0160326
623.263	0.0159656
623.341	0.0158263
623.419	0.0159999
623.497	0.0162244
623.575	0.0162169
623.654	0.0162710
623.732	0.0162581
623.810	0.0162441
623.888	0.0162051
623.966	0.0162531
624.044	0.0162766
624.122	0.0163127
624.200	0.0160181
624.279	0.0161414
624.357	0.0161926
624.435	0.0159553
624.513	0.0160390
624.591	0.0161908
624.669	0.0159055
624.747	0.0159788
624.825	0.0159863
624.904	0.0159831
624.982	0.0159386
625.060	0.0158875
625.138	0.0159880
625.216	0.0160814
625.294	0.0160385
625.372	0.0159464
625.450	0.0160770
625.529	0.0159739
625.607	0.0159534
625.685	0.0157985
625.763	0.0157425
625.841	0.0156741
625.919	0.0158022
625.997	0.0158404
626.075	0.0156577
626.154	0.0158035
626.232	0.0158686
626.310	0.0159730
626.388	0.0159660
626.466	0.0157425
626.544	0.0158109
626.622	0.0159052
626.700	0.0160703
626.779	0.0161600
626.857	0.0161282
626.935	0.0161292
627.013	0.0161760
627.091	0.0162213
627.169	0.0163253
627.247	0.0162155
627.325	0.0161886
627.404	0.0163126
627.482	0.0162385
627.560	0.0161275
627.638	0.0162148
627.716	0.0160358
627.794	0.0160864
627.872	0.0160104
627.950	0.0160215
628.029	0.0160156
628.107	0.0159534
628.185	0.0157394
628.263	0.0156879
628.341	0.0156586
628.419	0.0154745
628.497	0.0154218
628.575	0.0155177
628.654	0.0153778
628.732	0.0155064
628.810	0.0153812
628.888	0.0154558
628.966	0.0154813
629.044	0.0155521
629.122	0.0154781
629.200	0.0156574
629.279	0.0157889
629.357	0.0157871
629.435	0.0158942
629.513	0.0159682
629.591	0.0160280
629.669	0.0159755
629.747	0.0159602
629.825	0.0162151
629.904	0.0160575
629.982	0.0163258
630.060	0.0163939
630.138	0.0164676
630.216	0.0166131
630.294	0.0167639
630.372	0.0166941
630.450	0.0167896
630.529	0.0169794
630.607	0.0169374
630.685	0.0168671
630.763	0.0168588
630.841	0.0167707
630.919	0.0165932
630.997	0.0164820
631.075	0.0162334
631.154	0.0159855
631.232	0.0159155
631.310	0.0156475
631.388	0.0155864
631.466	0.0153026
631.544	0.0150826
631.622	0.0149783
631.700	0.0149223
631.779	0.0149510
631.857	0.0148945
631.935	0.0145541
632.013	0.0146140
632.091	0.0145843
632.169	0.0146093
632.247	0.0145460
632.325	0.0143994
632.404	0.0144807
632.482	0.0146402
632.560	0.0145597
632.638	0.0145934
632.716	0.0147251
632.794	0.0147790
632.872	0.0150346
632.950	0.0152333
633.029	0.0154453
633.107	0.0155928
633.185	0.0157962
633.263	0.0162049
633.341	0.0165355
633.419	0.0167556
633.497	0.0170815
633.575	0.0172406
633.654	0.0175127
633.732	0.0178074
633.810	0.0179402
633.888	0.0181789
633.966	0.0182459
634.044	0.0183537
634.122	0.0184620
634.200	0.0184859
634.279	0.0183421
634.357	0.0183161
634.435	0.0181471
634.513	0.0181155
634.591	0.0178088
634.669	0.0174632
634.747	0.0171628
634.825	0.0169169
634.904	0.0165495
634.982	0.0163403
635.060	0.0159190
635.138	0.0154904
635.216	0.0151261
635.294	0.0148029
635.372	0.0144693
635.450	0.0141344
635.529	0.0138204
635.607	0.0135941
635.685	0.0133759
635.763	0.0131949
635.841	0.0129493
635.919	0.0127608
635.997	0.0127806
636.075	0.0127934
636.154	0.0127531
636.232	0.0129070
636.310	0.0130296
636.388	0.0132317
636.466	0.0135945
636.544	0.0140398
636.622	0.0143756
636.700	0.0147949
636.779	0.0153318
636.857	0.0159249
636.935	0.0163937
637.013	0.0167374
637.091	0.0172961
637.169	0.0177545
637.247	0.0181716
637.325	0.0186388
637.404	0.0189587
637.482	0.0190543
637.560	0.0193991
637.638	0.0194271
637.716	0.0194338
637.794	0.0195067
637.872	0.0194779
637.950	0.0193344
638.029	0.0190519
638.107	0.0188692
638.185	0.0186443
638.263	0.0180752
638.341	0.0177606
638.419	0.0171998
638.497	0.0166418
638.575	0.0163130
638.654	0.0158121
638.732	0.0154193
638.810	0.0149742
638.888	0.0145547
638.966	0.0142046
639.044	0.0139065
639.122	0.0135665
639.200	0.0133209
639.279	0.0132288
639.357	0.0131213
639.435	0.0130624
639.513	0.0129773
639.591	0.0131306
639.669	0.0132751
639.747	0.0134728
639.825	0.0134914
639.904	0.0136872
639.982	0.0141228
640.060	0.0142905
640.138	0.0147289
640.216	0.0150549
640.294	0.0154993
640.372	0.0157726
640.450	0.0161787
640.529	0.0164924
640.607	0.0167758
640.685	0.0169361
640.763	0.0172919
640.841	0.0174246
640.919	0.0173981
640.997	0.0176861
641.075	0.0177158
641.154	0.0176585
641.232	0.0175983
641.310	0.0175183
641.388	0.0173160
641.466	0.0173691
641.544	0.0171418
641.622	0.0172915
641.700	0.0172121
641.779	0.0169118
641.857	0.0167619
641.935	0.0167206
642.013	0.0164945
642.091	0.0163240
642.169	0.0162090
642.247	0.0162975
642.325	0.0159983
642.404	0.0160100
642.482	0.0161541
642.560	0.0161357
642.638	0.0161061
642.716	0.0160791
642.794	0.0164082
642.872	0.0164193
642.950	0.0164688
643.029	0.0165776
643.107	0.0168027
643.185	0.0169384
643.263	0.0171120
643.341	0.0170543
643.419	0.0171454
643.497	0.0170872
643.575	0.0171223
643.654	0.0169690
643.732	0.0168671
643.810	0.0167197
643.888	0.0164520
643.966	0.0160255
644.044	0.0158456
644.122	0.0156535
644.200	0.0153547
644.279	0.0149506
644.357	0.0147861
644.435	0.0146465
644.513	0.0142043
644.591	0.0142004
644.669	0.0140612
644.747	0.0138003
644.825	0.0136243
644.904	0.0136900
644.982	0.0136118
645.060	0.0136362
645.138	0.0137247
645.216	0.0138239
645.294	0.0140389
645.372	0.0142548
645.450	0.0143109
645.529	0.0145654
645.607	0.0149219
645.685	0.0152082
645.763	0.0155717
645.841	0.0159116
645.919	0.0162295
645.997	0.0166007
646.075	0.0169307
646.154	0.0171723
646.232	0.0172755
646.310	0.0176126
646.388	0.0176398
646.466	0.0177807
646.544	0.0179140
646.622	0.0180215
646.700	0.0181647
646.779	0.0181457
646.857	0.0181411
646.935	0.0180908
647.013	0.0181344
647.091	0.0180054
647.169	0.0180463
647.247	0.0179635
647.325	0.0176823
647.404	0.0176122
647.482	0.0173233
647.560	0.0169949
647.638	0.0165557
647.716	0.0163854
647.794	0.0159318
647.872	0.0157661
647.950	0.0153848
648.029	0.0152615
648.107	0.0148943
648.185	0.0148907
648.263	0.0146055
648.341	0.0146176
648.419	0.0145947
648.497	0.0145772
648.575	0.0146194
648.654	0.0144987
648.732	0.0146833
648.810	0.0146616
648.888	0.0146514
648.966	0.0146384
649.044	0.0146886
649.122	0.0146078
649.200	0.0145200
649.279	0.0146137
649.357	0.0146988
649.435	0.0146037
649.513	0.0145292
649.591	0.0145770
649.669	0.0147314
649.747	0.0146590
649.825	0.0147811
649.904	0.0149187
649.982	0.0148100
650.060	0.0150677
650.138	0.0150057
650.216	0.0149803
650.294	0.0152131
650.372	0.0153302
650.450	0.0154725
650.529	0.0157010
650.607	0.0158577
650.685	0.0161093
650.763	0.0164452
650.841	0.0167406
650.919	0.0171687
650.997	0.0174962
651.075	0.0178696
651.154	0.0181698
651.232	0.0184874
651.310	0.0187196
651.388	0.0187444
651.466	0.0188136
651.544	0.0189639
651.622	0.0189725
651.700	0.0186761
651.779	0.0184460
651.857	0.0181754
651.935	0.0180456
652.013	0.0176321
652.091	0.0172315
652.169	0.0167210
652.247	0.0164522
652.325	0.0161171
652.404	0.0157619
652.482	0.0153404
652.560	0.0150239
652.638	0.0145867
652.716	0.0141988
652.794	0.0138025
652.872	0.0134829
652.950	0.0131194
653.029	0.0125417
653.107	0.0122733
653.185	0.0122645
653.263	0.0121069
653.341	0.0123244
653.419	0.0123571
653.497	0.0126543
653.575	0.0129963
653.654	0.0134883
653.732	0.0140056
653.810	0.0146545
653.888	0.0152096
653.966	0.0157619
654.044	0.0164423
654.122	0.0169884
654.200	0.0174294
654.279	0.0177508
654.357	0.0180016
654.435	0.0185254
654.513	0.0185803
654.591	0.0188250
654.669	0.0190535
654.747	0.0189422
654.825	0.0190112
654.904	0.0189239
654.982	0.0189109
655.060	0.0188049
655.138	0.0184801
655.216	0.0182909
655.294	0.0177460
655.372	0.0176757
655.450	0.0171565
655.529	0.0167883
655.607	0.0164873
655.685	0.0160290
655.763	0.0156815
655.841	0.0151613
655.919	0.0148721
655.997	0.0145558
656.075	0.0142329
656.154	0.0138702
656.232	0.0137389
656.310	0.0136269
656.388	0.0136143
656.466	0.0137763
656.544	0.0136853
656.622	0.0137573
656.700	0.0138791
656.779	0.0141470
656.857	0.0143279
656.935	0.0145635
657.013	0.0147359
657.091	0.0149926
657.169	0.0152380
657.247	0.0155133
657.325	0.0158372
657.404	0.0159081
657.482	0.0161546
657.560	0.0163412
657.638	0.0165474
657.716	0.0168938
657.794	0.0169433
657.872	0.0171850
657.950	0.0172477
658.029	0.0172980
658.107	0.0171098
658.185	0.0169954
658.263	0.0168162
658.341	0.0167040
658.419	0.0165067
658.497	0.0162024
658.575	0.0160289
658.654	0.0156578
658.732	0.0155205
658.810	0.0153629
658.888	0.0153328
658.966	0.0151427
659.044	0.0152459
659.122	0.0150586
659.200	0.0152618
659.279	0.0153661
659.357	0.0154343
659.435	0.0154068
659.513	0.0154874
659.591	0.0156307
659.669	0.0156759
659.747	0.0158251
659.825	0.0159156
659.904	0.0160778
659.982	0.0161491
660.060	0.0162320
660.138	0.0163919
660.216	0.0166050
660.294	0.0167821
660.372	0.0169366
660.450	0.0170390
660.529	0.0172176
660.607	0.0174519
660.685	0.0174179
660.763	0.0175987
660.841	0.0173794
660.919	0.0172836
660.997	0.0170786
661.075	0.0170664
661.154	0.0169052
661.232	0.0165961
661.310	0.0165026
661.388	0.0163781
661.466	0.0162063
661.544	0.0159822
661.622	0.0157811
661.700	0.0156130
661.779	0.0155205
661.857	0.0154683
661.935	0.0151572
662.013	0.0150804
662.091	0.0151762
662.169	0.0149683
662.247	0.0150428
662.325	0.0148147
662.404	0.0148188
662.482	0.0148198
662.560	0.0147237
662.638	0.0149206
662.716	0.0149551
662.794	0.0152065
662.872	0.0152489
662.950	0.0154647
663.029	0.0155804
663.107	0.0156374
663.185	0.0158968
663.263	0.0158704
663.341	0.0161160
663.419	0.0163776
663.497	0.0164528
663.575	0.0164352
663.654	0.0164302
663.732	0.0163669
663.810	0.0163699
663.888	0.0162893
663.966	0.0162952
664.044	0.0161311
664.122	0.0158984
664.200	0.0158945
664.279	0.0159198
664.357	0.0156874
664.435	0.0156521
664.513	0.0156877
664.591	0.0154816
664.669	0.0156082
664.747	0.0155347
664.825	0.0154205
664.904	0.0153387
664.982	0.0154015
665.060	0.0152558
665.138	0.0152402
665.216	0.0152097
665.294	0.0151643
665.372	0.0152320
665.450	0.0152901
665.529	0.0152934
665.607	0.0153893
665.685	0.0156826
665.763	0.0157066
665.841	0.0159554
665.919	0.0159985
665.997	0.0160172
666.075	0.0163194
666.154	0.0164967
666.232	0.0166928
666.310	0.0168772
666.388	0.0171108
666.466	0.0171819
666.544	0.0174290
666.622	0.0176051
666.700	0.0179182
666.779	0.0179475
666.857	0.0181053
666.935	0.0183811
667.013	0.0184590
667.091	0.0185221
667.169	0.0186349
667.247	0.0186620
667.325	0.0186765
667.404	0.0187411
667.482	0.0186323
667.560	0.0183497
667.638	0.0182346
667.716	0.0180693
667.794	0.0177322
667.872	0.0174165
667.950	0.0169082
668.029	0.0165048
668.107	0.0159328
668.185	0.0156282
668.263	0.0150328
668.341	0.0145905
668.419	0.0140964
668.497	0.0135439
668.575	0.0131404
668.654	0.0126411
668.732	0.0123778
668.810	0.0120540
668.888	0.0120479
668.966	0.0118858
669.044	0.0118851
669.122	0.0117761
669.200	0.0120142
669.279	0.0120241
669.357	0.0123954
669.435	0.0125923
669.513	0.0129881
669.591	0.0133164
669.669	0.0136502
669.747	0.0139346
669.825	0.0142481
669.904	0.0146091
669.982	0.0152190
670.060	0.0156032
670.138	0.0160178
670.216	0.0164499
670.294	0.0169337
670.372	0.0172573
670.450	0.0175851
670.529	0.0180246
670.607	0.0182114
670.685	0.0186130
670.763	0.0189571
670.841	0.0190509
670.919	0.0191008
670.997	0.0192445
671.075	0.0193422
671.154	0.0193724
671.232	0.0193839
671.310	0.0194181
671.388	0.0192887
671.466	0.0190945
671.544	0.0189603
671.622	0.0186031
671.700	0.0184113
671.779	0.0182336
671.857	0.0178248
671.935	0.0174969
672.013	0.0171223
672.091	0.0168139
672.169	0.0164321
672.247	0.0161967
672.325	0.0158605
672.404	0.0155198
672.482	0.0153484
672.560	0.0150111
672.638	0.0148363
672.716	0.0149086
672.794	0.0146239
672.872	0.0144046
672.950	0.0143334
673.029	0.0143869
673.107	0.0143786
673.185	0.0143999
673.263	0.0142933
673.341	0.0142699
673.419	0.0142669
673.497	0.0142895
673.575	0.0144313
673.654	0.0142733
673.732	0.0141999
673.810	0.0142548
673.888	0.0143207
673.966	0.0143079
674.044	0.0142696
674.122	0.0144272
674.200	0.0144080
674.279	0.0143736
674.357	0.0146843
674.435	0.0146584
674.513	0.0148300
674.591	0.0149503
674.669	0.0149986
674.747	0.0152444
674.825	0.0153023
674.904	0.0153647
674.982	0.0155328
675.060	0.0156653
675.138	0.0158595
675.216	0.0159136
675.294	0.0159294
675.372	0.0161017
675.450	0.0160814
675.529	0.0161567
675.607	0.0162920
675.685	0.0164139
675.763	0.0164107
675.841	0.0163964
675.919	0.0164711
675.997	0.0165063
676.075	0.0165949
676.154	0.0165565
676.232	0.0165189
676.310	0.0165292
676.388	0.0165903
676.466	0.0164835
676.544	0.0164925
676.622	0.0164147
676.700	0.0164771
676.779	0.0165260
676.857	0.0165415
676.935	0.0164288
677.013	0.0164612
677.091	0.0162562
677.169	0.0163546
677.247	0.0164416
677.325	0.0164100
677.404	0.0164052
677.482	0.0161813
677.560	0.0161244
677.638	0.0160319
677.716	0.0161662
677.794	0.0159644
677.872	0.0159242
677.950	0.0159299
678.029	0.0158517
678.107	0.0160273
678.185	0.0158488
678.263	0.0158220
678.341	0.0159129
678.419	0.0158581
678.497	0.0157933
678.575	0.0159520
678.654	0.0159406
678.732	0.0158801
678.810	0.0160823
678.888	0.0159591
678.966	0.0158501
679.044	0.0158253
679.122	0.0159937
679.200	0.0159957
679.279	0.0161047
679.357	0.0160395
679.435	0.0157744
679.513	0.0159723
679.591	0.0158841
679.669	0.0158815
679.747	0.0160789
679.825	0.0158965
679.904	0.0159397
679.982	0.0160126
680.060	0.0157552
680.138	0.0158249
680.216	0.0159084
680.294	0.0157358
680.372	0.0158354
680.450	0.0158412
680.529	0.0158627
680.607	0.0158958
680.685	0.0157666
680.763	0.0158176
680.841	0.0156580
680.919	0.0158064
680.997	0.0156681
681.075	0.0156573
681.154	0.0155579
681.232	0.0154342
681.310	0.0153660
681.388	0.0152854
681.466	0.0152301
681.544	0.0149823
681.622	0.0149726
681.700	0.0148816
681.779	0.0147787
681.857	0.0149908
681.935	0.0150429
682.013	0.0151538
682.091	0.0151973
682.169	0.0153608
682.247	0.0155564
682.325	0.0158261
682.404	0.0158255
682.482	0.0160966
682.560	0.0162009
682.638	0.0164799
682.716	0.0166896
682.794	0.0167337
682.872	0.0167094
682.950	0.0167349
683.029	0.0166225
683.107	0.0166650
683.185	0.0166430
683.263	0.0166736
683.341	0.0165464
683.419	0.0166690
683.497	0.0167896
683.575	0.0165990
683.654	0.0165453
683.732	0.0167191
683.810	0.0168633
683.888	0.0168725
683.966	0.0168416
684.044	0.0169323
684.122	0.0168387
684.200	0.0167448
684.279	0.0168482
684.357	0.0168063
684.435	0.0167478
684.513	0.0167883
684.591	0.0166229
684.669	0.0166839
684.747	0.0166786
684.825	0.0166697
684.904	0.0165064
684.982	0.0165314
685.060	0.0165587
685.138	0.0163811
685.216	0.0164735
685.294	0.0162935
685.372	0.0160444
685.450	0.0161360
685.529	0.0160892
685.607	0.0158721
685.685	0.0157689
685.763	0.0157449
685.841	0.0155194
685.919	0.0154518
685.997	0.0153304
686.075	0.0152952
686.154	0.0151740
686.232	0.0151930
686.310	0.0152715
686.388	0.0151762
686.466	0.0152873
686.544	0.0152781
686.622	0.0153942
686.700	0.0154363
686.779	0.0153202
686.857	0.0152799
686.935	0.0154637
687.013	0.0152888
687.091	0.0153881
687.169	0.0154984
687.247	0.0154692
687.325	0.0154784
687.404	0.0155659
687.482	0.0153803
687.560	0.0155119
687.638	0.0154970
687.716	0.0154630
687.794	0.0155927
687.872	0.0158650
687.950	0.0158967
688.029	0.0159297
688.107	0.0159299
688.185	0.0159145
688.263	0.0160930
688.341	0.0160147
688.419	0.0161265
688.497	0.0162096
688.575	0.0161771
688.654	0.0161833
688.732	0.0163096
688.810	0.0164539
688.888	0.0162143
688.966	0.0162889
689.044	0.0164735
689.122	0.0164751
689.200	0.0164223
689.279	0.0163789
689.357	0.0163730
689.435	0.0164232
689.513	0.0163171
689.591	0.0164269
689.669	0.0165145
689.747	0.0162634
689.825	0.0163734
689.904	0.0164732
689.982	0.0164931
690.060	0.0164423
690.138	0.0165800
690.216	0.0165968
690.294	0.0166225
690.372	0.0164899
690.450	0.0165629
690.529	0.0165517
690.607	0.0165620
690.685	0.0166203
690.763	0.0165318
690.841	0.0165402
690.919	0.0164620
690.997	0.0163321
691.075	0.0165279
691.154	0.0163297
691.232	0.0163149
691.310	0.0162267
691.388	0.0163435
691.466	0.0162381
691.544	0.0161544
691.622	0.0159510
691.700	0.0159773
691.779	0.0158329
691.857	0.0158323
691.935	0.0156029
692.013	0.0154192
692.091	0.0153858
692.169	0.0151264
692.247	0.0149872
692.325	0.0151656
692.404	0.0151035
692.482	0.0149767
692.560	0.0149654
692.638	0.0150513
692.716	0.0150581
692.794	0.0151369
692.872	0.0151276
692.950	0.0151534
693.029	0.0152855
693.107	0.0153743
693.185	0.0154646
693.263	0.0154741
693.341	0.0155433
693.419	0.0156609
693.497	0.0158018
693.575	0.0158728
693.654	0.0159686
693.732	0.0159575
693.810	0.0161093
693.888	0.0162464
693.966	0.0163346
694.044	0.0162945
694.122	0.0164389
694.200	0.0163549
694.279	0.0163963
694.357	0.0164915
694.435	0.0163721
694.513	0.0162207
694.591	0.0162671
694.669	0.0162309
694.747	0.0162746
694.825	0.0161759
694.904	0.0163664
694.982	0.0163697
695.060	0.0162021
695.138	0.0163937
695.216	0.0164772
695.294	0.0162902
695.372	0.0163936
695.450	0.0165643
695.529	0.0162979
695.607	0.0164252
695.685	0.0164692
695.763	0.0163659
695.841	0.0162838
695.919	0.0163799
695.997	0.0162224
696.075	0.0160545
696.154	0.0159477
696.232	0.0158862
696.310	0.0158434
696.388	0.0156870
696.466	0.0154810
696.544	0.0154762
696.622	0.0154994
696.700	0.0153844
696.779	0.0152387
696.857	0.0153448
696.935	0.0153244
697.013	0.0154558
697.091	0.0155678
697.169	0.0154546
697.247	0.0155947
697.325	0.0156364
697.404	0.0156365
697.482	0.0159210
697.560	0.0159374
697.638	0.0160653
697.716	0.0161978
697.794	0.0163118
697.872	0.0163844
697.950	0.0164391
698.029	0.0168579
698.107	0.0167548
698.185	0.0165630
698.263	0.0166705
698.341	0.0166599
698.419	0.0166550
698.497	0.0163927
698.575	0.0163902
698.654	0.0163464
698.732	0.0162170
698.810	0.0160078
698.888	0.0159485
698.966	0.0158934
699.044	0.0158768
699.122	0.0159321
699.200	0.0158536
699.279	0.0157773
699.357	0.0157989
699.435	0.0157417
699.513	0.0156306
699.591	0.0155983
699.669	0.0159222
699.747	0.0157246
699.825	0.0156826
699.904	0.0156349
699.982	0.0156894
700.060	0.0157920
700.138	0.0157855
700.216	0.0158668
700.294	0.0158128
700.372	0.0158624
700.450	0.0157944
700.529	0.0159747
700.607	0.0160449
700.685	0.0158991
700.763	0.0160455
700.841	0.0160901
700.919	0.0159772
700.997	0.0160838
701.075	0.0161052
701.154	0.0159785
701.232	0.0159705
701.310	0.0159431
701.388	0.0159201
701.466	0.0158759
701.544	0.0157836
701.622	0.0158242
701.700	0.0159354
701.779	0.0159028
701.857	0.0157835
701.935	0.0160207
702.013	0.0160178
702.091	0.0159082
702.169	0.0159702
702.247	0.0159733
702.325	0.0159614
702.404	0.0160590
702.482	0.0160478
702.560	0.0160813
702.638	0.0161508
702.716	0.0159852
702.794	0.0161567
702.872	0.0160911
702.950	0.0159645
703.029	0.0161384
703.107	0.0159306
703.185	0.0160164
703.263	0.0159804
703.341	0.0159839
703.419	0.0159876
703.497	0.0159220
703.575	0.0159144
703.654	0.0159827
703.732	0.0158918
703.810	0.0158082
703.888	0.0157780
703.966	0.0156425
704.044	0.0158885
704.122	0.0157745
704.200	0.0157320
704.279	0.0157734
704.357	0.0157732
704.435	0.0159068
704.513	0.0158705
704.591	0.0159340
704.669	0.0160370
704.747	0.0161713
704.825	0.0162640
704.904	0.0162223
704.982	0.0161432
705.060	0.0162651
705.138	0.0163950
705.216	0.0164007
705.294	0.0164276
705.372	0.0163572
705.450	0.0164830
705.529	0.0164418
705.607	0.0163197
705.685	0.0162889
705.763	0.0163100
705.841	0.0163483
705.919	0.0162676
705.997	0.0162517
706.075	0.0163189
706.154	0.0162730
706.232	0.0162479
706.310	0.0162289
706.388	0.0160938
706.466	0.0161596
706.544	0.0160679
706.622	0.0160416
706.700	0.0159451
706.779	0.0158601
706.857	0.0156611
706.935	0.0158089
707.013	0.0157901
707.091	0.0156491
707.169	0.0157552
707.247	0.0156087
707.325	0.0154896
707.404	0.0155412
707.482	0.0156160
707.560	0.0154635
707.638	0.0154575
707.716	0.0154547
707.794	0.0154414
707.872	0.0153999
707.950	0.0155326
708.029	0.0155172
708.107	0.0155781
708.185	0.0155807
708.263	0.0156004
708.341	0.0156228
708.419	0.0156759
708.497	0.0156062
708.575	0.0156095
708.654	0.0156684
708.732	0.0157865
708.810	0.0157762
708.888	0.0158919
708.966	0.0159856
709.044	0.0160264
709.122	0.0161134
709.200	0.0162006
709.279	0.0163249
709.357	0.0163987
709.435	0.0163419
709.513	0.0165110
709.591	0.0166061
709.669	0.0165172
709.747	0.0163456
709.825	0.0163525
709.904	0.0164256
709.982	0.0162618
710.060	0.0162767
710.138	0.0162365
710.216	0.0160131
710.294	0.0161617
710.372	0.0161061
710.450	0.0160539
710.529	0.0157491
710.607	0.0160364
710.685	0.0158050
710.763	0.0157746
710.841	0.0156290
710.919	0.0156487
710.997	0.0155536
711.075	0.0155865
711.154	0.0155257
711.232	0.0154821
711.310	0.0155225
711.388	0.0154269
711.466	0.0155508
711.544	0.0156725
711.622	0.0154581
711.700	0.0155165
711.779	0.0154900
711.857	0.0155017
711.935	0.0154147
712.013	0.0154910
712.091	0.0154860
712.169	0.0154436
712.247	0.0155460
712.325	0.0155588
712.404	0.0156127
712.482	0.0156376
712.560	0.0156326
712.638	0.0156766
712.716	0.0160464
712.794	0.0160040
712.872	0.0159840
712.950	0.0161857
713.029	0.0159625
713.107	0.0160175
713.185	0.0161681
713.263	0.0161503
713.341	0.0160734
713.419	0.0161741
713.497	0.0162689
713.575	0.0163218
713.654	0.0160498
713.732	0.0161179
713.810	0.0161438
713.888	0.0161937
713.966	0.0161371
714.044	0.0160130
714.122	0.0160285
714.200	0.0160463
714.279	0.0159894
714.357	0.0159734
714.435	0.0159002
714.513	0.0158813
714.591	0.0159262
714.669	0.0160172
714.747	0.0158250
714.825	0.0159232
714.904	0.0160537
714.982	0.0158130
715.060	0.0158732
715.138	0.0158786
715.216	0.0158285
715.294	0.0158897
715.372	0.0158502
715.450	0.0157329
715.529	0.0157085
715.607	0.0158953
715.685	0.0159407
715.763	0.0158787
715.841	0.0158754
715.919	0.0158798
715.997	0.0158574
716.075	0.0158788
716.154	0.0160244
716.232	0.0159315
716.310	0.0160398
716.388	0.0161796
716.466	0.0161393
716.544	0.0161079
716.622	0.0160476
716.700	0.0162054
716.779	0.0162875
716.857	0.0161469
716.935	0.0161396
717.013	0.0161618
717.091	0.0161497
717.169	0.0161895
717.247	0.0160971
717.325	0.0162211
717.404	0.0162234
717.482	0.0160883
717.560	0.0162057
717.638	0.0160367
717.716	0.0160554
717.794	0.0160879
717.872	0.0162138
717.950	0.0159891
718.029	0.0160872
718.107	0.0161076
718.185	0.0160644
718.263	0.0160286
718.341	0.0161337
718.419	0.0161364
718.497	0.0160242
718.575	0.0160900
718.654	0.0161710
718.732	0.0161615
718.810	0.0160813
718.888	0.0160392
718.966	0.0160207
719.044	0.0161759
719.122	0.0161952
719.200	0.0160344
719.279	0.0160055
719.357	0.0161819
719.435	0.0160969
719.513	0.0160519
719.591	0.0160934
719.669	0.0162669
719.747	0.0162568
719.825	0.0162835
719.904	0.0163082
719.982	0.0160789
720.060	0.0162516
720.138	0.0162467
720.216	0.0161005
720.294	0.0162576
720.372	0.0159705
720.450	0.0160949
720.529	0.0159826
720.607	0.0158208
720.685	0.0158015
720.763	0.0156547
720.841	0.0158791
720.919	0.0157171
720.997	0.0157584
721.075	0.0156561
721.154	0.0157737
721.232	0.0156821
721.310	0.0156886
721.388	0.0154646
721.466	0.0155766
721.544	0.0156994
721.622	0.0157504
721.700	0.0157265
721.779	0.0156741
721.857	0.0156139
721.935	0.0156316
722.013	0.0156712
722.091	0.0156908
722.169	0.0158134
722.247	0.0156171
722.325	0.0156741
722.404	0.0157534
722.482	0.0157353
722.560	0.0158807
722.638	0.0159048
722.716	0.0159085
722.794	0.0159272
722.872	0.0159772
722.950	0.0160613
723.029	0.0160454
723.107	0.0161180
723.185	0.0161450
723.263	0.0162696
723.341	0.0162354
723.419	0.0163165
723.497	0.0162832
723.575	0.0163332
723.654	0.0164193
723.732	0.0165878
723.810	0.0164797
723.888	0.0163703
723.966	0.0162508
724.044	0.0163248
724.122	0.0163808
724.200	0.0163090
724.279	0.0161830
724.357	0.0162138
724.435	0.0159652
724.513	0.0159562
724.591	0.0160152
724.669	0.0158854
724.747	0.0157397
724.825	0.0158271
724.904	0.0158795
724.982	0.0156525
725.060	0.0156563
725.138	0.0155875
725.216	0.0156880
725.294	0.0155932
725.372	0.0156982
725.450	0.0156329
725.529	0.0156104
725.607	0.0154606
725.685	0.0156332
725.763	0.0157171
725.841	0.0156136
725.919	0.0155029
725.997	0.0155567
726.075	0.0157040
726.154	0.0157178
726.232	0.0157751
726.310	0.0158251
726.388	0.0158218
726.466	0.0158797
726.544	0.0157961
726.622	0.0159351
726.700	0.0160709
726.779	0.0159977
726.857	0.0159332
726.935	0.0160379
727.013	0.0159470
727.091	0.0161343
727.169	0.0159953
727.247	0.0161894
727.325	0.0160420
727.404	0.0160825
727.482	0.0160468
727.560	0.0159956
727.638	0.0160088
727.716	0.0159985
727.794	0.0159534
727.872	0.0160545
727.950	0.0160426
728.029	0.0159116
728.107	0.0160557
728.185	0.0159544
728.263	0.0160806
728.341	0.0160028
728.419	0.0160249
728.497	0.0159494
728.575	0.0158904
728.654	0.0159625
728.732	0.0159830
728.810	0.0159594
728.888	0.0160162
728.966	0.0158237
729.044	0.0159120
729.122	0.0159212
729.200	0.0159634
729.279	0.0160155
729.357	0.0159459
729.435	0.0159041
729.513	0.0159335
729.591	0.0159130
729.669	0.0159603
729.747	0.0159183
729.825	0.0158143
729.904	0.0159814
729.982	0.0160238
730.060	0.0160360
730.138	0.0160153
730.216	0.0160308
730.294	0.0160724
730.372	0.0160008
730.450	0.0161797
730.529	0.0161380
730.607	0.0161720
730.685	0.0161889
730.763	0.0160722
730.841	0.0160502
730.919	0.0160792
730.997	0.0162012
731.075	0.0161112
731.154	0.0160717
731.232	0.0161060
731.310	0.0159673
731.388	0.0159199
731.466	0.0160411
731.544	0.0160119
731.622	0.0159296
731.700	0.0158154
731.779	0.0158073
731.857	0.0157200
731.935	0.0155766
732.013	0.0155537
732.091	0.0156129
732.169	0.0153445
732.247	0.0153519
732.325	0.0153123
732.404	0.0152083
732.482	0.0154132
732.560	0.0153756
732.638	0.0154252
732.716	0.0155415
732.794	0.0154224
732.872	0.0154146
732.950	0.0155490
733.029	0.0156605
733.107	0.0157664
733.185	0.0158043
733.263	0.0158902
733.341	0.0160233
733.419	0.0158630
733.497	0.0159945
733.575	0.0161340
733.654	0.0161043
733.732	0.0162319
733.810	0.0162019
733.888	0.0163672
733.966	0.0163895
734.044	0.0164552
734.122	0.0163234
734.200	0.0165257
734.279	0.0164332
734.357	0.0162934
734.435	0.0164291
734.513	0.0165150
734.591	0.0163165
734.669	0.0164510
734.747	0.0163548
734.825	0.0163454
734.904	0.0163620
734.982	0.0163007
735.060	0.0161179
735.138	0.0160275
735.216	0.0160259
735.294	0.0160777
735.372	0.0160150
735.450	0.0159178
735.529	0.0158315
735.607	0.0157259
735.685	0.0157671
735.763	0.0157196
735.841	0.0156673
735.919	0.0155760
735.997	0.0156259
736.075	0.0155650
736.154	0.0158103
736.232	0.0155522
736.310	0.0156561
736.388	0.0157645
736.466	0.0156469
736.544	0.0155586
736.622	0.0156866
736.700	0.0156693
736.779	0.0158017
736.857	0.0157885
736.935	0.0157915
737.013	0.0158148
737.091	0.0158808
737.169	0.0158586
737.247	0.0159134
737.325	0.0159340
737.404	0.0159288
737.482	0.0160407
737.560	0.0159141
737.638	0.0158685
737.716	0.0159589
737.794	0.0160342
737.872	0.0160030
737.950	0.0158425
738.029	0.0158978
738.107	0.0158446
738.185	0.0159805
738.263	0.0159270
738.341	0.0159198
738.419	0.0158849
738.497	0.0157597
738.575	0.0159425
738.654	0.0158171
738.732	0.0157698
738.810	0.0158786
738.888	0.0158219
738.966	0.0158332
739.044	0.0158758
739.122	0.0158339
739.200	0.0158179
739.279	0.0157954
739.357	0.0158117
739.435	0.0159563
739.513	0.0160778
739.591	0.0160246
739.669	0.0160101
739.747	0.0160634
739.825	0.0161072
739.904	0.0161182
739.982	0.0160268
740.060	0.0162579
740.138	0.0162529
740.216	0.0162188
740.294	0.0162103
740.372	0.0163397
740.450	0.0162004
740.529	0.0162175
740.607	0.0163297
740.685	0.0162013
740.763	0.0160936
740.841	0.0160915
740.919	0.0161192
740.997	0.0160905
741.075	0.0159843
741.154	0.0160653
741.232	0.0159798
741.310	0.0158376
741.388	0.0157955
741.466	0.0158844
741.544	0.0158956
741.622	0.0158755
741.700	0.0158620
741.779	0.0156683
741.857	0.0157441
741.935	0.0157623
742.013	0.0158246
742.091	0.0159115
742.169	0.0158743
742.247	0.0159472
742.325	0.0158802
742.404	0.0159318
742.482	0.0159699
742.560	0.0161038
742.638	0.0159956
742.716	0.0160940
742.794	0.0160706
742.872	0.0160712
742.950	0.0163284
743.029	0.0162403
743.107	0.0162446
743.185	0.0163844
743.263	0.0162735
743.341	0.0161575
743.419	0.0162950
743.497	0.0163316
743.575	0.0162347
743.654	0.0161522
743.732	0.0161569
743.810	0.0162144
743.888	0.0160782
743.966	0.0161948
744.044	0.0160356
744.122	0.0159334
744.200	0.0159221
744.279	0.0159344
744.357	0.0158419
744.435	0.0157919
744.513	0.0157967
744.591	0.0158479
744.669	0.0157209
744.747	0.0155962
744.825	0.0156965
744.904	0.0154891
744.982	0.0155477
745.060	0.0156538
745.138	0.0155595
745.216	0.0155527
745.294	0.0156296
745.372	0.0155321
745.450	0.0154655
745.529	0.0155333
745.607	0.0154841
745.685	0.0155782
745.763	0.0155775
745.841	0.0156648
745.919	0.0156176
745.997	0.0156915
746.075	0.0156847
746.154	0.0158334
746.232	0.0158472
746.310	0.0158274
746.388	0.0157867
746.466	0.0158476
746.544	0.0158475
746.622	0.0158920
746.700	0.0158994
746.779	0.0159771
746.857	0.0160020
746.935	0.0160202
747.013	0.0160371
747.091	0.0158973
747.169	0.0160707
747.247	0.0161123
747.325	0.0161343
747.404	0.0161379
747.482	0.0161763
747.560	0.0162148
747.638	0.0161733
747.716	0.0161255
747.794	0.0162968
747.872	0.0162860
747.950	0.0162190
748.029	0.0162434
748.107	0.0163760
748.185	0.0162290
748.263	0.0162476
748.341	0.0162846
748.419	0.0163889
748.497	0.0161116
748.575	0.0160751
748.654	0.0161062
748.732	0.0161240
748.810	0.0160989
748.888	0.0160036
748.966	0.0158308
749.044	0.0158783
749.122	0.0159147
749.200	0.0159290
749.279	0.0158178
749.357	0.0157948
749.435	0.0157103
749.513	0.0157250
749.591	0.0157323
749.669	0.0157247
749.747	0.0157778
749.825	0.0156971
749.904	0.0158072
749.982	0.0157310
750.060	0.0157389
750.138	0.0156782
750.216	0.0156711
750.294	0.0158646
750.372	0.0158514
750.450	0.0159338
750.529	0.0158802
750.607	0.0158283
750.685	0.0160013
750.763	0.0160149
750.841	0.0159901
750.919	0.0160444
750.997	0.0160999
751.075	0.0162187
751.154	0.0161651
751.232	0.0161373
751.310	0.0163088
751.388	0.0163288
751.466	0.0161757
751.544	0.0161214
751.622	0.0161808
751.700	0.0161285
751.779	0.0161372
751.857	0.0161532
751.935	0.0161572
752.013	0.0160479
752.091	0.0160480
752.169	0.0160547
752.247	0.0158191
752.325	0.0158981
752.404	0.0158279
752.482	0.0158060
752.560	0.0159157
752.638	0.0158870
752.716	0.0157652
752.794	0.0156910
752.872	0.0157602
752.950	0.0157957
753.029	0.0156927
753.107	0.0158033
753.185	0.0157500
753.263	0.0156818
753.341	0.0155099
753.419	0.0157169
753.497	0.0156902
753.575	0.0158763
753.654	0.0156044
753.732	0.0157782
753.810	0.0158284
753.888	0.0157897
753.966	0.0158512
754.044	0.0159641
754.122	0.0159283
754.200	0.0159545
754.279	0.0158417
754.357	0.0158495
754.435	0.0160225
754.513	0.0160574
754.591	0.0160712
754.669	0.0159661
754.747	0.0161346
754.825	0.0161061
754.904	0.0159971
754.982	0.0161020
755.060	0.0160766
755.138	0.0161524
755.216	0.0160381
755.294	0.0162014
755.372	0.0163023
755.450	0.0161718
755.529	0.0160625
755.607	0.0160899
755.685	0.0161440
755.763	0.0161128
755.841	0.0161535
755.919	0.0160062
755.997	0.0160794
756.075	0.0160349
756.154	0.0160223
756.232	0.0160198
756.310	0.0159415
756.388	0.0160229
756.466	0.0161784
756.544	0.0159698
756.622	0.0161727
756.700	0.0160800
756.779	0.0160934
756.857	0.0159909
756.935	0.0160592
757.013	0.0160194
757.091	0.0159780
757.169	0.0160055
757.247	0.0162027
757.325	0.0159497
757.404	0.0159434
757.482	0.0160143
757.560	0.0160582
757.638	0.0158790
757.716	0.0159456
757.794	0.0159759
757.872	0.0159165
757.950	0.0160020
758.029	0.0159758
758.107	0.0159222
758.185	0.0159274
758.263	0.0158791
758.341	0.0159129
758.419	0.0160612
758.497	0.0158471
758.575	0.0159956
758.654	0.0159315
758.732	0.0159058
758.810	0.0160005
758.888	0.0159808
758.966	0.0160130
759.044	0.0157993
759.122	0.0158073
759.200	0.0158842
759.279	0.0159732
759.357	0.0158425
759.435	0.0158328
759.513	0.0158354
759.591	0.0158232
759.669	0.0158868
759.747	0.0159863
759.825	0.0160485
759.904	0.0158170
759.982	0.0160523
760.060	0.0161153
760.138	0.0160921
760.216	0.0161107
760.294	0.0161916
760.372	0.0161764
760.450	0.0161748
760.529	0.0161716
760.607	0.0162132
760.685	0.0162723
760.763	0.0163143
760.841	0.0163057
760.919	0.0163195
760.997	0.0162926
761.075	0.0163566
761.154	0.0163248
761.232	0.0162254
761.310	0.0160429
761.388	0.0160790
761.466	0.0162433
761.544	0.0161674
761.622	0.0160965
761.700	0.0160712
761.779	0.0159946
761.857	0.0160992
761.935	0.0160811
762.013	0.0160376
762.091	0.0158665
762.169	0.0158327
762.247	0.0159307
762.325	0.0157378
762.404	0.0160737
762.482	0.0161133
762.560	0.0160127
762.638	0.0160007
762.716	0.0160731
762.794	0.0160093
762.872	0.0161425
762.950	0.0159925
763.029	0.0162681
763.107	0.0161326
763.185	0.0161889
763.263	0.0161317
763.341	0.0164049
763.419	0.0164702
763.497	0.0163778
763.575	0.0162486
763.654	0.0163254
763.732	0.0164430
763.810	0.0163885
763.888	0.0164260
763.966	0.0164751
764.044	0.0164597
764.122	0.0164088
764.200	0.0164123
764.279	0.0162682
764.357	0.0163012
764.435	0.0162888
764.513	0.0161184
764.591	0.0161552
764.669	0.0160946
764.747	0.0160764
764.825	0.0159682
764.904	0.0158820
764.982	0.0159786
765.060	0.0157153
765.138	0.0155048
765.216	0.0155975
765.294	0.0155102
765.372	0.0155016
765.450	0.0152772
765.529	0.0154492
765.607	0.0153525
765.685	0.0152454
765.763	0.0153526
765.841	0.0153522
765.919	0.0152811
765.997	0.0152104
766.075	0.0153528
766.154	0.0154496
766.232	0.0154508
766.310	0.0155094
766.388	0.0156244
766.466	0.0155431
766.544	0.0156803
766.622	0.0157459
766.700	0.0157415
766.779	0.0159751
766.857	0.0159613
766.935	0.0159956
767.013	0.0159805
767.091	0.0161005
767.169	0.0163084
767.247	0.0163195
767.325	0.0162715
767.404	0.0164207
767.482	0.0163349
767.560	0.0164130
767.638	0.0163583
767.716	0.0163367
767.794	0.0165118
767.872	0.0165874
767.950	0.0163838
768.029	0.0165269
768.107	0.0164922
768.185	0.0162694
768.263	0.0163513
768.341	0.0162646
768.419	0.0161591
768.497	0.0160303
768.575	0.0161337
768.654	0.0160372
768.732	0.0159908
768.810	0.0160239
768.888	0.0160394
768.966	0.0159192
769.044	0.0158134
769.122	0.0158064
769.200	0.0158881
769.279	0.0159611
769.357	0.0157182
769.435	0.0158546
769.513	0.0157826
769.591	0.0158999
769.669	0.0157160
769.747	0.0158428
769.825	0.0158677
769.904	0.0157664
769.982	0.0159294
770.060	0.0158203
770.138	0.0159578
770.216	0.0158682
770.294	0.0158086
770.372	0.0158605
770.450	0.0157868
770.529	0.0157706
770.607	0.0159743
770.685	0.0157653
770.763	0.0155998
770.841	0.0156542
770.919	0.0158922
770.997	0.0156086
771.075	0.0156211
771.154	0.0156761
771.232	0.0155852
771.310	0.0157969
771.388	0.0157063
771.466	0.0157644
771.544	0.0157581
771.622	0.0157491
771.700	0.0157835
771.779	0.0157652
771.857	0.0157735
771.935	0.0157442
772.013	0.0159293
772.091	0.0157974
772.169	0.0159602
772.247	0.0159180
772.325	0.0159982
772.404	0.0160711
772.482	0.0161260
772.560	0.0160596
772.638	0.0160832
772.716	0.0160014
772.794	0.0159246
772.872	0.0161320
772.950	0.0160641
773.029	0.0160424
773.107	0.0162665
773.185	0.0162574
773.263	0.0161437
773.341	0.0161977
773.419	0.0160746
773.497	0.0161972
773.575	0.0160603
773.654	0.0161042
773.732	0.0161574
773.810	0.0161585
773.888	0.0161226
773.966	0.0160660
774.044	0.0161392
774.122	0.0161962
774.200	0.0160360
774.279	0.0160518
774.357	0.0160065
774.435	0.0159692
774.513	0.0159348
774.591	0.0158901
774.669	0.0159892
774.747	0.0159866
774.825	0.0158208
774.904	0.0159551
774.982	0.0160419
775.060	0.0159478
775.138	0.0158509
775.216	0.0157779
775.294	0.0158439
775.372	0.0158972
775.450	0.0160905
775.529	0.0159718
775.607	0.0159510
775.685	0.0159332
775.763	0.0158512
775.841	0.0159053
775.919	0.0159960
775.997	0.0161047
776.075	0.0159045
776.154	0.0159426
776.232	0.0159719
776.310	0.0161223
776.388	0.0160184
776.466	0.0160274
776.544	0.0160034
776.622	0.0160445
776.700	0.0159995
776.779	0.0159589
776.857	0.0159312
776.935	0.0159808
777.013	0.0161149
777.091	0.0160242
777.169	0.0160398
777.247	0.0159042
777.325	0.0159915
777.404	0.0159250
777.482	0.0159136
777.560	0.0158699
777.638	0.0159166
777.716	0.0159853
777.794	0.0159732
777.872	0.0160041
777.950	0.0158852
778.029	0.0158186
778.107	0.0159108
778.185	0.0160460
778.263	0.0159650
778.341	0.0160332
778.419	0.0160574
778.497	0.0161829
778.575	0.0160938
778.654	0.0162043
778.732	0.0161416
778.810	0.0160957
778.888	0.0162311
778.966	0.0160960
779.044	0.0162003
779.122	0.0162189
779.200	0.0162943
779.279	0.0162491
779.357	0.0162479
779.435	0.0162383
779.513	0.0162433
779.591	0.0162820
779.669	0.0163261
779.747	0.0162833
779.825	0.0163867
779.904	0.0162691
779.982	0.0161993
780.060	0.0163555
780.138	0.0161533
780.216	0.0163735
780.294	0.0162521
780.372	0.0160728
780.450	0.0162196
780.529	0.0161590
780.607	0.0160585
780.685	0.0161802
780.763	0.0161775
780.841	0.0161867
780.919	0.0161148
780.997	0.0159912
781.075	0.0159596
781.154	0.0160804
781.232	0.0159331
781.310	0.0159761
781.388	0.0160063
781.466	0.0158996
781.544	0.0157812
781.622	0.0159090
781.700	0.0159605
781.779	0.0158951
781.857	0.0159945
781.935	0.0159037
782.013	0.0160081
782.091	0.0158455
782.169	0.0160101
782.247	0.0158236
782.325	0.0160056
782.404	0.0158956
782.482	0.0158605
782.560	0.0159231
782.638	0.0157531
782.716	0.0158640
782.794	0.0158878
782.872	0.0158410
782.950	0.0159173
783.029	0.0159169
783.107	0.0158396
783.185	0.0158182
783.263	0.0158594
783.341	0.0157183
783.419	0.0157788
783.497	0.0159663
783.575	0.0159539
783.654	0.0161906
783.732	0.0160567
783.810	0.0160001
783.888	0.0159754
783.966	0.0160451
784.044	0.0161496
784.122	0.0161432
784.200	0.0162257
784.279	0.0162234
784.357	0.0163294
784.435	0.0161585
784.513	0.0163535
784.591	0.0164557
784.669	0.0162478
784.747	0.0163084
784.825	0.0161976
784.904	0.0163165
784.982	0.0163109
785.060	0.0162379
785.138	0.0163368
785.216	0.0162685
785.294	0.0161279
785.372	0.0161984
785.450	0.0162980
785.529	0.0162383
785.607	0.0161891
785.685	0.0162009
785.763	0.0161618
785.841	0.0161987
785.919	0.0162624
785.997	0.0162344
786.075	0.0161371
786.154	0.0161177
786.232	0.0160148
786.310	0.0160622
786.388	0.0160474
786.466	0.0160665
786.544	0.0161503
786.622	0.0158720
786.700	0.0160218
786.779	0.0159734
786.857	0.0160422
786.935	0.0159490
787.013	0.0159901
787.091	0.0159104
787.169	0.0159197
787.247	0.0158693
787.325	0.0159952
787.404	0.0158929
787.482	0.0159056
787.560	0.0160714
787.638	0.0158443
787.716	0.0158320
787.794	0.0158622
787.872	0.0160282
787.950	0.0159478
788.029	0.0161523
788.107	0.0159293
788.185	0.0157909
788.263	0.0159362
788.341	0.0160867
788.419	0.0160104
788.497	0.0159015
788.575	0.0158834
788.654	0.0159605
788.732	0.0160822
788.810	0.0158363
788.888	0.0159104
788.966	0.0158408
789.044	0.0158739
789.122	0.0157271
789.200	0.0159055
789.279	0.0158552
789.357	0.0156767
789.435	0.0157067
789.513	0.0155222
789.591	0.0157419
789.669	0.0158241
789.747	0.0156624
789.825	0.0156406
789.904	0.0156194
789.982	0.0156031
790.060	0.0155615
790.138	0.0156126
790.216	0.0155471
790.294	0.0156536
790.372	0.0155833
790.450	0.0155642
790.529	0.0155959
790.607	0.0156733
790.685	0.0157339
790.763	0.0156702
790.841	0.0156373
790.919	0.0155561
790.997	0.0155807
791.075	0.0157387
791.154	0.0156499
791.232	0.0156420
791.310	0.0156609
791.388	0.0157056
791.466	0.0156785
791.544	0.0156053
791.622	0.0156253
791.700	0.0158135
791.779	0.0158115
791.857	0.0156271
791.935	0.0157096
792.013	0.0158096
792.091	0.0158867
792.169	0.0158286
792.247	0.0158982
792.325	0.0158424
792.404	0.0159494
792.482	0.0159129
792.560	0.0159259
792.638	0.0160728
792.716	0.0160110
792.794	0.0159268
792.872	0.0158492
792.950	0.0158557
793.029	0.0159108
793.107	0.0159933
793.185	0.0160176
793.263	0.0160846
793.341	0.0159927
793.419	0.0160020
793.497	0.0160190
793.575	0.0160629
793.654	0.0160330
793.732	0.0160083
793.810	0.0160954
793.888	0.0160494
793.966	0.0160703
794.044	0.0159618
794.122	0.0161539
794.200	0.0162337
794.279	0.0159938
794.357	0.0160179
794.435	0.0160697
794.513	0.0159412
794.591	0.0160825
794.669	0.0160632
794.747	0.0159965
794.825	0.0159735
794.904	0.0159562
794.982	0.0158988
795.060	0.0160653
795.138	0.0159963
795.216	0.0158108
795.294	0.0158861
795.372	0.0158369
795.450	0.0159966
795.529	0.0159205
795.607	0.0158219
795.685	0.0159372
795.763	0.0158531
795.841	0.0158978
795.919	0.0159110
795.997	0.0159559
796.075	0.0160003
796.154	0.0160125
796.232	0.0159801
796.310	0.0159180
796.388	0.0158985
796.466	0.0159864
796.544	0.0161418
796.622	0.0160075
796.700	0.0159000
796.779	0.0160807
796.857	0.0161951
796.935	0.0161198
797.013	0.0160013
797.091	0.0159768
797.169	0.0161009
797.247	0.0159592
797.325	0.0158689
797.404	0.0160288
797.482	0.0160722
797.560	0.0158701
797.638	0.0159709
797.716	0.0159367
797.794	0.0159631
797.872	0.0159200
797.950	0.0160271
798.029	0.0160708
798.107	0.0159303
798.185	0.0160882
798.263	0.0161185
798.341	0.0158178
798.419	0.0160863
798.497	0.0159159
798.575	0.0160229
798.654	0.0159315
798.732	0.0159256
798.810	0.0161058
798.888	0.0158578
798.966	0.0158611
799.044	0.0160544
799.122	0.0160414
799.200	0.0159464
799.279	0.0159838
799.357	0.0161696
799.435	0.0160357
799.513	0.0159457
799.591	0.0160824
799.669	0.0159472
799.747	0.0159483
799.825	0.0160375
799.904	0.0160675
799.982	0.0161416
800.060	0.0159908
800.138	0.0160583
800.216	0.0159820
800.294	0.0161251
800.372	0.0161383
800.450	0.0160045
800.529	0.0158801
800.607	0.0162444
800.685	0.0163188
800.763	0.0160256
800.841	0.0160745
800.919	0.0161015
800.997	0.0162859
801.075	0.0161221
801.154	0.0160351
801.232	0.0162907
801.310	0.0161403
801.388	0.0161810
801.466	0.0159749
801.544	0.0159664
801.622	0.0159483
801.700	0.0160201
801.779	0.0160394
801.857	0.0161506
801.935	0.0159946
802.013	0.0158852
802.091	0.0159029
802.169	0.0160032
802.247	0.0159565
802.325	0.0158850
802.404	0.0158425
802.482	0.0158013
802.560	0.0159406
802.638	0.0160323
802.716	0.0157890
802.794	0.0159245
802.872	0.0158746
802.950	0.0157522
803.029	0.0157976
803.107	0.0158771
803.185	0.0159370
803.263	0.0158500
803.341	0.0159524
803.419	0.0159593
803.497	0.0159608
803.575	0.0159431
803.654	0.0158833
803.732	0.0159769
803.810	0.0159685
803.888	0.0158389
803.966	0.0158582
804.044	0.0159398
804.122	0.0160263
804.200	0.0159375
804.279	0.0160098
804.357	0.0158052
804.435	0.0159665
804.513	0.0159415
804.591	0.0159155
804.669	0.0158761
804.747	0.0157478
804.825	0.0158185
804.904	0.0161178
804.982	0.0158952
805.060	0.0158768
805.138	0.0159282
805.216	0.0159846
805.294	0.0159891
805.372	0.0159911
805.450	0.0159723
805.529	0.0159805
805.607	0.0160227
805.685	0.0160578
805.763	0.0160989
805.841	0.0161035
805.919	0.0159774
805.997	0.0160146
806.075	0.0162285
806.154	0.0160765
806.232	0.0161002
806.310	0.0159872
806.388	0.0159264
806.466	0.0160365
806.544	0.0160513
806.622	0.0160049
806.700	0.0159729
806.779	0.0160085
806.857	0.0160469
806.935	0.0159751
807.013	0.0158643
807.091	0.0159785
807.169	0.0159749
807.247	0.0159799
807.325	0.0159740
807.404	0.0158781
807.482	0.0159132
807.560	0.0159201
807.638	0.0159586
807.716	0.0159008
807.794	0.0159966
807.872	0.0157711
807.950	0.0158849
808.029	0.0159273
808.107	0.0159018
808.185	0.0159017
808.263	0.0158094
808.341	0.0158678
808.419	0.0160651
808.497	0.0160026
808.575	0.0159376
808.654	0.0160274
808.732	0.0159920
808.810	0.0159382
808.888	0.0160106
808.966	0.0159984
809.044	0.0161364
809.122	0.0160295
809.200	0.0159353
809.279	0.0159553
809.357	0.0160213
809.435	0.0159007
809.513	0.0159587
809.591	0.0160531
809.669	0.0161347
809.747	0.0159103
809.825	0.0158882
809.904	0.0160112
809.982	0.0159241
810.060	0.0157968
810.138	0.0159072
810.216	0.0159184
810.294	0.0158668
810.372	0.0158945
810.450	0.0158994
810.529	0.0157231
810.607	0.0158639
810.685	0.0157720
810.763	0.0158460
810.841	0.0158353
810.919	0.0157700
810.997	0.0157754
811.075	0.0156636
811.154	0.0157598
811.232	0.0157240
811.310	0.0157747
811.388	0.0157599
811.466	0.0158781
811.544	0.0157003
811.622	0.0157968
811.700	0.0156577
811.779	0.0156898
811.857	0.0158086
811.935	0.0156940
812.013	0.0156619
812.091	0.0157536
812.169	0.0158422
812.247	0.0157587
812.325	0.0157480
812.404	0.0158225
812.482	0.0158131
812.560	0.0157396
812.638	0.0157329
812.716	0.0158241
812.794	0.0159505
812.872	0.0157977
812.950	0.0157533
813.029	0.0157484
813.107	0.0158882
813.185	0.0158931
813.263	0.0158971
813.341	0.0157478
813.419	0.0158312
813.497	0.0158642
813.575	0.0157829
813.654	0.0161433
813.732	0.0159381
813.810	0.0159373
813.888	0.0158831
813.966	0.0159785
814.044	0.0160323
814.122	0.0158389
814.200	0.0160471
814.279	0.0158440
814.357	0.0159590
814.435	0.0158730
814.513	0.0159750
814.591	0.0160745
814.669	0.0159074
814.747	0.0160465
814.825	0.0160323
814.904	0.0159249
814.982	0.0160400
815.060	0.0159888
815.138	0.0160036
815.216	0.0160913
815.294	0.0159477
815.372	0.0159459
815.450	0.0159725
815.529	0.0160155
815.607	0.0160535
815.685	0.0160600
815.763	0.0159428
815.841	0.0160289
815.919	0.0161148
815.997	0.0159486
816.075	0.0159497
816.154	0.0158534
816.232	0.0160162
816.310	0.0160114
816.388	0.0161008
816.466	0.0160384
816.544	0.0158932
816.622	0.0159070
816.700	0.0160958
816.779	0.0161260
816.857	0.0160612
816.935	0.0160719
817.013	0.0159000
817.091	0.0160770
817.169	0.0159907
817.247	0.0160218
817.325	0.0158563
817.404	0.0158966
817.482	0.0159493
817.560	0.0159922
817.638	0.0159027
817.716	0.0159589
817.794	0.0160071
817.872	0.0157575
817.950	0.0158195
818.029	0.0159007
818.107	0.0158871
818.185	0.0158887
818.263	0.0158128
818.341	0.0159757
818.419	0.0159741
818.497	0.0157369
818.575	0.0157815
818.654	0.0160707
818.732	0.0158245
818.810	0.0157758
818.888	0.0157761
818.966	0.0157477
819.044	0.0156548
819.122	0.0159243
819.200	0.0158865
819.279	0.0157098
819.357	0.0158207
819.435	0.0158004
819.513	0.0158253
819.591	0.0157863
819.669	0.0157204
819.747	0.0157896
819.825	0.0158756
819.904	0.0156670
819.982	0.0157596
820.060	0.0158096
820.138	0.0158604
820.216	0.0158145
820.294	0.0158256
820.372	0.0157946
820.450	0.0157161
820.529	0.0157497
820.607	0.0157688
820.685	0.0158337
820.763	0.0158147
820.841	0.0159693
820.919	0.0158094
820.997	0.0159124
821.075	0.0159640
821.154	0.0159767
821.232	0.0160252
821.310	0.0159614
821.388	0.0159200
821.466	0.0160083
821.544	0.0159845
821.622	0.0159187
821.700	0.0159425
821.779	0.0161457
821.857	0.0160773
821.935	0.0161305
822.013	0.0160410
822.091	0.0160853
822.169	0.0162082
822.247	0.0160953
822.325	0.0162244
822.404	0.0162476
822.482	0.0161820
822.560	0.0161330
822.638	0.0162240
822.716	0.0161826
822.794	0.0162549
822.872	0.0162595
822.950	0.0161109
823.029	0.0160494
823.107	0.0162166
823.185	0.0160890
823.263	0.0160706
823.341	0.0160047
823.419	0.0159565
823.497	0.0160043
823.575	0.0160117
823.654	0.0159451
823.732	0.0159736
823.810	0.0159039
823.888	0.0159749
823.966	0.0159581
824.044	0.0159628
824.122	0.0159222
824.200	0.0159782
824.279	0.0159464
824.357	0.0158810
824.435	0.0158903
824.513	0.0158257
824.591	0.0159200
824.669	0.0160390
824.747	0.0158832
824.825	0.0159050
824.904	0.0158987
824.982	0.0160453
825.060	0.0159489
825.138	0.0159605
825.216	0.0159570
825.294	0.0160004
825.372	0.0159995
825.450	0.0160134
825.529	0.0159608
825.607	0.0160448
825.685	0.0159258
825.763	0.0159614
825.841	0.0159899
825.919	0.0159966
825.997	0.0159042
826.075	0.0157895
826.154	0.0157968
826.232	0.0158723
826.310	0.0158802
826.388	0.0158786
826.466	0.0157986
826.544	0.0158584
826.622	0.0158456
826.700	0.0157565
826.779	0.0157609
826.857	0.0158932
826.935	0.0159061
827.013	0.0158245
827.091	0.0157413
827.169	0.0157555
827.247	0.0157446
827.325	0.0158372
827.404	0.0156945
827.482	0.0157443
827.560	0.0156449
827.638	0.0155986
827.716	0.0158484
827.794	0.0156441
827.872	0.0158293
827.950	0.0156821
828.029	0.0156879
828.107	0.0158142
828.185	0.0157536
828.263	0.0158043
828.341	0.0158813
828.419	0.0159430
828.497	0.0159251
828.575	0.0160200
828.654	0.0159644
828.732	0.0158680
828.810	0.0159619
828.888	0.0158940
828.966	0.0159370
829.044	0.0159136
829.122	0.0160040
829.200	0.0159791
829.279	0.0160904
829.357	0.0160159
829.435	0.0158045
829.513	0.0158198
829.591	0.0159519
829.669	0.0159970
829.747	0.0158324
829.825	0.0157766
829.904	0.0158421
829.982	0.0158829
830.060	0.0158653
830.138	0.0157459
830.216	0.0156743
830.294	0.0158889
830.372	0.0157865
830.450	0.0159104
830.529	0.0157282
830.607	0.0158452
830.685	0.0159479
830.763	0.0159186
830.841	0.0158513
830.919	0.0160168
830.997	0.0160685
831.075	0.0158281
831.154	0.0160200
831.232	0.0161469
831.310	0.0160236
831.388	0.0160165
831.466	0.0160725
831.544	0.0161155
831.622	0.0160008
831.700	0.0160847
831.779	0.0158737
831.857	0.0159773
831.935	0.0160947
832.013	0.0159264
832.091	0.0160121
832.169	0.0159763
832.247	0.0158289
832.325	0.0159165
832.404	0.0159509
832.482	0.0160736
832.560	0.0160238
832.638	0.0157178
832.716	0.0157043
832.794	0.0158484
832.872	0.0158473
832.950	0.0158929
833.029	0.0157355
833.107	0.0158279
833.185	0.0157983
833.263	0.0157355
833.341	0.0158585
833.419	0.0157719
833.497	0.0158552
833.575	0.0157552
833.654	0.0158147
833.732	0.0157425
833.810	0.0156732
833.888	0.0159036
833.966	0.0159061
834.044	0.0158150
834.122	0.0158838
834.200	0.0158080
834.279	0.0156782
834.357	0.0159419
834.435	0.0158633
834.513	0.0158907
834.591	0.0158833
834.669	0.0159592
834.747	0.0159576
834.825	0.0159899
834.904	0.0161079
834.982	0.0160300
835.060	0.0159126
835.138	0.0159798
835.216	0.0159426
835.294	0.0159104
835.372	0.0159530
835.450	0.0160061
835.529	0.0157981
835.607	0.0158247
835.685	0.0158621
835.763	0.0159135
835.841	0.0159579
835.919	0.0159132
835.997	0.0158351
836.075	0.0160006
836.154	0.0158851
836.232	0.0158898
836.310	0.0159433
836.388	0.0159583
836.466	0.0159393
836.544	0.0159333
836.622	0.0159891
836.700	0.0159688
836.779	0.0158646
836.857	0.0160263
836.935	0.0159728
837.013	0.0160683
837.091	0.0159455
837.169	0.0160758
837.247	0.0161042
837.325	0.0161738
837.404	0.0162327
837.482	0.0162882
837.560	0.0162174
837.638	0.0162636
837.716	0.0163056
837.794	0.0162408
837.872	0.0163178
837.950	0.0162014
838.029	0.0162874
838.107	0.0163536
838.185	0.0163005
838.263	0.0161774
838.341	0.0162038
838.419	0.0162696
838.497	0.0161888
838.575	0.0162379
838.654	0.0162582
838.732	0.0161992
838.810	0.0160839
838.888	0.0162144
838.966	0.0162616
839.044	0.0160153
839.122	0.0161835
839.200	0.0160131
839.279	0.0160489
839.357	0.0160597
839.435	0.0161506
839.513	0.0160534
839.591	0.0160359
839.669	0.0159290
839.747	0.0159560
839.825	0.0160767
839.904	0.0159523
839.982	0.0158450
840.060	0.0159747
840.138	0.0160636
840.216	0.0160440
840.294	0.0159492
840.372	0.0158764
840.450	0.0159738
840.529	0.0160827
840.607	0.0159753
840.685	0.0160098
840.763	0.0159590
840.841	0.0159738
840.919	0.0158086
840.997	0.0158526
841.075	0.0159837
841.154	0.0158324
841.232	0.0159438
841.310	0.0158127
841.388	0.0158553
841.466	0.0158446
841.544	0.0159403
841.622	0.0157197
841.700	0.0159243
841.779	0.0156303
841.857	0.0158875
841.935	0.0157496
842.013	0.0157388
842.091	0.0157425
842.169	0.0159446
842.247	0.0157983
842.325	0.0158340
842.404	0.0158878
842.482	0.0158899
842.560	0.0160809
842.638	0.0159966
842.716	0.0160282
842.794	0.0163120
842.872	0.0160899
842.950	0.0162706
843.029	0.0161615
843.107	0.0161620
843.185	0.0162305
843.263	0.0161977
843.341	0.0161275
843.419	0.0162583
843.497	0.0162118
843.575	0.0161581
843.654	0.0160449
843.732	0.0160109
843.810	0.0158912
843.888	0.0158244
843.966	0.0159206
844.044	0.0159925
844.122	0.0158355
844.200	0.0156895
844.279	0.0157346
844.357	0.0157516
844.435	0.0156870
844.513	0.0155689
844.591	0.0156779
844.669	0.0155532
844.747	0.0154794
844.825	0.0156992
844.904	0.0157804
844.982	0.0156718
845.060	0.0156519
845.138	0.0157146
845.216	0.0157761
845.294	0.0157011
845.372	0.0159324
845.450	0.0159776
845.529	0.0160453
845.607	0.0161044
845.685	0.0161077
845.763	0.0161209
845.841	0.0161948
845.919	0.0162189
845.997	0.0162762
846.075	0.0161128
846.154	0.0162039
846.232	0.0162984
846.310	0.0163116
846.388	0.0161888
846.466	0.0162481
846.544	0.0162850
846.622	0.0162265
846.700	0.0162326
846.779	0.0162108
846.857	0.0162783
846.935	0.0161461
847.013	0.0161354
847.091	0.0160548
847.169	0.0160275
847.247	0.0160768
847.325	0.0159320
847.404	0.0157919
847.482	0.0157960
847.560	0.0159112
847.638	0.0158945
847.716	0.0158242
847.794	0.0156406
847.872	0.0157077
847.950	0.0157634
848.029	0.0156812
848.107	0.0158189
848.185	0.0156522
848.263	0.0157772
848.341	0.0158092
848.419	0.0156595
848.497	0.0155576
848.575	0.0156744
848.654	0.0155289
848.732	0.0156521
848.810	0.0157088
848.888	0.0158188
848.966	0.0158344
849.044	0.0155766
849.122	0.0155132
849.200	0.0156291
849.279	0.0157608
849.357	0.0157632
849.435	0.0158456
849.513	0.0157420
849.591	0.0158578
849.669	0.0158064
849.747	0.0159937
849.825	0.0159308
849.904	0.0158279
849.982	0.0157675
850.060	0.0158118
850.138	0.0156998
850.216	0.0159692
850.294	0.0159393
850.372	0.0157571
850.450	0.0157185
850.529	0.0157948
850.607	0.0158752
850.685	0.0159101
850.763	0.0159528
850.841	0.0159779
850.919	0.0158534
850.997	0.0158176
851.075	0.0161169
851.154	0.0160574
851.232	0.0160677
851.310	0.0160828
851.388	0.0159267
851.466	0.0161221
851.544	0.0159869
851.622	0.0160209
851.700	0.0161476
851.779	0.0161275
851.857	0.0161102
851.935	0.0159803
852.013	0.0160860
852.091	0.0162595
852.169	0.0162447
852.247	0.0160729
852.325	0.0161941
852.404	0.0161020
852.482	0.0161544
852.560	0.0161111
852.638	0.0160252
852.716	0.0160914
852.794	0.0160922
852.872	0.0159133
852.950	0.0159180
853.029	0.0158892
853.107	0.0160217
853.185	0.0160695
853.263	0.0160233
853.341	0.0159047
853.419	0.0161393
853.497	0.0159929
853.575	0.0160297
853.654	0.0159779
853.732	0.0159061
853.810	0.0160632
853.888	0.0159444
853.966	0.0159767
854.044	0.0159148
854.122	0.0160555
854.200	0.0160170
854.279	0.0160951
854.357	0.0161102
854.435	0.0160307
854.513	0.0159799
854.591	0.0160634
854.669	0.0160188
854.747	0.0159135
854.825	0.0161156
854.904	0.0161528
854.982	0.0161142
855.060	0.0160879
855.138	0.0161451
855.216	0.0160006
855.294	0.0160991
855.372	0.0160514
855.450	0.0159432
855.529	0.0158611
855.607	0.0159070
855.685	0.0159628
855.763	0.0159000
855.841	0.0159487
855.919	0.0158409
855.997	0.0158999
856.075	0.0157242
856.154	0.0158187
856.232	0.0159374
856.310	0.0159441
856.388	0.0156965
856.466	0.0157757
856.544	0.0156882
856.622	0.0157109
856.700	0.0160150
856.779	0.0158798
856.857	0.0158015
856.935	0.0157890
857.013	0.0158327
857.091	0.0159642
857.169	0.0158746
857.247	0.0158330
857.325	0.0157897
857.404	0.0158096
857.482	0.0158835
857.560	0.0159468
857.638	0.0158586
857.716	0.0157776
857.794	0.0158411
857.872	0.0159154
857.950	0.0158964
858.029	0.0158827
858.107	0.0159069
858.185	0.0160306
858.263	0.0159701
858.341	0.0160538
858.419	0.0161626
858.497	0.0160296
858.575	0.0162067
858.654	0.0161710
858.732	0.0161029
858.810	0.0161052
858.888	0.0161520
858.966	0.0161105
859.044	0.0162041
859.122	0.0162147
859.200	0.0161569
859.279	0.0162764
859.357	0.0162426
859.435	0.0160384
859.513	0.0161347
859.591	0.0161303
859.669	0.0160862
859.747	0.0159438
859.825	0.0157664
859.904	0.0158783
859.982	0.0157737
860.060	0.0158212
860.138	0.0158482
860.216	0.0157452
860.294	0.0157333
860.372	0.0157800
860.450	0.0156784
860.529	0.0157718
860.607	0.0158256
860.685	0.0157173
860.763	0.0156391
860.841	0.0157707
860.919	0.0159269
860.997	0.0157995
861.075	0.0158769
861.154	0.0159414
861.232	0.0159958
861.310	0.0160892
861.388	0.0159464
861.466	0.0161459
861.544	0.0160943
861.622	0.0161367
861.700	0.0161357
861.779	0.0161165
861.857	0.0159535
861.935	0.0160307
862.013	0.0160744
862.091	0.0161143
862.169	0.0162459
862.247	0.0162182
862.325	0.0161900
862.404	0.0161929
862.482	0.0161430
862.560	0.0163108
862.638	0.0163023
862.716	0.0161621
862.794	0.0161916
862.872	0.0160882
862.950	0.0159043
863.029	0.0160537
863.107	0.0161622
863.185	0.0159848
863.263	0.0160050
863.341	0.0160203
863.419	0.0159444
863.497	0.0158611
863.575	0.0160855
863.654	0.0158134
863.732	0.0158671
863.810	0.0158717
863.888	0.0159471
863.966	0.0160113
864.044	0.0160262
864.122	0.0159427
864.200	0.0159049
864.279	0.0160813
864.357	0.0159927
864.435	0.0160680
864.513	0.0161211
864.591	0.0159479
864.669	0.0160650
864.747	0.0161375
864.825	0.0161111
864.904	0.0161179
864.982	0.0160513
865.060	0.0161044
865.138	0.0160670
865.216	0.0160344
865.294	0.0160707
865.372	0.0160270
865.450	0.0160798
865.529	0.0159572
865.607	0.0159429
865.685	0.0160309
865.763	0.0161689
865.841	0.0159883
865.919	0.0160407
865.997	0.0159547
866.075	0.0160355
866.154	0.0159283
866.232	0.0160430
866.310	0.0160358
866.388	0.0161974
866.466	0.0160831
866.544	0.0161051
866.622	0.0160765
866.700	0.0160711
866.779	0.0163065
866.857	0.0162518
866.935	0.0162496
867.013	0.0162992
867.091	0.0162979
867.169	0.0163219
867.247	0.0163583
867.325	0.0163588
867.404	0.0163298
867.482	0.0164652
867.560	0.0163430
867.638	0.0162505
867.716	0.0161880
867.794	0.0161054
867.872	0.0162124
867.950	0.0161473
868.029	0.0159819
868.107	0.0161716
868.185	0.0162086
868.263	0.0159601
868.341	0.0160401
868.419	0.0159245
868.497	0.0159741
868.575	0.0160450
868.654	0.0159305
868.732	0.0160594
868.810	0.0159373
868.888	0.0159849
868.966	0.0159301
869.044	0.0159225
869.122	0.0158199
869.200	0.0158393
869.279	0.0157736
869.357	0.0158933
869.435	0.0158331
869.513	0.0159257
869.591	0.0159306
869.669	0.0156815
869.747	0.0159106
869.825	0.0157901
869.904	0.0158254
869.982	0.0157717
870.060	0.0158525
870.138	0.0158340
870.216	0.0158341
870.294	0.0159410
870.372	0.0158901
870.450	0.0159562
870.529	0.0159074
870.607	0.0158652
870.685	0.0159848
870.763	0.0160337
870.841	0.0158801
870.919	0.0160213
870.997	0.0160966
871.075	0.0160068
871.154	0.0159766
871.232	0.0159654
871.310	0.0159087
871.388	0.0158951
871.466	0.0159122
871.544	0.0158858
871.622	0.0157859
871.700	0.0159830
871.779	0.0160590
871.857	0.0159735
871.935	0.0160310
872.013	0.0159676
872.091	0.0159943
872.169	0.0159821
872.247	0.0160932
872.325	0.0160378
872.404	0.0162073
872.482	0.0163362
872.560	0.0161197
872.638	0.0161008
872.716	0.0161098
872.794	0.0160926
872.872	0.0161760
872.950	0.0162215
873.029	0.0162222
873.107	0.0162832
873.185	0.0161575
873.263	0.0159626
873.341	0.0159400
873.419	0.0161263
873.497	0.0159691
873.575	0.0159481
873.654	0.0157870
873.732	0.0159619
873.810	0.0160296
873.888	0.0158305
873.966	0.0158009
874.044	0.0159813
874.122	0.0158266
874.200	0.0159005
874.279	0.0159134
874.357	0.0157626
874.435	0.0158962
874.513	0.0157726
874.591	0.0159612
874.669	0.0159444
874.747	0.0158776
874.825	0.0159283
874.904	0.0159208
874.982	0.0159720
875.060	0.0160576
875.138	0.0159840
875.216	0.0159689
875.294	0.0158559
875.372	0.0158806
875.450	0.0159594
875.529	0.0160054
875.607	0.0160447
875.685	0.0160972
875.763	0.0160052
875.841	0.0160545
875.919	0.0161452
875.997	0.0160671
876.075	0.0160172
876.154	0.0161931
876.232	0.0160954
876.310	0.0160386
876.388	0.0161543
876.466	0.0162360
876.544	0.0161314
876.622	0.0161178
876.700	0.0160290
876.779	0.0160970
876.857	0.0160751
876.935	0.0160032
877.013	0.0161266
877.091	0.0161436
877.169	0.0161038
877.247	0.0160247
877.325	0.0160982
877.404	0.0160089
877.482	0.0158915
877.560	0.0161215
877.638	0.0158995
877.716	0.0159083
877.794	0.0158682
877.872	0.0159484
877.950	0.0159847
878.029	0.0159953
878.107	0.0159193
878.185	0.0159314
878.263	0.0158811
878.341	0.0159267
878.419	0.0159654
878.497	0.0159144
878.575	0.0159061
878.654	0.0158427
878.732	0.0158762
878.810	0.0159982
878.888	0.0159209
878.966	0.0160015
879.044	0.0158311
879.122	0.0160688
879.200	0.0160355
879.279	0.0159552
879.357	0.0159988
879.435	0.0160611
879.513	0.0159721
879.591	0.0159588
879.669	0.0159776
879.747	0.0160404
879.825	0.0160709
879.904	0.0162589
879.982	0.0161225
880.060	0.0161343
880.138	0.0160765
880.216	0.0159823
880.294	0.0159739
880.372	0.0161226
880.450	0.0161074
880.529	0.0160648
880.607	0.0161384
880.685	0.0160628
880.763	0.0161410
880.841	0.0160038
880.919	0.0160719
880.997	0.0161177
881.075	0.0160049
881.154	0.0161406
881.232	0.0161858
881.310	0.0159828
881.388	0.0160758
881.466	0.0160940
881.544	0.0160201
881.622	0.0161891
881.700	0.0162217
881.779	0.0162782
881.857	0.0160674
881.935	0.0160080
882.013	0.0159502
882.091	0.0162003
882.169	0.0161198
882.247	0.0160380
882.325	0.0160906
882.404	0.0161008
882.482	0.0162022
882.560	0.0160854
882.638	0.0160644
882.716	0.0160191
882.794	0.0160162
882.872	0.0160548
882.950	0.0159502
883.029	0.0159721
883.107	0.0160484
883.185	0.0161960
883.263	0.0160920
883.341	0.0160622
883.419	0.0161133
883.497	0.0161956
883.575	0.0160748
883.654	0.0160581
883.732	0.0160159
883.810	0.0160786
883.888	0.0161384
883.966	0.0159480
884.044	0.0159504
884.122	0.0159515
884.200	0.0160224
884.279	0.0160568
884.357	0.0160074
884.435	0.0160625
884.513	0.0160673
884.591	0.0160258
884.669	0.0161010
884.747	0.0160210
884.825	0.0160626
884.904	0.0161214
884.982	0.0160241
885.060	0.0158902
885.138	0.0160220
885.216	0.0160363
885.294	0.0160606
885.372	0.0159805
885.450	0.0159676
885.529	0.0156854
885.607	0.0159744
885.685	0.0159158
885.763	0.0159439
885.841	0.0160048
885.919	0.0159045
885.997	0.0158102
886.075	0.0157883
886.154	0.0157417
886.232	0.0159705
886.310	0.0158159
886.388	0.0158125
886.466	0.0159430
886.544	0.0160208
886.622	0.0158717
886.700	0.0159219
886.779	0.0159016
886.857	0.0157578
886.935	0.0158348
887.013	0.0159654
887.091	0.0159673
887.169	0.0159661
887.247	0.0161153
887.325	0.0159953
887.404	0.0159009
887.482	0.0159775
887.560	0.0159614
887.638	0.0160977
887.716	0.0159341
887.794	0.0160035
887.872	0.0159615
887.950	0.0161334
888.029	0.0159475
888.107	0.0159941
888.185	0.0158901
888.263	0.0159180
888.341	0.0159680
888.419	0.0160174
888.497	0.0158768
888.575	0.0159032
888.654	0.0159308
888.732	0.0158286
888.810	0.0157863
888.888	0.0158846
888.966	0.0159514
889.044	0.0158720
889.122	0.0160061
889.200	0.0160255
889.279	0.0159364
889.357	0.0158541
889.435	0.0157543
889.513	0.0158201
889.591	0.0159099
889.669	0.0160133
889.747	0.0158874
889.825	0.0158772
889.904	0.0160075
889.982	0.0160422
890.060	0.0158904
890.138	0.0158847
890.216	0.0158592
890.294	0.0159004
890.372	0.0159371
890.450	0.0158803
890.529	0.0158888
890.607	0.0158247
890.685	0.0159118
890.763	0.0159751
890.841	0.0159119
890.919	0.0160227
890.997	0.0160364
891.075	0.0159679
891.154	0.0159183
891.232	0.0159256
891.310	0.0158630
891.388	0.0159991
891.466	0.0158184
891.544	0.0158152
891.622	0.0158707
891.700	0.0158663
891.779	0.0159168
891.857	0.0159108
891.935	0.0160046
892.013	0.0159987
892.091	0.0158289
892.169	0.0159593
892.247	0.0160891
892.325	0.0160306
892.404	0.0159560
892.482	0.0160356
892.560	0.0161261
892.638	0.0161248
892.716	0.0160455
892.794	0.0161016
892.872	0.0164249
892.950	0.0163523
893.029	0.0163813
893.107	0.0162838
893.185	0.0161866
893.263	0.0163819
893.341	0.0164083
893.419	0.0163189
893.497	0.0163377
893.575	0.0163079
893.654	0.0162112
893.732	0.0163103
893.810	0.0163190
893.888	0.0162466
893.966	0.0161578
894.044	0.0160996
894.122	0.0162299
894.200	0.0161168
894.279	0.0163820
894.357	0.0161002
894.435	0.0161018
894.513	0.0159977
894.591	0.0161023
894.669	0.0160964
894.747	0.0159962
894.825	0.0159425
894.904	0.0160532
894.982	0.0159942
895.060	0.0160087
895.138	0.0160439
895.216	0.0160646
895.294	0.0161469
895.372	0.0161124
895.450	0.0160853
895.529	0.0161346
895.607	0.0160225
895.685	0.0161240
895.763	0.0162012
895.841	0.0160474
895.919	0.0161010
895.997	0.0161981
896.075	0.0162366
896.154	0.0161990
896.232	0.0162083
896.310	0.0161781
896.388	0.0161301
896.466	0.0162947
896.544	0.0162276
896.622	0.0161571
896.700	0.0162290
896.779	0.0159550
896.857	0.0161172
896.935	0.0160645
897.013	0.0160271
897.091	0.0160917
897.169	0.0162336
897.247	0.0161371
897.325	0.0160719
897.404	0.0161012
897.482	0.0161295
897.560	0.0160584
897.638	0.0160921
897.716	0.0160799
897.794	0.0160950
897.872	0.0158061
897.950	0.0161253
898.029	0.0160654
898.107	0.0159133
898.185	0.0160398
898.263	0.0160504
898.341	0.0160500
898.419	0.0158804
898.497	0.0159621
898.575	0.0159791
898.654	0.0161986
898.732	0.0161279
898.810	0.0161298
898.888	0.0160826
898.966	0.0159723
899.044	0.0158831
899.122	0.0158649
899.200	0.0161072
899.279	0.0160412
899.357	0.0159780
899.435	0.0159634
899.513	0.0159918
899.591	0.0160378
899.669	0.0159736
899.747	0.0158849
899.825	0.0160651
899.904	0.0161239
899.982	0.0160579
900.060	0.0160436
900.138	0.0159396
900.216	0.0159673
900.294	0.0159229
900.372	0.0160514
900.450	0.0160436
900.529	0.0161247
900.607	0.0161306
900.685	0.0160384
900.763	0.0160853
900.841	0.0162052
900.919	0.0161223
900.997	0.0160478
901.075	0.0160653
901.154	0.0161823
901.232	0.0161404
901.310	0.0160009
901.388	0.0161507
901.466	0.0161610
901.544	0.0161837
901.622	0.0160819
901.700	0.0161130
901.779	0.0161580
901.857	0.0161539
901.935	0.0160196
902.013	0.0160395
902.091	0.0160844
902.169	0.0160380
902.247	0.0159681
902.325	0.0159223
902.404	0.0159143
902.482	0.0158726
902.560	0.0159898
902.638	0.0159236
902.716	0.0159113
902.794	0.0158672
902.872	0.0160844
902.950	0.0158396
903.029	0.0157368
903.107	0.0160238
903.185	0.0158634
903.263	0.0159142
903.341	0.0159100
903.419	0.0158457
903.497	0.0159868
903.575	0.0158641
903.654	0.0158221
903.732	0.0159329
903.810	0.0159953
903.888	0.0159232
903.966	0.0161475
904.044	0.0159682
904.122	0.0159743
904.200	0.0160194
904.279	0.0160389
904.357	0.0160551
904.435	0.0161592
904.513	0.0161032
904.591	0.0159868
904.669	0.0159734
904.747	0.0159652
904.825	0.0159589
904.904	0.0159685
904.982	0.0161911
905.060	0.0160368
905.138	0.0160818
905.216	0.0158987
905.294	0.0159805
905.372	0.0160289
905.450	0.0160422
905.529	0.0158746
905.607	0.0160369
905.685	0.0161327
905.763	0.0160435
905.841	0.0160721
905.919	0.0160168
905.997	0.0160809
906.075	0.0160308
906.154	0.0160284
906.232	0.0159946
906.310	0.0159687
906.388	0.0159875
906.466	0.0159350
906.544	0.0160206
906.622	0.0159980
906.700	0.0159806
906.779	0.0158620
906.857	0.0159159
906.935	0.0160326
907.013	0.0158179
907.091	0.0158445
907.169	0.0158696
907.247	0.0158070
907.325	0.0158491
907.404	0.0158359
907.482	0.0157933
907.560	0.0157116
907.638	0.0158314
907.716	0.0157644
907.794	0.0157862
907.872	0.0157465
907.950	0.0157707
908.029	0.0159202
908.107	0.0157786
908.185	0.0158312
908.263	0.0157453
908.341	0.0155969
908.419	0.0156929
908.497	0.0157008
908.575	0.0159678
908.654	0.0156957
908.732	0.0158267
908.810	0.0158473
908.888	0.0157648
908.966	0.0157563
909.044	0.0158250
909.122	0.0158163
909.200	0.0156866
909.279	0.0158891
909.357	0.0157977
909.435	0.0158883
909.513	0.0158651
909.591	0.0157959
909.669	0.0159010
909.747	0.0159010
909.825	0.0159029
909.904	0.0158713
909.982	0.0159644
910.060	0.0160056
910.138	0.0160902
910.216	0.0159269
910.294	0.0159849
910.372	0.0160395
910.450	0.0160446
910.529	0.0161017
910.607	0.0161127
910.685	0.0158652
910.763	0.0159805
910.841	0.0161493
910.919	0.0161308
910.997	0.0161550
911.075	0.0160515
911.154	0.0161337
911.232	0.0160497
911.310	0.0160880
911.388	0.0161761
911.466	0.0160227
911.544	0.0161367
911.622	0.0161244
911.700	0.0161166
911.779	0.0160722
911.857	0.0159957
911.935	0.0158971
912.013	0.0159371
912.091	0.0160348
912.169	0.0160168
912.247	0.0160082
912.325	0.0159082
912.404	0.0159238
912.482	0.0158537
912.560	0.0160223
912.638	0.0159751
912.716	0.0157102
912.794	0.0159133
912.872	0.0159346
912.950	0.0157304
913.029	0.0158820
913.107	0.0158232
913.185	0.0159130
913.263	0.0157800
913.341	0.0157681
913.419	0.0158913
913.497	0.0157986
913.575	0.0158109
913.654	0.0158394
913.732	0.0158983
913.810	0.0157423
913.888	0.0159172
913.966	0.0159477
914.044	0.0157524
914.122	0.0158241
914.200	0.0159342
914.279	0.0157977
914.357	0.0159692
914.435	0.0159304
914.513	0.0158911
914.591	0.0157961
914.669	0.0158148
914.747	0.0158256
914.825	0.0159753
914.904	0.0158923
914.982	0.0157804
915.060	0.0159264
915.138	0.0159459
915.216	0.0158859
915.294	0.0158983
915.372	0.0159063
915.450	0.0158881
915.529	0.0159151
915.607	0.0159115
915.685	0.0160033
915.763	0.0159633
915.841	0.0159196
915.919	0.0159459
915.997	0.0159660
916.075	0.0159686
916.154	0.0160012
916.232	0.0157880
916.310	0.0159643
916.388	0.0159677
916.466	0.0160503
916.544	0.0159338
916.622	0.0160060
916.700	0.0159177
916.779	0.0159514
916.857	0.0159283
916.935	0.0160773
917.013	0.0160039
917.091	0.0159824
917.169	0.0159929
917.247	0.0160393
917.325	0.0159590
917.404	0.0161121
917.482	0.0161494
917.560	0.0160616
917.638	0.0160929
917.716	0.0160844
917.794	0.0161420
917.872	0.0161930
917.950	0.0162275
918.029	0.0161549
918.107	0.0159677
918.185	0.0160822
918.263	0.0161872
918.341	0.0161070
918.419	0.0159954
918.497	0.0160110
918.575	0.0161111
918.654	0.0161355
918.732	0.0160892
918.810	0.0160368
918.888	0.0160564
918.966	0.0160759
919.044	0.0161152
919.122	0.0160381
919.200	0.0160595
919.279	0.0160899
919.357	0.0160553
919.435	0.0161619
919.513	0.0159299
919.591	0.0159901
919.669	0.0158878
919.747	0.0160059
919.825	0.0160633
919.904	0.0159764
