05/24/2022	20:42:31	Ver.	4.1	UNKNOWN
Optical Delay	599.981738	Delta X		0.078125	Sweeps	1	Scan Rate	0/0
Coordinates	Axis 1	NaN	Axis 2	NaN	Axis 3	NaN	Axis 4	NaN	Axis 5	NaN	Axis 6	0.000000
TX Power	0.000000	RX Power	0.000000

599.982	0.0158639
600.060	0.0157796
600.138	0.0158290
600.216	0.0156736
600.294	0.0155908
600.372	0.0156179
600.450	0.0157108
600.529	0.0156109
600.607	0.0157483
600.685	0.0156637
600.763	0.0156234
600.841	0.0156969
600.919	0.0158105
600.997	0.0159135
601.075	0.0158850
601.154	0.0157929
601.232	0.0158512
601.310	0.0159672
601.388	0.0158664
601.466	0.0157760
601.544	0.0158762
601.622	0.0157441
601.700	0.0157505
601.779	0.0158437
601.857	0.0158442
601.935	0.0159102
602.013	0.0159495
602.091	0.0159493
602.169	0.0158131
602.247	0.0158366
602.325	0.0158426
602.404	0.0159840
602.482	0.0158896
602.560	0.0157694
602.638	0.0158951
602.716	0.0159284
602.794	0.0160695
602.872	0.0160268
602.950	0.0158942
603.029	0.0159599
603.107	0.0159174
603.185	0.0160178
603.263	0.0160156
603.341	0.0161329
603.419	0.0159850
603.497	0.0160648
603.575	0.0159589
603.654	0.0159391
603.732	0.0161311
603.810	0.0161153
603.888	0.0160712
603.966	0.0160550
604.044	0.0159216
604.122	0.0159825
604.200	0.0161370
604.279	0.0160018
604.357	0.0159491
604.435	0.0160874
604.513	0.0160635
604.591	0.0158985
604.669	0.0160345
604.747	0.0160503
604.825	0.0160720
604.904	0.0160781
604.982	0.0159914
605.060	0.0160491
605.138	0.0158864
605.216	0.0159065
605.294	0.0160059
605.372	0.0159371
605.450	0.0158458
605.529	0.0159220
605.607	0.0158460
605.685	0.0157935
605.763	0.0158240
605.841	0.0159664
605.919	0.0160147
605.997	0.0157784
606.075	0.0160047
606.154	0.0159074
606.232	0.0158826
606.310	0.0160429
606.388	0.0160081
606.466	0.0159313
606.544	0.0158836
606.622	0.0158730
606.700	0.0158694
606.779	0.0159043
606.857	0.0159966
606.935	0.0157603
607.013	0.0159563
607.091	0.0159897
607.169	0.0158272
607.247	0.0159238
607.325	0.0159029
607.404	0.0160172
607.482	0.0158720
607.560	0.0158218
607.638	0.0158305
607.716	0.0160083
607.794	0.0158453
607.872	0.0160010
607.950	0.0160081
608.029	0.0161117
608.107	0.0160542
608.185	0.0159477
608.263	0.0160387
608.341	0.0159404
608.419	0.0159898
608.497	0.0160774
608.575	0.0160278
608.654	0.0159537
608.732	0.0160043
608.810	0.0159708
608.888	0.0159229
608.966	0.0161340
609.044	0.0160860
609.122	0.0161922
609.200	0.0161675
609.279	0.0160674
609.357	0.0161970
609.435	0.0161704
609.513	0.0160592
609.591	0.0159817
609.669	0.0162896
609.747	0.0162437
609.825	0.0161528
609.904	0.0162486
609.982	0.0159992
610.060	0.0161221
610.138	0.0160815
610.216	0.0159733
610.294	0.0159836
610.372	0.0160826
610.450	0.0159677
610.529	0.0159709
610.607	0.0159221
610.685	0.0161082
610.763	0.0159073
610.841	0.0159957
610.919	0.0159588
610.997	0.0160320
611.075	0.0160060
611.154	0.0160527
611.232	0.0160724
611.310	0.0160161
611.388	0.0162128
611.466	0.0161699
611.544	0.0161765
611.622	0.0161537
611.700	0.0160563
611.779	0.0162817
611.857	0.0162801
611.935	0.0162280
612.013	0.0162084
612.091	0.0161930
612.169	0.0161034
612.247	0.0161995
612.325	0.0161436
612.404	0.0161754
612.482	0.0161268
612.560	0.0160953
612.638	0.0161674
612.716	0.0161441
612.794	0.0161398
612.872	0.0159798
612.950	0.0161590
613.029	0.0160452
613.107	0.0159782
613.185	0.0160703
613.263	0.0160658
613.341	0.0159527
613.419	0.0160494
613.497	0.0160462
613.575	0.0161203
613.654	0.0160469
613.732	0.0160419
613.810	0.0160098
613.888	0.0160026
613.966	0.0161443
614.044	0.0160822
614.122	0.0160663
614.200	0.0159333
614.279	0.0162180
614.357	0.0161168
614.435	0.0159655
614.513	0.0161110
614.591	0.0161091
614.669	0.0160108
614.747	0.0160368
614.825	0.0160490
614.904	0.0160702
614.982	0.0159863
615.060	0.0161409
615.138	0.0161688
615.216	0.0160674
615.294	0.0160389
615.372	0.0159638
615.450	0.0161311
615.529	0.0160307
615.607	0.0160876
615.685	0.0159704
615.763	0.0158459
615.841	0.0159695
615.919	0.0161319
615.997	0.0161633
616.075	0.0159904
616.154	0.0158495
616.232	0.0160180
616.310	0.0161088
616.388	0.0161526
616.466	0.0161943
616.544	0.0162390
616.622	0.0160355
616.700	0.0159282
616.779	0.0160983
616.857	0.0161020
616.935	0.0160007
617.013	0.0160735
617.091	0.0160021
617.169	0.0160896
617.247	0.0160300
617.325	0.0159248
617.404	0.0160369
617.482	0.0160806
617.560	0.0159341
617.638	0.0158283
617.716	0.0160098
617.794	0.0158490
617.872	0.0159219
617.950	0.0158739
618.029	0.0159312
618.107	0.0159146
618.185	0.0159597
618.263	0.0158276
618.341	0.0159538
618.419	0.0159980
618.497	0.0160028
618.575	0.0159577
618.654	0.0160429
618.732	0.0159187
618.810	0.0159274
618.888	0.0159283
618.966	0.0158551
619.044	0.0159924
619.122	0.0158485
619.200	0.0158986
619.279	0.0159515
619.357	0.0160566
619.435	0.0160493
619.513	0.0160141
619.591	0.0160168
619.669	0.0159119
619.747	0.0159644
619.825	0.0158665
619.904	0.0160045
619.982	0.0160192
620.060	0.0160590
620.138	0.0161176
620.216	0.0159798
620.294	0.0159399
620.372	0.0159408
620.450	0.0160036
620.529	0.0159074
620.607	0.0158819
620.685	0.0159095
620.763	0.0159062
620.841	0.0158590
620.919	0.0157753
620.997	0.0156267
621.075	0.0158283
621.154	0.0159369
621.232	0.0159892
621.310	0.0159071
621.388	0.0158013
621.466	0.0157922
621.544	0.0160691
621.622	0.0160716
621.700	0.0161711
621.779	0.0161898
621.857	0.0161356
621.935	0.0162299
622.013	0.0161524
622.091	0.0162208
622.169	0.0162283
622.247	0.0161726
622.325	0.0160011
622.404	0.0160957
622.482	0.0161346
622.560	0.0160336
622.638	0.0159625
622.716	0.0159850
622.794	0.0159399
622.872	0.0157806
622.950	0.0157530
623.029	0.0158356
623.107	0.0158215
623.185	0.0157552
623.263	0.0158452
623.341	0.0158600
623.419	0.0158437
623.497	0.0159155
623.575	0.0158493
623.654	0.0158416
623.732	0.0157861
623.810	0.0157545
623.888	0.0157521
623.966	0.0157253
624.044	0.0157001
624.122	0.0157055
624.200	0.0157735
624.279	0.0157238
624.357	0.0157522
624.435	0.0157332
624.513	0.0156510
624.591	0.0155802
624.669	0.0157608
624.747	0.0158675
624.825	0.0160044
624.904	0.0159858
624.982	0.0159272
625.060	0.0160055
625.138	0.0160053
625.216	0.0161600
625.294	0.0161305
625.372	0.0160651
625.450	0.0161023
625.529	0.0161786
625.607	0.0161283
625.685	0.0160847
625.763	0.0161676
625.841	0.0162055
625.919	0.0162063
625.997	0.0161117
626.075	0.0161698
626.154	0.0161655
626.232	0.0160715
626.310	0.0160528
626.388	0.0159736
626.466	0.0159891
626.544	0.0160396
626.622	0.0158051
626.700	0.0157546
626.779	0.0156612
626.857	0.0156245
626.935	0.0156484
627.013	0.0155762
627.091	0.0153345
627.169	0.0156411
627.247	0.0156007
627.325	0.0154650
627.404	0.0155806
627.482	0.0155916
627.560	0.0157692
627.638	0.0156140
627.716	0.0157304
627.794	0.0159750
627.872	0.0158459
627.950	0.0159018
628.029	0.0161004
628.107	0.0160714
628.185	0.0162366
628.263	0.0162380
628.341	0.0163389
628.419	0.0162702
628.497	0.0165382
628.575	0.0164973
628.654	0.0166106
628.732	0.0167481
628.810	0.0168687
628.888	0.0169355
628.966	0.0168043
629.044	0.0168153
629.122	0.0168552
629.200	0.0165244
629.279	0.0164933
629.357	0.0163982
629.435	0.0162495
629.513	0.0161393
629.591	0.0159016
629.669	0.0156573
629.747	0.0154843
629.825	0.0152677
629.904	0.0150702
629.982	0.0149231
630.060	0.0150237
630.138	0.0149525
630.216	0.0149849
630.294	0.0148557
630.372	0.0148476
630.450	0.0147980
630.529	0.0148746
630.607	0.0147662
630.685	0.0147713
630.763	0.0148521
630.841	0.0148987
630.919	0.0149176
630.997	0.0150227
631.075	0.0149811
631.154	0.0149531
631.232	0.0153053
631.310	0.0154686
631.388	0.0156695
631.466	0.0159459
631.544	0.0161327
631.622	0.0164034
631.700	0.0166412
631.779	0.0170251
631.857	0.0171596
631.935	0.0174332
632.013	0.0176363
632.091	0.0176859
632.169	0.0179824
632.247	0.0181152
632.325	0.0181544
632.404	0.0182551
632.482	0.0182331
632.560	0.0182362
632.638	0.0183115
632.716	0.0180740
632.794	0.0178677
632.872	0.0178135
632.950	0.0176666
633.029	0.0173903
633.107	0.0170173
633.185	0.0168204
633.263	0.0165884
633.341	0.0160801
633.419	0.0158012
633.497	0.0154277
633.575	0.0150697
633.654	0.0148125
633.732	0.0145529
633.810	0.0143340
633.888	0.0140349
633.966	0.0136339
634.044	0.0136512
634.122	0.0133790
634.200	0.0132842
634.279	0.0133159
634.357	0.0131598
634.435	0.0131104
634.513	0.0131627
634.591	0.0133845
634.669	0.0134077
634.747	0.0135660
634.825	0.0136802
634.904	0.0142267
634.982	0.0146098
635.060	0.0150223
635.138	0.0154418
635.216	0.0159389
635.294	0.0163543
635.372	0.0169535
635.450	0.0172227
635.529	0.0179255
635.607	0.0182121
635.685	0.0186071
635.763	0.0188034
635.841	0.0190469
635.919	0.0192773
635.997	0.0192411
636.075	0.0193118
636.154	0.0194783
636.232	0.0194355
636.310	0.0193152
636.388	0.0190772
636.466	0.0187185
636.544	0.0185581
636.622	0.0182744
636.700	0.0178505
636.779	0.0175114
636.857	0.0171301
636.935	0.0166031
637.013	0.0162876
637.091	0.0157416
637.169	0.0152362
637.247	0.0149334
637.325	0.0143318
637.404	0.0140885
637.482	0.0137965
637.560	0.0134711
637.638	0.0130881
637.716	0.0129082
637.794	0.0129238
637.872	0.0126643
637.950	0.0127567
638.029	0.0127335
638.107	0.0128284
638.185	0.0130077
638.263	0.0131342
638.341	0.0132345
638.419	0.0136931
638.497	0.0140749
638.575	0.0143555
638.654	0.0146392
638.732	0.0151900
638.810	0.0154270
638.888	0.0157697
638.966	0.0160834
639.044	0.0165492
639.122	0.0168015
639.200	0.0171575
639.279	0.0174149
639.357	0.0174846
639.435	0.0175970
639.513	0.0176125
639.591	0.0176982
639.669	0.0177892
639.747	0.0177542
639.825	0.0175365
639.904	0.0174776
639.982	0.0174856
640.060	0.0174118
640.138	0.0171347
640.216	0.0170210
640.294	0.0169183
640.372	0.0168169
640.450	0.0164874
640.529	0.0163071
640.607	0.0163576
640.685	0.0161775
640.763	0.0160785
640.841	0.0157934
640.919	0.0159650
640.997	0.0158102
641.075	0.0157076
641.154	0.0158292
641.232	0.0160091
641.310	0.0159100
641.388	0.0159478
641.466	0.0160682
641.544	0.0162368
641.622	0.0162577
641.700	0.0162299
641.779	0.0162416
641.857	0.0161736
641.935	0.0162870
642.013	0.0162371
642.091	0.0161739
642.169	0.0160640
642.247	0.0160580
642.325	0.0158343
642.404	0.0158532
642.482	0.0159369
642.560	0.0156318
642.638	0.0153577
642.716	0.0152660
642.794	0.0150554
642.872	0.0148591
642.950	0.0145049
643.029	0.0143087
643.107	0.0142475
643.185	0.0139575
643.263	0.0139820
643.341	0.0137840
643.419	0.0136961
643.497	0.0138861
643.575	0.0137977
643.654	0.0138775
643.732	0.0142348
643.810	0.0143111
643.888	0.0146274
643.966	0.0148928
644.044	0.0151189
644.122	0.0154816
644.200	0.0156507
644.279	0.0160133
644.357	0.0163304
644.435	0.0163992
644.513	0.0167330
644.591	0.0171619
644.669	0.0172712
644.747	0.0175546
644.825	0.0177983
644.904	0.0179549
644.982	0.0180991
645.060	0.0182186
645.138	0.0182044
645.216	0.0182877
645.294	0.0182408
645.372	0.0181454
645.450	0.0182406
645.529	0.0180445
645.607	0.0179657
645.685	0.0177655
645.763	0.0174387
645.841	0.0173930
645.919	0.0170641
645.997	0.0168349
646.075	0.0165905
646.154	0.0163164
646.232	0.0160475
646.310	0.0158698
646.388	0.0157575
646.466	0.0152965
646.544	0.0150700
646.622	0.0149109
646.700	0.0147812
646.779	0.0146247
646.857	0.0144500
646.935	0.0143713
647.013	0.0144257
647.091	0.0143992
647.169	0.0143145
647.247	0.0142720
647.325	0.0145498
647.404	0.0145635
647.482	0.0144193
647.560	0.0144384
647.638	0.0145645
647.716	0.0147425
647.794	0.0145707
647.872	0.0147105
647.950	0.0146837
648.029	0.0147581
648.107	0.0148462
648.185	0.0149873
648.263	0.0151878
648.341	0.0151344
648.419	0.0152241
648.497	0.0154115
648.575	0.0154816
648.654	0.0155319
648.732	0.0157330
648.810	0.0156474
648.888	0.0158360
648.966	0.0159473
649.044	0.0160789
649.122	0.0161827
649.200	0.0163863
649.279	0.0164639
649.357	0.0165669
649.435	0.0166957
649.513	0.0170213
649.591	0.0172743
649.669	0.0175842
649.747	0.0176181
649.825	0.0179141
649.904	0.0181332
649.982	0.0182136
650.060	0.0183686
650.138	0.0184551
650.216	0.0183124
650.294	0.0181654
650.372	0.0180910
650.450	0.0178677
650.529	0.0177058
650.607	0.0173692
650.685	0.0170609
650.763	0.0166651
650.841	0.0163651
650.919	0.0159659
650.997	0.0156000
651.075	0.0152391
651.154	0.0148749
651.232	0.0146519
651.310	0.0144138
651.388	0.0142643
651.466	0.0139942
651.544	0.0136921
651.622	0.0134734
651.700	0.0134592
651.779	0.0133507
651.857	0.0133280
651.935	0.0131326
652.013	0.0131902
652.091	0.0132172
652.169	0.0134663
652.247	0.0137263
652.325	0.0140186
652.404	0.0143894
652.482	0.0148412
652.560	0.0152995
652.638	0.0155415
652.716	0.0160744
652.794	0.0166753
652.872	0.0169315
652.950	0.0174284
653.029	0.0175722
653.107	0.0180155
653.185	0.0181057
653.263	0.0183472
653.341	0.0182489
653.419	0.0183384
653.497	0.0182909
653.575	0.0183022
653.654	0.0180941
653.732	0.0179440
653.810	0.0178553
653.888	0.0176978
653.966	0.0173440
654.044	0.0171519
654.122	0.0168342
654.200	0.0165313
654.279	0.0163051
654.357	0.0160942
654.435	0.0157347
654.513	0.0153855
654.591	0.0153680
654.669	0.0151871
654.747	0.0150090
654.825	0.0149458
654.904	0.0149636
654.982	0.0147955
655.060	0.0148512
655.138	0.0148386
655.216	0.0149450
655.294	0.0150260
655.372	0.0150457
655.450	0.0149793
655.529	0.0150714
655.607	0.0149905
655.685	0.0150531
655.763	0.0151090
655.841	0.0153750
655.919	0.0152876
655.997	0.0153192
656.075	0.0155083
656.154	0.0156685
656.232	0.0159945
656.310	0.0159774
656.388	0.0162753
656.466	0.0162679
656.544	0.0164706
656.622	0.0166238
656.700	0.0166983
656.779	0.0166581
656.857	0.0166380
656.935	0.0167186
657.013	0.0165827
657.091	0.0163618
657.169	0.0163653
657.247	0.0163879
657.325	0.0163479
657.404	0.0162466
657.482	0.0162009
657.560	0.0161602
657.638	0.0161676
657.716	0.0161540
657.794	0.0160194
657.872	0.0159602
657.950	0.0159251
658.029	0.0159721
658.107	0.0158463
658.185	0.0157955
658.263	0.0157402
658.341	0.0157775
658.419	0.0156205
658.497	0.0157932
658.575	0.0161029
658.654	0.0161536
658.732	0.0161283
658.810	0.0161783
658.888	0.0164652
658.966	0.0165599
659.044	0.0165868
659.122	0.0166071
659.200	0.0165788
659.279	0.0167357
659.357	0.0167345
659.435	0.0164820
659.513	0.0164291
659.591	0.0164691
659.669	0.0165159
659.747	0.0163645
659.825	0.0164006
659.904	0.0163679
659.982	0.0162896
660.060	0.0162806
660.138	0.0161575
660.216	0.0161132
660.294	0.0160775
660.372	0.0160606
660.450	0.0159687
660.529	0.0158790
660.607	0.0157290
660.685	0.0156515
660.763	0.0155473
660.841	0.0155250
660.919	0.0152911
660.997	0.0152860
661.075	0.0150645
661.154	0.0151290
661.232	0.0151746
661.310	0.0151456
661.388	0.0152736
661.466	0.0154493
661.544	0.0155936
661.622	0.0153960
661.700	0.0156163
661.779	0.0158763
661.857	0.0158246
661.935	0.0158263
662.013	0.0159303
662.091	0.0160194
662.169	0.0160342
662.247	0.0160375
662.325	0.0159722
662.404	0.0161221
662.482	0.0160954
662.560	0.0160123
662.638	0.0160542
662.716	0.0160939
662.794	0.0163045
662.872	0.0161729
662.950	0.0162941
663.029	0.0161292
663.107	0.0160212
663.185	0.0161143
663.263	0.0160548
663.341	0.0160414
663.419	0.0159104
663.497	0.0159618
663.575	0.0159777
663.654	0.0159356
663.732	0.0160246
663.810	0.0159031
663.888	0.0158089
663.966	0.0158324
664.044	0.0159021
664.122	0.0160195
664.200	0.0160358
664.279	0.0161377
664.357	0.0161054
664.435	0.0159657
664.513	0.0161543
664.591	0.0162657
664.669	0.0161700
664.747	0.0161453
664.825	0.0161975
664.904	0.0160730
664.982	0.0160525
665.060	0.0162773
665.138	0.0162697
665.216	0.0161208
665.294	0.0163492
665.372	0.0164803
665.450	0.0165129
665.529	0.0164633
665.607	0.0165051
665.685	0.0166228
665.763	0.0167992
665.841	0.0168769
665.919	0.0169186
665.997	0.0171044
666.075	0.0171741
666.154	0.0171095
666.232	0.0171557
666.310	0.0171376
666.388	0.0174109
666.466	0.0173550
666.544	0.0172327
666.622	0.0171788
666.700	0.0170860
666.779	0.0168731
666.857	0.0166367
666.935	0.0162132
667.013	0.0156948
667.091	0.0154575
667.169	0.0149869
667.247	0.0145189
667.325	0.0142562
667.404	0.0139664
667.482	0.0135826
667.560	0.0133659
667.638	0.0131212
667.716	0.0129533
667.794	0.0128161
667.872	0.0127760
667.950	0.0129007
668.029	0.0126984
668.107	0.0128483
668.185	0.0130102
668.263	0.0132634
668.341	0.0132543
668.419	0.0133873
668.497	0.0135900
668.575	0.0137309
668.654	0.0139225
668.732	0.0141849
668.810	0.0144522
668.888	0.0147925
668.966	0.0152167
669.044	0.0153915
669.122	0.0158006
669.200	0.0162247
669.279	0.0165224
669.357	0.0169389
669.435	0.0174742
669.513	0.0177431
669.591	0.0180970
669.669	0.0182265
669.747	0.0185167
669.825	0.0187436
669.904	0.0189975
669.982	0.0191546
670.060	0.0189973
670.138	0.0192616
670.216	0.0192683
670.294	0.0191637
670.372	0.0191335
670.450	0.0191359
670.529	0.0190760
670.607	0.0188215
670.685	0.0186952
670.763	0.0183699
670.841	0.0181383
670.919	0.0178397
670.997	0.0175294
671.075	0.0171085
671.154	0.0167687
671.232	0.0163138
671.310	0.0158895
671.388	0.0156059
671.466	0.0150847
671.544	0.0148514
671.622	0.0145962
671.700	0.0141157
671.779	0.0138543
671.857	0.0136345
671.935	0.0135140
672.013	0.0132993
672.091	0.0134080
672.169	0.0133170
672.247	0.0133186
672.325	0.0133666
672.404	0.0135173
672.482	0.0136620
672.560	0.0135379
672.638	0.0139110
672.716	0.0138869
672.794	0.0139677
672.872	0.0142482
672.950	0.0142560
673.029	0.0144573
673.107	0.0145814
673.185	0.0146450
673.263	0.0148807
673.341	0.0149458
673.419	0.0150894
673.497	0.0153305
673.575	0.0155457
673.654	0.0159859
673.732	0.0159925
673.810	0.0162070
673.888	0.0164423
673.966	0.0166431
674.044	0.0169188
674.122	0.0171483
674.200	0.0173685
674.279	0.0174364
674.357	0.0175139
674.435	0.0176340
674.513	0.0175829
674.591	0.0178265
674.669	0.0177047
674.747	0.0177375
674.825	0.0175163
674.904	0.0175510
674.982	0.0174876
675.060	0.0173727
675.138	0.0173956
675.216	0.0172523
675.294	0.0172736
675.372	0.0170109
675.450	0.0172321
675.529	0.0170402
675.607	0.0169080
675.685	0.0169476
675.763	0.0168271
675.841	0.0166656
675.919	0.0166687
675.997	0.0165166
676.075	0.0163529
676.154	0.0161060
676.232	0.0159356
676.310	0.0158696
676.388	0.0156182
676.466	0.0155719
676.544	0.0154784
676.622	0.0152103
676.700	0.0150744
676.779	0.0152462
676.857	0.0153461
676.935	0.0153278
677.013	0.0153663
677.091	0.0154176
677.169	0.0155003
677.247	0.0154698
677.325	0.0155657
677.404	0.0157500
677.482	0.0157209
677.560	0.0157426
677.638	0.0158167
677.716	0.0157658
677.794	0.0158073
677.872	0.0155573
677.950	0.0154486
678.029	0.0156018
678.107	0.0157075
678.185	0.0156975
678.263	0.0155280
678.341	0.0157423
678.419	0.0157188
678.497	0.0157307
678.575	0.0158675
678.654	0.0159164
678.732	0.0159733
678.810	0.0160282
678.888	0.0160466
678.966	0.0159676
679.044	0.0161068
679.122	0.0160149
679.200	0.0161187
679.279	0.0162289
679.357	0.0161573
679.435	0.0159527
679.513	0.0159393
679.591	0.0159548
679.669	0.0158579
679.747	0.0157758
679.825	0.0157514
679.904	0.0155046
679.982	0.0155993
680.060	0.0155261
680.138	0.0153059
680.216	0.0153155
680.294	0.0153235
680.372	0.0151666
680.450	0.0152273
680.529	0.0153318
680.607	0.0151869
680.685	0.0153056
680.763	0.0153019
680.841	0.0153924
680.919	0.0155688
680.997	0.0155847
681.075	0.0156116
681.154	0.0157695
681.232	0.0159302
681.310	0.0159795
681.388	0.0162238
681.466	0.0161481
681.544	0.0163374
681.622	0.0164999
681.700	0.0165427
681.779	0.0166280
681.857	0.0167909
681.935	0.0166372
682.013	0.0167152
682.091	0.0166925
682.169	0.0164568
682.247	0.0164554
682.325	0.0164313
682.404	0.0164507
682.482	0.0163380
682.560	0.0162724
682.638	0.0163135
682.716	0.0163548
682.794	0.0163382
682.872	0.0162849
682.950	0.0164337
683.029	0.0164309
683.107	0.0166667
683.185	0.0165475
683.263	0.0166682
683.341	0.0167961
683.419	0.0167970
683.497	0.0167092
683.575	0.0167747
683.654	0.0166926
683.732	0.0165739
683.810	0.0163403
683.888	0.0163875
683.966	0.0162886
684.044	0.0160790
684.122	0.0158917
684.200	0.0155898
684.279	0.0157666
684.357	0.0155957
684.435	0.0153589
684.513	0.0152398
684.591	0.0152713
684.669	0.0152270
684.747	0.0151622
684.825	0.0150942
684.904	0.0152702
684.982	0.0152810
685.060	0.0151618
685.138	0.0152125
685.216	0.0153203
685.294	0.0152929
685.372	0.0152728
685.450	0.0153834
685.529	0.0151890
685.607	0.0152036
685.685	0.0153102
685.763	0.0152784
685.841	0.0154939
685.919	0.0155334
685.997	0.0156824
686.075	0.0156362
686.154	0.0157344
686.232	0.0157562
686.310	0.0157493
686.388	0.0158630
686.466	0.0158231
686.544	0.0159184
686.622	0.0158582
686.700	0.0159364
686.779	0.0160021
686.857	0.0158591
686.935	0.0158120
687.013	0.0160178
687.091	0.0159985
687.169	0.0157646
687.247	0.0157630
687.325	0.0157967
687.404	0.0158493
687.482	0.0158757
687.560	0.0158362
687.638	0.0159060
687.716	0.0159100
687.794	0.0161178
687.872	0.0162328
687.950	0.0161605
688.029	0.0161977
688.107	0.0161446
688.185	0.0161604
688.263	0.0162936
688.341	0.0163398
688.419	0.0164396
688.497	0.0162707
688.575	0.0164266
688.654	0.0163244
688.732	0.0163021
688.810	0.0164494
688.888	0.0164149
688.966	0.0162711
689.044	0.0165839
689.122	0.0165972
689.200	0.0164848
689.279	0.0168671
689.357	0.0167834
689.435	0.0169170
689.513	0.0169358
689.591	0.0169923
689.669	0.0169781
689.747	0.0170255
689.825	0.0169069
689.904	0.0168801
689.982	0.0168279
690.060	0.0166497
690.138	0.0165939
690.216	0.0164841
690.294	0.0161478
690.372	0.0159403
690.450	0.0157646
690.529	0.0157569
690.607	0.0154890
690.685	0.0151645
690.763	0.0151652
690.841	0.0151285
690.919	0.0149124
690.997	0.0149880
691.075	0.0148701
691.154	0.0148782
691.232	0.0150179
691.310	0.0149986
691.388	0.0150076
691.466	0.0149915
691.544	0.0150564
691.622	0.0151717
691.700	0.0151715
691.779	0.0152961
691.857	0.0152270
691.935	0.0154191
692.013	0.0156442
692.091	0.0156563
692.169	0.0157597
692.247	0.0159832
692.325	0.0160430
692.404	0.0160240
692.482	0.0160783
692.560	0.0163495
692.638	0.0162449
692.716	0.0161146
692.794	0.0162640
692.872	0.0163475
692.950	0.0162711
693.029	0.0162946
693.107	0.0161035
693.185	0.0162576
693.263	0.0162110
693.341	0.0162175
693.419	0.0163559
693.497	0.0163343
693.575	0.0163960
693.654	0.0162994
693.732	0.0162845
693.810	0.0164639
693.888	0.0165149
693.966	0.0165820
694.044	0.0164687
694.122	0.0165811
694.200	0.0164916
694.279	0.0164618
694.357	0.0166023
694.435	0.0164474
694.513	0.0164833
694.591	0.0161445
694.669	0.0163095
694.747	0.0164164
694.825	0.0161458
694.904	0.0161594
694.982	0.0161565
695.060	0.0159579
695.138	0.0157667
695.216	0.0157219
695.294	0.0155996
695.372	0.0156812
695.450	0.0154665
695.529	0.0152902
695.607	0.0153813
695.685	0.0152595
695.763	0.0150588
695.841	0.0149601
695.919	0.0150085
695.997	0.0150706
696.075	0.0150907
696.154	0.0151169
696.232	0.0151840
696.310	0.0152300
696.388	0.0153410
696.466	0.0153996
696.544	0.0153426
696.622	0.0156236
696.700	0.0157245
696.779	0.0158259
696.857	0.0158892
696.935	0.0159084
697.013	0.0160370
697.091	0.0161898
697.169	0.0163602
697.247	0.0164819
697.325	0.0164098
697.404	0.0165077
697.482	0.0165997
697.560	0.0164767
697.638	0.0166682
697.716	0.0165434
697.794	0.0166136
697.872	0.0164085
697.950	0.0163844
698.029	0.0164792
698.107	0.0164622
698.185	0.0163027
698.263	0.0162572
698.341	0.0161843
698.419	0.0161279
698.497	0.0161154
698.575	0.0158599
698.654	0.0156750
698.732	0.0157804
698.810	0.0155626
698.888	0.0155496
698.966	0.0154424
699.044	0.0153267
699.122	0.0154441
699.200	0.0153073
699.279	0.0153817
699.357	0.0154687
699.435	0.0154276
699.513	0.0154475
699.591	0.0156721
699.669	0.0156038
699.747	0.0156975
699.825	0.0157774
699.904	0.0157230
699.982	0.0159145
700.060	0.0159550
700.138	0.0158698
700.216	0.0160024
700.294	0.0160834
700.372	0.0161282
700.450	0.0160987
700.529	0.0161270
700.607	0.0160728
700.685	0.0162666
700.763	0.0163453
700.841	0.0162428
700.919	0.0160823
700.997	0.0162702
701.075	0.0161563
701.154	0.0160401
701.232	0.0160903
701.310	0.0159852
701.388	0.0159433
701.466	0.0159440
701.544	0.0157230
701.622	0.0158083
701.700	0.0158005
701.779	0.0157148
701.857	0.0157283
701.935	0.0158434
702.013	0.0158048
702.091	0.0158270
702.169	0.0159590
702.247	0.0158498
702.325	0.0157674
702.404	0.0160331
702.482	0.0159879
702.560	0.0159417
702.638	0.0159573
702.716	0.0158907
702.794	0.0160191
702.872	0.0159860
702.950	0.0159393
703.029	0.0159381
703.107	0.0158675
703.185	0.0158130
703.263	0.0157870
703.341	0.0157656
703.419	0.0158071
703.497	0.0158028
703.575	0.0158714
703.654	0.0158502
703.732	0.0158267
703.810	0.0158073
703.888	0.0157494
703.966	0.0157202
704.044	0.0158859
704.122	0.0156022
704.200	0.0158100
704.279	0.0157006
704.357	0.0158769
704.435	0.0158340
704.513	0.0159566
704.591	0.0159489
704.669	0.0159689
704.747	0.0160423
704.825	0.0160141
704.904	0.0161014
704.982	0.0160867
705.060	0.0161704
705.138	0.0163127
705.216	0.0162145
705.294	0.0161982
705.372	0.0161796
705.450	0.0161407
705.529	0.0160555
705.607	0.0161391
705.685	0.0161300
705.763	0.0160760
705.841	0.0159355
705.919	0.0158897
705.997	0.0159348
706.075	0.0158932
706.154	0.0158811
706.232	0.0158485
706.310	0.0157907
706.388	0.0157915
706.466	0.0156253
706.544	0.0154585
706.622	0.0155055
706.700	0.0156074
706.779	0.0155984
706.857	0.0153255
706.935	0.0153545
707.013	0.0154521
707.091	0.0154876
707.169	0.0155298
707.247	0.0153185
707.325	0.0155186
707.404	0.0156220
707.482	0.0157817
707.560	0.0156528
707.638	0.0159309
707.716	0.0160391
707.794	0.0160715
707.872	0.0162261
707.950	0.0162208
708.029	0.0162925
708.107	0.0163762
708.185	0.0164103
708.263	0.0164779
708.341	0.0163902
708.419	0.0163432
708.497	0.0164999
708.575	0.0164270
708.654	0.0163438
708.732	0.0163673
708.810	0.0162736
708.888	0.0163010
708.966	0.0162280
709.044	0.0162592
709.122	0.0161912
709.200	0.0162286
709.279	0.0162258
709.357	0.0161059
709.435	0.0161462
709.513	0.0162758
709.591	0.0162685
709.669	0.0161297
709.747	0.0160072
709.825	0.0159521
709.904	0.0159109
709.982	0.0159306
710.060	0.0160308
710.138	0.0159172
710.216	0.0159426
710.294	0.0158920
710.372	0.0158762
710.450	0.0159389
710.529	0.0159274
710.607	0.0157954
710.685	0.0159164
710.763	0.0160012
710.841	0.0158434
710.919	0.0159988
710.997	0.0158643
711.075	0.0156850
711.154	0.0157955
711.232	0.0158548
711.310	0.0158348
711.388	0.0157127
711.466	0.0157970
711.544	0.0157932
711.622	0.0158683
711.700	0.0157855
711.779	0.0158764
711.857	0.0157368
711.935	0.0159837
712.013	0.0157932
712.091	0.0159313
712.169	0.0158559
712.247	0.0158508
712.325	0.0160213
712.404	0.0160788
712.482	0.0161208
712.560	0.0160717
712.638	0.0160777
712.716	0.0162470
712.794	0.0160892
712.872	0.0162953
712.950	0.0161935
713.029	0.0160957
713.107	0.0160662
713.185	0.0162365
713.263	0.0161624
713.341	0.0159464
713.419	0.0159769
713.497	0.0159989
713.575	0.0159879
713.654	0.0159748
713.732	0.0158645
713.810	0.0159454
713.888	0.0157867
713.966	0.0157395
714.044	0.0157097
714.122	0.0157666
714.200	0.0157355
714.279	0.0156993
714.357	0.0157711
714.435	0.0156717
714.513	0.0156365
714.591	0.0158257
714.669	0.0158636
714.747	0.0156971
714.825	0.0158372
714.904	0.0157552
714.982	0.0158067
715.060	0.0158524
715.138	0.0160521
715.216	0.0160627
715.294	0.0158559
715.372	0.0159840
715.450	0.0160428
715.529	0.0160885
715.607	0.0162063
715.685	0.0161563
715.763	0.0161327
715.841	0.0159547
715.919	0.0160133
715.997	0.0159498
716.075	0.0160434
716.154	0.0161842
716.232	0.0159938
716.310	0.0159925
716.388	0.0158682
716.466	0.0159783
716.544	0.0158929
716.622	0.0158090
716.700	0.0158456
716.779	0.0157990
716.857	0.0157323
716.935	0.0157352
717.013	0.0157223
717.091	0.0156924
717.169	0.0157764
717.247	0.0157372
717.325	0.0157589
717.404	0.0157609
717.482	0.0158537
717.560	0.0157155
717.638	0.0157187
717.716	0.0158080
717.794	0.0158664
717.872	0.0159106
717.950	0.0158146
718.029	0.0158701
718.107	0.0160753
718.185	0.0160600
718.263	0.0158576
718.341	0.0160480
718.419	0.0161335
718.497	0.0161138
718.575	0.0161295
718.654	0.0161231
718.732	0.0161517
718.810	0.0162242
718.888	0.0160575
718.966	0.0159973
719.044	0.0160724
719.122	0.0160261
719.200	0.0160741
719.279	0.0158363
719.357	0.0158645
719.435	0.0159010
719.513	0.0158969
719.591	0.0159182
719.669	0.0158134
719.747	0.0157839
719.825	0.0156892
719.904	0.0158664
719.982	0.0156682
720.060	0.0156688
720.138	0.0156287
720.216	0.0156030
720.294	0.0154959
720.372	0.0154951
720.450	0.0155096
720.529	0.0154020
720.607	0.0154961
720.685	0.0155269
720.763	0.0154712
720.841	0.0154194
720.919	0.0154772
720.997	0.0155361
721.075	0.0156060
721.154	0.0155769
721.232	0.0155659
721.310	0.0156488
721.388	0.0156467
721.466	0.0154877
721.544	0.0156154
721.622	0.0157784
721.700	0.0157629
721.779	0.0160423
721.857	0.0158414
721.935	0.0159011
722.013	0.0160341
722.091	0.0161732
722.169	0.0160840
722.247	0.0159272
722.325	0.0161700
722.404	0.0161674
722.482	0.0162568
722.560	0.0162400
722.638	0.0162667
722.716	0.0163173
722.794	0.0161329
722.872	0.0160871
722.950	0.0162431
723.029	0.0162151
723.107	0.0162363
723.185	0.0163917
723.263	0.0162323
723.341	0.0160866
723.419	0.0160880
723.497	0.0163371
723.575	0.0162820
723.654	0.0160503
723.732	0.0161315
723.810	0.0161100
723.888	0.0160596
723.966	0.0160289
724.044	0.0159919
724.122	0.0160373
724.200	0.0158044
724.279	0.0158399
724.357	0.0159605
724.435	0.0158762
724.513	0.0157426
724.591	0.0158860
724.669	0.0159472
724.747	0.0157215
724.825	0.0158254
724.904	0.0157880
724.982	0.0158430
725.060	0.0157874
725.138	0.0157487
725.216	0.0158013
725.294	0.0158207
725.372	0.0158329
725.450	0.0157912
725.529	0.0158960
725.607	0.0159153
725.685	0.0159067
725.763	0.0157682
725.841	0.0159122
725.919	0.0159155
725.997	0.0158690
726.075	0.0158868
726.154	0.0158609
726.232	0.0158537
726.310	0.0158342
726.388	0.0156995
726.466	0.0155848
726.544	0.0157555
726.622	0.0158523
726.700	0.0158384
726.779	0.0156885
726.857	0.0157191
726.935	0.0157304
727.013	0.0158150
727.091	0.0158356
727.169	0.0158681
727.247	0.0157561
727.325	0.0157134
727.404	0.0157469
727.482	0.0158360
727.560	0.0158001
727.638	0.0157156
727.716	0.0158494
727.794	0.0160041
727.872	0.0160946
727.950	0.0160345
728.029	0.0159975
728.107	0.0161543
728.185	0.0160447
728.263	0.0158644
728.341	0.0160271
728.419	0.0160802
728.497	0.0159782
728.575	0.0161816
728.654	0.0161990
728.732	0.0161956
728.810	0.0160977
728.888	0.0162700
728.966	0.0161901
729.044	0.0163663
729.122	0.0162727
729.200	0.0163429
729.279	0.0163982
729.357	0.0163417
729.435	0.0162076
729.513	0.0160543
729.591	0.0161615
729.669	0.0162350
729.747	0.0159972
729.825	0.0160619
729.904	0.0159222
729.982	0.0159742
730.060	0.0159294
730.138	0.0158112
730.216	0.0158802
730.294	0.0157283
730.372	0.0156068
730.450	0.0157265
730.529	0.0158844
730.607	0.0157527
730.685	0.0156322
730.763	0.0156370
730.841	0.0156544
730.919	0.0155161
730.997	0.0155191
731.075	0.0156224
731.154	0.0154940
731.232	0.0156260
731.310	0.0156537
731.388	0.0157796
731.466	0.0157487
731.544	0.0158452
731.622	0.0158999
731.700	0.0159689
731.779	0.0159480
731.857	0.0159956
731.935	0.0160808
732.013	0.0160986
732.091	0.0162177
732.169	0.0162724
732.247	0.0161848
732.325	0.0163519
732.404	0.0164258
732.482	0.0165386
732.560	0.0165076
732.638	0.0163763
732.716	0.0164142
732.794	0.0164309
732.872	0.0163582
732.950	0.0164466
733.029	0.0164903
733.107	0.0164059
733.185	0.0163651
733.263	0.0162905
733.341	0.0163269
733.419	0.0163023
733.497	0.0160841
733.575	0.0160220
733.654	0.0160058
733.732	0.0159571
733.810	0.0157877
733.888	0.0157941
733.966	0.0158536
734.044	0.0157359
734.122	0.0157172
734.200	0.0158138
734.279	0.0155984
734.357	0.0155394
734.435	0.0157017
734.513	0.0155278
734.591	0.0155898
734.669	0.0156514
734.747	0.0157191
734.825	0.0155675
734.904	0.0156590
734.982	0.0156976
735.060	0.0156892
735.138	0.0158855
735.216	0.0157296
735.294	0.0157523
735.372	0.0158077
735.450	0.0159251
735.529	0.0159051
735.607	0.0159311
735.685	0.0160379
735.763	0.0159412
735.841	0.0160545
735.919	0.0160453
735.997	0.0161151
736.075	0.0160693
736.154	0.0160094
736.232	0.0162268
736.310	0.0160888
736.388	0.0161203
736.466	0.0159971
736.544	0.0160125
736.622	0.0161588
736.700	0.0160726
736.779	0.0160252
736.857	0.0158577
736.935	0.0159414
737.013	0.0158698
737.091	0.0157700
737.169	0.0159477
737.247	0.0158551
737.325	0.0156911
737.404	0.0156217
737.482	0.0157264
737.560	0.0157655
737.638	0.0157114
737.716	0.0156391
737.794	0.0156438
737.872	0.0155237
737.950	0.0156136
738.029	0.0157151
738.107	0.0157129
738.185	0.0156721
738.263	0.0156396
738.341	0.0157770
738.419	0.0157195
738.497	0.0157903
738.575	0.0158210
738.654	0.0157655
738.732	0.0158278
738.810	0.0159248
738.888	0.0159134
738.966	0.0159542
739.044	0.0158715
739.122	0.0161101
739.200	0.0159081
739.279	0.0159427
739.357	0.0161139
739.435	0.0160079
739.513	0.0159370
739.591	0.0160352
739.669	0.0160619
739.747	0.0160114
739.825	0.0158988
739.904	0.0158920
739.982	0.0158929
740.060	0.0159286
740.138	0.0158882
740.216	0.0157962
740.294	0.0159755
740.372	0.0157980
740.450	0.0159018
740.529	0.0160911
740.607	0.0159466
740.685	0.0156950
740.763	0.0160168
740.841	0.0159106
740.919	0.0159612
740.997	0.0160845
741.075	0.0160843
741.154	0.0160577
741.232	0.0159709
741.310	0.0160155
741.388	0.0162070
741.466	0.0160294
741.544	0.0161195
741.622	0.0163560
741.700	0.0164268
741.779	0.0162328
741.857	0.0161856
741.935	0.0163820
742.013	0.0162427
742.091	0.0162619
742.169	0.0161230
742.247	0.0162552
742.325	0.0163306
742.404	0.0163190
742.482	0.0163030
742.560	0.0161256
742.638	0.0161536
742.716	0.0161451
742.794	0.0160917
742.872	0.0162191
742.950	0.0161169
743.029	0.0158922
743.107	0.0158377
743.185	0.0157851
743.263	0.0157324
743.341	0.0156989
743.419	0.0155743
743.497	0.0157312
743.575	0.0157312
743.654	0.0156206
743.732	0.0156187
743.810	0.0156115
743.888	0.0155952
743.966	0.0155584
744.044	0.0156270
744.122	0.0156652
744.200	0.0156936
744.279	0.0155816
744.357	0.0156144
744.435	0.0156738
744.513	0.0156974
744.591	0.0157419
744.669	0.0156583
744.747	0.0158913
744.825	0.0158250
744.904	0.0158852
744.982	0.0159209
745.060	0.0157343
745.138	0.0159396
745.216	0.0157936
745.294	0.0159315
745.372	0.0159540
745.450	0.0157998
745.529	0.0159858
745.607	0.0161284
745.685	0.0160451
745.763	0.0161031
745.841	0.0162925
745.919	0.0162733
745.997	0.0163071
746.075	0.0161240
746.154	0.0162127
746.232	0.0162633
746.310	0.0160744
746.388	0.0160548
746.466	0.0161298
746.544	0.0162830
746.622	0.0161708
746.700	0.0162030
746.779	0.0161115
746.857	0.0161392
746.935	0.0162304
747.013	0.0160728
747.091	0.0161788
747.169	0.0161264
747.247	0.0161580
747.325	0.0159972
747.404	0.0159622
747.482	0.0160912
747.560	0.0158939
747.638	0.0160278
747.716	0.0159261
747.794	0.0158629
747.872	0.0158789
747.950	0.0157697
748.029	0.0158723
748.107	0.0158718
748.185	0.0156975
748.263	0.0156918
748.341	0.0158249
748.419	0.0156898
748.497	0.0158212
748.575	0.0157540
748.654	0.0156050
748.732	0.0157887
748.810	0.0158144
748.888	0.0158505
748.966	0.0158375
749.044	0.0158234
749.122	0.0158996
749.200	0.0158350
749.279	0.0159744
749.357	0.0160034
749.435	0.0159409
749.513	0.0159329
749.591	0.0160039
749.669	0.0161182
749.747	0.0161592
749.825	0.0160954
749.904	0.0160892
749.982	0.0162185
750.060	0.0160453
750.138	0.0161951
750.216	0.0161699
750.294	0.0162713
750.372	0.0162003
750.450	0.0161084
750.529	0.0159550
750.607	0.0160698
750.685	0.0159944
750.763	0.0160744
750.841	0.0160203
750.919	0.0159581
750.997	0.0160250
751.075	0.0159273
751.154	0.0158231
751.232	0.0157690
751.310	0.0157747
751.388	0.0159739
751.466	0.0157352
751.544	0.0156590
751.622	0.0156798
751.700	0.0158022
751.779	0.0157910
751.857	0.0157993
751.935	0.0157911
752.013	0.0157550
752.091	0.0157884
752.169	0.0158468
752.247	0.0156393
752.325	0.0159329
752.404	0.0159538
752.482	0.0159534
752.560	0.0159816
752.638	0.0159056
752.716	0.0159655
752.794	0.0161345
752.872	0.0161304
752.950	0.0161501
753.029	0.0162295
753.107	0.0161603
753.185	0.0161932
753.263	0.0164021
753.341	0.0162377
753.419	0.0163199
753.497	0.0164297
753.575	0.0163333
753.654	0.0164468
753.732	0.0163998
753.810	0.0163978
753.888	0.0165333
753.966	0.0163165
754.044	0.0164169
754.122	0.0164791
754.200	0.0162834
754.279	0.0163580
754.357	0.0162650
754.435	0.0162932
754.513	0.0162847
754.591	0.0162757
754.669	0.0162623
754.747	0.0161592
754.825	0.0160284
754.904	0.0161797
754.982	0.0160812
755.060	0.0160652
755.138	0.0159837
755.216	0.0160779
755.294	0.0161153
755.372	0.0160770
755.450	0.0160126
755.529	0.0160106
755.607	0.0159827
755.685	0.0158820
755.763	0.0159482
755.841	0.0158539
755.919	0.0158649
755.997	0.0158186
756.075	0.0158116
756.154	0.0158355
756.232	0.0158940
756.310	0.0159260
756.388	0.0158419
756.466	0.0157858
756.544	0.0160057
756.622	0.0158733
756.700	0.0158838
756.779	0.0159424
756.857	0.0158074
756.935	0.0159023
757.013	0.0159499
757.091	0.0158582
757.169	0.0157378
757.247	0.0158588
757.325	0.0157124
757.404	0.0156754
757.482	0.0158704
757.560	0.0157069
757.638	0.0156388
757.716	0.0156387
757.794	0.0156862
757.872	0.0156153
757.950	0.0155643
758.029	0.0156658
758.107	0.0154804
758.185	0.0155350
758.263	0.0156639
758.341	0.0155624
758.419	0.0156100
758.497	0.0156387
758.575	0.0156361
758.654	0.0155670
758.732	0.0156561
758.810	0.0157568
758.888	0.0159141
758.966	0.0158317
759.044	0.0159531
759.122	0.0158428
759.200	0.0158334
759.279	0.0160139
759.357	0.0160564
759.435	0.0160552
759.513	0.0160068
759.591	0.0159936
759.669	0.0159938
759.747	0.0160703
759.825	0.0161650
759.904	0.0160407
759.982	0.0160341
760.060	0.0161176
760.138	0.0159814
760.216	0.0160685
760.294	0.0162244
760.372	0.0161403
760.450	0.0160201
760.529	0.0160707
760.607	0.0160015
760.685	0.0159965
760.763	0.0160156
760.841	0.0159138
760.919	0.0160101
760.997	0.0160432
761.075	0.0160471
761.154	0.0159471
761.232	0.0160689
761.310	0.0161275
761.388	0.0160893
761.466	0.0160509
761.544	0.0160667
761.622	0.0161697
761.700	0.0160421
761.779	0.0160675
761.857	0.0160902
761.935	0.0161210
762.013	0.0160887
762.091	0.0161877
762.169	0.0162675
762.247	0.0163321
762.325	0.0163202
762.404	0.0163905
762.482	0.0163992
762.560	0.0164070
762.638	0.0163198
762.716	0.0162031
762.794	0.0162886
762.872	0.0163023
762.950	0.0162904
763.029	0.0161458
763.107	0.0160082
763.185	0.0159965
763.263	0.0159270
763.341	0.0159280
763.419	0.0159302
763.497	0.0157887
763.575	0.0158202
763.654	0.0157396
763.732	0.0155804
763.810	0.0156254
763.888	0.0156337
763.966	0.0156170
764.044	0.0154948
764.122	0.0154121
764.200	0.0153938
764.279	0.0154607
764.357	0.0154859
764.435	0.0154066
764.513	0.0154979
764.591	0.0154546
764.669	0.0154118
764.747	0.0154592
764.825	0.0154802
764.904	0.0154015
764.982	0.0156567
765.060	0.0156048
765.138	0.0156501
765.216	0.0157030
765.294	0.0157256
765.372	0.0158298
765.450	0.0160513
765.529	0.0160715
765.607	0.0160250
765.685	0.0160555
765.763	0.0161652
765.841	0.0160645
765.919	0.0162895
765.997	0.0163751
766.075	0.0164068
766.154	0.0164562
766.232	0.0165068
766.310	0.0164488
766.388	0.0164048
766.466	0.0164636
766.544	0.0164902
766.622	0.0165800
766.700	0.0164880
766.779	0.0164547
766.857	0.0165028
766.935	0.0164132
767.013	0.0163708
767.091	0.0163130
767.169	0.0164277
767.247	0.0162883
767.325	0.0163562
767.404	0.0161996
767.482	0.0163206
767.560	0.0162923
767.638	0.0160384
767.716	0.0160059
767.794	0.0160677
767.872	0.0158445
767.950	0.0159180
768.029	0.0158340
768.107	0.0158261
768.185	0.0159180
768.263	0.0156081
768.341	0.0157108
768.419	0.0157227
768.497	0.0155893
768.575	0.0156570
768.654	0.0158025
768.732	0.0158285
768.810	0.0157851
768.888	0.0156544
768.966	0.0156227
769.044	0.0156237
769.122	0.0156333
769.200	0.0156638
769.279	0.0156210
769.357	0.0155820
769.435	0.0157220
769.513	0.0156749
769.591	0.0155460
769.669	0.0156190
769.747	0.0156866
769.825	0.0157961
769.904	0.0157297
769.982	0.0156303
770.060	0.0157065
770.138	0.0156339
770.216	0.0157204
770.294	0.0156776
770.372	0.0158540
770.450	0.0157627
770.529	0.0158318
770.607	0.0158810
770.685	0.0158815
770.763	0.0157596
770.841	0.0158813
770.919	0.0161652
770.997	0.0161598
771.075	0.0160366
771.154	0.0162003
771.232	0.0162788
771.310	0.0162503
771.388	0.0160646
771.466	0.0162199
771.544	0.0162879
771.622	0.0162801
771.700	0.0164246
771.779	0.0162756
771.857	0.0162003
771.935	0.0161837
772.013	0.0162463
772.091	0.0160648
772.169	0.0162231
772.247	0.0162398
772.325	0.0162127
772.404	0.0161615
772.482	0.0162758
772.560	0.0160352
772.638	0.0160170
772.716	0.0161382
772.794	0.0161013
772.872	0.0160825
772.950	0.0160106
773.029	0.0160198
773.107	0.0160445
773.185	0.0160223
773.263	0.0158961
773.341	0.0159938
773.419	0.0160574
773.497	0.0160630
773.575	0.0159344
773.654	0.0159579
773.732	0.0158151
773.810	0.0159128
773.888	0.0160483
773.966	0.0158974
774.044	0.0158930
774.122	0.0159845
774.200	0.0159995
774.279	0.0159666
774.357	0.0159306
774.435	0.0159598
774.513	0.0160347
774.591	0.0158608
774.669	0.0158685
774.747	0.0160250
774.825	0.0158629
774.904	0.0158876
774.982	0.0159164
775.060	0.0160030
775.138	0.0160412
775.216	0.0160917
775.294	0.0159357
775.372	0.0160260
775.450	0.0159225
775.529	0.0160126
775.607	0.0160600
775.685	0.0159029
775.763	0.0160603
775.841	0.0161422
775.919	0.0158688
775.997	0.0160111
776.075	0.0160285
776.154	0.0158891
776.232	0.0158742
776.310	0.0159247
776.388	0.0158521
776.466	0.0157085
776.544	0.0159329
776.622	0.0160402
776.700	0.0160204
776.779	0.0158531
776.857	0.0160222
776.935	0.0160138
777.013	0.0160448
777.091	0.0160501
777.169	0.0160921
777.247	0.0161109
777.325	0.0159770
777.404	0.0162086
777.482	0.0161613
777.560	0.0159963
777.638	0.0162142
777.716	0.0162693
777.794	0.0161944
777.872	0.0161339
777.950	0.0160540
778.029	0.0160602
778.107	0.0161445
778.185	0.0161969
778.263	0.0162462
778.341	0.0161953
778.419	0.0163335
778.497	0.0162238
778.575	0.0162325
778.654	0.0161378
778.732	0.0160283
778.810	0.0160799
778.888	0.0162708
778.966	0.0162325
779.044	0.0162059
779.122	0.0160698
779.200	0.0159513
779.279	0.0159782
779.357	0.0160492
779.435	0.0159997
779.513	0.0158574
779.591	0.0160019
779.669	0.0159109
779.747	0.0158401
779.825	0.0158183
779.904	0.0158628
779.982	0.0156357
780.060	0.0158376
780.138	0.0157053
780.216	0.0157262
780.294	0.0156887
780.372	0.0156940
780.450	0.0156596
780.529	0.0157328
780.607	0.0158273
780.685	0.0156304
780.763	0.0156658
780.841	0.0157602
780.919	0.0157191
780.997	0.0156096
781.075	0.0156387
781.154	0.0157611
781.232	0.0156268
781.310	0.0156461
781.388	0.0157500
781.466	0.0156966
781.544	0.0157172
781.622	0.0156667
781.700	0.0157594
781.779	0.0157058
781.857	0.0157623
781.935	0.0158426
782.013	0.0157641
782.091	0.0158117
782.169	0.0158171
782.247	0.0157778
782.325	0.0159455
782.404	0.0159158
782.482	0.0158227
782.560	0.0159325
782.638	0.0158400
782.716	0.0158207
782.794	0.0159645
782.872	0.0160677
782.950	0.0160294
783.029	0.0160061
783.107	0.0160019
783.185	0.0159422
783.263	0.0159711
783.341	0.0159525
783.419	0.0158644
783.497	0.0159196
783.575	0.0158361
783.654	0.0158317
783.732	0.0159274
783.810	0.0159701
783.888	0.0158114
783.966	0.0158048
784.044	0.0159071
784.122	0.0156350
784.200	0.0158023
784.279	0.0157439
784.357	0.0157973
784.435	0.0159457
784.513	0.0157646
784.591	0.0156239
784.669	0.0158225
784.747	0.0159113
784.825	0.0158163
784.904	0.0157245
784.982	0.0158062
785.060	0.0158616
785.138	0.0157386
785.216	0.0157117
785.294	0.0158507
785.372	0.0158047
785.450	0.0156181
785.529	0.0158192
785.607	0.0158904
785.685	0.0157840
785.763	0.0158709
785.841	0.0160303
785.919	0.0159077
785.997	0.0159758
786.075	0.0159878
786.154	0.0160796
786.232	0.0160255
786.310	0.0159550
786.388	0.0160471
786.466	0.0159937
786.544	0.0158865
786.622	0.0158977
786.700	0.0160380
786.779	0.0160427
786.857	0.0159676
786.935	0.0158717
787.013	0.0161948
787.091	0.0160138
787.169	0.0159864
787.247	0.0159903
787.325	0.0159061
787.404	0.0158939
787.482	0.0159315
787.560	0.0158038
787.638	0.0159766
787.716	0.0161345
787.794	0.0160770
787.872	0.0159470
787.950	0.0158900
788.029	0.0160069
788.107	0.0159863
788.185	0.0160213
788.263	0.0158806
788.341	0.0159247
788.419	0.0159155
788.497	0.0158309
788.575	0.0159399
788.654	0.0158819
788.732	0.0158575
788.810	0.0159354
788.888	0.0158982
788.966	0.0159586
789.044	0.0159644
789.122	0.0160188
789.200	0.0160300
789.279	0.0160953
789.357	0.0159924
789.435	0.0159588
789.513	0.0160252
789.591	0.0159782
789.669	0.0158990
789.747	0.0159939
789.825	0.0160178
789.904	0.0160431
789.982	0.0160367
790.060	0.0160476
790.138	0.0160343
790.216	0.0161424
790.294	0.0160607
790.372	0.0161785
790.450	0.0161472
790.529	0.0160973
790.607	0.0162119
790.685	0.0161024
790.763	0.0161078
790.841	0.0159766
790.919	0.0163367
790.997	0.0161794
791.075	0.0162231
791.154	0.0161132
791.232	0.0162214
791.310	0.0162689
791.388	0.0162898
791.466	0.0162364
791.544	0.0161909
791.622	0.0161862
791.700	0.0161787
791.779	0.0161305
791.857	0.0160780
791.935	0.0161852
792.013	0.0161430
792.091	0.0160686
792.169	0.0161303
792.247	0.0160686
792.325	0.0160229
792.404	0.0161180
792.482	0.0159979
792.560	0.0160229
792.638	0.0159944
792.716	0.0159043
792.794	0.0159383
792.872	0.0159513
792.950	0.0159064
793.029	0.0158492
793.107	0.0159702
793.185	0.0159332
793.263	0.0158002
793.341	0.0160471
793.419	0.0158530
793.497	0.0159754
793.575	0.0159314
793.654	0.0158301
793.732	0.0157646
793.810	0.0157166
793.888	0.0157066
793.966	0.0158942
794.044	0.0158322
794.122	0.0157986
794.200	0.0157144
794.279	0.0157503
794.357	0.0157265
794.435	0.0156366
794.513	0.0158041
794.591	0.0156409
794.669	0.0155730
794.747	0.0157047
794.825	0.0157380
794.904	0.0156304
794.982	0.0157667
795.060	0.0157559
795.138	0.0156414
795.216	0.0158015
795.294	0.0157204
795.372	0.0157227
795.450	0.0158202
795.529	0.0158285
795.607	0.0158997
795.685	0.0159300
795.763	0.0157815
795.841	0.0157862
795.919	0.0159150
795.997	0.0159679
796.075	0.0160406
796.154	0.0160596
796.232	0.0160081
796.310	0.0159861
796.388	0.0160697
796.466	0.0160294
796.544	0.0159316
796.622	0.0160735
796.700	0.0161388
796.779	0.0159748
796.857	0.0160353
796.935	0.0159819
797.013	0.0158598
797.091	0.0159419
797.169	0.0159079
797.247	0.0159142
797.325	0.0158596
797.404	0.0158587
797.482	0.0158601
797.560	0.0158044
797.638	0.0159435
797.716	0.0158549
797.794	0.0157764
797.872	0.0158396
797.950	0.0158905
798.029	0.0157560
798.107	0.0159612
798.185	0.0159087
798.263	0.0158731
798.341	0.0160291
798.419	0.0160559
798.497	0.0158974
798.575	0.0159993
798.654	0.0159371
798.732	0.0160117
798.810	0.0160555
798.888	0.0160065
798.966	0.0159283
799.044	0.0160493
799.122	0.0161382
799.200	0.0160792
799.279	0.0159837
799.357	0.0159975
799.435	0.0160607
799.513	0.0160418
799.591	0.0158904
799.669	0.0160315
799.747	0.0158631
799.825	0.0159657
799.904	0.0159412
799.982	0.0159309
800.060	0.0159615
800.138	0.0160199
800.216	0.0157872
800.294	0.0158327
800.372	0.0156818
800.450	0.0158755
800.529	0.0158192
800.607	0.0158784
800.685	0.0157784
800.763	0.0157059
800.841	0.0157961
800.919	0.0158688
800.997	0.0158926
801.075	0.0158562
801.154	0.0157220
801.232	0.0159489
801.310	0.0159052
801.388	0.0158661
801.466	0.0159534
801.544	0.0158118
801.622	0.0158659
801.700	0.0158697
801.779	0.0158972
801.857	0.0158305
801.935	0.0158801
802.013	0.0158667
802.091	0.0160064
802.169	0.0158476
802.247	0.0158456
802.325	0.0159480
802.404	0.0159374
802.482	0.0159779
802.560	0.0158765
802.638	0.0158083
802.716	0.0159646
802.794	0.0158888
802.872	0.0158476
802.950	0.0159577
803.029	0.0158308
803.107	0.0157202
803.185	0.0158337
803.263	0.0158344
803.341	0.0158581
803.419	0.0158769
803.497	0.0157497
803.575	0.0157683
803.654	0.0159122
803.732	0.0158126
803.810	0.0158329
803.888	0.0158002
803.966	0.0159958
804.044	0.0158089
804.122	0.0158846
804.200	0.0158113
804.279	0.0159396
804.357	0.0159229
804.435	0.0158383
804.513	0.0159325
804.591	0.0159108
804.669	0.0157996
804.747	0.0157922
804.825	0.0159696
804.904	0.0157938
804.982	0.0158791
805.060	0.0158742
805.138	0.0159064
805.216	0.0158012
805.294	0.0159332
805.372	0.0160028
805.450	0.0158726
805.529	0.0158943
805.607	0.0159363
805.685	0.0158979
805.763	0.0160424
805.841	0.0158301
805.919	0.0158463
805.997	0.0157191
806.075	0.0157940
806.154	0.0158369
806.232	0.0158620
806.310	0.0157304
806.388	0.0157236
806.466	0.0159040
806.544	0.0157668
806.622	0.0158121
806.700	0.0159428
806.779	0.0160049
806.857	0.0158438
806.935	0.0159161
807.013	0.0159425
807.091	0.0157973
807.169	0.0158125
807.247	0.0158907
807.325	0.0159480
807.404	0.0159098
807.482	0.0160264
807.560	0.0160818
807.638	0.0160652
807.716	0.0160046
807.794	0.0160457
807.872	0.0160370
807.950	0.0160953
808.029	0.0160410
808.107	0.0159560
808.185	0.0160782
808.263	0.0161655
808.341	0.0161211
808.419	0.0160435
808.497	0.0160807
808.575	0.0160291
808.654	0.0160354
808.732	0.0159785
808.810	0.0160539
808.888	0.0159193
808.966	0.0161395
809.044	0.0161238
809.122	0.0160794
809.200	0.0160285
809.279	0.0160624
809.357	0.0159556
809.435	0.0160094
809.513	0.0159262
809.591	0.0159570
809.669	0.0158370
809.747	0.0159769
809.825	0.0159719
809.904	0.0158978
809.982	0.0158871
810.060	0.0157218
810.138	0.0159337
810.216	0.0159653
810.294	0.0158249
810.372	0.0158857
810.450	0.0158246
810.529	0.0158899
810.607	0.0158681
810.685	0.0159109
810.763	0.0158537
810.841	0.0157496
810.919	0.0158316
810.997	0.0159044
811.075	0.0158649
811.154	0.0158614
811.232	0.0159038
811.310	0.0158117
811.388	0.0157436
811.466	0.0158496
811.544	0.0156921
811.622	0.0160094
811.700	0.0159591
811.779	0.0160229
811.857	0.0159514
811.935	0.0158672
812.013	0.0159241
812.091	0.0159225
812.169	0.0158765
812.247	0.0161265
812.325	0.0158112
812.404	0.0158729
812.482	0.0160004
812.560	0.0159335
812.638	0.0158114
812.716	0.0159281
812.794	0.0158371
812.872	0.0158427
812.950	0.0160323
813.029	0.0158853
813.107	0.0158209
813.185	0.0158337
813.263	0.0159224
813.341	0.0159618
813.419	0.0159772
813.497	0.0160419
813.575	0.0159618
813.654	0.0159579
813.732	0.0158318
813.810	0.0159568
813.888	0.0160553
813.966	0.0160065
814.044	0.0160309
814.122	0.0157710
814.200	0.0159684
814.279	0.0160211
814.357	0.0159847
814.435	0.0160686
814.513	0.0159395
814.591	0.0159202
814.669	0.0159785
814.747	0.0160783
814.825	0.0160130
814.904	0.0160732
814.982	0.0161786
815.060	0.0160935
815.138	0.0160799
815.216	0.0160231
815.294	0.0159857
815.372	0.0161491
815.450	0.0159524
815.529	0.0159886
815.607	0.0160844
815.685	0.0162270
815.763	0.0159593
815.841	0.0158999
815.919	0.0160843
815.997	0.0159633
816.075	0.0160477
816.154	0.0159706
816.232	0.0160575
816.310	0.0160133
816.388	0.0159224
816.466	0.0161066
816.544	0.0160270
816.622	0.0161651
816.700	0.0159267
816.779	0.0160464
816.857	0.0160311
816.935	0.0160213
817.013	0.0160099
817.091	0.0159573
817.169	0.0160159
817.247	0.0160719
817.325	0.0159190
817.404	0.0158956
817.482	0.0159701
817.560	0.0158744
817.638	0.0159679
817.716	0.0159261
817.794	0.0159383
817.872	0.0157719
817.950	0.0157703
818.029	0.0157670
818.107	0.0158624
818.185	0.0158282
818.263	0.0158229
818.341	0.0156944
818.419	0.0158335
818.497	0.0158167
818.575	0.0157135
818.654	0.0156664
818.732	0.0158042
818.810	0.0157317
818.888	0.0158009
818.966	0.0157557
819.044	0.0157466
819.122	0.0158543
819.200	0.0158276
819.279	0.0157638
819.357	0.0157016
819.435	0.0158015
819.513	0.0157589
819.591	0.0157645
819.669	0.0158655
819.747	0.0157658
819.825	0.0157734
819.904	0.0158558
819.982	0.0158327
820.060	0.0157846
820.138	0.0157668
820.216	0.0159113
820.294	0.0158443
820.372	0.0156966
820.450	0.0158230
820.529	0.0158311
820.607	0.0158766
820.685	0.0158198
820.763	0.0158900
820.841	0.0159890
820.919	0.0159093
820.997	0.0159149
821.075	0.0158042
821.154	0.0158752
821.232	0.0158182
821.310	0.0158688
821.388	0.0159521
821.466	0.0159242
821.544	0.0158987
821.622	0.0160257
821.700	0.0159329
821.779	0.0157779
821.857	0.0159085
821.935	0.0160198
822.013	0.0159885
822.091	0.0158562
822.169	0.0157790
822.247	0.0158447
822.325	0.0159270
822.404	0.0157343
822.482	0.0157697
822.560	0.0157577
822.638	0.0158538
822.716	0.0157632
822.794	0.0157983
822.872	0.0157531
822.950	0.0157573
823.029	0.0157919
823.107	0.0157983
823.185	0.0158680
823.263	0.0157567
823.341	0.0158020
823.419	0.0157865
823.497	0.0159101
823.575	0.0160279
823.654	0.0158928
823.732	0.0159837
823.810	0.0160569
823.888	0.0161358
823.966	0.0160069
824.044	0.0159954
824.122	0.0159608
824.200	0.0159502
824.279	0.0161664
824.357	0.0161304
824.435	0.0160086
824.513	0.0159328
824.591	0.0160425
824.669	0.0160295
824.747	0.0159791
824.825	0.0160507
824.904	0.0159352
824.982	0.0158658
825.060	0.0158318
825.138	0.0158569
825.216	0.0158902
825.294	0.0158409
825.372	0.0158817
825.450	0.0158897
825.529	0.0159618
825.607	0.0158182
825.685	0.0158002
825.763	0.0158163
825.841	0.0158390
825.919	0.0159040
825.997	0.0158994
826.075	0.0158071
826.154	0.0158313
826.232	0.0159947
826.310	0.0159885
826.388	0.0159413
826.466	0.0159404
826.544	0.0159172
826.622	0.0159554
826.700	0.0160404
826.779	0.0160852
826.857	0.0160817
826.935	0.0159909
827.013	0.0162019
827.091	0.0162077
827.169	0.0161365
827.247	0.0160502
827.325	0.0160507
827.404	0.0160801
827.482	0.0161806
827.560	0.0161851
827.638	0.0161452
827.716	0.0161740
827.794	0.0161709
827.872	0.0160130
827.950	0.0159811
828.029	0.0159792
828.107	0.0159665
828.185	0.0159850
828.263	0.0158518
828.341	0.0158826
828.419	0.0156762
828.497	0.0157642
828.575	0.0158587
828.654	0.0158910
828.732	0.0158371
828.810	0.0159550
828.888	0.0159205
828.966	0.0157806
829.044	0.0157605
829.122	0.0157905
829.200	0.0157751
829.279	0.0157572
829.357	0.0158559
829.435	0.0159564
829.513	0.0158764
829.591	0.0159247
829.669	0.0159385
829.747	0.0159900
829.825	0.0159314
829.904	0.0159660
829.982	0.0158643
830.060	0.0158763
830.138	0.0161647
830.216	0.0160879
830.294	0.0160271
830.372	0.0161459
830.450	0.0160121
830.529	0.0161350
830.607	0.0161975
830.685	0.0161530
830.763	0.0161797
830.841	0.0161401
830.919	0.0160960
830.997	0.0160957
831.075	0.0161631
831.154	0.0160995
831.232	0.0161120
831.310	0.0160765
831.388	0.0161706
831.466	0.0160121
831.544	0.0159814
831.622	0.0159673
831.700	0.0159831
831.779	0.0158143
831.857	0.0159842
831.935	0.0159709
832.013	0.0159285
832.091	0.0159129
832.169	0.0159536
832.247	0.0157723
832.325	0.0159163
832.404	0.0159680
832.482	0.0159724
832.560	0.0158963
832.638	0.0159642
832.716	0.0159204
832.794	0.0160414
832.872	0.0159430
832.950	0.0160007
833.029	0.0160052
833.107	0.0159757
833.185	0.0160255
833.263	0.0160114
833.341	0.0160477
833.419	0.0159639
833.497	0.0159660
833.575	0.0159628
833.654	0.0159799
833.732	0.0159878
833.810	0.0157895
833.888	0.0159543
833.966	0.0159408
834.044	0.0158691
834.122	0.0158797
834.200	0.0158869
834.279	0.0158333
834.357	0.0157458
834.435	0.0158804
834.513	0.0157568
834.591	0.0157970
834.669	0.0156178
834.747	0.0156895
834.825	0.0157399
834.904	0.0159538
834.982	0.0156992
835.060	0.0156500
835.138	0.0157655
835.216	0.0157977
835.294	0.0157056
835.372	0.0158521
835.450	0.0160245
835.529	0.0158625
835.607	0.0158419
835.685	0.0160241
835.763	0.0160457
835.841	0.0160414
835.919	0.0160855
835.997	0.0160007
836.075	0.0160900
836.154	0.0160524
836.232	0.0160754
836.310	0.0161167
836.388	0.0160869
836.466	0.0161646
836.544	0.0162163
836.622	0.0161700
836.700	0.0162186
836.779	0.0161318
836.857	0.0161386
836.935	0.0161074
837.013	0.0160132
837.091	0.0159769
837.169	0.0159059
837.247	0.0161093
837.325	0.0159077
837.404	0.0157741
837.482	0.0159173
837.560	0.0158527
837.638	0.0158711
837.716	0.0158753
837.794	0.0158375
837.872	0.0159083
837.950	0.0158667
838.029	0.0157495
838.107	0.0158300
838.185	0.0158176
838.263	0.0158488
838.341	0.0158544
838.419	0.0158157
838.497	0.0160464
838.575	0.0158371
838.654	0.0158685
838.732	0.0158436
838.810	0.0157685
838.888	0.0157723
838.966	0.0158473
839.044	0.0157845
839.122	0.0157660
839.200	0.0157970
839.279	0.0157268
839.357	0.0157841
839.435	0.0157594
839.513	0.0156110
839.591	0.0157621
839.669	0.0158246
839.747	0.0155782
839.825	0.0157473
839.904	0.0157818
839.982	0.0156823
840.060	0.0157895
840.138	0.0156605
840.216	0.0157321
840.294	0.0157197
840.372	0.0157906
840.450	0.0157298
840.529	0.0159448
840.607	0.0157906
840.685	0.0158034
840.763	0.0158294
840.841	0.0159441
840.919	0.0160261
840.997	0.0159628
841.075	0.0159388
841.154	0.0160116
841.232	0.0160010
841.310	0.0160219
841.388	0.0161635
841.466	0.0160824
841.544	0.0161184
841.622	0.0161723
841.700	0.0160529
841.779	0.0162764
841.857	0.0161050
841.935	0.0160875
842.013	0.0160318
842.091	0.0161290
842.169	0.0160120
842.247	0.0159608
842.325	0.0160042
842.404	0.0159716
842.482	0.0159262
842.560	0.0159291
842.638	0.0159174
842.716	0.0158224
842.794	0.0156753
842.872	0.0156864
842.950	0.0157159
843.029	0.0156447
843.107	0.0156460
843.185	0.0156450
843.263	0.0156820
843.341	0.0156049
843.419	0.0157206
843.497	0.0156628
843.575	0.0157110
843.654	0.0157601
843.732	0.0157543
843.810	0.0158951
843.888	0.0157399
843.966	0.0159887
844.044	0.0160606
844.122	0.0159395
844.200	0.0159975
844.279	0.0159282
844.357	0.0161959
844.435	0.0161187
844.513	0.0161846
844.591	0.0161845
844.669	0.0161261
844.747	0.0162630
844.825	0.0161415
844.904	0.0162646
844.982	0.0163018
845.060	0.0163428
845.138	0.0162182
845.216	0.0162514
845.294	0.0162579
845.372	0.0161674
845.450	0.0162394
845.529	0.0161767
845.607	0.0161382
845.685	0.0160254
845.763	0.0160899
845.841	0.0159525
845.919	0.0159672
845.997	0.0158414
846.075	0.0159121
846.154	0.0160172
846.232	0.0158688
846.310	0.0159330
846.388	0.0159914
846.466	0.0157078
846.544	0.0159760
846.622	0.0159234
846.700	0.0158893
846.779	0.0157732
846.857	0.0157749
846.935	0.0159453
847.013	0.0157075
847.091	0.0157992
847.169	0.0159167
847.247	0.0160066
847.325	0.0157527
847.404	0.0158782
847.482	0.0158850
847.560	0.0157320
847.638	0.0158823
847.716	0.0157976
847.794	0.0158809
847.872	0.0157257
847.950	0.0157580
848.029	0.0159010
848.107	0.0157660
848.185	0.0160458
848.263	0.0161089
848.341	0.0159598
848.419	0.0159520
848.497	0.0159224
848.575	0.0160495
848.654	0.0159595
848.732	0.0161472
848.810	0.0161243
848.888	0.0159954
848.966	0.0159665
849.044	0.0161182
849.122	0.0161992
849.200	0.0160373
849.279	0.0159731
849.357	0.0160739
849.435	0.0160233
849.513	0.0160735
849.591	0.0161892
849.669	0.0160674
849.747	0.0160549
849.825	0.0161355
849.904	0.0159909
849.982	0.0158660
850.060	0.0160091
850.138	0.0159533
850.216	0.0162164
850.294	0.0159816
850.372	0.0159683
850.450	0.0160539
850.529	0.0159212
850.607	0.0158598
850.685	0.0157801
850.763	0.0158189
850.841	0.0159148
850.919	0.0158524
850.997	0.0160091
851.075	0.0157589
851.154	0.0157682
851.232	0.0159371
851.310	0.0157146
851.388	0.0158665
851.466	0.0158904
851.544	0.0158716
851.622	0.0158212
851.700	0.0158796
851.779	0.0159215
851.857	0.0159249
851.935	0.0159473
852.013	0.0159842
852.091	0.0159222
852.169	0.0160034
852.247	0.0159363
852.325	0.0159813
852.404	0.0160481
852.482	0.0160072
852.560	0.0159188
852.638	0.0159553
852.716	0.0159805
852.794	0.0158902
852.872	0.0160500
852.950	0.0161044
853.029	0.0159192
853.107	0.0160439
853.185	0.0160607
853.263	0.0160533
853.341	0.0159301
853.419	0.0161839
853.497	0.0161126
853.575	0.0162125
853.654	0.0161596
853.732	0.0160188
853.810	0.0160293
853.888	0.0160698
853.966	0.0160662
854.044	0.0161723
854.122	0.0159731
854.200	0.0161685
854.279	0.0159013
854.357	0.0158538
854.435	0.0160326
854.513	0.0159974
854.591	0.0159470
854.669	0.0159133
854.747	0.0159089
854.825	0.0158535
854.904	0.0159769
854.982	0.0158975
855.060	0.0158224
855.138	0.0159257
855.216	0.0158880
855.294	0.0158960
855.372	0.0159167
855.450	0.0157957
855.529	0.0159111
855.607	0.0159755
855.685	0.0159241
855.763	0.0159348
855.841	0.0160944
855.919	0.0160069
855.997	0.0159275
856.075	0.0159577
856.154	0.0161570
856.232	0.0160397
856.310	0.0160970
856.388	0.0162714
856.466	0.0160359
856.544	0.0159572
856.622	0.0161671
856.700	0.0160437
856.779	0.0161240
856.857	0.0161262
856.935	0.0161689
857.013	0.0160552
857.091	0.0161234
857.169	0.0161818
857.247	0.0161057
857.325	0.0162377
857.404	0.0161334
857.482	0.0161752
857.560	0.0161985
857.638	0.0160517
857.716	0.0161423
857.794	0.0161926
857.872	0.0161141
857.950	0.0159352
858.029	0.0161356
858.107	0.0162968
858.185	0.0161243
858.263	0.0159650
858.341	0.0159795
858.419	0.0160519
858.497	0.0159014
858.575	0.0159097
858.654	0.0159232
858.732	0.0158203
858.810	0.0158504
858.888	0.0158050
858.966	0.0159091
859.044	0.0157487
859.122	0.0157524
859.200	0.0157154
859.279	0.0156324
859.357	0.0157253
859.435	0.0157603
859.513	0.0158096
859.591	0.0158269
859.669	0.0156893
859.747	0.0157855
859.825	0.0157823
859.904	0.0157270
859.982	0.0158306
860.060	0.0158369
860.138	0.0159371
860.216	0.0159295
860.294	0.0160664
860.372	0.0162076
860.450	0.0160078
860.529	0.0160174
860.607	0.0161047
860.685	0.0161122
860.763	0.0161033
860.841	0.0162009
860.919	0.0161066
860.997	0.0160791
861.075	0.0161083
861.154	0.0161665
861.232	0.0161889
861.310	0.0161409
861.388	0.0161448
861.466	0.0161601
861.544	0.0162686
861.622	0.0161684
861.700	0.0161172
861.779	0.0161910
861.857	0.0161658
861.935	0.0161030
862.013	0.0161771
862.091	0.0161436
862.169	0.0161783
862.247	0.0161559
862.325	0.0161286
862.404	0.0161588
862.482	0.0161287
862.560	0.0161147
862.638	0.0160420
862.716	0.0159568
862.794	0.0160515
862.872	0.0161742
862.950	0.0160181
863.029	0.0159947
863.107	0.0159077
863.185	0.0160423
863.263	0.0159049
863.341	0.0158960
863.419	0.0158979
863.497	0.0158397
863.575	0.0158125
863.654	0.0159948
863.732	0.0159040
863.810	0.0158817
863.888	0.0159048
863.966	0.0158526
864.044	0.0157425
864.122	0.0158817
864.200	0.0159649
864.279	0.0158412
864.357	0.0159109
864.435	0.0159544
864.513	0.0159146
864.591	0.0158383
864.669	0.0159679
864.747	0.0159887
864.825	0.0158057
864.904	0.0159354
864.982	0.0158749
865.060	0.0158549
865.138	0.0159234
865.216	0.0159501
865.294	0.0160282
865.372	0.0160246
865.450	0.0160641
865.529	0.0161224
865.607	0.0159730
865.685	0.0161687
865.763	0.0163186
865.841	0.0161258
865.919	0.0160683
865.997	0.0160140
866.075	0.0161023
866.154	0.0161360
866.232	0.0161353
866.310	0.0159633
866.388	0.0159229
866.466	0.0161050
866.544	0.0160646
866.622	0.0160195
866.700	0.0160555
866.779	0.0157732
866.857	0.0158828
866.935	0.0157430
867.013	0.0158994
867.091	0.0158142
867.169	0.0160260
867.247	0.0159388
867.325	0.0156173
867.404	0.0157513
867.482	0.0157129
867.560	0.0157798
867.638	0.0157800
867.716	0.0156889
867.794	0.0157590
867.872	0.0157072
867.950	0.0156837
868.029	0.0157887
868.107	0.0159071
868.185	0.0158282
868.263	0.0157020
868.341	0.0157404
868.419	0.0157538
868.497	0.0159016
868.575	0.0156286
868.654	0.0157933
868.732	0.0158881
868.810	0.0157783
868.888	0.0159119
868.966	0.0159158
869.044	0.0159408
869.122	0.0159715
869.200	0.0158900
869.279	0.0158478
869.357	0.0159467
869.435	0.0159720
869.513	0.0159069
869.591	0.0158564
869.669	0.0158215
869.747	0.0159235
869.825	0.0159476
869.904	0.0160031
869.982	0.0159670
870.060	0.0158791
870.138	0.0158269
870.216	0.0159612
870.294	0.0158727
870.372	0.0158170
870.450	0.0158847
870.529	0.0160036
870.607	0.0159053
870.685	0.0157262
870.763	0.0158838
870.841	0.0158231
870.919	0.0159827
870.997	0.0158633
871.075	0.0158342
871.154	0.0159525
871.232	0.0159019
871.310	0.0159419
871.388	0.0160591
871.466	0.0158270
871.544	0.0159143
871.622	0.0160459
871.700	0.0160233
871.779	0.0158972
871.857	0.0157832
871.935	0.0159760
872.013	0.0158937
872.091	0.0159167
872.169	0.0157577
872.247	0.0158681
872.325	0.0159801
872.404	0.0160835
872.482	0.0159608
872.560	0.0159875
872.638	0.0158913
872.716	0.0159245
872.794	0.0160186
872.872	0.0160765
872.950	0.0159016
873.029	0.0159288
873.107	0.0159562
873.185	0.0160409
873.263	0.0160830
873.341	0.0160435
873.419	0.0160864
873.497	0.0160305
873.575	0.0159630
873.654	0.0160367
873.732	0.0161138
873.810	0.0160810
873.888	0.0160004
873.966	0.0159778
874.044	0.0160379
874.122	0.0160500
874.200	0.0160397
874.279	0.0160168
874.357	0.0161135
874.435	0.0161436
874.513	0.0161649
874.591	0.0161235
874.669	0.0161802
874.747	0.0162109
874.825	0.0162041
874.904	0.0163298
874.982	0.0162404
875.060	0.0163052
875.138	0.0163411
875.216	0.0163326
875.294	0.0163799
875.372	0.0162199
875.450	0.0162900
875.529	0.0162756
875.607	0.0161828
875.685	0.0163017
875.763	0.0161827
875.841	0.0160618
875.919	0.0162305
875.997	0.0160387
876.075	0.0160667
876.154	0.0160954
876.232	0.0161108
876.310	0.0160290
876.388	0.0158942
876.466	0.0158578
876.544	0.0158886
876.622	0.0158016
876.700	0.0158154
876.779	0.0159906
876.857	0.0158976
876.935	0.0157583
877.013	0.0157407
877.091	0.0157762
877.169	0.0159612
877.247	0.0158329
877.325	0.0158099
877.404	0.0157833
877.482	0.0157119
877.560	0.0157796
877.638	0.0159264
877.716	0.0159507
877.794	0.0158120
877.872	0.0158598
877.950	0.0159954
878.029	0.0160287
878.107	0.0159505
878.185	0.0158408
878.263	0.0159233
878.341	0.0159252
878.419	0.0159320
878.497	0.0160016
878.575	0.0158577
878.654	0.0160789
878.732	0.0159447
878.810	0.0160237
878.888	0.0160093
878.966	0.0158488
879.044	0.0160038
879.122	0.0158452
879.200	0.0159356
879.279	0.0159232
879.357	0.0158678
879.435	0.0158704
879.513	0.0158882
879.591	0.0158950
879.669	0.0159238
879.747	0.0158195
879.825	0.0160146
879.904	0.0158683
879.982	0.0158260
880.060	0.0160203
880.138	0.0159859
880.216	0.0159221
880.294	0.0160823
880.372	0.0161340
880.450	0.0160345
880.529	0.0160456
880.607	0.0160434
880.685	0.0160811
880.763	0.0161652
880.841	0.0160748
880.919	0.0160944
880.997	0.0160377
881.075	0.0160860
881.154	0.0161945
881.232	0.0160438
881.310	0.0160559
881.388	0.0159905
881.466	0.0160593
881.544	0.0161076
881.622	0.0160468
881.700	0.0159727
881.779	0.0160497
881.857	0.0159894
881.935	0.0158987
882.013	0.0159784
882.091	0.0158443
882.169	0.0158894
882.247	0.0158356
882.325	0.0157538
882.404	0.0158116
882.482	0.0158453
882.560	0.0158263
882.638	0.0158862
882.716	0.0158988
882.794	0.0158443
882.872	0.0158447
882.950	0.0158183
883.029	0.0159400
883.107	0.0160341
883.185	0.0159519
883.263	0.0158330
883.341	0.0159676
883.419	0.0160249
883.497	0.0159872
883.575	0.0158891
883.654	0.0160413
883.732	0.0159473
883.810	0.0158746
883.888	0.0159965
883.966	0.0161105
884.044	0.0159371
884.122	0.0159743
884.200	0.0160744
884.279	0.0160002
884.357	0.0158257
884.435	0.0160314
884.513	0.0159805
884.591	0.0158923
884.669	0.0160447
884.747	0.0159923
884.825	0.0159830
884.904	0.0158975
884.982	0.0159406
885.060	0.0159562
885.138	0.0159011
885.216	0.0159911
885.294	0.0160130
885.372	0.0160681
885.450	0.0159269
885.529	0.0160755
885.607	0.0161525
885.685	0.0160213
885.763	0.0160707
885.841	0.0160892
885.919	0.0161214
885.997	0.0161495
886.075	0.0161143
886.154	0.0161908
886.232	0.0160877
886.310	0.0160651
886.388	0.0160143
886.466	0.0160532
886.544	0.0161276
886.622	0.0161457
886.700	0.0160651
886.779	0.0160275
886.857	0.0160283
886.935	0.0161227
887.013	0.0160823
887.091	0.0159583
887.169	0.0158176
887.247	0.0160213
887.325	0.0161767
887.404	0.0159378
887.482	0.0158826
887.560	0.0159618
887.638	0.0159550
887.716	0.0159131
887.794	0.0159158
887.872	0.0159325
887.950	0.0160700
888.029	0.0161221
888.107	0.0159372
888.185	0.0159985
888.263	0.0161469
888.341	0.0160059
888.419	0.0160205
888.497	0.0161559
888.575	0.0161346
888.654	0.0162296
888.732	0.0162207
888.810	0.0162194
888.888	0.0162513
888.966	0.0162557
889.044	0.0161936
889.122	0.0160735
889.200	0.0161315
889.279	0.0162073
889.357	0.0160533
889.435	0.0161397
889.513	0.0161263
889.591	0.0161573
889.669	0.0160954
889.747	0.0159735
889.825	0.0159060
889.904	0.0159780
889.982	0.0159428
890.060	0.0158880
890.138	0.0157072
890.216	0.0157697
890.294	0.0158606
890.372	0.0158630
890.450	0.0158551
890.529	0.0157330
890.607	0.0157962
890.685	0.0157568
890.763	0.0157340
890.841	0.0158381
890.919	0.0157969
890.997	0.0157865
891.075	0.0158900
891.154	0.0159447
891.232	0.0159657
891.310	0.0157374
891.388	0.0158757
891.466	0.0159825
891.544	0.0158662
891.622	0.0158705
891.700	0.0159872
891.779	0.0160400
891.857	0.0160255
891.935	0.0160976
892.013	0.0159401
892.091	0.0159692
892.169	0.0160217
892.247	0.0160551
892.325	0.0160498
892.404	0.0159716
892.482	0.0159725
892.560	0.0161221
892.638	0.0161222
892.716	0.0160889
892.794	0.0160120
892.872	0.0160574
892.950	0.0159200
893.029	0.0160461
893.107	0.0160751
893.185	0.0158128
893.263	0.0158348
893.341	0.0159833
893.419	0.0157356
893.497	0.0159767
893.575	0.0160126
893.654	0.0157795
893.732	0.0159034
893.810	0.0158608
893.888	0.0160075
893.966	0.0159512
894.044	0.0160496
894.122	0.0160023
894.200	0.0158533
894.279	0.0159048
894.357	0.0159389
894.435	0.0158821
894.513	0.0159023
894.591	0.0158303
894.669	0.0159812
894.747	0.0160617
894.825	0.0158540
894.904	0.0158715
894.982	0.0159106
895.060	0.0157538
895.138	0.0159657
895.216	0.0159094
895.294	0.0159413
895.372	0.0159221
895.450	0.0158282
895.529	0.0159641
895.607	0.0160193
895.685	0.0157944
895.763	0.0157613
895.841	0.0159259
895.919	0.0159451
895.997	0.0159845
896.075	0.0158876
896.154	0.0159663
896.232	0.0158799
896.310	0.0157816
896.388	0.0159145
896.466	0.0159734
896.544	0.0159053
896.622	0.0159765
896.700	0.0160471
896.779	0.0159966
896.857	0.0159092
896.935	0.0160282
897.013	0.0160416
897.091	0.0160262
897.169	0.0160348
897.247	0.0159100
897.325	0.0159127
897.404	0.0158649
897.482	0.0160107
897.560	0.0159231
897.638	0.0159623
897.716	0.0159216
897.794	0.0159106
897.872	0.0159551
897.950	0.0158685
898.029	0.0157487
898.107	0.0158863
898.185	0.0158372
898.263	0.0157825
898.341	0.0157292
898.419	0.0159402
898.497	0.0158415
898.575	0.0158102
898.654	0.0157518
898.732	0.0158924
898.810	0.0157405
898.888	0.0157020
898.966	0.0157758
899.044	0.0158932
899.122	0.0158234
899.200	0.0157619
899.279	0.0157845
899.357	0.0158975
899.435	0.0158191
899.513	0.0158273
899.591	0.0159068
899.669	0.0160400
899.747	0.0160011
899.825	0.0159719
899.904	0.0159633
899.982	0.0158189
900.060	0.0158650
900.138	0.0161073
900.216	0.0159643
900.294	0.0157708
900.372	0.0158512
900.450	0.0160095
900.529	0.0158652
900.607	0.0157742
900.685	0.0159192
900.763	0.0159415
900.841	0.0159283
900.919	0.0158364
900.997	0.0157369
901.075	0.0158125
901.154	0.0158098
901.232	0.0158705
901.310	0.0158083
901.388	0.0159311
901.466	0.0159330
901.544	0.0158945
901.622	0.0158829
901.700	0.0158692
901.779	0.0158938
901.857	0.0158628
901.935	0.0158987
902.013	0.0159064
902.091	0.0158142
902.169	0.0159296
902.247	0.0160794
902.325	0.0158839
902.404	0.0158987
902.482	0.0161207
902.560	0.0160033
902.638	0.0160345
902.716	0.0160361
902.794	0.0160733
902.872	0.0160467
902.950	0.0159956
903.029	0.0160446
903.107	0.0159250
903.185	0.0161093
903.263	0.0161195
903.341	0.0161734
903.419	0.0161716
903.497	0.0160994
903.575	0.0159811
903.654	0.0159385
903.732	0.0161551
903.810	0.0160798
903.888	0.0160132
903.966	0.0161939
904.044	0.0159810
904.122	0.0161633
904.200	0.0159943
904.279	0.0161784
904.357	0.0161926
904.435	0.0160159
904.513	0.0160806
904.591	0.0159977
904.669	0.0160726
904.747	0.0161991
904.825	0.0160580
904.904	0.0160703
904.982	0.0159442
905.060	0.0161546
905.138	0.0161879
905.216	0.0160181
905.294	0.0159807
905.372	0.0159969
905.450	0.0160500
905.529	0.0161047
905.607	0.0161375
905.685	0.0160572
905.763	0.0160848
905.841	0.0159973
905.919	0.0160427
905.997	0.0159776
906.075	0.0159854
906.154	0.0159289
906.232	0.0159541
906.310	0.0159673
906.388	0.0159844
906.466	0.0159914
906.544	0.0159813
906.622	0.0158563
906.700	0.0158309
906.779	0.0158070
906.857	0.0158385
906.935	0.0158327
907.013	0.0157520
907.091	0.0156873
907.169	0.0156477
907.247	0.0157967
907.325	0.0156836
907.404	0.0157477
907.482	0.0155400
907.560	0.0157074
907.638	0.0157486
907.716	0.0157228
907.794	0.0158231
907.872	0.0156845
907.950	0.0156841
908.029	0.0157787
908.107	0.0157880
908.185	0.0158015
908.263	0.0158105
908.341	0.0158485
908.419	0.0158832
908.497	0.0158505
908.575	0.0157921
908.654	0.0158825
908.732	0.0159143
908.810	0.0158688
908.888	0.0158706
908.966	0.0160326
909.044	0.0159982
909.122	0.0158662
909.200	0.0159289
909.279	0.0159177
909.357	0.0160303
909.435	0.0161446
909.513	0.0161095
909.591	0.0160518
909.669	0.0160490
909.747	0.0160009
909.825	0.0161417
909.904	0.0161411
909.982	0.0161544
910.060	0.0161848
910.138	0.0160886
910.216	0.0161111
910.294	0.0161505
910.372	0.0160226
910.450	0.0160578
910.529	0.0159969
910.607	0.0160628
910.685	0.0159953
910.763	0.0160519
910.841	0.0161034
910.919	0.0159641
910.997	0.0159309
911.075	0.0159222
911.154	0.0158774
911.232	0.0159861
911.310	0.0157712
911.388	0.0157979
911.466	0.0159595
911.544	0.0157425
911.622	0.0157201
911.700	0.0158578
911.779	0.0157368
911.857	0.0158163
911.935	0.0158330
912.013	0.0157433
912.091	0.0157829
912.169	0.0158051
912.247	0.0157166
912.325	0.0157977
912.404	0.0156972
912.482	0.0157584
912.560	0.0158297
912.638	0.0156844
912.716	0.0158697
912.794	0.0158251
912.872	0.0158418
912.950	0.0159110
913.029	0.0158151
913.107	0.0159264
913.185	0.0159258
913.263	0.0158732
913.341	0.0158895
913.419	0.0158848
913.497	0.0158617
913.575	0.0159575
913.654	0.0157642
913.732	0.0159285
913.810	0.0158781
913.888	0.0158472
913.966	0.0157700
914.044	0.0159224
914.122	0.0158424
914.200	0.0158481
914.279	0.0158821
914.357	0.0159486
914.435	0.0159109
914.513	0.0158385
914.591	0.0159471
914.669	0.0157780
914.747	0.0159670
914.825	0.0157623
914.904	0.0159505
914.982	0.0158227
915.060	0.0159512
915.138	0.0158776
915.216	0.0158853
915.294	0.0159049
915.372	0.0161040
915.450	0.0160568
915.529	0.0159888
915.607	0.0159277
915.685	0.0160292
915.763	0.0158121
915.841	0.0160107
915.919	0.0159882
915.997	0.0159425
916.075	0.0158587
916.154	0.0158442
916.232	0.0158231
916.310	0.0158282
916.388	0.0158383
916.466	0.0157977
916.544	0.0158119
916.622	0.0158535
916.700	0.0158210
916.779	0.0157581
916.857	0.0157831
916.935	0.0156738
917.013	0.0159023
917.091	0.0158267
917.169	0.0157390
917.247	0.0157766
917.325	0.0159145
917.404	0.0157601
917.482	0.0158556
917.560	0.0158964
917.638	0.0159569
917.716	0.0157810
917.794	0.0158170
917.872	0.0159584
917.950	0.0159385
918.029	0.0158128
918.107	0.0159220
918.185	0.0158479
918.263	0.0157231
918.341	0.0158743
918.419	0.0157751
918.497	0.0157732
918.575	0.0156891
918.654	0.0157531
918.732	0.0157154
918.810	0.0157441
918.888	0.0156807
918.966	0.0157957
919.044	0.0157520
919.122	0.0158250
919.200	0.0157760
919.279	0.0158125
919.357	0.0157623
919.435	0.0158286
919.513	0.0158172
919.591	0.0159228
919.669	0.0158775
919.747	0.0158868
919.825	0.0158943
919.904	0.0157860
