05/24/2022	20:42:56	Ver.	4.1	UNKNOWN
Optical Delay	599.981738	Delta X		0.078125	Sweeps	1	Scan Rate	0/0
Coordinates	Axis 1	NaN	Axis 2	NaN	Axis 3	NaN	Axis 4	NaN	Axis 5	NaN	Axis 6	0.000000
TX Power	0.000000	RX Power	0.000000

599.982	0.0160642
600.060	0.0159846
600.138	0.0159816
600.216	0.0161460
600.294	0.0160705
600.372	0.0161053
600.450	0.0159949
600.529	0.0159970
600.607	0.0160572
600.685	0.0159457
600.763	0.0161103
600.841	0.0159576
600.919	0.0158908
600.997	0.0159846
601.075	0.0159569
601.154	0.0160382
601.232	0.0161131
601.310	0.0160329
601.388	0.0159711
601.466	0.0160423
601.544	0.0160307
601.622	0.0158530
601.700	0.0160110
601.779	0.0160990
601.857	0.0160201
601.935	0.0161272
602.013	0.0161595
602.091	0.0160989
602.169	0.0160689
602.247	0.0161075
602.325	0.0160544
602.404	0.0161675
602.482	0.0161426
602.560	0.0160771
602.638	0.0162433
602.716	0.0161335
602.794	0.0160700
602.872	0.0161656
602.950	0.0161593
603.029	0.0161311
603.107	0.0160522
603.185	0.0161874
603.263	0.0161023
603.341	0.0160072
603.419	0.0160837
603.497	0.0160798
603.575	0.0161764
603.654	0.0162113
603.732	0.0161726
603.810	0.0159859
603.888	0.0161636
603.966	0.0162466
604.044	0.0161311
604.122	0.0161087
604.200	0.0162065
604.279	0.0162641
604.357	0.0162219
604.435	0.0162657
604.513	0.0163341
604.591	0.0162370
604.669	0.0163233
604.747	0.0162789
604.825	0.0162045
604.904	0.0162525
604.982	0.0162439
605.060	0.0162447
605.138	0.0162714
605.216	0.0162327
605.294	0.0160448
605.372	0.0161514
605.450	0.0163103
605.529	0.0161796
605.607	0.0162539
605.685	0.0162281
605.763	0.0161621
605.841	0.0161836
605.919	0.0161913
605.997	0.0161629
606.075	0.0162800
606.154	0.0163200
606.232	0.0162616
606.310	0.0162558
606.388	0.0162870
606.466	0.0161604
606.544	0.0162363
606.622	0.0162755
606.700	0.0162907
606.779	0.0161623
606.857	0.0162003
606.935	0.0161683
607.013	0.0161835
607.091	0.0162604
607.169	0.0161806
607.247	0.0162176
607.325	0.0163302
607.404	0.0163792
607.482	0.0162682
607.560	0.0162924
607.638	0.0162728
607.716	0.0161951
607.794	0.0163389
607.872	0.0161617
607.950	0.0163409
608.029	0.0162827
608.107	0.0163029
608.185	0.0163880
608.263	0.0164762
608.341	0.0162921
608.419	0.0163486
608.497	0.0163148
608.575	0.0162783
608.654	0.0162293
608.732	0.0163098
608.810	0.0161160
608.888	0.0161577
608.966	0.0161234
609.044	0.0160715
609.122	0.0162061
609.200	0.0160348
609.279	0.0160331
609.357	0.0160014
609.435	0.0161820
609.513	0.0161250
609.591	0.0160654
609.669	0.0159938
609.747	0.0161507
609.825	0.0160905
609.904	0.0160271
609.982	0.0162560
610.060	0.0162972
610.138	0.0161957
610.216	0.0161586
610.294	0.0161262
610.372	0.0161623
610.450	0.0161582
610.529	0.0162904
610.607	0.0163544
610.685	0.0162177
610.763	0.0161856
610.841	0.0162231
610.919	0.0161982
610.997	0.0161975
611.075	0.0162206
611.154	0.0160617
611.232	0.0161224
611.310	0.0161285
611.388	0.0162833
611.466	0.0161120
611.544	0.0161236
611.622	0.0160752
611.700	0.0160652
611.779	0.0162304
611.857	0.0161849
611.935	0.0161791
612.013	0.0161449
612.091	0.0161234
612.169	0.0162370
612.247	0.0161131
612.325	0.0161292
612.404	0.0161928
612.482	0.0160927
612.560	0.0161584
612.638	0.0161685
612.716	0.0160732
612.794	0.0160772
612.872	0.0161964
612.950	0.0161928
613.029	0.0161316
613.107	0.0162000
613.185	0.0160043
613.263	0.0162121
613.341	0.0162116
613.419	0.0162472
613.497	0.0160513
613.575	0.0161855
613.654	0.0161468
613.732	0.0162147
613.810	0.0161720
613.888	0.0162363
613.966	0.0161311
614.044	0.0162210
614.122	0.0162079
614.200	0.0161456
614.279	0.0161027
614.357	0.0161229
614.435	0.0160788
614.513	0.0160701
614.591	0.0160678
614.669	0.0162006
614.747	0.0160471
614.825	0.0161325
614.904	0.0159908
614.982	0.0159901
615.060	0.0160347
615.138	0.0162137
615.216	0.0161252
615.294	0.0160722
615.372	0.0161963
615.450	0.0161068
615.529	0.0162661
615.607	0.0161936
615.685	0.0162830
615.763	0.0161855
615.841	0.0161667
615.919	0.0161193
615.997	0.0159911
616.075	0.0162592
616.154	0.0161420
616.232	0.0160549
616.310	0.0160376
616.388	0.0160844
616.466	0.0160401
616.544	0.0159825
616.622	0.0160316
616.700	0.0161420
616.779	0.0160688
616.857	0.0159352
616.935	0.0160221
617.013	0.0159978
617.091	0.0160260
617.169	0.0159906
617.247	0.0160559
617.325	0.0159738
617.404	0.0161239
617.482	0.0160185
617.560	0.0159959
617.638	0.0160388
617.716	0.0161013
617.794	0.0159350
617.872	0.0160361
617.950	0.0160772
618.029	0.0161020
618.107	0.0161597
618.185	0.0161742
618.263	0.0160581
618.341	0.0160731
618.419	0.0160928
618.497	0.0159534
618.575	0.0160825
618.654	0.0160452
618.732	0.0160220
618.810	0.0160856
618.888	0.0160307
618.966	0.0158328
619.044	0.0160715
619.122	0.0161021
619.200	0.0160462
619.279	0.0160355
619.357	0.0160193
619.435	0.0159220
619.513	0.0158114
619.591	0.0160330
619.669	0.0160401
619.747	0.0159209
619.825	0.0161446
619.904	0.0158592
619.982	0.0159793
620.060	0.0160902
620.138	0.0159348
620.216	0.0158161
620.294	0.0160074
620.372	0.0160806
620.450	0.0160719
620.529	0.0163634
620.607	0.0163293
620.685	0.0161954
620.763	0.0161994
620.841	0.0162263
620.919	0.0163117
620.997	0.0162770
621.075	0.0163464
621.154	0.0162572
621.232	0.0163187
621.310	0.0161356
621.388	0.0161209
621.466	0.0164038
621.544	0.0160785
621.622	0.0159106
621.700	0.0160316
621.779	0.0159888
621.857	0.0159693
621.935	0.0160176
622.013	0.0159521
622.091	0.0160409
622.169	0.0160275
622.247	0.0160265
622.325	0.0159446
622.404	0.0160021
622.482	0.0161617
622.560	0.0160554
622.638	0.0160976
622.716	0.0161420
622.794	0.0160646
622.872	0.0160075
622.950	0.0160827
623.029	0.0159530
623.107	0.0159122
623.185	0.0160526
623.263	0.0159997
623.341	0.0159866
623.419	0.0159433
623.497	0.0160580
623.575	0.0160747
623.654	0.0160419
623.732	0.0160628
623.810	0.0161800
623.888	0.0162126
623.966	0.0163091
624.044	0.0163154
624.122	0.0163844
624.200	0.0164190
624.279	0.0162910
624.357	0.0164503
624.435	0.0164361
624.513	0.0164305
624.591	0.0163342
624.669	0.0164473
624.747	0.0163068
624.825	0.0163729
624.904	0.0165124
624.982	0.0163837
625.060	0.0163270
625.138	0.0163492
625.216	0.0162923
625.294	0.0162791
625.372	0.0161806
625.450	0.0161948
625.529	0.0159934
625.607	0.0159834
625.685	0.0158394
625.763	0.0158291
625.841	0.0157056
625.919	0.0157658
625.997	0.0158581
626.075	0.0156268
626.154	0.0158290
626.232	0.0156174
626.310	0.0157401
626.388	0.0158707
626.466	0.0159112
626.544	0.0159258
626.622	0.0159511
626.700	0.0162253
626.779	0.0161844
626.857	0.0163632
626.935	0.0163291
627.013	0.0164873
627.091	0.0163985
627.169	0.0165492
627.247	0.0164766
627.325	0.0166257
627.404	0.0167067
627.482	0.0167702
627.560	0.0169420
627.638	0.0168824
627.716	0.0169268
627.794	0.0170756
627.872	0.0169862
627.950	0.0171376
628.029	0.0171116
628.107	0.0169522
628.185	0.0167712
628.263	0.0168420
628.341	0.0165166
628.419	0.0163582
628.497	0.0162934
628.575	0.0160622
628.654	0.0158289
628.732	0.0156850
628.810	0.0156118
628.888	0.0154498
628.966	0.0153899
629.044	0.0151571
629.122	0.0152444
629.200	0.0152536
629.279	0.0151125
629.357	0.0152116
629.435	0.0150562
629.513	0.0152431
629.591	0.0151138
629.669	0.0150979
629.747	0.0151334
629.825	0.0151886
629.904	0.0151835
629.982	0.0153410
630.060	0.0153998
630.138	0.0152271
630.216	0.0156865
630.294	0.0156384
630.372	0.0158604
630.450	0.0161605
630.529	0.0163715
630.607	0.0166264
630.685	0.0169489
630.763	0.0171113
630.841	0.0173948
630.919	0.0175121
630.997	0.0176041
631.075	0.0177953
631.154	0.0180453
631.232	0.0181416
631.310	0.0181648
631.388	0.0181477
631.466	0.0181409
631.544	0.0180659
631.622	0.0179607
631.700	0.0179262
631.779	0.0177699
631.857	0.0177209
631.935	0.0174796
632.013	0.0170774
632.091	0.0169382
632.169	0.0166090
632.247	0.0163721
632.325	0.0159097
632.404	0.0157002
632.482	0.0154735
632.560	0.0149802
632.638	0.0146830
632.716	0.0144480
632.794	0.0141996
632.872	0.0139972
632.950	0.0139324
633.029	0.0135730
633.107	0.0132610
633.185	0.0133490
633.263	0.0134462
633.341	0.0133788
633.419	0.0133531
633.497	0.0133904
633.575	0.0135787
633.654	0.0135919
633.732	0.0139351
633.810	0.0141737
633.888	0.0142623
633.966	0.0146761
634.044	0.0150945
634.122	0.0155021
634.200	0.0160505
634.279	0.0166372
634.357	0.0169780
634.435	0.0174853
634.513	0.0178859
634.591	0.0181704
634.669	0.0186330
634.747	0.0190842
634.825	0.0191679
634.904	0.0193386
634.982	0.0193265
635.060	0.0194363
635.138	0.0193862
635.216	0.0193636
635.294	0.0191940
635.372	0.0189393
635.450	0.0187993
635.529	0.0185589
635.607	0.0183557
635.685	0.0180242
635.763	0.0175935
635.841	0.0173222
635.919	0.0168246
635.997	0.0165572
636.075	0.0160920
636.154	0.0154783
636.232	0.0151620
636.310	0.0147453
636.388	0.0142674
636.466	0.0139599
636.544	0.0136734
636.622	0.0132245
636.700	0.0130995
636.779	0.0129305
636.857	0.0128780
636.935	0.0126910
637.013	0.0127342
637.091	0.0129994
637.169	0.0132392
637.247	0.0131596
637.325	0.0132735
637.404	0.0137382
637.482	0.0139101
637.560	0.0142436
637.638	0.0146408
637.716	0.0148826
637.794	0.0152919
637.872	0.0157552
637.950	0.0162995
638.029	0.0164738
638.107	0.0167966
638.185	0.0171432
638.263	0.0174445
638.341	0.0177596
638.419	0.0178059
638.497	0.0181750
638.575	0.0182788
638.654	0.0182388
638.732	0.0182367
638.810	0.0182020
638.888	0.0181167
638.966	0.0179247
639.044	0.0179047
639.122	0.0177763
639.200	0.0177603
639.279	0.0175128
639.357	0.0172345
639.435	0.0170811
639.513	0.0168924
639.591	0.0167783
639.669	0.0165630
639.747	0.0163710
639.825	0.0161054
639.904	0.0160925
639.982	0.0162029
640.060	0.0160349
640.138	0.0159419
640.216	0.0159941
640.294	0.0160586
640.372	0.0158838
640.450	0.0158813
640.529	0.0160657
640.607	0.0160752
640.685	0.0160973
640.763	0.0161054
640.841	0.0161093
640.919	0.0162339
640.997	0.0162332
641.075	0.0159827
641.154	0.0159366
641.232	0.0160311
641.310	0.0159517
641.388	0.0159998
641.466	0.0158152
641.544	0.0156500
641.622	0.0156645
641.700	0.0155273
641.779	0.0153521
641.857	0.0150500
641.935	0.0148725
642.013	0.0148199
642.091	0.0146620
642.169	0.0144162
642.247	0.0143601
642.325	0.0140836
642.404	0.0142507
642.482	0.0142316
642.560	0.0142650
642.638	0.0143703
642.716	0.0144158
642.794	0.0145885
642.872	0.0148736
642.950	0.0150896
643.029	0.0154011
643.107	0.0154491
643.185	0.0156516
643.263	0.0161055
643.341	0.0163719
643.419	0.0166576
643.497	0.0167660
643.575	0.0171748
643.654	0.0172161
643.732	0.0175029
643.810	0.0176007
643.888	0.0179977
643.966	0.0181073
644.044	0.0181506
644.122	0.0183020
644.200	0.0182830
644.279	0.0182360
644.357	0.0182798
644.435	0.0181347
644.513	0.0181165
644.591	0.0179362
644.669	0.0177372
644.747	0.0175695
644.825	0.0174567
644.904	0.0171614
644.982	0.0169753
645.060	0.0166638
645.138	0.0166527
645.216	0.0163305
645.294	0.0160354
645.372	0.0159023
645.450	0.0157490
645.529	0.0153568
645.607	0.0151394
645.685	0.0151674
645.763	0.0150092
645.841	0.0145911
645.919	0.0147223
645.997	0.0147305
646.075	0.0145548
646.154	0.0144138
646.232	0.0144305
646.310	0.0144614
646.388	0.0145177
646.466	0.0144952
646.544	0.0144254
646.622	0.0145137
646.700	0.0144748
646.779	0.0147456
646.857	0.0147447
646.935	0.0147083
647.013	0.0149024
647.091	0.0149675
647.169	0.0150281
647.247	0.0151755
647.325	0.0153439
647.404	0.0155455
647.482	0.0155458
647.560	0.0157152
647.638	0.0158134
647.716	0.0160867
647.794	0.0160012
647.872	0.0160616
647.950	0.0162717
648.029	0.0164771
648.107	0.0163451
648.185	0.0165015
648.263	0.0166798
648.341	0.0168081
648.419	0.0168440
648.497	0.0168707
648.575	0.0170697
648.654	0.0172937
648.732	0.0173866
648.810	0.0175148
648.888	0.0176436
648.966	0.0176769
649.044	0.0178780
649.122	0.0180686
649.200	0.0180550
649.279	0.0182642
649.357	0.0181536
649.435	0.0180360
649.513	0.0180403
649.591	0.0178803
649.669	0.0177030
649.747	0.0174100
649.825	0.0172034
649.904	0.0168815
649.982	0.0164790
650.060	0.0161789
650.138	0.0158594
650.216	0.0155060
650.294	0.0153219
650.372	0.0151073
650.450	0.0148351
650.529	0.0146147
650.607	0.0143840
650.685	0.0142981
650.763	0.0142272
650.841	0.0142372
650.919	0.0142264
650.997	0.0142196
651.075	0.0142271
651.154	0.0141786
651.232	0.0143246
651.310	0.0143745
651.388	0.0145315
651.466	0.0146936
651.544	0.0148542
651.622	0.0152123
651.700	0.0154737
651.779	0.0157048
651.857	0.0162743
651.935	0.0162984
652.013	0.0167075
652.091	0.0170488
652.169	0.0170808
652.247	0.0175269
652.325	0.0176736
652.404	0.0177599
652.482	0.0177905
652.560	0.0179000
652.638	0.0179504
652.716	0.0178730
652.794	0.0177415
652.872	0.0177623
652.950	0.0176295
653.029	0.0175879
653.107	0.0170979
653.185	0.0169741
653.263	0.0167724
653.341	0.0164197
653.419	0.0163935
653.497	0.0160577
653.575	0.0158486
653.654	0.0157130
653.732	0.0155696
653.810	0.0156026
653.888	0.0155162
653.966	0.0156357
654.044	0.0156700
654.122	0.0157440
654.200	0.0157483
654.279	0.0158214
654.357	0.0159216
654.435	0.0159694
654.513	0.0156033
654.591	0.0157220
654.669	0.0155907
654.747	0.0153992
654.825	0.0152752
654.904	0.0153185
654.982	0.0151828
655.060	0.0151965
655.138	0.0151765
655.216	0.0150090
655.294	0.0151627
655.372	0.0153691
655.450	0.0155904
655.529	0.0157005
655.607	0.0158822
655.685	0.0159638
655.763	0.0161317
655.841	0.0163440
655.919	0.0161771
655.997	0.0163928
656.075	0.0163979
656.154	0.0163549
656.232	0.0164233
656.310	0.0163818
656.388	0.0163054
656.466	0.0164350
656.544	0.0164608
656.622	0.0167606
656.700	0.0168145
656.779	0.0167229
656.857	0.0168245
656.935	0.0169899
657.013	0.0169499
657.091	0.0170028
657.169	0.0168375
657.247	0.0166930
657.325	0.0165501
657.404	0.0165589
657.482	0.0162327
657.560	0.0164020
657.638	0.0163025
657.716	0.0162787
657.794	0.0162047
657.872	0.0163814
657.950	0.0164130
658.029	0.0164589
658.107	0.0164703
658.185	0.0165228
658.263	0.0165492
658.341	0.0165276
658.419	0.0164639
658.497	0.0164729
658.575	0.0164126
658.654	0.0162467
658.732	0.0162598
658.810	0.0160309
658.888	0.0161253
658.966	0.0160297
659.044	0.0161855
659.122	0.0160464
659.200	0.0160811
659.279	0.0161478
659.357	0.0161340
659.435	0.0162233
659.513	0.0163238
659.591	0.0161475
659.669	0.0159325
659.747	0.0160802
659.825	0.0158623
659.904	0.0156447
659.982	0.0157788
660.060	0.0158389
660.138	0.0156429
660.216	0.0155131
660.294	0.0155107
660.372	0.0155572
660.450	0.0154793
660.529	0.0154485
660.607	0.0154620
660.685	0.0155316
660.763	0.0154315
660.841	0.0154764
660.919	0.0156257
660.997	0.0156544
661.075	0.0156646
661.154	0.0157453
661.232	0.0157384
661.310	0.0159557
661.388	0.0158276
661.466	0.0158531
661.544	0.0159989
661.622	0.0160531
661.700	0.0160075
661.779	0.0161267
661.857	0.0162138
661.935	0.0160621
662.013	0.0161920
662.091	0.0162627
662.169	0.0162293
662.247	0.0162182
662.325	0.0162489
662.404	0.0161562
662.482	0.0161179
662.560	0.0161395
662.638	0.0159422
662.716	0.0160965
662.794	0.0160471
662.872	0.0160338
662.950	0.0160654
663.029	0.0160703
663.107	0.0162035
663.185	0.0161036
663.263	0.0162032
663.341	0.0162352
663.419	0.0163351
663.497	0.0163278
663.575	0.0165041
663.654	0.0164735
663.732	0.0164240
663.810	0.0163873
663.888	0.0164436
663.966	0.0163577
664.044	0.0162386
664.122	0.0160564
664.200	0.0161702
664.279	0.0160763
664.357	0.0159444
664.435	0.0161586
664.513	0.0160941
664.591	0.0159785
664.669	0.0160503
664.747	0.0159258
664.825	0.0159740
664.904	0.0160360
664.982	0.0160815
665.060	0.0160692
665.138	0.0161723
665.216	0.0161412
665.294	0.0160957
665.372	0.0163961
665.450	0.0164122
665.529	0.0164940
665.607	0.0164765
665.685	0.0165474
665.763	0.0166497
665.841	0.0166866
665.919	0.0165870
665.997	0.0164050
666.075	0.0164581
666.154	0.0162811
666.232	0.0161440
666.310	0.0159178
666.388	0.0156255
666.466	0.0153436
666.544	0.0151611
666.622	0.0149007
666.700	0.0146584
666.779	0.0145387
666.857	0.0143027
666.935	0.0141324
667.013	0.0140502
667.091	0.0138930
667.169	0.0138606
667.247	0.0138417
667.325	0.0137960
667.404	0.0138716
667.482	0.0138639
667.560	0.0139123
667.638	0.0140640
667.716	0.0142084
667.794	0.0143462
667.872	0.0144840
667.950	0.0145670
668.029	0.0148656
668.107	0.0149957
668.185	0.0154239
668.263	0.0156429
668.341	0.0158215
668.419	0.0161225
668.497	0.0164484
668.575	0.0167382
668.654	0.0169695
668.732	0.0174987
668.810	0.0175935
668.888	0.0181853
668.966	0.0184562
669.044	0.0187906
669.122	0.0190608
669.200	0.0192538
669.279	0.0195770
669.357	0.0196572
669.435	0.0198311
669.513	0.0197470
669.591	0.0199414
669.669	0.0197699
669.747	0.0196503
669.825	0.0194610
669.904	0.0192186
669.982	0.0190771
670.060	0.0188016
670.138	0.0185104
670.216	0.0181163
670.294	0.0176616
670.372	0.0173552
670.450	0.0168712
670.529	0.0165269
670.607	0.0161484
670.685	0.0156699
670.763	0.0150864
670.841	0.0147499
670.919	0.0143298
670.997	0.0140368
671.075	0.0137346
671.154	0.0134837
671.232	0.0133489
671.310	0.0132564
671.388	0.0130019
671.466	0.0131012
671.544	0.0132603
671.622	0.0131947
671.700	0.0133344
671.779	0.0134598
671.857	0.0135809
671.935	0.0135901
672.013	0.0136318
672.091	0.0138759
672.169	0.0140610
672.247	0.0141873
672.325	0.0143301
672.404	0.0145857
672.482	0.0146603
672.560	0.0149715
672.638	0.0152342
672.716	0.0155154
672.794	0.0155961
672.872	0.0158709
672.950	0.0163727
673.029	0.0163379
673.107	0.0166748
673.185	0.0169837
673.263	0.0170418
673.341	0.0173160
673.419	0.0174473
673.497	0.0174650
673.575	0.0175324
673.654	0.0177012
673.732	0.0176007
673.810	0.0176968
673.888	0.0177761
673.966	0.0179269
674.044	0.0178932
674.122	0.0177679
674.200	0.0176535
674.279	0.0177151
674.357	0.0175593
674.435	0.0175230
674.513	0.0173861
674.591	0.0172974
674.669	0.0172049
674.747	0.0170827
674.825	0.0171003
674.904	0.0169936
674.982	0.0170144
675.060	0.0170087
675.138	0.0168880
675.216	0.0166908
675.294	0.0165733
675.372	0.0164889
675.450	0.0162976
675.529	0.0162164
675.607	0.0159232
675.685	0.0157846
675.763	0.0156713
675.841	0.0154372
675.919	0.0152464
675.997	0.0150066
676.075	0.0150970
676.154	0.0150323
676.232	0.0149321
676.310	0.0149710
676.388	0.0151121
676.466	0.0151571
676.544	0.0153670
676.622	0.0152551
676.700	0.0152680
676.779	0.0156892
676.857	0.0157650
676.935	0.0157531
677.013	0.0157803
677.091	0.0158553
677.169	0.0161344
677.247	0.0159427
677.325	0.0160000
677.404	0.0160555
677.482	0.0161202
677.560	0.0162083
677.638	0.0162564
677.716	0.0161392
677.794	0.0162641
677.872	0.0162301
677.950	0.0163754
678.029	0.0163316
678.107	0.0161907
678.185	0.0162655
678.263	0.0162373
678.341	0.0162953
678.419	0.0163227
678.497	0.0161395
678.575	0.0162814
678.654	0.0163031
678.732	0.0160524
678.810	0.0160039
678.888	0.0159834
678.966	0.0160283
679.044	0.0160006
679.122	0.0157795
679.200	0.0157591
679.279	0.0157590
679.357	0.0156444
679.435	0.0155157
679.513	0.0155766
679.591	0.0154396
679.669	0.0155409
679.747	0.0156441
679.825	0.0157011
679.904	0.0156741
679.982	0.0158598
680.060	0.0159393
680.138	0.0157767
680.216	0.0159818
680.294	0.0160834
680.372	0.0162366
680.450	0.0162903
680.529	0.0162651
680.607	0.0163058
680.685	0.0162393
680.763	0.0162253
680.841	0.0163155
680.919	0.0163579
680.997	0.0162615
681.075	0.0163061
681.154	0.0162279
681.232	0.0163078
681.310	0.0162395
681.388	0.0162631
681.466	0.0163219
681.544	0.0162241
681.622	0.0163105
681.700	0.0162673
681.779	0.0162241
681.857	0.0164454
681.935	0.0164257
682.013	0.0164674
682.091	0.0163698
682.169	0.0164928
682.247	0.0164066
682.325	0.0166634
682.404	0.0165892
682.482	0.0167213
682.560	0.0167689
682.638	0.0167317
682.716	0.0168395
682.794	0.0169388
682.872	0.0168774
682.950	0.0168076
683.029	0.0168140
683.107	0.0166904
683.185	0.0164385
683.263	0.0165337
683.341	0.0164276
683.419	0.0162016
683.497	0.0161276
683.575	0.0159785
683.654	0.0158214
683.732	0.0155471
683.810	0.0156502
683.888	0.0155701
683.966	0.0153542
684.044	0.0152765
684.122	0.0152670
684.200	0.0151904
684.279	0.0151190
684.357	0.0152361
684.435	0.0153066
684.513	0.0153959
684.591	0.0152220
684.669	0.0152847
684.747	0.0154138
684.825	0.0155548
684.904	0.0156311
684.982	0.0156187
685.060	0.0157612
685.138	0.0158303
685.216	0.0159188
685.294	0.0159623
685.372	0.0159814
685.450	0.0162181
685.529	0.0161996
685.607	0.0161846
685.685	0.0162409
685.763	0.0164315
685.841	0.0164725
685.919	0.0162611
685.997	0.0163938
686.075	0.0164347
686.154	0.0163168
686.232	0.0163635
686.310	0.0163409
686.388	0.0163611
686.466	0.0163345
686.544	0.0162164
686.622	0.0161143
686.700	0.0162169
686.779	0.0161921
686.857	0.0160812
686.935	0.0160468
687.013	0.0160275
687.091	0.0160353
687.169	0.0160732
687.247	0.0159335
687.325	0.0158803
687.404	0.0160347
687.482	0.0159810
687.560	0.0158360
687.638	0.0160023
687.716	0.0159992
687.794	0.0161718
687.872	0.0162962
687.950	0.0161713
688.029	0.0163937
688.107	0.0163475
688.185	0.0164673
688.263	0.0165520
688.341	0.0166180
688.419	0.0168089
688.497	0.0168958
688.575	0.0170599
688.654	0.0170784
688.732	0.0172627
688.810	0.0171951
688.888	0.0171046
688.966	0.0171532
689.044	0.0172255
689.122	0.0172614
689.200	0.0171799
689.279	0.0169843
689.357	0.0167481
689.435	0.0167702
689.513	0.0165089
689.591	0.0162774
689.669	0.0159756
689.747	0.0158626
689.825	0.0158182
689.904	0.0157130
689.982	0.0154771
690.060	0.0152882
690.138	0.0151700
690.216	0.0150603
690.294	0.0150548
690.372	0.0149110
690.450	0.0148201
690.529	0.0150432
690.607	0.0150499
690.685	0.0149496
690.763	0.0148840
690.841	0.0150434
690.919	0.0151854
690.997	0.0150850
691.075	0.0152434
691.154	0.0154321
691.232	0.0154398
691.310	0.0155112
691.388	0.0155733
691.466	0.0157441
691.544	0.0157058
691.622	0.0156744
691.700	0.0158875
691.779	0.0159886
691.857	0.0160193
691.935	0.0161549
692.013	0.0161367
692.091	0.0159545
692.169	0.0160822
692.247	0.0161584
692.325	0.0161852
692.404	0.0162384
692.482	0.0163180
692.560	0.0163245
692.638	0.0162917
692.716	0.0163470
692.794	0.0164140
692.872	0.0165302
692.950	0.0166209
693.029	0.0166373
693.107	0.0165440
693.185	0.0167618
693.263	0.0167792
693.341	0.0166881
693.419	0.0166724
693.497	0.0166946
693.575	0.0165974
693.654	0.0166763
693.732	0.0166562
693.810	0.0166768
693.888	0.0165450
693.966	0.0165151
694.044	0.0165525
694.122	0.0164424
694.200	0.0165209
694.279	0.0165026
694.357	0.0161730
694.435	0.0161568
694.513	0.0161142
694.591	0.0160462
694.669	0.0160214
694.747	0.0157114
694.825	0.0157196
694.904	0.0157309
694.982	0.0154999
695.060	0.0155608
695.138	0.0154601
695.216	0.0155431
695.294	0.0154510
695.372	0.0154018
695.450	0.0154588
695.529	0.0155251
695.607	0.0155611
695.685	0.0156182
695.763	0.0156674
695.841	0.0158136
695.919	0.0157166
695.997	0.0158331
696.075	0.0158820
696.154	0.0160638
696.232	0.0160341
696.310	0.0162199
696.388	0.0160936
696.466	0.0162444
696.544	0.0161771
696.622	0.0162937
696.700	0.0164250
696.779	0.0162997
696.857	0.0164622
696.935	0.0164950
697.013	0.0164561
697.091	0.0165418
697.169	0.0164915
697.247	0.0165448
697.325	0.0165524
697.404	0.0163953
697.482	0.0164243
697.560	0.0164182
697.638	0.0165326
697.716	0.0164961
697.794	0.0162029
697.872	0.0161607
697.950	0.0161668
698.029	0.0162511
698.107	0.0160381
698.185	0.0160322
698.263	0.0160113
698.341	0.0157981
698.419	0.0156855
698.497	0.0155909
698.575	0.0155997
698.654	0.0155930
698.732	0.0154583
698.810	0.0154111
698.888	0.0154657
698.966	0.0154659
699.044	0.0155668
699.122	0.0157017
699.200	0.0156508
699.279	0.0157198
699.357	0.0158313
699.435	0.0160295
699.513	0.0160425
699.591	0.0160387
699.669	0.0160869
699.747	0.0161594
699.825	0.0162894
699.904	0.0163339
699.982	0.0163561
700.060	0.0162955
700.138	0.0163912
700.216	0.0163976
700.294	0.0164155
700.372	0.0163108
700.450	0.0163905
700.529	0.0163304
700.607	0.0163090
700.685	0.0163141
700.763	0.0163434
700.841	0.0163808
700.919	0.0161538
700.997	0.0163391
701.075	0.0162566
701.154	0.0162981
701.232	0.0162628
701.310	0.0161451
701.388	0.0159402
701.466	0.0160342
701.544	0.0160765
701.622	0.0158915
701.700	0.0160291
701.779	0.0160059
701.857	0.0159711
701.935	0.0160628
702.013	0.0160438
702.091	0.0160406
702.169	0.0159959
702.247	0.0161291
702.325	0.0162813
702.404	0.0163077
702.482	0.0162187
702.560	0.0161155
702.638	0.0160802
702.716	0.0160543
702.794	0.0160040
702.872	0.0162186
702.950	0.0159311
703.029	0.0160963
703.107	0.0161852
703.185	0.0159766
703.263	0.0160445
703.341	0.0160348
703.419	0.0158693
703.497	0.0160448
703.575	0.0159810
703.654	0.0160588
703.732	0.0160064
703.810	0.0161304
703.888	0.0162404
703.966	0.0162146
704.044	0.0162579
704.122	0.0162682
704.200	0.0162173
704.279	0.0163206
704.357	0.0163857
704.435	0.0163462
704.513	0.0163468
704.591	0.0162897
704.669	0.0163641
704.747	0.0163323
704.825	0.0164244
704.904	0.0163622
704.982	0.0161769
705.060	0.0161887
705.138	0.0163564
705.216	0.0160962
705.294	0.0160993
705.372	0.0160616
705.450	0.0160970
705.529	0.0159151
705.607	0.0160016
705.685	0.0158078
705.763	0.0157575
705.841	0.0158016
705.919	0.0156480
705.997	0.0156216
706.075	0.0155869
706.154	0.0156355
706.232	0.0156979
706.310	0.0156803
706.388	0.0156957
706.466	0.0157898
706.544	0.0158220
706.622	0.0157526
706.700	0.0157196
706.779	0.0159154
706.857	0.0160509
706.935	0.0158498
707.013	0.0160193
707.091	0.0161997
707.169	0.0160653
707.247	0.0159898
707.325	0.0161346
707.404	0.0162174
707.482	0.0162514
707.560	0.0163021
707.638	0.0163724
707.716	0.0163424
707.794	0.0163777
707.872	0.0164233
707.950	0.0163464
708.029	0.0164734
708.107	0.0163253
708.185	0.0164683
708.263	0.0163536
708.341	0.0162836
708.419	0.0163105
708.497	0.0163261
708.575	0.0162645
708.654	0.0162615
708.732	0.0162379
708.810	0.0161372
708.888	0.0162398
708.966	0.0163141
709.044	0.0161670
709.122	0.0161513
709.200	0.0162700
709.279	0.0161417
709.357	0.0162265
709.435	0.0161988
709.513	0.0161526
709.591	0.0162854
709.669	0.0162204
709.747	0.0161382
709.825	0.0162075
709.904	0.0162601
709.982	0.0161935
710.060	0.0161067
710.138	0.0162664
710.216	0.0161979
710.294	0.0163020
710.372	0.0161935
710.450	0.0161023
710.529	0.0160860
710.607	0.0161352
710.685	0.0160753
710.763	0.0160806
710.841	0.0160239
710.919	0.0159896
710.997	0.0160178
711.075	0.0159128
711.154	0.0159133
711.232	0.0158249
711.310	0.0159052
711.388	0.0160435
711.466	0.0158841
711.544	0.0159954
711.622	0.0159827
711.700	0.0160897
711.779	0.0161311
711.857	0.0161469
711.935	0.0160912
712.013	0.0160969
712.091	0.0161030
712.169	0.0162558
712.247	0.0161623
712.325	0.0160465
712.404	0.0161750
712.482	0.0161692
712.560	0.0159987
712.638	0.0157884
712.716	0.0159309
712.794	0.0159968
712.872	0.0158467
712.950	0.0158535
713.029	0.0158248
713.107	0.0158229
713.185	0.0159184
713.263	0.0160172
713.341	0.0157635
713.419	0.0158556
713.497	0.0158366
713.575	0.0160138
713.654	0.0159164
713.732	0.0158964
713.810	0.0158160
713.888	0.0158193
713.966	0.0159341
714.044	0.0158387
714.122	0.0158724
714.200	0.0159611
714.279	0.0158700
714.357	0.0158720
714.435	0.0160917
714.513	0.0160809
714.591	0.0160499
714.669	0.0160500
714.747	0.0159990
714.825	0.0161095
714.904	0.0161018
714.982	0.0160776
715.060	0.0159731
715.138	0.0161283
715.216	0.0160310
715.294	0.0159332
715.372	0.0159293
715.450	0.0161376
715.529	0.0160055
715.607	0.0160593
715.685	0.0161658
715.763	0.0160503
715.841	0.0161454
715.919	0.0160412
715.997	0.0160842
716.075	0.0160489
716.154	0.0160532
716.232	0.0160732
716.310	0.0159155
716.388	0.0160447
716.466	0.0160081
716.544	0.0158643
716.622	0.0159206
716.700	0.0159499
716.779	0.0158645
716.857	0.0158183
716.935	0.0159056
717.013	0.0159034
717.091	0.0158960
717.169	0.0160398
717.247	0.0159668
717.325	0.0162006
717.404	0.0162598
717.482	0.0161951
717.560	0.0163190
717.638	0.0164204
717.716	0.0162903
717.794	0.0162572
717.872	0.0163935
717.950	0.0163208
718.029	0.0163931
718.107	0.0164121
718.185	0.0163528
718.263	0.0163242
718.341	0.0164099
718.419	0.0164046
718.497	0.0163358
718.575	0.0164048
718.654	0.0163478
718.732	0.0162468
718.810	0.0163576
718.888	0.0162832
718.966	0.0163367
719.044	0.0163045
719.122	0.0161472
719.200	0.0161000
719.279	0.0162085
719.357	0.0160965
719.435	0.0159504
719.513	0.0160372
719.591	0.0159853
719.669	0.0159330
719.747	0.0160147
719.825	0.0158814
719.904	0.0159287
719.982	0.0158549
720.060	0.0159734
720.138	0.0158135
720.216	0.0159336
720.294	0.0157911
720.372	0.0158619
720.450	0.0159337
720.529	0.0158745
720.607	0.0159686
720.685	0.0158984
720.763	0.0159810
720.841	0.0160719
720.919	0.0159488
720.997	0.0160457
721.075	0.0160508
721.154	0.0160117
721.232	0.0160183
721.310	0.0161909
721.388	0.0161852
721.466	0.0162057
721.544	0.0162132
721.622	0.0161236
721.700	0.0161994
721.779	0.0161600
721.857	0.0161631
721.935	0.0161765
722.013	0.0163291
722.091	0.0162579
722.169	0.0161095
722.247	0.0160699
722.325	0.0162126
722.404	0.0162767
722.482	0.0160959
722.560	0.0162076
722.638	0.0160981
722.716	0.0161296
722.794	0.0162165
722.872	0.0162101
722.950	0.0161781
723.029	0.0161915
723.107	0.0161292
723.185	0.0163004
723.263	0.0162004
723.341	0.0162589
723.419	0.0163000
723.497	0.0163378
723.575	0.0162636
723.654	0.0163012
723.732	0.0163261
723.810	0.0163952
723.888	0.0162784
723.966	0.0161431
724.044	0.0159983
724.122	0.0162022
724.200	0.0160991
724.279	0.0161958
724.357	0.0161805
724.435	0.0159562
724.513	0.0159242
724.591	0.0159445
724.669	0.0159903
724.747	0.0160419
724.825	0.0159909
724.904	0.0159551
724.982	0.0161003
725.060	0.0158568
725.138	0.0160612
725.216	0.0159444
725.294	0.0159307
725.372	0.0158450
725.450	0.0159991
725.529	0.0158640
725.607	0.0159686
725.685	0.0159286
725.763	0.0159846
725.841	0.0158363
725.919	0.0159199
725.997	0.0158710
726.075	0.0157469
726.154	0.0157967
726.232	0.0159193
726.310	0.0158985
726.388	0.0158887
726.466	0.0158897
726.544	0.0159025
726.622	0.0158242
726.700	0.0158904
726.779	0.0161145
726.857	0.0160197
726.935	0.0161593
727.013	0.0160834
727.091	0.0160712
727.169	0.0161175
727.247	0.0161994
727.325	0.0162381
727.404	0.0162895
727.482	0.0161740
727.560	0.0162009
727.638	0.0162721
727.716	0.0164890
727.794	0.0162646
727.872	0.0163905
727.950	0.0165202
728.029	0.0164312
728.107	0.0164682
728.185	0.0164246
728.263	0.0165594
728.341	0.0164370
728.419	0.0164957
728.497	0.0165048
728.575	0.0165974
728.654	0.0165596
728.732	0.0164404
728.810	0.0163783
728.888	0.0164085
728.966	0.0163468
729.044	0.0160963
729.122	0.0160766
729.200	0.0161499
729.279	0.0160776
729.357	0.0160005
729.435	0.0159067
729.513	0.0157848
729.591	0.0159438
729.669	0.0158236
729.747	0.0156244
729.825	0.0157140
729.904	0.0156593
729.982	0.0155758
730.060	0.0156376
730.138	0.0155947
730.216	0.0155555
730.294	0.0156120
730.372	0.0155994
730.450	0.0157694
730.529	0.0157391
730.607	0.0158097
730.685	0.0156679
730.763	0.0158443
730.841	0.0159480
730.919	0.0159538
730.997	0.0160760
731.075	0.0162531
731.154	0.0161452
731.232	0.0164088
731.310	0.0163396
731.388	0.0161587
731.466	0.0163084
731.544	0.0163750
731.622	0.0164591
731.700	0.0163454
731.779	0.0162915
731.857	0.0163239
731.935	0.0161771
732.013	0.0161749
732.091	0.0162463
732.169	0.0161100
732.247	0.0161402
732.325	0.0162730
732.404	0.0161049
732.482	0.0160260
732.560	0.0158987
732.638	0.0160134
732.716	0.0159294
732.794	0.0158359
732.872	0.0158457
732.950	0.0157481
733.029	0.0157951
733.107	0.0157122
733.185	0.0156326
733.263	0.0157130
733.341	0.0156164
733.419	0.0155476
733.497	0.0156265
733.575	0.0157411
733.654	0.0155908
733.732	0.0156608
733.810	0.0156634
733.888	0.0157622
733.966	0.0159139
734.044	0.0159337
734.122	0.0159265
734.200	0.0159917
734.279	0.0159098
734.357	0.0160522
734.435	0.0160612
734.513	0.0160776
734.591	0.0160306
734.669	0.0162696
734.747	0.0161259
734.825	0.0163241
734.904	0.0162664
734.982	0.0162976
735.060	0.0162339
735.138	0.0164424
735.216	0.0163187
735.294	0.0162842
735.372	0.0164585
735.450	0.0163483
735.529	0.0164191
735.607	0.0162804
735.685	0.0164757
735.763	0.0165578
735.841	0.0163008
735.919	0.0163794
735.997	0.0163358
736.075	0.0165221
736.154	0.0162808
736.232	0.0161812
736.310	0.0162476
736.388	0.0160780
736.466	0.0160400
736.544	0.0161588
736.622	0.0159856
736.700	0.0159011
736.779	0.0158913
736.857	0.0159433
736.935	0.0159682
737.013	0.0159083
737.091	0.0158794
737.169	0.0158380
737.247	0.0157587
737.325	0.0157179
737.404	0.0158460
737.482	0.0158387
737.560	0.0158511
737.638	0.0159458
737.716	0.0159807
737.794	0.0157929
737.872	0.0158815
737.950	0.0159272
738.029	0.0158832
738.107	0.0160020
738.185	0.0159235
738.263	0.0161266
738.341	0.0160459
738.419	0.0160586
738.497	0.0162188
738.575	0.0161213
738.654	0.0161511
738.732	0.0162959
738.810	0.0162006
738.888	0.0161663
738.966	0.0162134
739.044	0.0161983
739.122	0.0162120
739.200	0.0161511
739.279	0.0162177
739.357	0.0162201
739.435	0.0162376
739.513	0.0161090
739.591	0.0160576
739.669	0.0160803
739.747	0.0161621
739.825	0.0162041
739.904	0.0161771
739.982	0.0161349
740.060	0.0161359
740.138	0.0161979
740.216	0.0162204
740.294	0.0162560
740.372	0.0162752
740.450	0.0162960
740.529	0.0162679
740.607	0.0163390
740.685	0.0164474
740.763	0.0164426
740.841	0.0163093
740.919	0.0163142
740.997	0.0165376
741.075	0.0165094
741.154	0.0163667
741.232	0.0163447
741.310	0.0165456
741.388	0.0164589
741.466	0.0163981
741.544	0.0165066
741.622	0.0163751
741.700	0.0163226
741.779	0.0161717
741.857	0.0163319
741.935	0.0162660
742.013	0.0160740
742.091	0.0159377
742.169	0.0160964
742.247	0.0159120
742.325	0.0159466
742.404	0.0158188
742.482	0.0158765
742.560	0.0158303
742.638	0.0157462
742.716	0.0156940
742.794	0.0157339
742.872	0.0156745
742.950	0.0155684
743.029	0.0155816
743.107	0.0157374
743.185	0.0156837
743.263	0.0158664
743.341	0.0158147
743.419	0.0156799
743.497	0.0156929
743.575	0.0157471
743.654	0.0158248
743.732	0.0158188
743.810	0.0158644
743.888	0.0158474
743.966	0.0157430
744.044	0.0159119
744.122	0.0159581
744.200	0.0159986
744.279	0.0159927
744.357	0.0160818
744.435	0.0160351
744.513	0.0160943
744.591	0.0161050
744.669	0.0160994
744.747	0.0161274
744.825	0.0160944
744.904	0.0161065
744.982	0.0162547
745.060	0.0161508
745.138	0.0161563
745.216	0.0161629
745.294	0.0163966
745.372	0.0162746
745.450	0.0163667
745.529	0.0164656
745.607	0.0162551
745.685	0.0164298
745.763	0.0165060
745.841	0.0164187
745.919	0.0164542
745.997	0.0164763
746.075	0.0164822
746.154	0.0164295
746.232	0.0165063
746.310	0.0164417
746.388	0.0164107
746.466	0.0163075
746.544	0.0163311
746.622	0.0163054
746.700	0.0163293
746.779	0.0161973
746.857	0.0162627
746.935	0.0161064
747.013	0.0162502
747.091	0.0161456
747.169	0.0162207
747.247	0.0161922
747.325	0.0161591
747.404	0.0161421
747.482	0.0161246
747.560	0.0161393
747.638	0.0160249
747.716	0.0160072
747.794	0.0161193
747.872	0.0160022
747.950	0.0161631
748.029	0.0161796
748.107	0.0160220
748.185	0.0160847
748.263	0.0160764
748.341	0.0161485
748.419	0.0162476
748.497	0.0161154
748.575	0.0162901
748.654	0.0162901
748.732	0.0163319
748.810	0.0163643
748.888	0.0163222
748.966	0.0162936
749.044	0.0163674
749.122	0.0164043
749.200	0.0165750
749.279	0.0164222
749.357	0.0165143
749.435	0.0165217
749.513	0.0165264
749.591	0.0162558
749.669	0.0163235
749.747	0.0164220
749.825	0.0164595
749.904	0.0163101
749.982	0.0162470
750.060	0.0162708
750.138	0.0162295
750.216	0.0162337
750.294	0.0160828
750.372	0.0161951
750.450	0.0162252
750.529	0.0160778
750.607	0.0161102
750.685	0.0160796
750.763	0.0158533
750.841	0.0160483
750.919	0.0160923
750.997	0.0158379
751.075	0.0158677
751.154	0.0159005
751.232	0.0158412
751.310	0.0158223
751.388	0.0159384
751.466	0.0158227
751.544	0.0158202
751.622	0.0159769
751.700	0.0159286
751.779	0.0160481
751.857	0.0158931
751.935	0.0160387
752.013	0.0159052
752.091	0.0160720
752.169	0.0162302
752.247	0.0161414
752.325	0.0160915
752.404	0.0163338
752.482	0.0163315
752.560	0.0163254
752.638	0.0163569
752.716	0.0163504
752.794	0.0162167
752.872	0.0163377
752.950	0.0164387
753.029	0.0162868
753.107	0.0163357
753.185	0.0163687
753.263	0.0165149
753.341	0.0162659
753.419	0.0162655
753.497	0.0162897
753.575	0.0161668
753.654	0.0161156
753.732	0.0161292
753.810	0.0161955
753.888	0.0161736
753.966	0.0161411
754.044	0.0160428
754.122	0.0159568
754.200	0.0160442
754.279	0.0161918
754.357	0.0160725
754.435	0.0160955
754.513	0.0159562
754.591	0.0160439
754.669	0.0161076
754.747	0.0162161
754.825	0.0161249
754.904	0.0161990
754.982	0.0161114
755.060	0.0160935
755.138	0.0161258
755.216	0.0161934
755.294	0.0161562
755.372	0.0160135
755.450	0.0161691
755.529	0.0161121
755.607	0.0160980
755.685	0.0161522
755.763	0.0162109
755.841	0.0160555
755.919	0.0161270
755.997	0.0161974
756.075	0.0162083
756.154	0.0162160
756.232	0.0161029
756.310	0.0160661
756.388	0.0161309
756.466	0.0160634
756.544	0.0160410
756.622	0.0159536
756.700	0.0159940
756.779	0.0159910
756.857	0.0160677
756.935	0.0160156
757.013	0.0161231
757.091	0.0160117
757.169	0.0160611
757.247	0.0160012
757.325	0.0160161
757.404	0.0160230
757.482	0.0159580
757.560	0.0160148
757.638	0.0159987
757.716	0.0160629
757.794	0.0160938
757.872	0.0159596
757.950	0.0161282
758.029	0.0160861
758.107	0.0161758
758.185	0.0160350
758.263	0.0160296
758.341	0.0160365
758.419	0.0161448
758.497	0.0161356
758.575	0.0161761
758.654	0.0162554
758.732	0.0160675
758.810	0.0163867
758.888	0.0163055
758.966	0.0162524
759.044	0.0162840
759.122	0.0163496
759.200	0.0163605
759.279	0.0162169
759.357	0.0163741
759.435	0.0162973
759.513	0.0162946
759.591	0.0163950
759.669	0.0162231
759.747	0.0162395
759.825	0.0162345
759.904	0.0160976
759.982	0.0161945
760.060	0.0163306
760.138	0.0163423
760.216	0.0161890
760.294	0.0161620
760.372	0.0161533
760.450	0.0162572
760.529	0.0163273
760.607	0.0162270
760.685	0.0161302
760.763	0.0161547
760.841	0.0163144
760.919	0.0162730
760.997	0.0163798
761.075	0.0162081
761.154	0.0162922
761.232	0.0163221
761.310	0.0163924
761.388	0.0163080
761.466	0.0163280
761.544	0.0163338
761.622	0.0162724
761.700	0.0163915
761.779	0.0162045
761.857	0.0162525
761.935	0.0162218
762.013	0.0161523
762.091	0.0163409
762.169	0.0161097
762.247	0.0160629
762.325	0.0161529
762.404	0.0161110
762.482	0.0161028
762.560	0.0160419
762.638	0.0160230
762.716	0.0159565
762.794	0.0158281
762.872	0.0160015
762.950	0.0158564
763.029	0.0158078
763.107	0.0155842
763.185	0.0158252
763.263	0.0157475
763.341	0.0156523
763.419	0.0156393
763.497	0.0155732
763.575	0.0156552
763.654	0.0155420
763.732	0.0155704
763.810	0.0156324
763.888	0.0156807
763.966	0.0157398
764.044	0.0156056
764.122	0.0156868
764.200	0.0155100
764.279	0.0158323
764.357	0.0157464
764.435	0.0158118
764.513	0.0158751
764.591	0.0159530
764.669	0.0159975
764.747	0.0159419
764.825	0.0160152
764.904	0.0160403
764.982	0.0162137
765.060	0.0162859
765.138	0.0163177
765.216	0.0163642
765.294	0.0164705
765.372	0.0164554
765.450	0.0164687
765.529	0.0165474
765.607	0.0165445
765.685	0.0163552
765.763	0.0166809
765.841	0.0164408
765.919	0.0166281
765.997	0.0164265
766.075	0.0165344
766.154	0.0165825
766.232	0.0166016
766.310	0.0165498
766.388	0.0165825
766.466	0.0165989
766.544	0.0164609
766.622	0.0164005
766.700	0.0164777
766.779	0.0164146
766.857	0.0162389
766.935	0.0164471
767.013	0.0164280
767.091	0.0160936
767.169	0.0161238
767.247	0.0160342
767.325	0.0161488
767.404	0.0160590
767.482	0.0158881
767.560	0.0159489
767.638	0.0159501
767.716	0.0157327
767.794	0.0157409
767.872	0.0158958
767.950	0.0158154
768.029	0.0155920
768.107	0.0156681
768.185	0.0156618
768.263	0.0158889
768.341	0.0156287
768.419	0.0157256
768.497	0.0157326
768.575	0.0157675
768.654	0.0158413
768.732	0.0159662
768.810	0.0158104
768.888	0.0158453
768.966	0.0156874
769.044	0.0156830
769.122	0.0158955
769.200	0.0159656
769.279	0.0158638
769.357	0.0158360
769.435	0.0160371
769.513	0.0159809
769.591	0.0159459
769.669	0.0161303
769.747	0.0160856
769.825	0.0160717
769.904	0.0161608
769.982	0.0161296
770.060	0.0161896
770.138	0.0163117
770.216	0.0162239
770.294	0.0163662
770.372	0.0163533
770.450	0.0164196
770.529	0.0164594
770.607	0.0164235
770.685	0.0164423
770.763	0.0165225
770.841	0.0165932
770.919	0.0164628
770.997	0.0165043
771.075	0.0164683
771.154	0.0165597
771.232	0.0165720
771.310	0.0165098
771.388	0.0165099
771.466	0.0165003
771.544	0.0164332
771.622	0.0163493
771.700	0.0164455
771.779	0.0163024
771.857	0.0164178
771.935	0.0163297
772.013	0.0162314
772.091	0.0162391
772.169	0.0162630
772.247	0.0162498
772.325	0.0162360
772.404	0.0163668
772.482	0.0161253
772.560	0.0161361
772.638	0.0162084
772.716	0.0162084
772.794	0.0161971
772.872	0.0160983
772.950	0.0162214
773.029	0.0161717
773.107	0.0162469
773.185	0.0162554
773.263	0.0160531
773.341	0.0159947
773.419	0.0160502
773.497	0.0161266
773.575	0.0161255
773.654	0.0162357
773.732	0.0161764
773.810	0.0160503
773.888	0.0161588
773.966	0.0161574
774.044	0.0161131
774.122	0.0162028
774.200	0.0162229
774.279	0.0161397
774.357	0.0162120
774.435	0.0162039
774.513	0.0161274
774.591	0.0162898
774.669	0.0161287
774.747	0.0161556
774.825	0.0162045
774.904	0.0162453
774.982	0.0163430
775.060	0.0160818
775.138	0.0161354
775.216	0.0162958
775.294	0.0162275
775.372	0.0160898
775.450	0.0162583
775.529	0.0162789
775.607	0.0161374
775.685	0.0161117
775.763	0.0162456
775.841	0.0162483
775.919	0.0162141
775.997	0.0161990
776.075	0.0162378
776.154	0.0162119
776.232	0.0160802
776.310	0.0161629
776.388	0.0161816
776.466	0.0161806
776.544	0.0163132
776.622	0.0162383
776.700	0.0162663
776.779	0.0161620
776.857	0.0162929
776.935	0.0161737
777.013	0.0162523
777.091	0.0162746
777.169	0.0161883
777.247	0.0163035
777.325	0.0163873
777.404	0.0163121
777.482	0.0162472
777.560	0.0162090
777.638	0.0161797
777.716	0.0163459
777.794	0.0161842
777.872	0.0162469
777.950	0.0162051
778.029	0.0161862
778.107	0.0161630
778.185	0.0161434
778.263	0.0160647
778.341	0.0160938
778.419	0.0160458
778.497	0.0158855
778.575	0.0160803
778.654	0.0159413
778.732	0.0158862
778.810	0.0157962
778.888	0.0157886
778.966	0.0158308
779.044	0.0157401
779.122	0.0156984
779.200	0.0156448
779.279	0.0157351
779.357	0.0157720
779.435	0.0158331
779.513	0.0156091
779.591	0.0156145
779.669	0.0156629
779.747	0.0156440
779.825	0.0157403
779.904	0.0156298
779.982	0.0156332
780.060	0.0157970
780.138	0.0158530
780.216	0.0156432
780.294	0.0158305
780.372	0.0157764
780.450	0.0158231
780.529	0.0158553
780.607	0.0157215
780.685	0.0157420
780.763	0.0157159
780.841	0.0160008
780.919	0.0159092
780.997	0.0159177
781.075	0.0159624
781.154	0.0158735
781.232	0.0159624
781.310	0.0161250
781.388	0.0160784
781.466	0.0161575
781.544	0.0160176
781.622	0.0161810
781.700	0.0161677
781.779	0.0161443
781.857	0.0162031
781.935	0.0163507
782.013	0.0164271
782.091	0.0162983
782.169	0.0162853
782.247	0.0164462
782.325	0.0163599
782.404	0.0163336
782.482	0.0163625
782.560	0.0162681
782.638	0.0164886
782.716	0.0164017
782.794	0.0163200
782.872	0.0162183
782.950	0.0162569
783.029	0.0163607
783.107	0.0162252
783.185	0.0161347
783.263	0.0162415
783.341	0.0161026
783.419	0.0162367
783.497	0.0162149
783.575	0.0162109
783.654	0.0162278
783.732	0.0162573
783.810	0.0161398
783.888	0.0161217
783.966	0.0162569
784.044	0.0162815
784.122	0.0162054
784.200	0.0161500
784.279	0.0162347
784.357	0.0161739
784.435	0.0163882
784.513	0.0162468
784.591	0.0162673
784.669	0.0162078
784.747	0.0162859
784.825	0.0163686
784.904	0.0162881
784.982	0.0163654
785.060	0.0161866
785.138	0.0162890
785.216	0.0163196
785.294	0.0162901
785.372	0.0162688
785.450	0.0164905
785.529	0.0164530
785.607	0.0162357
785.685	0.0162840
785.763	0.0164870
785.841	0.0165115
785.919	0.0163708
785.997	0.0163414
786.075	0.0163573
786.154	0.0162238
786.232	0.0162598
786.310	0.0163360
786.388	0.0162160
786.466	0.0162917
786.544	0.0161944
786.622	0.0161550
786.700	0.0161586
786.779	0.0160925
786.857	0.0162013
786.935	0.0159934
787.013	0.0159759
787.091	0.0159929
787.169	0.0160765
787.247	0.0160034
787.325	0.0160111
787.404	0.0160461
787.482	0.0158579
787.560	0.0159680
787.638	0.0160159
787.716	0.0159245
787.794	0.0158988
787.872	0.0159581
787.950	0.0158328
788.029	0.0158514
788.107	0.0160621
788.185	0.0159352
788.263	0.0158845
788.341	0.0159870
788.419	0.0159676
788.497	0.0159190
788.575	0.0159803
788.654	0.0159542
788.732	0.0159653
788.810	0.0159138
788.888	0.0160195
788.966	0.0159362
789.044	0.0161226
789.122	0.0160066
789.200	0.0159616
789.279	0.0160039
789.357	0.0159491
789.435	0.0161694
789.513	0.0160663
789.591	0.0160849
789.669	0.0160352
789.747	0.0160669
789.825	0.0161236
789.904	0.0159728
789.982	0.0160925
790.060	0.0161844
790.138	0.0160281
790.216	0.0161668
790.294	0.0162362
790.372	0.0160485
790.450	0.0160966
790.529	0.0161787
790.607	0.0160942
790.685	0.0160886
790.763	0.0161217
790.841	0.0160744
790.919	0.0161165
790.997	0.0159308
791.075	0.0160262
791.154	0.0160553
791.232	0.0161935
791.310	0.0160861
791.388	0.0160152
791.466	0.0160870
791.544	0.0160004
791.622	0.0159657
791.700	0.0160579
791.779	0.0159605
791.857	0.0160274
791.935	0.0159893
792.013	0.0160281
792.091	0.0159520
792.169	0.0160815
792.247	0.0160281
792.325	0.0159883
792.404	0.0159683
792.482	0.0159782
792.560	0.0159618
792.638	0.0160918
792.716	0.0160690
792.794	0.0160822
792.872	0.0159503
792.950	0.0161121
793.029	0.0160571
793.107	0.0160443
793.185	0.0159690
793.263	0.0159605
793.341	0.0159884
793.419	0.0159406
793.497	0.0158768
793.575	0.0160049
793.654	0.0160798
793.732	0.0160139
793.810	0.0158097
793.888	0.0158834
793.966	0.0158817
794.044	0.0159821
794.122	0.0159150
794.200	0.0160026
794.279	0.0160161
794.357	0.0161890
794.435	0.0159797
794.513	0.0160187
794.591	0.0161398
794.669	0.0159396
794.747	0.0162533
794.825	0.0163357
794.904	0.0161614
794.982	0.0161170
795.060	0.0162849
795.138	0.0161131
795.216	0.0163006
795.294	0.0162290
795.372	0.0162920
795.450	0.0163402
795.529	0.0163766
795.607	0.0162997
795.685	0.0163270
795.763	0.0162650
795.841	0.0162617
795.919	0.0162222
795.997	0.0161510
796.075	0.0161468
796.154	0.0162105
796.232	0.0161594
796.310	0.0161907
796.388	0.0161924
796.466	0.0161185
796.544	0.0160278
796.622	0.0161249
796.700	0.0161420
796.779	0.0162360
796.857	0.0162086
796.935	0.0159599
797.013	0.0160323
797.091	0.0161412
797.169	0.0161729
797.247	0.0160377
797.325	0.0160652
797.404	0.0159650
797.482	0.0158960
797.560	0.0159753
797.638	0.0160719
797.716	0.0160216
797.794	0.0161443
797.872	0.0160226
797.950	0.0160552
798.029	0.0159648
798.107	0.0160591
798.185	0.0161467
798.263	0.0160553
798.341	0.0160918
798.419	0.0159038
798.497	0.0161656
798.575	0.0161646
798.654	0.0159027
798.732	0.0161219
798.810	0.0159919
798.888	0.0159060
798.966	0.0161208
799.044	0.0159825
799.122	0.0159791
799.200	0.0160477
799.279	0.0159357
799.357	0.0158307
799.435	0.0159772
799.513	0.0158877
799.591	0.0158812
799.669	0.0157749
799.747	0.0158967
799.825	0.0159846
799.904	0.0158612
799.982	0.0158833
800.060	0.0160795
800.138	0.0159143
800.216	0.0160503
800.294	0.0159163
800.372	0.0159516
800.450	0.0159153
800.529	0.0159776
800.607	0.0159717
800.685	0.0159959
800.763	0.0159866
800.841	0.0159222
800.919	0.0158726
800.997	0.0160049
801.075	0.0159966
801.154	0.0160503
801.232	0.0160586
801.310	0.0159879
801.388	0.0160950
801.466	0.0159566
801.544	0.0158604
801.622	0.0161026
801.700	0.0161412
801.779	0.0161040
801.857	0.0161295
801.935	0.0159708
802.013	0.0159756
802.091	0.0160708
802.169	0.0160410
802.247	0.0161259
802.325	0.0160739
802.404	0.0160384
802.482	0.0160064
802.560	0.0161600
802.638	0.0161896
802.716	0.0161531
802.794	0.0161028
802.872	0.0161598
802.950	0.0161396
803.029	0.0160658
803.107	0.0160790
803.185	0.0162167
803.263	0.0160881
803.341	0.0160816
803.419	0.0161540
803.497	0.0161423
803.575	0.0161075
803.654	0.0161790
803.732	0.0161250
803.810	0.0161827
803.888	0.0162377
803.966	0.0161330
804.044	0.0160958
804.122	0.0162389
804.200	0.0161908
804.279	0.0161169
804.357	0.0162334
804.435	0.0160448
804.513	0.0161018
804.591	0.0159938
804.669	0.0159843
804.747	0.0160367
804.825	0.0160504
804.904	0.0160436
804.982	0.0159604
805.060	0.0160175
805.138	0.0159785
805.216	0.0160500
805.294	0.0159165
805.372	0.0160238
805.450	0.0161237
805.529	0.0159393
805.607	0.0160426
805.685	0.0161424
805.763	0.0159947
805.841	0.0159643
805.919	0.0161043
805.997	0.0159606
806.075	0.0160231
806.154	0.0159909
806.232	0.0158712
806.310	0.0161346
806.388	0.0160464
806.466	0.0160562
806.544	0.0160383
806.622	0.0160612
806.700	0.0160301
806.779	0.0162963
806.857	0.0161245
806.935	0.0160870
807.013	0.0160648
807.091	0.0161425
807.169	0.0161472
807.247	0.0161499
807.325	0.0160817
807.404	0.0160566
807.482	0.0161317
807.560	0.0160947
807.638	0.0160871
807.716	0.0160580
807.794	0.0160691
807.872	0.0161266
807.950	0.0161847
808.029	0.0161160
808.107	0.0161916
808.185	0.0159364
808.263	0.0160935
808.341	0.0160758
808.419	0.0161216
808.497	0.0161452
808.575	0.0161088
808.654	0.0161559
808.732	0.0161752
808.810	0.0160647
808.888	0.0159738
808.966	0.0160500
809.044	0.0160027
809.122	0.0162238
809.200	0.0160822
809.279	0.0160265
809.357	0.0161038
809.435	0.0160512
809.513	0.0161263
809.591	0.0160719
809.669	0.0159957
809.747	0.0160599
809.825	0.0161533
809.904	0.0160794
809.982	0.0160527
810.060	0.0160834
810.138	0.0160159
810.216	0.0161894
810.294	0.0159875
810.372	0.0159266
810.450	0.0160095
810.529	0.0160207
810.607	0.0161175
810.685	0.0161696
810.763	0.0160468
810.841	0.0160951
810.919	0.0161292
810.997	0.0160075
811.075	0.0159808
811.154	0.0162128
811.232	0.0160050
811.310	0.0160577
811.388	0.0161146
811.466	0.0161485
811.544	0.0161230
811.622	0.0161931
811.700	0.0161826
811.779	0.0159588
811.857	0.0160508
811.935	0.0161700
812.013	0.0161319
812.091	0.0161961
812.169	0.0160744
812.247	0.0161990
812.325	0.0160832
812.404	0.0161576
812.482	0.0159677
812.560	0.0161127
812.638	0.0160785
812.716	0.0160764
812.794	0.0161397
812.872	0.0160470
812.950	0.0160233
813.029	0.0160992
813.107	0.0161134
813.185	0.0160809
813.263	0.0160848
813.341	0.0160508
813.419	0.0160036
813.497	0.0160109
813.575	0.0159283
813.654	0.0161823
813.732	0.0161619
813.810	0.0158794
813.888	0.0160364
813.966	0.0160213
814.044	0.0160549
814.122	0.0160873
814.200	0.0159935
814.279	0.0161507
814.357	0.0161516
814.435	0.0161443
814.513	0.0160947
814.591	0.0160035
814.669	0.0160515
814.747	0.0160172
814.825	0.0159812
814.904	0.0160756
814.982	0.0160187
815.060	0.0161527
815.138	0.0160750
815.216	0.0159794
815.294	0.0159898
815.372	0.0160375
815.450	0.0161383
815.529	0.0160838
815.607	0.0160763
815.685	0.0161842
815.763	0.0160724
815.841	0.0161567
815.919	0.0160593
815.997	0.0160927
816.075	0.0160893
816.154	0.0161549
816.232	0.0160470
816.310	0.0161747
816.388	0.0161568
816.466	0.0160927
816.544	0.0159699
816.622	0.0159946
816.700	0.0161325
816.779	0.0160474
816.857	0.0160428
816.935	0.0159512
817.013	0.0159494
817.091	0.0159809
817.169	0.0161221
817.247	0.0159406
817.325	0.0161250
817.404	0.0160405
817.482	0.0160048
817.560	0.0160029
817.638	0.0159309
817.716	0.0161224
817.794	0.0161024
817.872	0.0160345
817.950	0.0160877
818.029	0.0160803
818.107	0.0159898
818.185	0.0160718
818.263	0.0161102
818.341	0.0161355
818.419	0.0159624
818.497	0.0161295
818.575	0.0159938
818.654	0.0160320
818.732	0.0160368
818.810	0.0160053
818.888	0.0161339
818.966	0.0160208
819.044	0.0158385
819.122	0.0160237
819.200	0.0161194
819.279	0.0159728
819.357	0.0160361
819.435	0.0161184
819.513	0.0160201
819.591	0.0161153
819.669	0.0161476
819.747	0.0161376
819.825	0.0160160
819.904	0.0159810
819.982	0.0159449
820.060	0.0160451
820.138	0.0161901
820.216	0.0160055
820.294	0.0161568
820.372	0.0161679
820.450	0.0159009
820.529	0.0161301
820.607	0.0161961
820.685	0.0161145
820.763	0.0160385
820.841	0.0161660
820.919	0.0160731
820.997	0.0160926
821.075	0.0160729
821.154	0.0161494
821.232	0.0161179
821.310	0.0161342
821.388	0.0160196
821.466	0.0161314
821.544	0.0160937
821.622	0.0159993
821.700	0.0159284
821.779	0.0159907
821.857	0.0161078
821.935	0.0162286
822.013	0.0160532
822.091	0.0160921
822.169	0.0161224
822.247	0.0160372
822.325	0.0160274
822.404	0.0161146
822.482	0.0161286
822.560	0.0161560
822.638	0.0161922
822.716	0.0161040
822.794	0.0160241
822.872	0.0162066
822.950	0.0162653
823.029	0.0161438
823.107	0.0161172
823.185	0.0161269
823.263	0.0160108
823.341	0.0160632
823.419	0.0160818
823.497	0.0160936
823.575	0.0160504
823.654	0.0160455
823.732	0.0160658
823.810	0.0161456
823.888	0.0160934
823.966	0.0161373
824.044	0.0161478
824.122	0.0159460
824.200	0.0159689
824.279	0.0160221
824.357	0.0160714
824.435	0.0160907
824.513	0.0162277
824.591	0.0159936
824.669	0.0159882
824.747	0.0160336
824.825	0.0162180
824.904	0.0160835
824.982	0.0161591
825.060	0.0160057
825.138	0.0160868
825.216	0.0162317
825.294	0.0160714
825.372	0.0160329
825.450	0.0162177
825.529	0.0161548
825.607	0.0162753
825.685	0.0162198
825.763	0.0162897
825.841	0.0161675
825.919	0.0162356
825.997	0.0164805
826.075	0.0162447
826.154	0.0162054
826.232	0.0164175
826.310	0.0163460
826.388	0.0164758
826.466	0.0162715
826.544	0.0161970
826.622	0.0163518
826.700	0.0163358
826.779	0.0162977
826.857	0.0162158
826.935	0.0162680
827.013	0.0162774
827.091	0.0161501
827.169	0.0160988
827.247	0.0161742
827.325	0.0161136
827.404	0.0160363
827.482	0.0161782
827.560	0.0160960
827.638	0.0159270
827.716	0.0159643
827.794	0.0160822
827.872	0.0159190
827.950	0.0161465
828.029	0.0159383
828.107	0.0159670
828.185	0.0159118
828.263	0.0159111
828.341	0.0159443
828.419	0.0158474
828.497	0.0160059
828.575	0.0160403
828.654	0.0159517
828.732	0.0159496
828.810	0.0160762
828.888	0.0160763
828.966	0.0161364
829.044	0.0160516
829.122	0.0161882
829.200	0.0161613
829.279	0.0161407
829.357	0.0161769
829.435	0.0162988
829.513	0.0161105
829.591	0.0160930
829.669	0.0162884
829.747	0.0163062
829.825	0.0164173
829.904	0.0163909
829.982	0.0162299
830.060	0.0161700
830.138	0.0162534
830.216	0.0162453
830.294	0.0162319
830.372	0.0161674
830.450	0.0161189
830.529	0.0160889
830.607	0.0161170
830.685	0.0161359
830.763	0.0159830
830.841	0.0160337
830.919	0.0159238
830.997	0.0160452
831.075	0.0159949
831.154	0.0158790
831.232	0.0158983
831.310	0.0160249
831.388	0.0160222
831.466	0.0162148
831.544	0.0161514
831.622	0.0159745
831.700	0.0160154
831.779	0.0160589
831.857	0.0160516
831.935	0.0160354
832.013	0.0160931
832.091	0.0161690
832.169	0.0162144
832.247	0.0160590
832.325	0.0161829
832.404	0.0160703
832.482	0.0160782
832.560	0.0161038
832.638	0.0161175
832.716	0.0160815
832.794	0.0161472
832.872	0.0159633
832.950	0.0160649
833.029	0.0161349
833.107	0.0160074
833.185	0.0160216
833.263	0.0159989
833.341	0.0159674
833.419	0.0160112
833.497	0.0158726
833.575	0.0158282
833.654	0.0158933
833.732	0.0157910
833.810	0.0158521
833.888	0.0158726
833.966	0.0158880
834.044	0.0158201
834.122	0.0158756
834.200	0.0158924
834.279	0.0159583
834.357	0.0158855
834.435	0.0158749
834.513	0.0159812
834.591	0.0159588
834.669	0.0160841
834.747	0.0161568
834.825	0.0161089
834.904	0.0161944
834.982	0.0161628
835.060	0.0161136
835.138	0.0161089
835.216	0.0162185
835.294	0.0162379
835.372	0.0162548
835.450	0.0163240
835.529	0.0161930
835.607	0.0161966
835.685	0.0162540
835.763	0.0163184
835.841	0.0162299
835.919	0.0161362
835.997	0.0162498
836.075	0.0162062
836.154	0.0161223
836.232	0.0162989
836.310	0.0162228
836.388	0.0160985
836.466	0.0161243
836.544	0.0162172
836.622	0.0161103
836.700	0.0162230
836.779	0.0160457
836.857	0.0160413
836.935	0.0161168
837.013	0.0160212
837.091	0.0161027
837.169	0.0161003
837.247	0.0160862
837.325	0.0161517
837.404	0.0160670
837.482	0.0159563
837.560	0.0160414
837.638	0.0159868
837.716	0.0160135
837.794	0.0160808
837.872	0.0161585
837.950	0.0160823
838.029	0.0160752
838.107	0.0159567
838.185	0.0159992
838.263	0.0160812
838.341	0.0160351
838.419	0.0160711
838.497	0.0160355
838.575	0.0160374
838.654	0.0160877
838.732	0.0158970
838.810	0.0158517
838.888	0.0159204
838.966	0.0159740
839.044	0.0160539
839.122	0.0159753
839.200	0.0160100
839.279	0.0161370
839.357	0.0160241
839.435	0.0159705
839.513	0.0159252
839.591	0.0159758
839.669	0.0161326
839.747	0.0159837
839.825	0.0160167
839.904	0.0162158
839.982	0.0161761
840.060	0.0162221
840.138	0.0161743
840.216	0.0161691
840.294	0.0162193
840.372	0.0163115
840.450	0.0162328
840.529	0.0163907
840.607	0.0162273
840.685	0.0163050
840.763	0.0163694
840.841	0.0162541
840.919	0.0162933
840.997	0.0163551
841.075	0.0163069
841.154	0.0162987
841.232	0.0163361
841.310	0.0162685
841.388	0.0161515
841.466	0.0161009
841.544	0.0161269
841.622	0.0159648
841.700	0.0161217
841.779	0.0158315
841.857	0.0158189
841.935	0.0159422
842.013	0.0159423
842.091	0.0156811
842.169	0.0158533
842.247	0.0157001
842.325	0.0158988
842.404	0.0157928
842.482	0.0158703
842.560	0.0159955
842.638	0.0159864
842.716	0.0158593
842.794	0.0159809
842.872	0.0159396
842.950	0.0160203
843.029	0.0161150
843.107	0.0161678
843.185	0.0162392
843.263	0.0162761
843.341	0.0162534
843.419	0.0162537
843.497	0.0162846
843.575	0.0163220
843.654	0.0163555
843.732	0.0163126
843.810	0.0163048
843.888	0.0163635
843.966	0.0163961
844.044	0.0163678
844.122	0.0164340
844.200	0.0164146
844.279	0.0162688
844.357	0.0163332
844.435	0.0163094
844.513	0.0162700
844.591	0.0163551
844.669	0.0163841
844.747	0.0161608
844.825	0.0161169
844.904	0.0160747
844.982	0.0161333
845.060	0.0162140
845.138	0.0161264
845.216	0.0160811
845.294	0.0158573
845.372	0.0158491
845.450	0.0158502
845.529	0.0160501
845.607	0.0160041
845.685	0.0158411
845.763	0.0160820
845.841	0.0159153
845.919	0.0160221
845.997	0.0159866
846.075	0.0159585
846.154	0.0159498
846.232	0.0160898
846.310	0.0161349
846.388	0.0159037
846.466	0.0159253
846.544	0.0159233
846.622	0.0159606
846.700	0.0159173
846.779	0.0160159
846.857	0.0159779
846.935	0.0159323
847.013	0.0160469
847.091	0.0160678
847.169	0.0161057
847.247	0.0161438
847.325	0.0161253
847.404	0.0161636
847.482	0.0159879
847.560	0.0162054
847.638	0.0163153
847.716	0.0161703
847.794	0.0160905
847.872	0.0161853
847.950	0.0161732
848.029	0.0162096
848.107	0.0161855
848.185	0.0162221
848.263	0.0162909
848.341	0.0162162
848.419	0.0162709
848.497	0.0163024
848.575	0.0162538
848.654	0.0163666
848.732	0.0162505
848.810	0.0162024
848.888	0.0161220
848.966	0.0161428
849.044	0.0162237
849.122	0.0160796
849.200	0.0160807
849.279	0.0161031
849.357	0.0160721
849.435	0.0160413
849.513	0.0160567
849.591	0.0160433
849.669	0.0161005
849.747	0.0160748
849.825	0.0159968
849.904	0.0161154
849.982	0.0160007
850.060	0.0162035
850.138	0.0161523
850.216	0.0160386
850.294	0.0160139
850.372	0.0160937
850.450	0.0161564
850.529	0.0160286
850.607	0.0161005
850.685	0.0161076
850.763	0.0160142
850.841	0.0162688
850.919	0.0160979
850.997	0.0163929
851.075	0.0163129
851.154	0.0163119
851.232	0.0162847
851.310	0.0163082
851.388	0.0164404
851.466	0.0164501
851.544	0.0162853
851.622	0.0163882
851.700	0.0163992
851.779	0.0162365
851.857	0.0163791
851.935	0.0163383
852.013	0.0163963
852.091	0.0163226
852.169	0.0162581
852.247	0.0161612
852.325	0.0162046
852.404	0.0162853
852.482	0.0163620
852.560	0.0162474
852.638	0.0163701
852.716	0.0163386
852.794	0.0161657
852.872	0.0159853
852.950	0.0161024
853.029	0.0163020
853.107	0.0161841
853.185	0.0162446
853.263	0.0162111
853.341	0.0161008
853.419	0.0161289
853.497	0.0160564
853.575	0.0161057
853.654	0.0162782
853.732	0.0159599
853.810	0.0159210
853.888	0.0159521
853.966	0.0159727
854.044	0.0159730
854.122	0.0158898
854.200	0.0157967
854.279	0.0160124
854.357	0.0157811
854.435	0.0159221
854.513	0.0158990
854.591	0.0158115
854.669	0.0158794
854.747	0.0159427
854.825	0.0157809
854.904	0.0158377
854.982	0.0159393
855.060	0.0160046
855.138	0.0160498
855.216	0.0160441
855.294	0.0161004
855.372	0.0160291
855.450	0.0160469
855.529	0.0161901
855.607	0.0161297
855.685	0.0160890
855.763	0.0161684
855.841	0.0161539
855.919	0.0162054
855.997	0.0161890
856.075	0.0162357
856.154	0.0161987
856.232	0.0162783
856.310	0.0163037
856.388	0.0163534
856.466	0.0162108
856.544	0.0163507
856.622	0.0164008
856.700	0.0163739
856.779	0.0165391
856.857	0.0163288
856.935	0.0163746
857.013	0.0162846
857.091	0.0163750
857.169	0.0164003
857.247	0.0164105
857.325	0.0163711
857.404	0.0163434
857.482	0.0163773
857.560	0.0162999
857.638	0.0163815
857.716	0.0163304
857.794	0.0161308
857.872	0.0162650
857.950	0.0161540
858.029	0.0162526
858.107	0.0160738
858.185	0.0162151
858.263	0.0161282
858.341	0.0161590
858.419	0.0160192
858.497	0.0159991
858.575	0.0161698
858.654	0.0162698
858.732	0.0160066
858.810	0.0159709
858.888	0.0160054
858.966	0.0160159
859.044	0.0160932
859.122	0.0160395
859.200	0.0160263
859.279	0.0162139
859.357	0.0160893
859.435	0.0160088
859.513	0.0160656
859.591	0.0161825
859.669	0.0161156
859.747	0.0162410
859.825	0.0161167
859.904	0.0160812
859.982	0.0162479
860.060	0.0162450
860.138	0.0161362
860.216	0.0162231
860.294	0.0161230
860.372	0.0160589
860.450	0.0161117
860.529	0.0161189
860.607	0.0160787
860.685	0.0160538
860.763	0.0159498
860.841	0.0161561
860.919	0.0161468
860.997	0.0160963
861.075	0.0162099
861.154	0.0161700
861.232	0.0161862
861.310	0.0160885
861.388	0.0161308
861.466	0.0160889
861.544	0.0160933
861.622	0.0161545
861.700	0.0160206
861.779	0.0160212
861.857	0.0160813
861.935	0.0160475
862.013	0.0161652
862.091	0.0159704
862.169	0.0159003
862.247	0.0159796
862.325	0.0158477
862.404	0.0159579
862.482	0.0159627
862.560	0.0157819
862.638	0.0157574
862.716	0.0159232
862.794	0.0158104
862.872	0.0157174
862.950	0.0158260
863.029	0.0157815
863.107	0.0157250
863.185	0.0159390
863.263	0.0158641
863.341	0.0157533
863.419	0.0158518
863.497	0.0158798
863.575	0.0159051
863.654	0.0158436
863.732	0.0158186
863.810	0.0160236
863.888	0.0159794
863.966	0.0160867
864.044	0.0161340
864.122	0.0160715
864.200	0.0159992
864.279	0.0160397
864.357	0.0160603
864.435	0.0161332
864.513	0.0160967
864.591	0.0160759
864.669	0.0161662
864.747	0.0161942
864.825	0.0162737
864.904	0.0162494
864.982	0.0161561
865.060	0.0162897
865.138	0.0163181
865.216	0.0163022
865.294	0.0160656
865.372	0.0163053
865.450	0.0161094
865.529	0.0161248
865.607	0.0162468
865.685	0.0161563
865.763	0.0161192
865.841	0.0160450
865.919	0.0161477
865.997	0.0159791
866.075	0.0159877
866.154	0.0159710
866.232	0.0159770
866.310	0.0160772
866.388	0.0160943
866.466	0.0160556
866.544	0.0160635
866.622	0.0160753
866.700	0.0159702
866.779	0.0159296
866.857	0.0159399
866.935	0.0159464
867.013	0.0160939
867.091	0.0160051
867.169	0.0159626
867.247	0.0158832
867.325	0.0159730
867.404	0.0159101
867.482	0.0159023
867.560	0.0159853
867.638	0.0158567
867.716	0.0159100
867.794	0.0158890
867.872	0.0159972
867.950	0.0159633
868.029	0.0160492
868.107	0.0161161
868.185	0.0160112
868.263	0.0161570
868.341	0.0161691
868.419	0.0162236
868.497	0.0161761
868.575	0.0163428
868.654	0.0162215
868.732	0.0163443
868.810	0.0162078
868.888	0.0163309
868.966	0.0161877
869.044	0.0163166
869.122	0.0163755
869.200	0.0162686
869.279	0.0163483
869.357	0.0163753
869.435	0.0164452
869.513	0.0163779
869.591	0.0163952
869.669	0.0162058
869.747	0.0164318
869.825	0.0163669
869.904	0.0163010
869.982	0.0163569
870.060	0.0163039
870.138	0.0163127
870.216	0.0164391
870.294	0.0163255
870.372	0.0162132
870.450	0.0162687
870.529	0.0162337
870.607	0.0163026
870.685	0.0162388
870.763	0.0160412
870.841	0.0162616
870.919	0.0161826
870.997	0.0162603
871.075	0.0160431
871.154	0.0160417
871.232	0.0160629
871.310	0.0161169
871.388	0.0161928
871.466	0.0159804
871.544	0.0161271
871.622	0.0161430
871.700	0.0161137
871.779	0.0159145
871.857	0.0160489
871.935	0.0161287
872.013	0.0160244
872.091	0.0160211
872.169	0.0160187
872.247	0.0160908
872.325	0.0159989
872.404	0.0160606
872.482	0.0159673
872.560	0.0161069
872.638	0.0161105
872.716	0.0160876
872.794	0.0161424
872.872	0.0158634
872.950	0.0160193
873.029	0.0160361
873.107	0.0159774
873.185	0.0160044
873.263	0.0160233
873.341	0.0160789
873.419	0.0160703
873.497	0.0160183
873.575	0.0160487
873.654	0.0160030
873.732	0.0161388
873.810	0.0160367
873.888	0.0160526
873.966	0.0161975
874.044	0.0162511
874.122	0.0161699
874.200	0.0162543
874.279	0.0161131
874.357	0.0162576
874.435	0.0163064
874.513	0.0163460
874.591	0.0162109
874.669	0.0162710
874.747	0.0162801
874.825	0.0162151
874.904	0.0162492
874.982	0.0161392
875.060	0.0161961
875.138	0.0162739
875.216	0.0161408
875.294	0.0162393
875.372	0.0161729
875.450	0.0161773
875.529	0.0159500
875.607	0.0160751
875.685	0.0160150
875.763	0.0161816
875.841	0.0160883
875.919	0.0161010
875.997	0.0158698
876.075	0.0160425
876.154	0.0161497
876.232	0.0159711
876.310	0.0160278
876.388	0.0159954
876.466	0.0160945
876.544	0.0161485
876.622	0.0160330
876.700	0.0162228
876.779	0.0161218
876.857	0.0161232
876.935	0.0161530
877.013	0.0161859
877.091	0.0161325
877.169	0.0161169
877.247	0.0162530
877.325	0.0162982
877.404	0.0162202
877.482	0.0163172
877.560	0.0159531
877.638	0.0161841
877.716	0.0161510
877.794	0.0161467
877.872	0.0161112
877.950	0.0160492
878.029	0.0160767
878.107	0.0160997
878.185	0.0160440
878.263	0.0161591
878.341	0.0161304
878.419	0.0160525
878.497	0.0161378
878.575	0.0160911
878.654	0.0160931
878.732	0.0159505
878.810	0.0161407
878.888	0.0161039
878.966	0.0160895
879.044	0.0160349
879.122	0.0161251
879.200	0.0161263
879.279	0.0159494
879.357	0.0160970
879.435	0.0160381
879.513	0.0161426
879.591	0.0160166
879.669	0.0160305
879.747	0.0160867
879.825	0.0161240
879.904	0.0160912
879.982	0.0159758
880.060	0.0161578
880.138	0.0160876
880.216	0.0159784
880.294	0.0159783
880.372	0.0161170
880.450	0.0162289
880.529	0.0160468
880.607	0.0160635
880.685	0.0162646
880.763	0.0162015
880.841	0.0162465
880.919	0.0162268
880.997	0.0162091
881.075	0.0163287
881.154	0.0161191
881.232	0.0160675
881.310	0.0161108
881.388	0.0160885
881.466	0.0160596
881.544	0.0161033
881.622	0.0161501
881.700	0.0162502
881.779	0.0160906
881.857	0.0161612
881.935	0.0163216
882.013	0.0159909
882.091	0.0161958
882.169	0.0164423
882.247	0.0164091
882.325	0.0162460
882.404	0.0162352
882.482	0.0162420
882.560	0.0161103
882.638	0.0161971
882.716	0.0162374
882.794	0.0163192
882.872	0.0162709
882.950	0.0161271
883.029	0.0161548
883.107	0.0162550
883.185	0.0161430
883.263	0.0162410
883.341	0.0162531
883.419	0.0160969
883.497	0.0160732
883.575	0.0162052
883.654	0.0160625
883.732	0.0161671
883.810	0.0161143
883.888	0.0160523
883.966	0.0162218
884.044	0.0160838
884.122	0.0160248
884.200	0.0160840
884.279	0.0161967
884.357	0.0161589
884.435	0.0161478
884.513	0.0160616
884.591	0.0161343
884.669	0.0160428
884.747	0.0162868
884.825	0.0162418
884.904	0.0162351
884.982	0.0162628
885.060	0.0162645
885.138	0.0162747
885.216	0.0163508
885.294	0.0160913
885.372	0.0161262
885.450	0.0161859
885.529	0.0161768
885.607	0.0162549
885.685	0.0161683
885.763	0.0162436
885.841	0.0161522
885.919	0.0162290
885.997	0.0162228
886.075	0.0159158
886.154	0.0161086
886.232	0.0158649
886.310	0.0160589
886.388	0.0160294
886.466	0.0159949
886.544	0.0160232
886.622	0.0159184
886.700	0.0159084
886.779	0.0159050
886.857	0.0159477
886.935	0.0158712
887.013	0.0159882
887.091	0.0160344
887.169	0.0160118
887.247	0.0160573
887.325	0.0160284
887.404	0.0160787
887.482	0.0161531
887.560	0.0160647
887.638	0.0162553
887.716	0.0162029
887.794	0.0161957
887.872	0.0161625
887.950	0.0162841
888.029	0.0161288
888.107	0.0161926
888.185	0.0162996
888.263	0.0162431
888.341	0.0160841
888.419	0.0162656
888.497	0.0162594
888.575	0.0161823
888.654	0.0160475
888.732	0.0161736
888.810	0.0160945
888.888	0.0160755
888.966	0.0161535
889.044	0.0160382
889.122	0.0161299
889.200	0.0159721
889.279	0.0160172
889.357	0.0161499
889.435	0.0160344
889.513	0.0159322
889.591	0.0159895
889.669	0.0160500
889.747	0.0159666
889.825	0.0158923
889.904	0.0160048
889.982	0.0161026
890.060	0.0159007
890.138	0.0158471
890.216	0.0159955
890.294	0.0159982
890.372	0.0159164
890.450	0.0160185
890.529	0.0160448
890.607	0.0159056
890.685	0.0160206
890.763	0.0161139
890.841	0.0159612
890.919	0.0160263
890.997	0.0161031
891.075	0.0161106
891.154	0.0158689
891.232	0.0160126
891.310	0.0160185
891.388	0.0160142
891.466	0.0159017
891.544	0.0160630
891.622	0.0159850
891.700	0.0161007
891.779	0.0159331
891.857	0.0159191
891.935	0.0160342
892.013	0.0159734
892.091	0.0159132
892.169	0.0158614
892.247	0.0158791
892.325	0.0159589
892.404	0.0159527
892.482	0.0159086
892.560	0.0158933
892.638	0.0160755
892.716	0.0159250
892.794	0.0159754
892.872	0.0161307
892.950	0.0160048
893.029	0.0159472
893.107	0.0160025
893.185	0.0158759
893.263	0.0160028
893.341	0.0160589
893.419	0.0160952
893.497	0.0161176
893.575	0.0161271
893.654	0.0161272
893.732	0.0161576
893.810	0.0160529
893.888	0.0160551
893.966	0.0160416
894.044	0.0161216
894.122	0.0161767
894.200	0.0159877
894.279	0.0159566
894.357	0.0160076
894.435	0.0160820
894.513	0.0159608
894.591	0.0159825
894.669	0.0160944
894.747	0.0159938
894.825	0.0159547
894.904	0.0160155
894.982	0.0159719
895.060	0.0160631
895.138	0.0159463
895.216	0.0159060
895.294	0.0160041
895.372	0.0160608
895.450	0.0160800
895.529	0.0160941
895.607	0.0160190
895.685	0.0160336
895.763	0.0161698
895.841	0.0161651
895.919	0.0161536
895.997	0.0162022
896.075	0.0162250
896.154	0.0160831
896.232	0.0162627
896.310	0.0161454
896.388	0.0161374
896.466	0.0161970
896.544	0.0162115
896.622	0.0160190
896.700	0.0161853
896.779	0.0161355
896.857	0.0161739
896.935	0.0161625
897.013	0.0161012
897.091	0.0161552
897.169	0.0160851
897.247	0.0161742
897.325	0.0162328
897.404	0.0159651
897.482	0.0160500
897.560	0.0161002
897.638	0.0160919
897.716	0.0160261
897.794	0.0160674
897.872	0.0161820
897.950	0.0160524
898.029	0.0160554
898.107	0.0161723
898.185	0.0160288
898.263	0.0160384
898.341	0.0161415
898.419	0.0161481
898.497	0.0161071
898.575	0.0161523
898.654	0.0162360
898.732	0.0162624
898.810	0.0161948
898.888	0.0162119
898.966	0.0161372
899.044	0.0160933
899.122	0.0161420
899.200	0.0162383
899.279	0.0162953
899.357	0.0163125
899.435	0.0161008
899.513	0.0161460
899.591	0.0161360
899.669	0.0161697
899.747	0.0161983
899.825	0.0162811
899.904	0.0161093
899.982	0.0163450
900.060	0.0161554
900.138	0.0161436
900.216	0.0161995
900.294	0.0160085
900.372	0.0159834
900.450	0.0160076
900.529	0.0161989
900.607	0.0162191
900.685	0.0160830
900.763	0.0160844
900.841	0.0160802
900.919	0.0161533
900.997	0.0161863
901.075	0.0161632
901.154	0.0160870
901.232	0.0161717
901.310	0.0161844
901.388	0.0162083
901.466	0.0161652
901.544	0.0161331
901.622	0.0161671
901.700	0.0162947
901.779	0.0161430
901.857	0.0163277
901.935	0.0162677
902.013	0.0162537
902.091	0.0161691
902.169	0.0160830
902.247	0.0160873
902.325	0.0161835
902.404	0.0162177
902.482	0.0160958
902.560	0.0161475
902.638	0.0161260
902.716	0.0161131
902.794	0.0159814
902.872	0.0159614
902.950	0.0160523
903.029	0.0161007
903.107	0.0161601
903.185	0.0161916
903.263	0.0161224
903.341	0.0161082
903.419	0.0161217
903.497	0.0160490
903.575	0.0160731
903.654	0.0161040
903.732	0.0159516
903.810	0.0162592
903.888	0.0162571
903.966	0.0162636
904.044	0.0160764
904.122	0.0159968
904.200	0.0160721
904.279	0.0161214
904.357	0.0161129
904.435	0.0161649
904.513	0.0160278
904.591	0.0159560
904.669	0.0160325
904.747	0.0160247
904.825	0.0160004
904.904	0.0160448
904.982	0.0160548
905.060	0.0160883
905.138	0.0158865
905.216	0.0159374
905.294	0.0159604
905.372	0.0158642
905.450	0.0158987
905.529	0.0159659
905.607	0.0160066
905.685	0.0158415
905.763	0.0159023
905.841	0.0159379
905.919	0.0159848
905.997	0.0157359
906.075	0.0159761
906.154	0.0158937
906.232	0.0159353
906.310	0.0159828
906.388	0.0158692
906.466	0.0158218
906.544	0.0159530
906.622	0.0159181
906.700	0.0159127
906.779	0.0158337
906.857	0.0158981
906.935	0.0159258
907.013	0.0159335
907.091	0.0157720
907.169	0.0159494
907.247	0.0160283
907.325	0.0159657
907.404	0.0159698
907.482	0.0160072
907.560	0.0161447
907.638	0.0160243
907.716	0.0161086
907.794	0.0160565
907.872	0.0159814
907.950	0.0161060
908.029	0.0161423
908.107	0.0160666
908.185	0.0160320
908.263	0.0161210
908.341	0.0161980
908.419	0.0161593
908.497	0.0161783
908.575	0.0161503
908.654	0.0162003
908.732	0.0161275
908.810	0.0162595
908.888	0.0163630
908.966	0.0163302
909.044	0.0161964
909.122	0.0161982
909.200	0.0160835
909.279	0.0162909
909.357	0.0162391
909.435	0.0161642
909.513	0.0162178
909.591	0.0162467
909.669	0.0161163
909.747	0.0160487
909.825	0.0161376
909.904	0.0160613
909.982	0.0160072
910.060	0.0160662
910.138	0.0159594
910.216	0.0158895
910.294	0.0159009
910.372	0.0159616
910.450	0.0159798
910.529	0.0158024
910.607	0.0157768
910.685	0.0157091
910.763	0.0158027
910.841	0.0158277
910.919	0.0159468
910.997	0.0157400
911.075	0.0159367
911.154	0.0157819
911.232	0.0157834
911.310	0.0158630
911.388	0.0158309
911.466	0.0158085
911.544	0.0157913
911.622	0.0158693
911.700	0.0157169
911.779	0.0158942
911.857	0.0159061
911.935	0.0159595
912.013	0.0158911
912.091	0.0159800
912.169	0.0158381
912.247	0.0159043
912.325	0.0159824
912.404	0.0160115
912.482	0.0159449
912.560	0.0160181
912.638	0.0160991
912.716	0.0159898
912.794	0.0159351
912.872	0.0160611
912.950	0.0159912
913.029	0.0160104
913.107	0.0158633
913.185	0.0160301
913.263	0.0160571
913.341	0.0158511
913.419	0.0158890
913.497	0.0160092
913.575	0.0159219
913.654	0.0159724
913.732	0.0159066
913.810	0.0161388
913.888	0.0160506
913.966	0.0158262
914.044	0.0158693
914.122	0.0159050
914.200	0.0158953
914.279	0.0160562
914.357	0.0159752
914.435	0.0159737
914.513	0.0159409
914.591	0.0159521
914.669	0.0159591
914.747	0.0159240
914.825	0.0161316
914.904	0.0161020
914.982	0.0158975
915.060	0.0160401
915.138	0.0160355
915.216	0.0161021
915.294	0.0160949
915.372	0.0161604
915.450	0.0160975
915.529	0.0160387
915.607	0.0159447
915.685	0.0161682
915.763	0.0162360
915.841	0.0161186
915.919	0.0160547
915.997	0.0161664
916.075	0.0160936
916.154	0.0161901
916.232	0.0162345
916.310	0.0161781
916.388	0.0161301
916.466	0.0162158
916.544	0.0162212
916.622	0.0162980
916.700	0.0162003
916.779	0.0161212
916.857	0.0163718
916.935	0.0161854
917.013	0.0160808
917.091	0.0163543
917.169	0.0162764
917.247	0.0162405
917.325	0.0162937
917.404	0.0161826
917.482	0.0162907
917.560	0.0162371
917.638	0.0162361
917.716	0.0163038
917.794	0.0162054
917.872	0.0161843
917.950	0.0161490
918.029	0.0162345
918.107	0.0161246
918.185	0.0161639
918.263	0.0161311
918.341	0.0162228
918.419	0.0161478
918.497	0.0161301
918.575	0.0161542
918.654	0.0161800
918.732	0.0162391
918.810	0.0161062
918.888	0.0162842
918.966	0.0161494
919.044	0.0161704
919.122	0.0161298
919.200	0.0162444
919.279	0.0161774
919.357	0.0161745
919.435	0.0162101
919.513	0.0161749
919.591	0.0162582
919.669	0.0163002
919.747	0.0160978
919.825	0.0161236
919.904	0.0161591
