05/24/2022	20:44:31	Ver.	4.1	UNKNOWN
Optical Delay	599.981738	Delta X		0.078125	Sweeps	1	Scan Rate	0/0
Coordinates	Axis 1	NaN	Axis 2	NaN	Axis 3	NaN	Axis 4	NaN	Axis 5	NaN	Axis 6	0.000000
TX Power	0.000000	RX Power	0.000000

599.982	0.0165796
600.060	0.0167091
600.138	0.0166296
600.216	0.0165535
600.294	0.0166290
600.372	0.0165729
600.450	0.0165427
600.529	0.0167044
600.607	0.0166554
600.685	0.0167080
600.763	0.0167081
600.841	0.0166438
600.919	0.0166021
600.997	0.0165543
601.075	0.0166147
601.154	0.0167056
601.232	0.0165317
601.310	0.0165747
601.388	0.0165369
601.466	0.0165316
601.544	0.0165511
601.622	0.0165060
601.700	0.0164960
601.779	0.0165148
601.857	0.0165395
601.935	0.0165050
602.013	0.0164069
602.091	0.0165540
602.169	0.0164689
602.247	0.0164667
602.325	0.0165572
602.404	0.0163801
602.482	0.0164391
602.560	0.0165926
602.638	0.0165948
602.716	0.0165411
602.794	0.0165413
602.872	0.0164132
602.950	0.0165124
603.029	0.0164478
603.107	0.0163419
603.185	0.0165003
603.263	0.0165211
603.341	0.0165243
603.419	0.0165294
603.497	0.0164871
603.575	0.0166782
603.654	0.0164711
603.732	0.0164122
603.810	0.0165392
603.888	0.0165682
603.966	0.0165594
604.044	0.0165139
604.122	0.0165654
604.200	0.0165648
604.279	0.0165314
604.357	0.0165339
604.435	0.0165991
604.513	0.0165841
604.591	0.0164516
604.669	0.0165008
604.747	0.0164522
604.825	0.0164685
604.904	0.0164400
604.982	0.0164175
605.060	0.0164817
605.138	0.0163743
605.216	0.0163469
605.294	0.0163903
605.372	0.0164822
605.450	0.0165249
605.529	0.0163931
605.607	0.0163747
605.685	0.0164067
605.763	0.0164754
605.841	0.0163741
605.919	0.0164522
605.997	0.0163579
606.075	0.0163911
606.154	0.0166475
606.232	0.0165813
606.310	0.0165756
606.388	0.0165895
606.466	0.0165555
606.544	0.0166041
606.622	0.0166147
606.700	0.0164885
606.779	0.0165938
606.857	0.0166584
606.935	0.0166250
607.013	0.0165588
607.091	0.0165125
607.169	0.0165994
607.247	0.0165237
607.325	0.0165705
607.404	0.0165064
607.482	0.0163595
607.560	0.0165018
607.638	0.0165234
607.716	0.0164635
607.794	0.0164539
607.872	0.0165485
607.950	0.0164639
608.029	0.0165505
608.107	0.0164530
608.185	0.0163893
608.263	0.0164200
608.341	0.0164359
608.419	0.0164964
608.497	0.0166045
608.575	0.0166074
608.654	0.0164095
608.732	0.0163559
608.810	0.0164283
608.888	0.0163980
608.966	0.0165968
609.044	0.0164965
609.122	0.0164191
609.200	0.0164240
609.279	0.0163914
609.357	0.0162614
609.435	0.0164736
609.513	0.0165762
609.591	0.0164790
609.669	0.0164698
609.747	0.0164987
609.825	0.0165096
609.904	0.0166233
609.982	0.0165758
610.060	0.0165277
610.138	0.0165162
610.216	0.0165253
610.294	0.0165940
610.372	0.0164965
610.450	0.0166615
610.529	0.0166053
610.607	0.0166228
610.685	0.0166049
610.763	0.0164732
610.841	0.0166045
610.919	0.0165300
610.997	0.0167038
611.075	0.0168260
611.154	0.0166304
611.232	0.0165689
611.310	0.0165206
611.388	0.0166830
611.466	0.0168342
611.544	0.0166478
611.622	0.0167928
611.700	0.0167303
611.779	0.0167350
611.857	0.0167443
611.935	0.0167545
612.013	0.0168012
612.091	0.0167007
612.169	0.0166428
612.247	0.0166300
612.325	0.0168477
612.404	0.0166508
612.482	0.0165836
612.560	0.0167043
612.638	0.0167767
612.716	0.0167132
612.794	0.0166273
612.872	0.0165678
612.950	0.0166209
613.029	0.0165718
613.107	0.0166370
613.185	0.0165172
613.263	0.0165926
613.341	0.0165979
613.419	0.0165498
613.497	0.0164765
613.575	0.0166190
613.654	0.0166151
613.732	0.0166629
613.810	0.0165720
613.888	0.0166156
613.966	0.0166454
614.044	0.0167665
614.122	0.0168296
614.200	0.0167542
614.279	0.0168012
614.357	0.0167039
614.435	0.0167303
614.513	0.0167049
614.591	0.0167478
614.669	0.0168015
614.747	0.0166644
614.825	0.0167609
614.904	0.0165685
614.982	0.0164955
615.060	0.0165041
615.138	0.0165125
615.216	0.0164838
615.294	0.0163833
615.372	0.0164336
615.450	0.0163854
615.529	0.0164747
615.607	0.0163825
615.685	0.0164918
615.763	0.0165800
615.841	0.0164413
615.919	0.0164630
615.997	0.0165263
616.075	0.0165128
616.154	0.0165155
616.232	0.0164942
616.310	0.0164142
616.388	0.0165359
616.466	0.0165118
616.544	0.0163951
616.622	0.0165559
616.700	0.0164854
616.779	0.0164830
616.857	0.0164259
616.935	0.0164000
617.013	0.0165051
617.091	0.0165003
617.169	0.0166331
617.247	0.0164769
617.325	0.0166763
617.404	0.0166338
617.482	0.0167516
617.560	0.0168343
617.638	0.0167503
617.716	0.0167245
617.794	0.0166861
617.872	0.0167796
617.950	0.0167169
618.029	0.0166217
618.107	0.0165877
618.185	0.0165843
618.263	0.0165781
618.341	0.0164787
618.419	0.0164359
618.497	0.0163884
618.575	0.0162075
618.654	0.0162064
618.732	0.0162724
618.810	0.0161748
618.888	0.0163204
618.966	0.0164548
619.044	0.0164657
619.122	0.0162875
619.200	0.0164301
619.279	0.0164857
619.357	0.0165751
619.435	0.0165421
619.513	0.0166090
619.591	0.0166842
619.669	0.0166475
619.747	0.0165726
619.825	0.0165464
619.904	0.0165391
619.982	0.0163627
620.060	0.0165038
620.138	0.0164225
620.216	0.0164913
620.294	0.0164740
620.372	0.0164468
620.450	0.0165505
620.529	0.0164356
620.607	0.0165855
620.685	0.0164643
620.763	0.0165131
620.841	0.0166150
620.919	0.0165876
620.997	0.0166217
621.075	0.0168404
621.154	0.0167375
621.232	0.0168390
621.310	0.0168364
621.388	0.0166959
621.466	0.0167338
621.544	0.0167183
621.622	0.0166870
621.700	0.0166370
621.779	0.0165662
621.857	0.0166415
621.935	0.0167251
622.013	0.0165683
622.091	0.0165227
622.169	0.0167079
622.247	0.0165269
622.325	0.0163382
622.404	0.0163592
622.482	0.0163787
622.560	0.0163228
622.638	0.0162879
622.716	0.0162273
622.794	0.0160651
622.872	0.0160764
622.950	0.0160861
623.029	0.0158945
623.107	0.0159542
623.185	0.0159631
623.263	0.0159937
623.341	0.0159655
623.419	0.0161922
623.497	0.0161932
623.575	0.0163070
623.654	0.0164133
623.732	0.0164954
623.810	0.0166641
623.888	0.0167384
623.966	0.0167590
624.044	0.0169078
624.122	0.0170478
624.200	0.0169096
624.279	0.0169553
624.357	0.0171620
624.435	0.0172338
624.513	0.0173306
624.591	0.0171178
624.669	0.0172108
624.747	0.0173440
624.825	0.0172617
624.904	0.0172912
624.982	0.0172004
625.060	0.0170336
625.138	0.0170424
625.216	0.0168914
625.294	0.0167943
625.372	0.0165825
625.450	0.0164320
625.529	0.0162637
625.607	0.0160051
625.685	0.0160122
625.763	0.0159350
625.841	0.0156497
625.919	0.0155972
625.997	0.0156024
626.075	0.0155165
626.154	0.0155229
626.232	0.0156007
626.310	0.0155566
626.388	0.0156055
626.466	0.0156328
626.544	0.0156642
626.622	0.0156667
626.700	0.0156506
626.779	0.0156809
626.857	0.0156580
626.935	0.0158278
627.013	0.0160083
627.091	0.0160612
627.169	0.0161649
627.247	0.0163150
627.325	0.0164456
627.404	0.0167534
627.482	0.0168996
627.560	0.0169196
627.638	0.0170966
627.716	0.0174876
627.794	0.0176989
627.872	0.0177620
627.950	0.0180330
628.029	0.0181324
628.107	0.0180637
628.185	0.0181083
628.263	0.0180289
628.341	0.0180820
628.419	0.0182418
628.497	0.0179719
628.575	0.0178123
628.654	0.0177019
628.732	0.0176181
628.810	0.0175432
628.888	0.0174845
628.966	0.0171896
629.044	0.0168842
629.122	0.0167561
629.200	0.0165672
629.279	0.0162865
629.357	0.0161095
629.435	0.0157460
629.513	0.0157293
629.591	0.0153241
629.669	0.0150909
629.747	0.0149113
629.825	0.0146113
629.904	0.0145228
629.982	0.0144330
630.060	0.0141479
630.138	0.0139836
630.216	0.0140852
630.294	0.0141085
630.372	0.0141180
630.450	0.0142360
630.529	0.0141715
630.607	0.0145099
630.685	0.0146758
630.763	0.0149836
630.841	0.0153144
630.919	0.0156534
630.997	0.0158974
631.075	0.0162386
631.154	0.0167700
631.232	0.0169939
631.310	0.0173353
631.388	0.0175269
631.466	0.0179369
631.544	0.0184347
631.622	0.0186653
631.700	0.0189333
631.779	0.0192079
631.857	0.0192481
631.935	0.0194743
632.013	0.0195821
632.091	0.0197292
632.169	0.0196892
632.247	0.0194600
632.325	0.0193613
632.404	0.0193405
632.482	0.0190959
632.560	0.0189333
632.638	0.0187213
632.716	0.0184326
632.794	0.0179303
632.872	0.0176675
632.950	0.0172459
633.029	0.0168488
633.107	0.0165788
633.185	0.0161965
633.263	0.0156667
633.341	0.0154343
633.419	0.0149881
633.497	0.0146626
633.575	0.0143990
633.654	0.0140508
633.732	0.0138061
633.810	0.0136612
633.888	0.0133940
633.966	0.0133540
634.044	0.0133281
634.122	0.0131071
634.200	0.0133861
634.279	0.0134916
634.357	0.0135670
634.435	0.0137280
634.513	0.0140915
634.591	0.0143938
634.669	0.0145881
634.747	0.0149290
634.825	0.0153316
634.904	0.0157586
634.982	0.0161874
635.060	0.0165852
635.138	0.0169980
635.216	0.0173107
635.294	0.0178199
635.372	0.0180917
635.450	0.0184016
635.529	0.0187508
635.607	0.0188749
635.685	0.0190897
635.763	0.0190385
635.841	0.0192886
635.919	0.0192974
635.997	0.0193261
636.075	0.0191890
636.154	0.0189672
636.232	0.0189097
636.310	0.0187010
636.388	0.0186447
636.466	0.0182671
636.544	0.0181881
636.622	0.0179778
636.700	0.0176254
636.779	0.0175094
636.857	0.0173605
636.935	0.0172041
637.013	0.0170462
637.091	0.0167558
637.169	0.0167326
637.247	0.0163963
637.325	0.0163571
637.404	0.0162220
637.482	0.0159612
637.560	0.0158221
637.638	0.0158260
637.716	0.0156780
637.794	0.0155176
637.872	0.0155612
637.950	0.0153111
638.029	0.0154306
638.107	0.0155573
638.185	0.0154676
638.263	0.0155396
638.341	0.0155327
638.419	0.0156712
638.497	0.0155907
638.575	0.0156075
638.654	0.0156339
638.732	0.0156342
638.810	0.0156516
638.888	0.0155901
638.966	0.0154459
639.044	0.0153877
639.122	0.0153519
639.200	0.0156549
639.279	0.0155414
639.357	0.0155739
639.435	0.0157332
639.513	0.0158495
639.591	0.0159966
639.669	0.0160470
639.747	0.0163715
639.825	0.0165777
639.904	0.0164763
639.982	0.0167328
640.060	0.0168118
640.138	0.0167867
640.216	0.0167767
640.294	0.0169230
640.372	0.0170573
640.450	0.0171658
640.529	0.0172745
640.607	0.0174422
640.685	0.0176064
640.763	0.0176555
640.841	0.0177065
640.919	0.0179958
640.997	0.0180416
641.075	0.0180418
641.154	0.0181699
641.232	0.0183556
641.310	0.0182191
641.388	0.0181810
641.466	0.0179611
641.544	0.0179588
641.622	0.0180082
641.700	0.0177541
641.779	0.0175577
641.857	0.0174225
641.935	0.0173470
642.013	0.0172295
642.091	0.0170397
642.169	0.0169021
642.247	0.0167367
642.325	0.0167400
642.404	0.0165699
642.482	0.0162943
642.560	0.0162358
642.638	0.0161398
642.716	0.0161047
642.794	0.0158694
642.872	0.0157619
642.950	0.0156055
643.029	0.0155528
643.107	0.0154967
643.185	0.0154206
643.263	0.0154875
643.341	0.0152507
643.419	0.0153310
643.497	0.0152870
643.575	0.0152129
643.654	0.0153263
643.732	0.0152800
643.810	0.0152815
643.888	0.0153584
643.966	0.0153676
644.044	0.0155386
644.122	0.0155362
644.200	0.0156458
644.279	0.0158820
644.357	0.0159377
644.435	0.0160081
644.513	0.0160802
644.591	0.0164003
644.669	0.0165229
644.747	0.0165276
644.825	0.0167411
644.904	0.0168813
644.982	0.0168941
645.060	0.0170367
645.138	0.0172400
645.216	0.0172575
645.294	0.0173219
645.372	0.0174493
645.450	0.0174038
645.529	0.0175964
645.607	0.0175723
645.685	0.0177193
645.763	0.0175819
645.841	0.0175898
645.919	0.0175170
645.997	0.0174126
646.075	0.0175054
646.154	0.0175520
646.232	0.0171966
646.310	0.0171925
646.388	0.0172262
646.466	0.0172358
646.544	0.0171253
646.622	0.0170405
646.700	0.0171824
646.779	0.0172238
646.857	0.0170641
646.935	0.0173539
647.013	0.0172381
647.091	0.0171649
647.169	0.0171741
647.247	0.0172136
647.325	0.0169921
647.404	0.0167740
647.482	0.0166307
647.560	0.0166195
647.638	0.0164330
647.716	0.0163702
647.794	0.0163514
647.872	0.0160049
647.950	0.0159743
648.029	0.0159969
648.107	0.0159599
648.185	0.0159473
648.263	0.0160540
648.341	0.0161096
648.419	0.0161318
648.497	0.0160608
648.575	0.0160635
648.654	0.0159535
648.732	0.0161343
648.810	0.0158794
648.888	0.0157214
648.966	0.0156380
649.044	0.0154599
649.122	0.0153386
649.200	0.0151852
649.279	0.0151248
649.357	0.0149009
649.435	0.0149697
649.513	0.0147630
649.591	0.0148309
649.669	0.0150415
649.747	0.0150401
649.825	0.0152378
649.904	0.0152404
649.982	0.0155380
650.060	0.0158780
650.138	0.0159931
650.216	0.0162865
650.294	0.0165024
650.372	0.0167502
650.450	0.0168959
650.529	0.0171940
650.607	0.0174382
650.685	0.0175738
650.763	0.0178858
650.841	0.0178948
650.919	0.0181297
650.997	0.0181453
651.075	0.0183178
651.154	0.0183835
651.232	0.0183353
651.310	0.0183897
651.388	0.0182971
651.466	0.0183210
651.544	0.0183161
651.622	0.0182851
651.700	0.0182125
651.779	0.0178740
651.857	0.0176655
651.935	0.0175485
652.013	0.0172754
652.091	0.0170635
652.169	0.0168068
652.247	0.0163938
652.325	0.0159645
652.404	0.0157572
652.482	0.0154230
652.560	0.0148817
652.638	0.0144044
652.716	0.0141451
652.794	0.0139249
652.872	0.0137162
652.950	0.0136304
653.029	0.0134309
653.107	0.0133372
653.185	0.0134092
653.263	0.0136877
653.341	0.0138522
653.419	0.0141257
653.497	0.0143929
653.575	0.0148666
653.654	0.0152546
653.732	0.0155043
653.810	0.0159271
653.888	0.0164790
653.966	0.0168452
654.044	0.0172036
654.122	0.0174448
654.200	0.0177287
654.279	0.0181758
654.357	0.0183905
654.435	0.0186556
654.513	0.0189500
654.591	0.0190259
654.669	0.0190196
654.747	0.0188749
654.825	0.0189474
654.904	0.0188919
654.982	0.0188062
655.060	0.0185969
655.138	0.0182961
655.216	0.0179691
655.294	0.0176322
655.372	0.0171861
655.450	0.0169732
655.529	0.0165012
655.607	0.0162820
655.685	0.0160277
655.763	0.0159883
655.841	0.0157732
655.919	0.0157343
655.997	0.0156355
656.075	0.0155326
656.154	0.0154516
656.232	0.0154765
656.310	0.0155999
656.388	0.0156638
656.466	0.0156133
656.544	0.0155760
656.622	0.0157494
656.700	0.0159290
656.779	0.0160946
656.857	0.0161000
656.935	0.0161761
657.013	0.0164334
657.091	0.0166171
657.169	0.0166147
657.247	0.0167504
657.325	0.0169918
657.404	0.0170859
657.482	0.0170089
657.560	0.0171270
657.638	0.0172157
657.716	0.0171779
657.794	0.0172375
657.872	0.0171753
657.950	0.0170078
658.029	0.0169521
658.107	0.0169105
658.185	0.0168062
658.263	0.0166982
658.341	0.0166776
658.419	0.0164285
658.497	0.0162514
658.575	0.0160825
658.654	0.0158929
658.732	0.0156821
658.810	0.0157139
658.888	0.0157695
658.966	0.0157294
659.044	0.0158638
659.122	0.0158377
659.200	0.0159133
659.279	0.0161320
659.357	0.0163612
659.435	0.0165227
659.513	0.0166444
659.591	0.0167901
659.669	0.0168882
659.747	0.0168137
659.825	0.0169364
659.904	0.0169650
659.982	0.0169494
660.060	0.0167903
660.138	0.0168115
660.216	0.0168958
660.294	0.0168620
660.372	0.0169109
660.450	0.0168341
660.529	0.0168200
660.607	0.0169402
660.685	0.0171010
660.763	0.0170177
660.841	0.0170400
660.919	0.0170832
660.997	0.0171362
661.075	0.0171056
661.154	0.0170041
661.232	0.0170157
661.310	0.0170125
661.388	0.0168766
661.466	0.0167534
661.544	0.0167563
661.622	0.0167473
661.700	0.0166121
661.779	0.0167083
661.857	0.0166725
661.935	0.0166312
662.013	0.0167651
662.091	0.0166609
662.169	0.0167442
662.247	0.0166481
662.325	0.0167271
662.404	0.0166739
662.482	0.0165118
662.560	0.0163977
662.638	0.0164458
662.716	0.0162550
662.794	0.0161771
662.872	0.0160385
662.950	0.0159753
663.029	0.0159224
663.107	0.0159516
663.185	0.0157389
663.263	0.0158549
663.341	0.0158456
663.419	0.0156734
663.497	0.0157925
663.575	0.0160432
663.654	0.0159512
663.732	0.0159007
663.810	0.0159296
663.888	0.0161303
663.966	0.0161418
664.044	0.0162617
664.122	0.0163311
664.200	0.0165399
664.279	0.0166006
664.357	0.0166135
664.435	0.0167204
664.513	0.0169711
664.591	0.0168691
664.669	0.0169746
664.747	0.0171600
664.825	0.0169994
664.904	0.0168802
664.982	0.0168789
665.060	0.0169833
665.138	0.0168404
665.216	0.0167853
665.294	0.0167341
665.372	0.0166386
665.450	0.0164415
665.529	0.0164046
665.607	0.0164370
665.685	0.0163976
665.763	0.0160855
665.841	0.0160600
665.919	0.0160631
665.997	0.0161179
666.075	0.0158612
666.154	0.0160210
666.232	0.0160977
666.310	0.0160198
666.388	0.0162319
666.466	0.0164349
666.544	0.0165227
666.622	0.0166391
666.700	0.0169360
666.779	0.0170555
666.857	0.0173676
666.935	0.0177010
667.013	0.0177271
667.091	0.0179228
667.169	0.0182851
667.247	0.0182977
667.325	0.0186102
667.404	0.0185809
667.482	0.0185472
667.560	0.0185670
667.638	0.0183476
667.716	0.0183125
667.794	0.0180476
667.872	0.0180222
667.950	0.0178658
668.029	0.0175700
668.107	0.0174933
668.185	0.0173047
668.263	0.0169608
668.341	0.0167904
668.419	0.0164670
668.497	0.0163433
668.575	0.0160226
668.654	0.0157366
668.732	0.0154642
668.810	0.0151839
668.888	0.0148561
668.966	0.0146922
669.044	0.0143616
669.122	0.0141064
669.200	0.0140385
669.279	0.0139363
669.357	0.0138429
669.435	0.0138013
669.513	0.0138326
669.591	0.0138342
669.669	0.0140763
669.747	0.0141252
669.825	0.0144677
669.904	0.0146470
669.982	0.0148564
670.060	0.0151165
670.138	0.0153883
670.216	0.0157697
670.294	0.0159845
670.372	0.0162720
670.450	0.0163676
670.529	0.0165408
670.607	0.0167570
670.685	0.0169844
670.763	0.0172619
670.841	0.0174098
670.919	0.0172656
670.997	0.0175311
671.075	0.0176353
671.154	0.0177554
671.232	0.0178649
671.310	0.0177866
671.388	0.0179225
671.466	0.0179382
671.544	0.0179681
671.622	0.0178386
671.700	0.0181430
671.779	0.0178855
671.857	0.0179222
671.935	0.0178069
672.013	0.0178807
672.091	0.0179044
672.169	0.0177349
672.247	0.0178019
672.325	0.0177968
672.404	0.0176360
672.482	0.0175717
672.560	0.0176661
672.638	0.0177451
672.716	0.0177881
672.794	0.0176369
672.872	0.0176551
672.950	0.0176460
673.029	0.0177627
673.107	0.0174405
673.185	0.0173934
673.263	0.0172730
673.341	0.0172244
673.419	0.0169265
673.497	0.0167673
673.575	0.0166180
673.654	0.0162648
673.732	0.0161716
673.810	0.0160091
673.888	0.0158479
673.966	0.0155770
674.044	0.0155543
674.122	0.0153452
674.200	0.0151492
674.279	0.0149047
674.357	0.0149534
674.435	0.0147858
674.513	0.0146729
674.591	0.0147586
674.669	0.0147514
674.747	0.0146202
674.825	0.0146638
674.904	0.0145567
674.982	0.0147488
675.060	0.0147115
675.138	0.0149042
675.216	0.0150282
675.294	0.0150950
675.372	0.0155531
675.450	0.0157993
675.529	0.0158765
675.607	0.0162640
675.685	0.0163913
675.763	0.0165463
675.841	0.0168168
675.919	0.0169801
675.997	0.0171095
676.075	0.0172510
676.154	0.0173624
676.232	0.0175455
676.310	0.0176795
676.388	0.0175848
676.466	0.0178000
676.544	0.0177310
676.622	0.0177449
676.700	0.0177687
676.779	0.0177041
676.857	0.0173792
676.935	0.0174885
677.013	0.0173328
677.091	0.0173278
677.169	0.0173105
677.247	0.0170750
677.325	0.0170599
677.404	0.0170373
677.482	0.0169666
677.560	0.0169095
677.638	0.0169669
677.716	0.0170015
677.794	0.0168145
677.872	0.0169455
677.950	0.0168468
678.029	0.0167876
678.107	0.0166833
678.185	0.0166005
678.263	0.0166080
678.341	0.0164471
678.419	0.0162417
678.497	0.0161784
678.575	0.0163070
678.654	0.0160167
678.732	0.0159167
678.810	0.0158511
678.888	0.0158641
678.966	0.0158784
679.044	0.0157713
679.122	0.0159187
679.200	0.0160251
679.279	0.0160691
679.357	0.0160788
679.435	0.0161050
679.513	0.0162033
679.591	0.0163256
679.669	0.0162474
679.747	0.0162766
679.825	0.0163712
679.904	0.0162900
679.982	0.0164960
680.060	0.0165314
680.138	0.0163889
680.216	0.0164373
680.294	0.0167236
680.372	0.0168192
680.450	0.0169072
680.529	0.0167521
680.607	0.0169416
680.685	0.0170484
680.763	0.0170070
680.841	0.0170933
680.919	0.0170031
680.997	0.0171378
681.075	0.0169909
681.154	0.0170331
681.232	0.0168835
681.310	0.0168183
681.388	0.0166636
681.466	0.0165994
681.544	0.0164156
681.622	0.0162719
681.700	0.0162952
681.779	0.0161584
681.857	0.0160688
681.935	0.0158360
682.013	0.0156413
682.091	0.0155372
682.169	0.0154553
682.247	0.0154482
682.325	0.0152390
682.404	0.0152371
682.482	0.0153518
682.560	0.0151746
682.638	0.0152200
682.716	0.0153087
682.794	0.0152546
682.872	0.0154548
682.950	0.0155125
683.029	0.0153989
683.107	0.0157007
683.185	0.0159538
683.263	0.0160153
683.341	0.0163403
683.419	0.0165768
683.497	0.0166490
683.575	0.0170197
683.654	0.0172076
683.732	0.0175669
683.810	0.0176709
683.888	0.0178703
683.966	0.0179881
684.044	0.0180787
684.122	0.0183859
684.200	0.0184396
684.279	0.0183128
684.357	0.0183282
684.435	0.0183589
684.513	0.0181944
684.591	0.0180791
684.669	0.0179286
684.747	0.0176828
684.825	0.0175054
684.904	0.0171944
684.982	0.0170730
685.060	0.0167709
685.138	0.0165223
685.216	0.0163685
685.294	0.0162000
685.372	0.0159583
685.450	0.0159129
685.529	0.0157246
685.607	0.0156458
685.685	0.0156036
685.763	0.0158144
685.841	0.0155923
685.919	0.0157175
685.997	0.0156908
686.075	0.0156971
686.154	0.0158291
686.232	0.0159746
686.310	0.0159830
686.388	0.0160953
686.466	0.0160577
686.544	0.0161981
686.622	0.0163256
686.700	0.0165276
686.779	0.0166081
686.857	0.0166672
686.935	0.0168717
687.013	0.0168625
687.091	0.0167406
687.169	0.0168659
687.247	0.0169357
687.325	0.0170479
687.404	0.0171878
687.482	0.0172797
687.560	0.0171556
687.638	0.0171978
687.716	0.0170761
687.794	0.0171365
687.872	0.0171318
687.950	0.0170347
688.029	0.0169979
688.107	0.0168746
688.185	0.0169359
688.263	0.0166351
688.341	0.0165275
688.419	0.0164938
688.497	0.0164438
688.575	0.0161707
688.654	0.0160426
688.732	0.0159554
688.810	0.0157378
688.888	0.0157047
688.966	0.0155638
689.044	0.0155692
689.122	0.0155019
689.200	0.0154342
689.279	0.0153568
689.357	0.0153068
689.435	0.0153410
689.513	0.0154875
689.591	0.0154874
689.669	0.0156977
689.747	0.0157049
689.825	0.0157381
689.904	0.0158997
689.982	0.0160004
690.060	0.0161494
690.138	0.0161532
690.216	0.0162900
690.294	0.0163438
690.372	0.0165070
690.450	0.0166187
690.529	0.0166730
690.607	0.0168320
690.685	0.0166907
690.763	0.0170938
690.841	0.0170262
690.919	0.0170782
690.997	0.0171307
691.075	0.0172278
691.154	0.0171002
691.232	0.0171218
691.310	0.0171424
691.388	0.0170643
691.466	0.0172338
691.544	0.0172095
691.622	0.0170891
691.700	0.0171055
691.779	0.0170851
691.857	0.0170389
691.935	0.0169870
692.013	0.0169937
692.091	0.0169515
692.169	0.0168866
692.247	0.0167056
692.325	0.0168874
692.404	0.0168324
692.482	0.0167567
692.560	0.0166470
692.638	0.0165574
692.716	0.0166518
692.794	0.0165707
692.872	0.0164614
692.950	0.0163691
693.029	0.0162971
693.107	0.0162508
693.185	0.0162506
693.263	0.0162650
693.341	0.0161132
693.419	0.0162115
693.497	0.0162620
693.575	0.0161295
693.654	0.0162012
693.732	0.0160386
693.810	0.0161834
693.888	0.0162952
693.966	0.0163319
694.044	0.0161995
694.122	0.0163258
694.200	0.0163379
694.279	0.0164026
694.357	0.0165012
694.435	0.0164785
694.513	0.0164650
694.591	0.0164127
694.669	0.0164420
694.747	0.0163763
694.825	0.0164381
694.904	0.0165498
694.982	0.0164880
695.060	0.0163747
695.138	0.0164302
695.216	0.0164397
695.294	0.0163385
695.372	0.0162798
695.450	0.0163098
695.529	0.0163670
695.607	0.0163213
695.685	0.0164751
695.763	0.0165385
695.841	0.0165565
695.919	0.0164965
695.997	0.0166810
696.075	0.0166347
696.154	0.0166599
696.232	0.0166329
696.310	0.0167061
696.388	0.0168730
696.466	0.0168113
696.544	0.0168620
696.622	0.0167339
696.700	0.0167382
696.779	0.0166482
696.857	0.0167176
696.935	0.0167483
697.013	0.0167160
697.091	0.0167851
697.169	0.0168529
697.247	0.0168125
697.325	0.0169555
697.404	0.0170603
697.482	0.0169949
697.560	0.0170926
697.638	0.0170807
697.716	0.0171078
697.794	0.0170010
697.872	0.0170391
697.950	0.0169298
698.029	0.0168358
698.107	0.0167549
698.185	0.0168237
698.263	0.0167568
698.341	0.0164901
698.419	0.0166065
698.497	0.0164524
698.575	0.0165283
698.654	0.0164760
698.732	0.0164680
698.810	0.0163347
698.888	0.0163822
698.966	0.0163982
699.044	0.0164108
699.122	0.0163250
699.200	0.0163605
699.279	0.0161868
699.357	0.0163580
699.435	0.0163026
699.513	0.0162389
699.591	0.0163446
699.669	0.0163210
699.747	0.0164154
699.825	0.0163345
699.904	0.0163389
699.982	0.0163525
700.060	0.0162827
700.138	0.0163347
700.216	0.0163660
700.294	0.0162663
700.372	0.0161886
700.450	0.0162122
700.529	0.0162937
700.607	0.0163970
700.685	0.0163215
700.763	0.0164855
700.841	0.0164840
700.919	0.0163306
700.997	0.0165842
701.075	0.0165210
701.154	0.0167646
701.232	0.0166810
701.310	0.0166850
701.388	0.0167509
701.466	0.0167377
701.544	0.0166801
701.622	0.0166702
701.700	0.0166932
701.779	0.0167723
701.857	0.0167208
701.935	0.0166974
702.013	0.0165816
702.091	0.0166391
702.169	0.0166376
702.247	0.0166394
702.325	0.0165505
702.404	0.0166132
702.482	0.0166536
702.560	0.0164797
702.638	0.0165321
702.716	0.0164787
702.794	0.0165746
702.872	0.0165832
702.950	0.0165783
703.029	0.0165176
703.107	0.0165855
703.185	0.0165894
703.263	0.0166413
703.341	0.0166208
703.419	0.0166993
703.497	0.0166567
703.575	0.0166833
703.654	0.0166756
703.732	0.0165797
703.810	0.0165741
703.888	0.0165295
703.966	0.0166763
704.044	0.0167039
704.122	0.0166862
704.200	0.0166943
704.279	0.0166620
704.357	0.0166566
704.435	0.0166597
704.513	0.0164849
704.591	0.0165859
704.669	0.0165173
704.747	0.0164685
704.825	0.0165031
704.904	0.0164664
704.982	0.0164513
705.060	0.0164492
705.138	0.0165054
705.216	0.0165533
705.294	0.0164647
705.372	0.0163869
705.450	0.0165722
705.529	0.0164196
705.607	0.0164957
705.685	0.0164157
705.763	0.0162080
705.841	0.0163581
705.919	0.0163258
705.997	0.0163769
706.075	0.0163223
706.154	0.0163571
706.232	0.0163616
706.310	0.0164006
706.388	0.0163111
706.466	0.0164021
706.544	0.0165062
706.622	0.0164907
706.700	0.0165681
706.779	0.0165813
706.857	0.0165475
706.935	0.0166067
707.013	0.0167252
707.091	0.0166502
707.169	0.0165790
707.247	0.0167634
707.325	0.0166173
707.404	0.0166402
707.482	0.0168004
707.560	0.0168002
707.638	0.0167846
707.716	0.0167020
707.794	0.0166449
707.872	0.0168008
707.950	0.0167809
708.029	0.0165616
708.107	0.0166261
708.185	0.0165315
708.263	0.0166386
708.341	0.0165596
708.419	0.0164087
708.497	0.0165097
708.575	0.0166442
708.654	0.0165417
708.732	0.0163880
708.810	0.0164056
708.888	0.0163192
708.966	0.0163446
709.044	0.0163854
709.122	0.0162572
709.200	0.0163734
709.279	0.0162590
709.357	0.0162321
709.435	0.0163470
709.513	0.0162943
709.591	0.0162425
709.669	0.0162036
709.747	0.0162977
709.825	0.0161667
709.904	0.0163007
709.982	0.0163934
710.060	0.0164510
710.138	0.0165083
710.216	0.0165273
710.294	0.0165117
710.372	0.0165990
710.450	0.0164996
710.529	0.0167161
710.607	0.0166642
710.685	0.0165880
710.763	0.0166010
710.841	0.0166514
710.919	0.0165955
710.997	0.0165527
711.075	0.0165621
711.154	0.0163770
711.232	0.0164285
711.310	0.0165306
711.388	0.0164555
711.466	0.0164478
711.544	0.0164352
711.622	0.0163947
711.700	0.0164964
711.779	0.0165060
711.857	0.0165070
711.935	0.0163106
712.013	0.0164887
712.091	0.0164502
712.169	0.0164981
712.247	0.0166122
712.325	0.0166853
712.404	0.0164256
712.482	0.0165045
712.560	0.0165894
712.638	0.0165299
712.716	0.0166186
712.794	0.0166200
712.872	0.0164930
712.950	0.0165451
713.029	0.0166885
713.107	0.0166924
713.185	0.0166615
713.263	0.0166978
713.341	0.0167330
713.419	0.0166666
713.497	0.0167484
713.575	0.0167442
713.654	0.0168624
713.732	0.0168839
713.810	0.0167949
713.888	0.0167464
713.966	0.0169821
714.044	0.0169062
714.122	0.0168475
714.200	0.0168480
714.279	0.0168099
714.357	0.0168425
714.435	0.0169240
714.513	0.0167398
714.591	0.0168390
714.669	0.0169812
714.747	0.0167551
714.825	0.0167772
714.904	0.0168361
714.982	0.0167331
715.060	0.0167841
715.138	0.0166642
715.216	0.0165628
715.294	0.0166770
715.372	0.0165950
715.450	0.0165727
715.529	0.0166515
715.607	0.0165910
715.685	0.0165839
715.763	0.0165285
715.841	0.0164648
715.919	0.0164725
715.997	0.0164792
716.075	0.0166141
716.154	0.0164319
716.232	0.0163644
716.310	0.0165601
716.388	0.0165291
716.466	0.0164751
716.544	0.0163985
716.622	0.0164944
716.700	0.0165044
716.779	0.0164659
716.857	0.0163712
716.935	0.0163827
717.013	0.0164811
717.091	0.0165652
717.169	0.0164270
717.247	0.0163847
717.325	0.0162757
717.404	0.0163882
717.482	0.0163596
717.560	0.0164194
717.638	0.0163161
717.716	0.0164859
717.794	0.0163627
717.872	0.0164442
717.950	0.0166198
718.029	0.0163915
718.107	0.0162830
718.185	0.0163268
718.263	0.0165607
718.341	0.0165688
718.419	0.0164883
718.497	0.0163417
718.575	0.0164814
718.654	0.0164616
718.732	0.0162959
718.810	0.0162634
718.888	0.0163417
718.966	0.0163086
719.044	0.0162325
719.122	0.0161871
719.200	0.0162208
719.279	0.0162757
719.357	0.0162809
719.435	0.0162392
719.513	0.0162933
719.591	0.0163862
719.669	0.0165063
719.747	0.0164199
719.825	0.0165374
719.904	0.0164617
719.982	0.0166086
720.060	0.0166842
720.138	0.0167581
720.216	0.0167128
720.294	0.0167936
720.372	0.0169533
720.450	0.0166718
720.529	0.0168288
720.607	0.0168459
720.685	0.0167766
720.763	0.0167352
720.841	0.0168275
720.919	0.0166103
720.997	0.0167805
721.075	0.0167324
721.154	0.0166506
721.232	0.0167780
721.310	0.0168814
721.388	0.0165675
721.466	0.0166642
721.544	0.0167065
721.622	0.0165982
721.700	0.0165250
721.779	0.0166103
721.857	0.0165797
721.935	0.0164093
722.013	0.0163073
722.091	0.0164074
722.169	0.0164023
722.247	0.0165283
722.325	0.0164281
722.404	0.0163551
722.482	0.0165534
722.560	0.0165412
722.638	0.0165544
722.716	0.0164080
722.794	0.0166055
722.872	0.0164154
722.950	0.0166584
723.029	0.0165767
723.107	0.0166133
723.185	0.0165826
723.263	0.0167164
723.341	0.0166118
723.419	0.0165147
723.497	0.0168169
723.575	0.0166822
723.654	0.0167036
723.732	0.0167424
723.810	0.0165891
723.888	0.0165630
723.966	0.0166295
724.044	0.0166536
724.122	0.0164577
724.200	0.0165662
724.279	0.0165308
724.357	0.0165250
724.435	0.0164542
724.513	0.0163984
724.591	0.0164729
724.669	0.0163364
724.747	0.0164173
724.825	0.0164003
724.904	0.0164630
724.982	0.0164341
725.060	0.0164980
725.138	0.0163815
725.216	0.0163866
725.294	0.0165874
725.372	0.0165940
725.450	0.0165887
725.529	0.0164410
725.607	0.0165934
725.685	0.0164673
725.763	0.0165124
725.841	0.0166060
725.919	0.0164922
725.997	0.0165012
726.075	0.0165106
726.154	0.0165617
726.232	0.0163817
726.310	0.0164782
726.388	0.0165019
726.466	0.0164283
726.544	0.0165302
726.622	0.0164190
726.700	0.0163623
726.779	0.0164912
726.857	0.0165189
726.935	0.0164684
727.013	0.0163360
727.091	0.0163220
727.169	0.0165091
727.247	0.0166366
727.325	0.0164204
727.404	0.0166358
727.482	0.0165762
727.560	0.0168292
727.638	0.0168046
727.716	0.0168738
727.794	0.0168903
727.872	0.0169315
727.950	0.0169707
728.029	0.0170406
728.107	0.0169960
728.185	0.0171864
728.263	0.0171577
728.341	0.0170943
728.419	0.0172080
728.497	0.0172555
728.575	0.0170376
728.654	0.0170119
728.732	0.0171343
728.810	0.0170023
728.888	0.0169844
728.966	0.0170183
729.044	0.0169788
729.122	0.0168776
729.200	0.0167019
729.279	0.0168426
729.357	0.0167273
729.435	0.0166807
729.513	0.0165501
729.591	0.0164281
729.669	0.0164722
729.747	0.0165137
729.825	0.0162162
729.904	0.0162996
729.982	0.0162848
730.060	0.0160806
730.138	0.0160120
730.216	0.0161485
730.294	0.0161392
730.372	0.0160806
730.450	0.0161370
730.529	0.0162932
730.607	0.0162270
730.685	0.0160366
730.763	0.0160658
730.841	0.0161572
730.919	0.0162196
730.997	0.0161548
731.075	0.0164484
731.154	0.0163934
731.232	0.0163629
731.310	0.0164689
731.388	0.0163913
731.466	0.0165115
731.544	0.0163736
731.622	0.0164951
731.700	0.0165222
731.779	0.0165173
731.857	0.0165120
731.935	0.0165667
732.013	0.0166464
732.091	0.0167300
732.169	0.0166369
732.247	0.0167544
732.325	0.0166678
732.404	0.0167783
732.482	0.0168944
732.560	0.0167661
732.638	0.0168313
732.716	0.0167784
732.794	0.0168595
732.872	0.0169405
732.950	0.0169486
733.029	0.0168929
733.107	0.0169829
733.185	0.0169150
733.263	0.0169865
733.341	0.0169267
733.419	0.0168834
733.497	0.0169827
733.575	0.0168884
733.654	0.0168810
733.732	0.0168410
733.810	0.0169186
733.888	0.0169219
733.966	0.0167981
734.044	0.0167900
734.122	0.0168224
734.200	0.0167834
734.279	0.0168650
734.357	0.0166430
734.435	0.0167588
734.513	0.0166691
734.591	0.0166628
734.669	0.0165876
734.747	0.0166508
734.825	0.0164785
734.904	0.0166212
734.982	0.0165325
735.060	0.0164654
735.138	0.0165159
735.216	0.0163722
735.294	0.0165148
735.372	0.0165489
735.450	0.0164603
735.529	0.0163527
735.607	0.0165293
735.685	0.0164384
735.763	0.0165664
735.841	0.0164958
735.919	0.0165096
735.997	0.0164840
736.075	0.0166499
736.154	0.0166209
736.232	0.0165102
736.310	0.0165411
736.388	0.0164821
736.466	0.0165694
736.544	0.0166122
736.622	0.0167341
736.700	0.0164922
736.779	0.0165761
736.857	0.0166385
736.935	0.0166846
737.013	0.0166452
737.091	0.0167738
737.169	0.0167780
737.247	0.0167928
737.325	0.0167065
737.404	0.0169294
737.482	0.0167909
737.560	0.0168070
737.638	0.0168192
737.716	0.0167121
737.794	0.0168690
737.872	0.0168512
737.950	0.0167072
738.029	0.0166320
738.107	0.0168853
738.185	0.0168784
738.263	0.0165400
738.341	0.0167896
738.419	0.0167908
738.497	0.0167194
738.575	0.0165380
738.654	0.0167257
738.732	0.0166428
738.810	0.0164658
738.888	0.0165755
738.966	0.0164704
739.044	0.0164951
739.122	0.0164090
739.200	0.0163317
739.279	0.0163116
739.357	0.0163094
739.435	0.0165086
739.513	0.0163801
739.591	0.0163470
739.669	0.0162888
739.747	0.0163363
739.825	0.0163376
739.904	0.0163249
739.982	0.0163645
740.060	0.0163137
740.138	0.0164005
740.216	0.0162295
740.294	0.0162803
740.372	0.0163553
740.450	0.0163551
740.529	0.0163982
740.607	0.0164655
740.685	0.0163882
740.763	0.0164751
740.841	0.0165183
740.919	0.0164542
740.997	0.0166081
741.075	0.0164890
741.154	0.0165570
741.232	0.0166059
741.310	0.0165634
741.388	0.0165340
741.466	0.0165563
741.544	0.0165613
741.622	0.0165250
741.700	0.0165323
741.779	0.0164409
741.857	0.0165699
741.935	0.0166399
742.013	0.0164330
742.091	0.0164418
742.169	0.0164269
742.247	0.0164603
742.325	0.0164680
742.404	0.0164680
742.482	0.0164133
742.560	0.0163388
742.638	0.0165044
742.716	0.0162968
742.794	0.0165778
742.872	0.0163725
742.950	0.0164444
743.029	0.0165621
743.107	0.0165566
743.185	0.0165116
743.263	0.0165295
743.341	0.0165948
743.419	0.0166216
743.497	0.0165401
743.575	0.0165757
743.654	0.0166295
743.732	0.0166660
743.810	0.0167006
743.888	0.0168247
743.966	0.0167242
744.044	0.0166947
744.122	0.0166435
744.200	0.0167302
744.279	0.0167979
744.357	0.0166961
744.435	0.0167428
744.513	0.0167636
744.591	0.0168766
744.669	0.0169186
744.747	0.0167074
744.825	0.0166593
744.904	0.0165907
744.982	0.0166717
745.060	0.0166666
745.138	0.0167353
745.216	0.0165257
745.294	0.0166690
745.372	0.0166354
745.450	0.0164613
745.529	0.0165487
745.607	0.0165385
745.685	0.0165798
745.763	0.0165858
745.841	0.0164632
745.919	0.0165353
745.997	0.0164651
746.075	0.0164142
746.154	0.0163837
746.232	0.0164507
746.310	0.0165661
746.388	0.0164512
746.466	0.0164347
746.544	0.0164378
746.622	0.0165054
746.700	0.0165224
746.779	0.0165617
746.857	0.0167063
746.935	0.0167033
747.013	0.0166011
747.091	0.0166269
747.169	0.0167117
747.247	0.0165941
747.325	0.0167295
747.404	0.0168113
747.482	0.0169118
747.560	0.0168320
747.638	0.0168079
747.716	0.0169004
747.794	0.0168331
747.872	0.0168483
747.950	0.0167883
748.029	0.0168652
748.107	0.0167942
748.185	0.0166773
748.263	0.0168272
748.341	0.0168128
748.419	0.0167202
748.497	0.0166335
748.575	0.0165788
748.654	0.0164683
748.732	0.0164244
748.810	0.0165725
748.888	0.0165703
748.966	0.0165100
749.044	0.0165372
749.122	0.0165346
749.200	0.0164249
749.279	0.0164896
749.357	0.0162202
749.435	0.0163477
749.513	0.0162556
749.591	0.0162096
749.669	0.0162401
749.747	0.0162614
749.825	0.0162415
749.904	0.0163773
749.982	0.0163819
750.060	0.0163422
750.138	0.0162884
750.216	0.0164311
750.294	0.0163992
750.372	0.0165172
750.450	0.0164955
750.529	0.0165848
750.607	0.0164705
750.685	0.0166659
750.763	0.0165636
750.841	0.0166217
750.919	0.0165026
750.997	0.0167279
751.075	0.0167327
751.154	0.0167973
751.232	0.0167916
751.310	0.0165770
751.388	0.0167418
751.466	0.0167352
751.544	0.0167400
751.622	0.0166077
751.700	0.0165285
751.779	0.0166634
751.857	0.0165543
751.935	0.0167487
752.013	0.0166363
752.091	0.0164701
752.169	0.0165263
752.247	0.0165116
752.325	0.0164791
752.404	0.0165500
752.482	0.0166518
752.560	0.0164937
752.638	0.0164915
752.716	0.0166196
752.794	0.0164882
752.872	0.0164966
752.950	0.0165685
753.029	0.0166339
753.107	0.0165665
753.185	0.0165696
753.263	0.0167113
753.341	0.0166809
753.419	0.0165972
753.497	0.0165736
753.575	0.0164951
753.654	0.0165301
753.732	0.0166505
753.810	0.0164828
753.888	0.0166019
753.966	0.0166113
754.044	0.0166125
754.122	0.0164966
754.200	0.0164182
754.279	0.0165797
754.357	0.0165272
754.435	0.0164449
754.513	0.0165620
754.591	0.0165692
754.669	0.0165061
754.747	0.0163730
754.825	0.0165090
754.904	0.0163680
754.982	0.0165516
755.060	0.0165767
755.138	0.0164610
755.216	0.0164197
755.294	0.0165343
755.372	0.0163805
755.450	0.0163224
755.529	0.0163490
755.607	0.0164201
755.685	0.0163825
755.763	0.0163116
755.841	0.0161884
755.919	0.0163303
755.997	0.0163861
756.075	0.0162830
756.154	0.0164748
756.232	0.0161862
756.310	0.0162657
756.388	0.0163715
756.466	0.0162657
756.544	0.0164632
756.622	0.0162941
756.700	0.0163328
756.779	0.0164828
756.857	0.0163813
756.935	0.0164600
757.013	0.0166246
757.091	0.0165129
757.169	0.0164149
757.247	0.0165318
757.325	0.0166808
757.404	0.0165837
757.482	0.0167596
757.560	0.0166737
757.638	0.0166861
757.716	0.0166431
757.794	0.0169122
757.872	0.0169473
757.950	0.0169061
758.029	0.0169807
758.107	0.0168373
758.185	0.0169030
758.263	0.0169333
758.341	0.0169783
758.419	0.0169446
758.497	0.0169217
758.575	0.0169011
758.654	0.0168945
758.732	0.0169135
758.810	0.0168040
758.888	0.0170256
758.966	0.0168679
759.044	0.0169084
759.122	0.0168486
759.200	0.0168936
759.279	0.0168394
759.357	0.0166396
759.435	0.0166407
759.513	0.0167302
759.591	0.0167424
759.669	0.0167166
759.747	0.0168063
759.825	0.0166437
759.904	0.0166332
759.982	0.0165102
760.060	0.0167621
760.138	0.0166125
760.216	0.0166084
760.294	0.0165404
760.372	0.0164997
760.450	0.0164717
760.529	0.0165372
760.607	0.0164340
760.685	0.0165073
760.763	0.0164829
760.841	0.0165755
760.919	0.0164108
760.997	0.0165414
761.075	0.0165340
761.154	0.0164930
761.232	0.0164265
761.310	0.0164999
761.388	0.0164295
761.466	0.0164711
761.544	0.0164787
761.622	0.0163051
761.700	0.0164037
761.779	0.0162757
761.857	0.0164151
761.935	0.0163848
762.013	0.0164154
762.091	0.0163834
762.169	0.0164470
762.247	0.0164836
762.325	0.0164207
762.404	0.0164690
762.482	0.0164824
762.560	0.0162870
762.638	0.0163799
762.716	0.0166221
762.794	0.0165056
762.872	0.0164746
762.950	0.0164967
763.029	0.0164849
763.107	0.0166323
763.185	0.0167581
763.263	0.0166658
763.341	0.0166356
763.419	0.0167213
763.497	0.0167870
763.575	0.0166171
763.654	0.0167155
763.732	0.0167567
763.810	0.0167623
763.888	0.0167873
763.966	0.0169462
764.044	0.0168280
764.122	0.0166883
764.200	0.0166570
764.279	0.0167039
764.357	0.0167012
764.435	0.0167190
764.513	0.0167298
764.591	0.0165897
764.669	0.0166293
764.747	0.0165180
764.825	0.0164348
764.904	0.0165710
764.982	0.0164002
765.060	0.0164941
765.138	0.0163728
765.216	0.0163238
765.294	0.0163325
765.372	0.0161827
765.450	0.0163414
765.529	0.0161949
765.607	0.0161739
765.685	0.0161704
765.763	0.0161858
765.841	0.0160262
765.919	0.0161720
765.997	0.0162762
766.075	0.0161728
766.154	0.0160791
766.232	0.0160812
766.310	0.0160789
766.388	0.0161413
766.466	0.0160322
766.544	0.0161409
766.622	0.0160615
766.700	0.0162402
766.779	0.0161805
766.857	0.0163214
766.935	0.0161491
767.013	0.0161279
767.091	0.0163472
767.169	0.0163235
767.247	0.0163619
767.325	0.0163438
767.404	0.0163577
767.482	0.0164876
767.560	0.0163960
767.638	0.0164596
767.716	0.0165316
767.794	0.0165237
767.872	0.0164017
767.950	0.0164778
768.029	0.0165868
768.107	0.0166057
768.185	0.0166072
768.263	0.0164498
768.341	0.0164954
768.419	0.0165140
768.497	0.0167025
768.575	0.0166062
768.654	0.0164973
768.732	0.0165913
768.810	0.0165585
768.888	0.0165983
768.966	0.0165266
769.044	0.0166073
769.122	0.0165907
769.200	0.0165858
769.279	0.0164519
769.357	0.0165370
769.435	0.0166019
769.513	0.0165894
769.591	0.0165547
769.669	0.0165901
769.747	0.0166734
769.825	0.0166954
769.904	0.0166810
769.982	0.0167287
770.060	0.0165231
770.138	0.0166146
770.216	0.0167063
770.294	0.0164697
770.372	0.0165271
770.450	0.0166156
770.529	0.0163461
770.607	0.0164571
770.685	0.0165200
770.763	0.0164369
770.841	0.0163601
770.919	0.0163992
770.997	0.0163293
771.075	0.0164595
771.154	0.0164682
771.232	0.0164457
771.310	0.0164211
771.388	0.0164372
771.466	0.0164756
771.544	0.0164513
771.622	0.0165469
771.700	0.0165318
771.779	0.0165733
771.857	0.0165898
771.935	0.0165958
772.013	0.0165459
772.091	0.0166070
772.169	0.0165998
772.247	0.0167325
772.325	0.0166570
772.404	0.0167234
772.482	0.0167068
772.560	0.0167582
772.638	0.0167899
772.716	0.0166708
772.794	0.0168685
772.872	0.0167667
772.950	0.0167390
773.029	0.0169814
773.107	0.0168131
773.185	0.0168770
773.263	0.0169144
773.341	0.0169307
773.419	0.0168230
773.497	0.0169022
773.575	0.0168069
773.654	0.0168630
773.732	0.0169166
773.810	0.0167277
773.888	0.0168388
773.966	0.0170022
774.044	0.0166240
774.122	0.0166872
774.200	0.0168819
774.279	0.0166479
774.357	0.0166614
774.435	0.0167583
774.513	0.0167141
774.591	0.0165939
774.669	0.0165529
774.747	0.0165891
774.825	0.0165604
774.904	0.0165649
774.982	0.0166628
775.060	0.0165610
775.138	0.0165475
775.216	0.0165257
775.294	0.0164529
775.372	0.0162998
775.450	0.0164114
775.529	0.0164883
775.607	0.0161913
775.685	0.0161371
775.763	0.0163992
775.841	0.0161921
775.919	0.0161779
775.997	0.0160826
776.075	0.0161684
776.154	0.0162611
776.232	0.0161559
776.310	0.0163045
776.388	0.0161299
776.466	0.0161275
776.544	0.0162424
776.622	0.0162276
776.700	0.0162195
776.779	0.0162448
776.857	0.0163229
776.935	0.0163171
777.013	0.0163993
777.091	0.0163850
777.169	0.0164795
777.247	0.0163908
777.325	0.0164761
777.404	0.0163945
777.482	0.0166058
777.560	0.0165447
777.638	0.0165347
777.716	0.0165023
777.794	0.0165237
777.872	0.0165220
777.950	0.0165327
778.029	0.0166079
778.107	0.0165624
778.185	0.0166378
778.263	0.0165023
778.341	0.0164829
778.419	0.0166113
778.497	0.0165990
778.575	0.0165481
778.654	0.0164838
778.732	0.0164503
778.810	0.0165002
778.888	0.0164407
778.966	0.0165110
779.044	0.0165394
779.122	0.0165490
779.200	0.0165814
779.279	0.0165249
779.357	0.0164371
779.435	0.0164223
779.513	0.0165487
779.591	0.0164568
779.669	0.0165575
779.747	0.0165285
779.825	0.0165687
779.904	0.0166016
779.982	0.0167619
780.060	0.0166192
780.138	0.0167764
780.216	0.0168761
780.294	0.0165974
780.372	0.0166891
780.450	0.0166545
780.529	0.0168961
780.607	0.0169305
780.685	0.0168537
780.763	0.0168049
780.841	0.0168135
780.919	0.0167661
780.997	0.0168107
781.075	0.0167115
781.154	0.0166075
781.232	0.0167767
781.310	0.0165656
781.388	0.0165752
781.466	0.0165489
781.544	0.0165990
781.622	0.0165525
781.700	0.0164118
781.779	0.0165228
781.857	0.0163937
781.935	0.0164081
782.013	0.0163587
782.091	0.0165192
782.169	0.0162355
782.247	0.0164211
782.325	0.0164048
782.404	0.0163389
782.482	0.0164137
782.560	0.0163924
782.638	0.0164967
782.716	0.0163730
782.794	0.0164380
782.872	0.0165316
782.950	0.0164346
783.029	0.0164628
783.107	0.0164777
783.185	0.0165518
783.263	0.0163800
783.341	0.0163982
783.419	0.0165835
783.497	0.0165265
783.575	0.0163795
783.654	0.0166268
783.732	0.0166276
783.810	0.0165346
783.888	0.0163898
783.966	0.0166241
784.044	0.0167265
784.122	0.0165915
784.200	0.0165239
784.279	0.0164229
784.357	0.0164923
784.435	0.0165221
784.513	0.0165258
784.591	0.0165158
784.669	0.0165173
784.747	0.0163905
784.825	0.0164024
784.904	0.0164776
784.982	0.0162822
785.060	0.0164039
785.138	0.0163660
785.216	0.0164094
785.294	0.0163867
785.372	0.0163311
785.450	0.0162611
785.529	0.0163028
785.607	0.0162692
785.685	0.0165266
785.763	0.0163507
785.841	0.0162092
785.919	0.0162078
785.997	0.0162914
786.075	0.0164557
786.154	0.0163143
786.232	0.0163997
786.310	0.0162881
786.388	0.0163683
786.466	0.0164111
786.544	0.0162902
786.622	0.0163607
786.700	0.0162596
786.779	0.0163845
786.857	0.0162754
786.935	0.0163018
787.013	0.0164464
787.091	0.0162492
787.169	0.0164123
787.247	0.0164445
787.325	0.0163797
787.404	0.0163491
787.482	0.0164242
787.560	0.0164871
787.638	0.0163995
787.716	0.0165009
787.794	0.0165027
787.872	0.0165269
787.950	0.0164863
788.029	0.0166075
788.107	0.0166077
788.185	0.0166061
788.263	0.0164981
788.341	0.0165160
788.419	0.0166258
788.497	0.0164783
788.575	0.0165761
788.654	0.0164832
788.732	0.0165493
788.810	0.0165372
788.888	0.0164467
788.966	0.0164909
789.044	0.0165086
789.122	0.0165920
789.200	0.0165802
789.279	0.0163219
789.357	0.0162787
789.435	0.0163244
789.513	0.0165804
789.591	0.0164820
789.669	0.0164311
789.747	0.0163241
789.825	0.0164091
789.904	0.0164224
789.982	0.0164810
790.060	0.0165944
790.138	0.0164814
790.216	0.0164179
790.294	0.0164266
790.372	0.0165206
790.450	0.0164915
790.529	0.0165220
790.607	0.0163831
790.685	0.0162720
790.763	0.0165026
790.841	0.0165049
790.919	0.0164951
790.997	0.0165467
791.075	0.0163320
791.154	0.0164520
791.232	0.0164675
791.310	0.0164739
791.388	0.0164591
791.466	0.0165090
791.544	0.0165610
791.622	0.0165699
791.700	0.0163776
791.779	0.0163601
791.857	0.0165572
791.935	0.0165322
792.013	0.0163906
792.091	0.0164507
792.169	0.0165974
792.247	0.0163557
792.325	0.0165663
792.404	0.0166516
792.482	0.0166731
792.560	0.0165379
792.638	0.0165371
792.716	0.0166203
792.794	0.0164590
792.872	0.0167126
792.950	0.0165370
793.029	0.0166019
793.107	0.0166059
793.185	0.0165847
793.263	0.0166202
793.341	0.0167100
793.419	0.0166290
793.497	0.0166947
793.575	0.0165964
793.654	0.0167233
793.732	0.0167818
793.810	0.0167302
793.888	0.0168488
793.966	0.0168246
794.044	0.0168205
794.122	0.0167609
794.200	0.0166913
794.279	0.0167551
794.357	0.0168587
794.435	0.0167667
794.513	0.0167733
794.591	0.0169004
794.669	0.0167638
794.747	0.0168768
794.825	0.0167088
794.904	0.0167721
794.982	0.0167650
795.060	0.0168949
795.138	0.0167666
795.216	0.0167101
795.294	0.0166972
795.372	0.0168040
795.450	0.0166594
795.529	0.0167227
795.607	0.0167676
795.685	0.0167078
795.763	0.0165630
795.841	0.0166102
795.919	0.0166000
795.997	0.0165982
796.075	0.0165828
796.154	0.0166364
796.232	0.0166664
796.310	0.0165028
796.388	0.0165836
796.466	0.0164552
796.544	0.0164800
796.622	0.0165170
796.700	0.0165254
796.779	0.0165983
796.857	0.0166787
796.935	0.0165042
797.013	0.0166836
797.091	0.0165173
797.169	0.0165092
797.247	0.0166796
797.325	0.0165675
797.404	0.0165339
797.482	0.0164436
797.560	0.0165357
797.638	0.0164619
797.716	0.0165837
797.794	0.0166337
797.872	0.0164701
797.950	0.0165164
798.029	0.0165587
798.107	0.0167208
798.185	0.0166084
798.263	0.0164288
798.341	0.0165665
798.419	0.0166050
798.497	0.0166680
798.575	0.0165779
798.654	0.0165683
798.732	0.0166138
798.810	0.0165334
798.888	0.0167123
798.966	0.0165956
799.044	0.0166074
799.122	0.0166339
799.200	0.0165813
799.279	0.0165372
799.357	0.0164980
799.435	0.0165630
799.513	0.0165607
799.591	0.0165655
799.669	0.0165580
799.747	0.0166675
799.825	0.0166091
799.904	0.0165312
799.982	0.0165443
800.060	0.0164169
800.138	0.0166722
800.216	0.0165904
800.294	0.0164427
800.372	0.0164213
800.450	0.0165712
800.529	0.0165280
800.607	0.0164799
800.685	0.0164711
800.763	0.0166127
800.841	0.0164678
800.919	0.0164568
800.997	0.0166139
801.075	0.0165433
801.154	0.0166222
801.232	0.0163998
801.310	0.0165569
801.388	0.0164664
801.466	0.0164059
801.544	0.0165465
801.622	0.0165729
801.700	0.0164596
801.779	0.0165033
801.857	0.0163721
801.935	0.0165544
802.013	0.0165471
802.091	0.0165429
802.169	0.0166129
802.247	0.0166185
802.325	0.0165978
802.404	0.0166389
802.482	0.0167094
802.560	0.0166743
802.638	0.0166281
802.716	0.0165968
802.794	0.0165536
802.872	0.0166593
802.950	0.0166373
803.029	0.0167728
803.107	0.0165749
803.185	0.0165817
803.263	0.0167918
803.341	0.0167982
803.419	0.0166441
803.497	0.0165901
803.575	0.0164862
803.654	0.0166108
803.732	0.0166291
803.810	0.0166164
803.888	0.0166069
803.966	0.0165621
804.044	0.0165681
804.122	0.0165201
804.200	0.0166715
804.279	0.0164735
804.357	0.0163917
804.435	0.0164706
804.513	0.0166069
804.591	0.0164539
804.669	0.0166000
804.747	0.0164905
804.825	0.0164107
804.904	0.0164521
804.982	0.0166247
805.060	0.0165971
805.138	0.0165459
805.216	0.0165782
805.294	0.0164603
805.372	0.0165701
805.450	0.0165840
805.529	0.0165528
805.607	0.0165497
805.685	0.0165184
805.763	0.0165462
805.841	0.0164478
805.919	0.0165093
805.997	0.0164408
806.075	0.0166602
806.154	0.0164134
806.232	0.0163950
806.310	0.0164432
806.388	0.0163396
806.466	0.0162345
806.544	0.0162888
806.622	0.0163647
806.700	0.0164018
806.779	0.0164026
806.857	0.0164603
806.935	0.0162802
807.013	0.0161629
807.091	0.0163415
807.169	0.0162464
807.247	0.0165523
807.325	0.0163766
807.404	0.0163359
807.482	0.0163801
807.560	0.0163855
807.638	0.0164355
807.716	0.0163509
807.794	0.0164150
807.872	0.0164567
807.950	0.0164232
808.029	0.0164899
808.107	0.0164654
808.185	0.0163865
808.263	0.0163944
808.341	0.0164376
808.419	0.0165848
808.497	0.0163417
808.575	0.0165063
808.654	0.0164011
808.732	0.0165058
808.810	0.0164102
808.888	0.0165425
808.966	0.0165041
809.044	0.0164506
809.122	0.0164231
809.200	0.0165792
809.279	0.0164964
809.357	0.0164480
809.435	0.0164540
809.513	0.0164336
809.591	0.0163260
809.669	0.0165101
809.747	0.0166974
809.825	0.0164569
809.904	0.0165672
809.982	0.0166074
810.060	0.0165561
810.138	0.0166759
810.216	0.0166241
810.294	0.0165141
810.372	0.0167011
810.450	0.0165896
810.529	0.0165791
810.607	0.0166661
810.685	0.0166653
810.763	0.0167028
810.841	0.0167622
810.919	0.0168116
810.997	0.0167361
811.075	0.0167942
811.154	0.0166996
811.232	0.0167658
811.310	0.0166760
811.388	0.0167677
811.466	0.0166388
811.544	0.0167043
811.622	0.0166277
811.700	0.0165205
811.779	0.0165222
811.857	0.0165335
811.935	0.0166486
812.013	0.0164738
812.091	0.0166489
812.169	0.0166049
812.247	0.0165469
812.325	0.0165224
812.404	0.0166174
812.482	0.0165943
812.560	0.0166113
812.638	0.0165109
812.716	0.0164302
812.794	0.0165181
812.872	0.0166226
812.950	0.0165096
813.029	0.0165578
813.107	0.0166286
813.185	0.0166928
813.263	0.0165012
813.341	0.0165623
813.419	0.0165619
813.497	0.0164220
813.575	0.0164354
813.654	0.0163919
813.732	0.0165212
813.810	0.0165593
813.888	0.0165070
813.966	0.0164017
814.044	0.0165681
814.122	0.0164423
814.200	0.0164833
814.279	0.0165673
814.357	0.0165484
814.435	0.0165768
814.513	0.0164759
814.591	0.0166009
814.669	0.0166325
814.747	0.0166713
814.825	0.0166216
814.904	0.0165459
814.982	0.0166026
815.060	0.0165783
815.138	0.0167039
815.216	0.0166599
815.294	0.0167890
815.372	0.0167102
815.450	0.0167430
815.529	0.0167207
815.607	0.0167313
815.685	0.0169195
815.763	0.0167419
815.841	0.0166962
815.919	0.0167700
815.997	0.0167139
816.075	0.0167160
816.154	0.0166718
816.232	0.0166935
816.310	0.0167609
816.388	0.0167785
816.466	0.0168085
816.544	0.0166923
816.622	0.0166357
816.700	0.0166576
816.779	0.0168346
816.857	0.0166218
816.935	0.0165575
817.013	0.0167405
817.091	0.0166662
817.169	0.0166757
817.247	0.0165977
817.325	0.0165575
817.404	0.0164841
817.482	0.0167313
817.560	0.0167552
817.638	0.0165226
817.716	0.0166084
817.794	0.0166656
817.872	0.0165940
817.950	0.0167808
818.029	0.0167390
818.107	0.0166431
818.185	0.0166693
818.263	0.0166946
818.341	0.0166969
818.419	0.0167596
818.497	0.0166238
818.575	0.0167033
818.654	0.0167670
818.732	0.0165069
818.810	0.0165587
818.888	0.0166095
818.966	0.0167107
819.044	0.0165205
819.122	0.0167057
819.200	0.0167751
819.279	0.0166974
819.357	0.0165405
819.435	0.0165928
819.513	0.0165292
819.591	0.0164700
819.669	0.0166507
819.747	0.0166726
819.825	0.0164833
819.904	0.0164407
819.982	0.0165773
820.060	0.0163994
820.138	0.0164517
820.216	0.0164301
820.294	0.0165099
820.372	0.0164137
820.450	0.0163734
820.529	0.0164425
820.607	0.0164180
820.685	0.0163246
820.763	0.0163255
820.841	0.0162770
820.919	0.0163818
820.997	0.0163872
821.075	0.0163087
821.154	0.0162503
821.232	0.0163644
821.310	0.0164391
821.388	0.0163402
821.466	0.0163040
821.544	0.0163217
821.622	0.0162643
821.700	0.0163484
821.779	0.0163683
821.857	0.0165025
821.935	0.0164162
822.013	0.0164606
822.091	0.0164530
822.169	0.0164093
822.247	0.0164221
822.325	0.0166343
822.404	0.0166840
822.482	0.0166787
822.560	0.0167387
822.638	0.0166260
822.716	0.0167068
822.794	0.0166145
822.872	0.0166000
822.950	0.0166844
823.029	0.0166835
823.107	0.0166724
823.185	0.0167203
823.263	0.0167979
823.341	0.0167340
823.419	0.0165677
823.497	0.0167709
823.575	0.0168111
823.654	0.0167968
823.732	0.0168188
823.810	0.0167751
823.888	0.0167236
823.966	0.0166968
824.044	0.0166661
824.122	0.0166821
824.200	0.0166878
824.279	0.0166886
824.357	0.0166470
824.435	0.0165166
824.513	0.0166672
824.591	0.0164471
824.669	0.0165927
824.747	0.0165788
824.825	0.0164969
824.904	0.0165327
824.982	0.0163271
825.060	0.0163311
825.138	0.0164359
825.216	0.0164012
825.294	0.0163592
825.372	0.0164474
825.450	0.0163855
825.529	0.0164306
825.607	0.0164603
825.685	0.0163345
825.763	0.0163931
825.841	0.0164354
825.919	0.0164817
825.997	0.0165024
826.075	0.0166175
826.154	0.0165197
826.232	0.0164941
826.310	0.0165774
826.388	0.0164700
826.466	0.0165039
826.544	0.0166918
826.622	0.0166286
826.700	0.0165443
826.779	0.0165749
826.857	0.0165424
826.935	0.0167774
827.013	0.0167295
827.091	0.0165810
827.169	0.0166649
827.247	0.0166020
827.325	0.0168517
827.404	0.0166326
827.482	0.0167063
827.560	0.0167606
827.638	0.0165852
827.716	0.0165864
827.794	0.0165023
827.872	0.0165860
827.950	0.0166012
828.029	0.0166412
828.107	0.0164729
828.185	0.0165459
828.263	0.0165375
828.341	0.0164957
828.419	0.0165166
828.497	0.0164926
828.575	0.0165601
828.654	0.0165325
828.732	0.0165174
828.810	0.0166053
828.888	0.0164878
828.966	0.0166758
829.044	0.0166880
829.122	0.0166206
829.200	0.0166512
829.279	0.0165436
829.357	0.0165340
829.435	0.0165388
829.513	0.0166637
829.591	0.0165634
829.669	0.0166254
829.747	0.0166920
829.825	0.0165733
829.904	0.0164674
829.982	0.0166005
830.060	0.0167333
830.138	0.0167263
830.216	0.0166853
830.294	0.0167064
830.372	0.0166695
830.450	0.0165304
830.529	0.0165900
830.607	0.0167396
830.685	0.0166451
830.763	0.0164559
830.841	0.0165163
830.919	0.0166477
830.997	0.0166441
831.075	0.0166492
831.154	0.0165442
831.232	0.0166830
831.310	0.0167950
831.388	0.0166076
831.466	0.0166190
831.544	0.0166636
831.622	0.0166614
831.700	0.0166225
831.779	0.0166931
831.857	0.0166891
831.935	0.0166109
832.013	0.0166416
832.091	0.0165868
832.169	0.0164763
832.247	0.0164334
832.325	0.0166859
832.404	0.0165890
832.482	0.0164872
832.560	0.0165136
832.638	0.0165636
832.716	0.0166246
832.794	0.0166650
832.872	0.0167012
832.950	0.0165855
833.029	0.0167314
833.107	0.0165843
833.185	0.0165552
833.263	0.0165164
833.341	0.0163879
833.419	0.0165037
833.497	0.0166747
833.575	0.0165208
833.654	0.0165628
833.732	0.0164889
833.810	0.0165477
833.888	0.0165070
833.966	0.0165300
834.044	0.0166306
834.122	0.0165231
834.200	0.0165356
834.279	0.0166797
834.357	0.0165515
834.435	0.0165936
834.513	0.0166430
834.591	0.0166324
834.669	0.0165999
834.747	0.0165826
834.825	0.0166039
834.904	0.0165101
834.982	0.0166213
835.060	0.0165840
835.138	0.0164771
835.216	0.0166635
835.294	0.0165770
835.372	0.0164079
835.450	0.0165454
835.529	0.0164719
835.607	0.0165236
835.685	0.0165077
835.763	0.0165325
835.841	0.0165020
835.919	0.0165193
835.997	0.0164465
836.075	0.0164585
836.154	0.0166263
836.232	0.0165448
836.310	0.0166270
836.388	0.0165177
836.466	0.0165482
836.544	0.0165136
836.622	0.0166359
836.700	0.0166067
836.779	0.0166335
836.857	0.0164420
836.935	0.0166046
837.013	0.0165493
837.091	0.0167065
837.169	0.0166895
837.247	0.0165764
837.325	0.0165904
837.404	0.0166121
837.482	0.0166929
837.560	0.0166963
837.638	0.0166816
837.716	0.0166785
837.794	0.0167146
837.872	0.0166944
837.950	0.0166666
838.029	0.0165369
838.107	0.0164770
838.185	0.0165790
838.263	0.0166170
838.341	0.0165449
838.419	0.0165378
838.497	0.0165469
838.575	0.0163511
838.654	0.0164404
838.732	0.0164379
838.810	0.0164680
838.888	0.0163879
838.966	0.0163544
839.044	0.0162933
839.122	0.0163348
839.200	0.0162764
839.279	0.0163445
839.357	0.0165669
839.435	0.0165677
839.513	0.0162986
839.591	0.0164123
839.669	0.0163382
839.747	0.0163634
839.825	0.0164397
839.904	0.0163403
839.982	0.0163778
840.060	0.0164680
840.138	0.0164996
840.216	0.0165173
840.294	0.0164368
840.372	0.0164507
840.450	0.0165538
840.529	0.0166456
840.607	0.0165247
840.685	0.0165518
840.763	0.0164919
840.841	0.0165472
840.919	0.0163491
840.997	0.0164813
841.075	0.0165466
841.154	0.0166074
841.232	0.0166402
841.310	0.0165588
841.388	0.0165184
841.466	0.0165540
841.544	0.0166389
841.622	0.0166817
841.700	0.0165758
841.779	0.0165657
841.857	0.0164557
841.935	0.0164181
842.013	0.0164246
842.091	0.0165737
842.169	0.0167116
842.247	0.0164969
842.325	0.0165865
842.404	0.0165096
842.482	0.0165294
842.560	0.0165286
842.638	0.0163950
842.716	0.0165849
842.794	0.0165842
842.872	0.0164429
842.950	0.0164942
843.029	0.0164731
843.107	0.0164860
843.185	0.0164278
843.263	0.0164327
843.341	0.0164800
843.419	0.0163761
843.497	0.0163836
843.575	0.0165074
843.654	0.0166089
843.732	0.0166241
843.810	0.0164964
843.888	0.0165288
843.966	0.0165983
844.044	0.0166228
844.122	0.0166286
844.200	0.0166845
844.279	0.0166167
844.357	0.0167364
844.435	0.0165714
844.513	0.0165906
844.591	0.0165870
844.669	0.0164804
844.747	0.0165799
844.825	0.0166963
844.904	0.0165755
844.982	0.0164869
845.060	0.0167227
845.138	0.0165865
845.216	0.0166678
845.294	0.0167581
845.372	0.0168393
845.450	0.0168567
845.529	0.0168364
845.607	0.0168163
845.685	0.0168208
845.763	0.0169568
845.841	0.0168480
845.919	0.0168700
845.997	0.0168610
846.075	0.0170080
846.154	0.0167562
846.232	0.0168247
846.310	0.0167629
846.388	0.0168237
846.466	0.0169104
846.544	0.0167049
846.622	0.0167253
846.700	0.0166641
846.779	0.0165146
846.857	0.0165525
846.935	0.0165547
847.013	0.0165630
847.091	0.0164853
847.169	0.0163486
847.247	0.0164867
847.325	0.0165981
847.404	0.0164226
847.482	0.0164883
847.560	0.0164548
847.638	0.0164349
847.716	0.0164412
847.794	0.0165439
847.872	0.0164206
847.950	0.0164851
848.029	0.0164131
848.107	0.0163891
848.185	0.0163564
848.263	0.0164703
848.341	0.0165069
848.419	0.0166193
848.497	0.0165736
848.575	0.0164826
848.654	0.0165685
848.732	0.0166508
848.810	0.0164657
848.888	0.0166414
848.966	0.0167211
849.044	0.0166939
849.122	0.0167918
849.200	0.0166402
849.279	0.0167269
849.357	0.0167764
849.435	0.0166202
849.513	0.0167618
849.591	0.0167507
849.669	0.0166512
849.747	0.0168237
849.825	0.0167294
849.904	0.0166174
849.982	0.0165282
850.060	0.0166183
850.138	0.0166522
850.216	0.0167461
850.294	0.0166156
850.372	0.0165204
850.450	0.0166318
850.529	0.0165691
850.607	0.0164981
850.685	0.0163830
850.763	0.0165073
850.841	0.0164777
850.919	0.0165388
850.997	0.0165301
851.075	0.0165199
851.154	0.0166236
851.232	0.0166770
851.310	0.0165260
851.388	0.0165844
851.466	0.0165356
851.544	0.0166490
851.622	0.0165831
851.700	0.0167168
851.779	0.0168041
851.857	0.0166176
851.935	0.0166716
852.013	0.0166377
852.091	0.0166296
852.169	0.0166248
852.247	0.0166047
852.325	0.0166325
852.404	0.0167134
852.482	0.0166142
852.560	0.0167315
852.638	0.0166148
852.716	0.0166954
852.794	0.0167319
852.872	0.0167175
852.950	0.0167108
853.029	0.0169072
853.107	0.0167919
853.185	0.0166647
853.263	0.0168086
853.341	0.0167866
853.419	0.0167039
853.497	0.0167879
853.575	0.0168031
853.654	0.0167457
853.732	0.0168073
853.810	0.0168269
853.888	0.0166557
853.966	0.0167220
854.044	0.0167770
854.122	0.0167949
854.200	0.0165950
854.279	0.0165332
854.357	0.0166132
854.435	0.0166148
854.513	0.0164998
854.591	0.0164863
854.669	0.0165920
854.747	0.0166617
854.825	0.0165333
854.904	0.0164658
854.982	0.0165885
855.060	0.0164660
855.138	0.0162411
855.216	0.0164873
855.294	0.0165356
855.372	0.0165540
855.450	0.0163235
855.529	0.0164146
855.607	0.0163603
855.685	0.0163506
855.763	0.0164201
855.841	0.0163559
855.919	0.0163781
855.997	0.0164519
856.075	0.0164617
856.154	0.0163593
856.232	0.0165128
856.310	0.0165936
856.388	0.0164474
856.466	0.0164928
856.544	0.0164622
856.622	0.0164742
856.700	0.0165179
856.779	0.0164952
856.857	0.0165861
856.935	0.0164496
857.013	0.0165548
857.091	0.0164780
857.169	0.0165924
857.247	0.0165081
857.325	0.0165769
857.404	0.0167102
857.482	0.0165633
857.560	0.0165173
857.638	0.0166497
857.716	0.0165438
857.794	0.0166068
857.872	0.0167537
857.950	0.0164930
858.029	0.0165514
858.107	0.0166647
858.185	0.0166358
858.263	0.0164821
858.341	0.0165800
858.419	0.0166735
858.497	0.0165984
858.575	0.0166711
858.654	0.0166831
858.732	0.0167564
858.810	0.0168594
858.888	0.0168029
858.966	0.0168734
859.044	0.0167843
859.122	0.0168473
859.200	0.0166969
859.279	0.0168147
859.357	0.0166581
859.435	0.0168294
859.513	0.0166936
859.591	0.0168945
859.669	0.0167113
859.747	0.0165570
859.825	0.0165031
859.904	0.0165224
859.982	0.0164025
860.060	0.0165909
860.138	0.0165701
860.216	0.0165282
860.294	0.0163947
860.372	0.0165354
860.450	0.0165022
860.529	0.0163743
860.607	0.0163435
860.685	0.0164857
860.763	0.0162363
860.841	0.0163006
860.919	0.0164120
860.997	0.0164426
861.075	0.0164160
861.154	0.0164880
861.232	0.0165239
861.310	0.0165079
861.388	0.0163889
861.466	0.0165808
861.544	0.0165273
861.622	0.0166066
861.700	0.0165332
861.779	0.0165736
861.857	0.0167097
861.935	0.0165821
862.013	0.0165622
862.091	0.0167238
862.169	0.0166466
862.247	0.0167345
862.325	0.0166689
862.404	0.0165369
862.482	0.0165582
862.560	0.0165653
862.638	0.0166262
862.716	0.0165063
862.794	0.0165053
862.872	0.0162985
862.950	0.0163580
863.029	0.0165223
863.107	0.0164700
863.185	0.0165298
863.263	0.0165647
863.341	0.0165342
863.419	0.0165530
863.497	0.0164594
863.575	0.0165884
863.654	0.0165640
863.732	0.0165695
863.810	0.0164606
863.888	0.0165960
863.966	0.0165692
864.044	0.0166380
864.122	0.0165362
864.200	0.0166422
864.279	0.0165083
864.357	0.0166135
864.435	0.0165604
864.513	0.0166270
864.591	0.0166024
864.669	0.0166660
864.747	0.0165613
864.825	0.0165372
864.904	0.0165672
864.982	0.0165941
865.060	0.0164109
865.138	0.0164832
865.216	0.0165601
865.294	0.0164433
865.372	0.0164178
865.450	0.0163728
865.529	0.0162908
865.607	0.0163980
865.685	0.0164472
865.763	0.0164709
865.841	0.0163512
865.919	0.0164862
865.997	0.0163776
866.075	0.0163412
866.154	0.0162817
866.232	0.0163578
866.310	0.0163699
866.388	0.0165266
866.466	0.0164602
866.544	0.0164121
866.622	0.0163961
866.700	0.0164287
866.779	0.0164404
866.857	0.0163781
866.935	0.0164989
867.013	0.0164851
867.091	0.0164873
867.169	0.0165641
867.247	0.0165045
867.325	0.0165706
867.404	0.0166148
867.482	0.0165590
867.560	0.0165961
867.638	0.0167581
867.716	0.0167579
867.794	0.0167444
867.872	0.0166315
867.950	0.0166217
868.029	0.0165611
868.107	0.0166550
868.185	0.0164921
868.263	0.0164520
868.341	0.0164540
868.419	0.0165643
868.497	0.0164259
868.575	0.0164437
868.654	0.0164283
868.732	0.0164298
868.810	0.0163136
868.888	0.0163761
868.966	0.0162597
869.044	0.0164075
869.122	0.0164378
869.200	0.0164574
869.279	0.0163194
869.357	0.0163670
869.435	0.0163876
869.513	0.0162977
869.591	0.0164664
869.669	0.0163585
869.747	0.0164690
869.825	0.0164772
869.904	0.0164655
869.982	0.0165117
870.060	0.0165249
870.138	0.0165502
870.216	0.0165968
870.294	0.0167934
870.372	0.0164468
870.450	0.0164333
870.529	0.0166238
870.607	0.0166205
870.685	0.0164436
870.763	0.0166111
870.841	0.0165851
870.919	0.0166653
870.997	0.0165462
871.075	0.0165224
871.154	0.0166487
871.232	0.0166422
871.310	0.0167027
871.388	0.0166068
871.466	0.0168681
871.544	0.0166602
871.622	0.0167785
871.700	0.0168862
871.779	0.0168375
871.857	0.0168079
871.935	0.0169321
872.013	0.0169418
872.091	0.0168959
872.169	0.0168650
872.247	0.0169733
872.325	0.0169155
872.404	0.0168867
872.482	0.0168256
872.560	0.0169267
872.638	0.0169530
872.716	0.0167368
872.794	0.0168006
872.872	0.0168286
872.950	0.0168199
873.029	0.0168161
873.107	0.0166695
873.185	0.0166506
873.263	0.0167140
873.341	0.0167327
873.419	0.0165800
873.497	0.0166165
873.575	0.0167141
873.654	0.0165614
873.732	0.0165292
873.810	0.0166046
873.888	0.0165661
873.966	0.0165206
874.044	0.0165881
874.122	0.0166708
874.200	0.0165572
874.279	0.0166412
874.357	0.0165805
874.435	0.0166376
874.513	0.0166282
874.591	0.0166193
874.669	0.0166738
874.747	0.0165936
874.825	0.0164022
874.904	0.0167968
874.982	0.0166926
875.060	0.0167778
875.138	0.0167193
875.216	0.0166217
875.294	0.0165560
875.372	0.0168416
875.450	0.0165894
875.529	0.0166142
875.607	0.0165308
875.685	0.0166817
875.763	0.0165253
875.841	0.0164617
875.919	0.0165899
875.997	0.0165501
876.075	0.0163981
876.154	0.0165477
876.232	0.0165430
876.310	0.0165538
876.388	0.0165659
876.466	0.0165784
876.544	0.0165735
876.622	0.0165211
876.700	0.0164979
876.779	0.0166036
876.857	0.0165028
876.935	0.0164294
877.013	0.0165539
877.091	0.0165590
877.169	0.0165709
877.247	0.0165005
877.325	0.0166060
877.404	0.0165694
877.482	0.0165933
877.560	0.0165032
877.638	0.0164597
877.716	0.0164677
877.794	0.0165054
877.872	0.0165863
877.950	0.0164906
878.029	0.0163858
878.107	0.0165022
878.185	0.0165553
878.263	0.0164522
878.341	0.0165635
878.419	0.0166396
878.497	0.0165269
878.575	0.0165070
878.654	0.0165131
878.732	0.0166882
878.810	0.0165085
878.888	0.0166010
878.966	0.0166149
879.044	0.0167046
879.122	0.0166732
879.200	0.0166715
879.279	0.0166521
879.357	0.0165770
879.435	0.0165914
879.513	0.0167204
879.591	0.0167561
879.669	0.0166330
879.747	0.0165495
879.825	0.0166884
879.904	0.0165376
879.982	0.0165950
880.060	0.0166608
880.138	0.0165584
880.216	0.0165932
880.294	0.0165403
880.372	0.0166376
880.450	0.0166373
880.529	0.0166166
880.607	0.0165275
880.685	0.0165047
880.763	0.0166329
880.841	0.0166773
880.919	0.0166343
880.997	0.0166652
881.075	0.0166864
881.154	0.0166148
881.232	0.0165841
881.310	0.0166004
881.388	0.0165746
881.466	0.0166816
881.544	0.0166308
881.622	0.0167400
881.700	0.0166293
881.779	0.0164629
881.857	0.0164652
881.935	0.0165921
882.013	0.0166623
882.091	0.0166382
882.169	0.0165846
882.247	0.0166515
882.325	0.0166034
882.404	0.0166595
882.482	0.0165411
882.560	0.0166664
882.638	0.0166103
882.716	0.0166323
882.794	0.0167410
882.872	0.0166354
882.950	0.0165402
883.029	0.0165149
883.107	0.0164298
883.185	0.0165675
883.263	0.0165150
883.341	0.0165412
883.419	0.0165113
883.497	0.0164890
883.575	0.0164094
883.654	0.0164202
883.732	0.0164183
883.810	0.0163605
883.888	0.0163341
883.966	0.0162865
884.044	0.0163435
884.122	0.0164444
884.200	0.0162944
884.279	0.0162907
884.357	0.0164188
884.435	0.0164540
884.513	0.0164494
884.591	0.0163924
884.669	0.0164578
884.747	0.0164217
884.825	0.0164120
884.904	0.0164462
884.982	0.0164317
885.060	0.0165542
885.138	0.0165524
885.216	0.0164924
885.294	0.0166035
885.372	0.0165212
885.450	0.0166304
885.529	0.0165788
885.607	0.0166593
885.685	0.0164981
885.763	0.0165529
885.841	0.0165760
885.919	0.0166775
885.997	0.0164841
886.075	0.0166312
886.154	0.0165053
886.232	0.0164286
886.310	0.0165602
886.388	0.0164993
886.466	0.0166431
886.544	0.0165608
886.622	0.0164686
886.700	0.0164556
886.779	0.0165974
886.857	0.0164230
886.935	0.0164094
887.013	0.0165057
887.091	0.0165388
887.169	0.0163915
887.247	0.0166798
887.325	0.0166501
887.404	0.0165887
887.482	0.0165749
887.560	0.0165179
887.638	0.0165343
887.716	0.0165405
887.794	0.0164185
887.872	0.0164453
887.950	0.0166087
888.029	0.0165572
888.107	0.0165470
888.185	0.0164863
888.263	0.0165269
888.341	0.0164382
888.419	0.0165422
888.497	0.0165155
888.575	0.0164970
888.654	0.0163638
888.732	0.0164465
888.810	0.0165563
888.888	0.0164706
888.966	0.0162654
889.044	0.0163397
889.122	0.0165018
889.200	0.0162405
889.279	0.0165027
889.357	0.0165435
889.435	0.0164525
889.513	0.0165076
889.591	0.0164910
889.669	0.0164574
889.747	0.0164072
889.825	0.0165070
889.904	0.0164365
889.982	0.0164973
890.060	0.0165660
890.138	0.0165104
890.216	0.0164755
890.294	0.0166160
890.372	0.0165593
890.450	0.0166027
890.529	0.0165124
890.607	0.0165859
890.685	0.0165028
890.763	0.0165010
890.841	0.0164697
890.919	0.0164491
890.997	0.0164109
891.075	0.0163087
891.154	0.0165186
891.232	0.0163565
891.310	0.0164854
891.388	0.0163613
891.466	0.0163484
891.544	0.0162428
891.622	0.0163191
891.700	0.0162650
891.779	0.0162926
891.857	0.0162820
891.935	0.0163049
892.013	0.0163038
892.091	0.0163629
892.169	0.0162876
892.247	0.0161774
892.325	0.0162847
892.404	0.0164462
892.482	0.0164201
892.560	0.0164039
892.638	0.0163155
892.716	0.0165210
892.794	0.0165999
892.872	0.0163603
892.950	0.0164091
893.029	0.0164745
893.107	0.0165452
893.185	0.0166018
893.263	0.0166315
893.341	0.0167007
893.419	0.0166353
893.497	0.0166640
893.575	0.0166591
893.654	0.0166486
893.732	0.0166914
893.810	0.0166768
893.888	0.0167582
893.966	0.0166785
894.044	0.0166689
894.122	0.0166224
894.200	0.0166376
894.279	0.0167026
894.357	0.0165663
894.435	0.0167217
894.513	0.0165772
894.591	0.0166412
894.669	0.0166806
894.747	0.0167063
894.825	0.0166190
894.904	0.0166784
894.982	0.0166000
895.060	0.0166941
895.138	0.0167128
895.216	0.0166073
895.294	0.0166100
895.372	0.0165153
895.450	0.0165501
895.529	0.0167007
895.607	0.0166074
895.685	0.0165968
895.763	0.0166228
895.841	0.0165638
895.919	0.0166621
895.997	0.0165487
896.075	0.0166138
896.154	0.0166317
896.232	0.0165320
896.310	0.0166071
896.388	0.0166148
896.466	0.0167533
896.544	0.0166287
896.622	0.0166603
896.700	0.0166415
896.779	0.0166946
896.857	0.0165752
896.935	0.0166029
897.013	0.0167040
897.091	0.0165694
897.169	0.0165644
897.247	0.0166389
897.325	0.0166111
897.404	0.0165604
897.482	0.0166195
897.560	0.0165470
897.638	0.0164325
897.716	0.0165010
897.794	0.0166119
897.872	0.0165383
897.950	0.0164695
898.029	0.0164684
898.107	0.0165376
898.185	0.0164640
898.263	0.0164176
898.341	0.0164104
898.419	0.0165120
898.497	0.0165516
898.575	0.0164198
898.654	0.0165213
898.732	0.0164808
898.810	0.0164111
898.888	0.0163354
898.966	0.0165622
899.044	0.0164350
899.122	0.0163940
899.200	0.0163932
899.279	0.0165331
899.357	0.0164109
899.435	0.0165238
899.513	0.0162692
899.591	0.0163821
899.669	0.0164602
899.747	0.0164542
899.825	0.0165329
899.904	0.0164466
899.982	0.0164446
900.060	0.0164046
900.138	0.0164182
900.216	0.0165149
900.294	0.0163890
900.372	0.0163302
900.450	0.0165257
900.529	0.0165393
900.607	0.0165718
900.685	0.0165906
900.763	0.0166224
900.841	0.0166941
900.919	0.0167180
900.997	0.0165366
901.075	0.0166170
901.154	0.0167024
901.232	0.0166402
901.310	0.0165916
901.388	0.0167216
901.466	0.0167660
901.544	0.0166714
901.622	0.0167747
901.700	0.0167289
901.779	0.0168233
901.857	0.0165863
901.935	0.0165481
902.013	0.0166228
902.091	0.0166799
902.169	0.0167555
902.247	0.0166584
902.325	0.0165253
902.404	0.0166175
902.482	0.0165861
902.560	0.0165871
902.638	0.0165366
902.716	0.0166259
902.794	0.0165443
902.872	0.0165028
902.950	0.0165609
903.029	0.0164697
903.107	0.0164680
903.185	0.0165220
903.263	0.0166023
903.341	0.0164581
903.419	0.0163689
903.497	0.0164871
903.575	0.0164885
903.654	0.0165217
903.732	0.0164463
903.810	0.0164187
903.888	0.0164907
903.966	0.0164709
904.044	0.0164370
904.122	0.0162904
904.200	0.0165157
904.279	0.0164487
904.357	0.0164861
904.435	0.0164505
904.513	0.0164415
904.591	0.0164127
904.669	0.0165524
904.747	0.0165294
904.825	0.0165041
904.904	0.0164798
904.982	0.0165044
905.060	0.0164217
905.138	0.0164301
905.216	0.0165099
905.294	0.0163167
905.372	0.0165618
905.450	0.0165422
905.529	0.0165067
905.607	0.0163525
905.685	0.0164383
905.763	0.0165971
905.841	0.0165511
905.919	0.0163952
905.997	0.0164973
906.075	0.0166199
906.154	0.0164986
906.232	0.0166219
906.310	0.0165894
906.388	0.0167429
906.466	0.0164746
906.544	0.0166743
906.622	0.0166415
906.700	0.0166209
906.779	0.0166549
906.857	0.0165687
906.935	0.0165690
907.013	0.0165745
907.091	0.0167527
907.169	0.0165983
907.247	0.0166267
907.325	0.0166344
907.404	0.0166140
907.482	0.0165464
907.560	0.0166220
907.638	0.0164558
907.716	0.0165636
907.794	0.0165518
907.872	0.0164279
907.950	0.0165446
908.029	0.0164713
908.107	0.0163436
908.185	0.0164104
908.263	0.0166055
908.341	0.0165565
908.419	0.0165154
908.497	0.0164324
908.575	0.0163728
908.654	0.0164529
908.732	0.0165684
908.810	0.0164207
908.888	0.0165062
908.966	0.0165503
909.044	0.0165178
909.122	0.0165300
909.200	0.0165681
909.279	0.0166332
909.357	0.0165443
909.435	0.0165881
909.513	0.0163972
909.591	0.0163689
909.669	0.0166872
909.747	0.0165899
909.825	0.0165936
909.904	0.0165849
909.982	0.0165902
910.060	0.0166286
910.138	0.0166425
910.216	0.0164711
910.294	0.0164966
910.372	0.0166034
910.450	0.0165890
910.529	0.0165872
910.607	0.0166367
910.685	0.0165336
910.763	0.0164785
910.841	0.0165784
910.919	0.0166324
910.997	0.0165363
911.075	0.0165231
911.154	0.0166511
911.232	0.0166459
911.310	0.0167004
911.388	0.0167233
911.466	0.0167275
911.544	0.0167944
911.622	0.0169015
911.700	0.0166823
911.779	0.0167259
911.857	0.0167413
911.935	0.0167500
912.013	0.0167755
912.091	0.0168067
912.169	0.0168246
912.247	0.0167625
912.325	0.0167810
912.404	0.0168340
912.482	0.0168230
912.560	0.0167361
912.638	0.0167960
912.716	0.0167868
912.794	0.0167225
912.872	0.0166994
912.950	0.0166759
913.029	0.0165496
913.107	0.0164700
913.185	0.0165298
913.263	0.0166992
913.341	0.0166756
913.419	0.0164391
913.497	0.0165646
913.575	0.0166405
913.654	0.0165232
913.732	0.0164617
913.810	0.0164368
913.888	0.0164510
913.966	0.0165369
914.044	0.0165286
914.122	0.0164875
914.200	0.0166161
914.279	0.0164547
914.357	0.0164714
914.435	0.0164459
914.513	0.0165757
914.591	0.0165012
914.669	0.0165477
914.747	0.0165305
914.825	0.0164239
914.904	0.0165647
914.982	0.0165160
915.060	0.0165423
915.138	0.0165736
915.216	0.0165257
915.294	0.0166283
915.372	0.0166184
915.450	0.0165881
915.529	0.0167046
915.607	0.0166241
915.685	0.0166105
915.763	0.0165379
915.841	0.0165425
915.919	0.0166352
915.997	0.0165085
916.075	0.0166782
916.154	0.0166941
916.232	0.0166983
916.310	0.0165419
916.388	0.0166383
916.466	0.0166275
916.544	0.0166686
916.622	0.0166632
916.700	0.0167303
916.779	0.0166451
916.857	0.0165630
916.935	0.0166959
917.013	0.0167751
917.091	0.0165782
917.169	0.0165247
917.247	0.0164777
917.325	0.0164738
917.404	0.0166366
917.482	0.0165494
917.560	0.0163814
917.638	0.0164667
917.716	0.0163864
917.794	0.0164024
917.872	0.0163248
917.950	0.0162624
918.029	0.0164066
918.107	0.0163613
918.185	0.0162843
918.263	0.0163081
918.341	0.0162857
918.419	0.0164588
918.497	0.0163580
918.575	0.0162921
918.654	0.0161988
918.732	0.0162907
918.810	0.0162302
918.888	0.0162221
918.966	0.0162830
919.044	0.0162959
919.122	0.0164016
919.200	0.0164272
919.279	0.0164697
919.357	0.0163659
919.435	0.0164014
919.513	0.0164488
919.591	0.0165716
919.669	0.0164220
919.747	0.0165330
919.825	0.0166495
919.904	0.0165477
