05/24/2022	20:04:07	Ver.	4.1	UNKNOWN
Optical Delay	580.001249	Delta X		0.078125	Sweeps	1	Scan Rate	0/0
Coordinates	Axis 1	NaN	Axis 2	NaN	Axis 3	NaN	Axis 4	NaN	Axis 5	NaN	Axis 6	0.000000
TX Power	0.000000	RX Power	0.000000

580.001	0.0163667
580.079	0.0163734
580.157	0.0162841
580.236	0.0162791
580.314	0.0163456
580.392	0.0163977
580.470	0.0163823
580.548	0.0162688
580.626	0.0164262
580.704	0.0164493
580.782	0.0164302
580.861	0.0164141
580.939	0.0163634
581.017	0.0163483
581.095	0.0163468
581.173	0.0162340
581.251	0.0164127
581.329	0.0163644
581.407	0.0163026
581.486	0.0163365
581.564	0.0163994
581.642	0.0163873
581.720	0.0163824
581.798	0.0162426
581.876	0.0162868
581.954	0.0162179
582.032	0.0164005
582.111	0.0162764
582.189	0.0163353
582.267	0.0163743
582.345	0.0163731
582.423	0.0163757
582.501	0.0163789
582.579	0.0162287
582.657	0.0163623
582.736	0.0162482
582.814	0.0164857
582.892	0.0163145
582.970	0.0162292
583.048	0.0163644
583.126	0.0164335
583.204	0.0162656
583.282	0.0163956
583.361	0.0164063
583.439	0.0163591
583.517	0.0164204
583.595	0.0163419
583.673	0.0163319
583.751	0.0165020
583.829	0.0162914
583.907	0.0164040
583.986	0.0163921
584.064	0.0162682
584.142	0.0163191
584.220	0.0165493
584.298	0.0164655
584.376	0.0161690
584.454	0.0161330
584.532	0.0164440
584.611	0.0164500
584.689	0.0162880
584.767	0.0164066
584.845	0.0164351
584.923	0.0164655
585.001	0.0163656
585.079	0.0162763
585.157	0.0164846
585.236	0.0163552
585.314	0.0164525
585.392	0.0165629
585.470	0.0163962
585.548	0.0163118
585.626	0.0163322
585.704	0.0162226
585.782	0.0163593
585.861	0.0163795
585.939	0.0162859
586.017	0.0165156
586.095	0.0163562
586.173	0.0164114
586.251	0.0163293
586.329	0.0162988
586.407	0.0161436
586.486	0.0163225
586.564	0.0163890
586.642	0.0163719
586.720	0.0163132
586.798	0.0163406
586.876	0.0163486
586.954	0.0162753
587.032	0.0163118
587.111	0.0162440
587.189	0.0162501
587.267	0.0162347
587.345	0.0162986
587.423	0.0162267
587.501	0.0162723
587.579	0.0163074
587.657	0.0165432
587.736	0.0163148
587.814	0.0163402
587.892	0.0164352
587.970	0.0162798
588.048	0.0162856
588.126	0.0164454
588.204	0.0164203
588.282	0.0162602
588.361	0.0164740
588.439	0.0163562
588.517	0.0163908
588.595	0.0162467
588.673	0.0163557
588.751	0.0164783
588.829	0.0164939
588.907	0.0163447
588.986	0.0164342
589.064	0.0162607
589.142	0.0162872
589.220	0.0162914
589.298	0.0162940
589.376	0.0163752
589.454	0.0163881
589.532	0.0164047
589.611	0.0164007
589.689	0.0163277
589.767	0.0164250
589.845	0.0164651
589.923	0.0163757
590.001	0.0163860
590.079	0.0162391
590.157	0.0161937
590.236	0.0163240
590.314	0.0164901
590.392	0.0164034
590.470	0.0162966
590.548	0.0163219
590.626	0.0163754
590.704	0.0165693
590.782	0.0164094
590.861	0.0161919
590.939	0.0164009
591.017	0.0163324
591.095	0.0164626
591.173	0.0163258
591.251	0.0164525
591.329	0.0163973
591.407	0.0163760
591.486	0.0162995
591.564	0.0163384
591.642	0.0163354
591.720	0.0162099
591.798	0.0163278
591.876	0.0164619
591.954	0.0164679
592.032	0.0164330
592.111	0.0164883
592.189	0.0164125
592.267	0.0163502
592.345	0.0162136
592.423	0.0162965
592.501	0.0164672
592.579	0.0163900
592.657	0.0163314
592.736	0.0164778
592.814	0.0162229
592.892	0.0163052
592.970	0.0163935
593.048	0.0164241
593.126	0.0161831
593.204	0.0162521
593.282	0.0164907
593.361	0.0163878
593.439	0.0164724
593.517	0.0161884
593.595	0.0162658
593.673	0.0163905
593.751	0.0165090
593.829	0.0164851
593.907	0.0162688
593.986	0.0163103
594.064	0.0163557
594.142	0.0164412
594.220	0.0164027
594.298	0.0164893
594.376	0.0163570
594.454	0.0162722
594.532	0.0163380
594.611	0.0163532
594.689	0.0163982
594.767	0.0164079
594.845	0.0163969
594.923	0.0163785
595.001	0.0164715
595.079	0.0164467
595.157	0.0164074
595.236	0.0164809
595.314	0.0163970
595.392	0.0163976
595.470	0.0163705
595.548	0.0164294
595.626	0.0163171
595.704	0.0163576
595.782	0.0164577
595.861	0.0164031
595.939	0.0163881
596.017	0.0163427
596.095	0.0162122
596.173	0.0163396
596.251	0.0163659
596.329	0.0164586
596.407	0.0162933
596.486	0.0164261
596.564	0.0164073
596.642	0.0164951
596.720	0.0163971
596.798	0.0163251
596.876	0.0164622
596.954	0.0162774
597.032	0.0163271
597.111	0.0162923
597.189	0.0163329
597.267	0.0163081
597.345	0.0164986
597.423	0.0164578
597.501	0.0164333
597.579	0.0164246
597.657	0.0164030
597.736	0.0164303
597.814	0.0162916
597.892	0.0162539
597.970	0.0163698
598.048	0.0163386
598.126	0.0164569
598.204	0.0163599
598.282	0.0162899
598.361	0.0164055
598.439	0.0163148
598.517	0.0163389
598.595	0.0164069
598.673	0.0162273
598.751	0.0163390
598.829	0.0164146
598.907	0.0163494
598.986	0.0163053
599.064	0.0163020
599.142	0.0162731
599.220	0.0162656
599.298	0.0162794
599.376	0.0163436
599.454	0.0163256
599.532	0.0163212
599.611	0.0163491
599.689	0.0163288
599.767	0.0164831
599.845	0.0163866
599.923	0.0163888
600.001	0.0163761
600.079	0.0163934
600.157	0.0163534
600.236	0.0162685
600.314	0.0162204
600.392	0.0163823
600.470	0.0164626
600.548	0.0163860
600.626	0.0164001
600.704	0.0164575
600.782	0.0163868
600.861	0.0163782
600.939	0.0162959
601.017	0.0163515
601.095	0.0164108
601.173	0.0163388
601.251	0.0163855
601.329	0.0163029
601.407	0.0163903
601.486	0.0163605
601.564	0.0164170
601.642	0.0163258
601.720	0.0162697
601.798	0.0163541
601.876	0.0163982
601.954	0.0162944
602.032	0.0162743
602.111	0.0163660
602.189	0.0162450
602.267	0.0163628
602.345	0.0163995
602.423	0.0164345
602.501	0.0162894
602.579	0.0163387
602.657	0.0162365
602.736	0.0163860
602.814	0.0165475
602.892	0.0164578
602.970	0.0164017
603.048	0.0164040
603.126	0.0163271
603.204	0.0164611
603.282	0.0163693
603.361	0.0163554
603.439	0.0163723
603.517	0.0164432
603.595	0.0163795
603.673	0.0163829
603.751	0.0164096
603.829	0.0163140
603.907	0.0163159
603.986	0.0163555
604.064	0.0163304
604.142	0.0163232
604.220	0.0162482
604.298	0.0165669
604.376	0.0164131
604.454	0.0163699
604.532	0.0163983
604.611	0.0163160
604.689	0.0164260
604.767	0.0164206
604.845	0.0164618
604.923	0.0163742
605.001	0.0164726
605.079	0.0163007
605.157	0.0163511
605.236	0.0164036
605.314	0.0164320
605.392	0.0164604
605.470	0.0164314
605.548	0.0164069
605.626	0.0163599
605.704	0.0163957
605.782	0.0163801
605.861	0.0163953
605.939	0.0164024
606.017	0.0163283
606.095	0.0163335
606.173	0.0163216
606.251	0.0162417
606.329	0.0163231
606.407	0.0164574
606.486	0.0166167
606.564	0.0163818
606.642	0.0163276
606.720	0.0162780
606.798	0.0164619
606.876	0.0163366
606.954	0.0163517
607.032	0.0161600
607.111	0.0162924
607.189	0.0162853
607.267	0.0163505
607.345	0.0163663
607.423	0.0162693
607.501	0.0163875
607.579	0.0164677
607.657	0.0163092
607.736	0.0163184
607.814	0.0162387
607.892	0.0164307
607.970	0.0163448
608.048	0.0163931
608.126	0.0163573
608.204	0.0163155
608.282	0.0164353
608.361	0.0162139
608.439	0.0163099
608.517	0.0165665
608.595	0.0165243
608.673	0.0162644
608.751	0.0163715
608.829	0.0163460
608.907	0.0164584
608.986	0.0163081
609.064	0.0163085
609.142	0.0165462
609.220	0.0164079
609.298	0.0163020
609.376	0.0163663
609.454	0.0164249
609.532	0.0163635
609.611	0.0163934
609.689	0.0164601
609.767	0.0163313
609.845	0.0164726
609.923	0.0162778
610.001	0.0163837
610.079	0.0163379
610.157	0.0162778
610.236	0.0163219
610.314	0.0163784
610.392	0.0164177
610.470	0.0164578
610.548	0.0162543
610.626	0.0162872
610.704	0.0164607
610.782	0.0163467
610.861	0.0162658
610.939	0.0163966
611.017	0.0163405
611.095	0.0163854
611.173	0.0161752
611.251	0.0163902
611.329	0.0162830
611.407	0.0162450
611.486	0.0163667
611.564	0.0164100
611.642	0.0165226
611.720	0.0164832
611.798	0.0163914
611.876	0.0163748
611.954	0.0163023
612.032	0.0164770
612.111	0.0164017
612.189	0.0163245
612.267	0.0162564
612.345	0.0164034
612.423	0.0164049
612.501	0.0164195
612.579	0.0163893
612.657	0.0163434
612.736	0.0163309
612.814	0.0163818
612.892	0.0163883
612.970	0.0163781
613.048	0.0163463
613.126	0.0164000
613.204	0.0163268
613.282	0.0163297
613.361	0.0163443
613.439	0.0164366
613.517	0.0163122
613.595	0.0163017
613.673	0.0163404
613.751	0.0163354
613.829	0.0164304
613.907	0.0163789
613.986	0.0163113
614.064	0.0163730
614.142	0.0163434
614.220	0.0164420
614.298	0.0163519
614.376	0.0164472
614.454	0.0163779
614.532	0.0163857
614.611	0.0163669
614.689	0.0165138
614.767	0.0163300
614.845	0.0162713
614.923	0.0163845
615.001	0.0164539
615.079	0.0163148
615.157	0.0162951
615.236	0.0162791
615.314	0.0163564
615.392	0.0163046
615.470	0.0163054
615.548	0.0163712
615.626	0.0163873
615.704	0.0164600
615.782	0.0164493
615.861	0.0165455
615.939	0.0163276
616.017	0.0164259
616.095	0.0164429
616.173	0.0162962
616.251	0.0163142
616.329	0.0163451
616.407	0.0164838
616.486	0.0162550
616.564	0.0163890
616.642	0.0161895
616.720	0.0163905
616.798	0.0162511
616.876	0.0164103
616.954	0.0163280
617.032	0.0164184
617.111	0.0163917
617.189	0.0162025
617.267	0.0162959
617.345	0.0163705
617.423	0.0164092
617.501	0.0164406
617.579	0.0163150
617.657	0.0163685
617.736	0.0164536
617.814	0.0163532
617.892	0.0165119
617.970	0.0165717
618.048	0.0164154
618.126	0.0163749
618.204	0.0163280
618.282	0.0162942
618.361	0.0163162
618.439	0.0164441
618.517	0.0164158
618.595	0.0163667
618.673	0.0164750
618.751	0.0163689
618.829	0.0163167
618.907	0.0162751
618.986	0.0163056
619.064	0.0163306
619.142	0.0163909
619.220	0.0163548
619.298	0.0163829
619.376	0.0163840
619.454	0.0162939
619.532	0.0163430
619.611	0.0164281
619.689	0.0162777
619.767	0.0162139
619.845	0.0164320
619.923	0.0165157
620.001	0.0163806
620.079	0.0163453
620.157	0.0164892
620.236	0.0163802
620.314	0.0163181
620.392	0.0162616
620.470	0.0163300
620.548	0.0165562
620.626	0.0163818
620.704	0.0164088
620.782	0.0163576
620.861	0.0163965
620.939	0.0162962
621.017	0.0163251
621.095	0.0162822
621.173	0.0164850
621.251	0.0164124
621.329	0.0163322
621.407	0.0162704
621.486	0.0164645
621.564	0.0163721
621.642	0.0164024
621.720	0.0163389
621.798	0.0161434
621.876	0.0162547
621.954	0.0162720
622.032	0.0163361
622.111	0.0163278
622.189	0.0164722
622.267	0.0164317
622.345	0.0164548
622.423	0.0163680
622.501	0.0162249
622.579	0.0163864
622.657	0.0164056
622.736	0.0165058
622.814	0.0163795
622.892	0.0162527
622.970	0.0164362
623.048	0.0162202
623.126	0.0162025
623.204	0.0165190
623.282	0.0164053
623.361	0.0163998
623.439	0.0164050
623.517	0.0163914
623.595	0.0161953
623.673	0.0164433
623.751	0.0164043
623.829	0.0163338
623.907	0.0163067
623.986	0.0163895
624.064	0.0162725
624.142	0.0164305
624.220	0.0162582
624.298	0.0163366
624.376	0.0162384
624.454	0.0162503
624.532	0.0164235
624.611	0.0163597
624.689	0.0162680
624.767	0.0162576
624.845	0.0163132
624.923	0.0163811
625.001	0.0163702
625.079	0.0162386
625.157	0.0163557
625.236	0.0166193
625.314	0.0163999
625.392	0.0162845
625.470	0.0164259
625.548	0.0163736
625.626	0.0164554
625.704	0.0162530
625.782	0.0162445
625.861	0.0164109
625.939	0.0163611
626.017	0.0163178
626.095	0.0163683
626.173	0.0163338
626.251	0.0163090
626.329	0.0163094
626.407	0.0162703
626.486	0.0163895
626.564	0.0164586
626.642	0.0163013
626.720	0.0162972
626.798	0.0164525
626.876	0.0163366
626.954	0.0162918
627.032	0.0163739
627.111	0.0163236
627.189	0.0163816
627.267	0.0163351
627.345	0.0164143
627.423	0.0164130
627.501	0.0163184
627.579	0.0163962
627.657	0.0163937
627.736	0.0162268
627.814	0.0164418
627.892	0.0162991
627.970	0.0162159
628.048	0.0164826
628.126	0.0163117
628.204	0.0164033
628.282	0.0163248
628.361	0.0164482
628.439	0.0163673
628.517	0.0162253
628.595	0.0164416
628.673	0.0163421
628.751	0.0162079
628.829	0.0162512
628.907	0.0163136
628.986	0.0162755
629.064	0.0162979
629.142	0.0161908
629.220	0.0164219
629.298	0.0163395
629.376	0.0164157
629.454	0.0162763
629.532	0.0162988
629.611	0.0163186
629.689	0.0164218
629.767	0.0164128
629.845	0.0164239
629.923	0.0164071
630.001	0.0164148
630.079	0.0163698
630.157	0.0163035
630.236	0.0163602
630.314	0.0162880
630.392	0.0163524
630.470	0.0164549
630.548	0.0163498
630.626	0.0163997
630.704	0.0163487
630.782	0.0163364
630.861	0.0162885
630.939	0.0162441
631.017	0.0164177
631.095	0.0162630
631.173	0.0162951
631.251	0.0162331
631.329	0.0163588
631.407	0.0163034
631.486	0.0163801
631.564	0.0163380
631.642	0.0163670
631.720	0.0163823
631.798	0.0162913
631.876	0.0163347
631.954	0.0163775
632.032	0.0165115
632.111	0.0162735
632.189	0.0162709
632.267	0.0163425
632.345	0.0164737
632.423	0.0162546
632.501	0.0163374
632.579	0.0161591
632.657	0.0163985
632.736	0.0162666
632.814	0.0162800
632.892	0.0162663
632.970	0.0162391
633.048	0.0162291
633.126	0.0163796
633.204	0.0163503
633.282	0.0161958
633.361	0.0162116
633.439	0.0163878
633.517	0.0164216
633.595	0.0164051
633.673	0.0162843
633.751	0.0162505
633.829	0.0162891
633.907	0.0163055
633.986	0.0162678
634.064	0.0164554
634.142	0.0163763
634.220	0.0163387
634.298	0.0162746
634.376	0.0163697
634.454	0.0162712
634.532	0.0163581
634.611	0.0163509
634.689	0.0162395
634.767	0.0162714
634.845	0.0162937
634.923	0.0163405
635.001	0.0162685
635.079	0.0163624
635.157	0.0163779
635.236	0.0163699
635.314	0.0163019
635.392	0.0163571
635.470	0.0163633
635.548	0.0163909
635.626	0.0163736
635.704	0.0162904
635.782	0.0162422
635.861	0.0163348
635.939	0.0163759
636.017	0.0163286
636.095	0.0163425
636.173	0.0163964
636.251	0.0163784
636.329	0.0162826
636.407	0.0164045
636.486	0.0163932
636.564	0.0163110
636.642	0.0162500
636.720	0.0164616
636.798	0.0163953
636.876	0.0162419
636.954	0.0162630
637.032	0.0163593
637.111	0.0165350
637.189	0.0165004
637.267	0.0162978
637.345	0.0163984
637.423	0.0163413
637.501	0.0163212
637.579	0.0163850
637.657	0.0162857
637.736	0.0164443
637.814	0.0164351
637.892	0.0162857
637.970	0.0162927
638.048	0.0163193
638.126	0.0163169
638.204	0.0163457
638.282	0.0163284
638.361	0.0163393
638.439	0.0163791
638.517	0.0162758
638.595	0.0163557
638.673	0.0163480
638.751	0.0162772
638.829	0.0163723
638.907	0.0164019
638.986	0.0164083
639.064	0.0163659
639.142	0.0162515
639.220	0.0162232
639.298	0.0163589
639.376	0.0165049
639.454	0.0163155
639.532	0.0163570
639.611	0.0162976
639.689	0.0163425
639.767	0.0164626
639.845	0.0164922
639.923	0.0163715
640.001	0.0164164
640.079	0.0163363
640.157	0.0163091
640.236	0.0163345
640.314	0.0163987
640.392	0.0162733
640.470	0.0163113
640.548	0.0162847
640.626	0.0164188
640.704	0.0163104
640.782	0.0161881
640.861	0.0162897
640.939	0.0163678
641.017	0.0163691
641.095	0.0164572
641.173	0.0162858
641.251	0.0163372
641.329	0.0164861
641.407	0.0163937
641.486	0.0164339
641.564	0.0163418
641.642	0.0162768
641.720	0.0164548
641.798	0.0163389
641.876	0.0163534
641.954	0.0162949
642.032	0.0165178
642.111	0.0164336
642.189	0.0162844
642.267	0.0164515
642.345	0.0164877
642.423	0.0163302
642.501	0.0162927
642.579	0.0164135
642.657	0.0164234
642.736	0.0163282
642.814	0.0163131
642.892	0.0164510
642.970	0.0163236
643.048	0.0163646
643.126	0.0164404
643.204	0.0163380
643.282	0.0162350
643.361	0.0163226
643.439	0.0163687
643.517	0.0163248
643.595	0.0164106
643.673	0.0164075
643.751	0.0162871
643.829	0.0163050
643.907	0.0164104
643.986	0.0162521
644.064	0.0162225
644.142	0.0163871
644.220	0.0163232
644.298	0.0163648
644.376	0.0163868
644.454	0.0163659
644.532	0.0163386
644.611	0.0164120
644.689	0.0163173
644.767	0.0164129
644.845	0.0163466
644.923	0.0163428
645.001	0.0162981
645.079	0.0162963
645.157	0.0164212
645.236	0.0165029
645.314	0.0163732
645.392	0.0163071
645.470	0.0165060
645.548	0.0163880
645.626	0.0163893
645.704	0.0164053
645.782	0.0164118
645.861	0.0164217
645.939	0.0162374
646.017	0.0162549
646.095	0.0163068
646.173	0.0163441
646.251	0.0163746
646.329	0.0163414
646.407	0.0164126
646.486	0.0163723
646.564	0.0163399
646.642	0.0164136
646.720	0.0165594
646.798	0.0162897
646.876	0.0163841
646.954	0.0162101
647.032	0.0163969
647.111	0.0163301
647.189	0.0163461
647.267	0.0164198
647.345	0.0164207
647.423	0.0162812
647.501	0.0163846
647.579	0.0163242
647.657	0.0163067
647.736	0.0163657
647.814	0.0163440
647.892	0.0164083
647.970	0.0163918
648.048	0.0163634
648.126	0.0163890
648.204	0.0163466
648.282	0.0164049
648.361	0.0163530
648.439	0.0164662
648.517	0.0162772
648.595	0.0164524
648.673	0.0164208
648.751	0.0163348
648.829	0.0163119
648.907	0.0164291
648.986	0.0163551
649.064	0.0163301
649.142	0.0163679
649.220	0.0162727
649.298	0.0161983
649.376	0.0164543
649.454	0.0163276
649.532	0.0162292
649.611	0.0163638
649.689	0.0163172
649.767	0.0163407
649.845	0.0162604
649.923	0.0162012
650.001	0.0162701
650.079	0.0162646
650.157	0.0162567
650.236	0.0163692
650.314	0.0163271
650.392	0.0162017
650.470	0.0163705
650.548	0.0163309
650.626	0.0162487
650.704	0.0164414
650.782	0.0163699
650.861	0.0162878
650.939	0.0164365
651.017	0.0162267
651.095	0.0162450
651.173	0.0164787
651.251	0.0162986
651.329	0.0164447
651.407	0.0163564
651.486	0.0163770
651.564	0.0163821
651.642	0.0164514
651.720	0.0164024
651.798	0.0165026
651.876	0.0162756
651.954	0.0164046
652.032	0.0162970
652.111	0.0163795
652.189	0.0163404
652.267	0.0162735
652.345	0.0163403
652.423	0.0163715
652.501	0.0163478
652.579	0.0163454
652.657	0.0163830
652.736	0.0164085
652.814	0.0163036
652.892	0.0164659
652.970	0.0163605
653.048	0.0163602
653.126	0.0164433
653.204	0.0162867
653.282	0.0164175
653.361	0.0164794
653.439	0.0164156
653.517	0.0164789
653.595	0.0162479
653.673	0.0163902
653.751	0.0162598
653.829	0.0163859
653.907	0.0164283
653.986	0.0163982
654.064	0.0165669
654.142	0.0163014
654.220	0.0163443
654.298	0.0163248
654.376	0.0164963
654.454	0.0163969
654.532	0.0163790
654.611	0.0163878
654.689	0.0163429
654.767	0.0163873
654.845	0.0163251
654.923	0.0163320
655.001	0.0163099
655.079	0.0162895
655.157	0.0162927
655.236	0.0163268
655.314	0.0162334
655.392	0.0163200
655.470	0.0165486
655.548	0.0163747
655.626	0.0164736
655.704	0.0164928
655.782	0.0163844
655.861	0.0163246
655.939	0.0164439
656.017	0.0163871
656.095	0.0164625
656.173	0.0164721
656.251	0.0162943
656.329	0.0162781
656.407	0.0164915
656.486	0.0162133
656.564	0.0163515
656.642	0.0163295
656.720	0.0163910
656.798	0.0162980
656.876	0.0163371
656.954	0.0163036
657.032	0.0164127
657.111	0.0165205
657.189	0.0165315
657.267	0.0164130
657.345	0.0163475
657.423	0.0162930
657.501	0.0164013
657.579	0.0165007
657.657	0.0163290
657.736	0.0164899
657.814	0.0163786
657.892	0.0164309
657.970	0.0164108
658.048	0.0164672
658.126	0.0164835
658.204	0.0163039
658.282	0.0164406
658.361	0.0163482
658.439	0.0163586
658.517	0.0163445
658.595	0.0163547
658.673	0.0164245
658.751	0.0163381
658.829	0.0163395
658.907	0.0164224
658.986	0.0163303
659.064	0.0163669
659.142	0.0164425
659.220	0.0163719
659.298	0.0163785
659.376	0.0164445
659.454	0.0164585
659.532	0.0164125
659.611	0.0164240
659.689	0.0164294
659.767	0.0163687
659.845	0.0165076
659.923	0.0163491
660.001	0.0162553
660.079	0.0164652
660.157	0.0164024
660.236	0.0164722
660.314	0.0164625
660.392	0.0163954
660.470	0.0163934
660.548	0.0164505
660.626	0.0165302
660.704	0.0163639
660.782	0.0164008
660.861	0.0164736
660.939	0.0164779
661.017	0.0162339
661.095	0.0164027
661.173	0.0163213
661.251	0.0163516
661.329	0.0163672
661.407	0.0165479
661.486	0.0163275
661.564	0.0164240
661.642	0.0164144
661.720	0.0164125
661.798	0.0163811
661.876	0.0164159
661.954	0.0164095
662.032	0.0163229
662.111	0.0163574
662.189	0.0163519
662.267	0.0163421
662.345	0.0163167
662.423	0.0163800
662.501	0.0164394
662.579	0.0163883
662.657	0.0163959
662.736	0.0163700
662.814	0.0162530
662.892	0.0163735
662.970	0.0163895
663.048	0.0164181
663.126	0.0163531
663.204	0.0163811
663.282	0.0163391
663.361	0.0163930
663.439	0.0165120
663.517	0.0162914
663.595	0.0164970
663.673	0.0164790
663.751	0.0164001
663.829	0.0164120
663.907	0.0163420
663.986	0.0164277
664.064	0.0163084
664.142	0.0164529
664.220	0.0164227
664.298	0.0163568
664.376	0.0163346
664.454	0.0163741
664.532	0.0164853
664.611	0.0164507
664.689	0.0164461
664.767	0.0164520
664.845	0.0164285
664.923	0.0164050
665.001	0.0163331
665.079	0.0163029
665.157	0.0162585
665.236	0.0162247
665.314	0.0163698
665.392	0.0162270
665.470	0.0164341
665.548	0.0163226
665.626	0.0162886
665.704	0.0164079
665.782	0.0163704
665.861	0.0163071
665.939	0.0164066
666.017	0.0164603
666.095	0.0164484
666.173	0.0164602
666.251	0.0163094
666.329	0.0163925
666.407	0.0163113
666.486	0.0164209
666.564	0.0163420
666.642	0.0163245
666.720	0.0163049
666.798	0.0164227
666.876	0.0162466
666.954	0.0163196
667.032	0.0163507
667.111	0.0163209
667.189	0.0163253
667.267	0.0163006
667.345	0.0163565
667.423	0.0162204
667.501	0.0162285
667.579	0.0161990
667.657	0.0162798
667.736	0.0163348
667.814	0.0162752
667.892	0.0163055
667.970	0.0163734
668.048	0.0163355
668.126	0.0161652
668.204	0.0163142
668.282	0.0163084
668.361	0.0163073
668.439	0.0162287
668.517	0.0162014
668.595	0.0162351
668.673	0.0161573
668.751	0.0164014
668.829	0.0161835
668.907	0.0161555
668.986	0.0161147
669.064	0.0163479
669.142	0.0162865
669.220	0.0162843
669.298	0.0162481
669.376	0.0161740
669.454	0.0163390
669.532	0.0161766
669.611	0.0161864
669.689	0.0162341
669.767	0.0161801
669.845	0.0162152
669.923	0.0161615
670.001	0.0162594
670.079	0.0163786
670.157	0.0162103
670.236	0.0162603
670.314	0.0163843
670.392	0.0162891
670.470	0.0162841
670.548	0.0162387
670.626	0.0162656
670.704	0.0164188
670.782	0.0163338
670.861	0.0163223
670.939	0.0163567
671.017	0.0163527
671.095	0.0162813
671.173	0.0162009
671.251	0.0162593
671.329	0.0163210
671.407	0.0165436
671.486	0.0163946
671.564	0.0164115
671.642	0.0163196
671.720	0.0164498
671.798	0.0164099
671.876	0.0164225
671.954	0.0164280
672.032	0.0163944
672.111	0.0163865
672.189	0.0163486
672.267	0.0163662
672.345	0.0163982
672.423	0.0164362
672.501	0.0164566
672.579	0.0165923
672.657	0.0164711
672.736	0.0165324
672.814	0.0166000
672.892	0.0164326
672.970	0.0166093
673.048	0.0165967
673.126	0.0164773
673.204	0.0165119
673.282	0.0165471
673.361	0.0164527
673.439	0.0165207
673.517	0.0165485
673.595	0.0165714
673.673	0.0166174
673.751	0.0166055
673.829	0.0166500
673.907	0.0165174
673.986	0.0166254
674.064	0.0166209
674.142	0.0164748
674.220	0.0164729
674.298	0.0165697
674.376	0.0165768
674.454	0.0165279
674.532	0.0167210
674.611	0.0164828
674.689	0.0165109
674.767	0.0164496
674.845	0.0165444
674.923	0.0165794
675.001	0.0165807
675.079	0.0165741
675.157	0.0165636
675.236	0.0166953
675.314	0.0164645
675.392	0.0166115
675.470	0.0164689
675.548	0.0165483
675.626	0.0165701
675.704	0.0165036
675.782	0.0165300
675.861	0.0165211
675.939	0.0165283
676.017	0.0164681
676.095	0.0165150
676.173	0.0163860
676.251	0.0165073
676.329	0.0165094
676.407	0.0163622
676.486	0.0164474
676.564	0.0163912
676.642	0.0164805
676.720	0.0165060
676.798	0.0163634
676.876	0.0165144
676.954	0.0164462
677.032	0.0164742
677.111	0.0163771
677.189	0.0164397
677.267	0.0165269
677.345	0.0165273
677.423	0.0162682
677.501	0.0163403
677.579	0.0162560
677.657	0.0163681
677.736	0.0163895
677.814	0.0163242
677.892	0.0163816
677.970	0.0163000
678.048	0.0163161
678.126	0.0162457
678.204	0.0164431
678.282	0.0162992
678.361	0.0162193
678.439	0.0162232
678.517	0.0163489
678.595	0.0163470
678.673	0.0161869
678.751	0.0162471
678.829	0.0162260
678.907	0.0162451
678.986	0.0163361
679.064	0.0162908
679.142	0.0162492
679.220	0.0162256
679.298	0.0163646
679.376	0.0162660
679.454	0.0160986
679.532	0.0162621
679.611	0.0162097
679.689	0.0163112
679.767	0.0163602
679.845	0.0162360
679.923	0.0161374
680.001	0.0163152
680.079	0.0161796
680.157	0.0162998
680.236	0.0162788
680.314	0.0161887
680.392	0.0162354
680.470	0.0161198
680.548	0.0162858
680.626	0.0163052
680.704	0.0162922
680.782	0.0161357
680.861	0.0162203
680.939	0.0162671
681.017	0.0162130
681.095	0.0162431
681.173	0.0161778
681.251	0.0161498
681.329	0.0162263
681.407	0.0162189
681.486	0.0162612
681.564	0.0162924
681.642	0.0163338
681.720	0.0162521
681.798	0.0161100
681.876	0.0161581
681.954	0.0162790
682.032	0.0163214
682.111	0.0162703
682.189	0.0164640
682.267	0.0163983
682.345	0.0163304
682.423	0.0162601
682.501	0.0162656
682.579	0.0163065
682.657	0.0163703
682.736	0.0164345
682.814	0.0162841
682.892	0.0163017
682.970	0.0163745
683.048	0.0163046
683.126	0.0163574
683.204	0.0162754
683.282	0.0162550
683.361	0.0163953
683.439	0.0163345
683.517	0.0163652
683.595	0.0163227
683.673	0.0163343
683.751	0.0163562
683.829	0.0163354
683.907	0.0163130
683.986	0.0163719
684.064	0.0164581
684.142	0.0164459
684.220	0.0164013
684.298	0.0165334
684.376	0.0164262
684.454	0.0163906
684.532	0.0164685
684.611	0.0165502
684.689	0.0165022
684.767	0.0163728
684.845	0.0164345
684.923	0.0164882
685.001	0.0164026
685.079	0.0162811
685.157	0.0163085
685.236	0.0161656
685.314	0.0160191
685.392	0.0160421
685.470	0.0160936
685.548	0.0160929
685.626	0.0161410
685.704	0.0163978
685.782	0.0166271
685.861	0.0168274
685.939	0.0169664
686.017	0.0170665
686.095	0.0170513
686.173	0.0169395
686.251	0.0167168
686.329	0.0164022
686.407	0.0159166
686.486	0.0154766
686.564	0.0151305
686.642	0.0148284
686.720	0.0146699
686.798	0.0148518
686.876	0.0150027
686.954	0.0154173
687.032	0.0159306
687.111	0.0165127
687.189	0.0171195
687.267	0.0177325
687.345	0.0181452
687.423	0.0185314
687.501	0.0186907
687.579	0.0188086
687.657	0.0184069
687.736	0.0181248
687.814	0.0178025
687.892	0.0171946
687.970	0.0164529
688.048	0.0158384
688.126	0.0154055
688.204	0.0149336
688.282	0.0145719
688.361	0.0143995
688.439	0.0143936
688.517	0.0144525
688.595	0.0145595
688.673	0.0152405
688.751	0.0154620
688.829	0.0160501
688.907	0.0163556
688.986	0.0166741
689.064	0.0169164
689.142	0.0170594
689.220	0.0171433
689.298	0.0173000
689.376	0.0171717
689.454	0.0171548
689.532	0.0171066
689.611	0.0170533
689.689	0.0168604
689.767	0.0167517
689.845	0.0168226
689.923	0.0168304
690.001	0.0168127
690.079	0.0167420
690.157	0.0167832
690.236	0.0168335
690.314	0.0168665
690.392	0.0168645
690.470	0.0168249
690.548	0.0166341
690.626	0.0164605
690.704	0.0162491
690.782	0.0161963
690.861	0.0159747
690.939	0.0155401
691.017	0.0152777
691.095	0.0150963
691.173	0.0151002
691.251	0.0148734
691.329	0.0146429
691.407	0.0144779
691.486	0.0145237
691.564	0.0145746
691.642	0.0147052
691.720	0.0148952
691.798	0.0151826
691.876	0.0154692
691.954	0.0159111
692.032	0.0163158
692.111	0.0166219
692.189	0.0170280
692.267	0.0174402
692.345	0.0178620
692.423	0.0180894
692.501	0.0183876
692.579	0.0184485
692.657	0.0183945
692.736	0.0184774
692.814	0.0183057
692.892	0.0181084
692.970	0.0179458
693.048	0.0175579
693.126	0.0172252
693.204	0.0169159
693.282	0.0166190
693.361	0.0162189
693.439	0.0161655
693.517	0.0158134
693.595	0.0156918
693.673	0.0156711
693.751	0.0155681
693.829	0.0156680
693.907	0.0157647
693.986	0.0157305
694.064	0.0157834
694.142	0.0160157
694.220	0.0160367
694.298	0.0160846
694.376	0.0159792
694.454	0.0159402
694.532	0.0159531
694.611	0.0158143
694.689	0.0157708
694.767	0.0157522
694.845	0.0155408
694.923	0.0153989
695.001	0.0153670
695.079	0.0153481
695.157	0.0152374
695.236	0.0153867
695.314	0.0153599
695.392	0.0153909
695.470	0.0154748
695.548	0.0155142
695.626	0.0155186
695.704	0.0157533
695.782	0.0158569
695.861	0.0158274
695.939	0.0159784
696.017	0.0161318
696.095	0.0161681
696.173	0.0164143
696.251	0.0167926
696.329	0.0168963
696.407	0.0172182
696.486	0.0174487
696.564	0.0176261
696.642	0.0177965
696.720	0.0180724
696.798	0.0181258
696.876	0.0183150
696.954	0.0183714
697.032	0.0182578
697.111	0.0182373
697.189	0.0179814
697.267	0.0179853
697.345	0.0176645
697.423	0.0175437
697.501	0.0172862
697.579	0.0170436
697.657	0.0167718
697.736	0.0165987
697.814	0.0162611
697.892	0.0158382
697.970	0.0155516
698.048	0.0151476
698.126	0.0151308
698.204	0.0150465
698.282	0.0151072
698.361	0.0148657
698.439	0.0149437
698.517	0.0149525
698.595	0.0149110
698.673	0.0151112
698.751	0.0152750
698.829	0.0152551
698.907	0.0154472
698.986	0.0154029
699.064	0.0155712
699.142	0.0155930
699.220	0.0157034
699.298	0.0156990
699.376	0.0158529
699.454	0.0158519
699.532	0.0158444
699.611	0.0160178
699.689	0.0160529
699.767	0.0159684
699.845	0.0162986
699.923	0.0162508
700.001	0.0165630
700.079	0.0168178
700.157	0.0167802
700.236	0.0169113
700.314	0.0171382
700.392	0.0172009
700.470	0.0172986
700.548	0.0173682
700.626	0.0172453
700.704	0.0173426
700.782	0.0174438
700.861	0.0175174
700.939	0.0172874
701.017	0.0173905
701.095	0.0173288
701.173	0.0173285
701.251	0.0174041
701.329	0.0173882
701.407	0.0172433
701.486	0.0172339
701.564	0.0173139
701.642	0.0172797
701.720	0.0171172
701.798	0.0170966
701.876	0.0170103
701.954	0.0169048
702.032	0.0167460
702.111	0.0166441
702.189	0.0165604
702.267	0.0162510
702.345	0.0160705
702.423	0.0158695
702.501	0.0159025
702.579	0.0157081
702.657	0.0156113
702.736	0.0154765
702.814	0.0155062
702.892	0.0153647
702.970	0.0154852
703.048	0.0154565
703.126	0.0153853
703.204	0.0154594
703.282	0.0155243
703.361	0.0155296
703.439	0.0153963
703.517	0.0155025
703.595	0.0154930
703.673	0.0156142
703.751	0.0155856
703.829	0.0156446
703.907	0.0156609
703.986	0.0157350
704.064	0.0159577
704.142	0.0161868
704.220	0.0161679
704.298	0.0162234
704.376	0.0165741
704.454	0.0167874
704.532	0.0167787
704.611	0.0171124
704.689	0.0170986
704.767	0.0172292
704.845	0.0174107
704.923	0.0171967
705.001	0.0171059
705.079	0.0171466
705.157	0.0171416
705.236	0.0171278
705.314	0.0170304
705.392	0.0169930
705.470	0.0168633
705.548	0.0170264
705.626	0.0168893
705.704	0.0166034
705.782	0.0166845
705.861	0.0167814
705.939	0.0166083
706.017	0.0164766
706.095	0.0165105
706.173	0.0164546
706.251	0.0163560
706.329	0.0163348
706.407	0.0160746
706.486	0.0160712
706.564	0.0160882
706.642	0.0157835
706.720	0.0156826
706.798	0.0156523
706.876	0.0155870
706.954	0.0154690
707.032	0.0154603
707.111	0.0155701
707.189	0.0155151
707.267	0.0157301
707.345	0.0158723
707.423	0.0159832
707.501	0.0162666
707.579	0.0164375
707.657	0.0166750
707.736	0.0167951
707.814	0.0169043
707.892	0.0170042
707.970	0.0169968
708.048	0.0169577
708.126	0.0168182
708.204	0.0165907
708.282	0.0165445
708.361	0.0161674
708.439	0.0159293
708.517	0.0157980
708.595	0.0157127
708.673	0.0155991
708.751	0.0154358
708.829	0.0154420
708.907	0.0153433
708.986	0.0154039
709.064	0.0156632
709.142	0.0158507
709.220	0.0161028
709.298	0.0163754
709.376	0.0164054
709.454	0.0165926
709.532	0.0168562
709.611	0.0169908
709.689	0.0172823
709.767	0.0172349
709.845	0.0174000
709.923	0.0173392
710.001	0.0171910
710.079	0.0172308
710.157	0.0172502
710.236	0.0171232
710.314	0.0168604
710.392	0.0168162
710.470	0.0167178
710.548	0.0165868
710.626	0.0162252
710.704	0.0162309
710.782	0.0160678
710.861	0.0160252
710.939	0.0159907
711.017	0.0159711
711.095	0.0158322
711.173	0.0157920
711.251	0.0158714
711.329	0.0158086
711.407	0.0159417
711.486	0.0159101
711.564	0.0159878
711.642	0.0161175
711.720	0.0162084
711.798	0.0162299
711.876	0.0163850
711.954	0.0165759
712.032	0.0165540
712.111	0.0164612
712.189	0.0165987
712.267	0.0165798
712.345	0.0165607
712.423	0.0167633
712.501	0.0165986
712.579	0.0167513
712.657	0.0166761
712.736	0.0166340
712.814	0.0166859
712.892	0.0166082
712.970	0.0166008
713.048	0.0166454
713.126	0.0164319
713.204	0.0163791
713.282	0.0161868
713.361	0.0161971
713.439	0.0160012
713.517	0.0158435
713.595	0.0159283
713.673	0.0159437
713.751	0.0158442
713.829	0.0158356
713.907	0.0160885
713.986	0.0161427
714.064	0.0162824
714.142	0.0165244
714.220	0.0163237
714.298	0.0165161
714.376	0.0167803
714.454	0.0168547
714.532	0.0168009
714.611	0.0169531
714.689	0.0170174
714.767	0.0169853
714.845	0.0168036
714.923	0.0167544
715.001	0.0165845
715.079	0.0166356
715.157	0.0165015
715.236	0.0163565
715.314	0.0164958
715.392	0.0162597
715.470	0.0161484
715.548	0.0160929
715.626	0.0162740
715.704	0.0161427
715.782	0.0161813
715.861	0.0160255
715.939	0.0160611
716.017	0.0161446
716.095	0.0163084
716.173	0.0161430
716.251	0.0161128
716.329	0.0161884
716.407	0.0161897
716.486	0.0162257
716.564	0.0162691
716.642	0.0163765
716.720	0.0163747
716.798	0.0164729
716.876	0.0164566
716.954	0.0164670
717.032	0.0166844
717.111	0.0166319
717.189	0.0167479
717.267	0.0167307
717.345	0.0168481
717.423	0.0169222
717.501	0.0168401
717.579	0.0166555
717.657	0.0166447
717.736	0.0164817
717.814	0.0162630
717.892	0.0162898
717.970	0.0162920
718.048	0.0161152
718.126	0.0161340
718.204	0.0159979
718.282	0.0160361
718.361	0.0160779
718.439	0.0158595
718.517	0.0160252
718.595	0.0159879
718.673	0.0160082
718.751	0.0159808
718.829	0.0160124
718.907	0.0160768
718.986	0.0161454
719.064	0.0159988
719.142	0.0160565
719.220	0.0160412
719.298	0.0161449
719.376	0.0162603
719.454	0.0161639
719.532	0.0163264
719.611	0.0162724
719.689	0.0163801
719.767	0.0163351
719.845	0.0164593
719.923	0.0163900
720.001	0.0165035
720.079	0.0165772
720.157	0.0164211
720.236	0.0163627
720.314	0.0164201
720.392	0.0162551
720.470	0.0163778
720.548	0.0162849
720.626	0.0161761
720.704	0.0163320
720.782	0.0162329
720.861	0.0163171
720.939	0.0163395
721.017	0.0164082
721.095	0.0164574
721.173	0.0164975
721.251	0.0164626
721.329	0.0166487
721.407	0.0165282
721.486	0.0167126
721.564	0.0167297
721.642	0.0166262
721.720	0.0166794
721.798	0.0168587
721.876	0.0166941
721.954	0.0168077
722.032	0.0167142
722.111	0.0165601
722.189	0.0168157
722.267	0.0167316
722.345	0.0167875
722.423	0.0167371
722.501	0.0166143
722.579	0.0165295
722.657	0.0164842
722.736	0.0164967
722.814	0.0163062
722.892	0.0161443
722.970	0.0161189
723.048	0.0160579
723.126	0.0159779
723.204	0.0159604
723.282	0.0159950
723.361	0.0157804
723.439	0.0160154
723.517	0.0160822
723.595	0.0160217
723.673	0.0162457
723.751	0.0161358
723.829	0.0160754
723.907	0.0162014
723.986	0.0162232
724.064	0.0164462
724.142	0.0165388
724.220	0.0163784
724.298	0.0163670
724.376	0.0164767
724.454	0.0166071
724.532	0.0166148
724.611	0.0164550
724.689	0.0166573
724.767	0.0166355
724.845	0.0164207
724.923	0.0166203
725.001	0.0164539
725.079	0.0165317
725.157	0.0165183
725.236	0.0165395
725.314	0.0163333
725.392	0.0165349
725.470	0.0164703
725.548	0.0163808
725.626	0.0164671
725.704	0.0163968
725.782	0.0164699
725.861	0.0164658
725.939	0.0165542
726.017	0.0164548
726.095	0.0163505
726.173	0.0165360
726.251	0.0164319
726.329	0.0164392
726.407	0.0165417
726.486	0.0165780
726.564	0.0166630
726.642	0.0164241
726.720	0.0165919
726.798	0.0167833
726.876	0.0165761
726.954	0.0166888
727.032	0.0168317
727.111	0.0166051
727.189	0.0166959
727.267	0.0167025
727.345	0.0166228
727.423	0.0163955
727.501	0.0165396
727.579	0.0165237
727.657	0.0163190
727.736	0.0163061
727.814	0.0161407
727.892	0.0161359
727.970	0.0161388
728.048	0.0160062
728.126	0.0160736
728.204	0.0160351
728.282	0.0161102
728.361	0.0161981
728.439	0.0160284
728.517	0.0159545
728.595	0.0160129
728.673	0.0159637
728.751	0.0160545
728.829	0.0160896
728.907	0.0160583
728.986	0.0160048
729.064	0.0160520
729.142	0.0162877
729.220	0.0162167
729.298	0.0162910
729.376	0.0165478
729.454	0.0164918
729.532	0.0164853
729.611	0.0166431
729.689	0.0166920
729.767	0.0166566
729.845	0.0166006
729.923	0.0164882
730.001	0.0166034
730.079	0.0166273
730.157	0.0166051
730.236	0.0162849
730.314	0.0163718
730.392	0.0162297
730.470	0.0160706
730.548	0.0160756
730.626	0.0160677
730.704	0.0161095
730.782	0.0158918
730.861	0.0159097
730.939	0.0158978
731.017	0.0162058
731.095	0.0161000
731.173	0.0162040
731.251	0.0162213
731.329	0.0163699
731.407	0.0162942
731.486	0.0164130
731.564	0.0164102
731.642	0.0166406
731.720	0.0164826
731.798	0.0165154
731.876	0.0165856
731.954	0.0167850
732.032	0.0165356
732.111	0.0165742
732.189	0.0167203
732.267	0.0165534
732.345	0.0163821
732.423	0.0162160
732.501	0.0161630
732.579	0.0161658
732.657	0.0160942
732.736	0.0160236
732.814	0.0159909
732.892	0.0161830
732.970	0.0160040
733.048	0.0158455
733.126	0.0160080
733.204	0.0160652
733.282	0.0160513
733.361	0.0160261
733.439	0.0159851
733.517	0.0160196
733.595	0.0160837
733.673	0.0162418
733.751	0.0162833
733.829	0.0163200
733.907	0.0164333
733.986	0.0165572
734.064	0.0166306
734.142	0.0166542
734.220	0.0166368
734.298	0.0166386
734.376	0.0167318
734.454	0.0169199
734.532	0.0169280
734.611	0.0168058
734.689	0.0168081
734.767	0.0168032
734.845	0.0167652
734.923	0.0166328
735.001	0.0166883
735.079	0.0164782
735.157	0.0164063
735.236	0.0163618
735.314	0.0162077
735.392	0.0162119
735.470	0.0161189
735.548	0.0160130
735.626	0.0159499
735.704	0.0161161
735.782	0.0162242
735.861	0.0161405
735.939	0.0162750
736.017	0.0163068
736.095	0.0163773
736.173	0.0164023
736.251	0.0165832
736.329	0.0166387
736.407	0.0167683
736.486	0.0167939
736.564	0.0166787
736.642	0.0168793
736.720	0.0168396
736.798	0.0169107
736.876	0.0169370
736.954	0.0167849
737.032	0.0168867
737.111	0.0168443
737.189	0.0167035
737.267	0.0167725
737.345	0.0166196
737.423	0.0165668
737.501	0.0164899
737.579	0.0163840
737.657	0.0162397
737.736	0.0160555
737.814	0.0160831
737.892	0.0159855
737.970	0.0160188
738.048	0.0158846
738.126	0.0158106
738.204	0.0158418
738.282	0.0159822
738.361	0.0159251
738.439	0.0159216
738.517	0.0161164
738.595	0.0160884
738.673	0.0160843
738.751	0.0162854
738.829	0.0163908
738.907	0.0161746
738.986	0.0162161
739.064	0.0164307
739.142	0.0164207
739.220	0.0164071
739.298	0.0164731
739.376	0.0164800
739.454	0.0163942
739.532	0.0163743
739.611	0.0164708
739.689	0.0164864
739.767	0.0165062
739.845	0.0164228
739.923	0.0163749
740.001	0.0163859
740.079	0.0163131
740.157	0.0163602
740.236	0.0163315
740.314	0.0164663
740.392	0.0164154
740.470	0.0163168
740.548	0.0163871
740.626	0.0162070
740.704	0.0162514
740.782	0.0163629
740.861	0.0162753
740.939	0.0161684
741.017	0.0162479
741.095	0.0163776
741.173	0.0163428
741.251	0.0162791
741.329	0.0162729
741.407	0.0163609
741.486	0.0164742
741.564	0.0166045
741.642	0.0165415
741.720	0.0164368
741.798	0.0164648
741.876	0.0165063
741.954	0.0165823
742.032	0.0167514
742.111	0.0166988
742.189	0.0167355
742.267	0.0167076
742.345	0.0168204
742.423	0.0169221
742.501	0.0167737
742.579	0.0169209
742.657	0.0169695
742.736	0.0168404
742.814	0.0167516
742.892	0.0166730
742.970	0.0166183
743.048	0.0164825
743.126	0.0165780
743.204	0.0165045
743.282	0.0161201
743.361	0.0162113
743.439	0.0159863
743.517	0.0159269
743.595	0.0157674
743.673	0.0157587
743.751	0.0155547
743.829	0.0154337
743.907	0.0154274
743.986	0.0155219
744.064	0.0155231
744.142	0.0155877
744.220	0.0155750
744.298	0.0157030
744.376	0.0157481
744.454	0.0157508
744.532	0.0159059
744.611	0.0160044
744.689	0.0161614
744.767	0.0162002
744.845	0.0163754
744.923	0.0162999
745.001	0.0164948
745.079	0.0165137
745.157	0.0166097
745.236	0.0167793
745.314	0.0166454
745.392	0.0167525
745.470	0.0167768
745.548	0.0166467
745.626	0.0166652
745.704	0.0165364
745.782	0.0166178
745.861	0.0165726
745.939	0.0164571
746.017	0.0164984
746.095	0.0165601
746.173	0.0164926
746.251	0.0164272
746.329	0.0163642
746.407	0.0165541
746.486	0.0165077
746.564	0.0165089
746.642	0.0164400
746.720	0.0165428
746.798	0.0165695
746.876	0.0165562
746.954	0.0167665
747.032	0.0165923
747.111	0.0166496
747.189	0.0166563
747.267	0.0168216
747.345	0.0168063
747.423	0.0167152
747.501	0.0167008
747.579	0.0167150
747.657	0.0167415
747.736	0.0166512
747.814	0.0166599
747.892	0.0165756
747.970	0.0165318
748.048	0.0165551
748.126	0.0165653
748.204	0.0162968
748.282	0.0163180
748.361	0.0162178
748.439	0.0160856
748.517	0.0160635
748.595	0.0160712
748.673	0.0160973
748.751	0.0160337
748.829	0.0160400
748.907	0.0159592
748.986	0.0160167
749.064	0.0159157
749.142	0.0159926
749.220	0.0159557
749.298	0.0159585
749.376	0.0159544
749.454	0.0160414
749.532	0.0161725
749.611	0.0161456
749.689	0.0162503
749.767	0.0162482
749.845	0.0163663
749.923	0.0163658
750.001	0.0163991
750.079	0.0163925
750.157	0.0164392
750.236	0.0164278
750.314	0.0165576
750.392	0.0165389
750.470	0.0165047
750.548	0.0165578
750.626	0.0164677
750.704	0.0164428
750.782	0.0164925
750.861	0.0164683
750.939	0.0164759
751.017	0.0163340
751.095	0.0163882
751.173	0.0163748
751.251	0.0163274
751.329	0.0164429
751.407	0.0163623
751.486	0.0162598
751.564	0.0163533
751.642	0.0164213
751.720	0.0163699
751.798	0.0164705
751.876	0.0165013
751.954	0.0165486
752.032	0.0164907
752.111	0.0165247
752.189	0.0167179
752.267	0.0167326
752.345	0.0168069
752.423	0.0165547
752.501	0.0167564
752.579	0.0167703
752.657	0.0166899
752.736	0.0166954
752.814	0.0167335
752.892	0.0165947
752.970	0.0165205
753.048	0.0164545
753.126	0.0165291
753.204	0.0164517
753.282	0.0161792
753.361	0.0162347
753.439	0.0161402
753.517	0.0162033
753.595	0.0162254
753.673	0.0160758
753.751	0.0159611
753.829	0.0159747
753.907	0.0158885
753.986	0.0158924
754.064	0.0159394
754.142	0.0160086
754.220	0.0159142
754.298	0.0159709
754.376	0.0160558
754.454	0.0160152
754.532	0.0161403
754.611	0.0161559
754.689	0.0160528
754.767	0.0163274
754.845	0.0162977
754.923	0.0165028
755.001	0.0163098
755.079	0.0165160
755.157	0.0163469
755.236	0.0163889
755.314	0.0165615
755.392	0.0165206
755.470	0.0164309
755.548	0.0164229
755.626	0.0162868
755.704	0.0164991
755.782	0.0164137
755.861	0.0162663
755.939	0.0163114
756.017	0.0161229
756.095	0.0162971
756.173	0.0162412
756.251	0.0162058
756.329	0.0162281
756.407	0.0161758
756.486	0.0162171
756.564	0.0162485
756.642	0.0163361
756.720	0.0161954
756.798	0.0164475
756.876	0.0163516
756.954	0.0164097
757.032	0.0164422
757.111	0.0165552
757.189	0.0165527
757.267	0.0164240
757.345	0.0165647
757.423	0.0166011
757.501	0.0165490
757.579	0.0164920
757.657	0.0167079
757.736	0.0166238
757.814	0.0166071
757.892	0.0166122
757.970	0.0166467
758.048	0.0165575
758.126	0.0165215
758.204	0.0164976
758.282	0.0165339
758.361	0.0164523
758.439	0.0164944
758.517	0.0164597
758.595	0.0163993
758.673	0.0163730
758.751	0.0163521
758.829	0.0162882
758.907	0.0162484
758.986	0.0161973
759.064	0.0162142
759.142	0.0161444
759.220	0.0160765
759.298	0.0160072
759.376	0.0160513
759.454	0.0159115
759.532	0.0160679
759.611	0.0160507
759.689	0.0159433
759.767	0.0158492
759.845	0.0161126
759.923	0.0160667
760.001	0.0161182
760.079	0.0162063
760.157	0.0163287
760.236	0.0161942
760.314	0.0163152
760.392	0.0163531
760.470	0.0164175
760.548	0.0163493
760.626	0.0163397
760.704	0.0164689
760.782	0.0164063
760.861	0.0164417
760.939	0.0164856
761.017	0.0164813
761.095	0.0164350
761.173	0.0164677
761.251	0.0164993
761.329	0.0165028
761.407	0.0163679
761.486	0.0165708
761.564	0.0166777
761.642	0.0166793
761.720	0.0166290
761.798	0.0166865
761.876	0.0165858
761.954	0.0165258
762.032	0.0166962
762.111	0.0167120
762.189	0.0166006
762.267	0.0165829
762.345	0.0166776
762.423	0.0167127
762.501	0.0167216
762.579	0.0166145
762.657	0.0164194
762.736	0.0165932
762.814	0.0166875
762.892	0.0165896
762.970	0.0165232
763.048	0.0166539
763.126	0.0166942
763.204	0.0165484
763.282	0.0164672
763.361	0.0167133
763.439	0.0165192
763.517	0.0164249
763.595	0.0162991
763.673	0.0163927
763.751	0.0162920
763.829	0.0163523
763.907	0.0163041
763.986	0.0161681
764.064	0.0162038
764.142	0.0160860
764.220	0.0159644
764.298	0.0158990
764.376	0.0159688
764.454	0.0157053
764.532	0.0158495
764.611	0.0159298
764.689	0.0157660
764.767	0.0157598
764.845	0.0157545
764.923	0.0158689
765.001	0.0160668
765.079	0.0159715
765.157	0.0160312
765.236	0.0161489
765.314	0.0160801
765.392	0.0161740
765.470	0.0163892
765.548	0.0164217
765.626	0.0162840
765.704	0.0164587
765.782	0.0164227
765.861	0.0164685
765.939	0.0165279
766.017	0.0165933
766.095	0.0166354
766.173	0.0166790
766.251	0.0166627
766.329	0.0166496
766.407	0.0166277
766.486	0.0167089
766.564	0.0166124
766.642	0.0166881
766.720	0.0166264
766.798	0.0166384
766.876	0.0166109
766.954	0.0165345
767.032	0.0165650
767.111	0.0165286
767.189	0.0163931
767.267	0.0164397
767.345	0.0164419
767.423	0.0163598
767.501	0.0163750
767.579	0.0163937
767.657	0.0162476
767.736	0.0163432
767.814	0.0164217
767.892	0.0164532
767.970	0.0164371
768.048	0.0164638
768.126	0.0163537
768.204	0.0163816
768.282	0.0163770
768.361	0.0165372
768.439	0.0165503
768.517	0.0164922
768.595	0.0164005
768.673	0.0164084
768.751	0.0164397
768.829	0.0163220
768.907	0.0163667
768.986	0.0164066
769.064	0.0162691
769.142	0.0162751
769.220	0.0162630
769.298	0.0161921
769.376	0.0163135
769.454	0.0162170
769.532	0.0162072
769.611	0.0161742
769.689	0.0161313
769.767	0.0160356
769.845	0.0162879
769.923	0.0161830
770.001	0.0162622
770.079	0.0162458
770.157	0.0161735
770.236	0.0161130
770.314	0.0162386
770.392	0.0161420
770.470	0.0161668
770.548	0.0162245
770.626	0.0163981
770.704	0.0163008
770.782	0.0164112
770.861	0.0164213
770.939	0.0164025
771.017	0.0165005
771.095	0.0164651
771.173	0.0164301
771.251	0.0165695
771.329	0.0165296
771.407	0.0165673
771.486	0.0165973
771.564	0.0164822
771.642	0.0165518
771.720	0.0164716
771.798	0.0165371
771.876	0.0164399
771.954	0.0164951
772.032	0.0164280
772.111	0.0165215
772.189	0.0164902
772.267	0.0164603
772.345	0.0164212
772.423	0.0164593
772.501	0.0164401
772.579	0.0164278
772.657	0.0164560
772.736	0.0164867
772.814	0.0165813
772.892	0.0165123
772.970	0.0164628
773.048	0.0163861
773.126	0.0164109
773.204	0.0163479
773.282	0.0164748
773.361	0.0163936
773.439	0.0164058
773.517	0.0164022
773.595	0.0164205
773.673	0.0163247
773.751	0.0162386
773.829	0.0163929
773.907	0.0163144
773.986	0.0163651
774.064	0.0163712
774.142	0.0164529
774.220	0.0164342
774.298	0.0162514
774.376	0.0164517
774.454	0.0163480
774.532	0.0164124
774.611	0.0165252
774.689	0.0164390
774.767	0.0163229
774.845	0.0162245
774.923	0.0162463
775.001	0.0163145
775.079	0.0163195
775.157	0.0163054
775.236	0.0162081
775.314	0.0161652
775.392	0.0163594
775.470	0.0162643
775.548	0.0163021
775.626	0.0162256
775.704	0.0163473
775.782	0.0164062
775.861	0.0162730
775.939	0.0163750
776.017	0.0165843
776.095	0.0165504
776.173	0.0163358
776.251	0.0164629
776.329	0.0163725
776.407	0.0165046
776.486	0.0165881
776.564	0.0163850
776.642	0.0164198
776.720	0.0163791
776.798	0.0163431
776.876	0.0162940
776.954	0.0162814
777.032	0.0162868
777.111	0.0164033
777.189	0.0162666
777.267	0.0160710
777.345	0.0161682
777.423	0.0162082
777.501	0.0160580
777.579	0.0160479
777.657	0.0161698
777.736	0.0161418
777.814	0.0161875
777.892	0.0161864
777.970	0.0161359
778.048	0.0162853
778.126	0.0163155
778.204	0.0163406
778.282	0.0164278
778.361	0.0164386
778.439	0.0162680
778.517	0.0163912
778.595	0.0164651
778.673	0.0162795
778.751	0.0161797
778.829	0.0164899
778.907	0.0164241
778.986	0.0162961
779.064	0.0162526
779.142	0.0162942
779.220	0.0163134
779.298	0.0162662
779.376	0.0162658
779.454	0.0163255
779.532	0.0162509
779.611	0.0162363
779.689	0.0162844
779.767	0.0162157
779.845	0.0163770
779.923	0.0164025
780.001	0.0162204
780.079	0.0163784
780.157	0.0163383
780.236	0.0163479
780.314	0.0163771
780.392	0.0163451
780.470	0.0163418
780.548	0.0163835
780.626	0.0162342
780.704	0.0165290
780.782	0.0163605
780.861	0.0163729
780.939	0.0163718
781.017	0.0165305
781.095	0.0163859
781.173	0.0164216
781.251	0.0163853
781.329	0.0163205
781.407	0.0163805
781.486	0.0163773
781.564	0.0164095
781.642	0.0163406
781.720	0.0164342
781.798	0.0162743
781.876	0.0162296
781.954	0.0162386
782.032	0.0163261
782.111	0.0163219
782.189	0.0162663
782.267	0.0161878
782.345	0.0162696
782.423	0.0163146
782.501	0.0161736
782.579	0.0162818
782.657	0.0162882
782.736	0.0162757
782.814	0.0163284
782.892	0.0163702
782.970	0.0162890
783.048	0.0163071
783.126	0.0161974
783.204	0.0164577
783.282	0.0164578
783.361	0.0165539
783.439	0.0165060
783.517	0.0164921
783.595	0.0164967
783.673	0.0165876
783.751	0.0166474
783.829	0.0166399
783.907	0.0164906
783.986	0.0164994
784.064	0.0165145
784.142	0.0164703
784.220	0.0162263
784.298	0.0162440
784.376	0.0160062
784.454	0.0162015
784.532	0.0161670
784.611	0.0159752
784.689	0.0160648
784.767	0.0158463
784.845	0.0160114
784.923	0.0160501
785.001	0.0160132
785.079	0.0162682
785.157	0.0160954
785.236	0.0160863
785.314	0.0162332
785.392	0.0163257
785.470	0.0163084
785.548	0.0163834
785.626	0.0164323
785.704	0.0164146
785.782	0.0164222
785.861	0.0164296
785.939	0.0164474
786.017	0.0164452
786.095	0.0163736
786.173	0.0164513
786.251	0.0165271
786.329	0.0163456
786.407	0.0165421
786.486	0.0165255
786.564	0.0163554
786.642	0.0165421
786.720	0.0165224
786.798	0.0163699
786.876	0.0164212
786.954	0.0164074
787.032	0.0164951
787.111	0.0164777
787.189	0.0163636
787.267	0.0164301
787.345	0.0162997
787.423	0.0163502
787.501	0.0162716
787.579	0.0163062
787.657	0.0162341
787.736	0.0162736
787.814	0.0162404
787.892	0.0161955
787.970	0.0162271
788.048	0.0161150
788.126	0.0163272
788.204	0.0163142
788.282	0.0162379
788.361	0.0164700
788.439	0.0164542
788.517	0.0163034
788.595	0.0164087
788.673	0.0164470
788.751	0.0164620
788.829	0.0166317
788.907	0.0165045
788.986	0.0164152
789.064	0.0165314
789.142	0.0163409
789.220	0.0163915
789.298	0.0164159
789.376	0.0163998
789.454	0.0163603
789.532	0.0164615
789.611	0.0163807
789.689	0.0162498
789.767	0.0164071
789.845	0.0163982
789.923	0.0164782
790.001	0.0164727
790.079	0.0164632
790.157	0.0164132
790.236	0.0165254
790.314	0.0165784
790.392	0.0164503
790.470	0.0165164
790.548	0.0164301
790.626	0.0166459
790.704	0.0164372
790.782	0.0162783
790.861	0.0163708
790.939	0.0161607
791.017	0.0163123
791.095	0.0161858
791.173	0.0161896
791.251	0.0162450
791.329	0.0161767
791.407	0.0160547
791.486	0.0159926
791.564	0.0161275
791.642	0.0160123
791.720	0.0160483
791.798	0.0160708
791.876	0.0162302
791.954	0.0161517
792.032	0.0160809
792.111	0.0162885
792.189	0.0164917
792.267	0.0164025
792.345	0.0164120
792.423	0.0163776
792.501	0.0164398
792.579	0.0166435
792.657	0.0165305
792.736	0.0165660
792.814	0.0167236
792.892	0.0166684
792.970	0.0165600
793.048	0.0165646
793.126	0.0165752
793.204	0.0166566
793.282	0.0166386
793.361	0.0166118
793.439	0.0164858
793.517	0.0166364
793.595	0.0165953
793.673	0.0162668
793.751	0.0163511
793.829	0.0164437
793.907	0.0165192
793.986	0.0163619
794.064	0.0164341
794.142	0.0164452
794.220	0.0164912
794.298	0.0165949
794.376	0.0163965
794.454	0.0164574
794.532	0.0164560
794.611	0.0164064
794.689	0.0162672
794.767	0.0161722
794.845	0.0162945
794.923	0.0163202
795.001	0.0162360
795.079	0.0161015
795.157	0.0161037
795.236	0.0161903
795.314	0.0161335
795.392	0.0160608
795.470	0.0161374
795.548	0.0161194
795.626	0.0162007
795.704	0.0160385
795.782	0.0160043
795.861	0.0160554
795.939	0.0160545
796.017	0.0162000
796.095	0.0162843
796.173	0.0163103
796.251	0.0161857
796.329	0.0161349
796.407	0.0164806
796.486	0.0164651
796.564	0.0163860
796.642	0.0163408
796.720	0.0165051
796.798	0.0163113
796.876	0.0162410
796.954	0.0165180
797.032	0.0164404
797.111	0.0164130
797.189	0.0165378
797.267	0.0164569
797.345	0.0163916
797.423	0.0165019
797.501	0.0165279
797.579	0.0164534
797.657	0.0164928
797.736	0.0164294
797.814	0.0164842
797.892	0.0165089
797.970	0.0165770
798.048	0.0165631
798.126	0.0163603
798.204	0.0163791
798.282	0.0165215
798.361	0.0164952
798.439	0.0165285
798.517	0.0164343
798.595	0.0164718
798.673	0.0166193
798.751	0.0164654
798.829	0.0164937
798.907	0.0163959
798.986	0.0163921
799.064	0.0164078
799.142	0.0164732
799.220	0.0164836
799.298	0.0163427
799.376	0.0162329
799.454	0.0161908
799.532	0.0162212
799.611	0.0162336
799.689	0.0161984
799.767	0.0161819
799.845	0.0161390
799.923	0.0161133
800.001	0.0161636
800.079	0.0161892
800.157	0.0160999
800.236	0.0161141
800.314	0.0161237
800.392	0.0161452
800.470	0.0162977
800.548	0.0162979
800.626	0.0161703
800.704	0.0161178
800.782	0.0162791
800.861	0.0163705
800.939	0.0163760
801.017	0.0164535
801.095	0.0162851
801.173	0.0163496
801.251	0.0162827
801.329	0.0161826
801.407	0.0163274
801.486	0.0161597
801.564	0.0162856
801.642	0.0162388
801.720	0.0163400
801.798	0.0163967
801.876	0.0162231
801.954	0.0162737
802.032	0.0162621
802.111	0.0161543
802.189	0.0162178
802.267	0.0162756
802.345	0.0164037
802.423	0.0164937
802.501	0.0164687
802.579	0.0163110
802.657	0.0162763
802.736	0.0163477
802.814	0.0165403
802.892	0.0164224
802.970	0.0164020
803.048	0.0164195
803.126	0.0165121
803.204	0.0164473
803.282	0.0163954
803.361	0.0163611
803.439	0.0163741
803.517	0.0162994
803.595	0.0164394
803.673	0.0163116
803.751	0.0163029
803.829	0.0162072
803.907	0.0161940
803.986	0.0162743
804.064	0.0161691
804.142	0.0162843
804.220	0.0161346
804.298	0.0161819
804.376	0.0162408
804.454	0.0162363
804.532	0.0162247
804.611	0.0162042
804.689	0.0162305
804.767	0.0163365
804.845	0.0162524
804.923	0.0161974
805.001	0.0164843
805.079	0.0163734
805.157	0.0164463
805.236	0.0164467
805.314	0.0164782
805.392	0.0164531
805.470	0.0163964
805.548	0.0165412
805.626	0.0163905
805.704	0.0164666
805.782	0.0164211
805.861	0.0162489
805.939	0.0164124
806.017	0.0163116
806.095	0.0163332
806.173	0.0164090
806.251	0.0162429
806.329	0.0162933
806.407	0.0164062
806.486	0.0163483
806.564	0.0163636
806.642	0.0164042
806.720	0.0163640
806.798	0.0162791
806.876	0.0162936
806.954	0.0162662
807.032	0.0164324
807.111	0.0164118
807.189	0.0162476
807.267	0.0164995
807.345	0.0163868
807.423	0.0163729
807.501	0.0165068
807.579	0.0164363
807.657	0.0164987
807.736	0.0164025
807.814	0.0165821
807.892	0.0165244
807.970	0.0165086
808.048	0.0164629
808.126	0.0165110
808.204	0.0165224
808.282	0.0164439
808.361	0.0164248
808.439	0.0162993
808.517	0.0161927
808.595	0.0162982
808.673	0.0163601
808.751	0.0162399
808.829	0.0160857
808.907	0.0162306
808.986	0.0160868
809.064	0.0162104
809.142	0.0161850
809.220	0.0160196
809.298	0.0158117
809.376	0.0158369
809.454	0.0159586
809.532	0.0159286
809.611	0.0159728
809.689	0.0158246
809.767	0.0159151
809.845	0.0160121
809.923	0.0159408
810.001	0.0160765
810.079	0.0161637
810.157	0.0163493
810.236	0.0162851
810.314	0.0163992
810.392	0.0163890
810.470	0.0164951
810.548	0.0166670
810.626	0.0166687
810.704	0.0167199
810.782	0.0168118
810.861	0.0168732
810.939	0.0168356
811.017	0.0168407
811.095	0.0167408
811.173	0.0168658
811.251	0.0168108
811.329	0.0167725
811.407	0.0168182
811.486	0.0166398
811.564	0.0166577
811.642	0.0165226
811.720	0.0165175
811.798	0.0162602
811.876	0.0163098
811.954	0.0162564
812.032	0.0162491
812.111	0.0160426
812.189	0.0160060
812.267	0.0159604
812.345	0.0157840
812.423	0.0159053
812.501	0.0159110
812.579	0.0160511
812.657	0.0159510
812.736	0.0159502
812.814	0.0160249
812.892	0.0160886
812.970	0.0161690
813.048	0.0161568
813.126	0.0162252
813.204	0.0163932
813.282	0.0162662
813.361	0.0162807
813.439	0.0164101
813.517	0.0163504
813.595	0.0164349
813.673	0.0164408
813.751	0.0165789
813.829	0.0164465
813.907	0.0165129
813.986	0.0163956
814.064	0.0163930
814.142	0.0165156
814.220	0.0163600
814.298	0.0162433
814.376	0.0162446
814.454	0.0161330
814.532	0.0161837
814.611	0.0160388
814.689	0.0161719
814.767	0.0161472
814.845	0.0161462
814.923	0.0160706
815.001	0.0159019
815.079	0.0160622
815.157	0.0161618
815.236	0.0160983
815.314	0.0161474
815.392	0.0161458
815.470	0.0162324
815.548	0.0162305
815.626	0.0162331
815.704	0.0163757
815.782	0.0164553
815.861	0.0164265
815.939	0.0164872
816.017	0.0165076
816.095	0.0164633
816.173	0.0166028
816.251	0.0163531
816.329	0.0164761
816.407	0.0164918
816.486	0.0166129
816.564	0.0165066
816.642	0.0164539
816.720	0.0163832
816.798	0.0164272
816.876	0.0165285
816.954	0.0165185
817.032	0.0164156
817.111	0.0162384
817.189	0.0162570
817.267	0.0162917
817.345	0.0163583
817.423	0.0162666
817.501	0.0162145
817.579	0.0162868
817.657	0.0163998
817.736	0.0161895
817.814	0.0161286
817.892	0.0162289
817.970	0.0162743
818.048	0.0162647
818.126	0.0162727
818.204	0.0162527
818.282	0.0163197
818.361	0.0162965
818.439	0.0162576
818.517	0.0163111
818.595	0.0163270
818.673	0.0160836
818.751	0.0162817
818.829	0.0163040
818.907	0.0162224
818.986	0.0162355
819.064	0.0162374
819.142	0.0161137
819.220	0.0161663
819.298	0.0161735
819.376	0.0161703
819.454	0.0161843
819.532	0.0162212
819.611	0.0163574
819.689	0.0162032
819.767	0.0161446
819.845	0.0161178
819.923	0.0162002
820.001	0.0163175
820.079	0.0162354
820.157	0.0163698
820.236	0.0163678
820.314	0.0163302
820.392	0.0164519
820.470	0.0164672
820.548	0.0165782
820.626	0.0167126
820.704	0.0166689
820.782	0.0167918
820.861	0.0167020
820.939	0.0166376
821.017	0.0167906
821.095	0.0168037
821.173	0.0168266
821.251	0.0167125
821.329	0.0167154
821.407	0.0166500
821.486	0.0166471
821.564	0.0165263
821.642	0.0165105
821.720	0.0165190
821.798	0.0164487
821.876	0.0164716
821.954	0.0164262
822.032	0.0162897
822.111	0.0163333
822.189	0.0163483
822.267	0.0163142
822.345	0.0163503
822.423	0.0162996
822.501	0.0163504
822.579	0.0162260
822.657	0.0163619
822.736	0.0163757
822.814	0.0162469
822.892	0.0163989
822.970	0.0162409
823.048	0.0161964
823.126	0.0162256
823.204	0.0162515
823.282	0.0162668
823.361	0.0160860
823.439	0.0160480
823.517	0.0160701
823.595	0.0162276
823.673	0.0161243
823.751	0.0162032
823.829	0.0160764
823.907	0.0160266
823.986	0.0161303
824.064	0.0161114
824.142	0.0159844
824.220	0.0160799
824.298	0.0160956
824.376	0.0160722
824.454	0.0160695
824.532	0.0160630
824.611	0.0161078
824.689	0.0159856
824.767	0.0159299
824.845	0.0160024
824.923	0.0159266
825.001	0.0158733
825.079	0.0159016
825.157	0.0160053
825.236	0.0161632
825.314	0.0161740
825.392	0.0162088
825.470	0.0163354
825.548	0.0163841
825.626	0.0164922
825.704	0.0164862
825.782	0.0167847
825.861	0.0167359
825.939	0.0168255
826.017	0.0168630
826.095	0.0168284
826.173	0.0170382
826.251	0.0171357
826.329	0.0170024
826.407	0.0169932
826.486	0.0170318
826.564	0.0170112
826.642	0.0169434
826.720	0.0168787
826.798	0.0168041
826.876	0.0167700
826.954	0.0168307
827.032	0.0167077
827.111	0.0166572
827.189	0.0165720
827.267	0.0165255
827.345	0.0163931
827.423	0.0163622
827.501	0.0162413
827.579	0.0163371
827.657	0.0163561
827.736	0.0163245
827.814	0.0162342
827.892	0.0162393
827.970	0.0164095
828.048	0.0161107
828.126	0.0160270
828.204	0.0161385
828.282	0.0158929
828.361	0.0159785
828.439	0.0159115
828.517	0.0158752
828.595	0.0159558
828.673	0.0158704
828.751	0.0158681
828.829	0.0158932
828.907	0.0156260
828.986	0.0157738
829.064	0.0157532
829.142	0.0157123
829.220	0.0156838
829.298	0.0156966
829.376	0.0156677
829.454	0.0155850
829.532	0.0157578
829.611	0.0158521
829.689	0.0158649
829.767	0.0158617
829.845	0.0158248
829.923	0.0159988
830.001	0.0159444
830.079	0.0161186
830.157	0.0162177
830.236	0.0163171
830.314	0.0164426
830.392	0.0164718
830.470	0.0165191
830.548	0.0168103
830.626	0.0166963
830.704	0.0168762
830.782	0.0168726
830.861	0.0169810
830.939	0.0169992
831.017	0.0170763
831.095	0.0169507
831.173	0.0170197
831.251	0.0170742
831.329	0.0171120
831.407	0.0171686
831.486	0.0169737
831.564	0.0170857
831.642	0.0170979
831.720	0.0170231
831.798	0.0168892
831.876	0.0168636
831.954	0.0168739
832.032	0.0168240
832.111	0.0167345
832.189	0.0166340
832.267	0.0166726
832.345	0.0165273
832.423	0.0164494
832.501	0.0164699
832.579	0.0163263
832.657	0.0162727
832.736	0.0161854
832.814	0.0161886
832.892	0.0162017
832.970	0.0159833
833.048	0.0159218
833.126	0.0159354
833.204	0.0158540
833.282	0.0158603
833.361	0.0158806
833.439	0.0158006
833.517	0.0157965
833.595	0.0157523
833.673	0.0157613
833.751	0.0158411
833.829	0.0158309
833.907	0.0157368
833.986	0.0158184
834.064	0.0156876
834.142	0.0158079
834.220	0.0158865
834.298	0.0160349
834.376	0.0158067
834.454	0.0160694
834.532	0.0160947
834.611	0.0160639
834.689	0.0161187
834.767	0.0161486
834.845	0.0160889
834.923	0.0161776
835.001	0.0162836
835.079	0.0163057
835.157	0.0163889
835.236	0.0165289
835.314	0.0164429
835.392	0.0164095
835.470	0.0166422
835.548	0.0167320
835.626	0.0167314
835.704	0.0167402
835.782	0.0166176
835.861	0.0166801
835.939	0.0168681
836.017	0.0168070
836.095	0.0168480
836.173	0.0168686
836.251	0.0168295
836.329	0.0168468
836.407	0.0167531
836.486	0.0167764
836.564	0.0168771
836.642	0.0168583
836.720	0.0168105
836.798	0.0167384
836.876	0.0168946
836.954	0.0168121
837.032	0.0166339
837.111	0.0164117
837.189	0.0165196
837.267	0.0165529
837.345	0.0163564
837.423	0.0162819
837.501	0.0162187
837.579	0.0161907
837.657	0.0160708
837.736	0.0160347
837.814	0.0161079
837.892	0.0160866
837.970	0.0159874
838.048	0.0159824
838.126	0.0159622
838.204	0.0160642
838.282	0.0161002
838.361	0.0161687
838.439	0.0161192
838.517	0.0160995
838.595	0.0163708
838.673	0.0161060
838.751	0.0163138
838.829	0.0163001
838.907	0.0163876
838.986	0.0164912
839.064	0.0166076
839.142	0.0165578
839.220	0.0164645
839.298	0.0164371
839.376	0.0163752
839.454	0.0165327
839.532	0.0164603
839.611	0.0164107
839.689	0.0162765
839.767	0.0163168
839.845	0.0163531
839.923	0.0163474
840.001	0.0160848
840.079	0.0161526
840.157	0.0161670
840.236	0.0160138
840.314	0.0159092
840.392	0.0161569
840.470	0.0160559
840.548	0.0159617
840.626	0.0161686
840.704	0.0160632
840.782	0.0160900
840.861	0.0161898
840.939	0.0161320
841.017	0.0160846
841.095	0.0162688
841.173	0.0161108
841.251	0.0163149
841.329	0.0162733
841.407	0.0162297
841.486	0.0161627
841.564	0.0162812
841.642	0.0162234
841.720	0.0163088
841.798	0.0163561
841.876	0.0163071
841.954	0.0164127
842.032	0.0163313
842.111	0.0163805
842.189	0.0163821
842.267	0.0163364
842.345	0.0163070
842.423	0.0164446
842.501	0.0163551
842.579	0.0164895
842.657	0.0166111
842.736	0.0164183
842.814	0.0167048
842.892	0.0165568
842.970	0.0165196
843.048	0.0165246
843.126	0.0166802
843.204	0.0164693
843.282	0.0166486
843.361	0.0166676
843.439	0.0165501
843.517	0.0166972
843.595	0.0168773
843.673	0.0166851
843.751	0.0167819
843.829	0.0168367
843.907	0.0168783
843.986	0.0169899
844.064	0.0168294
844.142	0.0167613
844.220	0.0168050
844.298	0.0167651
844.376	0.0168194
844.454	0.0167261
844.532	0.0166044
844.611	0.0166710
844.689	0.0166000
844.767	0.0165071
844.845	0.0162958
844.923	0.0164023
845.001	0.0163066
845.079	0.0161752
845.157	0.0160629
845.236	0.0160458
845.314	0.0159116
845.392	0.0159119
845.470	0.0160025
845.548	0.0159007
845.626	0.0158861
845.704	0.0159698
845.782	0.0158471
845.861	0.0158363
845.939	0.0158769
846.017	0.0158550
846.095	0.0159025
846.173	0.0158508
846.251	0.0158906
846.329	0.0160272
846.407	0.0160467
846.486	0.0159610
846.564	0.0160567
846.642	0.0161426
846.720	0.0162634
846.798	0.0162532
846.876	0.0163254
846.954	0.0163475
847.032	0.0163461
847.111	0.0163814
847.189	0.0165288
847.267	0.0164627
847.345	0.0164851
847.423	0.0166657
847.501	0.0167215
847.579	0.0166246
847.657	0.0167184
847.736	0.0167101
847.814	0.0167597
847.892	0.0167177
847.970	0.0166122
848.048	0.0167151
848.126	0.0166703
848.204	0.0165985
848.282	0.0166352
848.361	0.0165219
848.439	0.0165330
848.517	0.0165099
848.595	0.0165155
848.673	0.0163729
848.751	0.0165222
848.829	0.0165086
848.907	0.0165295
848.986	0.0164309
849.064	0.0165495
849.142	0.0164505
849.220	0.0163515
849.298	0.0163425
849.376	0.0161855
849.454	0.0161646
849.532	0.0161784
849.611	0.0161842
849.689	0.0162732
849.767	0.0161761
849.845	0.0162146
849.923	0.0161565
850.001	0.0160882
850.079	0.0161350
850.157	0.0160854
850.236	0.0161743
850.314	0.0162328
850.392	0.0162566
850.470	0.0163512
850.548	0.0163976
850.626	0.0165276
850.704	0.0165054
850.782	0.0165939
850.861	0.0166026
850.939	0.0168085
851.017	0.0167576
851.095	0.0167122
851.173	0.0169157
851.251	0.0169200
851.329	0.0167651
851.407	0.0168298
851.486	0.0169726
851.564	0.0167680
851.642	0.0167148
851.720	0.0166103
851.798	0.0167542
851.876	0.0167690
851.954	0.0165929
852.032	0.0163261
852.111	0.0164910
852.189	0.0164242
852.267	0.0161041
852.345	0.0162296
852.423	0.0162344
852.501	0.0161750
852.579	0.0161971
852.657	0.0160349
852.736	0.0160722
852.814	0.0159829
852.892	0.0160765
852.970	0.0159460
853.048	0.0160557
853.126	0.0159660
853.204	0.0159133
853.282	0.0158329
853.361	0.0159936
853.439	0.0161323
853.517	0.0160332
853.595	0.0161002
853.673	0.0161359
853.751	0.0160527
853.829	0.0160137
853.907	0.0159159
853.986	0.0160238
854.064	0.0160688
854.142	0.0159116
854.220	0.0159629
854.298	0.0160936
854.376	0.0160812
854.454	0.0161309
854.532	0.0159840
854.611	0.0161565
854.689	0.0162210
854.767	0.0161958
854.845	0.0162628
854.923	0.0164082
855.001	0.0165703
855.079	0.0162901
855.157	0.0162669
855.236	0.0165130
855.314	0.0163949
855.392	0.0164358
855.470	0.0165283
855.548	0.0165314
855.626	0.0162601
855.704	0.0165202
855.782	0.0165003
855.861	0.0166302
855.939	0.0165259
856.017	0.0165699
856.095	0.0165936
856.173	0.0167769
856.251	0.0166540
856.329	0.0166121
856.407	0.0166822
856.486	0.0167020
856.564	0.0166829
856.642	0.0167774
856.720	0.0170063
856.798	0.0170411
856.876	0.0168605
856.954	0.0169646
857.032	0.0170573
857.111	0.0170365
857.189	0.0169276
857.267	0.0170632
857.345	0.0172166
857.423	0.0171150
857.501	0.0166645
857.579	0.0167916
857.657	0.0168529
857.736	0.0166893
857.814	0.0165898
857.892	0.0165186
857.970	0.0163318
858.048	0.0162403
858.126	0.0164967
858.204	0.0163392
858.282	0.0161187
858.361	0.0161440
858.439	0.0158894
858.517	0.0158701
858.595	0.0158709
858.673	0.0159030
858.751	0.0158429
858.829	0.0156322
858.907	0.0157158
858.986	0.0158192
859.064	0.0156503
859.142	0.0155815
859.220	0.0157426
859.298	0.0155041
859.376	0.0157356
859.454	0.0158114
859.532	0.0156521
859.611	0.0157232
859.689	0.0158250
859.767	0.0157035
859.845	0.0157475
859.923	0.0159325
860.001	0.0159921
860.079	0.0159781
860.157	0.0160622
860.236	0.0160981
860.314	0.0160909
860.392	0.0161147
860.470	0.0162775
860.548	0.0163782
860.626	0.0165062
860.704	0.0164160
860.782	0.0163953
860.861	0.0164999
860.939	0.0164774
861.017	0.0166383
861.095	0.0166129
861.173	0.0167862
861.251	0.0166985
861.329	0.0169266
861.407	0.0167664
861.486	0.0169738
861.564	0.0168974
861.642	0.0167892
861.720	0.0170172
861.798	0.0168771
861.876	0.0169170
861.954	0.0169191
862.032	0.0168458
862.111	0.0169846
862.189	0.0169001
862.267	0.0169051
862.345	0.0168223
862.423	0.0168575
862.501	0.0168098
862.579	0.0167846
862.657	0.0165584
862.736	0.0167117
862.814	0.0167651
862.892	0.0167434
862.970	0.0166273
863.048	0.0166368
863.126	0.0165491
863.204	0.0166478
863.282	0.0165933
863.361	0.0165297
863.439	0.0164864
863.517	0.0164697
863.595	0.0164276
863.673	0.0163383
863.751	0.0162489
863.829	0.0162920
863.907	0.0162293
863.986	0.0159973
864.064	0.0158968
864.142	0.0161289
864.220	0.0159013
864.298	0.0159099
864.376	0.0158953
864.454	0.0157622
864.532	0.0159760
864.611	0.0158102
864.689	0.0158889
864.767	0.0158253
864.845	0.0157536
864.923	0.0157570
865.001	0.0158640
865.079	0.0158207
865.157	0.0158978
865.236	0.0158112
865.314	0.0159586
865.392	0.0159512
865.470	0.0159156
865.548	0.0161586
865.626	0.0162078
865.704	0.0160550
865.782	0.0161823
865.861	0.0163392
865.939	0.0162842
866.017	0.0164445
866.095	0.0163338
866.173	0.0164716
866.251	0.0165211
866.329	0.0165095
866.407	0.0165436
866.486	0.0166531
866.564	0.0167075
866.642	0.0167043
866.720	0.0164397
866.798	0.0166548
866.876	0.0166630
866.954	0.0166199
867.032	0.0166299
867.111	0.0166793
867.189	0.0165707
867.267	0.0164574
867.345	0.0165491
867.423	0.0166218
867.501	0.0166479
867.579	0.0165007
867.657	0.0164459
867.736	0.0165841
867.814	0.0163208
867.892	0.0166539
867.970	0.0164331
868.048	0.0164532
868.126	0.0164862
868.204	0.0165529
868.282	0.0164665
868.361	0.0163570
868.439	0.0165750
868.517	0.0165585
868.595	0.0164900
868.673	0.0165118
868.751	0.0164909
868.829	0.0164587
868.907	0.0164613
868.986	0.0163518
869.064	0.0164895
869.142	0.0163918
869.220	0.0165338
869.298	0.0164207
869.376	0.0164256
869.454	0.0163751
869.532	0.0162782
869.611	0.0164595
869.689	0.0165647
869.767	0.0165514
869.845	0.0164877
869.923	0.0163947
870.001	0.0164252
870.079	0.0164741
870.157	0.0163566
870.236	0.0164042
870.314	0.0163798
870.392	0.0165239
870.470	0.0165064
870.548	0.0164377
870.626	0.0165929
870.704	0.0164468
870.782	0.0163288
870.861	0.0164541
870.939	0.0164465
871.017	0.0164999
871.095	0.0163774
871.173	0.0163954
871.251	0.0163813
871.329	0.0164639
871.407	0.0162352
871.486	0.0163249
871.564	0.0163246
871.642	0.0163222
871.720	0.0161263
871.798	0.0162058
871.876	0.0161821
871.954	0.0161353
872.032	0.0161949
872.111	0.0161137
872.189	0.0160799
872.267	0.0162287
872.345	0.0162124
872.423	0.0160983
872.501	0.0161127
872.579	0.0162058
872.657	0.0162548
872.736	0.0162098
872.814	0.0162811
872.892	0.0163350
872.970	0.0163034
873.048	0.0163400
873.126	0.0163849
873.204	0.0163005
873.282	0.0163000
873.361	0.0163977
873.439	0.0164623
873.517	0.0163628
873.595	0.0163197
873.673	0.0164302
873.751	0.0164047
873.829	0.0164219
873.907	0.0163375
873.986	0.0165037
874.064	0.0163841
874.142	0.0163986
874.220	0.0164767
874.298	0.0163266
874.376	0.0163840
874.454	0.0164494
874.532	0.0164835
874.611	0.0165301
874.689	0.0164181
874.767	0.0164534
874.845	0.0164594
874.923	0.0165113
875.001	0.0166116
875.079	0.0164196
875.157	0.0164567
875.236	0.0165791
875.314	0.0165912
875.392	0.0165823
875.470	0.0165858
875.548	0.0167216
875.626	0.0165279
875.704	0.0165240
875.782	0.0165860
875.861	0.0165577
875.939	0.0165649
876.017	0.0165318
876.095	0.0163443
876.173	0.0164870
876.251	0.0164191
876.329	0.0165369
876.407	0.0165130
876.486	0.0162387
876.564	0.0163374
876.642	0.0163204
876.720	0.0164067
876.798	0.0162292
876.876	0.0162774
876.954	0.0163904
877.032	0.0162639
877.111	0.0162154
877.189	0.0163164
877.267	0.0161085
877.345	0.0162426
877.423	0.0162106
877.501	0.0161216
877.579	0.0160744
877.657	0.0160850
877.736	0.0162012
877.814	0.0161861
877.892	0.0161024
877.970	0.0160141
878.048	0.0159584
878.126	0.0160528
878.204	0.0160522
878.282	0.0159501
878.361	0.0160055
878.439	0.0160370
878.517	0.0161109
878.595	0.0159857
878.673	0.0162971
878.751	0.0160407
878.829	0.0162450
878.907	0.0164603
878.986	0.0165105
879.064	0.0166119
879.142	0.0164927
879.220	0.0165480
879.298	0.0166689
879.376	0.0165500
879.454	0.0164940
879.532	0.0165199
879.611	0.0164440
879.689	0.0162868
879.767	0.0162289
879.845	0.0162560
879.923	0.0162716
880.001	0.0163594
880.079	0.0162902
880.157	0.0163025
880.236	0.0165096
880.314	0.0165077
880.392	0.0166753
880.470	0.0167912
880.548	0.0169135
880.626	0.0167375
880.704	0.0168134
880.782	0.0167276
880.861	0.0168657
880.939	0.0167691
881.017	0.0166010
881.095	0.0165939
881.173	0.0165843
881.251	0.0164890
881.329	0.0163778
881.407	0.0163136
881.486	0.0162473
881.564	0.0162617
881.642	0.0164258
881.720	0.0162645
881.798	0.0163178
881.876	0.0162547
881.954	0.0162363
882.032	0.0161523
882.111	0.0161420
882.189	0.0162370
882.267	0.0161395
882.345	0.0160448
882.423	0.0162099
882.501	0.0161127
882.579	0.0159322
882.657	0.0161637
882.736	0.0160630
882.814	0.0159506
882.892	0.0160723
882.970	0.0160426
883.048	0.0161507
883.126	0.0163002
883.204	0.0161426
883.282	0.0163445
883.361	0.0161832
883.439	0.0161887
883.517	0.0163317
883.595	0.0164848
883.673	0.0166177
883.751	0.0164901
883.829	0.0166049
883.907	0.0166622
883.986	0.0167466
884.064	0.0166870
884.142	0.0167259
884.220	0.0166771
884.298	0.0167191
884.376	0.0166303
884.454	0.0166418
884.532	0.0165379
884.611	0.0164763
884.689	0.0163421
884.767	0.0164893
884.845	0.0163470
884.923	0.0162724
885.001	0.0162215
885.079	0.0161594
885.157	0.0163593
885.236	0.0163181
885.314	0.0162475
885.392	0.0161959
885.470	0.0162419
885.548	0.0162752
885.626	0.0161993
885.704	0.0162579
885.782	0.0162659
885.861	0.0162442
885.939	0.0163910
886.017	0.0164908
886.095	0.0162901
886.173	0.0161240
886.251	0.0163824
886.329	0.0162753
886.407	0.0163952
886.486	0.0163113
886.564	0.0163382
886.642	0.0163835
886.720	0.0162640
886.798	0.0163150
886.876	0.0164272
886.954	0.0164478
887.032	0.0165730
887.111	0.0164365
887.189	0.0165802
887.267	0.0165504
887.345	0.0165932
887.423	0.0166035
887.501	0.0166002
887.579	0.0166055
887.657	0.0164211
887.736	0.0165162
887.814	0.0166521
887.892	0.0165801
887.970	0.0165823
888.048	0.0166377
888.126	0.0164818
888.204	0.0163383
888.282	0.0165087
888.361	0.0164902
888.439	0.0163402
888.517	0.0163317
888.595	0.0164356
888.673	0.0162618
888.751	0.0162914
888.829	0.0161507
888.907	0.0162698
888.986	0.0161800
889.064	0.0161597
889.142	0.0161621
889.220	0.0161448
889.298	0.0161607
889.376	0.0162708
889.454	0.0162574
889.532	0.0163287
889.611	0.0161550
889.689	0.0162949
889.767	0.0163153
889.845	0.0162231
889.923	0.0162341
890.001	0.0162814
890.079	0.0162276
890.157	0.0165096
890.236	0.0164357
890.314	0.0164109
890.392	0.0164130
890.470	0.0164935
890.548	0.0164843
890.626	0.0164911
890.704	0.0166793
890.782	0.0167461
890.861	0.0164838
890.939	0.0165086
891.017	0.0165993
891.095	0.0163771
891.173	0.0164713
891.251	0.0167049
891.329	0.0164246
891.407	0.0163406
891.486	0.0163692
891.564	0.0163990
891.642	0.0163195
891.720	0.0164513
891.798	0.0163462
891.876	0.0163299
891.954	0.0165804
892.032	0.0165497
892.111	0.0164458
892.189	0.0165438
892.267	0.0165051
892.345	0.0164861
892.423	0.0165639
892.501	0.0165446
892.579	0.0165116
892.657	0.0164213
892.736	0.0164220
892.814	0.0165059
892.892	0.0163548
892.970	0.0163879
893.048	0.0163513
893.126	0.0163118
893.204	0.0163799
893.282	0.0163091
893.361	0.0161884
893.439	0.0160886
893.517	0.0163166
893.595	0.0161547
893.673	0.0161138
893.751	0.0161388
893.829	0.0162666
893.907	0.0162492
893.986	0.0160708
894.064	0.0161306
894.142	0.0162247
894.220	0.0162627
894.298	0.0161935
894.376	0.0160450
894.454	0.0161292
894.532	0.0161213
894.611	0.0161166
894.689	0.0162120
894.767	0.0163410
894.845	0.0163830
894.923	0.0162232
895.001	0.0163564
895.079	0.0164304
895.157	0.0163891
895.236	0.0163618
895.314	0.0163889
895.392	0.0165919
895.470	0.0165128
895.548	0.0164200
895.626	0.0164146
895.704	0.0163792
895.782	0.0164539
895.861	0.0166113
895.939	0.0164922
896.017	0.0163805
896.095	0.0166130
896.173	0.0164876
896.251	0.0164107
896.329	0.0165420
896.407	0.0164508
896.486	0.0163046
896.564	0.0165649
896.642	0.0165720
896.720	0.0164555
896.798	0.0165202
896.876	0.0162738
896.954	0.0162946
897.032	0.0163931
897.111	0.0163420
897.189	0.0164197
897.267	0.0163428
897.345	0.0162846
897.423	0.0163371
897.501	0.0162492
897.579	0.0162868
897.657	0.0164542
897.736	0.0162387
897.814	0.0163737
897.892	0.0163720
897.970	0.0164079
898.048	0.0163221
898.126	0.0163251
898.204	0.0162900
898.282	0.0163688
898.361	0.0163506
898.439	0.0162549
898.517	0.0163957
898.595	0.0163454
898.673	0.0163261
898.751	0.0163536
898.829	0.0163970
898.907	0.0163695
898.986	0.0162920
899.064	0.0164685
899.142	0.0163864
899.220	0.0163711
899.298	0.0163046
899.376	0.0163334
899.454	0.0162846
899.532	0.0162998
899.611	0.0163427
899.689	0.0162691
899.767	0.0163520
899.845	0.0165063
899.923	0.0164315
