05/24/2022	20:46:37	Ver.	4.1	UNKNOWN
Optical Delay	599.981738	Delta X		0.078125	Sweeps	1	Scan Rate	0/0
Coordinates	Axis 1	NaN	Axis 2	NaN	Axis 3	NaN	Axis 4	NaN	Axis 5	NaN	Axis 6	0.000000
TX Power	0.000000	RX Power	0.000000

599.982	0.0160913
600.060	0.0160989
600.138	0.0160583
600.216	0.0159751
600.294	0.0160003
600.372	0.0159911
600.450	0.0161071
600.529	0.0160056
600.607	0.0159866
600.685	0.0159737
600.763	0.0159499
600.841	0.0160145
600.919	0.0160069
600.997	0.0159119
601.075	0.0160140
601.154	0.0158469
601.232	0.0161555
601.310	0.0159840
601.388	0.0159750
601.466	0.0160143
601.544	0.0160201
601.622	0.0160963
601.700	0.0159562
601.779	0.0161555
601.857	0.0160144
601.935	0.0160971
602.013	0.0162034
602.091	0.0161131
602.169	0.0161200
602.247	0.0161068
602.325	0.0160854
602.404	0.0160699
602.482	0.0162067
602.560	0.0160915
602.638	0.0159837
602.716	0.0162005
602.794	0.0162111
602.872	0.0162160
602.950	0.0161532
603.029	0.0161893
603.107	0.0161170
603.185	0.0160529
603.263	0.0161080
603.341	0.0160516
603.419	0.0160030
603.497	0.0160127
603.575	0.0160342
603.654	0.0160305
603.732	0.0161070
603.810	0.0161770
603.888	0.0159788
603.966	0.0160410
604.044	0.0160013
604.122	0.0161140
604.200	0.0162687
604.279	0.0160908
604.357	0.0161156
604.435	0.0161777
604.513	0.0160576
604.591	0.0159830
604.669	0.0161806
604.747	0.0160811
604.825	0.0159132
604.904	0.0160219
604.982	0.0163036
605.060	0.0161191
605.138	0.0160963
605.216	0.0161318
605.294	0.0160196
605.372	0.0160500
605.450	0.0161271
605.529	0.0161474
605.607	0.0161241
605.685	0.0161858
605.763	0.0161624
605.841	0.0162062
605.919	0.0161940
605.997	0.0160440
606.075	0.0162299
606.154	0.0162630
606.232	0.0163100
606.310	0.0162089
606.388	0.0161377
606.466	0.0161675
606.544	0.0161401
606.622	0.0161565
606.700	0.0160877
606.779	0.0161366
606.857	0.0160683
606.935	0.0159282
607.013	0.0160201
607.091	0.0159872
607.169	0.0160072
607.247	0.0159893
607.325	0.0160468
607.404	0.0159154
607.482	0.0159462
607.560	0.0159773
607.638	0.0159318
607.716	0.0160060
607.794	0.0160383
607.872	0.0158840
607.950	0.0160792
608.029	0.0158990
608.107	0.0159179
608.185	0.0158956
608.263	0.0159521
608.341	0.0160165
608.419	0.0160130
608.497	0.0159182
608.575	0.0159427
608.654	0.0160863
608.732	0.0160119
608.810	0.0158955
608.888	0.0158305
608.966	0.0160690
609.044	0.0161940
609.122	0.0159890
609.200	0.0159496
609.279	0.0160348
609.357	0.0160353
609.435	0.0159907
609.513	0.0160040
609.591	0.0158992
609.669	0.0159959
609.747	0.0159629
609.825	0.0160786
609.904	0.0161771
609.982	0.0161864
610.060	0.0160469
610.138	0.0159949
610.216	0.0160638
610.294	0.0160770
610.372	0.0161633
610.450	0.0160603
610.529	0.0161757
610.607	0.0161526
610.685	0.0161449
610.763	0.0160858
610.841	0.0160765
610.919	0.0160398
610.997	0.0159801
611.075	0.0161678
611.154	0.0160106
611.232	0.0159633
611.310	0.0160303
611.388	0.0160171
611.466	0.0160224
611.544	0.0159091
611.622	0.0160545
611.700	0.0159748
611.779	0.0158416
611.857	0.0159050
611.935	0.0159509
612.013	0.0160548
612.091	0.0159306
612.169	0.0159686
612.247	0.0159605
612.325	0.0158894
612.404	0.0159797
612.482	0.0160433
612.560	0.0160459
612.638	0.0160203
612.716	0.0159447
612.794	0.0159428
612.872	0.0159232
612.950	0.0160209
613.029	0.0160350
613.107	0.0161018
613.185	0.0161640
613.263	0.0159906
613.341	0.0162312
613.419	0.0160312
613.497	0.0161579
613.575	0.0162314
613.654	0.0160108
613.732	0.0160831
613.810	0.0160932
613.888	0.0161192
613.966	0.0162102
614.044	0.0160926
614.122	0.0160898
614.200	0.0160736
614.279	0.0160218
614.357	0.0160445
614.435	0.0162567
614.513	0.0161398
614.591	0.0161586
614.669	0.0161465
614.747	0.0159985
614.825	0.0160412
614.904	0.0161664
614.982	0.0159956
615.060	0.0159648
615.138	0.0158849
615.216	0.0158823
615.294	0.0160892
615.372	0.0160312
615.450	0.0159315
615.529	0.0160785
615.607	0.0160676
615.685	0.0159863
615.763	0.0160337
615.841	0.0159987
615.919	0.0161098
615.997	0.0161668
616.075	0.0161780
616.154	0.0161777
616.232	0.0162478
616.310	0.0162949
616.388	0.0160594
616.466	0.0162485
616.544	0.0161449
616.622	0.0161545
616.700	0.0161220
616.779	0.0162089
616.857	0.0161070
616.935	0.0162507
617.013	0.0160444
617.091	0.0161391
617.169	0.0160987
617.247	0.0162118
617.325	0.0161600
617.404	0.0162113
617.482	0.0163232
617.560	0.0163140
617.638	0.0162444
617.716	0.0164171
617.794	0.0161714
617.872	0.0161276
617.950	0.0161693
618.029	0.0161179
618.107	0.0161620
618.185	0.0161198
618.263	0.0162558
618.341	0.0161104
618.419	0.0160854
618.497	0.0160666
618.575	0.0160300
618.654	0.0161927
618.732	0.0161437
618.810	0.0161006
618.888	0.0161496
618.966	0.0160004
619.044	0.0160011
619.122	0.0159586
619.200	0.0160551
619.279	0.0159367
619.357	0.0158656
619.435	0.0157829
619.513	0.0156931
619.591	0.0156464
619.669	0.0155339
619.747	0.0154089
619.825	0.0153343
619.904	0.0154195
619.982	0.0154128
620.060	0.0153831
620.138	0.0155261
620.216	0.0156046
620.294	0.0156026
620.372	0.0157914
620.450	0.0158952
620.529	0.0160516
620.607	0.0162980
620.685	0.0164165
620.763	0.0165208
620.841	0.0166198
620.919	0.0168053
620.997	0.0169779
621.075	0.0169650
621.154	0.0170227
621.232	0.0171442
621.310	0.0170399
621.388	0.0169621
621.466	0.0169742
621.544	0.0168801
621.622	0.0167900
621.700	0.0166557
621.779	0.0165061
621.857	0.0165216
621.935	0.0163673
622.013	0.0161832
622.091	0.0161072
622.169	0.0160620
622.247	0.0159748
622.325	0.0157471
622.404	0.0155748
622.482	0.0156116
622.560	0.0155626
622.638	0.0153399
622.716	0.0152737
622.794	0.0153249
622.872	0.0151278
622.950	0.0151123
623.029	0.0150370
623.107	0.0149190
623.185	0.0150553
623.263	0.0150018
623.341	0.0152312
623.419	0.0151875
623.497	0.0153437
623.575	0.0154608
623.654	0.0155927
623.732	0.0157493
623.810	0.0157456
623.888	0.0159826
623.966	0.0161543
624.044	0.0163487
624.122	0.0166840
624.200	0.0165872
624.279	0.0168946
624.357	0.0168628
624.435	0.0170811
624.513	0.0170497
624.591	0.0171928
624.669	0.0172862
624.747	0.0172810
624.825	0.0171638
624.904	0.0172796
624.982	0.0172601
625.060	0.0173016
625.138	0.0172178
625.216	0.0169849
625.294	0.0169474
625.372	0.0168186
625.450	0.0166578
625.529	0.0165459
625.607	0.0163798
625.685	0.0162756
625.763	0.0161729
625.841	0.0160093
625.919	0.0158473
625.997	0.0156212
626.075	0.0155834
626.154	0.0157096
626.232	0.0155652
626.310	0.0152100
626.388	0.0151999
626.466	0.0150280
626.544	0.0150776
626.622	0.0149774
626.700	0.0149568
626.779	0.0148876
626.857	0.0147579
626.935	0.0146597
627.013	0.0145080
627.091	0.0145139
627.169	0.0145374
627.247	0.0145087
627.325	0.0146539
627.404	0.0146294
627.482	0.0147197
627.560	0.0148624
627.638	0.0150574
627.716	0.0153117
627.794	0.0154144
627.872	0.0156868
627.950	0.0158475
628.029	0.0161231
628.107	0.0164120
628.185	0.0166505
628.263	0.0168748
628.341	0.0172201
628.419	0.0173325
628.497	0.0176802
628.575	0.0177793
628.654	0.0180492
628.732	0.0181783
628.810	0.0183640
628.888	0.0184483
628.966	0.0186060
629.044	0.0184172
629.122	0.0185822
629.200	0.0185278
629.279	0.0183533
629.357	0.0182793
629.435	0.0180176
629.513	0.0177359
629.591	0.0175592
629.669	0.0172527
629.747	0.0168202
629.825	0.0164330
629.904	0.0161119
629.982	0.0158520
630.060	0.0154696
630.138	0.0150864
630.216	0.0148538
630.294	0.0145349
630.372	0.0141494
630.450	0.0140031
630.529	0.0137956
630.607	0.0136388
630.685	0.0136277
630.763	0.0133411
630.841	0.0133564
630.919	0.0133311
630.997	0.0131535
631.075	0.0131115
631.154	0.0130920
631.232	0.0131524
631.310	0.0132774
631.388	0.0132809
631.466	0.0134122
631.544	0.0137637
631.622	0.0139659
631.700	0.0141722
631.779	0.0144710
631.857	0.0150230
631.935	0.0152097
632.013	0.0155883
632.091	0.0159701
632.169	0.0163577
632.247	0.0167667
632.325	0.0171930
632.404	0.0172043
632.482	0.0175659
632.560	0.0178180
632.638	0.0179272
632.716	0.0182607
632.794	0.0184441
632.872	0.0184313
632.950	0.0186053
633.029	0.0185933
633.107	0.0185649
633.185	0.0185207
633.263	0.0188100
633.341	0.0186881
633.419	0.0184856
633.497	0.0185427
633.575	0.0183875
633.654	0.0183594
633.732	0.0180813
633.810	0.0178919
633.888	0.0176281
633.966	0.0172659
634.044	0.0172174
634.122	0.0167892
634.200	0.0164823
634.279	0.0161240
634.357	0.0156688
634.435	0.0153688
634.513	0.0149547
634.591	0.0146638
634.669	0.0142632
634.747	0.0140023
634.825	0.0137423
634.904	0.0136375
634.982	0.0133021
635.060	0.0131072
635.138	0.0131416
635.216	0.0130766
635.294	0.0130666
635.372	0.0130463
635.450	0.0131813
635.529	0.0133659
635.607	0.0133703
635.685	0.0135474
635.763	0.0138969
635.841	0.0142128
635.919	0.0143545
635.997	0.0147296
636.075	0.0150542
636.154	0.0152923
636.232	0.0156880
636.310	0.0160777
636.388	0.0164452
636.466	0.0167701
636.544	0.0171741
636.622	0.0173371
636.700	0.0175356
636.779	0.0177940
636.857	0.0177898
636.935	0.0180698
637.013	0.0181967
637.091	0.0181441
637.169	0.0181757
637.247	0.0181841
637.325	0.0181649
637.404	0.0180946
637.482	0.0180813
637.560	0.0180226
637.638	0.0180240
637.716	0.0179376
637.794	0.0178751
637.872	0.0178417
637.950	0.0175697
638.029	0.0175228
638.107	0.0172710
638.185	0.0170240
638.263	0.0168026
638.341	0.0166448
638.419	0.0164057
638.497	0.0162138
638.575	0.0160033
638.654	0.0156251
638.732	0.0156693
638.810	0.0155526
638.888	0.0154533
638.966	0.0153741
639.044	0.0153441
639.122	0.0153333
639.200	0.0153657
639.279	0.0154056
639.357	0.0153538
639.435	0.0153674
639.513	0.0154426
639.591	0.0152712
639.669	0.0152507
639.747	0.0151946
639.825	0.0152825
639.904	0.0153006
639.982	0.0153450
640.060	0.0153204
640.138	0.0154437
640.216	0.0153942
640.294	0.0153173
640.372	0.0156633
640.450	0.0158125
640.529	0.0157130
640.607	0.0158577
640.685	0.0158438
640.763	0.0158884
640.841	0.0158730
640.919	0.0159232
640.997	0.0159749
641.075	0.0158848
641.154	0.0159067
641.232	0.0156451
641.310	0.0157437
641.388	0.0156841
641.466	0.0156543
641.544	0.0156647
641.622	0.0155803
641.700	0.0156399
641.779	0.0156104
641.857	0.0155649
641.935	0.0155844
642.013	0.0158623
642.091	0.0158852
642.169	0.0160129
642.247	0.0161911
642.325	0.0162328
642.404	0.0164433
642.482	0.0165385
642.560	0.0165546
642.638	0.0166808
642.716	0.0166891
642.794	0.0166155
642.872	0.0166979
642.950	0.0166579
643.029	0.0165633
643.107	0.0164548
643.185	0.0165748
643.263	0.0165431
643.341	0.0164603
643.419	0.0164606
643.497	0.0164349
643.575	0.0165274
643.654	0.0166035
643.732	0.0167458
643.810	0.0166891
643.888	0.0168073
643.966	0.0168252
644.044	0.0169524
644.122	0.0169882
644.200	0.0168053
644.279	0.0169035
644.357	0.0169613
644.435	0.0168813
644.513	0.0168530
644.591	0.0166178
644.669	0.0167105
644.747	0.0166259
644.825	0.0165287
644.904	0.0164655
644.982	0.0163671
645.060	0.0163599
645.138	0.0163831
645.216	0.0164153
645.294	0.0163233
645.372	0.0164045
645.450	0.0162950
645.529	0.0163471
645.607	0.0161720
645.685	0.0162302
645.763	0.0159509
645.841	0.0157819
645.919	0.0156257
645.997	0.0156020
646.075	0.0152261
646.154	0.0149669
646.232	0.0149297
646.310	0.0147982
646.388	0.0144539
646.466	0.0144477
646.544	0.0143216
646.622	0.0141646
646.700	0.0142245
646.779	0.0142103
646.857	0.0140330
646.935	0.0138641
647.013	0.0138902
647.091	0.0140053
647.169	0.0140198
647.247	0.0140347
647.325	0.0142045
647.404	0.0144759
647.482	0.0145334
647.560	0.0147884
647.638	0.0151406
647.716	0.0153849
647.794	0.0158283
647.872	0.0162160
647.950	0.0165070
648.029	0.0169970
648.107	0.0173646
648.185	0.0175227
648.263	0.0178642
648.341	0.0184261
648.419	0.0185416
648.497	0.0188060
648.575	0.0189674
648.654	0.0189578
648.732	0.0190662
648.810	0.0190260
648.888	0.0190587
648.966	0.0190145
649.044	0.0187731
649.122	0.0185732
649.200	0.0184838
649.279	0.0183067
649.357	0.0179919
649.435	0.0177299
649.513	0.0175294
649.591	0.0173357
649.669	0.0169477
649.747	0.0165276
649.825	0.0159139
649.904	0.0156869
649.982	0.0154253
650.060	0.0149637
650.138	0.0144533
650.216	0.0139797
650.294	0.0136987
650.372	0.0132962
650.450	0.0129570
650.529	0.0127910
650.607	0.0124544
650.685	0.0124674
650.763	0.0125086
650.841	0.0124416
650.919	0.0123372
650.997	0.0127699
651.075	0.0130035
651.154	0.0133626
651.232	0.0136751
651.310	0.0139080
651.388	0.0145393
651.466	0.0149277
651.544	0.0152690
651.622	0.0157405
651.700	0.0162148
651.779	0.0163583
651.857	0.0165432
651.935	0.0166582
652.013	0.0169065
652.091	0.0171697
652.169	0.0173031
652.247	0.0173788
652.325	0.0172097
652.404	0.0173885
652.482	0.0176060
652.560	0.0176904
652.638	0.0176788
652.716	0.0176566
652.794	0.0177850
652.872	0.0176953
652.950	0.0177023
653.029	0.0177572
653.107	0.0174656
653.185	0.0172795
653.263	0.0171246
653.341	0.0168964
653.419	0.0167072
653.497	0.0165594
653.575	0.0163276
653.654	0.0161889
653.732	0.0163783
653.810	0.0161525
653.888	0.0161108
653.966	0.0161459
654.044	0.0160307
654.122	0.0160516
654.200	0.0160759
654.279	0.0159145
654.357	0.0161211
654.435	0.0160696
654.513	0.0158618
654.591	0.0157177
654.669	0.0155947
654.747	0.0153675
654.825	0.0151588
654.904	0.0151198
654.982	0.0149087
655.060	0.0147675
655.138	0.0147926
655.216	0.0146854
655.294	0.0148746
655.372	0.0146927
655.450	0.0147943
655.529	0.0148382
655.607	0.0150018
655.685	0.0150383
655.763	0.0151949
655.841	0.0153037
655.919	0.0152386
655.997	0.0155514
656.075	0.0157060
656.154	0.0157565
656.232	0.0158659
656.310	0.0159113
656.388	0.0160406
656.466	0.0162265
656.544	0.0162963
656.622	0.0162179
656.700	0.0163778
656.779	0.0166248
656.857	0.0167050
656.935	0.0166854
657.013	0.0168265
657.091	0.0169252
657.169	0.0170031
657.247	0.0170869
657.325	0.0171098
657.404	0.0171674
657.482	0.0171014
657.560	0.0171173
657.638	0.0170274
657.716	0.0168281
657.794	0.0166710
657.872	0.0164869
657.950	0.0164176
658.029	0.0159786
658.107	0.0157099
658.185	0.0156464
658.263	0.0154792
658.341	0.0154156
658.419	0.0152638
658.497	0.0152779
658.575	0.0153635
658.654	0.0153085
658.732	0.0155062
658.810	0.0156010
658.888	0.0157851
658.966	0.0158270
659.044	0.0158871
659.122	0.0158509
659.200	0.0159989
659.279	0.0160789
659.357	0.0159850
659.435	0.0160316
659.513	0.0162215
659.591	0.0161252
659.669	0.0161370
659.747	0.0161407
659.825	0.0160221
659.904	0.0160250
659.982	0.0161235
660.060	0.0161149
660.138	0.0161580
660.216	0.0161775
660.294	0.0161698
660.372	0.0160039
660.450	0.0159216
660.529	0.0160288
660.607	0.0159372
660.685	0.0157239
660.763	0.0158760
660.841	0.0158137
660.919	0.0157762
660.997	0.0159296
661.075	0.0159649
661.154	0.0160013
661.232	0.0161998
661.310	0.0162823
661.388	0.0163627
661.466	0.0164838
661.544	0.0165367
661.622	0.0166911
661.700	0.0166363
661.779	0.0165131
661.857	0.0165434
661.935	0.0164069
662.013	0.0161043
662.091	0.0160161
662.169	0.0159302
662.247	0.0155467
662.325	0.0154521
662.404	0.0153480
662.482	0.0152412
662.560	0.0151197
662.638	0.0150906
662.716	0.0149582
662.794	0.0151160
662.872	0.0152850
662.950	0.0151015
663.029	0.0154249
663.107	0.0154097
663.185	0.0155434
663.263	0.0158027
663.341	0.0160562
663.419	0.0163758
663.497	0.0167004
663.575	0.0170350
663.654	0.0172509
663.732	0.0174565
663.810	0.0175968
663.888	0.0179175
663.966	0.0180515
664.044	0.0180753
664.122	0.0181299
664.200	0.0180754
664.279	0.0180118
664.357	0.0179436
664.435	0.0177814
664.513	0.0175140
664.591	0.0173527
664.669	0.0171728
664.747	0.0169167
664.825	0.0164811
664.904	0.0164928
664.982	0.0160030
665.060	0.0156862
665.138	0.0153844
665.216	0.0151422
665.294	0.0148475
665.372	0.0145599
665.450	0.0143555
665.529	0.0141852
665.607	0.0140918
665.685	0.0139602
665.763	0.0138225
665.841	0.0137849
665.919	0.0139555
665.997	0.0140257
666.075	0.0140134
666.154	0.0143061
666.232	0.0144421
666.310	0.0146806
666.388	0.0150078
666.466	0.0153874
666.544	0.0156516
666.622	0.0158979
666.700	0.0161141
666.779	0.0165240
666.857	0.0167466
666.935	0.0169729
667.013	0.0171181
667.091	0.0172596
667.169	0.0173145
667.247	0.0173670
667.325	0.0175545
667.404	0.0174483
667.482	0.0174879
667.560	0.0174689
667.638	0.0173855
667.716	0.0171468
667.794	0.0170479
667.872	0.0170451
667.950	0.0169410
668.029	0.0165897
668.107	0.0166632
668.185	0.0164418
668.263	0.0163669
668.341	0.0161809
668.419	0.0159742
668.497	0.0158725
668.575	0.0157371
668.654	0.0157131
668.732	0.0154295
668.810	0.0153241
668.888	0.0153448
668.966	0.0150898
669.044	0.0150701
669.122	0.0150180
669.200	0.0149034
669.279	0.0148241
669.357	0.0149001
669.435	0.0148313
669.513	0.0148679
669.591	0.0149126
669.669	0.0149744
669.747	0.0150047
669.825	0.0151611
669.904	0.0152939
669.982	0.0154578
670.060	0.0154671
670.138	0.0156303
670.216	0.0158259
670.294	0.0160535
670.372	0.0161851
670.450	0.0162193
670.529	0.0163783
670.607	0.0164223
670.685	0.0166628
670.763	0.0166283
670.841	0.0166935
670.919	0.0168517
670.997	0.0169687
671.075	0.0169133
671.154	0.0170081
671.232	0.0169032
671.310	0.0169547
671.388	0.0171378
671.466	0.0169829
671.544	0.0170473
671.622	0.0171214
671.700	0.0170493
671.779	0.0169297
671.857	0.0167615
671.935	0.0167986
672.013	0.0166158
672.091	0.0165114
672.169	0.0162512
672.247	0.0160723
672.325	0.0159017
672.404	0.0157833
672.482	0.0156290
672.560	0.0152505
672.638	0.0151864
672.716	0.0149800
672.794	0.0149114
672.872	0.0146295
672.950	0.0146193
673.029	0.0145546
673.107	0.0144069
673.185	0.0144696
673.263	0.0145188
673.341	0.0146161
673.419	0.0146556
673.497	0.0146458
673.575	0.0149851
673.654	0.0148769
673.732	0.0151365
673.810	0.0153230
673.888	0.0153588
673.966	0.0154515
674.044	0.0156631
674.122	0.0157087
674.200	0.0158725
674.279	0.0157832
674.357	0.0161829
674.435	0.0161464
674.513	0.0161721
674.591	0.0163386
674.669	0.0164297
674.747	0.0165722
674.825	0.0167691
674.904	0.0167559
674.982	0.0168197
675.060	0.0171801
675.138	0.0170557
675.216	0.0170532
675.294	0.0171626
675.372	0.0170869
675.450	0.0170525
675.529	0.0169840
675.607	0.0171499
675.685	0.0169075
675.763	0.0166861
675.841	0.0169888
675.919	0.0169052
675.997	0.0166087
676.075	0.0167786
676.154	0.0167577
676.232	0.0165287
676.310	0.0164845
676.388	0.0164569
676.466	0.0165347
676.544	0.0164991
676.622	0.0163306
676.700	0.0165039
676.779	0.0163151
676.857	0.0161273
676.935	0.0162274
677.013	0.0160768
677.091	0.0160214
677.169	0.0159332
677.247	0.0157083
677.325	0.0156310
677.404	0.0155021
677.482	0.0152966
677.560	0.0152558
677.638	0.0152260
677.716	0.0151196
677.794	0.0150642
677.872	0.0148038
677.950	0.0150374
678.029	0.0150964
678.107	0.0150814
678.185	0.0150932
678.263	0.0150898
678.341	0.0152230
678.419	0.0152319
678.497	0.0154469
678.575	0.0154736
678.654	0.0155512
678.732	0.0158014
678.810	0.0158399
678.888	0.0159341
678.966	0.0161248
679.044	0.0161573
679.122	0.0162643
679.200	0.0164595
679.279	0.0165412
679.357	0.0164453
679.435	0.0163200
679.513	0.0162881
679.591	0.0164300
679.669	0.0163107
679.747	0.0163784
679.825	0.0162168
679.904	0.0161900
679.982	0.0162227
680.060	0.0162562
680.138	0.0159937
680.216	0.0160771
680.294	0.0161251
680.372	0.0160020
680.450	0.0160288
680.529	0.0160473
680.607	0.0160696
680.685	0.0159663
680.763	0.0159422
680.841	0.0158644
680.919	0.0160252
680.997	0.0159466
681.075	0.0158614
681.154	0.0160027
681.232	0.0159649
681.310	0.0160397
681.388	0.0159180
681.466	0.0161578
681.544	0.0160000
681.622	0.0164117
681.700	0.0162936
681.779	0.0164372
681.857	0.0164876
681.935	0.0164645
682.013	0.0166396
682.091	0.0167067
682.169	0.0166718
682.247	0.0167892
682.325	0.0168642
682.404	0.0168120
682.482	0.0168076
682.560	0.0167348
682.638	0.0166827
682.716	0.0167781
682.794	0.0164938
682.872	0.0163266
682.950	0.0164339
683.029	0.0163739
683.107	0.0161773
683.185	0.0161602
683.263	0.0158816
683.341	0.0158233
683.419	0.0159368
683.497	0.0158115
683.575	0.0158099
683.654	0.0156427
683.732	0.0156287
683.810	0.0156678
683.888	0.0156631
683.966	0.0155176
684.044	0.0155846
684.122	0.0155711
684.200	0.0154892
684.279	0.0154942
684.357	0.0155482
684.435	0.0155676
684.513	0.0157563
684.591	0.0156842
684.669	0.0157028
684.747	0.0158001
684.825	0.0158709
684.904	0.0156679
684.982	0.0157582
685.060	0.0158845
685.138	0.0156424
685.216	0.0156914
685.294	0.0157668
685.372	0.0158746
685.450	0.0158068
685.529	0.0158289
685.607	0.0157333
685.685	0.0159071
685.763	0.0159776
685.841	0.0159182
685.919	0.0158266
685.997	0.0159426
686.075	0.0159756
686.154	0.0159145
686.232	0.0160891
686.310	0.0161021
686.388	0.0160505
686.466	0.0161199
686.544	0.0161600
686.622	0.0161220
686.700	0.0161461
686.779	0.0163204
686.857	0.0163065
686.935	0.0162945
687.013	0.0162785
687.091	0.0164520
687.169	0.0163634
687.247	0.0164241
687.325	0.0165421
687.404	0.0166203
687.482	0.0167007
687.560	0.0166624
687.638	0.0167031
687.716	0.0164866
687.794	0.0163459
687.872	0.0164816
687.950	0.0165024
688.029	0.0163742
688.107	0.0164444
688.185	0.0162811
688.263	0.0163422
688.341	0.0160728
688.419	0.0160250
688.497	0.0160890
688.575	0.0160054
688.654	0.0159979
688.732	0.0159095
688.810	0.0158925
688.888	0.0160244
688.966	0.0160165
689.044	0.0157932
689.122	0.0157396
689.200	0.0158555
689.279	0.0158887
689.357	0.0158546
689.435	0.0159119
689.513	0.0159102
689.591	0.0157613
689.669	0.0158058
689.747	0.0157355
689.825	0.0157261
689.904	0.0156580
689.982	0.0157580
690.060	0.0157788
690.138	0.0156280
690.216	0.0157674
690.294	0.0158224
690.372	0.0158258
690.450	0.0158277
690.529	0.0158150
690.607	0.0158277
690.685	0.0159365
690.763	0.0159029
690.841	0.0160838
690.919	0.0162280
690.997	0.0161726
691.075	0.0163554
691.154	0.0164685
691.232	0.0165361
691.310	0.0164715
691.388	0.0166518
691.466	0.0166247
691.544	0.0166585
691.622	0.0168060
691.700	0.0166372
691.779	0.0168000
691.857	0.0166828
691.935	0.0166473
692.013	0.0166548
692.091	0.0167990
692.169	0.0165898
692.247	0.0166018
692.325	0.0165194
692.404	0.0164851
692.482	0.0164582
692.560	0.0162361
692.638	0.0161359
692.716	0.0161630
692.794	0.0161937
692.872	0.0159772
692.950	0.0159978
693.029	0.0159065
693.107	0.0156573
693.185	0.0157986
693.263	0.0156669
693.341	0.0157970
693.419	0.0155939
693.497	0.0155456
693.575	0.0156839
693.654	0.0155795
693.732	0.0154129
693.810	0.0155817
693.888	0.0155456
693.966	0.0154921
694.044	0.0156815
694.122	0.0155994
694.200	0.0155551
694.279	0.0156548
694.357	0.0158054
694.435	0.0158291
694.513	0.0159393
694.591	0.0159454
694.669	0.0160175
694.747	0.0160490
694.825	0.0159082
694.904	0.0160476
694.982	0.0160682
695.060	0.0160425
695.138	0.0160403
695.216	0.0159602
695.294	0.0160941
695.372	0.0161391
695.450	0.0161040
695.529	0.0162230
695.607	0.0160579
695.685	0.0160148
695.763	0.0161777
695.841	0.0161921
695.919	0.0161738
695.997	0.0162225
696.075	0.0162856
696.154	0.0162373
696.232	0.0163116
696.310	0.0164320
696.388	0.0163415
696.466	0.0164902
696.544	0.0163730
696.622	0.0163098
696.700	0.0164597
696.779	0.0164394
696.857	0.0163317
696.935	0.0161301
697.013	0.0161253
697.091	0.0162068
697.169	0.0161108
697.247	0.0160031
697.325	0.0159323
697.404	0.0159018
697.482	0.0160469
697.560	0.0158792
697.638	0.0159866
697.716	0.0159875
697.794	0.0161014
697.872	0.0160160
697.950	0.0162206
698.029	0.0162207
698.107	0.0163506
698.185	0.0163605
698.263	0.0161798
698.341	0.0161992
698.419	0.0162424
698.497	0.0161942
698.575	0.0160770
698.654	0.0161179
698.732	0.0158580
698.810	0.0159099
698.888	0.0160866
698.966	0.0159689
699.044	0.0160609
699.122	0.0158312
699.200	0.0158762
699.279	0.0158703
699.357	0.0156972
699.435	0.0158014
699.513	0.0157183
699.591	0.0156710
699.669	0.0157286
699.747	0.0156843
699.825	0.0156592
699.904	0.0157269
699.982	0.0156255
700.060	0.0155859
700.138	0.0155988
700.216	0.0155370
700.294	0.0156297
700.372	0.0154758
700.450	0.0155084
700.529	0.0155691
700.607	0.0156170
700.685	0.0156667
700.763	0.0155910
700.841	0.0156493
700.919	0.0157703
700.997	0.0159184
701.075	0.0159039
701.154	0.0159162
701.232	0.0159888
701.310	0.0159264
701.388	0.0160748
701.466	0.0161392
701.544	0.0163122
701.622	0.0162351
701.700	0.0162828
701.779	0.0162339
701.857	0.0164812
701.935	0.0165796
702.013	0.0164651
702.091	0.0164268
702.169	0.0165667
702.247	0.0165816
702.325	0.0165453
702.404	0.0166274
702.482	0.0165327
702.560	0.0166074
702.638	0.0164550
702.716	0.0165556
702.794	0.0165283
702.872	0.0164624
702.950	0.0164577
703.029	0.0164558
703.107	0.0163784
703.185	0.0164378
703.263	0.0164048
703.341	0.0162132
703.419	0.0161452
703.497	0.0160529
703.575	0.0159698
703.654	0.0160257
703.732	0.0157734
703.810	0.0158320
703.888	0.0157401
703.966	0.0158533
704.044	0.0158273
704.122	0.0157848
704.200	0.0156825
704.279	0.0156424
704.357	0.0158445
704.435	0.0158407
704.513	0.0158642
704.591	0.0159044
704.669	0.0159365
704.747	0.0159218
704.825	0.0158895
704.904	0.0158495
704.982	0.0158984
705.060	0.0159731
705.138	0.0160059
705.216	0.0160503
705.294	0.0160150
705.372	0.0163247
705.450	0.0161604
705.529	0.0161707
705.607	0.0163185
705.685	0.0162258
705.763	0.0164724
705.841	0.0165143
705.919	0.0165753
705.997	0.0165907
706.075	0.0165559
706.154	0.0164181
706.232	0.0165543
706.310	0.0164140
706.388	0.0165623
706.466	0.0165214
706.544	0.0164462
706.622	0.0163722
706.700	0.0160457
706.779	0.0162310
706.857	0.0161553
706.935	0.0160573
707.013	0.0160834
707.091	0.0161304
707.169	0.0160307
707.247	0.0159473
707.325	0.0160208
707.404	0.0160892
707.482	0.0159975
707.560	0.0160248
707.638	0.0159510
707.716	0.0161593
707.794	0.0160769
707.872	0.0160180
707.950	0.0160550
708.029	0.0161356
708.107	0.0161034
708.185	0.0161464
708.263	0.0160622
708.341	0.0160307
708.419	0.0161394
708.497	0.0161736
708.575	0.0162125
708.654	0.0160202
708.732	0.0160566
708.810	0.0161761
708.888	0.0159439
708.966	0.0160217
709.044	0.0159604
709.122	0.0160744
709.200	0.0160310
709.279	0.0159152
709.357	0.0161103
709.435	0.0160599
709.513	0.0159303
709.591	0.0158402
709.669	0.0160664
709.747	0.0159766
709.825	0.0160745
709.904	0.0159494
709.982	0.0159491
710.060	0.0160373
710.138	0.0161846
710.216	0.0161684
710.294	0.0162800
710.372	0.0162727
710.450	0.0160847
710.529	0.0162349
710.607	0.0162814
710.685	0.0163961
710.763	0.0163426
710.841	0.0163345
710.919	0.0163605
710.997	0.0162589
711.075	0.0160437
711.154	0.0161339
711.232	0.0159895
711.310	0.0159776
711.388	0.0160818
711.466	0.0158385
711.544	0.0158032
711.622	0.0157300
711.700	0.0157562
711.779	0.0157800
711.857	0.0157968
711.935	0.0157522
712.013	0.0159466
712.091	0.0158972
712.169	0.0159892
712.247	0.0159386
712.325	0.0156849
712.404	0.0159077
712.482	0.0161506
712.560	0.0160840
712.638	0.0162257
712.716	0.0161821
712.794	0.0161626
712.872	0.0161351
712.950	0.0162761
713.029	0.0163648
713.107	0.0162439
713.185	0.0162671
713.263	0.0164082
713.341	0.0164514
713.419	0.0164420
713.497	0.0162698
713.575	0.0163561
713.654	0.0164175
713.732	0.0162822
713.810	0.0163089
713.888	0.0163553
713.966	0.0161712
714.044	0.0161326
714.122	0.0160627
714.200	0.0159119
714.279	0.0158897
714.357	0.0160041
714.435	0.0158323
714.513	0.0157137
714.591	0.0157822
714.669	0.0155690
714.747	0.0156614
714.825	0.0155810
714.904	0.0156796
714.982	0.0156557
715.060	0.0156016
715.138	0.0158059
715.216	0.0157613
715.294	0.0158276
715.372	0.0158588
715.450	0.0158062
715.529	0.0158470
715.607	0.0159874
715.685	0.0159774
715.763	0.0159051
715.841	0.0159246
715.919	0.0158113
715.997	0.0159779
716.075	0.0160640
716.154	0.0158443
716.232	0.0158696
716.310	0.0159634
716.388	0.0159513
716.466	0.0160403
716.544	0.0160027
716.622	0.0159640
716.700	0.0160382
716.779	0.0159722
716.857	0.0160532
716.935	0.0161855
717.013	0.0162120
717.091	0.0160748
717.169	0.0161658
717.247	0.0163413
717.325	0.0164409
717.404	0.0163369
717.482	0.0163059
717.560	0.0162122
717.638	0.0164457
717.716	0.0163969
717.794	0.0163528
717.872	0.0163770
717.950	0.0163428
718.029	0.0163206
718.107	0.0164223
718.185	0.0164870
718.263	0.0163616
718.341	0.0163069
718.419	0.0162937
718.497	0.0162476
718.575	0.0165321
718.654	0.0162135
718.732	0.0161774
718.810	0.0162291
718.888	0.0161182
718.966	0.0161507
719.044	0.0160400
719.122	0.0159814
719.200	0.0159454
719.279	0.0160567
719.357	0.0158990
719.435	0.0160615
719.513	0.0160993
719.591	0.0158579
719.669	0.0158875
719.747	0.0159591
719.825	0.0160939
719.904	0.0160908
719.982	0.0160349
720.060	0.0160386
720.138	0.0161778
720.216	0.0160947
720.294	0.0161848
720.372	0.0161594
720.450	0.0161620
720.529	0.0162132
720.607	0.0161812
720.685	0.0164178
720.763	0.0164165
720.841	0.0163862
720.919	0.0164479
720.997	0.0163839
721.075	0.0163866
721.154	0.0160957
721.232	0.0163205
721.310	0.0164025
721.388	0.0161118
721.466	0.0161611
721.544	0.0160720
721.622	0.0160860
721.700	0.0160771
721.779	0.0159668
721.857	0.0159681
721.935	0.0160957
722.013	0.0160009
722.091	0.0159081
722.169	0.0159771
722.247	0.0157841
722.325	0.0158251
722.404	0.0156671
722.482	0.0156844
722.560	0.0158817
722.638	0.0156969
722.716	0.0157175
722.794	0.0158364
722.872	0.0157468
722.950	0.0156867
723.029	0.0157672
723.107	0.0157549
723.185	0.0157278
723.263	0.0158442
723.341	0.0158280
723.419	0.0159186
723.497	0.0159338
723.575	0.0160677
723.654	0.0160670
723.732	0.0161752
723.810	0.0160722
723.888	0.0160804
723.966	0.0161702
724.044	0.0162772
724.122	0.0162839
724.200	0.0162923
724.279	0.0162559
724.357	0.0163612
724.435	0.0164542
724.513	0.0162804
724.591	0.0163329
724.669	0.0162719
724.747	0.0163746
724.825	0.0163602
724.904	0.0163448
724.982	0.0163834
725.060	0.0163077
725.138	0.0165586
725.216	0.0165511
725.294	0.0165082
725.372	0.0164381
725.450	0.0164558
725.529	0.0164658
725.607	0.0165273
725.685	0.0165086
725.763	0.0164673
725.841	0.0163974
725.919	0.0163847
725.997	0.0164415
726.075	0.0163975
726.154	0.0163029
726.232	0.0162296
726.310	0.0162398
726.388	0.0161087
726.466	0.0161068
726.544	0.0161843
726.622	0.0160713
726.700	0.0161073
726.779	0.0158900
726.857	0.0160532
726.935	0.0159243
727.013	0.0157034
727.091	0.0158517
727.169	0.0157498
727.247	0.0158378
727.325	0.0156621
727.404	0.0157254
727.482	0.0157119
727.560	0.0157125
727.638	0.0156056
727.716	0.0158455
727.794	0.0156406
727.872	0.0157329
727.950	0.0155966
728.029	0.0156287
728.107	0.0158357
728.185	0.0158482
728.263	0.0155891
728.341	0.0158041
728.419	0.0157674
728.497	0.0158021
728.575	0.0158474
728.654	0.0158092
728.732	0.0158417
728.810	0.0159323
728.888	0.0159428
728.966	0.0160602
729.044	0.0161051
729.122	0.0160813
729.200	0.0162199
729.279	0.0161846
729.357	0.0160368
729.435	0.0160865
729.513	0.0162673
729.591	0.0162419
729.669	0.0161678
729.747	0.0163352
729.825	0.0162749
729.904	0.0163294
729.982	0.0161910
730.060	0.0161498
730.138	0.0161852
730.216	0.0162941
730.294	0.0162280
730.372	0.0161898
730.450	0.0161729
730.529	0.0161462
730.607	0.0161240
730.685	0.0159882
730.763	0.0159470
730.841	0.0160320
730.919	0.0159138
730.997	0.0159422
731.075	0.0157899
731.154	0.0158694
731.232	0.0158512
731.310	0.0156189
731.388	0.0157695
731.466	0.0156570
731.544	0.0157151
731.622	0.0155421
731.700	0.0156712
731.779	0.0155795
731.857	0.0155757
731.935	0.0156554
732.013	0.0155957
732.091	0.0156458
732.169	0.0156966
732.247	0.0157858
732.325	0.0157815
732.404	0.0157759
732.482	0.0158228
732.560	0.0158696
732.638	0.0159391
732.716	0.0158781
732.794	0.0158572
732.872	0.0160813
732.950	0.0159652
733.029	0.0159701
733.107	0.0163155
733.185	0.0161476
733.263	0.0160469
733.341	0.0161489
733.419	0.0162651
733.497	0.0163668
733.575	0.0163129
733.654	0.0162881
733.732	0.0163900
733.810	0.0162864
733.888	0.0163200
733.966	0.0163161
734.044	0.0163349
734.122	0.0163081
734.200	0.0161991
734.279	0.0161536
734.357	0.0162612
734.435	0.0162137
734.513	0.0161533
734.591	0.0160159
734.669	0.0161723
734.747	0.0161501
734.825	0.0162054
734.904	0.0159575
734.982	0.0160355
735.060	0.0159177
735.138	0.0160291
735.216	0.0158908
735.294	0.0159501
735.372	0.0159849
735.450	0.0157161
735.529	0.0158598
735.607	0.0158521
735.685	0.0156516
735.763	0.0157450
735.841	0.0157407
735.919	0.0157375
735.997	0.0156380
736.075	0.0157073
736.154	0.0156717
736.232	0.0157065
736.310	0.0157697
736.388	0.0156847
736.466	0.0158167
736.544	0.0158257
736.622	0.0156548
736.700	0.0157699
736.779	0.0158807
736.857	0.0158511
736.935	0.0158040
737.013	0.0157806
737.091	0.0159969
737.169	0.0160066
737.247	0.0160344
737.325	0.0159241
737.404	0.0159460
737.482	0.0160500
737.560	0.0159631
737.638	0.0159052
737.716	0.0159934
737.794	0.0160004
737.872	0.0159578
737.950	0.0160268
738.029	0.0160276
738.107	0.0160764
738.185	0.0159569
738.263	0.0159285
738.341	0.0159471
738.419	0.0159514
738.497	0.0160924
738.575	0.0162108
738.654	0.0161199
738.732	0.0160320
738.810	0.0161022
738.888	0.0160493
738.966	0.0161414
739.044	0.0162124
739.122	0.0161750
739.200	0.0162293
739.279	0.0161830
739.357	0.0163090
739.435	0.0163417
739.513	0.0163682
739.591	0.0163250
739.669	0.0163420
739.747	0.0163732
739.825	0.0163029
739.904	0.0165972
739.982	0.0163594
740.060	0.0163979
740.138	0.0162416
740.216	0.0164581
740.294	0.0165247
740.372	0.0163501
740.450	0.0162908
740.529	0.0164133
740.607	0.0163994
740.685	0.0164111
740.763	0.0163947
740.841	0.0164548
740.919	0.0164226
740.997	0.0163684
741.075	0.0164179
741.154	0.0164572
741.232	0.0162670
741.310	0.0163662
741.388	0.0163855
741.466	0.0162263
741.544	0.0160225
741.622	0.0162151
741.700	0.0161658
741.779	0.0159524
741.857	0.0160854
741.935	0.0160136
742.013	0.0160640
742.091	0.0159244
742.169	0.0160397
742.247	0.0158913
742.325	0.0158868
742.404	0.0159419
742.482	0.0158956
742.560	0.0158723
742.638	0.0156893
742.716	0.0158309
742.794	0.0157167
742.872	0.0157301
742.950	0.0156960
743.029	0.0157841
743.107	0.0156242
743.185	0.0156455
743.263	0.0155593
743.341	0.0156360
743.419	0.0155672
743.497	0.0155949
743.575	0.0155731
743.654	0.0156388
743.732	0.0156953
743.810	0.0156868
743.888	0.0157232
743.966	0.0156661
744.044	0.0157123
744.122	0.0156773
744.200	0.0156570
744.279	0.0156863
744.357	0.0159553
744.435	0.0159390
744.513	0.0159402
744.591	0.0160595
744.669	0.0161705
744.747	0.0160459
744.825	0.0160591
744.904	0.0161176
744.982	0.0161828
745.060	0.0162980
745.138	0.0162107
745.216	0.0161512
745.294	0.0163071
745.372	0.0163931
745.450	0.0165164
745.529	0.0162260
745.607	0.0163594
745.685	0.0162543
745.763	0.0161916
745.841	0.0162274
745.919	0.0162932
745.997	0.0162727
746.075	0.0161623
746.154	0.0160814
746.232	0.0159816
746.310	0.0161115
746.388	0.0160172
746.466	0.0159122
746.544	0.0159040
746.622	0.0159069
746.700	0.0158443
746.779	0.0157233
746.857	0.0156970
746.935	0.0155813
747.013	0.0157055
747.091	0.0156782
747.169	0.0154420
747.247	0.0156402
747.325	0.0155489
747.404	0.0155168
747.482	0.0156628
747.560	0.0155429
747.638	0.0156004
747.716	0.0156940
747.794	0.0156291
747.872	0.0154333
747.950	0.0155951
748.029	0.0156601
748.107	0.0156577
748.185	0.0156984
748.263	0.0156082
748.341	0.0157455
748.419	0.0156564
748.497	0.0158167
748.575	0.0157269
748.654	0.0159157
748.732	0.0158468
748.810	0.0157372
748.888	0.0158909
748.966	0.0160535
749.044	0.0159776
749.122	0.0160457
749.200	0.0159867
749.279	0.0159557
749.357	0.0161517
749.435	0.0160941
749.513	0.0159753
749.591	0.0161439
749.669	0.0161513
749.747	0.0161947
749.825	0.0160311
749.904	0.0162340
749.982	0.0160783
750.060	0.0161030
750.138	0.0160126
750.216	0.0161716
750.294	0.0161998
750.372	0.0160974
750.450	0.0161527
750.529	0.0160493
750.607	0.0159150
750.685	0.0160966
750.763	0.0161932
750.841	0.0160935
750.919	0.0159559
750.997	0.0159997
751.075	0.0158878
751.154	0.0159762
751.232	0.0160016
751.310	0.0160136
751.388	0.0160235
751.466	0.0160126
751.544	0.0161494
751.622	0.0159457
751.700	0.0159338
751.779	0.0159766
751.857	0.0160655
751.935	0.0159298
752.013	0.0156997
752.091	0.0157799
752.169	0.0158134
752.247	0.0157690
752.325	0.0158509
752.404	0.0158518
752.482	0.0158557
752.560	0.0157658
752.638	0.0157019
752.716	0.0156700
752.794	0.0157884
752.872	0.0159168
752.950	0.0159097
753.029	0.0158880
753.107	0.0158717
753.185	0.0157856
753.263	0.0159070
753.341	0.0160036
753.419	0.0158410
753.497	0.0158664
753.575	0.0159528
753.654	0.0160302
753.732	0.0160161
753.810	0.0158968
753.888	0.0160782
753.966	0.0161387
754.044	0.0160519
754.122	0.0159502
754.200	0.0161595
754.279	0.0161668
754.357	0.0161972
754.435	0.0161013
754.513	0.0162228
754.591	0.0165083
754.669	0.0162991
754.747	0.0162248
754.825	0.0163531
754.904	0.0164574
754.982	0.0162263
755.060	0.0162809
755.138	0.0163534
755.216	0.0164180
755.294	0.0162540
755.372	0.0163557
755.450	0.0163137
755.529	0.0163542
755.607	0.0163263
755.685	0.0162923
755.763	0.0163474
755.841	0.0161124
755.919	0.0161388
755.997	0.0161359
756.075	0.0160480
756.154	0.0161585
756.232	0.0162004
756.310	0.0160113
756.388	0.0160240
756.466	0.0160524
756.544	0.0160828
756.622	0.0158986
756.700	0.0159045
756.779	0.0158702
756.857	0.0159777
756.935	0.0159175
757.013	0.0159773
757.091	0.0158753
757.169	0.0158651
757.247	0.0158718
757.325	0.0157806
757.404	0.0158096
757.482	0.0158309
757.560	0.0157788
757.638	0.0160438
757.716	0.0159960
757.794	0.0160647
757.872	0.0160950
757.950	0.0158330
758.029	0.0159222
758.107	0.0159818
758.185	0.0159084
758.263	0.0159772
758.341	0.0159264
758.419	0.0159718
758.497	0.0159200
758.575	0.0158428
758.654	0.0157951
758.732	0.0158611
758.810	0.0160124
758.888	0.0157854
758.966	0.0157804
759.044	0.0158499
759.122	0.0157941
759.200	0.0157192
759.279	0.0157729
759.357	0.0157151
759.435	0.0159084
759.513	0.0158587
759.591	0.0157345
759.669	0.0157745
759.747	0.0157188
759.825	0.0159062
759.904	0.0160508
759.982	0.0159441
760.060	0.0161140
760.138	0.0161469
760.216	0.0159935
760.294	0.0161544
760.372	0.0161746
760.450	0.0160230
760.529	0.0163773
760.607	0.0163234
760.685	0.0163175
760.763	0.0162572
760.841	0.0162233
760.919	0.0163937
760.997	0.0162275
761.075	0.0162418
761.154	0.0164546
761.232	0.0162859
761.310	0.0162751
761.388	0.0164429
761.466	0.0162626
761.544	0.0161687
761.622	0.0162482
761.700	0.0161507
761.779	0.0162039
761.857	0.0162626
761.935	0.0162003
762.013	0.0160672
762.091	0.0160819
762.169	0.0160017
762.247	0.0160327
762.325	0.0159422
762.404	0.0159771
762.482	0.0159609
762.560	0.0158160
762.638	0.0158330
762.716	0.0158075
762.794	0.0158853
762.872	0.0158678
762.950	0.0158357
763.029	0.0157489
763.107	0.0158227
763.185	0.0158388
763.263	0.0157844
763.341	0.0159650
763.419	0.0158163
763.497	0.0158347
763.575	0.0158926
763.654	0.0160274
763.732	0.0159386
763.810	0.0158903
763.888	0.0159238
763.966	0.0160191
764.044	0.0159299
764.122	0.0160662
764.200	0.0160588
764.279	0.0161782
764.357	0.0161413
764.435	0.0161052
764.513	0.0161238
764.591	0.0162478
764.669	0.0161945
764.747	0.0160336
764.825	0.0160938
764.904	0.0161183
764.982	0.0162463
765.060	0.0160718
765.138	0.0160493
765.216	0.0159752
765.294	0.0160754
765.372	0.0161093
765.450	0.0160966
765.529	0.0159108
765.607	0.0160573
765.685	0.0160239
765.763	0.0159940
765.841	0.0160711
765.919	0.0161351
765.997	0.0158721
766.075	0.0160378
766.154	0.0161094
766.232	0.0160590
766.310	0.0161388
766.388	0.0160278
766.466	0.0160896
766.544	0.0159131
766.622	0.0159956
766.700	0.0159858
766.779	0.0159936
766.857	0.0160518
766.935	0.0159968
767.013	0.0159023
767.091	0.0158929
767.169	0.0160511
767.247	0.0160239
767.325	0.0159989
767.404	0.0160867
767.482	0.0160584
767.560	0.0160104
767.638	0.0160521
767.716	0.0160207
767.794	0.0158953
767.872	0.0160048
767.950	0.0160487
768.029	0.0158229
768.107	0.0160259
768.185	0.0157981
768.263	0.0158346
768.341	0.0158632
768.419	0.0157796
768.497	0.0156778
768.575	0.0157579
768.654	0.0158680
768.732	0.0157798
768.810	0.0157784
768.888	0.0157101
768.966	0.0158972
769.044	0.0156972
769.122	0.0158108
769.200	0.0158370
769.279	0.0156879
769.357	0.0156543
769.435	0.0157822
769.513	0.0157349
769.591	0.0157108
769.669	0.0158147
769.747	0.0156779
769.825	0.0159506
769.904	0.0159456
769.982	0.0159167
770.060	0.0159026
770.138	0.0159554
770.216	0.0161108
770.294	0.0160360
770.372	0.0161583
770.450	0.0161626
770.529	0.0160202
770.607	0.0160699
770.685	0.0161687
770.763	0.0162535
770.841	0.0160953
770.919	0.0161234
770.997	0.0162661
771.075	0.0162373
771.154	0.0163490
771.232	0.0163594
771.310	0.0162855
771.388	0.0164257
771.466	0.0163178
771.544	0.0164339
771.622	0.0163338
771.700	0.0164073
771.779	0.0163087
771.857	0.0162363
771.935	0.0162411
772.013	0.0162718
772.091	0.0162473
772.169	0.0162625
772.247	0.0162168
772.325	0.0161494
772.404	0.0161184
772.482	0.0160866
772.560	0.0160615
772.638	0.0161163
772.716	0.0161783
772.794	0.0161569
772.872	0.0160869
772.950	0.0160647
773.029	0.0160513
773.107	0.0160329
773.185	0.0159054
773.263	0.0158818
773.341	0.0159509
773.419	0.0159937
773.497	0.0158900
773.575	0.0159290
773.654	0.0158943
773.732	0.0159735
773.810	0.0159438
773.888	0.0159238
773.966	0.0158571
774.044	0.0158050
774.122	0.0159404
774.200	0.0160118
774.279	0.0160195
774.357	0.0160617
774.435	0.0160713
774.513	0.0160549
774.591	0.0160387
774.669	0.0160401
774.747	0.0161301
774.825	0.0161056
774.904	0.0161576
774.982	0.0161814
775.060	0.0160828
775.138	0.0161205
775.216	0.0163135
775.294	0.0161574
775.372	0.0160720
775.450	0.0160392
775.529	0.0162350
775.607	0.0160494
775.685	0.0160627
775.763	0.0160505
775.841	0.0162005
775.919	0.0162491
775.997	0.0160477
776.075	0.0161346
776.154	0.0161108
776.232	0.0160310
776.310	0.0161906
776.388	0.0161699
776.466	0.0160986
776.544	0.0161027
776.622	0.0160562
776.700	0.0160702
776.779	0.0162779
776.857	0.0160623
776.935	0.0159920
777.013	0.0161901
777.091	0.0160613
777.169	0.0159657
777.247	0.0160588
777.325	0.0161370
777.404	0.0161263
777.482	0.0161386
777.560	0.0161056
777.638	0.0160770
777.716	0.0161710
777.794	0.0161417
777.872	0.0161439
777.950	0.0161727
778.029	0.0161652
778.107	0.0162453
778.185	0.0161529
778.263	0.0163432
778.341	0.0161037
778.419	0.0161782
778.497	0.0162404
778.575	0.0161475
778.654	0.0162650
778.732	0.0163435
778.810	0.0161736
778.888	0.0162240
778.966	0.0161090
779.044	0.0161744
779.122	0.0163177
779.200	0.0162928
779.279	0.0163126
779.357	0.0161679
779.435	0.0160966
779.513	0.0161234
779.591	0.0160700
779.669	0.0161423
779.747	0.0163431
779.825	0.0160970
779.904	0.0159557
779.982	0.0160741
780.060	0.0161423
780.138	0.0159972
780.216	0.0161223
780.294	0.0161441
780.372	0.0159739
780.450	0.0160572
780.529	0.0160677
780.607	0.0161543
780.685	0.0160371
780.763	0.0160807
780.841	0.0160474
780.919	0.0162176
780.997	0.0161008
781.075	0.0161111
781.154	0.0160623
781.232	0.0160706
781.310	0.0161166
781.388	0.0160996
781.466	0.0160847
781.544	0.0161813
781.622	0.0161172
781.700	0.0160418
781.779	0.0160536
781.857	0.0162028
781.935	0.0161210
782.013	0.0160133
782.091	0.0161057
782.169	0.0161918
782.247	0.0161362
782.325	0.0162438
782.404	0.0160867
782.482	0.0160835
782.560	0.0161875
782.638	0.0163109
782.716	0.0162285
782.794	0.0160532
782.872	0.0160578
782.950	0.0160149
783.029	0.0160019
783.107	0.0161822
783.185	0.0161490
783.263	0.0158906
783.341	0.0159209
783.419	0.0159957
783.497	0.0158634
783.575	0.0158108
783.654	0.0158706
783.732	0.0159863
783.810	0.0158903
783.888	0.0159937
783.966	0.0159805
784.044	0.0159539
784.122	0.0159534
784.200	0.0159827
784.279	0.0160651
784.357	0.0160349
784.435	0.0159949
784.513	0.0161915
784.591	0.0162055
784.669	0.0161115
784.747	0.0161204
784.825	0.0161250
784.904	0.0160825
784.982	0.0160568
785.060	0.0162959
785.138	0.0162002
785.216	0.0162939
785.294	0.0162168
785.372	0.0161184
785.450	0.0161777
785.529	0.0162775
785.607	0.0160650
785.685	0.0161604
785.763	0.0162010
785.841	0.0161929
785.919	0.0161688
785.997	0.0160981
786.075	0.0160770
786.154	0.0161028
786.232	0.0161176
786.310	0.0160774
786.388	0.0160008
786.466	0.0160349
786.544	0.0159808
786.622	0.0158605
786.700	0.0159673
786.779	0.0160355
786.857	0.0159439
786.935	0.0157303
787.013	0.0157294
787.091	0.0159422
787.169	0.0158517
787.247	0.0157087
787.325	0.0158392
787.404	0.0159079
787.482	0.0158951
787.560	0.0158571
787.638	0.0159364
787.716	0.0158976
787.794	0.0159490
787.872	0.0159446
787.950	0.0159156
788.029	0.0161096
788.107	0.0160514
788.185	0.0160696
788.263	0.0158652
788.341	0.0159762
788.419	0.0160269
788.497	0.0158894
788.575	0.0159800
788.654	0.0160421
788.732	0.0159089
788.810	0.0160364
788.888	0.0159570
788.966	0.0160146
789.044	0.0161327
789.122	0.0160027
789.200	0.0160481
789.279	0.0158478
789.357	0.0159919
789.435	0.0159127
789.513	0.0159496
789.591	0.0160388
789.669	0.0160375
789.747	0.0160122
789.825	0.0161379
789.904	0.0160328
789.982	0.0160384
790.060	0.0161322
790.138	0.0159975
790.216	0.0161163
790.294	0.0161676
790.372	0.0161137
790.450	0.0160889
790.529	0.0161369
790.607	0.0161081
790.685	0.0160055
790.763	0.0160194
790.841	0.0160706
790.919	0.0160017
790.997	0.0161329
791.075	0.0161385
791.154	0.0160334
791.232	0.0160657
791.310	0.0161086
791.388	0.0161523
791.466	0.0160544
791.544	0.0160941
791.622	0.0162377
791.700	0.0162265
791.779	0.0161788
791.857	0.0160970
791.935	0.0163370
792.013	0.0161221
792.091	0.0161653
792.169	0.0162890
792.247	0.0161503
792.325	0.0162423
792.404	0.0161082
792.482	0.0161325
792.560	0.0159737
792.638	0.0161401
792.716	0.0161182
792.794	0.0161501
792.872	0.0160886
792.950	0.0163509
793.029	0.0160210
793.107	0.0160322
793.185	0.0161998
793.263	0.0160423
793.341	0.0161081
793.419	0.0159053
793.497	0.0159882
793.575	0.0160873
793.654	0.0161580
793.732	0.0160606
793.810	0.0159901
793.888	0.0160471
793.966	0.0160480
794.044	0.0160970
794.122	0.0160634
794.200	0.0160779
794.279	0.0160338
794.357	0.0161738
794.435	0.0160882
794.513	0.0161404
794.591	0.0160726
794.669	0.0161704
794.747	0.0161359
794.825	0.0161057
794.904	0.0160751
794.982	0.0162396
795.060	0.0160477
795.138	0.0161800
795.216	0.0160777
795.294	0.0161268
795.372	0.0161047
795.450	0.0160431
795.529	0.0161371
795.607	0.0160210
795.685	0.0159438
795.763	0.0161546
795.841	0.0161497
795.919	0.0160598
795.997	0.0160311
796.075	0.0161579
796.154	0.0161462
796.232	0.0161646
796.310	0.0160515
796.388	0.0160829
796.466	0.0161055
796.544	0.0161371
796.622	0.0160513
796.700	0.0159322
796.779	0.0161219
796.857	0.0160509
796.935	0.0160221
797.013	0.0160983
797.091	0.0159105
797.169	0.0159502
797.247	0.0160557
797.325	0.0160768
797.404	0.0159846
797.482	0.0160112
797.560	0.0160707
797.638	0.0160064
797.716	0.0159683
797.794	0.0159194
797.872	0.0158909
797.950	0.0159697
798.029	0.0159899
798.107	0.0159051
798.185	0.0158906
798.263	0.0158382
798.341	0.0159983
798.419	0.0158790
798.497	0.0160103
798.575	0.0160758
798.654	0.0160115
798.732	0.0159653
798.810	0.0158630
798.888	0.0158978
798.966	0.0161517
799.044	0.0160365
799.122	0.0158274
799.200	0.0160463
799.279	0.0160368
799.357	0.0160513
799.435	0.0160423
799.513	0.0161610
799.591	0.0160499
799.669	0.0161100
799.747	0.0161637
799.825	0.0160647
799.904	0.0160445
799.982	0.0161198
800.060	0.0160083
800.138	0.0160110
800.216	0.0160323
800.294	0.0160987
800.372	0.0161331
800.450	0.0159903
800.529	0.0159156
800.607	0.0159978
800.685	0.0160979
800.763	0.0160628
800.841	0.0162099
800.919	0.0161434
800.997	0.0160600
801.075	0.0161205
801.154	0.0160666
801.232	0.0160089
801.310	0.0159544
801.388	0.0158187
801.466	0.0160120
801.544	0.0159607
801.622	0.0161300
801.700	0.0160348
801.779	0.0160675
801.857	0.0159786
801.935	0.0159093
802.013	0.0159599
802.091	0.0159535
802.169	0.0158910
802.247	0.0159315
802.325	0.0160897
802.404	0.0158023
802.482	0.0159714
802.560	0.0159980
802.638	0.0159391
802.716	0.0159176
802.794	0.0158914
802.872	0.0158714
802.950	0.0159540
803.029	0.0158990
803.107	0.0160197
803.185	0.0161239
803.263	0.0159825
803.341	0.0160392
803.419	0.0160188
803.497	0.0160625
803.575	0.0160404
803.654	0.0159133
803.732	0.0161282
803.810	0.0160942
803.888	0.0161794
803.966	0.0160896
804.044	0.0161149
804.122	0.0160728
804.200	0.0161026
804.279	0.0161395
804.357	0.0160384
804.435	0.0160839
804.513	0.0161524
804.591	0.0162642
804.669	0.0161314
804.747	0.0161271
804.825	0.0161200
804.904	0.0161680
804.982	0.0161598
805.060	0.0161674
805.138	0.0161176
805.216	0.0161494
805.294	0.0160702
805.372	0.0161086
805.450	0.0161516
805.529	0.0159454
805.607	0.0160917
805.685	0.0160353
805.763	0.0160450
805.841	0.0160725
805.919	0.0160252
805.997	0.0158470
806.075	0.0160414
806.154	0.0161639
806.232	0.0160840
806.310	0.0159413
806.388	0.0159123
806.466	0.0160655
806.544	0.0161031
806.622	0.0161363
806.700	0.0159925
806.779	0.0159806
806.857	0.0159702
806.935	0.0160764
807.013	0.0160769
807.091	0.0160609
807.169	0.0160856
807.247	0.0159946
807.325	0.0159557
807.404	0.0160516
807.482	0.0160060
807.560	0.0160503
807.638	0.0160219
807.716	0.0158938
807.794	0.0160933
807.872	0.0161564
807.950	0.0159856
808.029	0.0158980
808.107	0.0160435
808.185	0.0161074
808.263	0.0160022
808.341	0.0161919
808.419	0.0161135
808.497	0.0161346
808.575	0.0161671
808.654	0.0161803
808.732	0.0160509
808.810	0.0162024
808.888	0.0161506
808.966	0.0163707
809.044	0.0162704
809.122	0.0161141
809.200	0.0162361
809.279	0.0163638
809.357	0.0161824
809.435	0.0162814
809.513	0.0162575
809.591	0.0162876
809.669	0.0161159
809.747	0.0162399
809.825	0.0163176
809.904	0.0162235
809.982	0.0163016
810.060	0.0162921
810.138	0.0162083
810.216	0.0162091
810.294	0.0163062
810.372	0.0162474
810.450	0.0162465
810.529	0.0163498
810.607	0.0162165
810.685	0.0161545
810.763	0.0162420
810.841	0.0161802
810.919	0.0162301
810.997	0.0160887
811.075	0.0160499
811.154	0.0160197
811.232	0.0160671
811.310	0.0161137
811.388	0.0161543
811.466	0.0160452
811.544	0.0160007
811.622	0.0159240
811.700	0.0160390
811.779	0.0159973
811.857	0.0160272
811.935	0.0161038
812.013	0.0159506
812.091	0.0159686
812.169	0.0160979
812.247	0.0159924
812.325	0.0158959
812.404	0.0161199
812.482	0.0159885
812.560	0.0161867
812.638	0.0160995
812.716	0.0159403
812.794	0.0161076
812.872	0.0161951
812.950	0.0159762
813.029	0.0160752
813.107	0.0160680
813.185	0.0158516
813.263	0.0160318
813.341	0.0160417
813.419	0.0159562
813.497	0.0160399
813.575	0.0159343
813.654	0.0158908
813.732	0.0159056
813.810	0.0160049
813.888	0.0159299
813.966	0.0160330
814.044	0.0159513
814.122	0.0160104
814.200	0.0158411
814.279	0.0160419
814.357	0.0160645
814.435	0.0160714
814.513	0.0159679
814.591	0.0158507
814.669	0.0159395
814.747	0.0160705
814.825	0.0161060
814.904	0.0159305
814.982	0.0157997
815.060	0.0158730
815.138	0.0158585
815.216	0.0160307
815.294	0.0160042
815.372	0.0160229
815.450	0.0159031
815.529	0.0160293
815.607	0.0161217
815.685	0.0159282
815.763	0.0159874
815.841	0.0159310
815.919	0.0158648
815.997	0.0159497
816.075	0.0159691
816.154	0.0161209
816.232	0.0159891
816.310	0.0160225
816.388	0.0160237
816.466	0.0158876
816.544	0.0160519
816.622	0.0160532
816.700	0.0158712
816.779	0.0161187
816.857	0.0161096
816.935	0.0159702
817.013	0.0159824
817.091	0.0159539
817.169	0.0158971
817.247	0.0159254
817.325	0.0158440
817.404	0.0160143
817.482	0.0159190
817.560	0.0159888
817.638	0.0160214
817.716	0.0158901
817.794	0.0158504
817.872	0.0159133
817.950	0.0159744
818.029	0.0159387
818.107	0.0159789
818.185	0.0160564
818.263	0.0160451
818.341	0.0161313
818.419	0.0160498
818.497	0.0159590
818.575	0.0160165
818.654	0.0160519
818.732	0.0160313
818.810	0.0161929
818.888	0.0159748
818.966	0.0161218
819.044	0.0161040
819.122	0.0161131
819.200	0.0160670
819.279	0.0161195
819.357	0.0161324
819.435	0.0160889
819.513	0.0160831
819.591	0.0162071
819.669	0.0160311
819.747	0.0161565
819.825	0.0160791
819.904	0.0162568
819.982	0.0160197
820.060	0.0161965
820.138	0.0161456
820.216	0.0161935
820.294	0.0161971
820.372	0.0162947
820.450	0.0162051
820.529	0.0162098
820.607	0.0162450
820.685	0.0162918
820.763	0.0162489
820.841	0.0162959
820.919	0.0161905
820.997	0.0161144
821.075	0.0160609
821.154	0.0161104
821.232	0.0160458
821.310	0.0160107
821.388	0.0160792
821.466	0.0161316
821.544	0.0158932
821.622	0.0158432
821.700	0.0158414
821.779	0.0158665
821.857	0.0157928
821.935	0.0158166
822.013	0.0158884
822.091	0.0157932
822.169	0.0158160
822.247	0.0158261
822.325	0.0157434
822.404	0.0158463
822.482	0.0158064
822.560	0.0159473
822.638	0.0158131
822.716	0.0157549
822.794	0.0157597
822.872	0.0157960
822.950	0.0159586
823.029	0.0158623
823.107	0.0157402
823.185	0.0157790
823.263	0.0157896
823.341	0.0158497
823.419	0.0159237
823.497	0.0159895
823.575	0.0159665
823.654	0.0160696
823.732	0.0162753
823.810	0.0163012
823.888	0.0163164
823.966	0.0163072
824.044	0.0163582
824.122	0.0163705
824.200	0.0163338
824.279	0.0164782
824.357	0.0163804
824.435	0.0163672
824.513	0.0163435
824.591	0.0164629
824.669	0.0163821
824.747	0.0163911
824.825	0.0161715
824.904	0.0161954
824.982	0.0163268
825.060	0.0163612
825.138	0.0162827
825.216	0.0160896
825.294	0.0162000
825.372	0.0161362
825.450	0.0160848
825.529	0.0160924
825.607	0.0160807
825.685	0.0159763
825.763	0.0160262
825.841	0.0160567
825.919	0.0159903
825.997	0.0159829
826.075	0.0159576
826.154	0.0160216
826.232	0.0160155
826.310	0.0159214
826.388	0.0159831
826.466	0.0158965
826.544	0.0158740
826.622	0.0157174
826.700	0.0159418
826.779	0.0159871
826.857	0.0159599
826.935	0.0159751
827.013	0.0158405
827.091	0.0159925
827.169	0.0161279
827.247	0.0160172
827.325	0.0160425
827.404	0.0160592
827.482	0.0158990
827.560	0.0161185
827.638	0.0162948
827.716	0.0160905
827.794	0.0159795
827.872	0.0161166
827.950	0.0161631
828.029	0.0162015
828.107	0.0162728
828.185	0.0162293
828.263	0.0162489
828.341	0.0161534
828.419	0.0162078
828.497	0.0162297
828.575	0.0161872
828.654	0.0161135
828.732	0.0161797
828.810	0.0162801
828.888	0.0160429
828.966	0.0161160
829.044	0.0162106
829.122	0.0160973
829.200	0.0161510
829.279	0.0161685
829.357	0.0162611
829.435	0.0161397
829.513	0.0159667
829.591	0.0160994
829.669	0.0161205
829.747	0.0160220
829.825	0.0161067
829.904	0.0160002
829.982	0.0160126
830.060	0.0160359
830.138	0.0160004
830.216	0.0159339
830.294	0.0159425
830.372	0.0160432
830.450	0.0159204
830.529	0.0158696
830.607	0.0158920
830.685	0.0159229
830.763	0.0160029
830.841	0.0159818
830.919	0.0159960
830.997	0.0158711
831.075	0.0161249
831.154	0.0159827
831.232	0.0160607
831.310	0.0161128
831.388	0.0160748
831.466	0.0160740
831.544	0.0161496
831.622	0.0162595
831.700	0.0163260
831.779	0.0160704
831.857	0.0162576
831.935	0.0162701
832.013	0.0163295
832.091	0.0162817
832.169	0.0162442
832.247	0.0162603
832.325	0.0161910
832.404	0.0163928
832.482	0.0162192
832.560	0.0160992
832.638	0.0162192
832.716	0.0161906
832.794	0.0162241
832.872	0.0160394
832.950	0.0160067
833.029	0.0161417
833.107	0.0161171
833.185	0.0160373
833.263	0.0160752
833.341	0.0158765
833.419	0.0159552
833.497	0.0160138
833.575	0.0159632
833.654	0.0159689
833.732	0.0160167
833.810	0.0159674
833.888	0.0158509
833.966	0.0158383
834.044	0.0160353
834.122	0.0160697
834.200	0.0159201
834.279	0.0159940
834.357	0.0159630
834.435	0.0160488
834.513	0.0159609
834.591	0.0159802
834.669	0.0160880
834.747	0.0159583
834.825	0.0160043
834.904	0.0159122
834.982	0.0159179
835.060	0.0158920
835.138	0.0160005
835.216	0.0159387
835.294	0.0158325
835.372	0.0159071
835.450	0.0158873
835.529	0.0160186
835.607	0.0160083
835.685	0.0160055
835.763	0.0159576
835.841	0.0160822
835.919	0.0159436
835.997	0.0159567
836.075	0.0161252
836.154	0.0161025
836.232	0.0161209
836.310	0.0162002
836.388	0.0160480
836.466	0.0161568
836.544	0.0160805
836.622	0.0161961
836.700	0.0161010
836.779	0.0161034
836.857	0.0163257
836.935	0.0162850
837.013	0.0161263
837.091	0.0160317
837.169	0.0161005
837.247	0.0161505
837.325	0.0162767
837.404	0.0161275
837.482	0.0161880
837.560	0.0160537
837.638	0.0160220
837.716	0.0160690
837.794	0.0160963
837.872	0.0161987
837.950	0.0161242
838.029	0.0160847
838.107	0.0161727
838.185	0.0160426
838.263	0.0159827
838.341	0.0159889
838.419	0.0160470
838.497	0.0159769
838.575	0.0159415
838.654	0.0160156
838.732	0.0159908
838.810	0.0159825
838.888	0.0160990
838.966	0.0160197
839.044	0.0161613
839.122	0.0161281
839.200	0.0161404
839.279	0.0161357
839.357	0.0162376
839.435	0.0161813
839.513	0.0161111
839.591	0.0162015
839.669	0.0162640
839.747	0.0161845
839.825	0.0162436
839.904	0.0162378
839.982	0.0162566
840.060	0.0161852
840.138	0.0162247
840.216	0.0162324
840.294	0.0162836
840.372	0.0160245
840.450	0.0161884
840.529	0.0162467
840.607	0.0161085
840.685	0.0160857
840.763	0.0160476
840.841	0.0160582
840.919	0.0161872
840.997	0.0159586
841.075	0.0160008
841.154	0.0161216
841.232	0.0160164
841.310	0.0159098
841.388	0.0159271
841.466	0.0159368
841.544	0.0159438
841.622	0.0160223
841.700	0.0159023
841.779	0.0158690
841.857	0.0158479
841.935	0.0159238
842.013	0.0159673
842.091	0.0158125
842.169	0.0157889
842.247	0.0157282
842.325	0.0158144
842.404	0.0158683
842.482	0.0157773
842.560	0.0157744
842.638	0.0157872
842.716	0.0157513
842.794	0.0158904
842.872	0.0160384
842.950	0.0160007
843.029	0.0159270
843.107	0.0160065
843.185	0.0160828
843.263	0.0161335
843.341	0.0160446
843.419	0.0161315
843.497	0.0163579
843.575	0.0161976
843.654	0.0161642
843.732	0.0160582
843.810	0.0160188
843.888	0.0162366
843.966	0.0161025
844.044	0.0160762
844.122	0.0160607
844.200	0.0160721
844.279	0.0162212
844.357	0.0161799
844.435	0.0160713
844.513	0.0161848
844.591	0.0159447
844.669	0.0160709
844.747	0.0160431
844.825	0.0159792
844.904	0.0159328
844.982	0.0159401
845.060	0.0159402
845.138	0.0158312
845.216	0.0158878
845.294	0.0158329
845.372	0.0158256
845.450	0.0158331
845.529	0.0158052
845.607	0.0158430
845.685	0.0158421
845.763	0.0157446
845.841	0.0159007
845.919	0.0158688
845.997	0.0158146
846.075	0.0159277
846.154	0.0158877
846.232	0.0159386
846.310	0.0158945
846.388	0.0158249
846.466	0.0158362
846.544	0.0158816
846.622	0.0158495
846.700	0.0159070
846.779	0.0158863
846.857	0.0159558
846.935	0.0158692
847.013	0.0160184
847.091	0.0159238
847.169	0.0157951
847.247	0.0160567
847.325	0.0159586
847.404	0.0158850
847.482	0.0159219
847.560	0.0160573
847.638	0.0160226
847.716	0.0159394
847.794	0.0160006
847.872	0.0160740
847.950	0.0159280
848.029	0.0161266
848.107	0.0159727
848.185	0.0160471
848.263	0.0159937
848.341	0.0160304
848.419	0.0161301
848.497	0.0160442
848.575	0.0158521
848.654	0.0159764
848.732	0.0159256
848.810	0.0159960
848.888	0.0161775
848.966	0.0160001
849.044	0.0158640
849.122	0.0159772
849.200	0.0160136
849.279	0.0159246
849.357	0.0161231
849.435	0.0160144
849.513	0.0160118
849.591	0.0160246
849.669	0.0160519
849.747	0.0160879
849.825	0.0159566
849.904	0.0160203
849.982	0.0159596
850.060	0.0160884
850.138	0.0159231
850.216	0.0160953
850.294	0.0161530
850.372	0.0161390
850.450	0.0160532
850.529	0.0160629
850.607	0.0160846
850.685	0.0161733
850.763	0.0161345
850.841	0.0161137
850.919	0.0161691
850.997	0.0161807
851.075	0.0159982
851.154	0.0162207
851.232	0.0161984
851.310	0.0161123
851.388	0.0161462
851.466	0.0160841
851.544	0.0161089
851.622	0.0161208
851.700	0.0161790
851.779	0.0162470
851.857	0.0160975
851.935	0.0160426
852.013	0.0161588
852.091	0.0161638
852.169	0.0163288
852.247	0.0163665
852.325	0.0163074
852.404	0.0161891
852.482	0.0160865
852.560	0.0162270
852.638	0.0162173
852.716	0.0163287
852.794	0.0162281
852.872	0.0162759
852.950	0.0163490
853.029	0.0162693
853.107	0.0162720
853.185	0.0162521
853.263	0.0161237
853.341	0.0163445
853.419	0.0162342
853.497	0.0161079
853.575	0.0162743
853.654	0.0161007
853.732	0.0162003
853.810	0.0161015
853.888	0.0161334
853.966	0.0161837
854.044	0.0161665
854.122	0.0161375
854.200	0.0160908
854.279	0.0160909
854.357	0.0161356
854.435	0.0160585
854.513	0.0160400
854.591	0.0160574
854.669	0.0160179
854.747	0.0160666
854.825	0.0160189
854.904	0.0161359
854.982	0.0159804
855.060	0.0161324
855.138	0.0163409
855.216	0.0163128
855.294	0.0162399
855.372	0.0162448
855.450	0.0162422
855.529	0.0162817
855.607	0.0162925
855.685	0.0163317
855.763	0.0162986
855.841	0.0162514
855.919	0.0162708
855.997	0.0162694
856.075	0.0162183
856.154	0.0161390
856.232	0.0162860
856.310	0.0161605
856.388	0.0160569
856.466	0.0160474
856.544	0.0159231
856.622	0.0160570
856.700	0.0160606
856.779	0.0159652
856.857	0.0159394
856.935	0.0158918
857.013	0.0159273
857.091	0.0160378
857.169	0.0157770
857.247	0.0159511
857.325	0.0160322
857.404	0.0158686
857.482	0.0157426
857.560	0.0159856
857.638	0.0158802
857.716	0.0158178
857.794	0.0159798
857.872	0.0159164
857.950	0.0159293
858.029	0.0159948
858.107	0.0159499
858.185	0.0162640
858.263	0.0161333
858.341	0.0160426
858.419	0.0161209
858.497	0.0161726
858.575	0.0162481
858.654	0.0162181
858.732	0.0160757
858.810	0.0160887
858.888	0.0163021
858.966	0.0162804
859.044	0.0162342
859.122	0.0161923
859.200	0.0163014
859.279	0.0161964
859.357	0.0160897
859.435	0.0160704
859.513	0.0161718
859.591	0.0160374
859.669	0.0160826
859.747	0.0159032
859.825	0.0160465
859.904	0.0160152
859.982	0.0158815
860.060	0.0160479
860.138	0.0160052
860.216	0.0160123
860.294	0.0159180
860.372	0.0161204
860.450	0.0160396
860.529	0.0158978
860.607	0.0160749
860.685	0.0161822
860.763	0.0158730
860.841	0.0159144
860.919	0.0161623
860.997	0.0161063
861.075	0.0159353
861.154	0.0161415
861.232	0.0160796
861.310	0.0159983
861.388	0.0161850
861.466	0.0159764
861.544	0.0161949
861.622	0.0161990
861.700	0.0160224
861.779	0.0161673
861.857	0.0160678
861.935	0.0163275
862.013	0.0160653
862.091	0.0161106
862.169	0.0159657
862.247	0.0160959
862.325	0.0159600
862.404	0.0160515
862.482	0.0159953
862.560	0.0158833
862.638	0.0160435
862.716	0.0160657
862.794	0.0160519
862.872	0.0161153
862.950	0.0160435
863.029	0.0160345
863.107	0.0158983
863.185	0.0159710
863.263	0.0161074
863.341	0.0159665
863.419	0.0161382
863.497	0.0159401
863.575	0.0158440
863.654	0.0158745
863.732	0.0159070
863.810	0.0159700
863.888	0.0158046
863.966	0.0159068
864.044	0.0158801
864.122	0.0156757
864.200	0.0158340
864.279	0.0157961
864.357	0.0158035
864.435	0.0158282
864.513	0.0159377
864.591	0.0158289
864.669	0.0156911
864.747	0.0158794
864.825	0.0158154
864.904	0.0158305
864.982	0.0158197
865.060	0.0159107
865.138	0.0158743
865.216	0.0159409
865.294	0.0159217
865.372	0.0158584
865.450	0.0158052
865.529	0.0159707
865.607	0.0159030
865.685	0.0159330
865.763	0.0159368
865.841	0.0159316
865.919	0.0160032
865.997	0.0159070
866.075	0.0157456
866.154	0.0157496
866.232	0.0160156
866.310	0.0158969
866.388	0.0158447
866.466	0.0158700
866.544	0.0159953
866.622	0.0160084
866.700	0.0156912
866.779	0.0158427
866.857	0.0160545
866.935	0.0159238
867.013	0.0160213
867.091	0.0159885
867.169	0.0159569
867.247	0.0161505
867.325	0.0159639
867.404	0.0158955
867.482	0.0159974
867.560	0.0161626
867.638	0.0162492
867.716	0.0159966
867.794	0.0161288
867.872	0.0161204
867.950	0.0161459
868.029	0.0161790
868.107	0.0161125
868.185	0.0161484
868.263	0.0162380
868.341	0.0161062
868.419	0.0162387
868.497	0.0161956
868.575	0.0161279
868.654	0.0160087
868.732	0.0160984
868.810	0.0161937
868.888	0.0161862
868.966	0.0161389
869.044	0.0160800
869.122	0.0160722
869.200	0.0160313
869.279	0.0158856
869.357	0.0161214
869.435	0.0160351
869.513	0.0159952
869.591	0.0159477
869.669	0.0159505
869.747	0.0157587
869.825	0.0159649
869.904	0.0158754
869.982	0.0157330
870.060	0.0159929
870.138	0.0160548
870.216	0.0160072
870.294	0.0159630
870.372	0.0159280
870.450	0.0159644
870.529	0.0160130
870.607	0.0160267
870.685	0.0159879
870.763	0.0159391
870.841	0.0159888
870.919	0.0159959
870.997	0.0159676
871.075	0.0160121
871.154	0.0159254
871.232	0.0160329
871.310	0.0159364
871.388	0.0160800
871.466	0.0160189
871.544	0.0160313
871.622	0.0161521
871.700	0.0158732
871.779	0.0159187
871.857	0.0160973
871.935	0.0161404
872.013	0.0160567
872.091	0.0160636
872.169	0.0160268
872.247	0.0160407
872.325	0.0160040
872.404	0.0159789
872.482	0.0160931
872.560	0.0160853
872.638	0.0160430
872.716	0.0159937
872.794	0.0158601
872.872	0.0160825
872.950	0.0160149
873.029	0.0160136
873.107	0.0160630
873.185	0.0159701
873.263	0.0160369
873.341	0.0160068
873.419	0.0160961
873.497	0.0160564
873.575	0.0160209
873.654	0.0159776
873.732	0.0160374
873.810	0.0160747
873.888	0.0159642
873.966	0.0159841
874.044	0.0158739
874.122	0.0160437
874.200	0.0160147
874.279	0.0161954
874.357	0.0160007
874.435	0.0160172
874.513	0.0160706
874.591	0.0160142
874.669	0.0161268
874.747	0.0161565
874.825	0.0160638
874.904	0.0160396
874.982	0.0161643
875.060	0.0160439
875.138	0.0161896
875.216	0.0161806
875.294	0.0162276
875.372	0.0162268
875.450	0.0163686
875.529	0.0161797
875.607	0.0161998
875.685	0.0161520
875.763	0.0161008
875.841	0.0161852
875.919	0.0162088
875.997	0.0163964
876.075	0.0163871
876.154	0.0163315
876.232	0.0164292
876.310	0.0161505
876.388	0.0163429
876.466	0.0162219
876.544	0.0161935
876.622	0.0162318
876.700	0.0163031
876.779	0.0163980
876.857	0.0162289
876.935	0.0162194
877.013	0.0162462
877.091	0.0163085
877.169	0.0163235
877.247	0.0161338
877.325	0.0161255
877.404	0.0162260
877.482	0.0162414
877.560	0.0163240
877.638	0.0161307
877.716	0.0161403
877.794	0.0161321
877.872	0.0161063
877.950	0.0161156
878.029	0.0161221
878.107	0.0161188
878.185	0.0158887
878.263	0.0160425
878.341	0.0161568
878.419	0.0161877
878.497	0.0160254
878.575	0.0160174
878.654	0.0160809
878.732	0.0161508
878.810	0.0161343
878.888	0.0161813
878.966	0.0161174
879.044	0.0160886
879.122	0.0160682
879.200	0.0161196
879.279	0.0161205
879.357	0.0160697
879.435	0.0160301
879.513	0.0160999
879.591	0.0160045
879.669	0.0160590
879.747	0.0158743
879.825	0.0160586
879.904	0.0160086
879.982	0.0159706
880.060	0.0158713
880.138	0.0159997
880.216	0.0160582
880.294	0.0159702
880.372	0.0157977
880.450	0.0158973
880.529	0.0159190
880.607	0.0159264
880.685	0.0158584
880.763	0.0159618
880.841	0.0158036
880.919	0.0157175
880.997	0.0158851
881.075	0.0157777
881.154	0.0158244
881.232	0.0158108
881.310	0.0157468
881.388	0.0157956
881.466	0.0157178
881.544	0.0157713
881.622	0.0157348
881.700	0.0157214
881.779	0.0157719
881.857	0.0158098
881.935	0.0158801
882.013	0.0157975
882.091	0.0157389
882.169	0.0158507
882.247	0.0159008
882.325	0.0158152
882.404	0.0159069
882.482	0.0159097
882.560	0.0159790
882.638	0.0160288
882.716	0.0159048
882.794	0.0160165
882.872	0.0159474
882.950	0.0160497
883.029	0.0160516
883.107	0.0160152
883.185	0.0161612
883.263	0.0161038
883.341	0.0161189
883.419	0.0160867
883.497	0.0162072
883.575	0.0161044
883.654	0.0162351
883.732	0.0161921
883.810	0.0161034
883.888	0.0159674
883.966	0.0160648
884.044	0.0161507
884.122	0.0161315
884.200	0.0160088
884.279	0.0160130
884.357	0.0161214
884.435	0.0161102
884.513	0.0159327
884.591	0.0160938
884.669	0.0159990
884.747	0.0159389
884.825	0.0161209
884.904	0.0160856
884.982	0.0159837
885.060	0.0160105
885.138	0.0161134
885.216	0.0159758
885.294	0.0160567
885.372	0.0160281
885.450	0.0160514
885.529	0.0161266
885.607	0.0161128
885.685	0.0158962
885.763	0.0159138
885.841	0.0158715
885.919	0.0159015
885.997	0.0159904
886.075	0.0160531
886.154	0.0159109
886.232	0.0159023
886.310	0.0160537
886.388	0.0161185
886.466	0.0161288
886.544	0.0160733
886.622	0.0159831
886.700	0.0161461
886.779	0.0162039
886.857	0.0162139
886.935	0.0160193
887.013	0.0161125
887.091	0.0161781
887.169	0.0161293
887.247	0.0163313
887.325	0.0161916
887.404	0.0160641
887.482	0.0160988
887.560	0.0163274
887.638	0.0163706
887.716	0.0161391
887.794	0.0162316
887.872	0.0162179
887.950	0.0162940
888.029	0.0162891
888.107	0.0162498
888.185	0.0161997
888.263	0.0163081
888.341	0.0161922
888.419	0.0161412
888.497	0.0161296
888.575	0.0161710
888.654	0.0162821
888.732	0.0162993
888.810	0.0161654
888.888	0.0162372
888.966	0.0160670
889.044	0.0160957
889.122	0.0162704
889.200	0.0161739
889.279	0.0160075
889.357	0.0161342
889.435	0.0162531
889.513	0.0160440
889.591	0.0160335
889.669	0.0160488
889.747	0.0159868
889.825	0.0160497
889.904	0.0159454
889.982	0.0159635
890.060	0.0160197
890.138	0.0160349
890.216	0.0158730
890.294	0.0158723
890.372	0.0160052
890.450	0.0160108
890.529	0.0160433
890.607	0.0160313
890.685	0.0159441
890.763	0.0159666
890.841	0.0159285
890.919	0.0159172
890.997	0.0161684
891.075	0.0159626
891.154	0.0158958
891.232	0.0160096
891.310	0.0160258
891.388	0.0159633
891.466	0.0159547
891.544	0.0158485
891.622	0.0158779
891.700	0.0158540
891.779	0.0159830
891.857	0.0159052
891.935	0.0159033
892.013	0.0159106
892.091	0.0160059
892.169	0.0160188
892.247	0.0158064
892.325	0.0160017
892.404	0.0160583
892.482	0.0160210
892.560	0.0161243
892.638	0.0160030
892.716	0.0159065
892.794	0.0162101
892.872	0.0160252
892.950	0.0161156
893.029	0.0160682
893.107	0.0161583
893.185	0.0160420
893.263	0.0160565
893.341	0.0160678
893.419	0.0161357
893.497	0.0160906
893.575	0.0160519
893.654	0.0160563
893.732	0.0159790
893.810	0.0159458
893.888	0.0160578
893.966	0.0159936
894.044	0.0159955
894.122	0.0158300
894.200	0.0160320
894.279	0.0160839
894.357	0.0159385
894.435	0.0159595
894.513	0.0159538
894.591	0.0160221
894.669	0.0160109
894.747	0.0160462
894.825	0.0160490
894.904	0.0159879
894.982	0.0160027
895.060	0.0159924
895.138	0.0159496
895.216	0.0160423
895.294	0.0160122
895.372	0.0160300
895.450	0.0160789
895.529	0.0160202
895.607	0.0159525
895.685	0.0160189
895.763	0.0161053
895.841	0.0160898
895.919	0.0160305
895.997	0.0161136
896.075	0.0159581
896.154	0.0159586
896.232	0.0161669
896.310	0.0160499
896.388	0.0158845
896.466	0.0159945
896.544	0.0159938
896.622	0.0160233
896.700	0.0158997
896.779	0.0159514
896.857	0.0159381
896.935	0.0159264
897.013	0.0159044
897.091	0.0159948
897.169	0.0159701
897.247	0.0160288
897.325	0.0159830
897.404	0.0160305
897.482	0.0158524
897.560	0.0160355
897.638	0.0160611
897.716	0.0160382
897.794	0.0160473
897.872	0.0161888
897.950	0.0160596
898.029	0.0161144
898.107	0.0161452
898.185	0.0160555
898.263	0.0159401
898.341	0.0159840
898.419	0.0159628
898.497	0.0160629
898.575	0.0160453
898.654	0.0159813
898.732	0.0159761
898.810	0.0160420
898.888	0.0160082
898.966	0.0158994
899.044	0.0159216
899.122	0.0159795
899.200	0.0161040
899.279	0.0160402
899.357	0.0161235
899.435	0.0159214
899.513	0.0160510
899.591	0.0160994
899.669	0.0159710
899.747	0.0160247
899.825	0.0160217
899.904	0.0159229
899.982	0.0160110
900.060	0.0160286
900.138	0.0159502
900.216	0.0159840
900.294	0.0160166
900.372	0.0159745
900.450	0.0159809
900.529	0.0157929
900.607	0.0159875
900.685	0.0158864
900.763	0.0158332
900.841	0.0157788
900.919	0.0158292
900.997	0.0158450
901.075	0.0157970
901.154	0.0158966
901.232	0.0159150
901.310	0.0160361
901.388	0.0158710
901.466	0.0159986
901.544	0.0160573
901.622	0.0158439
901.700	0.0160116
901.779	0.0159406
901.857	0.0159605
901.935	0.0159730
902.013	0.0160669
902.091	0.0160564
902.169	0.0161729
902.247	0.0160331
902.325	0.0161622
902.404	0.0161145
902.482	0.0160984
902.560	0.0160639
902.638	0.0160433
902.716	0.0160164
902.794	0.0161713
902.872	0.0160637
902.950	0.0159676
903.029	0.0160405
903.107	0.0160963
903.185	0.0160004
903.263	0.0161561
903.341	0.0160852
903.419	0.0160427
903.497	0.0160336
903.575	0.0161057
903.654	0.0160152
903.732	0.0161230
903.810	0.0160471
903.888	0.0161295
903.966	0.0159614
904.044	0.0160613
904.122	0.0161090
904.200	0.0161306
904.279	0.0162263
904.357	0.0160973
904.435	0.0160967
904.513	0.0160320
904.591	0.0160680
904.669	0.0161633
904.747	0.0162482
904.825	0.0160876
904.904	0.0161022
904.982	0.0160986
905.060	0.0160583
905.138	0.0161408
905.216	0.0160477
905.294	0.0160818
905.372	0.0159904
905.450	0.0159708
905.529	0.0160150
905.607	0.0160207
905.685	0.0158630
905.763	0.0159657
905.841	0.0161043
905.919	0.0157835
905.997	0.0160197
906.075	0.0160522
906.154	0.0160063
906.232	0.0159737
906.310	0.0158138
906.388	0.0160320
906.466	0.0159274
906.544	0.0159551
906.622	0.0160073
906.700	0.0159419
906.779	0.0159448
906.857	0.0158218
906.935	0.0159112
907.013	0.0158978
907.091	0.0158994
907.169	0.0158875
907.247	0.0157280
907.325	0.0158829
907.404	0.0158317
907.482	0.0158614
907.560	0.0159039
907.638	0.0158205
907.716	0.0158185
907.794	0.0159578
907.872	0.0158639
907.950	0.0160474
908.029	0.0160127
908.107	0.0159093
908.185	0.0161181
908.263	0.0161427
908.341	0.0160571
908.419	0.0158586
908.497	0.0161090
908.575	0.0161197
908.654	0.0160514
908.732	0.0159932
908.810	0.0159283
908.888	0.0160260
908.966	0.0161179
909.044	0.0162204
909.122	0.0161446
909.200	0.0160071
909.279	0.0161485
909.357	0.0160535
909.435	0.0160067
909.513	0.0161930
909.591	0.0161121
909.669	0.0160773
909.747	0.0161506
909.825	0.0160716
909.904	0.0161152
909.982	0.0161169
910.060	0.0161076
910.138	0.0162026
910.216	0.0160870
910.294	0.0161056
910.372	0.0159910
910.450	0.0161180
910.529	0.0160912
910.607	0.0161922
910.685	0.0162080
910.763	0.0160821
910.841	0.0161461
910.919	0.0161964
910.997	0.0161388
911.075	0.0162031
911.154	0.0161072
911.232	0.0160928
911.310	0.0163150
911.388	0.0162157
911.466	0.0161815
911.544	0.0161724
911.622	0.0161231
911.700	0.0159616
911.779	0.0160471
911.857	0.0160966
911.935	0.0161573
912.013	0.0160869
912.091	0.0159355
912.169	0.0160665
912.247	0.0161719
912.325	0.0160319
912.404	0.0160076
912.482	0.0159884
912.560	0.0160818
912.638	0.0161193
912.716	0.0159911
912.794	0.0161561
912.872	0.0160974
912.950	0.0159599
913.029	0.0159333
913.107	0.0160645
913.185	0.0159968
913.263	0.0159312
913.341	0.0159638
913.419	0.0160546
913.497	0.0160516
913.575	0.0159757
913.654	0.0159439
913.732	0.0159859
913.810	0.0160227
913.888	0.0160251
913.966	0.0160747
914.044	0.0160551
914.122	0.0161279
914.200	0.0161339
914.279	0.0159551
914.357	0.0158901
914.435	0.0161189
914.513	0.0159234
914.591	0.0158875
914.669	0.0159100
914.747	0.0158081
914.825	0.0159152
914.904	0.0158464
914.982	0.0159359
915.060	0.0158210
915.138	0.0159161
915.216	0.0158415
915.294	0.0157876
915.372	0.0158875
915.450	0.0160274
915.529	0.0159826
915.607	0.0159635
915.685	0.0160023
915.763	0.0158066
915.841	0.0159226
915.919	0.0160856
915.997	0.0159728
916.075	0.0160612
916.154	0.0161340
916.232	0.0161237
916.310	0.0161716
916.388	0.0161448
916.466	0.0162491
916.544	0.0161823
916.622	0.0162629
916.700	0.0163570
916.779	0.0162564
916.857	0.0163541
916.935	0.0164393
917.013	0.0163232
917.091	0.0162611
917.169	0.0162967
917.247	0.0162994
917.325	0.0164787
917.404	0.0163223
917.482	0.0162830
917.560	0.0163718
917.638	0.0164513
917.716	0.0162815
917.794	0.0163274
917.872	0.0162175
917.950	0.0161102
918.029	0.0161575
918.107	0.0162782
918.185	0.0161704
918.263	0.0162857
918.341	0.0160703
918.419	0.0161480
918.497	0.0159436
918.575	0.0160418
918.654	0.0160230
918.732	0.0160304
918.810	0.0162284
918.888	0.0160621
918.966	0.0159993
919.044	0.0161846
919.122	0.0161613
919.200	0.0161534
919.279	0.0160071
919.357	0.0160027
919.435	0.0161717
919.513	0.0160226
919.591	0.0159552
919.669	0.0161062
919.747	0.0159525
919.825	0.0160307
919.904	0.0161334
