05/24/2022	20:47:32	Ver.	4.1	UNKNOWN
Optical Delay	599.981738	Delta X		0.078125	Sweeps	1	Scan Rate	0/0
Coordinates	Axis 1	NaN	Axis 2	NaN	Axis 3	NaN	Axis 4	NaN	Axis 5	NaN	Axis 6	0.000000
TX Power	0.000000	RX Power	0.000000

599.982	0.0162725
600.060	0.0162367
600.138	0.0163469
600.216	0.0163647
600.294	0.0162637
600.372	0.0163552
600.450	0.0162437
600.529	0.0163212
600.607	0.0162880
600.685	0.0161697
600.763	0.0162397
600.841	0.0162505
600.919	0.0162568
600.997	0.0162538
601.075	0.0161636
601.154	0.0161503
601.232	0.0161758
601.310	0.0162113
601.388	0.0161491
601.466	0.0159586
601.544	0.0161650
601.622	0.0162063
601.700	0.0161993
601.779	0.0162707
601.857	0.0162864
601.935	0.0161690
602.013	0.0163696
602.091	0.0162386
602.169	0.0162853
602.247	0.0162318
602.325	0.0162386
602.404	0.0163192
602.482	0.0162847
602.560	0.0162531
602.638	0.0163448
602.716	0.0162687
602.794	0.0163461
602.872	0.0163954
602.950	0.0162875
603.029	0.0163523
603.107	0.0163467
603.185	0.0165585
603.263	0.0163936
603.341	0.0163956
603.419	0.0163498
603.497	0.0163630
603.575	0.0164401
603.654	0.0163629
603.732	0.0165205
603.810	0.0165176
603.888	0.0163186
603.966	0.0163626
604.044	0.0162724
604.122	0.0163151
604.200	0.0162941
604.279	0.0163419
604.357	0.0163396
604.435	0.0162920
604.513	0.0162218
604.591	0.0163539
604.669	0.0162287
604.747	0.0162202
604.825	0.0162247
604.904	0.0164143
604.982	0.0163514
605.060	0.0161901
605.138	0.0162371
605.216	0.0163499
605.294	0.0162406
605.372	0.0163168
605.450	0.0163811
605.529	0.0162408
605.607	0.0162910
605.685	0.0164392
605.763	0.0164466
605.841	0.0161552
605.919	0.0163579
605.997	0.0162460
606.075	0.0162931
606.154	0.0161385
606.232	0.0162862
606.310	0.0161140
606.388	0.0162537
606.466	0.0161865
606.544	0.0162904
606.622	0.0162177
606.700	0.0163185
606.779	0.0162198
606.857	0.0162254
606.935	0.0163803
607.013	0.0164046
607.091	0.0162439
607.169	0.0162553
607.247	0.0163409
607.325	0.0163357
607.404	0.0164705
607.482	0.0163133
607.560	0.0163539
607.638	0.0163554
607.716	0.0162499
607.794	0.0165303
607.872	0.0164017
607.950	0.0162675
608.029	0.0163206
608.107	0.0163662
608.185	0.0164586
608.263	0.0162944
608.341	0.0163783
608.419	0.0163653
608.497	0.0162331
608.575	0.0164030
608.654	0.0162881
608.732	0.0163223
608.810	0.0163318
608.888	0.0162217
608.966	0.0162452
609.044	0.0163052
609.122	0.0162989
609.200	0.0162331
609.279	0.0162184
609.357	0.0162297
609.435	0.0161317
609.513	0.0161906
609.591	0.0162225
609.669	0.0162117
609.747	0.0161524
609.825	0.0162324
609.904	0.0162608
609.982	0.0160512
610.060	0.0161564
610.138	0.0161427
610.216	0.0162070
610.294	0.0161836
610.372	0.0161082
610.450	0.0161573
610.529	0.0162134
610.607	0.0163321
610.685	0.0162148
610.763	0.0162753
610.841	0.0163032
610.919	0.0162919
610.997	0.0162964
611.075	0.0163507
611.154	0.0162549
611.232	0.0161804
611.310	0.0162269
611.388	0.0162658
611.466	0.0163223
611.544	0.0162672
611.622	0.0163693
611.700	0.0162881
611.779	0.0162015
611.857	0.0163173
611.935	0.0161196
612.013	0.0162140
612.091	0.0161321
612.169	0.0162377
612.247	0.0161892
612.325	0.0162296
612.404	0.0163160
612.482	0.0163378
612.560	0.0163095
612.638	0.0161474
612.716	0.0162725
612.794	0.0161935
612.872	0.0161466
612.950	0.0162730
613.029	0.0162342
613.107	0.0161464
613.185	0.0162034
613.263	0.0161102
613.341	0.0160558
613.419	0.0160718
613.497	0.0161225
613.575	0.0162586
613.654	0.0163313
613.732	0.0161715
613.810	0.0162855
613.888	0.0163465
613.966	0.0163636
614.044	0.0165689
614.122	0.0165443
614.200	0.0163585
614.279	0.0166024
614.357	0.0165430
614.435	0.0167486
614.513	0.0167203
614.591	0.0167580
614.669	0.0167747
614.747	0.0167982
614.825	0.0167200
614.904	0.0164909
614.982	0.0165828
615.060	0.0166557
615.138	0.0166633
615.216	0.0164180
615.294	0.0165852
615.372	0.0163847
615.450	0.0163580
615.529	0.0164944
615.607	0.0164233
615.685	0.0165179
615.763	0.0163879
615.841	0.0163811
615.919	0.0163924
615.997	0.0162749
616.075	0.0162858
616.154	0.0163766
616.232	0.0163117
616.310	0.0161942
616.388	0.0163488
616.466	0.0163844
616.544	0.0163175
616.622	0.0162847
616.700	0.0162806
616.779	0.0162651
616.857	0.0162490
616.935	0.0162038
617.013	0.0160983
617.091	0.0161970
617.169	0.0161210
617.247	0.0160489
617.325	0.0160625
617.404	0.0158977
617.482	0.0159148
617.560	0.0158255
617.638	0.0156961
617.716	0.0156627
617.794	0.0158691
617.872	0.0158785
617.950	0.0156388
618.029	0.0156490
618.107	0.0157798
618.185	0.0157856
618.263	0.0160553
618.341	0.0160380
618.419	0.0163316
618.497	0.0162042
618.575	0.0164558
618.654	0.0167110
618.732	0.0167781
618.810	0.0168072
618.888	0.0169962
618.966	0.0170711
619.044	0.0172618
619.122	0.0172054
619.200	0.0172153
619.279	0.0172446
619.357	0.0171799
619.435	0.0171879
619.513	0.0169272
619.591	0.0168802
619.669	0.0167705
619.747	0.0164261
619.825	0.0163549
619.904	0.0163552
619.982	0.0162823
620.060	0.0159618
620.138	0.0158848
620.216	0.0157653
620.294	0.0157976
620.372	0.0156040
620.450	0.0155595
620.529	0.0154998
620.607	0.0152740
620.685	0.0150551
620.763	0.0151219
620.841	0.0150055
620.919	0.0150231
620.997	0.0148650
621.075	0.0148625
621.154	0.0150095
621.232	0.0148769
621.310	0.0149661
621.388	0.0151650
621.466	0.0154608
621.544	0.0154817
621.622	0.0156496
621.700	0.0157063
621.779	0.0160109
621.857	0.0160738
621.935	0.0163447
622.013	0.0165697
622.091	0.0166354
622.169	0.0168820
622.247	0.0168932
622.325	0.0169846
622.404	0.0172177
622.482	0.0172060
622.560	0.0172022
622.638	0.0172898
622.716	0.0173644
622.794	0.0172711
622.872	0.0172105
622.950	0.0171938
623.029	0.0170541
623.107	0.0169003
623.185	0.0168493
623.263	0.0166011
623.341	0.0165005
623.419	0.0165699
623.497	0.0162891
623.575	0.0163662
623.654	0.0162388
623.732	0.0159143
623.810	0.0159751
623.888	0.0157773
623.966	0.0156928
624.044	0.0156069
624.122	0.0156334
624.200	0.0156297
624.279	0.0157251
624.357	0.0155602
624.435	0.0156309
624.513	0.0155222
624.591	0.0155731
624.669	0.0154963
624.747	0.0154485
624.825	0.0155859
624.904	0.0154478
624.982	0.0154314
625.060	0.0154325
625.138	0.0152964
625.216	0.0154485
625.294	0.0153928
625.372	0.0153100
625.450	0.0155215
625.529	0.0157073
625.607	0.0155376
625.685	0.0156395
625.763	0.0157643
625.841	0.0158503
625.919	0.0161176
625.997	0.0162654
626.075	0.0164999
626.154	0.0166113
626.232	0.0170060
626.310	0.0170322
626.388	0.0172903
626.466	0.0175936
626.544	0.0178585
626.622	0.0179881
626.700	0.0182169
626.779	0.0182881
626.857	0.0186861
626.935	0.0187147
627.013	0.0187534
627.091	0.0187682
627.169	0.0187161
627.247	0.0184678
627.325	0.0184680
627.404	0.0184127
627.482	0.0179575
627.560	0.0178093
627.638	0.0174697
627.716	0.0172021
627.794	0.0168156
627.872	0.0165539
627.950	0.0161894
628.029	0.0159197
628.107	0.0155538
628.185	0.0153324
628.263	0.0149050
628.341	0.0146805
628.419	0.0145943
628.497	0.0144738
628.575	0.0140891
628.654	0.0140812
628.732	0.0138390
628.810	0.0138656
628.888	0.0136883
628.966	0.0136573
629.044	0.0136602
629.122	0.0137193
629.200	0.0137613
629.279	0.0137773
629.357	0.0139780
629.435	0.0141382
629.513	0.0142117
629.591	0.0144171
629.669	0.0147666
629.747	0.0150425
629.825	0.0154015
629.904	0.0156501
629.982	0.0158656
630.060	0.0163161
630.138	0.0166141
630.216	0.0169636
630.294	0.0172902
630.372	0.0175465
630.450	0.0178385
630.529	0.0178187
630.607	0.0181068
630.685	0.0182629
630.763	0.0184843
630.841	0.0187140
630.919	0.0185073
630.997	0.0186488
631.075	0.0187864
631.154	0.0187847
631.232	0.0188328
631.310	0.0189198
631.388	0.0188060
631.466	0.0189436
631.544	0.0190108
631.622	0.0186367
631.700	0.0186354
631.779	0.0186595
631.857	0.0183746
631.935	0.0180122
632.013	0.0178370
632.091	0.0175601
632.169	0.0172426
632.247	0.0167824
632.325	0.0164022
632.404	0.0159947
632.482	0.0155436
632.560	0.0151135
632.638	0.0147675
632.716	0.0143309
632.794	0.0140623
632.872	0.0137715
632.950	0.0135582
633.029	0.0133679
633.107	0.0131567
633.185	0.0130508
633.263	0.0129639
633.341	0.0128731
633.419	0.0126839
633.497	0.0129310
633.575	0.0131041
633.654	0.0131375
633.732	0.0133150
633.810	0.0135501
633.888	0.0139260
633.966	0.0141335
634.044	0.0145871
634.122	0.0150797
634.200	0.0154052
634.279	0.0158948
634.357	0.0162544
634.435	0.0167687
634.513	0.0172837
634.591	0.0176759
634.669	0.0179560
634.747	0.0183464
634.825	0.0185375
634.904	0.0187329
634.982	0.0189120
635.060	0.0190068
635.138	0.0189239
635.216	0.0189861
635.294	0.0190186
635.372	0.0189837
635.450	0.0188084
635.529	0.0187159
635.607	0.0185586
635.685	0.0184338
635.763	0.0181880
635.841	0.0181396
635.919	0.0179562
635.997	0.0178689
636.075	0.0175828
636.154	0.0172812
636.232	0.0171828
636.310	0.0168697
636.388	0.0168870
636.466	0.0166103
636.544	0.0162710
636.622	0.0160497
636.700	0.0158770
636.779	0.0155130
636.857	0.0153642
636.935	0.0152823
637.013	0.0151704
637.091	0.0150166
637.169	0.0149429
637.247	0.0147256
637.325	0.0148289
637.404	0.0147865
637.482	0.0149309
637.560	0.0148811
637.638	0.0150146
637.716	0.0150024
637.794	0.0149679
637.872	0.0150468
637.950	0.0152201
638.029	0.0152392
638.107	0.0153091
638.185	0.0153168
638.263	0.0155143
638.341	0.0157153
638.419	0.0158394
638.497	0.0159016
638.575	0.0158919
638.654	0.0160921
638.732	0.0162517
638.810	0.0162432
638.888	0.0163876
638.966	0.0164370
639.044	0.0164894
639.122	0.0164349
639.200	0.0162557
639.279	0.0163368
639.357	0.0163395
639.435	0.0163145
639.513	0.0162366
639.591	0.0160948
639.669	0.0160592
639.747	0.0160375
639.825	0.0161193
639.904	0.0159898
639.982	0.0160210
640.060	0.0159383
640.138	0.0160011
640.216	0.0158956
640.294	0.0158387
640.372	0.0159732
640.450	0.0159564
640.529	0.0160401
640.607	0.0159813
640.685	0.0159148
640.763	0.0161749
640.841	0.0161984
640.919	0.0161587
640.997	0.0164273
641.075	0.0166000
641.154	0.0166631
641.232	0.0167402
641.310	0.0167931
641.388	0.0169360
641.466	0.0168614
641.544	0.0166532
641.622	0.0167536
641.700	0.0166950
641.779	0.0167012
641.857	0.0168282
641.935	0.0166469
642.013	0.0167522
642.091	0.0168549
642.169	0.0167206
642.247	0.0169132
642.325	0.0168382
642.404	0.0170801
642.482	0.0171843
642.560	0.0170532
642.638	0.0172523
642.716	0.0172222
642.794	0.0170816
642.872	0.0170653
642.950	0.0170643
643.029	0.0169016
643.107	0.0168349
643.185	0.0166433
643.263	0.0164922
643.341	0.0164247
643.419	0.0162535
643.497	0.0161887
643.575	0.0160024
643.654	0.0158498
643.732	0.0155878
643.810	0.0156469
643.888	0.0156117
643.966	0.0154975
644.044	0.0153826
644.122	0.0151900
644.200	0.0151118
644.279	0.0149045
644.357	0.0149516
644.435	0.0146384
644.513	0.0143846
644.591	0.0142500
644.669	0.0141754
644.747	0.0140038
644.825	0.0140809
644.904	0.0139959
644.982	0.0139325
645.060	0.0140903
645.138	0.0141579
645.216	0.0143037
645.294	0.0145873
645.372	0.0147171
645.450	0.0150365
645.529	0.0153302
645.607	0.0155972
645.685	0.0159244
645.763	0.0162481
645.841	0.0166544
645.919	0.0168136
645.997	0.0170385
646.075	0.0173478
646.154	0.0176696
646.232	0.0177536
646.310	0.0180683
646.388	0.0180610
646.466	0.0181756
646.544	0.0184178
646.622	0.0186325
646.700	0.0185101
646.779	0.0185093
646.857	0.0187368
646.935	0.0186746
647.013	0.0186076
647.091	0.0185112
647.169	0.0184775
647.247	0.0184807
647.325	0.0182860
647.404	0.0179626
647.482	0.0179387
647.560	0.0176308
647.638	0.0173736
647.716	0.0171030
647.794	0.0169255
647.872	0.0166763
647.950	0.0164315
648.029	0.0161285
648.107	0.0159866
648.185	0.0157216
648.263	0.0156320
648.341	0.0154886
648.419	0.0153834
648.497	0.0150408
648.575	0.0150728
648.654	0.0148576
648.732	0.0147054
648.810	0.0145544
648.888	0.0143922
648.966	0.0143755
649.044	0.0140822
649.122	0.0139433
649.200	0.0140307
649.279	0.0138837
649.357	0.0138468
649.435	0.0138564
649.513	0.0139405
649.591	0.0139379
649.669	0.0143245
649.747	0.0143381
649.825	0.0146066
649.904	0.0149170
649.982	0.0150037
650.060	0.0154089
650.138	0.0155457
650.216	0.0157009
650.294	0.0159772
650.372	0.0162375
650.450	0.0163172
650.529	0.0164015
650.607	0.0166245
650.685	0.0165833
650.763	0.0167886
650.841	0.0170112
650.919	0.0171787
650.997	0.0173431
651.075	0.0176051
651.154	0.0176447
651.232	0.0178112
651.310	0.0178019
651.388	0.0180467
651.466	0.0179887
651.544	0.0180930
651.622	0.0181998
651.700	0.0182574
651.779	0.0182895
651.857	0.0183768
651.935	0.0181785
652.013	0.0181938
652.091	0.0181178
652.169	0.0179868
652.247	0.0178156
652.325	0.0176205
652.404	0.0174143
652.482	0.0173861
652.560	0.0171322
652.638	0.0169482
652.716	0.0167496
652.794	0.0166988
652.872	0.0165279
652.950	0.0161881
653.029	0.0162513
653.107	0.0158152
653.185	0.0157132
653.263	0.0156790
653.341	0.0153821
653.419	0.0150382
653.497	0.0149261
653.575	0.0149340
653.654	0.0145850
653.732	0.0142558
653.810	0.0143501
653.888	0.0142837
653.966	0.0142708
654.044	0.0142072
654.122	0.0143555
654.200	0.0144530
654.279	0.0145418
654.357	0.0147247
654.435	0.0147598
654.513	0.0149963
654.591	0.0150690
654.669	0.0155173
654.747	0.0157644
654.825	0.0158762
654.904	0.0162817
654.982	0.0165191
655.060	0.0168497
655.138	0.0170979
655.216	0.0174100
655.294	0.0176059
655.372	0.0179308
655.450	0.0181361
655.529	0.0182322
655.607	0.0183703
655.685	0.0183867
655.763	0.0183543
655.841	0.0182374
655.919	0.0181792
655.997	0.0180445
656.075	0.0177661
656.154	0.0176107
656.232	0.0171846
656.310	0.0171310
656.388	0.0169595
656.466	0.0166373
656.544	0.0163479
656.622	0.0160063
656.700	0.0158414
656.779	0.0155572
656.857	0.0152124
656.935	0.0152108
657.013	0.0150457
657.091	0.0147816
657.169	0.0149088
657.247	0.0148373
657.325	0.0148631
657.404	0.0149065
657.482	0.0148884
657.560	0.0150957
657.638	0.0153352
657.716	0.0153369
657.794	0.0155357
657.872	0.0157410
657.950	0.0159161
658.029	0.0161068
658.107	0.0163878
658.185	0.0164820
658.263	0.0167133
658.341	0.0167177
658.419	0.0167776
658.497	0.0169500
658.575	0.0167696
658.654	0.0167341
658.732	0.0167657
658.810	0.0168030
658.888	0.0167439
658.966	0.0167039
659.044	0.0166160
659.122	0.0165112
659.200	0.0163449
659.279	0.0163009
659.357	0.0162209
659.435	0.0161078
659.513	0.0158875
659.591	0.0160078
659.669	0.0159373
659.747	0.0158497
659.825	0.0158344
659.904	0.0158042
659.982	0.0160611
660.060	0.0158804
660.138	0.0158646
660.216	0.0160562
660.294	0.0160696
660.372	0.0162440
660.450	0.0162543
660.529	0.0161573
660.607	0.0161701
660.685	0.0161704
660.763	0.0162537
660.841	0.0161571
660.919	0.0160394
660.997	0.0160098
661.075	0.0159867
661.154	0.0158779
661.232	0.0158821
661.310	0.0157656
661.388	0.0156228
661.466	0.0157492
661.544	0.0157220
661.622	0.0156303
661.700	0.0156892
661.779	0.0156839
661.857	0.0157839
661.935	0.0159166
662.013	0.0161839
662.091	0.0162351
662.169	0.0162970
662.247	0.0164939
662.325	0.0167488
662.404	0.0169495
662.482	0.0169600
662.560	0.0171419
662.638	0.0172636
662.716	0.0174313
662.794	0.0174859
662.872	0.0175613
662.950	0.0175609
663.029	0.0175140
663.107	0.0175341
663.185	0.0174575
663.263	0.0172118
663.341	0.0171630
663.419	0.0170087
663.497	0.0167601
663.575	0.0165565
663.654	0.0163745
663.732	0.0161268
663.810	0.0159863
663.888	0.0157397
663.966	0.0154778
664.044	0.0153533
664.122	0.0150634
664.200	0.0149249
664.279	0.0148103
664.357	0.0146885
664.435	0.0145355
664.513	0.0145644
664.591	0.0144367
664.669	0.0146281
664.747	0.0147517
664.825	0.0148129
664.904	0.0148642
664.982	0.0150783
665.060	0.0152221
665.138	0.0153155
665.216	0.0156929
665.294	0.0159816
665.372	0.0161810
665.450	0.0165464
665.529	0.0165571
665.607	0.0168080
665.685	0.0170841
665.763	0.0172904
665.841	0.0174870
665.919	0.0175574
665.997	0.0178146
666.075	0.0178032
666.154	0.0180165
666.232	0.0178825
666.310	0.0179436
666.388	0.0179738
666.466	0.0179551
666.544	0.0178394
666.622	0.0177753
666.700	0.0176907
666.779	0.0176125
666.857	0.0171850
666.935	0.0170907
667.013	0.0169304
667.091	0.0166759
667.169	0.0164809
667.247	0.0163136
667.325	0.0160738
667.404	0.0161982
667.482	0.0158464
667.560	0.0157214
667.638	0.0155599
667.716	0.0156168
667.794	0.0155594
667.872	0.0153935
667.950	0.0152524
668.029	0.0153235
668.107	0.0153235
668.185	0.0151414
668.263	0.0151170
668.341	0.0151371
668.419	0.0150986
668.497	0.0149454
668.575	0.0149100
668.654	0.0151460
668.732	0.0151279
668.810	0.0152031
668.888	0.0153485
668.966	0.0155007
669.044	0.0156536
669.122	0.0157523
669.200	0.0158891
669.279	0.0162382
669.357	0.0162354
669.435	0.0164404
669.513	0.0167051
669.591	0.0168151
669.669	0.0170586
669.747	0.0170772
669.825	0.0172398
669.904	0.0173092
669.982	0.0175050
670.060	0.0175512
670.138	0.0176184
670.216	0.0174782
670.294	0.0174675
670.372	0.0175036
670.450	0.0175986
670.529	0.0174453
670.607	0.0173365
670.685	0.0170879
670.763	0.0169891
670.841	0.0169643
670.919	0.0167757
670.997	0.0165137
671.075	0.0164312
671.154	0.0164561
671.232	0.0160687
671.310	0.0159526
671.388	0.0159019
671.466	0.0158016
671.544	0.0158233
671.622	0.0157349
671.700	0.0156040
671.779	0.0156851
671.857	0.0157314
671.935	0.0155589
672.013	0.0155972
672.091	0.0155911
672.169	0.0157584
672.247	0.0156710
672.325	0.0158382
672.404	0.0158363
672.482	0.0155852
672.560	0.0158433
672.638	0.0159479
672.716	0.0159631
672.794	0.0158855
672.872	0.0160175
672.950	0.0160022
673.029	0.0160498
673.107	0.0162615
673.185	0.0163306
673.263	0.0162104
673.341	0.0163723
673.419	0.0164091
673.497	0.0163466
673.575	0.0164587
673.654	0.0163567
673.732	0.0164361
673.810	0.0164445
673.888	0.0164973
673.966	0.0164594
674.044	0.0165894
674.122	0.0165626
674.200	0.0165782
674.279	0.0165088
674.357	0.0165182
674.435	0.0166068
674.513	0.0166337
674.591	0.0166286
674.669	0.0167591
674.747	0.0167436
674.825	0.0168510
674.904	0.0169160
674.982	0.0169685
675.060	0.0168565
675.138	0.0168531
675.216	0.0168914
675.294	0.0170592
675.372	0.0169635
675.450	0.0169834
675.529	0.0169212
675.607	0.0168307
675.685	0.0167423
675.763	0.0167979
675.841	0.0168555
675.919	0.0166523
675.997	0.0164875
676.075	0.0165797
676.154	0.0165067
676.232	0.0164246
676.310	0.0161588
676.388	0.0162995
676.466	0.0163441
676.544	0.0160720
676.622	0.0158860
676.700	0.0159553
676.779	0.0157345
676.857	0.0155994
676.935	0.0154140
677.013	0.0154904
677.091	0.0154469
677.169	0.0154919
677.247	0.0151588
677.325	0.0151556
677.404	0.0152023
677.482	0.0150359
677.560	0.0151852
677.638	0.0153046
677.716	0.0152459
677.794	0.0153323
677.872	0.0155199
677.950	0.0155247
678.029	0.0157800
678.107	0.0159008
678.185	0.0160502
678.263	0.0162641
678.341	0.0163420
678.419	0.0165223
678.497	0.0166125
678.575	0.0167818
678.654	0.0168025
678.732	0.0169966
678.810	0.0169597
678.888	0.0171973
678.966	0.0171778
679.044	0.0170856
679.122	0.0169786
679.200	0.0172141
679.279	0.0171844
679.357	0.0172228
679.435	0.0171402
679.513	0.0170616
679.591	0.0170286
679.669	0.0169039
679.747	0.0168328
679.825	0.0168552
679.904	0.0167274
679.982	0.0165279
680.060	0.0165260
680.138	0.0163928
680.216	0.0163342
680.294	0.0163076
680.372	0.0161792
680.450	0.0160945
680.529	0.0159367
680.607	0.0161013
680.685	0.0160794
680.763	0.0161052
680.841	0.0160655
680.919	0.0159422
680.997	0.0160326
681.075	0.0162676
681.154	0.0162418
681.232	0.0162688
681.310	0.0163846
681.388	0.0165730
681.466	0.0165269
681.544	0.0164574
681.622	0.0165871
681.700	0.0164883
681.779	0.0165758
681.857	0.0164735
681.935	0.0164072
682.013	0.0163740
682.091	0.0164301
682.169	0.0164008
682.247	0.0162222
682.325	0.0161491
682.404	0.0161295
682.482	0.0160504
682.560	0.0158485
682.638	0.0159505
682.716	0.0158644
682.794	0.0158728
682.872	0.0159086
682.950	0.0159660
683.029	0.0159002
683.107	0.0160848
683.185	0.0161263
683.263	0.0163087
683.341	0.0162067
683.419	0.0163338
683.497	0.0162883
683.575	0.0164361
683.654	0.0164536
683.732	0.0164299
683.810	0.0164758
683.888	0.0164594
683.966	0.0163835
684.044	0.0165112
684.122	0.0165057
684.200	0.0164253
684.279	0.0163683
684.357	0.0163362
684.435	0.0163104
684.513	0.0162185
684.591	0.0162545
684.669	0.0162791
684.747	0.0161757
684.825	0.0162872
684.904	0.0161600
684.982	0.0161465
685.060	0.0162543
685.138	0.0162729
685.216	0.0162479
685.294	0.0163594
685.372	0.0163049
685.450	0.0164146
685.529	0.0165304
685.607	0.0163304
685.685	0.0163152
685.763	0.0163860
685.841	0.0165064
685.919	0.0162904
685.997	0.0162891
686.075	0.0162464
686.154	0.0164708
686.232	0.0164274
686.310	0.0163614
686.388	0.0162508
686.466	0.0162182
686.544	0.0163396
686.622	0.0165669
686.700	0.0165707
686.779	0.0165294
686.857	0.0164132
686.935	0.0164714
687.013	0.0165402
687.091	0.0165665
687.169	0.0164696
687.247	0.0163018
687.325	0.0163540
687.404	0.0163155
687.482	0.0162859
687.560	0.0162957
687.638	0.0162608
687.716	0.0162704
687.794	0.0163802
687.872	0.0162267
687.950	0.0163097
688.029	0.0160427
688.107	0.0160496
688.185	0.0160251
688.263	0.0160344
688.341	0.0160504
688.419	0.0160228
688.497	0.0160322
688.575	0.0159526
688.654	0.0159494
688.732	0.0158560
688.810	0.0158041
688.888	0.0158868
688.966	0.0157186
689.044	0.0158484
689.122	0.0156775
689.200	0.0156493
689.279	0.0157224
689.357	0.0159235
689.435	0.0158717
689.513	0.0157616
689.591	0.0159322
689.669	0.0159824
689.747	0.0160818
689.825	0.0161619
689.904	0.0163392
689.982	0.0164248
690.060	0.0163692
690.138	0.0165629
690.216	0.0166452
690.294	0.0166714
690.372	0.0167387
690.450	0.0169053
690.529	0.0168652
690.607	0.0169714
690.685	0.0169344
690.763	0.0169509
690.841	0.0169748
690.919	0.0170438
690.997	0.0169225
691.075	0.0169140
691.154	0.0167923
691.232	0.0167294
691.310	0.0166608
691.388	0.0166972
691.466	0.0164552
691.544	0.0164380
691.622	0.0163607
691.700	0.0162676
691.779	0.0161901
691.857	0.0162042
691.935	0.0160487
692.013	0.0158769
692.091	0.0159332
692.169	0.0158832
692.247	0.0157581
692.325	0.0157254
692.404	0.0156525
692.482	0.0155074
692.560	0.0156182
692.638	0.0158246
692.716	0.0157101
692.794	0.0157841
692.872	0.0159161
692.950	0.0158667
693.029	0.0157870
693.107	0.0160204
693.185	0.0160934
693.263	0.0162634
693.341	0.0163073
693.419	0.0162017
693.497	0.0164715
693.575	0.0162676
693.654	0.0164154
693.732	0.0165308
693.810	0.0165009
693.888	0.0165774
693.966	0.0165225
694.044	0.0166468
694.122	0.0167027
694.200	0.0166562
694.279	0.0165009
694.357	0.0166142
694.435	0.0163506
694.513	0.0164276
694.591	0.0162643
694.669	0.0163376
694.747	0.0163486
694.825	0.0162415
694.904	0.0163110
694.982	0.0163464
695.060	0.0162704
695.138	0.0162191
695.216	0.0163612
695.294	0.0163326
695.372	0.0163977
695.450	0.0164613
695.529	0.0164345
695.607	0.0164329
695.685	0.0164270
695.763	0.0166402
695.841	0.0165696
695.919	0.0166997
695.997	0.0166922
696.075	0.0166884
696.154	0.0168226
696.232	0.0167612
696.310	0.0168183
696.388	0.0168914
696.466	0.0168786
696.544	0.0168925
696.622	0.0168809
696.700	0.0171140
696.779	0.0168494
696.857	0.0168592
696.935	0.0166814
697.013	0.0167566
697.091	0.0168358
697.169	0.0167472
697.247	0.0165209
697.325	0.0165308
697.404	0.0165377
697.482	0.0162759
697.560	0.0162771
697.638	0.0162682
697.716	0.0163022
697.794	0.0159967
697.872	0.0161135
697.950	0.0159694
698.029	0.0160802
698.107	0.0160242
698.185	0.0160123
698.263	0.0159341
698.341	0.0157412
698.419	0.0158827
698.497	0.0158867
698.575	0.0159067
698.654	0.0158560
698.732	0.0159039
698.810	0.0159060
698.888	0.0158015
698.966	0.0159613
699.044	0.0159323
699.122	0.0159325
699.200	0.0159493
699.279	0.0158882
699.357	0.0160347
699.435	0.0159975
699.513	0.0159293
699.591	0.0162260
699.669	0.0161862
699.747	0.0162930
699.825	0.0161417
699.904	0.0162259
699.982	0.0162911
700.060	0.0163486
700.138	0.0163573
700.216	0.0163999
700.294	0.0163519
700.372	0.0164207
700.450	0.0162909
700.529	0.0163564
700.607	0.0165559
700.685	0.0163411
700.763	0.0164307
700.841	0.0165685
700.919	0.0164381
700.997	0.0165040
701.075	0.0164510
701.154	0.0166187
701.232	0.0165808
701.310	0.0164198
701.388	0.0166190
701.466	0.0164890
701.544	0.0166752
701.622	0.0165090
701.700	0.0165751
701.779	0.0165631
701.857	0.0165822
701.935	0.0166972
702.013	0.0166113
702.091	0.0166177
702.169	0.0165435
702.247	0.0166417
702.325	0.0165851
702.404	0.0164751
702.482	0.0164787
702.560	0.0164191
702.638	0.0163193
702.716	0.0161951
702.794	0.0161485
702.872	0.0162123
702.950	0.0162067
703.029	0.0160996
703.107	0.0160756
703.185	0.0159662
703.263	0.0159816
703.341	0.0160766
703.419	0.0159026
703.497	0.0158869
703.575	0.0160351
703.654	0.0160754
703.732	0.0160871
703.810	0.0160369
703.888	0.0159119
703.966	0.0160390
704.044	0.0160265
704.122	0.0160306
704.200	0.0159573
704.279	0.0160229
704.357	0.0161024
704.435	0.0158846
704.513	0.0157973
704.591	0.0159548
704.669	0.0161081
704.747	0.0160968
704.825	0.0161449
704.904	0.0161754
704.982	0.0161929
705.060	0.0160854
705.138	0.0161549
705.216	0.0161500
705.294	0.0161793
705.372	0.0161767
705.450	0.0162263
705.529	0.0162047
705.607	0.0162788
705.685	0.0161460
705.763	0.0161707
705.841	0.0163265
705.919	0.0163694
705.997	0.0161900
706.075	0.0162241
706.154	0.0162728
706.232	0.0163330
706.310	0.0162464
706.388	0.0163918
706.466	0.0162611
706.544	0.0163210
706.622	0.0163543
706.700	0.0163976
706.779	0.0162922
706.857	0.0163412
706.935	0.0164982
707.013	0.0163728
707.091	0.0163941
707.169	0.0163220
707.247	0.0162093
707.325	0.0163300
707.404	0.0164536
707.482	0.0163962
707.560	0.0162899
707.638	0.0163439
707.716	0.0163042
707.794	0.0162358
707.872	0.0163070
707.950	0.0164138
708.029	0.0164352
708.107	0.0164407
708.185	0.0163558
708.263	0.0165889
708.341	0.0164633
708.419	0.0164018
708.497	0.0164482
708.575	0.0166206
708.654	0.0167041
708.732	0.0165707
708.810	0.0163983
708.888	0.0163981
708.966	0.0164593
709.044	0.0164410
709.122	0.0164170
709.200	0.0163657
709.279	0.0163014
709.357	0.0163171
709.435	0.0162366
709.513	0.0163125
709.591	0.0162566
709.669	0.0162082
709.747	0.0163421
709.825	0.0162484
709.904	0.0163051
709.982	0.0162690
710.060	0.0162637
710.138	0.0162344
710.216	0.0162061
710.294	0.0163697
710.372	0.0163122
710.450	0.0162289
710.529	0.0162980
710.607	0.0162201
710.685	0.0163530
710.763	0.0163004
710.841	0.0163728
710.919	0.0162563
710.997	0.0163763
711.075	0.0164763
711.154	0.0164061
711.232	0.0164412
711.310	0.0165101
711.388	0.0163600
711.466	0.0163860
711.544	0.0162893
711.622	0.0164483
711.700	0.0163255
711.779	0.0162168
711.857	0.0161217
711.935	0.0163091
712.013	0.0162567
712.091	0.0161979
712.169	0.0163155
712.247	0.0161932
712.325	0.0162044
712.404	0.0162060
712.482	0.0160100
712.560	0.0161980
712.638	0.0161539
712.716	0.0161829
712.794	0.0160791
712.872	0.0160765
712.950	0.0162117
713.029	0.0161745
713.107	0.0163636
713.185	0.0161727
713.263	0.0163225
713.341	0.0161358
713.419	0.0161769
713.497	0.0162611
713.575	0.0162363
713.654	0.0162415
713.732	0.0161117
713.810	0.0161827
713.888	0.0162930
713.966	0.0162582
714.044	0.0160944
714.122	0.0163728
714.200	0.0162712
714.279	0.0162044
714.357	0.0162563
714.435	0.0162579
714.513	0.0162931
714.591	0.0162249
714.669	0.0160925
714.747	0.0163374
714.825	0.0164122
714.904	0.0163736
714.982	0.0162522
715.060	0.0162453
715.138	0.0163585
715.216	0.0163020
715.294	0.0164259
715.372	0.0163430
715.450	0.0164877
715.529	0.0163877
715.607	0.0164568
715.685	0.0164290
715.763	0.0166543
715.841	0.0165549
715.919	0.0165083
715.997	0.0165016
716.075	0.0164795
716.154	0.0163770
716.232	0.0164518
716.310	0.0163778
716.388	0.0163522
716.466	0.0165270
716.544	0.0163567
716.622	0.0164253
716.700	0.0163573
716.779	0.0163427
716.857	0.0163110
716.935	0.0163699
717.013	0.0163752
717.091	0.0162086
717.169	0.0162823
717.247	0.0162867
717.325	0.0161378
717.404	0.0162664
717.482	0.0163132
717.560	0.0162271
717.638	0.0163071
717.716	0.0163623
717.794	0.0161598
717.872	0.0162572
717.950	0.0161765
718.029	0.0162168
718.107	0.0163281
718.185	0.0163323
718.263	0.0162917
718.341	0.0163762
718.419	0.0164137
718.497	0.0162649
718.575	0.0163990
718.654	0.0164546
718.732	0.0165225
718.810	0.0166995
718.888	0.0166214
718.966	0.0165179
719.044	0.0165213
719.122	0.0164753
719.200	0.0164637
719.279	0.0164130
719.357	0.0164813
719.435	0.0164162
719.513	0.0163483
719.591	0.0162907
719.669	0.0162778
719.747	0.0162764
719.825	0.0162416
719.904	0.0161224
719.982	0.0161043
720.060	0.0162070
720.138	0.0162044
720.216	0.0162135
720.294	0.0161983
720.372	0.0161730
720.450	0.0160955
720.529	0.0161778
720.607	0.0162105
720.685	0.0161517
720.763	0.0159679
720.841	0.0160953
720.919	0.0159676
720.997	0.0159723
721.075	0.0159055
721.154	0.0159337
721.232	0.0159282
721.310	0.0157831
721.388	0.0157910
721.466	0.0159913
721.544	0.0158392
721.622	0.0159002
721.700	0.0159679
721.779	0.0160573
721.857	0.0157124
721.935	0.0158689
722.013	0.0160323
722.091	0.0160052
722.169	0.0160361
722.247	0.0161420
722.325	0.0162730
722.404	0.0160901
722.482	0.0161050
722.560	0.0162070
722.638	0.0162266
722.716	0.0163338
722.794	0.0164520
722.872	0.0164706
722.950	0.0163552
723.029	0.0163409
723.107	0.0164753
723.185	0.0165201
723.263	0.0165667
723.341	0.0164270
723.419	0.0164474
723.497	0.0164667
723.575	0.0163591
723.654	0.0165607
723.732	0.0164744
723.810	0.0163004
723.888	0.0164795
723.966	0.0165492
724.044	0.0164595
724.122	0.0163480
724.200	0.0163418
724.279	0.0161981
724.357	0.0161899
724.435	0.0163531
724.513	0.0161922
724.591	0.0161763
724.669	0.0161951
724.747	0.0161349
724.825	0.0161011
724.904	0.0160198
724.982	0.0159964
725.060	0.0159897
725.138	0.0159639
725.216	0.0159779
725.294	0.0159855
725.372	0.0159261
725.450	0.0159975
725.529	0.0159233
725.607	0.0159523
725.685	0.0160571
725.763	0.0160686
725.841	0.0159717
725.919	0.0161612
725.997	0.0160848
726.075	0.0161466
726.154	0.0160734
726.232	0.0162717
726.310	0.0161764
726.388	0.0161681
726.466	0.0161285
726.544	0.0161335
726.622	0.0164186
726.700	0.0162715
726.779	0.0162956
726.857	0.0163474
726.935	0.0163586
727.013	0.0163362
727.091	0.0162290
727.169	0.0163313
727.247	0.0163506
727.325	0.0163070
727.404	0.0163924
727.482	0.0163487
727.560	0.0164772
727.638	0.0163743
727.716	0.0164177
727.794	0.0164069
727.872	0.0163703
727.950	0.0164201
728.029	0.0162852
728.107	0.0163647
728.185	0.0163881
728.263	0.0163707
728.341	0.0164293
728.419	0.0163283
728.497	0.0160728
728.575	0.0162205
728.654	0.0160630
728.732	0.0161484
728.810	0.0161752
728.888	0.0162684
728.966	0.0159712
729.044	0.0159835
729.122	0.0161196
729.200	0.0160210
729.279	0.0160668
729.357	0.0159892
729.435	0.0159391
729.513	0.0159770
729.591	0.0160104
729.669	0.0159580
729.747	0.0160876
729.825	0.0162016
729.904	0.0160921
729.982	0.0160416
730.060	0.0161230
730.138	0.0162390
730.216	0.0162280
730.294	0.0162138
730.372	0.0164510
730.450	0.0162735
730.529	0.0164795
730.607	0.0164716
730.685	0.0164448
730.763	0.0165705
730.841	0.0164649
730.919	0.0166245
730.997	0.0168407
731.075	0.0168208
731.154	0.0167852
731.232	0.0169852
731.310	0.0168814
731.388	0.0170277
731.466	0.0169976
731.544	0.0171205
731.622	0.0170404
731.700	0.0169519
731.779	0.0169538
731.857	0.0170171
731.935	0.0168557
732.013	0.0168134
732.091	0.0167858
732.169	0.0168133
732.247	0.0167216
732.325	0.0167300
732.404	0.0165533
732.482	0.0165047
732.560	0.0165093
732.638	0.0163857
732.716	0.0161772
732.794	0.0163033
732.872	0.0163269
732.950	0.0161937
733.029	0.0161248
733.107	0.0162228
733.185	0.0160034
733.263	0.0159645
733.341	0.0160592
733.419	0.0159918
733.497	0.0159029
733.575	0.0157919
733.654	0.0158839
733.732	0.0157632
733.810	0.0158264
733.888	0.0157202
733.966	0.0158759
734.044	0.0159741
734.122	0.0158572
734.200	0.0158666
734.279	0.0157967
734.357	0.0158842
734.435	0.0157915
734.513	0.0158746
734.591	0.0157771
734.669	0.0159276
734.747	0.0158466
734.825	0.0157349
734.904	0.0158924
734.982	0.0158196
735.060	0.0157155
735.138	0.0157726
735.216	0.0158081
735.294	0.0159863
735.372	0.0159367
735.450	0.0160527
735.529	0.0160667
735.607	0.0159636
735.685	0.0160598
735.763	0.0162123
735.841	0.0160995
735.919	0.0161453
735.997	0.0160690
736.075	0.0161050
736.154	0.0160843
736.232	0.0161407
736.310	0.0162334
736.388	0.0162293
736.466	0.0162521
736.544	0.0162880
736.622	0.0160109
736.700	0.0160999
736.779	0.0161784
736.857	0.0162219
736.935	0.0162637
737.013	0.0161410
737.091	0.0162952
737.169	0.0162788
737.247	0.0162833
737.325	0.0163502
737.404	0.0162144
737.482	0.0162607
737.560	0.0163033
737.638	0.0162011
737.716	0.0162772
737.794	0.0163392
737.872	0.0162431
737.950	0.0163063
738.029	0.0161781
738.107	0.0161975
738.185	0.0162377
738.263	0.0162041
738.341	0.0162473
738.419	0.0163345
738.497	0.0163737
738.575	0.0163631
738.654	0.0163789
738.732	0.0164015
738.810	0.0163789
738.888	0.0163258
738.966	0.0164877
739.044	0.0162823
739.122	0.0164194
739.200	0.0162786
739.279	0.0164445
739.357	0.0165117
739.435	0.0163322
739.513	0.0164334
739.591	0.0165467
739.669	0.0163960
739.747	0.0163503
739.825	0.0163840
739.904	0.0163807
739.982	0.0163515
740.060	0.0164770
740.138	0.0163782
740.216	0.0163744
740.294	0.0162999
740.372	0.0163393
740.450	0.0163291
740.529	0.0161957
740.607	0.0162480
740.685	0.0161665
740.763	0.0162459
740.841	0.0160983
740.919	0.0159937
740.997	0.0159451
741.075	0.0159869
741.154	0.0160563
741.232	0.0160055
741.310	0.0159225
741.388	0.0159235
741.466	0.0160925
741.544	0.0159566
741.622	0.0160522
741.700	0.0159557
741.779	0.0160291
741.857	0.0159171
741.935	0.0159760
742.013	0.0160903
742.091	0.0160740
742.169	0.0160203
742.247	0.0160690
742.325	0.0160175
742.404	0.0161473
742.482	0.0160515
742.560	0.0161493
742.638	0.0162086
742.716	0.0163347
742.794	0.0162693
742.872	0.0162487
742.950	0.0163081
743.029	0.0164106
743.107	0.0164970
743.185	0.0164341
743.263	0.0164249
743.341	0.0166137
743.419	0.0166412
743.497	0.0164147
743.575	0.0164601
743.654	0.0166151
743.732	0.0165757
743.810	0.0165895
743.888	0.0166062
743.966	0.0166565
744.044	0.0165558
744.122	0.0165018
744.200	0.0165760
744.279	0.0164418
744.357	0.0165977
744.435	0.0165031
744.513	0.0164308
744.591	0.0164896
744.669	0.0164632
744.747	0.0166339
744.825	0.0165288
744.904	0.0163378
744.982	0.0164945
745.060	0.0163874
745.138	0.0164485
745.216	0.0163086
745.294	0.0163223
745.372	0.0163309
745.450	0.0164168
745.529	0.0163000
745.607	0.0162902
745.685	0.0161361
745.763	0.0162009
745.841	0.0162128
745.919	0.0162144
745.997	0.0163251
746.075	0.0162112
746.154	0.0161244
746.232	0.0163104
746.310	0.0161547
746.388	0.0160877
746.466	0.0162486
746.544	0.0160675
746.622	0.0160960
746.700	0.0161327
746.779	0.0162767
746.857	0.0161637
746.935	0.0161095
747.013	0.0161522
747.091	0.0162420
747.169	0.0161533
747.247	0.0162997
747.325	0.0162956
747.404	0.0163908
747.482	0.0162369
747.560	0.0162684
747.638	0.0164902
747.716	0.0164058
747.794	0.0162291
747.872	0.0162225
747.950	0.0164375
748.029	0.0163453
748.107	0.0163625
748.185	0.0164150
748.263	0.0163103
748.341	0.0163800
748.419	0.0162376
748.497	0.0162227
748.575	0.0163526
748.654	0.0162804
748.732	0.0161598
748.810	0.0162588
748.888	0.0162819
748.966	0.0161069
749.044	0.0161732
749.122	0.0162055
749.200	0.0161274
749.279	0.0161639
749.357	0.0160586
749.435	0.0161047
749.513	0.0160590
749.591	0.0161846
749.669	0.0160816
749.747	0.0159824
749.825	0.0161403
749.904	0.0162357
749.982	0.0160806
750.060	0.0159416
750.138	0.0159859
750.216	0.0160303
750.294	0.0158395
750.372	0.0159169
750.450	0.0158865
750.529	0.0159032
750.607	0.0159222
750.685	0.0158402
750.763	0.0157437
750.841	0.0159455
750.919	0.0158632
750.997	0.0159232
751.075	0.0159624
751.154	0.0160638
751.232	0.0159756
751.310	0.0160003
751.388	0.0160651
751.466	0.0162022
751.544	0.0160599
751.622	0.0162109
751.700	0.0161676
751.779	0.0163231
751.857	0.0163058
751.935	0.0163422
752.013	0.0163233
752.091	0.0164658
752.169	0.0163876
752.247	0.0165375
752.325	0.0165735
752.404	0.0165383
752.482	0.0165705
752.560	0.0166795
752.638	0.0165869
752.716	0.0166013
752.794	0.0166581
752.872	0.0167784
752.950	0.0165143
753.029	0.0166727
753.107	0.0167905
753.185	0.0165609
753.263	0.0165903
753.341	0.0164738
753.419	0.0165794
753.497	0.0165646
753.575	0.0164635
753.654	0.0164291
753.732	0.0164252
753.810	0.0163194
753.888	0.0165163
753.966	0.0164539
754.044	0.0164593
754.122	0.0163877
754.200	0.0164273
754.279	0.0163610
754.357	0.0162210
754.435	0.0163334
754.513	0.0164259
754.591	0.0163504
754.669	0.0163285
754.747	0.0163844
754.825	0.0162716
754.904	0.0163185
754.982	0.0164640
755.060	0.0163296
755.138	0.0162241
755.216	0.0162743
755.294	0.0163624
755.372	0.0162104
755.450	0.0164235
755.529	0.0163749
755.607	0.0161779
755.685	0.0162929
755.763	0.0162676
755.841	0.0161951
755.919	0.0160663
755.997	0.0162222
756.075	0.0160727
756.154	0.0161377
756.232	0.0161302
756.310	0.0161806
756.388	0.0161615
756.466	0.0161550
756.544	0.0160834
756.622	0.0161973
756.700	0.0161279
756.779	0.0161031
756.857	0.0161631
756.935	0.0161919
757.013	0.0161703
757.091	0.0161742
757.169	0.0160881
757.247	0.0161140
757.325	0.0160448
757.404	0.0161029
757.482	0.0161360
757.560	0.0161546
757.638	0.0160316
757.716	0.0161356
757.794	0.0161101
757.872	0.0162064
757.950	0.0161880
758.029	0.0161541
758.107	0.0161477
758.185	0.0161621
758.263	0.0163136
758.341	0.0162858
758.419	0.0163013
758.497	0.0162505
758.575	0.0163985
758.654	0.0163631
758.732	0.0164316
758.810	0.0164735
758.888	0.0164595
758.966	0.0164717
759.044	0.0165567
759.122	0.0165390
759.200	0.0164336
759.279	0.0165134
759.357	0.0165993
759.435	0.0165688
759.513	0.0166400
759.591	0.0166667
759.669	0.0166357
759.747	0.0165639
759.825	0.0165312
759.904	0.0165318
759.982	0.0164679
760.060	0.0165720
760.138	0.0164367
760.216	0.0163961
760.294	0.0163815
760.372	0.0162923
760.450	0.0163511
760.529	0.0162448
760.607	0.0161514
760.685	0.0163370
760.763	0.0161044
760.841	0.0162262
760.919	0.0160518
760.997	0.0160419
761.075	0.0160420
761.154	0.0161215
761.232	0.0161288
761.310	0.0160182
761.388	0.0160943
761.466	0.0161489
761.544	0.0161568
761.622	0.0161427
761.700	0.0160639
761.779	0.0161849
761.857	0.0160935
761.935	0.0160863
762.013	0.0161211
762.091	0.0161451
762.169	0.0161430
762.247	0.0161991
762.325	0.0161905
762.404	0.0161664
762.482	0.0161967
762.560	0.0161940
762.638	0.0163802
762.716	0.0164078
762.794	0.0163670
762.872	0.0164755
762.950	0.0163857
763.029	0.0163831
763.107	0.0162926
763.185	0.0164240
763.263	0.0163428
763.341	0.0163814
763.419	0.0164349
763.497	0.0162720
763.575	0.0163715
763.654	0.0162856
763.732	0.0162956
763.810	0.0163401
763.888	0.0164169
763.966	0.0164153
764.044	0.0163981
764.122	0.0162783
764.200	0.0163321
764.279	0.0164024
764.357	0.0164333
764.435	0.0164146
764.513	0.0163852
764.591	0.0163084
764.669	0.0163235
764.747	0.0163535
764.825	0.0163698
764.904	0.0163675
764.982	0.0163273
765.060	0.0162531
765.138	0.0163081
765.216	0.0161629
765.294	0.0162827
765.372	0.0162908
765.450	0.0162180
765.529	0.0162688
765.607	0.0162365
765.685	0.0162812
765.763	0.0162095
765.841	0.0162743
765.919	0.0163336
765.997	0.0161544
766.075	0.0162579
766.154	0.0162403
766.232	0.0161317
766.310	0.0162304
766.388	0.0162373
766.466	0.0161179
766.544	0.0161871
766.622	0.0163092
766.700	0.0162300
766.779	0.0162514
766.857	0.0163365
766.935	0.0162829
767.013	0.0161930
767.091	0.0160794
767.169	0.0162572
767.247	0.0161583
767.325	0.0162457
767.404	0.0162472
767.482	0.0161543
767.560	0.0162341
767.638	0.0161897
767.716	0.0161706
767.794	0.0163219
767.872	0.0162036
767.950	0.0162097
768.029	0.0161026
768.107	0.0163520
768.185	0.0163286
768.263	0.0161694
768.341	0.0163150
768.419	0.0163626
768.497	0.0162711
768.575	0.0162048
768.654	0.0165109
768.732	0.0164350
768.810	0.0163288
768.888	0.0164515
768.966	0.0166976
769.044	0.0163474
769.122	0.0163537
769.200	0.0164619
769.279	0.0164732
769.357	0.0165348
769.435	0.0164401
769.513	0.0165718
769.591	0.0166011
769.669	0.0166257
769.747	0.0164131
769.825	0.0164483
769.904	0.0163454
769.982	0.0165820
770.060	0.0164250
770.138	0.0163900
770.216	0.0165350
770.294	0.0164957
770.372	0.0164251
770.450	0.0164857
770.529	0.0165528
770.607	0.0164124
770.685	0.0164561
770.763	0.0163600
770.841	0.0163683
770.919	0.0163123
770.997	0.0164150
771.075	0.0164743
771.154	0.0164667
771.232	0.0163165
771.310	0.0162865
771.388	0.0162823
771.466	0.0164819
771.544	0.0162883
771.622	0.0163779
771.700	0.0163757
771.779	0.0163486
771.857	0.0163746
771.935	0.0163577
772.013	0.0163874
772.091	0.0162872
772.169	0.0164208
772.247	0.0164091
772.325	0.0163751
772.404	0.0163324
772.482	0.0162833
772.560	0.0163848
772.638	0.0164807
772.716	0.0162547
772.794	0.0162799
772.872	0.0163314
772.950	0.0163430
773.029	0.0163342
773.107	0.0162778
773.185	0.0163734
773.263	0.0162919
773.341	0.0163256
773.419	0.0164021
773.497	0.0163404
773.575	0.0163535
773.654	0.0163096
773.732	0.0163159
773.810	0.0162840
773.888	0.0163323
773.966	0.0162627
774.044	0.0161095
774.122	0.0162579
774.200	0.0163967
774.279	0.0164048
774.357	0.0161483
774.435	0.0161823
774.513	0.0164262
774.591	0.0163582
774.669	0.0162840
774.747	0.0162625
774.825	0.0162442
774.904	0.0162757
774.982	0.0163671
775.060	0.0163772
775.138	0.0162437
775.216	0.0162638
775.294	0.0161902
775.372	0.0162915
775.450	0.0162526
775.529	0.0163608
775.607	0.0164358
775.685	0.0163054
775.763	0.0162929
775.841	0.0163754
775.919	0.0163592
775.997	0.0162606
776.075	0.0161989
776.154	0.0161911
776.232	0.0163732
776.310	0.0161939
776.388	0.0163004
776.466	0.0162350
776.544	0.0163645
776.622	0.0164034
776.700	0.0163492
776.779	0.0163342
776.857	0.0163270
776.935	0.0162424
777.013	0.0164163
777.091	0.0164128
777.169	0.0163181
777.247	0.0163744
777.325	0.0163190
777.404	0.0162477
777.482	0.0162980
777.560	0.0161469
777.638	0.0161669
777.716	0.0161491
777.794	0.0162229
777.872	0.0161706
777.950	0.0162351
778.029	0.0161908
778.107	0.0161894
778.185	0.0161907
778.263	0.0162627
778.341	0.0162149
778.419	0.0161983
778.497	0.0161962
778.575	0.0163082
778.654	0.0163000
778.732	0.0163793
778.810	0.0162015
778.888	0.0161974
778.966	0.0162416
779.044	0.0162512
779.122	0.0162378
779.200	0.0162308
779.279	0.0160761
779.357	0.0162775
779.435	0.0164310
779.513	0.0161871
779.591	0.0162949
779.669	0.0163213
779.747	0.0163009
779.825	0.0164062
779.904	0.0163621
779.982	0.0163489
780.060	0.0164610
780.138	0.0163823
780.216	0.0162717
780.294	0.0163525
780.372	0.0163834
780.450	0.0164202
780.529	0.0164874
780.607	0.0165879
780.685	0.0163499
780.763	0.0163642
780.841	0.0163541
780.919	0.0164167
780.997	0.0163858
781.075	0.0163568
781.154	0.0162980
781.232	0.0164571
781.310	0.0162424
781.388	0.0162342
781.466	0.0164663
781.544	0.0163392
781.622	0.0164887
781.700	0.0163963
781.779	0.0164264
781.857	0.0163007
781.935	0.0164428
782.013	0.0163754
782.091	0.0163512
782.169	0.0163502
782.247	0.0164109
782.325	0.0163009
782.404	0.0162572
782.482	0.0164314
782.560	0.0163406
782.638	0.0163895
782.716	0.0163971
782.794	0.0162558
782.872	0.0162136
782.950	0.0164198
783.029	0.0163202
783.107	0.0163918
783.185	0.0164059
783.263	0.0163839
783.341	0.0161559
783.419	0.0163020
783.497	0.0163076
783.575	0.0163104
783.654	0.0163180
783.732	0.0164071
783.810	0.0162849
783.888	0.0164304
783.966	0.0163202
784.044	0.0162908
784.122	0.0163550
784.200	0.0162548
784.279	0.0162782
784.357	0.0162962
784.435	0.0163499
784.513	0.0164029
784.591	0.0163621
784.669	0.0162254
784.747	0.0162968
784.825	0.0164742
784.904	0.0163035
784.982	0.0163493
785.060	0.0162965
785.138	0.0163686
785.216	0.0163807
785.294	0.0163880
785.372	0.0161764
785.450	0.0164349
785.529	0.0163082
785.607	0.0161896
785.685	0.0162225
785.763	0.0161471
785.841	0.0162226
785.919	0.0163319
785.997	0.0162793
786.075	0.0162551
786.154	0.0162196
786.232	0.0161958
786.310	0.0162112
786.388	0.0161957
786.466	0.0163821
786.544	0.0162749
786.622	0.0161996
786.700	0.0163354
786.779	0.0161584
786.857	0.0162199
786.935	0.0162993
787.013	0.0163016
787.091	0.0163371
787.169	0.0162451
787.247	0.0161945
787.325	0.0163979
787.404	0.0162802
787.482	0.0163146
787.560	0.0161166
787.638	0.0162457
787.716	0.0163113
787.794	0.0163227
787.872	0.0162498
787.950	0.0162289
788.029	0.0161388
788.107	0.0161903
788.185	0.0161854
788.263	0.0162283
788.341	0.0161880
788.419	0.0162135
788.497	0.0162634
788.575	0.0161789
788.654	0.0161667
788.732	0.0162683
788.810	0.0163128
788.888	0.0162900
788.966	0.0162381
789.044	0.0161794
789.122	0.0162444
789.200	0.0161767
789.279	0.0163353
789.357	0.0162962
789.435	0.0161885
789.513	0.0162480
789.591	0.0161848
789.669	0.0161695
789.747	0.0162680
789.825	0.0162570
789.904	0.0162350
789.982	0.0161634
790.060	0.0161547
790.138	0.0161913
790.216	0.0162859
790.294	0.0161985
790.372	0.0163078
790.450	0.0162283
790.529	0.0163309
790.607	0.0163014
790.685	0.0160425
790.763	0.0162708
790.841	0.0162577
790.919	0.0162962
790.997	0.0163445
791.075	0.0161672
791.154	0.0161462
791.232	0.0162198
791.310	0.0162489
791.388	0.0162980
791.466	0.0162878
791.544	0.0161572
791.622	0.0161106
791.700	0.0163313
791.779	0.0162959
791.857	0.0162829
791.935	0.0163107
792.013	0.0162084
792.091	0.0162007
792.169	0.0162229
792.247	0.0162122
792.325	0.0163210
792.404	0.0163118
792.482	0.0162049
792.560	0.0163379
792.638	0.0163758
792.716	0.0161343
792.794	0.0161813
792.872	0.0164735
792.950	0.0162857
793.029	0.0162997
793.107	0.0162929
793.185	0.0161533
793.263	0.0163605
793.341	0.0164314
793.419	0.0163964
793.497	0.0163570
793.575	0.0163043
793.654	0.0163727
793.732	0.0162109
793.810	0.0163615
793.888	0.0163887
793.966	0.0163569
794.044	0.0161906
794.122	0.0164005
794.200	0.0164372
794.279	0.0164248
794.357	0.0164297
794.435	0.0162715
794.513	0.0165495
794.591	0.0165028
794.669	0.0164127
794.747	0.0164851
794.825	0.0164275
794.904	0.0163651
794.982	0.0163265
795.060	0.0163043
795.138	0.0163233
795.216	0.0161969
795.294	0.0162406
795.372	0.0161866
795.450	0.0162524
795.529	0.0161964
795.607	0.0162357
795.685	0.0160636
795.763	0.0162057
795.841	0.0163007
795.919	0.0161533
795.997	0.0161559
796.075	0.0162419
796.154	0.0162157
796.232	0.0162408
796.310	0.0161787
796.388	0.0161653
796.466	0.0162220
796.544	0.0161441
796.622	0.0162052
796.700	0.0161756
796.779	0.0162618
796.857	0.0162620
796.935	0.0164103
797.013	0.0161739
797.091	0.0161729
797.169	0.0162162
797.247	0.0164330
797.325	0.0162341
797.404	0.0162209
797.482	0.0163004
797.560	0.0163631
797.638	0.0163140
797.716	0.0165263
797.794	0.0164461
797.872	0.0164117
797.950	0.0163771
798.029	0.0164063
798.107	0.0165654
798.185	0.0165479
798.263	0.0164025
798.341	0.0165639
798.419	0.0165210
798.497	0.0165160
798.575	0.0165209
798.654	0.0166045
798.732	0.0165707
798.810	0.0165105
798.888	0.0164479
798.966	0.0164532
799.044	0.0164415
799.122	0.0163117
799.200	0.0163763
799.279	0.0163836
799.357	0.0165221
799.435	0.0165702
799.513	0.0164987
799.591	0.0164841
799.669	0.0164722
799.747	0.0164306
799.825	0.0162853
799.904	0.0164806
799.982	0.0164120
800.060	0.0163889
800.138	0.0163811
800.216	0.0163584
800.294	0.0163351
800.372	0.0164128
800.450	0.0163169
800.529	0.0163483
800.607	0.0163246
800.685	0.0164533
800.763	0.0162457
800.841	0.0163219
800.919	0.0162932
800.997	0.0163215
801.075	0.0163059
801.154	0.0163527
801.232	0.0163169
801.310	0.0163727
801.388	0.0162915
801.466	0.0162971
801.544	0.0163250
801.622	0.0162165
801.700	0.0161330
801.779	0.0162051
801.857	0.0161984
801.935	0.0162692
802.013	0.0163538
802.091	0.0162440
802.169	0.0162072
802.247	0.0162445
802.325	0.0162136
802.404	0.0163486
802.482	0.0162651
802.560	0.0161927
802.638	0.0162032
802.716	0.0161658
802.794	0.0162634
802.872	0.0161900
802.950	0.0160899
803.029	0.0162527
803.107	0.0161928
803.185	0.0161295
803.263	0.0159840
803.341	0.0160638
803.419	0.0161556
803.497	0.0162846
803.575	0.0161345
803.654	0.0160959
803.732	0.0160806
803.810	0.0160120
803.888	0.0161270
803.966	0.0160402
804.044	0.0160589
804.122	0.0160799
804.200	0.0160966
804.279	0.0162389
804.357	0.0161592
804.435	0.0161767
804.513	0.0161256
804.591	0.0162143
804.669	0.0160632
804.747	0.0163109
804.825	0.0163429
804.904	0.0161938
804.982	0.0162605
805.060	0.0162449
805.138	0.0162481
805.216	0.0162151
805.294	0.0161631
805.372	0.0161613
805.450	0.0162234
805.529	0.0159977
805.607	0.0161929
805.685	0.0162704
805.763	0.0160857
805.841	0.0160622
805.919	0.0162834
805.997	0.0161810
806.075	0.0162621
806.154	0.0161745
806.232	0.0160763
806.310	0.0161842
806.388	0.0162405
806.466	0.0160623
806.544	0.0161778
806.622	0.0162378
806.700	0.0162421
806.779	0.0161747
806.857	0.0161945
806.935	0.0162859
807.013	0.0162043
807.091	0.0161220
807.169	0.0161964
807.247	0.0162195
807.325	0.0161118
807.404	0.0162525
807.482	0.0162337
807.560	0.0163112
807.638	0.0163039
807.716	0.0162823
807.794	0.0161993
807.872	0.0164624
807.950	0.0162930
808.029	0.0162478
808.107	0.0163409
808.185	0.0163371
808.263	0.0161607
808.341	0.0161987
808.419	0.0163707
808.497	0.0163602
808.575	0.0162185
808.654	0.0160754
808.732	0.0163317
808.810	0.0164046
808.888	0.0163110
808.966	0.0162314
809.044	0.0162505
809.122	0.0160754
809.200	0.0162037
809.279	0.0163266
809.357	0.0162242
809.435	0.0161642
809.513	0.0161384
809.591	0.0160876
809.669	0.0162249
809.747	0.0162510
809.825	0.0162128
809.904	0.0161719
809.982	0.0160522
810.060	0.0160776
810.138	0.0161665
810.216	0.0162611
810.294	0.0162209
810.372	0.0161947
810.450	0.0162479
810.529	0.0160976
810.607	0.0163100
810.685	0.0164268
810.763	0.0162402
810.841	0.0161543
810.919	0.0163367
810.997	0.0162846
811.075	0.0162792
811.154	0.0162277
811.232	0.0161983
811.310	0.0164429
811.388	0.0161637
811.466	0.0162138
811.544	0.0163624
811.622	0.0162308
811.700	0.0161027
811.779	0.0162178
811.857	0.0162641
811.935	0.0160708
812.013	0.0161494
812.091	0.0160953
812.169	0.0162494
812.247	0.0162917
812.325	0.0163562
812.404	0.0163031
812.482	0.0162438
812.560	0.0163049
812.638	0.0161639
812.716	0.0162277
812.794	0.0163165
812.872	0.0162341
812.950	0.0162062
813.029	0.0162012
813.107	0.0162951
813.185	0.0162472
813.263	0.0162455
813.341	0.0163369
813.419	0.0162273
813.497	0.0162022
813.575	0.0164507
813.654	0.0162692
813.732	0.0162527
813.810	0.0163884
813.888	0.0164668
813.966	0.0166081
814.044	0.0165524
814.122	0.0165250
814.200	0.0165865
814.279	0.0166566
814.357	0.0164889
814.435	0.0166477
814.513	0.0165675
814.591	0.0164655
814.669	0.0166583
814.747	0.0164848
814.825	0.0164806
814.904	0.0165964
814.982	0.0164579
815.060	0.0166044
815.138	0.0165114
815.216	0.0162884
815.294	0.0165092
815.372	0.0166078
815.450	0.0164550
815.529	0.0164667
815.607	0.0163741
815.685	0.0165073
815.763	0.0164436
815.841	0.0164139
815.919	0.0164016
815.997	0.0163689
816.075	0.0164277
816.154	0.0164693
816.232	0.0164429
816.310	0.0163265
816.388	0.0163577
816.466	0.0164309
816.544	0.0162876
816.622	0.0162664
816.700	0.0162619
816.779	0.0163657
816.857	0.0162316
816.935	0.0162811
817.013	0.0163073
817.091	0.0162832
817.169	0.0162609
817.247	0.0162867
817.325	0.0162650
817.404	0.0163063
817.482	0.0162186
817.560	0.0163573
817.638	0.0162601
817.716	0.0162855
817.794	0.0162622
817.872	0.0162104
817.950	0.0163018
818.029	0.0163587
818.107	0.0163890
818.185	0.0164310
818.263	0.0164718
818.341	0.0163953
818.419	0.0163631
818.497	0.0163277
818.575	0.0165514
818.654	0.0165852
818.732	0.0164352
818.810	0.0164183
818.888	0.0164300
818.966	0.0164130
819.044	0.0164077
819.122	0.0163851
819.200	0.0162344
819.279	0.0162021
819.357	0.0162061
819.435	0.0161066
819.513	0.0161308
819.591	0.0160973
819.669	0.0161478
819.747	0.0160899
819.825	0.0161018
819.904	0.0161305
819.982	0.0159607
820.060	0.0159874
820.138	0.0161187
820.216	0.0160213
820.294	0.0159883
820.372	0.0159682
820.450	0.0159738
820.529	0.0160790
820.607	0.0159948
820.685	0.0159824
820.763	0.0161206
820.841	0.0162173
820.919	0.0161414
820.997	0.0160741
821.075	0.0161432
821.154	0.0162146
821.232	0.0161501
821.310	0.0162849
821.388	0.0163684
821.466	0.0163077
821.544	0.0163412
821.622	0.0165157
821.700	0.0165719
821.779	0.0163965
821.857	0.0164068
821.935	0.0165247
822.013	0.0166827
822.091	0.0163930
822.169	0.0164127
822.247	0.0164687
822.325	0.0165595
822.404	0.0165315
822.482	0.0166079
822.560	0.0164780
822.638	0.0164840
822.716	0.0166062
822.794	0.0165954
822.872	0.0163645
822.950	0.0163845
823.029	0.0163990
823.107	0.0164767
823.185	0.0164198
823.263	0.0163594
823.341	0.0164508
823.419	0.0163839
823.497	0.0163208
823.575	0.0162509
823.654	0.0165549
823.732	0.0162718
823.810	0.0161420
823.888	0.0163271
823.966	0.0161749
824.044	0.0161105
824.122	0.0162476
824.200	0.0159281
824.279	0.0158907
824.357	0.0159622
824.435	0.0158839
824.513	0.0158523
824.591	0.0157269
824.669	0.0156471
824.747	0.0156676
824.825	0.0157920
824.904	0.0158042
824.982	0.0158154
825.060	0.0158247
825.138	0.0158582
825.216	0.0158296
825.294	0.0159558
825.372	0.0160126
825.450	0.0159280
825.529	0.0160091
825.607	0.0160417
825.685	0.0162731
825.763	0.0163314
825.841	0.0162185
825.919	0.0163950
825.997	0.0163589
826.075	0.0164801
826.154	0.0164786
826.232	0.0166717
826.310	0.0166698
826.388	0.0166824
826.466	0.0165742
826.544	0.0165335
826.622	0.0164682
826.700	0.0165005
826.779	0.0165426
826.857	0.0165352
826.935	0.0165918
827.013	0.0165179
827.091	0.0163560
827.169	0.0163143
827.247	0.0163791
827.325	0.0162105
827.404	0.0161600
827.482	0.0164272
827.560	0.0162938
827.638	0.0161686
827.716	0.0161327
827.794	0.0161818
827.872	0.0161668
827.950	0.0160799
828.029	0.0161797
828.107	0.0162376
828.185	0.0161935
828.263	0.0161341
828.341	0.0161440
828.419	0.0162844
828.497	0.0162909
828.575	0.0162306
828.654	0.0163047
828.732	0.0162052
828.810	0.0160989
828.888	0.0163090
828.966	0.0162125
829.044	0.0163673
829.122	0.0163029
829.200	0.0164635
829.279	0.0164683
829.357	0.0164133
829.435	0.0163999
829.513	0.0163898
829.591	0.0165150
829.669	0.0164230
829.747	0.0164779
829.825	0.0164230
829.904	0.0164961
829.982	0.0165326
830.060	0.0164383
830.138	0.0163344
830.216	0.0163720
830.294	0.0163396
830.372	0.0164149
830.450	0.0163503
830.529	0.0163293
830.607	0.0164310
830.685	0.0163018
830.763	0.0163399
830.841	0.0164059
830.919	0.0162366
830.997	0.0161994
831.075	0.0162263
831.154	0.0163558
831.232	0.0161849
831.310	0.0162034
831.388	0.0162588
831.466	0.0160728
831.544	0.0161612
831.622	0.0161540
831.700	0.0161726
831.779	0.0160920
831.857	0.0161405
831.935	0.0161282
832.013	0.0161527
832.091	0.0160983
832.169	0.0161984
832.247	0.0159772
832.325	0.0161658
832.404	0.0161539
832.482	0.0162106
832.560	0.0161658
832.638	0.0162949
832.716	0.0163250
832.794	0.0161657
832.872	0.0162495
832.950	0.0164105
833.029	0.0163118
833.107	0.0162840
833.185	0.0162030
833.263	0.0163801
833.341	0.0162479
833.419	0.0163035
833.497	0.0163823
833.575	0.0162661
833.654	0.0163016
833.732	0.0161348
833.810	0.0164132
833.888	0.0163862
833.966	0.0162502
834.044	0.0163829
834.122	0.0164784
834.200	0.0163927
834.279	0.0162629
834.357	0.0164926
834.435	0.0164972
834.513	0.0165179
834.591	0.0164202
834.669	0.0165947
834.747	0.0162816
834.825	0.0164286
834.904	0.0164545
834.982	0.0164069
835.060	0.0164343
835.138	0.0162688
835.216	0.0162898
835.294	0.0162804
835.372	0.0162398
835.450	0.0162044
835.529	0.0162237
835.607	0.0162215
835.685	0.0162062
835.763	0.0162337
835.841	0.0160104
835.919	0.0160365
835.997	0.0160843
836.075	0.0159002
836.154	0.0159579
836.232	0.0159700
836.310	0.0159659
836.388	0.0160072
836.466	0.0160023
836.544	0.0159343
836.622	0.0159418
836.700	0.0159978
836.779	0.0160048
836.857	0.0160400
836.935	0.0159544
837.013	0.0159879
837.091	0.0159907
837.169	0.0160834
837.247	0.0160184
837.325	0.0160825
837.404	0.0160350
837.482	0.0160899
837.560	0.0162143
837.638	0.0162393
837.716	0.0162998
837.794	0.0161153
837.872	0.0161741
837.950	0.0163758
838.029	0.0164460
838.107	0.0162922
838.185	0.0163187
838.263	0.0162461
838.341	0.0163055
838.419	0.0163474
838.497	0.0163490
838.575	0.0163420
838.654	0.0163764
838.732	0.0162399
838.810	0.0163757
838.888	0.0164222
838.966	0.0163605
839.044	0.0162072
839.122	0.0163493
839.200	0.0162425
839.279	0.0161720
839.357	0.0164030
839.435	0.0163026
839.513	0.0162398
839.591	0.0161102
839.669	0.0162318
839.747	0.0160752
839.825	0.0160844
839.904	0.0160581
839.982	0.0160709
840.060	0.0160573
840.138	0.0158953
840.216	0.0160362
840.294	0.0160374
840.372	0.0162212
840.450	0.0162200
840.529	0.0159101
840.607	0.0159721
840.685	0.0161143
840.763	0.0160827
840.841	0.0161363
840.919	0.0162737
840.997	0.0161835
841.075	0.0161307
841.154	0.0160518
841.232	0.0162663
841.310	0.0160902
841.388	0.0162183
841.466	0.0162295
841.544	0.0163392
841.622	0.0163528
841.700	0.0164183
841.779	0.0165060
841.857	0.0164596
841.935	0.0165804
842.013	0.0166158
842.091	0.0165983
842.169	0.0165437
842.247	0.0166091
842.325	0.0165666
842.404	0.0166467
842.482	0.0166129
842.560	0.0167133
842.638	0.0166467
842.716	0.0166836
842.794	0.0166856
842.872	0.0165881
842.950	0.0166336
843.029	0.0167197
843.107	0.0166394
843.185	0.0166130
843.263	0.0166320
843.341	0.0165904
843.419	0.0166438
843.497	0.0166306
843.575	0.0165717
843.654	0.0164007
843.732	0.0165571
843.810	0.0165128
843.888	0.0164864
843.966	0.0163512
844.044	0.0164249
844.122	0.0164501
844.200	0.0164193
844.279	0.0163546
844.357	0.0165031
844.435	0.0164035
844.513	0.0164006
844.591	0.0164642
844.669	0.0162702
844.747	0.0163361
844.825	0.0163602
844.904	0.0163885
844.982	0.0163436
845.060	0.0164406
845.138	0.0162991
845.216	0.0162856
845.294	0.0162696
845.372	0.0162289
845.450	0.0161762
845.529	0.0160686
845.607	0.0163297
845.685	0.0161982
845.763	0.0161749
845.841	0.0162498
845.919	0.0160756
845.997	0.0162703
846.075	0.0162212
846.154	0.0163088
846.232	0.0164468
846.310	0.0164076
846.388	0.0163570
846.466	0.0163117
846.544	0.0163779
846.622	0.0163566
846.700	0.0166527
846.779	0.0164726
846.857	0.0165083
846.935	0.0164813
847.013	0.0164120
847.091	0.0165421
847.169	0.0165568
847.247	0.0164581
847.325	0.0164870
847.404	0.0164744
847.482	0.0166180
847.560	0.0165323
847.638	0.0165037
847.716	0.0164248
847.794	0.0164324
847.872	0.0162332
847.950	0.0162511
848.029	0.0163583
848.107	0.0162820
848.185	0.0163535
848.263	0.0161909
848.341	0.0162450
848.419	0.0162019
848.497	0.0162189
848.575	0.0161359
848.654	0.0161602
848.732	0.0160033
848.810	0.0160759
848.888	0.0161842
848.966	0.0159591
849.044	0.0161008
849.122	0.0160371
849.200	0.0160378
849.279	0.0162190
849.357	0.0161549
849.435	0.0161707
849.513	0.0162032
849.591	0.0162209
849.669	0.0161606
849.747	0.0162366
849.825	0.0161512
849.904	0.0161321
849.982	0.0163076
850.060	0.0162257
850.138	0.0162305
850.216	0.0162924
850.294	0.0163065
850.372	0.0163367
850.450	0.0163270
850.529	0.0163480
850.607	0.0164169
850.685	0.0162331
850.763	0.0163416
850.841	0.0162965
850.919	0.0164088
850.997	0.0162968
851.075	0.0163026
851.154	0.0163123
851.232	0.0164484
851.310	0.0163029
851.388	0.0161739
851.466	0.0162593
851.544	0.0163985
851.622	0.0164462
851.700	0.0164635
851.779	0.0163026
851.857	0.0162407
851.935	0.0165015
852.013	0.0164059
852.091	0.0163441
852.169	0.0164066
852.247	0.0163126
852.325	0.0164088
852.404	0.0163725
852.482	0.0162737
852.560	0.0161858
852.638	0.0162296
852.716	0.0162284
852.794	0.0161749
852.872	0.0161342
852.950	0.0160590
853.029	0.0160162
853.107	0.0160345
853.185	0.0160550
853.263	0.0160840
853.341	0.0160984
853.419	0.0159499
853.497	0.0160980
853.575	0.0160592
853.654	0.0159665
853.732	0.0160342
853.810	0.0161298
853.888	0.0161995
853.966	0.0161694
854.044	0.0162596
854.122	0.0162789
854.200	0.0161588
854.279	0.0161162
854.357	0.0162091
854.435	0.0161018
854.513	0.0160789
854.591	0.0161441
854.669	0.0162745
854.747	0.0161852
854.825	0.0162414
854.904	0.0162684
854.982	0.0161074
855.060	0.0160658
855.138	0.0162151
855.216	0.0161357
855.294	0.0160887
855.372	0.0161823
855.450	0.0161796
855.529	0.0161143
855.607	0.0162097
855.685	0.0159492
855.763	0.0160213
855.841	0.0160695
855.919	0.0160813
855.997	0.0159306
856.075	0.0159830
856.154	0.0161764
856.232	0.0161499
856.310	0.0161076
856.388	0.0160509
856.466	0.0161314
856.544	0.0161543
856.622	0.0162102
856.700	0.0163534
856.779	0.0162370
856.857	0.0162623
856.935	0.0164532
857.013	0.0163967
857.091	0.0162635
857.169	0.0163934
857.247	0.0165306
857.325	0.0165465
857.404	0.0164717
857.482	0.0165051
857.560	0.0165224
857.638	0.0165057
857.716	0.0165644
857.794	0.0166307
857.872	0.0165536
857.950	0.0165488
858.029	0.0165343
858.107	0.0164290
858.185	0.0163951
858.263	0.0164952
858.341	0.0164745
858.419	0.0162342
858.497	0.0163374
858.575	0.0163290
858.654	0.0162363
858.732	0.0162610
858.810	0.0161794
858.888	0.0161495
858.966	0.0162230
859.044	0.0161933
859.122	0.0161629
859.200	0.0161221
859.279	0.0161924
859.357	0.0161585
859.435	0.0161846
859.513	0.0162505
859.591	0.0162150
859.669	0.0162572
859.747	0.0163120
859.825	0.0162930
859.904	0.0161955
859.982	0.0162096
860.060	0.0163227
860.138	0.0164262
860.216	0.0163712
860.294	0.0161834
860.372	0.0163395
860.450	0.0163159
860.529	0.0163855
860.607	0.0161101
860.685	0.0164030
860.763	0.0164415
860.841	0.0163902
860.919	0.0165003
860.997	0.0162325
861.075	0.0163764
861.154	0.0164762
861.232	0.0163760
861.310	0.0162620
861.388	0.0162977
861.466	0.0164006
861.544	0.0165166
861.622	0.0163340
861.700	0.0164770
861.779	0.0162589
861.857	0.0164256
861.935	0.0162373
862.013	0.0162044
862.091	0.0161604
862.169	0.0163975
862.247	0.0162304
862.325	0.0162387
862.404	0.0162014
862.482	0.0161633
862.560	0.0161390
862.638	0.0161862
862.716	0.0162191
862.794	0.0163168
862.872	0.0161421
862.950	0.0163346
863.029	0.0162342
863.107	0.0162657
863.185	0.0161141
863.263	0.0163767
863.341	0.0161877
863.419	0.0163368
863.497	0.0164325
863.575	0.0162709
863.654	0.0163264
863.732	0.0163676
863.810	0.0164902
863.888	0.0163022
863.966	0.0162468
864.044	0.0163383
864.122	0.0162304
864.200	0.0162739
864.279	0.0162457
864.357	0.0163723
864.435	0.0162650
864.513	0.0163112
864.591	0.0163840
864.669	0.0163013
864.747	0.0161884
864.825	0.0161823
864.904	0.0162254
864.982	0.0163558
865.060	0.0162333
865.138	0.0162221
865.216	0.0162458
865.294	0.0163423
865.372	0.0162390
865.450	0.0163457
865.529	0.0162691
865.607	0.0162903
865.685	0.0162778
865.763	0.0163811
865.841	0.0165239
865.919	0.0164986
865.997	0.0162733
866.075	0.0163403
866.154	0.0165028
866.232	0.0164002
866.310	0.0164294
866.388	0.0164376
866.466	0.0164392
866.544	0.0165613
866.622	0.0164092
866.700	0.0165160
866.779	0.0165171
866.857	0.0164902
866.935	0.0164118
867.013	0.0164588
867.091	0.0164799
867.169	0.0165267
867.247	0.0165611
867.325	0.0164167
867.404	0.0163727
867.482	0.0164809
867.560	0.0163056
867.638	0.0162976
867.716	0.0164423
867.794	0.0163356
867.872	0.0162442
867.950	0.0163484
868.029	0.0162482
868.107	0.0162934
868.185	0.0161481
868.263	0.0162498
868.341	0.0163783
868.419	0.0162810
868.497	0.0162657
868.575	0.0161879
868.654	0.0161741
868.732	0.0161859
868.810	0.0163639
868.888	0.0162563
868.966	0.0162086
869.044	0.0162274
869.122	0.0161910
869.200	0.0162654
869.279	0.0161308
869.357	0.0162128
869.435	0.0162373
869.513	0.0161696
869.591	0.0162687
869.669	0.0163275
869.747	0.0162578
869.825	0.0161371
869.904	0.0161968
869.982	0.0161618
870.060	0.0161822
870.138	0.0160830
870.216	0.0162738
870.294	0.0162083
870.372	0.0161110
870.450	0.0161248
870.529	0.0161204
870.607	0.0160813
870.685	0.0161533
870.763	0.0160172
870.841	0.0160523
870.919	0.0160590
870.997	0.0160973
871.075	0.0162459
871.154	0.0160741
871.232	0.0161749
871.310	0.0160671
871.388	0.0160968
871.466	0.0160459
871.544	0.0161539
871.622	0.0160361
871.700	0.0159601
871.779	0.0160083
871.857	0.0160992
871.935	0.0159928
872.013	0.0160398
872.091	0.0159763
872.169	0.0159682
872.247	0.0159838
872.325	0.0159777
872.404	0.0158814
872.482	0.0157705
872.560	0.0158199
872.638	0.0159417
872.716	0.0159093
872.794	0.0159090
872.872	0.0160555
872.950	0.0159599
873.029	0.0159866
873.107	0.0161708
873.185	0.0161771
873.263	0.0161156
873.341	0.0162837
873.419	0.0163253
873.497	0.0162203
873.575	0.0161642
873.654	0.0162882
873.732	0.0163299
873.810	0.0162387
873.888	0.0163735
873.966	0.0162814
874.044	0.0162965
874.122	0.0161154
874.200	0.0161914
874.279	0.0163662
874.357	0.0163536
874.435	0.0162379
874.513	0.0163033
874.591	0.0163911
874.669	0.0163428
874.747	0.0163772
874.825	0.0164864
874.904	0.0165342
874.982	0.0165692
875.060	0.0165012
875.138	0.0165662
875.216	0.0165936
875.294	0.0166737
875.372	0.0166358
875.450	0.0165271
875.529	0.0164964
875.607	0.0165536
875.685	0.0166415
875.763	0.0165335
875.841	0.0164133
875.919	0.0166206
875.997	0.0164316
876.075	0.0165455
876.154	0.0163665
876.232	0.0164369
876.310	0.0163074
876.388	0.0164149
876.466	0.0163509
876.544	0.0164969
876.622	0.0164819
876.700	0.0163593
876.779	0.0162962
876.857	0.0164693
876.935	0.0163213
877.013	0.0163206
877.091	0.0163481
877.169	0.0162841
877.247	0.0162872
877.325	0.0164394
877.404	0.0163593
877.482	0.0162905
877.560	0.0164632
877.638	0.0163410
877.716	0.0163605
877.794	0.0161961
877.872	0.0163292
877.950	0.0162589
878.029	0.0163410
878.107	0.0162457
878.185	0.0161461
878.263	0.0161916
878.341	0.0162486
878.419	0.0162847
878.497	0.0163416
878.575	0.0163276
878.654	0.0161961
878.732	0.0163316
878.810	0.0162209
878.888	0.0162741
878.966	0.0162639
879.044	0.0163654
879.122	0.0161420
879.200	0.0163628
879.279	0.0162935
879.357	0.0163707
879.435	0.0162903
879.513	0.0162612
879.591	0.0163233
879.669	0.0162605
879.747	0.0163396
879.825	0.0162739
879.904	0.0163083
879.982	0.0162318
880.060	0.0163707
880.138	0.0162295
880.216	0.0161769
880.294	0.0162333
880.372	0.0162341
880.450	0.0162432
880.529	0.0160313
880.607	0.0160519
880.685	0.0161457
880.763	0.0162856
880.841	0.0162077
880.919	0.0161964
880.997	0.0162921
881.075	0.0162872
881.154	0.0162760
881.232	0.0162987
881.310	0.0161578
881.388	0.0162557
881.466	0.0163987
881.544	0.0163943
881.622	0.0162287
881.700	0.0162064
881.779	0.0162936
881.857	0.0163820
881.935	0.0163320
882.013	0.0163326
882.091	0.0162101
882.169	0.0163409
882.247	0.0162850
882.325	0.0162694
882.404	0.0161518
882.482	0.0163809
882.560	0.0162387
882.638	0.0162049
882.716	0.0163253
882.794	0.0163027
882.872	0.0162578
882.950	0.0163367
883.029	0.0164507
883.107	0.0162759
883.185	0.0163595
883.263	0.0162017
883.341	0.0161805
883.419	0.0161452
883.497	0.0162444
883.575	0.0162595
883.654	0.0161286
883.732	0.0162484
883.810	0.0162440
883.888	0.0162591
883.966	0.0161510
884.044	0.0161254
884.122	0.0162220
884.200	0.0162950
884.279	0.0162013
884.357	0.0163583
884.435	0.0162635
884.513	0.0161667
884.591	0.0163029
884.669	0.0161559
884.747	0.0160995
884.825	0.0161974
884.904	0.0163348
884.982	0.0162585
885.060	0.0162032
885.138	0.0161568
885.216	0.0162471
885.294	0.0162947
885.372	0.0163799
885.450	0.0163238
885.529	0.0161871
885.607	0.0163432
885.685	0.0163374
885.763	0.0163904
885.841	0.0161958
885.919	0.0163219
885.997	0.0164317
886.075	0.0163409
886.154	0.0162565
886.232	0.0164138
886.310	0.0164307
886.388	0.0163438
886.466	0.0163715
886.544	0.0163847
886.622	0.0163349
886.700	0.0162346
886.779	0.0165160
886.857	0.0164030
886.935	0.0164147
887.013	0.0163811
887.091	0.0163652
887.169	0.0163676
887.247	0.0164330
887.325	0.0164465
887.404	0.0163943
887.482	0.0163977
887.560	0.0163760
887.638	0.0163694
887.716	0.0163213
887.794	0.0162518
887.872	0.0163925
887.950	0.0163721
888.029	0.0161273
888.107	0.0162714
888.185	0.0162903
888.263	0.0162353
888.341	0.0161776
888.419	0.0161996
888.497	0.0161915
888.575	0.0161282
888.654	0.0160073
888.732	0.0161208
888.810	0.0161248
888.888	0.0160164
888.966	0.0160809
889.044	0.0161012
889.122	0.0159335
889.200	0.0160007
889.279	0.0161051
889.357	0.0162061
889.435	0.0162155
889.513	0.0161262
889.591	0.0160204
889.669	0.0161006
889.747	0.0160306
889.825	0.0162629
889.904	0.0160464
889.982	0.0160476
890.060	0.0162306
890.138	0.0161546
890.216	0.0162531
890.294	0.0164294
890.372	0.0161816
890.450	0.0161096
890.529	0.0163427
890.607	0.0163072
890.685	0.0161094
890.763	0.0162465
890.841	0.0164014
890.919	0.0163880
890.997	0.0163704
891.075	0.0163435
891.154	0.0164750
891.232	0.0164954
891.310	0.0163665
891.388	0.0162991
891.466	0.0162788
891.544	0.0162098
891.622	0.0161952
891.700	0.0163094
891.779	0.0165267
891.857	0.0163348
891.935	0.0162112
892.013	0.0163144
892.091	0.0163374
892.169	0.0162157
892.247	0.0162453
892.325	0.0163670
892.404	0.0163197
892.482	0.0163029
892.560	0.0163702
892.638	0.0163729
892.716	0.0163367
892.794	0.0161290
892.872	0.0161993
892.950	0.0162903
893.029	0.0162077
893.107	0.0162363
893.185	0.0164034
893.263	0.0163613
893.341	0.0161660
893.419	0.0161396
893.497	0.0161864
893.575	0.0161477
893.654	0.0163533
893.732	0.0161231
893.810	0.0161272
893.888	0.0161845
893.966	0.0161754
894.044	0.0162350
894.122	0.0161785
894.200	0.0160526
894.279	0.0161098
894.357	0.0163599
894.435	0.0162150
894.513	0.0162659
894.591	0.0164046
894.669	0.0163025
894.747	0.0162974
894.825	0.0163276
894.904	0.0163134
894.982	0.0161740
895.060	0.0162897
895.138	0.0164134
895.216	0.0161687
895.294	0.0161451
895.372	0.0163051
895.450	0.0163636
895.529	0.0163200
895.607	0.0163010
895.685	0.0162660
895.763	0.0162593
895.841	0.0162183
895.919	0.0161223
895.997	0.0161738
896.075	0.0163164
896.154	0.0163867
896.232	0.0163432
896.310	0.0162778
896.388	0.0162201
896.466	0.0163448
896.544	0.0164275
896.622	0.0162344
896.700	0.0164937
896.779	0.0163982
896.857	0.0164790
896.935	0.0163262
897.013	0.0164562
897.091	0.0163908
897.169	0.0163922
897.247	0.0163969
897.325	0.0162805
897.404	0.0165571
897.482	0.0163010
897.560	0.0163074
897.638	0.0163530
897.716	0.0162678
897.794	0.0162958
897.872	0.0163260
897.950	0.0162206
898.029	0.0162157
898.107	0.0162446
898.185	0.0162788
898.263	0.0163322
898.341	0.0162797
898.419	0.0161735
898.497	0.0161900
898.575	0.0162711
898.654	0.0162182
898.732	0.0163599
898.810	0.0162177
898.888	0.0162817
898.966	0.0163299
899.044	0.0162240
899.122	0.0161790
899.200	0.0162209
899.279	0.0162669
899.357	0.0162981
899.435	0.0162806
899.513	0.0163010
899.591	0.0163728
899.669	0.0163782
899.747	0.0162962
899.825	0.0161636
899.904	0.0164320
899.982	0.0163206
900.060	0.0163998
900.138	0.0163259
900.216	0.0163584
900.294	0.0164165
900.372	0.0164223
900.450	0.0162956
900.529	0.0163298
900.607	0.0163254
900.685	0.0163107
900.763	0.0162790
900.841	0.0162714
900.919	0.0163546
900.997	0.0163850
901.075	0.0163253
901.154	0.0163741
901.232	0.0162093
901.310	0.0162765
901.388	0.0163203
901.466	0.0163541
901.544	0.0162987
901.622	0.0162821
901.700	0.0163184
901.779	0.0162543
901.857	0.0165746
901.935	0.0163263
902.013	0.0162806
902.091	0.0162983
902.169	0.0164069
902.247	0.0163570
902.325	0.0164822
902.404	0.0162583
902.482	0.0162257
902.560	0.0164033
902.638	0.0163835
902.716	0.0162988
902.794	0.0162613
902.872	0.0162626
902.950	0.0162254
903.029	0.0162907
903.107	0.0163332
903.185	0.0161694
903.263	0.0162930
903.341	0.0162785
903.419	0.0160410
903.497	0.0162643
903.575	0.0161987
903.654	0.0160627
903.732	0.0162298
903.810	0.0161023
903.888	0.0162910
903.966	0.0162395
904.044	0.0161322
904.122	0.0161253
904.200	0.0161420
904.279	0.0161154
904.357	0.0162629
904.435	0.0161363
904.513	0.0161430
904.591	0.0162139
904.669	0.0160692
904.747	0.0162611
904.825	0.0162415
904.904	0.0161794
904.982	0.0162890
905.060	0.0162839
905.138	0.0161778
905.216	0.0162569
905.294	0.0162432
905.372	0.0162260
905.450	0.0163090
905.529	0.0163010
905.607	0.0161388
905.685	0.0162357
905.763	0.0163627
905.841	0.0162675
905.919	0.0162379
905.997	0.0162012
906.075	0.0161649
906.154	0.0162369
906.232	0.0162577
906.310	0.0163139
906.388	0.0164489
906.466	0.0164172
906.544	0.0165358
906.622	0.0165365
906.700	0.0162779
906.779	0.0163589
906.857	0.0163696
906.935	0.0164491
907.013	0.0165041
907.091	0.0164312
907.169	0.0164765
907.247	0.0164956
907.325	0.0165714
907.404	0.0164256
907.482	0.0164294
907.560	0.0164457
907.638	0.0164532
907.716	0.0165516
907.794	0.0164182
907.872	0.0164175
907.950	0.0164284
908.029	0.0164388
908.107	0.0163706
908.185	0.0164011
908.263	0.0164668
908.341	0.0164327
908.419	0.0163868
908.497	0.0162640
908.575	0.0163721
908.654	0.0164170
908.732	0.0163233
908.810	0.0163400
908.888	0.0163690
908.966	0.0164142
909.044	0.0165862
909.122	0.0164674
909.200	0.0164138
909.279	0.0164442
909.357	0.0164944
909.435	0.0165460
909.513	0.0165143
909.591	0.0166690
909.669	0.0166575
909.747	0.0165446
909.825	0.0165327
909.904	0.0167300
909.982	0.0165359
910.060	0.0164869
910.138	0.0165076
910.216	0.0165180
910.294	0.0164809
910.372	0.0165002
910.450	0.0164585
910.529	0.0164639
910.607	0.0164829
910.685	0.0162025
910.763	0.0162840
910.841	0.0163300
910.919	0.0163308
910.997	0.0164587
911.075	0.0164024
911.154	0.0163100
911.232	0.0163634
911.310	0.0164514
911.388	0.0163306
911.466	0.0163670
911.544	0.0163403
911.622	0.0163039
911.700	0.0164178
911.779	0.0162684
911.857	0.0162697
911.935	0.0163030
912.013	0.0162309
912.091	0.0164130
912.169	0.0164041
912.247	0.0162766
912.325	0.0163501
912.404	0.0163612
912.482	0.0161290
912.560	0.0162634
912.638	0.0162177
912.716	0.0161341
912.794	0.0162753
912.872	0.0162429
912.950	0.0163689
913.029	0.0159798
913.107	0.0161648
913.185	0.0162714
913.263	0.0161755
913.341	0.0159966
913.419	0.0160111
913.497	0.0160711
913.575	0.0159753
913.654	0.0160294
913.732	0.0162399
913.810	0.0161649
913.888	0.0161922
913.966	0.0160310
914.044	0.0161289
914.122	0.0160149
914.200	0.0160907
914.279	0.0162891
914.357	0.0162344
914.435	0.0163275
914.513	0.0163760
914.591	0.0163001
914.669	0.0163765
914.747	0.0163537
914.825	0.0162923
914.904	0.0163054
914.982	0.0163406
915.060	0.0163748
915.138	0.0163416
915.216	0.0163363
915.294	0.0164042
915.372	0.0164754
915.450	0.0162818
915.529	0.0162219
915.607	0.0161994
915.685	0.0163740
915.763	0.0162858
915.841	0.0163005
915.919	0.0162956
915.997	0.0162220
916.075	0.0162040
916.154	0.0162660
916.232	0.0161914
916.310	0.0161683
916.388	0.0161517
916.466	0.0161974
916.544	0.0161532
916.622	0.0161212
916.700	0.0161548
916.779	0.0161372
916.857	0.0161492
916.935	0.0162650
917.013	0.0160944
917.091	0.0160270
917.169	0.0161159
917.247	0.0162526
917.325	0.0161869
917.404	0.0161194
917.482	0.0162498
917.560	0.0161964
917.638	0.0161143
917.716	0.0163264
917.794	0.0162431
917.872	0.0160448
917.950	0.0161912
918.029	0.0161620
918.107	0.0161970
918.185	0.0163156
918.263	0.0162372
918.341	0.0161372
918.419	0.0162466
918.497	0.0163957
918.575	0.0162775
918.654	0.0163218
918.732	0.0164674
918.810	0.0163857
918.888	0.0163132
918.966	0.0165616
919.044	0.0165350
919.122	0.0165427
919.200	0.0165717
919.279	0.0166029
919.357	0.0165229
919.435	0.0165966
919.513	0.0164941
919.591	0.0165387
919.669	0.0166029
919.747	0.0166216
919.825	0.0163754
919.904	0.0164036
