05/24/2022	20:48:37	Ver.	4.1	UNKNOWN
Optical Delay	599.981738	Delta X		0.078125	Sweeps	1	Scan Rate	0/0
Coordinates	Axis 1	NaN	Axis 2	NaN	Axis 3	NaN	Axis 4	NaN	Axis 5	NaN	Axis 6	0.000000
TX Power	0.000000	RX Power	0.000000

599.982	0.0159785
600.060	0.0159401
600.138	0.0159534
600.216	0.0160162
600.294	0.0160584
600.372	0.0159297
600.450	0.0159412
600.529	0.0160101
600.607	0.0159330
600.685	0.0159969
600.763	0.0158863
600.841	0.0159576
600.919	0.0160114
600.997	0.0160183
601.075	0.0160751
601.154	0.0160828
601.232	0.0157985
601.310	0.0158130
601.388	0.0159286
601.466	0.0159838
601.544	0.0159283
601.622	0.0159505
601.700	0.0159406
601.779	0.0158289
601.857	0.0158962
601.935	0.0158633
602.013	0.0157944
602.091	0.0157778
602.169	0.0159854
602.247	0.0158712
602.325	0.0158788
602.404	0.0159161
602.482	0.0159219
602.560	0.0158126
602.638	0.0159448
602.716	0.0157497
602.794	0.0157489
602.872	0.0158055
602.950	0.0158405
603.029	0.0159921
603.107	0.0159218
603.185	0.0159612
603.263	0.0159229
603.341	0.0157824
603.419	0.0159879
603.497	0.0159702
603.575	0.0159736
603.654	0.0157684
603.732	0.0159422
603.810	0.0160129
603.888	0.0160204
603.966	0.0160378
604.044	0.0160191
604.122	0.0161023
604.200	0.0160983
604.279	0.0160872
604.357	0.0160915
604.435	0.0162973
604.513	0.0162215
604.591	0.0162644
604.669	0.0161626
604.747	0.0161359
604.825	0.0162122
604.904	0.0162034
604.982	0.0162246
605.060	0.0161777
605.138	0.0161591
605.216	0.0161594
605.294	0.0162408
605.372	0.0162214
605.450	0.0161552
605.529	0.0163057
605.607	0.0161353
605.685	0.0161650
605.763	0.0161106
605.841	0.0161037
605.919	0.0161088
605.997	0.0161314
606.075	0.0161733
606.154	0.0162178
606.232	0.0162151
606.310	0.0162278
606.388	0.0161361
606.466	0.0161457
606.544	0.0160523
606.622	0.0162045
606.700	0.0162555
606.779	0.0160585
606.857	0.0161216
606.935	0.0160966
607.013	0.0160925
607.091	0.0161227
607.169	0.0160523
607.247	0.0160979
607.325	0.0160052
607.404	0.0158833
607.482	0.0159917
607.560	0.0159718
607.638	0.0158963
607.716	0.0158819
607.794	0.0158144
607.872	0.0158057
607.950	0.0158834
608.029	0.0157449
608.107	0.0157905
608.185	0.0157558
608.263	0.0156969
608.341	0.0157388
608.419	0.0159473
608.497	0.0158193
608.575	0.0158998
608.654	0.0157719
608.732	0.0157648
608.810	0.0159036
608.888	0.0158984
608.966	0.0159560
609.044	0.0159538
609.122	0.0159013
609.200	0.0158473
609.279	0.0157612
609.357	0.0158746
609.435	0.0158414
609.513	0.0157710
609.591	0.0157803
609.669	0.0159122
609.747	0.0157342
609.825	0.0157014
609.904	0.0158089
609.982	0.0157767
610.060	0.0157442
610.138	0.0157369
610.216	0.0157734
610.294	0.0156999
610.372	0.0157818
610.450	0.0158369
610.529	0.0158064
610.607	0.0157779
610.685	0.0156639
610.763	0.0155710
610.841	0.0157242
610.919	0.0156478
610.997	0.0156900
611.075	0.0155243
611.154	0.0158160
611.232	0.0156173
611.310	0.0154950
611.388	0.0155158
611.466	0.0155994
611.544	0.0156161
611.622	0.0156055
611.700	0.0153126
611.779	0.0155547
611.857	0.0155188
611.935	0.0156580
612.013	0.0156687
612.091	0.0158305
612.169	0.0159296
612.247	0.0159766
612.325	0.0160060
612.404	0.0160014
612.482	0.0158741
612.560	0.0161444
612.638	0.0162115
612.716	0.0161340
612.794	0.0161577
612.872	0.0161693
612.950	0.0162528
613.029	0.0160670
613.107	0.0160058
613.185	0.0159921
613.263	0.0159407
613.341	0.0157253
613.419	0.0159478
613.497	0.0157614
613.575	0.0156440
613.654	0.0155350
613.732	0.0156110
613.810	0.0156567
613.888	0.0156174
613.966	0.0156035
614.044	0.0156873
614.122	0.0158399
614.200	0.0157558
614.279	0.0157031
614.357	0.0156995
614.435	0.0157468
614.513	0.0158492
614.591	0.0158416
614.669	0.0160414
614.747	0.0159015
614.825	0.0160249
614.904	0.0160559
614.982	0.0159834
615.060	0.0161497
615.138	0.0160393
615.216	0.0160573
615.294	0.0160876
615.372	0.0161359
615.450	0.0161213
615.529	0.0158752
615.607	0.0159034
615.685	0.0159792
615.763	0.0159802
615.841	0.0158657
615.919	0.0158388
615.997	0.0158191
616.075	0.0156380
616.154	0.0156355
616.232	0.0156853
616.310	0.0156339
616.388	0.0157489
616.466	0.0158037
616.544	0.0158907
616.622	0.0159895
616.700	0.0158873
616.779	0.0159492
616.857	0.0163325
616.935	0.0164545
617.013	0.0167117
617.091	0.0166662
617.169	0.0168103
617.247	0.0169419
617.325	0.0170486
617.404	0.0172314
617.482	0.0173629
617.560	0.0172605
617.638	0.0172528
617.716	0.0172487
617.794	0.0171487
617.872	0.0169094
617.950	0.0168904
618.029	0.0168376
618.107	0.0165826
618.185	0.0163906
618.263	0.0162305
618.341	0.0161504
618.419	0.0158061
618.497	0.0157225
618.575	0.0157020
618.654	0.0153515
618.732	0.0152951
618.810	0.0152460
618.888	0.0151260
618.966	0.0149564
619.044	0.0148235
619.122	0.0148423
619.200	0.0147664
619.279	0.0148138
619.357	0.0148727
619.435	0.0149042
619.513	0.0147930
619.591	0.0149410
619.669	0.0152779
619.747	0.0151627
619.825	0.0154254
619.904	0.0156801
619.982	0.0160229
620.060	0.0160121
620.138	0.0160126
620.216	0.0164007
620.294	0.0166353
620.372	0.0166673
620.450	0.0169339
620.529	0.0169170
620.607	0.0170247
620.685	0.0171182
620.763	0.0171889
620.841	0.0171496
620.919	0.0171816
620.997	0.0170451
621.075	0.0170728
621.154	0.0169137
621.232	0.0168517
621.310	0.0166942
621.388	0.0166710
621.466	0.0164398
621.544	0.0163293
621.622	0.0161809
621.700	0.0160960
621.779	0.0159747
621.857	0.0158581
621.935	0.0155853
622.013	0.0155005
622.091	0.0155160
622.169	0.0154264
622.247	0.0154533
622.325	0.0154529
622.404	0.0154640
622.482	0.0154598
622.560	0.0155124
622.638	0.0154622
622.716	0.0154399
622.794	0.0154790
622.872	0.0155923
622.950	0.0154561
623.029	0.0154829
623.107	0.0154211
623.185	0.0154124
623.263	0.0155247
623.341	0.0154000
623.419	0.0152818
623.497	0.0152647
623.575	0.0150607
623.654	0.0153644
623.732	0.0153481
623.810	0.0151151
623.888	0.0152180
623.966	0.0152110
624.044	0.0153011
624.122	0.0155215
624.200	0.0156543
624.279	0.0155873
624.357	0.0156058
624.435	0.0159296
624.513	0.0160556
624.591	0.0162494
624.669	0.0164116
624.747	0.0166642
624.825	0.0168417
624.904	0.0171571
624.982	0.0172701
625.060	0.0175946
625.138	0.0176838
625.216	0.0179666
625.294	0.0179191
625.372	0.0182512
625.450	0.0181943
625.529	0.0182179
625.607	0.0180445
625.685	0.0181409
625.763	0.0180024
625.841	0.0177962
625.919	0.0175858
625.997	0.0171030
626.075	0.0168996
626.154	0.0164787
626.232	0.0162748
626.310	0.0158702
626.388	0.0154823
626.466	0.0151000
626.544	0.0148920
626.622	0.0146590
626.700	0.0144154
626.779	0.0140705
626.857	0.0139182
626.935	0.0137283
627.013	0.0135432
627.091	0.0135576
627.169	0.0133690
627.247	0.0133519
627.325	0.0133619
627.404	0.0135227
627.482	0.0134866
627.560	0.0135538
627.638	0.0137085
627.716	0.0138817
627.794	0.0140656
627.872	0.0143815
627.950	0.0145944
628.029	0.0148885
628.107	0.0152400
628.185	0.0155820
628.263	0.0157404
628.341	0.0160824
628.419	0.0163377
628.497	0.0167609
628.575	0.0169053
628.654	0.0170835
628.732	0.0173090
628.810	0.0174866
628.888	0.0176572
628.966	0.0176347
629.044	0.0176606
629.122	0.0176421
629.200	0.0178559
629.279	0.0178421
629.357	0.0178141
629.435	0.0177566
629.513	0.0179663
629.591	0.0178116
629.669	0.0179895
629.747	0.0177381
629.825	0.0177148
629.904	0.0176642
629.982	0.0177440
630.060	0.0176790
630.138	0.0175852
630.216	0.0174805
630.294	0.0172502
630.372	0.0172644
630.450	0.0169394
630.529	0.0168106
630.607	0.0165888
630.685	0.0161769
630.763	0.0157188
630.841	0.0155375
630.919	0.0150987
630.997	0.0147572
631.075	0.0144416
631.154	0.0141278
631.232	0.0136436
631.310	0.0134786
631.388	0.0131876
631.466	0.0129047
631.544	0.0127206
631.622	0.0126012
631.700	0.0124518
631.779	0.0125163
631.857	0.0122456
631.935	0.0123251
632.013	0.0125656
632.091	0.0126486
632.169	0.0128690
632.247	0.0131163
632.325	0.0133850
632.404	0.0137627
632.482	0.0143294
632.560	0.0147614
632.638	0.0153203
632.716	0.0156595
632.794	0.0161427
632.872	0.0166363
632.950	0.0169434
633.029	0.0174809
633.107	0.0177277
633.185	0.0182684
633.263	0.0185108
633.341	0.0187284
633.419	0.0188417
633.497	0.0188220
633.575	0.0190259
633.654	0.0189880
633.732	0.0189882
633.810	0.0189606
633.888	0.0189744
633.966	0.0187747
634.044	0.0185488
634.122	0.0183234
634.200	0.0183376
634.279	0.0179650
634.357	0.0176405
634.435	0.0176035
634.513	0.0173356
634.591	0.0170273
634.669	0.0166485
634.747	0.0164002
634.825	0.0162630
634.904	0.0158877
634.982	0.0156054
635.060	0.0154161
635.138	0.0152769
635.216	0.0151870
635.294	0.0148904
635.372	0.0145887
635.450	0.0145232
635.529	0.0145396
635.607	0.0143738
635.685	0.0142775
635.763	0.0141768
635.841	0.0140295
635.919	0.0140813
635.997	0.0141695
636.075	0.0141188
636.154	0.0141267
636.232	0.0140247
636.310	0.0142371
636.388	0.0143733
636.466	0.0144774
636.544	0.0146180
636.622	0.0148721
636.700	0.0148806
636.779	0.0152322
636.857	0.0154148
636.935	0.0157193
637.013	0.0159760
637.091	0.0160626
637.169	0.0161503
637.247	0.0166021
637.325	0.0164601
637.404	0.0167112
637.482	0.0167482
637.560	0.0168903
637.638	0.0169340
637.716	0.0169167
637.794	0.0169588
637.872	0.0169968
637.950	0.0168434
638.029	0.0166488
638.107	0.0167105
638.185	0.0166324
638.263	0.0164329
638.341	0.0164054
638.419	0.0164528
638.497	0.0164571
638.575	0.0162865
638.654	0.0161862
638.732	0.0161398
638.810	0.0160147
638.888	0.0158163
638.966	0.0157788
639.044	0.0157478
639.122	0.0156953
639.200	0.0155635
639.279	0.0155035
639.357	0.0154334
639.435	0.0154389
639.513	0.0154246
639.591	0.0155637
639.669	0.0155874
639.747	0.0154566
639.825	0.0157048
639.904	0.0157907
639.982	0.0159860
640.060	0.0159697
640.138	0.0161691
640.216	0.0163438
640.294	0.0164071
640.372	0.0164576
640.450	0.0165987
640.529	0.0167200
640.607	0.0165845
640.685	0.0167862
640.763	0.0168834
640.841	0.0167210
640.919	0.0168573
640.997	0.0167345
641.075	0.0167738
641.154	0.0168617
641.232	0.0168703
641.310	0.0169337
641.388	0.0169361
641.466	0.0168291
641.544	0.0166632
641.622	0.0166819
641.700	0.0166560
641.779	0.0165032
641.857	0.0162361
641.935	0.0161058
642.013	0.0160151
642.091	0.0158084
642.169	0.0158855
642.247	0.0154990
642.325	0.0153027
642.404	0.0152417
642.482	0.0149353
642.560	0.0149257
642.638	0.0147663
642.716	0.0145147
642.794	0.0145448
642.872	0.0143056
642.950	0.0143105
643.029	0.0141045
643.107	0.0140131
643.185	0.0141114
643.263	0.0139330
643.341	0.0140680
643.419	0.0139166
643.497	0.0141535
643.575	0.0141797
643.654	0.0143598
643.732	0.0146237
643.810	0.0149150
643.888	0.0151085
643.966	0.0153408
644.044	0.0157116
644.122	0.0161257
644.200	0.0165439
644.279	0.0168140
644.357	0.0171814
644.435	0.0175368
644.513	0.0177592
644.591	0.0178117
644.669	0.0181804
644.747	0.0182224
644.825	0.0183216
644.904	0.0183338
644.982	0.0183778
645.060	0.0183997
645.138	0.0183316
645.216	0.0181189
645.294	0.0180405
645.372	0.0179456
645.450	0.0176331
645.529	0.0176857
645.607	0.0175681
645.685	0.0173472
645.763	0.0172325
645.841	0.0172037
645.919	0.0168338
645.997	0.0166010
646.075	0.0165021
646.154	0.0162373
646.232	0.0160833
646.310	0.0160932
646.388	0.0157894
646.466	0.0156330
646.544	0.0155668
646.622	0.0152757
646.700	0.0153787
646.779	0.0151496
646.857	0.0151227
646.935	0.0151525
647.013	0.0149992
647.091	0.0149443
647.169	0.0148846
647.247	0.0147994
647.325	0.0148160
647.404	0.0148339
647.482	0.0147920
647.560	0.0148019
647.638	0.0147770
647.716	0.0147085
647.794	0.0148188
647.872	0.0149321
647.950	0.0147698
648.029	0.0148640
648.107	0.0149368
648.185	0.0149081
648.263	0.0147425
648.341	0.0148309
648.419	0.0147320
648.497	0.0147182
648.575	0.0146535
648.654	0.0147161
648.732	0.0147606
648.810	0.0149146
648.888	0.0148300
648.966	0.0150076
649.044	0.0151830
649.122	0.0152436
649.200	0.0154193
649.279	0.0156161
649.357	0.0157094
649.435	0.0158558
649.513	0.0162345
649.591	0.0164075
649.669	0.0165894
649.747	0.0167268
649.825	0.0169707
649.904	0.0171066
649.982	0.0173758
650.060	0.0174833
650.138	0.0176533
650.216	0.0176308
650.294	0.0178930
650.372	0.0179063
650.450	0.0179101
650.529	0.0180141
650.607	0.0179041
650.685	0.0178645
650.763	0.0178998
650.841	0.0177250
650.919	0.0178636
650.997	0.0176112
651.075	0.0172600
651.154	0.0172573
651.232	0.0170258
651.310	0.0168980
651.388	0.0167041
651.466	0.0163796
651.544	0.0161441
651.622	0.0158142
651.700	0.0154703
651.779	0.0150682
651.857	0.0149263
651.935	0.0147985
652.013	0.0145834
652.091	0.0143936
652.169	0.0143033
652.247	0.0141730
652.325	0.0139408
652.404	0.0138171
652.482	0.0139326
652.560	0.0138568
652.638	0.0138837
652.716	0.0138541
652.794	0.0139211
652.872	0.0139447
652.950	0.0140578
653.029	0.0141678
653.107	0.0142382
653.185	0.0142814
653.263	0.0144353
653.341	0.0146333
653.419	0.0148360
653.497	0.0148983
653.575	0.0151880
653.654	0.0154948
653.732	0.0156165
653.810	0.0159894
653.888	0.0162441
653.966	0.0163625
654.044	0.0166714
654.122	0.0169544
654.200	0.0172297
654.279	0.0173180
654.357	0.0176194
654.435	0.0176257
654.513	0.0179314
654.591	0.0180978
654.669	0.0181474
654.747	0.0182393
654.825	0.0181596
654.904	0.0180743
654.982	0.0180527
655.060	0.0179056
655.138	0.0177998
655.216	0.0176653
655.294	0.0173569
655.372	0.0171317
655.450	0.0167896
655.529	0.0166017
655.607	0.0163686
655.685	0.0159554
655.763	0.0157556
655.841	0.0155436
655.919	0.0153058
655.997	0.0153519
656.075	0.0149249
656.154	0.0148702
656.232	0.0146895
656.310	0.0145638
656.388	0.0146495
656.466	0.0145837
656.544	0.0145503
656.622	0.0146004
656.700	0.0146027
656.779	0.0147234
656.857	0.0149006
656.935	0.0150878
657.013	0.0151822
657.091	0.0153967
657.169	0.0156043
657.247	0.0158708
657.325	0.0160410
657.404	0.0162943
657.482	0.0164059
657.560	0.0164415
657.638	0.0166906
657.716	0.0168082
657.794	0.0169417
657.872	0.0168954
657.950	0.0168958
658.029	0.0167131
658.107	0.0165981
658.185	0.0164877
658.263	0.0163821
658.341	0.0162565
658.419	0.0160829
658.497	0.0158263
658.575	0.0157371
658.654	0.0157098
658.732	0.0155737
658.810	0.0153682
658.888	0.0154211
658.966	0.0151595
659.044	0.0152141
659.122	0.0153700
659.200	0.0153636
659.279	0.0152427
659.357	0.0154800
659.435	0.0155294
659.513	0.0157426
659.591	0.0158941
659.669	0.0161562
659.747	0.0161189
659.825	0.0163914
659.904	0.0163578
659.982	0.0166734
660.060	0.0167259
660.138	0.0167633
660.216	0.0165392
660.294	0.0167995
660.372	0.0166376
660.450	0.0165823
660.529	0.0163504
660.607	0.0161962
660.685	0.0161755
660.763	0.0159155
660.841	0.0159139
660.919	0.0157377
660.997	0.0157299
661.075	0.0156425
661.154	0.0156963
661.232	0.0156532
661.310	0.0157093
661.388	0.0158554
661.466	0.0158478
661.544	0.0159335
661.622	0.0157486
661.700	0.0160374
661.779	0.0159373
661.857	0.0159635
661.935	0.0160765
662.013	0.0160193
662.091	0.0160799
662.169	0.0160415
662.247	0.0160665
662.325	0.0162217
662.404	0.0161001
662.482	0.0161761
662.560	0.0162304
662.638	0.0164379
662.716	0.0163885
662.794	0.0164758
662.872	0.0164711
662.950	0.0163936
663.029	0.0163218
663.107	0.0163036
663.185	0.0160531
663.263	0.0159251
663.341	0.0158708
663.419	0.0156216
663.497	0.0154339
663.575	0.0152278
663.654	0.0151547
663.732	0.0151856
663.810	0.0150269
663.888	0.0150292
663.966	0.0149175
664.044	0.0150108
664.122	0.0152659
664.200	0.0153291
664.279	0.0152460
664.357	0.0155206
664.435	0.0156606
664.513	0.0158411
664.591	0.0159311
664.669	0.0159576
664.747	0.0160644
664.825	0.0163614
664.904	0.0163503
664.982	0.0163810
665.060	0.0165907
665.138	0.0166694
665.216	0.0168376
665.294	0.0169023
665.372	0.0169242
665.450	0.0171104
665.529	0.0169814
665.607	0.0171645
665.685	0.0171416
665.763	0.0169056
665.841	0.0169890
665.919	0.0169149
665.997	0.0167562
666.075	0.0166740
666.154	0.0167908
666.232	0.0165844
666.310	0.0164767
666.388	0.0162713
666.466	0.0162682
666.544	0.0162038
666.622	0.0160710
666.700	0.0160061
666.779	0.0159723
666.857	0.0158168
666.935	0.0157716
667.013	0.0154985
667.091	0.0154731
667.169	0.0153642
667.247	0.0152399
667.325	0.0152085
667.404	0.0150644
667.482	0.0150885
667.560	0.0148520
667.638	0.0150138
667.716	0.0150334
667.794	0.0148456
667.872	0.0149802
667.950	0.0149678
668.029	0.0150180
668.107	0.0150806
668.185	0.0152954
668.263	0.0152530
668.341	0.0154063
668.419	0.0155143
668.497	0.0155363
668.575	0.0156207
668.654	0.0158598
668.732	0.0161407
668.810	0.0160581
668.888	0.0162088
668.966	0.0161639
669.044	0.0164830
669.122	0.0165910
669.200	0.0166692
669.279	0.0167827
669.357	0.0167374
669.435	0.0169175
669.513	0.0169866
669.591	0.0168836
669.669	0.0169279
669.747	0.0168016
669.825	0.0168367
669.904	0.0166764
669.982	0.0167324
670.060	0.0166252
670.138	0.0163793
670.216	0.0163844
670.294	0.0163922
670.372	0.0162946
670.450	0.0162147
670.529	0.0163660
670.607	0.0163084
670.685	0.0161412
670.763	0.0161484
670.841	0.0161361
670.919	0.0162093
670.997	0.0160670
671.075	0.0160213
671.154	0.0159812
671.232	0.0160365
671.310	0.0158905
671.388	0.0158466
671.466	0.0156661
671.544	0.0155910
671.622	0.0155822
671.700	0.0154377
671.779	0.0153201
671.857	0.0154171
671.935	0.0153226
672.013	0.0153257
672.091	0.0152267
672.169	0.0151678
672.247	0.0151936
672.325	0.0153073
672.404	0.0154100
672.482	0.0153097
672.560	0.0152415
672.638	0.0153537
672.716	0.0154862
672.794	0.0154577
672.872	0.0155612
672.950	0.0157267
673.029	0.0158326
673.107	0.0159435
673.185	0.0160464
673.263	0.0162044
673.341	0.0162046
673.419	0.0163605
673.497	0.0163878
673.575	0.0163983
673.654	0.0164008
673.732	0.0165215
673.810	0.0164478
673.888	0.0165340
673.966	0.0166226
674.044	0.0165373
674.122	0.0165243
674.200	0.0165027
674.279	0.0165573
674.357	0.0167274
674.435	0.0167106
674.513	0.0166576
674.591	0.0167458
674.669	0.0166647
674.747	0.0167429
674.825	0.0167230
674.904	0.0166348
674.982	0.0165896
675.060	0.0166507
675.138	0.0164613
675.216	0.0164375
675.294	0.0162225
675.372	0.0161710
675.450	0.0160506
675.529	0.0159589
675.607	0.0157607
675.685	0.0157867
675.763	0.0157742
675.841	0.0156114
675.919	0.0154649
675.997	0.0156499
676.075	0.0154628
676.154	0.0155035
676.232	0.0153774
676.310	0.0153796
676.388	0.0152205
676.466	0.0151451
676.544	0.0150841
676.622	0.0149316
676.700	0.0150811
676.779	0.0150338
676.857	0.0150759
676.935	0.0150233
677.013	0.0149861
677.091	0.0150412
677.169	0.0151443
677.247	0.0149706
677.325	0.0150352
677.404	0.0153374
677.482	0.0152166
677.560	0.0153825
677.638	0.0154797
677.716	0.0157263
677.794	0.0157931
677.872	0.0158150
677.950	0.0161578
678.029	0.0163988
678.107	0.0165607
678.185	0.0165395
678.263	0.0168755
678.341	0.0168024
678.419	0.0167896
678.497	0.0169013
678.575	0.0168700
678.654	0.0168386
678.732	0.0169671
678.810	0.0167917
678.888	0.0165280
678.966	0.0164480
679.044	0.0164236
679.122	0.0163943
679.200	0.0161990
679.279	0.0160636
679.357	0.0160578
679.435	0.0160622
679.513	0.0159230
679.591	0.0158678
679.669	0.0159084
679.747	0.0160368
679.825	0.0161581
679.904	0.0160720
679.982	0.0161221
680.060	0.0160995
680.138	0.0161103
680.216	0.0161766
680.294	0.0160220
680.372	0.0161051
680.450	0.0160891
680.529	0.0160620
680.607	0.0160921
680.685	0.0159670
680.763	0.0160438
680.841	0.0158838
680.919	0.0158502
680.997	0.0158347
681.075	0.0156215
681.154	0.0156889
681.232	0.0157964
681.310	0.0157305
681.388	0.0155777
681.466	0.0155856
681.544	0.0154965
681.622	0.0156824
681.700	0.0155511
681.779	0.0156871
681.857	0.0157088
681.935	0.0157248
682.013	0.0158698
682.091	0.0158288
682.169	0.0158641
682.247	0.0159933
682.325	0.0160719
682.404	0.0161205
682.482	0.0160549
682.560	0.0161139
682.638	0.0162296
682.716	0.0161269
682.794	0.0162029
682.872	0.0163045
682.950	0.0164511
683.029	0.0161919
683.107	0.0162561
683.185	0.0162712
683.263	0.0163194
683.341	0.0162596
683.419	0.0161348
683.497	0.0161157
683.575	0.0162531
683.654	0.0160969
683.732	0.0161544
683.810	0.0158332
683.888	0.0158617
683.966	0.0158499
684.044	0.0157980
684.122	0.0157242
684.200	0.0156176
684.279	0.0156909
684.357	0.0156935
684.435	0.0157760
684.513	0.0155930
684.591	0.0157169
684.669	0.0156570
684.747	0.0157223
684.825	0.0156864
684.904	0.0159241
684.982	0.0162156
685.060	0.0162586
685.138	0.0163707
685.216	0.0162646
685.294	0.0165076
685.372	0.0165159
685.450	0.0163500
685.529	0.0164955
685.607	0.0165632
685.685	0.0164490
685.763	0.0164587
685.841	0.0162880
685.919	0.0164886
685.997	0.0164897
686.075	0.0161800
686.154	0.0160985
686.232	0.0160243
686.310	0.0161420
686.388	0.0161189
686.466	0.0159939
686.544	0.0160635
686.622	0.0160698
686.700	0.0160423
686.779	0.0161134
686.857	0.0159404
686.935	0.0160700
687.013	0.0160590
687.091	0.0160934
687.169	0.0160136
687.247	0.0157722
687.325	0.0159482
687.404	0.0160117
687.482	0.0159927
687.560	0.0158272
687.638	0.0159532
687.716	0.0159319
687.794	0.0159025
687.872	0.0159330
687.950	0.0158788
688.029	0.0159185
688.107	0.0158220
688.185	0.0158788
688.263	0.0157343
688.341	0.0157841
688.419	0.0159303
688.497	0.0157282
688.575	0.0157030
688.654	0.0157774
688.732	0.0156757
688.810	0.0157348
688.888	0.0157892
688.966	0.0159868
689.044	0.0158862
689.122	0.0157814
689.200	0.0159835
689.279	0.0159958
689.357	0.0160796
689.435	0.0160911
689.513	0.0161675
689.591	0.0163195
689.669	0.0164039
689.747	0.0164631
689.825	0.0165675
689.904	0.0165097
689.982	0.0166044
690.060	0.0166834
690.138	0.0166856
690.216	0.0166200
690.294	0.0166324
690.372	0.0165318
690.450	0.0164595
690.529	0.0165413
690.607	0.0162993
690.685	0.0162473
690.763	0.0161356
690.841	0.0159778
690.919	0.0158295
690.997	0.0156972
691.075	0.0157574
691.154	0.0156680
691.232	0.0155407
691.310	0.0154662
691.388	0.0153441
691.466	0.0153912
691.544	0.0155239
691.622	0.0154173
691.700	0.0155563
691.779	0.0155055
691.857	0.0155801
691.935	0.0153654
692.013	0.0153611
692.091	0.0155476
692.169	0.0154955
692.247	0.0155975
692.325	0.0156441
692.404	0.0157132
692.482	0.0158296
692.560	0.0159698
692.638	0.0158982
692.716	0.0159757
692.794	0.0161138
692.872	0.0160847
692.950	0.0160799
693.029	0.0160522
693.107	0.0162479
693.185	0.0161549
693.263	0.0160632
693.341	0.0162274
693.419	0.0164117
693.497	0.0161094
693.575	0.0160049
693.654	0.0161526
693.732	0.0160924
693.810	0.0161169
693.888	0.0160043
693.966	0.0159992
694.044	0.0159686
694.122	0.0160133
694.200	0.0159467
694.279	0.0157905
694.357	0.0158134
694.435	0.0159624
694.513	0.0159518
694.591	0.0159590
694.669	0.0158506
694.747	0.0157347
694.825	0.0159266
694.904	0.0160792
694.982	0.0158863
695.060	0.0159870
695.138	0.0160627
695.216	0.0159927
695.294	0.0160407
695.372	0.0161549
695.450	0.0161101
695.529	0.0162138
695.607	0.0161671
695.685	0.0163525
695.763	0.0162381
695.841	0.0163683
695.919	0.0163844
695.997	0.0164185
696.075	0.0163819
696.154	0.0163271
696.232	0.0161401
696.310	0.0160786
696.388	0.0162087
696.466	0.0162028
696.544	0.0161328
696.622	0.0159608
696.700	0.0159263
696.779	0.0158720
696.857	0.0158636
696.935	0.0158242
697.013	0.0155479
697.091	0.0155614
697.169	0.0156396
697.247	0.0156735
697.325	0.0157205
697.404	0.0157024
697.482	0.0157372
697.560	0.0157371
697.638	0.0156561
697.716	0.0155482
697.794	0.0157126
697.872	0.0156763
697.950	0.0155907
698.029	0.0155148
698.107	0.0155674
698.185	0.0156030
698.263	0.0157149
698.341	0.0157188
698.419	0.0157780
698.497	0.0157871
698.575	0.0158557
698.654	0.0158257
698.732	0.0159484
698.810	0.0159874
698.888	0.0159393
698.966	0.0159544
699.044	0.0161217
699.122	0.0161867
699.200	0.0159924
699.279	0.0161213
699.357	0.0163052
699.435	0.0164011
699.513	0.0162062
699.591	0.0162608
699.669	0.0161387
699.747	0.0161253
699.825	0.0163654
699.904	0.0161968
699.982	0.0162173
700.060	0.0162656
700.138	0.0162084
700.216	0.0162996
700.294	0.0161272
700.372	0.0160847
700.450	0.0161941
700.529	0.0160806
700.607	0.0161668
700.685	0.0161195
700.763	0.0160892
700.841	0.0160457
700.919	0.0161586
700.997	0.0160332
701.075	0.0159458
701.154	0.0161705
701.232	0.0161102
701.310	0.0160538
701.388	0.0160294
701.466	0.0160703
701.544	0.0160193
701.622	0.0160002
701.700	0.0160679
701.779	0.0160545
701.857	0.0162222
701.935	0.0161526
702.013	0.0159368
702.091	0.0160674
702.169	0.0162153
702.247	0.0160753
702.325	0.0161565
702.404	0.0162534
702.482	0.0160820
702.560	0.0161121
702.638	0.0164317
702.716	0.0162421
702.794	0.0160017
702.872	0.0160703
702.950	0.0161466
703.029	0.0161359
703.107	0.0159191
703.185	0.0160677
703.263	0.0160124
703.341	0.0158054
703.419	0.0158373
703.497	0.0158243
703.575	0.0158033
703.654	0.0156558
703.732	0.0157620
703.810	0.0158010
703.888	0.0156392
703.966	0.0157211
704.044	0.0155972
704.122	0.0157095
704.200	0.0156747
704.279	0.0156827
704.357	0.0157638
704.435	0.0159194
704.513	0.0159274
704.591	0.0158735
704.669	0.0158704
704.747	0.0157791
704.825	0.0157981
704.904	0.0160229
704.982	0.0160994
705.060	0.0158623
705.138	0.0159522
705.216	0.0157710
705.294	0.0158400
705.372	0.0158448
705.450	0.0158040
705.529	0.0158945
705.607	0.0159316
705.685	0.0159301
705.763	0.0160680
705.841	0.0160142
705.919	0.0160388
705.997	0.0162144
706.075	0.0161691
706.154	0.0162357
706.232	0.0161974
706.310	0.0162117
706.388	0.0160372
706.466	0.0161302
706.544	0.0162721
706.622	0.0162910
706.700	0.0162098
706.779	0.0163151
706.857	0.0164085
706.935	0.0164755
707.013	0.0163110
707.091	0.0164533
707.169	0.0162756
707.247	0.0162723
707.325	0.0163958
707.404	0.0164154
707.482	0.0162741
707.560	0.0163186
707.638	0.0163547
707.716	0.0162859
707.794	0.0162966
707.872	0.0161690
707.950	0.0160204
708.029	0.0161243
708.107	0.0159501
708.185	0.0160097
708.263	0.0159916
708.341	0.0158562
708.419	0.0161114
708.497	0.0158588
708.575	0.0157491
708.654	0.0157851
708.732	0.0157810
708.810	0.0158755
708.888	0.0159931
708.966	0.0158266
709.044	0.0158575
709.122	0.0160155
709.200	0.0159763
709.279	0.0161516
709.357	0.0162019
709.435	0.0161157
709.513	0.0162546
709.591	0.0162236
709.669	0.0161758
709.747	0.0161234
709.825	0.0161436
709.904	0.0161753
709.982	0.0161762
710.060	0.0161131
710.138	0.0160957
710.216	0.0160207
710.294	0.0158970
710.372	0.0158525
710.450	0.0157099
710.529	0.0158221
710.607	0.0157087
710.685	0.0156521
710.763	0.0157491
710.841	0.0155946
710.919	0.0155524
710.997	0.0156561
711.075	0.0156100
711.154	0.0155820
711.232	0.0157345
711.310	0.0157526
711.388	0.0156248
711.466	0.0157175
711.544	0.0158047
711.622	0.0158781
711.700	0.0158924
711.779	0.0158933
711.857	0.0158283
711.935	0.0159437
712.013	0.0160560
712.091	0.0159847
712.169	0.0158318
712.247	0.0159834
712.325	0.0160220
712.404	0.0160300
712.482	0.0158286
712.560	0.0159252
712.638	0.0159385
712.716	0.0158267
712.794	0.0157041
712.872	0.0156330
712.950	0.0156040
713.029	0.0155023
713.107	0.0155050
713.185	0.0155684
713.263	0.0155304
713.341	0.0151927
713.419	0.0154016
713.497	0.0154843
713.575	0.0156030
713.654	0.0155791
713.732	0.0156018
713.810	0.0157267
713.888	0.0157265
713.966	0.0157921
714.044	0.0159572
714.122	0.0159818
714.200	0.0160512
714.279	0.0160564
714.357	0.0159718
714.435	0.0161816
714.513	0.0160719
714.591	0.0161559
714.669	0.0160986
714.747	0.0161520
714.825	0.0160600
714.904	0.0158054
714.982	0.0160076
715.060	0.0159872
715.138	0.0160040
715.216	0.0158720
715.294	0.0156586
715.372	0.0158031
715.450	0.0157478
715.529	0.0157097
715.607	0.0156554
715.685	0.0157054
715.763	0.0155994
715.841	0.0154581
715.919	0.0153826
715.997	0.0156409
716.075	0.0154823
716.154	0.0156333
716.232	0.0157412
716.310	0.0156251
716.388	0.0156658
716.466	0.0157534
716.544	0.0158722
716.622	0.0157633
716.700	0.0159050
716.779	0.0160520
716.857	0.0160207
716.935	0.0160741
717.013	0.0160059
717.091	0.0161224
717.169	0.0162155
717.247	0.0161852
717.325	0.0162501
717.404	0.0160721
717.482	0.0162011
717.560	0.0161346
717.638	0.0161549
717.716	0.0161767
717.794	0.0160806
717.872	0.0160947
717.950	0.0160387
718.029	0.0159279
718.107	0.0159303
718.185	0.0160896
718.263	0.0158892
718.341	0.0158039
718.419	0.0159582
718.497	0.0157702
718.575	0.0158171
718.654	0.0157146
718.732	0.0156936
718.810	0.0157179
718.888	0.0157339
718.966	0.0158154
719.044	0.0157346
719.122	0.0157957
719.200	0.0157170
719.279	0.0157982
719.357	0.0158918
719.435	0.0158887
719.513	0.0160239
719.591	0.0159801
719.669	0.0159473
719.747	0.0158751
719.825	0.0160597
719.904	0.0160033
719.982	0.0160791
720.060	0.0160683
720.138	0.0160361
720.216	0.0160555
720.294	0.0162399
720.372	0.0161236
720.450	0.0160711
720.529	0.0160514
720.607	0.0162410
720.685	0.0163090
720.763	0.0162297
720.841	0.0161600
720.919	0.0163358
720.997	0.0163036
721.075	0.0162113
721.154	0.0163207
721.232	0.0162486
721.310	0.0161348
721.388	0.0161662
721.466	0.0162939
721.544	0.0164429
721.622	0.0163383
721.700	0.0163400
721.779	0.0163248
721.857	0.0162877
721.935	0.0164436
722.013	0.0162983
722.091	0.0163424
722.169	0.0163622
722.247	0.0164978
722.325	0.0163055
722.404	0.0162935
722.482	0.0163223
722.560	0.0163280
722.638	0.0161846
722.716	0.0162773
722.794	0.0162035
722.872	0.0161197
722.950	0.0161826
723.029	0.0161822
723.107	0.0160735
723.185	0.0159570
723.263	0.0160376
723.341	0.0159326
723.419	0.0158146
723.497	0.0158766
723.575	0.0157722
723.654	0.0157746
723.732	0.0156579
723.810	0.0156131
723.888	0.0156119
723.966	0.0155385
724.044	0.0155733
724.122	0.0156138
724.200	0.0155907
724.279	0.0156052
724.357	0.0155622
724.435	0.0155273
724.513	0.0154129
724.591	0.0154899
724.669	0.0154762
724.747	0.0157409
724.825	0.0156700
724.904	0.0156018
724.982	0.0156846
725.060	0.0157829
725.138	0.0157565
725.216	0.0157245
725.294	0.0156345
725.372	0.0157477
725.450	0.0155943
725.529	0.0158379
725.607	0.0157474
725.685	0.0158947
725.763	0.0158501
725.841	0.0159757
725.919	0.0157295
725.997	0.0158128
726.075	0.0159367
726.154	0.0159684
726.232	0.0159274
726.310	0.0158997
726.388	0.0159262
726.466	0.0160030
726.544	0.0159109
726.622	0.0159757
726.700	0.0159302
726.779	0.0159205
726.857	0.0159470
726.935	0.0160143
727.013	0.0159487
727.091	0.0159679
727.169	0.0159704
727.247	0.0158074
727.325	0.0157968
727.404	0.0157712
727.482	0.0158270
727.560	0.0158334
727.638	0.0156094
727.716	0.0157239
727.794	0.0157301
727.872	0.0156291
727.950	0.0155762
728.029	0.0155030
728.107	0.0155421
728.185	0.0155195
728.263	0.0154045
728.341	0.0154655
728.419	0.0154733
728.497	0.0154491
728.575	0.0154916
728.654	0.0155814
728.732	0.0155122
728.810	0.0154907
728.888	0.0156813
728.966	0.0158031
729.044	0.0157122
729.122	0.0157500
729.200	0.0159033
729.279	0.0159344
729.357	0.0160475
729.435	0.0162272
729.513	0.0161517
729.591	0.0161938
729.669	0.0162279
729.747	0.0163583
729.825	0.0165159
729.904	0.0165195
729.982	0.0165454
730.060	0.0165769
730.138	0.0166048
730.216	0.0167142
730.294	0.0165731
730.372	0.0167113
730.450	0.0167435
730.529	0.0166659
730.607	0.0164976
730.685	0.0165212
730.763	0.0165314
730.841	0.0165652
730.919	0.0164409
730.997	0.0165018
731.075	0.0162967
731.154	0.0164893
731.232	0.0163971
731.310	0.0162256
731.388	0.0163078
731.466	0.0161832
731.544	0.0160325
731.622	0.0159837
731.700	0.0160088
731.779	0.0160227
731.857	0.0159612
731.935	0.0159777
732.013	0.0158464
732.091	0.0157299
732.169	0.0158134
732.247	0.0157654
732.325	0.0157563
732.404	0.0157404
732.482	0.0157374
732.560	0.0155830
732.638	0.0156543
732.716	0.0156746
732.794	0.0157110
732.872	0.0155227
732.950	0.0155821
733.029	0.0156454
733.107	0.0158127
733.185	0.0156039
733.263	0.0156437
733.341	0.0155797
733.419	0.0156738
733.497	0.0157711
733.575	0.0156068
733.654	0.0156674
733.732	0.0157756
733.810	0.0156592
733.888	0.0156773
733.966	0.0158372
734.044	0.0158234
734.122	0.0157664
734.200	0.0158095
734.279	0.0157851
734.357	0.0157806
734.435	0.0158582
734.513	0.0158133
734.591	0.0158353
734.669	0.0157285
734.747	0.0157272
734.825	0.0157674
734.904	0.0159718
734.982	0.0158298
735.060	0.0158206
735.138	0.0158469
735.216	0.0159367
735.294	0.0159784
735.372	0.0161378
735.450	0.0161263
735.529	0.0161641
735.607	0.0162054
735.685	0.0161655
735.763	0.0161556
735.841	0.0162716
735.919	0.0163174
735.997	0.0162760
736.075	0.0162272
736.154	0.0164191
736.232	0.0164287
736.310	0.0165166
736.388	0.0162990
736.466	0.0164168
736.544	0.0165464
736.622	0.0164112
736.700	0.0165440
736.779	0.0165560
736.857	0.0165040
736.935	0.0165535
737.013	0.0166801
737.091	0.0164397
737.169	0.0164491
737.247	0.0164034
737.325	0.0165479
737.404	0.0163321
737.482	0.0162502
737.560	0.0163310
737.638	0.0162160
737.716	0.0162518
737.794	0.0162562
737.872	0.0161414
737.950	0.0161221
738.029	0.0160306
738.107	0.0161613
738.185	0.0160930
738.263	0.0161414
738.341	0.0158719
738.419	0.0159991
738.497	0.0158134
738.575	0.0158107
738.654	0.0159309
738.732	0.0158031
738.810	0.0157880
738.888	0.0157441
738.966	0.0157670
739.044	0.0156900
739.122	0.0156765
739.200	0.0156763
739.279	0.0155793
739.357	0.0155532
739.435	0.0155846
739.513	0.0155518
739.591	0.0154447
739.669	0.0153600
739.747	0.0155179
739.825	0.0154455
739.904	0.0153839
739.982	0.0154329
740.060	0.0154997
740.138	0.0154291
740.216	0.0154814
740.294	0.0154218
740.372	0.0156164
740.450	0.0156192
740.529	0.0156328
740.607	0.0156587
740.685	0.0157729
740.763	0.0157507
740.841	0.0158018
740.919	0.0157985
740.997	0.0158096
741.075	0.0159160
741.154	0.0159432
741.232	0.0160751
741.310	0.0161448
741.388	0.0161657
741.466	0.0161871
741.544	0.0160469
741.622	0.0163058
741.700	0.0162246
741.779	0.0163776
741.857	0.0164072
741.935	0.0164476
742.013	0.0163121
742.091	0.0162727
742.169	0.0162785
742.247	0.0163746
742.325	0.0163460
742.404	0.0162534
742.482	0.0162142
742.560	0.0162233
742.638	0.0161832
742.716	0.0162785
742.794	0.0162160
742.872	0.0161222
742.950	0.0162994
743.029	0.0161984
743.107	0.0160098
743.185	0.0160480
743.263	0.0160649
743.341	0.0159620
743.419	0.0160780
743.497	0.0160349
743.575	0.0159745
743.654	0.0159190
743.732	0.0157413
743.810	0.0158514
743.888	0.0157364
743.966	0.0157949
744.044	0.0158029
744.122	0.0158520
744.200	0.0157795
744.279	0.0158646
744.357	0.0157464
744.435	0.0157161
744.513	0.0158044
744.591	0.0156585
744.669	0.0157626
744.747	0.0159467
744.825	0.0157593
744.904	0.0157742
744.982	0.0158229
745.060	0.0159465
745.138	0.0158718
745.216	0.0158524
745.294	0.0158856
745.372	0.0159369
745.450	0.0158577
745.529	0.0159338
745.607	0.0160028
745.685	0.0159172
745.763	0.0159295
745.841	0.0160523
745.919	0.0159976
745.997	0.0160694
746.075	0.0161510
746.154	0.0160956
746.232	0.0160141
746.310	0.0160347
746.388	0.0162870
746.466	0.0162502
746.544	0.0160735
746.622	0.0161916
746.700	0.0162327
746.779	0.0161696
746.857	0.0162455
746.935	0.0163128
747.013	0.0162939
747.091	0.0162946
747.169	0.0161720
747.247	0.0163744
747.325	0.0163005
747.404	0.0162910
747.482	0.0162640
747.560	0.0162037
747.638	0.0162711
747.716	0.0163104
747.794	0.0162188
747.872	0.0162030
747.950	0.0163082
748.029	0.0161629
748.107	0.0159605
748.185	0.0158974
748.263	0.0159216
748.341	0.0160192
748.419	0.0158700
748.497	0.0157153
748.575	0.0157629
748.654	0.0156690
748.732	0.0156232
748.810	0.0156810
748.888	0.0156230
748.966	0.0154912
749.044	0.0155022
749.122	0.0155474
749.200	0.0155195
749.279	0.0155254
749.357	0.0154459
749.435	0.0154726
749.513	0.0154243
749.591	0.0155326
749.669	0.0156177
749.747	0.0155552
749.825	0.0154457
749.904	0.0156744
749.982	0.0157340
750.060	0.0156336
750.138	0.0155965
750.216	0.0156639
750.294	0.0159139
750.372	0.0158639
750.450	0.0159668
750.529	0.0159414
750.607	0.0159210
750.685	0.0160680
750.763	0.0161263
750.841	0.0163059
750.919	0.0162627
750.997	0.0162337
751.075	0.0163358
751.154	0.0163474
751.232	0.0163028
751.310	0.0162559
751.388	0.0161983
751.466	0.0163579
751.544	0.0164153
751.622	0.0163126
751.700	0.0163236
751.779	0.0162164
751.857	0.0161674
751.935	0.0163519
752.013	0.0164034
752.091	0.0163135
752.169	0.0162957
752.247	0.0161359
752.325	0.0161496
752.404	0.0161597
752.482	0.0160161
752.560	0.0161214
752.638	0.0161018
752.716	0.0161639
752.794	0.0160885
752.872	0.0159641
752.950	0.0159872
753.029	0.0159737
753.107	0.0160184
753.185	0.0160272
753.263	0.0159416
753.341	0.0159378
753.419	0.0160526
753.497	0.0160121
753.575	0.0158528
753.654	0.0160393
753.732	0.0160720
753.810	0.0161299
753.888	0.0160147
753.966	0.0160226
754.044	0.0160765
754.122	0.0161378
754.200	0.0159235
754.279	0.0160588
754.357	0.0161006
754.435	0.0161392
754.513	0.0161217
754.591	0.0159834
754.669	0.0158681
754.747	0.0158754
754.825	0.0158627
754.904	0.0159045
754.982	0.0158828
755.060	0.0157888
755.138	0.0156986
755.216	0.0159657
755.294	0.0160193
755.372	0.0156665
755.450	0.0157221
755.529	0.0159059
755.607	0.0157608
755.685	0.0157508
755.763	0.0157952
755.841	0.0157949
755.919	0.0157980
755.997	0.0158281
756.075	0.0155860
756.154	0.0157788
756.232	0.0157950
756.310	0.0158316
756.388	0.0156784
756.466	0.0159042
756.544	0.0158609
756.622	0.0158144
756.700	0.0157738
756.779	0.0157781
756.857	0.0159774
756.935	0.0157889
757.013	0.0157448
757.091	0.0158314
757.169	0.0158202
757.247	0.0159547
757.325	0.0159104
757.404	0.0158416
757.482	0.0158801
757.560	0.0159280
757.638	0.0160298
757.716	0.0160442
757.794	0.0160706
757.872	0.0162244
757.950	0.0162512
758.029	0.0160522
758.107	0.0161784
758.185	0.0162228
758.263	0.0161893
758.341	0.0161213
758.419	0.0161026
758.497	0.0162068
758.575	0.0160525
758.654	0.0161584
758.732	0.0162320
758.810	0.0161189
758.888	0.0160893
758.966	0.0161192
759.044	0.0162096
759.122	0.0162878
759.200	0.0160340
759.279	0.0160951
759.357	0.0161452
759.435	0.0160040
759.513	0.0160694
759.591	0.0159012
759.669	0.0160307
759.747	0.0160558
759.825	0.0160286
759.904	0.0159015
759.982	0.0158748
760.060	0.0159253
760.138	0.0159954
760.216	0.0158608
760.294	0.0158614
760.372	0.0159012
760.450	0.0159137
760.529	0.0159795
760.607	0.0160910
760.685	0.0158457
760.763	0.0159135
760.841	0.0160712
760.919	0.0160848
760.997	0.0160517
761.075	0.0160918
761.154	0.0160122
761.232	0.0160760
761.310	0.0160042
761.388	0.0161947
761.466	0.0162460
761.544	0.0161809
761.622	0.0162716
761.700	0.0161454
761.779	0.0161082
761.857	0.0162595
761.935	0.0162934
762.013	0.0160748
762.091	0.0160564
762.169	0.0161533
762.247	0.0163521
762.325	0.0161716
762.404	0.0160802
762.482	0.0162421
762.560	0.0161922
762.638	0.0161802
762.716	0.0162135
762.794	0.0162145
762.872	0.0161343
762.950	0.0161315
763.029	0.0161359
763.107	0.0160672
763.185	0.0160088
763.263	0.0160561
763.341	0.0159929
763.419	0.0160669
763.497	0.0160844
763.575	0.0158573
763.654	0.0160014
763.732	0.0159022
763.810	0.0159251
763.888	0.0159108
763.966	0.0158421
764.044	0.0158961
764.122	0.0158118
764.200	0.0157897
764.279	0.0157319
764.357	0.0158420
764.435	0.0158401
764.513	0.0158190
764.591	0.0159444
764.669	0.0158479
764.747	0.0158428
764.825	0.0158984
764.904	0.0158995
764.982	0.0158860
765.060	0.0159358
765.138	0.0157924
765.216	0.0158181
765.294	0.0159736
765.372	0.0159486
765.450	0.0160515
765.529	0.0160597
765.607	0.0159076
765.685	0.0159780
765.763	0.0160367
765.841	0.0160766
765.919	0.0161366
765.997	0.0161593
766.075	0.0160216
766.154	0.0160383
766.232	0.0161201
766.310	0.0162305
766.388	0.0162278
766.466	0.0159985
766.544	0.0160696
766.622	0.0161819
766.700	0.0160175
766.779	0.0161308
766.857	0.0162946
766.935	0.0162513
767.013	0.0161678
767.091	0.0160616
767.169	0.0161159
767.247	0.0161791
767.325	0.0161642
767.404	0.0162812
767.482	0.0163403
767.560	0.0163026
767.638	0.0161612
767.716	0.0162194
767.794	0.0162867
767.872	0.0161907
767.950	0.0161559
768.029	0.0161469
768.107	0.0162110
768.185	0.0159715
768.263	0.0161407
768.341	0.0160067
768.419	0.0160503
768.497	0.0160199
768.575	0.0159441
768.654	0.0159141
768.732	0.0157940
768.810	0.0157852
768.888	0.0156180
768.966	0.0157385
769.044	0.0158378
769.122	0.0159216
769.200	0.0156958
769.279	0.0157461
769.357	0.0159416
769.435	0.0157767
769.513	0.0157381
769.591	0.0158501
769.669	0.0158080
769.747	0.0157767
769.825	0.0158975
769.904	0.0158891
769.982	0.0159705
770.060	0.0159505
770.138	0.0160424
770.216	0.0159120
770.294	0.0159176
770.372	0.0159397
770.450	0.0160899
770.529	0.0160973
770.607	0.0160849
770.685	0.0160198
770.763	0.0160837
770.841	0.0161291
770.919	0.0161784
770.997	0.0161092
771.075	0.0160691
771.154	0.0160712
771.232	0.0162245
771.310	0.0161717
771.388	0.0162103
771.466	0.0162623
771.544	0.0160852
771.622	0.0163046
771.700	0.0161639
771.779	0.0162928
771.857	0.0162308
771.935	0.0162777
772.013	0.0162038
772.091	0.0161485
772.169	0.0161398
772.247	0.0163677
772.325	0.0162285
772.404	0.0162256
772.482	0.0162007
772.560	0.0161363
772.638	0.0160750
772.716	0.0161566
772.794	0.0161231
772.872	0.0160826
772.950	0.0159566
773.029	0.0160286
773.107	0.0159107
773.185	0.0161290
773.263	0.0159784
773.341	0.0158173
773.419	0.0159482
773.497	0.0158674
773.575	0.0158305
773.654	0.0158240
773.732	0.0158142
773.810	0.0159321
773.888	0.0160052
773.966	0.0160006
774.044	0.0158735
774.122	0.0159321
774.200	0.0158181
774.279	0.0159473
774.357	0.0158698
774.435	0.0159431
774.513	0.0160767
774.591	0.0159631
774.669	0.0159502
774.747	0.0160601
774.825	0.0160355
774.904	0.0159713
774.982	0.0160809
775.060	0.0160165
775.138	0.0161115
775.216	0.0159151
775.294	0.0158538
775.372	0.0159224
775.450	0.0160661
775.529	0.0159418
775.607	0.0159392
775.685	0.0160197
775.763	0.0161654
775.841	0.0161413
775.919	0.0161813
775.997	0.0160455
776.075	0.0159756
776.154	0.0161745
776.232	0.0161016
776.310	0.0161990
776.388	0.0160650
776.466	0.0160371
776.544	0.0159597
776.622	0.0159784
776.700	0.0161734
776.779	0.0161097
776.857	0.0160508
776.935	0.0161604
777.013	0.0161118
777.091	0.0159940
777.169	0.0160497
777.247	0.0159231
777.325	0.0159907
777.404	0.0160292
777.482	0.0158968
777.560	0.0158537
777.638	0.0158894
777.716	0.0160463
777.794	0.0159879
777.872	0.0158877
777.950	0.0159715
778.029	0.0159384
778.107	0.0159233
778.185	0.0158556
778.263	0.0158613
778.341	0.0158807
778.419	0.0159714
778.497	0.0158498
778.575	0.0159007
778.654	0.0159870
778.732	0.0157658
778.810	0.0159380
778.888	0.0159149
778.966	0.0157287
779.044	0.0158481
779.122	0.0159418
779.200	0.0159440
779.279	0.0158059
779.357	0.0157845
779.435	0.0158767
779.513	0.0158110
779.591	0.0159672
779.669	0.0159600
779.747	0.0158407
779.825	0.0159446
779.904	0.0159801
779.982	0.0160210
780.060	0.0159417
780.138	0.0159533
780.216	0.0160426
780.294	0.0161343
780.372	0.0160085
780.450	0.0160912
780.529	0.0161317
780.607	0.0159533
780.685	0.0159377
780.763	0.0161477
780.841	0.0159124
780.919	0.0161048
780.997	0.0161555
781.075	0.0160528
781.154	0.0161163
781.232	0.0160714
781.310	0.0160744
781.388	0.0160207
781.466	0.0159370
781.544	0.0161219
781.622	0.0160889
781.700	0.0159959
781.779	0.0160077
781.857	0.0160812
781.935	0.0160684
782.013	0.0161038
782.091	0.0160487
782.169	0.0159908
782.247	0.0160509
782.325	0.0159538
782.404	0.0159362
782.482	0.0159284
782.560	0.0159585
782.638	0.0157950
782.716	0.0159728
782.794	0.0159023
782.872	0.0158530
782.950	0.0159841
783.029	0.0159401
783.107	0.0158430
783.185	0.0158806
783.263	0.0159104
783.341	0.0157816
783.419	0.0157361
783.497	0.0159072
783.575	0.0158746
783.654	0.0160271
783.732	0.0160013
783.810	0.0158355
783.888	0.0158708
783.966	0.0159498
784.044	0.0159286
784.122	0.0159540
784.200	0.0160046
784.279	0.0159138
784.357	0.0160289
784.435	0.0160849
784.513	0.0160152
784.591	0.0159623
784.669	0.0160235
784.747	0.0160755
784.825	0.0161483
784.904	0.0160156
784.982	0.0159676
785.060	0.0159312
785.138	0.0161711
785.216	0.0160638
785.294	0.0160643
785.372	0.0161810
785.450	0.0162157
785.529	0.0160349
785.607	0.0159555
785.685	0.0159895
785.763	0.0161082
785.841	0.0161330
785.919	0.0161013
785.997	0.0161591
786.075	0.0159634
786.154	0.0160227
786.232	0.0159777
786.310	0.0161387
786.388	0.0159883
786.466	0.0161059
786.544	0.0161519
786.622	0.0161279
786.700	0.0160236
786.779	0.0161164
786.857	0.0159190
786.935	0.0160842
787.013	0.0161340
787.091	0.0160821
787.169	0.0161143
787.247	0.0161474
787.325	0.0159875
787.404	0.0160303
787.482	0.0161569
787.560	0.0160471
787.638	0.0159497
787.716	0.0159940
787.794	0.0160817
787.872	0.0162594
787.950	0.0160810
788.029	0.0160051
788.107	0.0160109
788.185	0.0161787
788.263	0.0160932
788.341	0.0160568
788.419	0.0160351
788.497	0.0160506
788.575	0.0160949
788.654	0.0161018
788.732	0.0161213
788.810	0.0160670
788.888	0.0161972
788.966	0.0162578
789.044	0.0161345
789.122	0.0161420
789.200	0.0160741
789.279	0.0161202
789.357	0.0160223
789.435	0.0160753
789.513	0.0161843
789.591	0.0159969
789.669	0.0161653
789.747	0.0161521
789.825	0.0160399
789.904	0.0160739
789.982	0.0160239
790.060	0.0160256
790.138	0.0160481
790.216	0.0160242
790.294	0.0159283
790.372	0.0160508
790.450	0.0159412
790.529	0.0159441
790.607	0.0160712
790.685	0.0159474
790.763	0.0160178
790.841	0.0158584
790.919	0.0158905
790.997	0.0159292
791.075	0.0159563
791.154	0.0160202
791.232	0.0160471
791.310	0.0157509
791.388	0.0159403
791.466	0.0159984
791.544	0.0157588
791.622	0.0159310
791.700	0.0160310
791.779	0.0159473
791.857	0.0160565
791.935	0.0160020
792.013	0.0159949
792.091	0.0159171
792.169	0.0160329
792.247	0.0160282
792.325	0.0160865
792.404	0.0162472
792.482	0.0159872
792.560	0.0161381
792.638	0.0160944
792.716	0.0161466
792.794	0.0160844
792.872	0.0161263
792.950	0.0161149
793.029	0.0160422
793.107	0.0160316
793.185	0.0160074
793.263	0.0159579
793.341	0.0159250
793.419	0.0159822
793.497	0.0160310
793.575	0.0159458
793.654	0.0159632
793.732	0.0159879
793.810	0.0158875
793.888	0.0159559
793.966	0.0158994
794.044	0.0158486
794.122	0.0159478
794.200	0.0159013
794.279	0.0159197
794.357	0.0157911
794.435	0.0157861
794.513	0.0158965
794.591	0.0157946
794.669	0.0157384
794.747	0.0157802
794.825	0.0158037
794.904	0.0159073
794.982	0.0156889
795.060	0.0158970
795.138	0.0158601
795.216	0.0158652
795.294	0.0156987
795.372	0.0158970
795.450	0.0159324
795.529	0.0159718
795.607	0.0161510
795.685	0.0160677
795.763	0.0159435
795.841	0.0159863
795.919	0.0161928
795.997	0.0161900
796.075	0.0160789
796.154	0.0160836
796.232	0.0161058
796.310	0.0160936
796.388	0.0160504
796.466	0.0161102
796.544	0.0160284
796.622	0.0161356
796.700	0.0160110
796.779	0.0159164
796.857	0.0159274
796.935	0.0161080
797.013	0.0160061
797.091	0.0160635
797.169	0.0159406
797.247	0.0159657
797.325	0.0158823
797.404	0.0158588
797.482	0.0158663
797.560	0.0157182
797.638	0.0159353
797.716	0.0157558
797.794	0.0159165
797.872	0.0159605
797.950	0.0158782
798.029	0.0157765
798.107	0.0157648
798.185	0.0157971
798.263	0.0158332
798.341	0.0159555
798.419	0.0157729
798.497	0.0159496
798.575	0.0159877
798.654	0.0157295
798.732	0.0159184
798.810	0.0158481
798.888	0.0157994
798.966	0.0158083
799.044	0.0159498
799.122	0.0158884
799.200	0.0158020
799.279	0.0156737
799.357	0.0158128
799.435	0.0158331
799.513	0.0158701
799.591	0.0158402
799.669	0.0157767
799.747	0.0158536
799.825	0.0157973
799.904	0.0159809
799.982	0.0159177
800.060	0.0159061
800.138	0.0157831
800.216	0.0159615
800.294	0.0160688
800.372	0.0158782
800.450	0.0158898
800.529	0.0160092
800.607	0.0160078
800.685	0.0158596
800.763	0.0160259
800.841	0.0160264
800.919	0.0160050
800.997	0.0159164
801.075	0.0159173
801.154	0.0160965
801.232	0.0160645
801.310	0.0160355
801.388	0.0160773
801.466	0.0159789
801.544	0.0160073
801.622	0.0161153
801.700	0.0161546
801.779	0.0161697
801.857	0.0160686
801.935	0.0160344
802.013	0.0161755
802.091	0.0160986
802.169	0.0159598
802.247	0.0160040
802.325	0.0158141
802.404	0.0159731
802.482	0.0159567
802.560	0.0159708
802.638	0.0158791
802.716	0.0159467
802.794	0.0160416
802.872	0.0159726
802.950	0.0158625
803.029	0.0159954
803.107	0.0159382
803.185	0.0159986
803.263	0.0160317
803.341	0.0158788
803.419	0.0158806
803.497	0.0159754
803.575	0.0158025
803.654	0.0158132
803.732	0.0159538
803.810	0.0159343
803.888	0.0158170
803.966	0.0159035
804.044	0.0160876
804.122	0.0160463
804.200	0.0159699
804.279	0.0160994
804.357	0.0160783
804.435	0.0161090
804.513	0.0161481
804.591	0.0160788
804.669	0.0162202
804.747	0.0161480
804.825	0.0161292
804.904	0.0161565
804.982	0.0161405
805.060	0.0162417
805.138	0.0160918
805.216	0.0162678
805.294	0.0162047
805.372	0.0161227
805.450	0.0161440
805.529	0.0161831
805.607	0.0161820
805.685	0.0162471
805.763	0.0163216
805.841	0.0161769
805.919	0.0162677
805.997	0.0162108
806.075	0.0162183
806.154	0.0163417
806.232	0.0160439
806.310	0.0162173
806.388	0.0162978
806.466	0.0161086
806.544	0.0162458
806.622	0.0161118
806.700	0.0161357
806.779	0.0160891
806.857	0.0161137
806.935	0.0160105
807.013	0.0160007
807.091	0.0159930
807.169	0.0160747
807.247	0.0160642
807.325	0.0159996
807.404	0.0160487
807.482	0.0160018
807.560	0.0158762
807.638	0.0160233
807.716	0.0159881
807.794	0.0159745
807.872	0.0159245
807.950	0.0159985
808.029	0.0159502
808.107	0.0159792
808.185	0.0160839
808.263	0.0160835
808.341	0.0159451
808.419	0.0159956
808.497	0.0159985
808.575	0.0159734
808.654	0.0160840
808.732	0.0159270
808.810	0.0159908
808.888	0.0160806
808.966	0.0161514
809.044	0.0160237
809.122	0.0159973
809.200	0.0160464
809.279	0.0160387
809.357	0.0160966
809.435	0.0159748
809.513	0.0159513
809.591	0.0159215
809.669	0.0160768
809.747	0.0160247
809.825	0.0158657
809.904	0.0158901
809.982	0.0160056
810.060	0.0159639
810.138	0.0159042
810.216	0.0158730
810.294	0.0160219
810.372	0.0159551
810.450	0.0158201
810.529	0.0158060
810.607	0.0158212
810.685	0.0158989
810.763	0.0159796
810.841	0.0159081
810.919	0.0158205
810.997	0.0158778
811.075	0.0157838
811.154	0.0159618
811.232	0.0161787
811.310	0.0160603
811.388	0.0161340
811.466	0.0160658
811.544	0.0160800
811.622	0.0161102
811.700	0.0163033
811.779	0.0161778
811.857	0.0161594
811.935	0.0161488
812.013	0.0163464
812.091	0.0160701
812.169	0.0162384
812.247	0.0162870
812.325	0.0162217
812.404	0.0162994
812.482	0.0161772
812.560	0.0160889
812.638	0.0162735
812.716	0.0161510
812.794	0.0160880
812.872	0.0161201
812.950	0.0160526
813.029	0.0160822
813.107	0.0160582
813.185	0.0161835
813.263	0.0159506
813.341	0.0160181
813.419	0.0160545
813.497	0.0160335
813.575	0.0159685
813.654	0.0160921
813.732	0.0159110
813.810	0.0159897
813.888	0.0160709
813.966	0.0159364
814.044	0.0159963
814.122	0.0158687
814.200	0.0159117
814.279	0.0160384
814.357	0.0160011
814.435	0.0159071
814.513	0.0158424
814.591	0.0158986
814.669	0.0158813
814.747	0.0157291
814.825	0.0158916
814.904	0.0157663
814.982	0.0158243
815.060	0.0157438
815.138	0.0156704
815.216	0.0157439
815.294	0.0158106
815.372	0.0157047
815.450	0.0156969
815.529	0.0156572
815.607	0.0157426
815.685	0.0158183
815.763	0.0157043
815.841	0.0158057
815.919	0.0158434
815.997	0.0156512
816.075	0.0159006
816.154	0.0159582
816.232	0.0159095
816.310	0.0159321
816.388	0.0159248
816.466	0.0160555
816.544	0.0161113
816.622	0.0162342
816.700	0.0161555
816.779	0.0159988
816.857	0.0161236
816.935	0.0161656
817.013	0.0162672
817.091	0.0161416
817.169	0.0161626
817.247	0.0162433
817.325	0.0163122
817.404	0.0160289
817.482	0.0159020
817.560	0.0161338
817.638	0.0160845
817.716	0.0159885
817.794	0.0159563
817.872	0.0158233
817.950	0.0157482
818.029	0.0158219
818.107	0.0157034
818.185	0.0156387
818.263	0.0157548
818.341	0.0156966
818.419	0.0155870
818.497	0.0157316
818.575	0.0156524
818.654	0.0157295
818.732	0.0157360
818.810	0.0156770
818.888	0.0156522
818.966	0.0156612
819.044	0.0158590
819.122	0.0158280
819.200	0.0158004
819.279	0.0157788
819.357	0.0157888
819.435	0.0157530
819.513	0.0157432
819.591	0.0159829
819.669	0.0159177
819.747	0.0160405
819.825	0.0161855
819.904	0.0161311
819.982	0.0161258
820.060	0.0160320
820.138	0.0161797
820.216	0.0160544
820.294	0.0161747
820.372	0.0162261
820.450	0.0162721
820.529	0.0161865
820.607	0.0162704
820.685	0.0162458
820.763	0.0162077
820.841	0.0162131
820.919	0.0160424
820.997	0.0161789
821.075	0.0162363
821.154	0.0161593
821.232	0.0162913
821.310	0.0159939
821.388	0.0160065
821.466	0.0161546
821.544	0.0160994
821.622	0.0160633
821.700	0.0159241
821.779	0.0161163
821.857	0.0160291
821.935	0.0160555
822.013	0.0159927
822.091	0.0161187
822.169	0.0160784
822.247	0.0160935
822.325	0.0160028
822.404	0.0159679
822.482	0.0158593
822.560	0.0157404
822.638	0.0160332
822.716	0.0157667
822.794	0.0157560
822.872	0.0157849
822.950	0.0156284
823.029	0.0157226
823.107	0.0157616
823.185	0.0157655
823.263	0.0158471
823.341	0.0158686
823.419	0.0156676
823.497	0.0158527
823.575	0.0157175
823.654	0.0157826
823.732	0.0159452
823.810	0.0158264
823.888	0.0159595
823.966	0.0158958
824.044	0.0158913
824.122	0.0159949
824.200	0.0161096
824.279	0.0160097
824.357	0.0161699
824.435	0.0161214
824.513	0.0162090
824.591	0.0161995
824.669	0.0162005
824.747	0.0160860
824.825	0.0161820
824.904	0.0161525
824.982	0.0160944
825.060	0.0161296
825.138	0.0161952
825.216	0.0160123
825.294	0.0160942
825.372	0.0159802
825.450	0.0160672
825.529	0.0158672
825.607	0.0159355
825.685	0.0158972
825.763	0.0159964
825.841	0.0156987
825.919	0.0158266
825.997	0.0158097
826.075	0.0157323
826.154	0.0156767
826.232	0.0157882
826.310	0.0157357
826.388	0.0156640
826.466	0.0156866
826.544	0.0157101
826.622	0.0157507
826.700	0.0157063
826.779	0.0155795
826.857	0.0157609
826.935	0.0157590
827.013	0.0155550
827.091	0.0156318
827.169	0.0157705
827.247	0.0158380
827.325	0.0156863
827.404	0.0158154
827.482	0.0158375
827.560	0.0157030
827.638	0.0157903
827.716	0.0158039
827.794	0.0159506
827.872	0.0158266
827.950	0.0157974
828.029	0.0157949
828.107	0.0158594
828.185	0.0157779
828.263	0.0158633
828.341	0.0159856
828.419	0.0160626
828.497	0.0158749
828.575	0.0159981
828.654	0.0159881
828.732	0.0160994
828.810	0.0160199
828.888	0.0160606
828.966	0.0159601
829.044	0.0160641
829.122	0.0161120
829.200	0.0161302
829.279	0.0160236
829.357	0.0159355
829.435	0.0159243
829.513	0.0160483
829.591	0.0159718
829.669	0.0160527
829.747	0.0159335
829.825	0.0158781
829.904	0.0158037
829.982	0.0157377
830.060	0.0157404
830.138	0.0157728
830.216	0.0156658
830.294	0.0156381
830.372	0.0158186
830.450	0.0157423
830.529	0.0157240
830.607	0.0157660
830.685	0.0158431
830.763	0.0158021
830.841	0.0157372
830.919	0.0156809
830.997	0.0157929
831.075	0.0157046
831.154	0.0156248
831.232	0.0156895
831.310	0.0156651
831.388	0.0157913
831.466	0.0159009
831.544	0.0158204
831.622	0.0158904
831.700	0.0159509
831.779	0.0159565
831.857	0.0159858
831.935	0.0161618
832.013	0.0161098
832.091	0.0161281
832.169	0.0161562
832.247	0.0162132
832.325	0.0162829
832.404	0.0163425
832.482	0.0163676
832.560	0.0162675
832.638	0.0162601
832.716	0.0164125
832.794	0.0163262
832.872	0.0165491
832.950	0.0164093
833.029	0.0163366
833.107	0.0162341
833.185	0.0165495
833.263	0.0163473
833.341	0.0162143
833.419	0.0163282
833.497	0.0162853
833.575	0.0163387
833.654	0.0163133
833.732	0.0163437
833.810	0.0162608
833.888	0.0161419
833.966	0.0161689
834.044	0.0162949
834.122	0.0163194
834.200	0.0161580
834.279	0.0161597
834.357	0.0160914
834.435	0.0161850
834.513	0.0162044
834.591	0.0160262
834.669	0.0159478
834.747	0.0160513
834.825	0.0160107
834.904	0.0160525
834.982	0.0159302
835.060	0.0158912
835.138	0.0159961
835.216	0.0160654
835.294	0.0159077
835.372	0.0159684
835.450	0.0159945
835.529	0.0160726
835.607	0.0160747
835.685	0.0159614
835.763	0.0161099
835.841	0.0162208
835.919	0.0161285
835.997	0.0160853
836.075	0.0162190
836.154	0.0160455
836.232	0.0162321
836.310	0.0162169
836.388	0.0160680
836.466	0.0161269
836.544	0.0161723
836.622	0.0162266
836.700	0.0162833
836.779	0.0161112
836.857	0.0161538
836.935	0.0161900
837.013	0.0161155
837.091	0.0160268
837.169	0.0160847
837.247	0.0160287
837.325	0.0160494
837.404	0.0161319
837.482	0.0159363
837.560	0.0160635
837.638	0.0160821
837.716	0.0160638
837.794	0.0159386
837.872	0.0161069
837.950	0.0158725
838.029	0.0158685
838.107	0.0160111
838.185	0.0158251
838.263	0.0157726
838.341	0.0159117
838.419	0.0157562
838.497	0.0156118
838.575	0.0158619
838.654	0.0158681
838.732	0.0157485
838.810	0.0157139
838.888	0.0159743
838.966	0.0159255
839.044	0.0158671
839.122	0.0158030
839.200	0.0156287
839.279	0.0158774
839.357	0.0158470
839.435	0.0157987
839.513	0.0157887
839.591	0.0157958
839.669	0.0156928
839.747	0.0158263
839.825	0.0159675
839.904	0.0159467
839.982	0.0158704
840.060	0.0157996
840.138	0.0158254
840.216	0.0159315
840.294	0.0158477
840.372	0.0157376
840.450	0.0158347
840.529	0.0159326
840.607	0.0157742
840.685	0.0158510
840.763	0.0158230
840.841	0.0159090
840.919	0.0161170
840.997	0.0160831
841.075	0.0158495
841.154	0.0158310
841.232	0.0159146
841.310	0.0160148
841.388	0.0159574
841.466	0.0159498
841.544	0.0158458
841.622	0.0160252
841.700	0.0160709
841.779	0.0159875
841.857	0.0160558
841.935	0.0160437
842.013	0.0159647
842.091	0.0160612
842.169	0.0159301
842.247	0.0160181
842.325	0.0159768
842.404	0.0160217
842.482	0.0159859
842.560	0.0159880
842.638	0.0160059
842.716	0.0158976
842.794	0.0159261
842.872	0.0159828
842.950	0.0159233
843.029	0.0159402
843.107	0.0158025
843.185	0.0159524
843.263	0.0159632
843.341	0.0158885
843.419	0.0158108
843.497	0.0157501
843.575	0.0159171
843.654	0.0158768
843.732	0.0157230
843.810	0.0156689
843.888	0.0157890
843.966	0.0158466
844.044	0.0158080
844.122	0.0156642
844.200	0.0157519
844.279	0.0157767
844.357	0.0155969
844.435	0.0155951
844.513	0.0157465
844.591	0.0156828
844.669	0.0157938
844.747	0.0156517
844.825	0.0157138
844.904	0.0156766
844.982	0.0156554
845.060	0.0158224
845.138	0.0157941
845.216	0.0157182
845.294	0.0158315
845.372	0.0159348
845.450	0.0158110
845.529	0.0158219
845.607	0.0158611
845.685	0.0158270
845.763	0.0159043
845.841	0.0159405
845.919	0.0159409
845.997	0.0160126
846.075	0.0161117
846.154	0.0160503
846.232	0.0161753
846.310	0.0161849
846.388	0.0162356
846.466	0.0162254
846.544	0.0161292
846.622	0.0160361
846.700	0.0160818
846.779	0.0162479
846.857	0.0161531
846.935	0.0162595
847.013	0.0161500
847.091	0.0160170
847.169	0.0159384
847.247	0.0161359
847.325	0.0159955
847.404	0.0159174
847.482	0.0158611
847.560	0.0158056
847.638	0.0158659
847.716	0.0158768
847.794	0.0157938
847.872	0.0158089
847.950	0.0157739
848.029	0.0158470
848.107	0.0157002
848.185	0.0158720
848.263	0.0157708
848.341	0.0157642
848.419	0.0157457
848.497	0.0157394
848.575	0.0159069
848.654	0.0159536
848.732	0.0158213
848.810	0.0158668
848.888	0.0158061
848.966	0.0157930
849.044	0.0160822
849.122	0.0160266
849.200	0.0159113
849.279	0.0159608
849.357	0.0159307
849.435	0.0161052
849.513	0.0160966
849.591	0.0160432
849.669	0.0160551
849.747	0.0160218
849.825	0.0159258
849.904	0.0160310
849.982	0.0159657
850.060	0.0159512
850.138	0.0159151
850.216	0.0159108
850.294	0.0159557
850.372	0.0160383
850.450	0.0158451
850.529	0.0160152
850.607	0.0159701
850.685	0.0159853
850.763	0.0160555
850.841	0.0160177
850.919	0.0160921
850.997	0.0159692
851.075	0.0160219
851.154	0.0160680
851.232	0.0161564
851.310	0.0160403
851.388	0.0158576
851.466	0.0161695
851.544	0.0159797
851.622	0.0160822
851.700	0.0161102
851.779	0.0160677
851.857	0.0160872
851.935	0.0159895
852.013	0.0159930
852.091	0.0160365
852.169	0.0160309
852.247	0.0159682
852.325	0.0157942
852.404	0.0160317
852.482	0.0160252
852.560	0.0158053
852.638	0.0158511
852.716	0.0159302
852.794	0.0159978
852.872	0.0158790
852.950	0.0157281
853.029	0.0158838
853.107	0.0158836
853.185	0.0159396
853.263	0.0157191
853.341	0.0156995
853.419	0.0159380
853.497	0.0159030
853.575	0.0158411
853.654	0.0157455
853.732	0.0157951
853.810	0.0158833
853.888	0.0160646
853.966	0.0159396
854.044	0.0159605
854.122	0.0160484
854.200	0.0160616
854.279	0.0160027
854.357	0.0160542
854.435	0.0161126
854.513	0.0160220
854.591	0.0160390
854.669	0.0159814
854.747	0.0160434
854.825	0.0160264
854.904	0.0159273
854.982	0.0160900
855.060	0.0159706
855.138	0.0159653
855.216	0.0159714
855.294	0.0160873
855.372	0.0159497
855.450	0.0160076
855.529	0.0159866
855.607	0.0160152
855.685	0.0160022
855.763	0.0159670
855.841	0.0160493
855.919	0.0160564
855.997	0.0159245
856.075	0.0161662
856.154	0.0159869
856.232	0.0159501
856.310	0.0160239
856.388	0.0162009
856.466	0.0160883
856.544	0.0159811
856.622	0.0161843
856.700	0.0160035
856.779	0.0160731
856.857	0.0159906
856.935	0.0159310
857.013	0.0160740
857.091	0.0160969
857.169	0.0159483
857.247	0.0160964
857.325	0.0160448
857.404	0.0160429
857.482	0.0158620
857.560	0.0160155
857.638	0.0160143
857.716	0.0160428
857.794	0.0159808
857.872	0.0159803
857.950	0.0159689
858.029	0.0160051
858.107	0.0160104
858.185	0.0159824
858.263	0.0159597
858.341	0.0159560
858.419	0.0160004
858.497	0.0158867
858.575	0.0159253
858.654	0.0158981
858.732	0.0159101
858.810	0.0158119
858.888	0.0159429
858.966	0.0158828
859.044	0.0159369
859.122	0.0159277
859.200	0.0158047
859.279	0.0159742
859.357	0.0158945
859.435	0.0158614
859.513	0.0159885
859.591	0.0157944
859.669	0.0158574
859.747	0.0158193
859.825	0.0158009
859.904	0.0158959
859.982	0.0158345
860.060	0.0157420
860.138	0.0158376
860.216	0.0158611
860.294	0.0159260
860.372	0.0158476
860.450	0.0157124
860.529	0.0157368
860.607	0.0159604
860.685	0.0158508
860.763	0.0157640
860.841	0.0158161
860.919	0.0159431
860.997	0.0158116
861.075	0.0156835
861.154	0.0157660
861.232	0.0156423
861.310	0.0156734
861.388	0.0157623
861.466	0.0158511
861.544	0.0158070
861.622	0.0156985
861.700	0.0158803
861.779	0.0157307
861.857	0.0156950
861.935	0.0157465
862.013	0.0157800
862.091	0.0159219
862.169	0.0157635
862.247	0.0158122
862.325	0.0159360
862.404	0.0158831
862.482	0.0157771
862.560	0.0158468
862.638	0.0157954
862.716	0.0158804
862.794	0.0158085
862.872	0.0158807
862.950	0.0158837
863.029	0.0157731
863.107	0.0158774
863.185	0.0158479
863.263	0.0156876
863.341	0.0159045
863.419	0.0157870
863.497	0.0157932
863.575	0.0158313
863.654	0.0157132
863.732	0.0158317
863.810	0.0157735
863.888	0.0158608
863.966	0.0159969
864.044	0.0159633
864.122	0.0158477
864.200	0.0160320
864.279	0.0159216
864.357	0.0158069
864.435	0.0159955
864.513	0.0160656
864.591	0.0159937
864.669	0.0161929
864.747	0.0160166
864.825	0.0160842
864.904	0.0162135
864.982	0.0161666
865.060	0.0161644
865.138	0.0162775
865.216	0.0161769
865.294	0.0162474
865.372	0.0160764
865.450	0.0160310
865.529	0.0160889
865.607	0.0160702
865.685	0.0160767
865.763	0.0160730
865.841	0.0161839
865.919	0.0161569
865.997	0.0158929
866.075	0.0160212
866.154	0.0161135
866.232	0.0159624
866.310	0.0160632
866.388	0.0159579
866.466	0.0160243
866.544	0.0160577
866.622	0.0159447
866.700	0.0158698
866.779	0.0159570
866.857	0.0160943
866.935	0.0159447
867.013	0.0159663
867.091	0.0158447
867.169	0.0159312
867.247	0.0159037
867.325	0.0160120
867.404	0.0161053
867.482	0.0160070
867.560	0.0160828
867.638	0.0160475
867.716	0.0159492
867.794	0.0160462
867.872	0.0160459
867.950	0.0161161
868.029	0.0161310
868.107	0.0160325
868.185	0.0161864
868.263	0.0160307
868.341	0.0160930
868.419	0.0160590
868.497	0.0161182
868.575	0.0161013
868.654	0.0160026
868.732	0.0159427
868.810	0.0159184
868.888	0.0160606
868.966	0.0159859
869.044	0.0157810
869.122	0.0159556
869.200	0.0160017
869.279	0.0160829
869.357	0.0159335
869.435	0.0159962
869.513	0.0160038
869.591	0.0159093
869.669	0.0159555
869.747	0.0161088
869.825	0.0161044
869.904	0.0162714
869.982	0.0161735
870.060	0.0161856
870.138	0.0160542
870.216	0.0160974
870.294	0.0160534
870.372	0.0159453
870.450	0.0158990
870.529	0.0159755
870.607	0.0158712
870.685	0.0159937
870.763	0.0158390
870.841	0.0158562
870.919	0.0160220
870.997	0.0159671
871.075	0.0158503
871.154	0.0158836
871.232	0.0158949
871.310	0.0158185
871.388	0.0159604
871.466	0.0160675
871.544	0.0159922
871.622	0.0158987
871.700	0.0159729
871.779	0.0159509
871.857	0.0160690
871.935	0.0159948
872.013	0.0159679
872.091	0.0160467
872.169	0.0159937
872.247	0.0160075
872.325	0.0159348
872.404	0.0158378
872.482	0.0161028
872.560	0.0161177
872.638	0.0160963
872.716	0.0159126
872.794	0.0160642
872.872	0.0159263
872.950	0.0159724
873.029	0.0159267
873.107	0.0160356
873.185	0.0159836
873.263	0.0158368
873.341	0.0159750
873.419	0.0159753
873.497	0.0159204
873.575	0.0159774
873.654	0.0159705
873.732	0.0160809
873.810	0.0161082
873.888	0.0160096
873.966	0.0160773
874.044	0.0160141
874.122	0.0159412
874.200	0.0159483
874.279	0.0160255
874.357	0.0161950
874.435	0.0161477
874.513	0.0162103
874.591	0.0160684
874.669	0.0160611
874.747	0.0160894
874.825	0.0159324
874.904	0.0159876
874.982	0.0161177
875.060	0.0160228
875.138	0.0160189
875.216	0.0160831
875.294	0.0158754
875.372	0.0160128
875.450	0.0160201
875.529	0.0159899
875.607	0.0158473
875.685	0.0160033
875.763	0.0160181
875.841	0.0158423
875.919	0.0159312
875.997	0.0160234
876.075	0.0159346
876.154	0.0159062
876.232	0.0159411
876.310	0.0160811
876.388	0.0158640
876.466	0.0157851
876.544	0.0158747
876.622	0.0159526
876.700	0.0158664
876.779	0.0160284
876.857	0.0160354
876.935	0.0159437
877.013	0.0161009
877.091	0.0158752
877.169	0.0159811
877.247	0.0160075
877.325	0.0160524
877.404	0.0159696
877.482	0.0160161
877.560	0.0160226
877.638	0.0161429
877.716	0.0160369
877.794	0.0161086
877.872	0.0160354
877.950	0.0159576
878.029	0.0159815
878.107	0.0161504
878.185	0.0158608
878.263	0.0158717
878.341	0.0159469
878.419	0.0159834
878.497	0.0159363
878.575	0.0158837
878.654	0.0159568
878.732	0.0159507
878.810	0.0159011
878.888	0.0158044
878.966	0.0159091
879.044	0.0158572
879.122	0.0158603
879.200	0.0158426
879.279	0.0159660
879.357	0.0158580
879.435	0.0160170
879.513	0.0158852
879.591	0.0159892
879.669	0.0158952
879.747	0.0159122
879.825	0.0158478
879.904	0.0159331
879.982	0.0159298
880.060	0.0159206
880.138	0.0160496
880.216	0.0160636
880.294	0.0158502
880.372	0.0159925
880.450	0.0159293
880.529	0.0159586
880.607	0.0159660
880.685	0.0157952
880.763	0.0156979
880.841	0.0157861
880.919	0.0158060
880.997	0.0158870
881.075	0.0158256
881.154	0.0156747
881.232	0.0159321
881.310	0.0157825
881.388	0.0156729
881.466	0.0159070
881.544	0.0157905
881.622	0.0158583
881.700	0.0158521
881.779	0.0158202
881.857	0.0158495
881.935	0.0159432
882.013	0.0159499
882.091	0.0158399
882.169	0.0158954
882.247	0.0160000
882.325	0.0159043
882.404	0.0158900
882.482	0.0158728
882.560	0.0159571
882.638	0.0157538
882.716	0.0158028
882.794	0.0158954
882.872	0.0159219
882.950	0.0159404
883.029	0.0158532
883.107	0.0158703
883.185	0.0159931
883.263	0.0160468
883.341	0.0159200
883.419	0.0159058
883.497	0.0159401
883.575	0.0159178
883.654	0.0159974
883.732	0.0159802
883.810	0.0159348
883.888	0.0160400
883.966	0.0160345
884.044	0.0159969
884.122	0.0160583
884.200	0.0160590
884.279	0.0161031
884.357	0.0160266
884.435	0.0162041
884.513	0.0162342
884.591	0.0160479
884.669	0.0161728
884.747	0.0162444
884.825	0.0162195
884.904	0.0161763
884.982	0.0161759
885.060	0.0161367
885.138	0.0160601
885.216	0.0161407
885.294	0.0162593
885.372	0.0161924
885.450	0.0162114
885.529	0.0161311
885.607	0.0160522
885.685	0.0160538
885.763	0.0160881
885.841	0.0162172
885.919	0.0160544
885.997	0.0159132
886.075	0.0160580
886.154	0.0159750
886.232	0.0160242
886.310	0.0159032
886.388	0.0159854
886.466	0.0159097
886.544	0.0157856
886.622	0.0157919
886.700	0.0158163
886.779	0.0159989
886.857	0.0158145
886.935	0.0158860
887.013	0.0157693
887.091	0.0158192
887.169	0.0158074
887.247	0.0159379
887.325	0.0158644
887.404	0.0158126
887.482	0.0157540
887.560	0.0158056
887.638	0.0158617
887.716	0.0159605
887.794	0.0157587
887.872	0.0159001
887.950	0.0159834
888.029	0.0158392
888.107	0.0158621
888.185	0.0160236
888.263	0.0157500
888.341	0.0158965
888.419	0.0158763
888.497	0.0157952
888.575	0.0159575
888.654	0.0158317
888.732	0.0159611
888.810	0.0159917
888.888	0.0159196
888.966	0.0159505
889.044	0.0159596
889.122	0.0160903
889.200	0.0161094
889.279	0.0162733
889.357	0.0161729
889.435	0.0161103
889.513	0.0162484
889.591	0.0161792
889.669	0.0160207
889.747	0.0160790
889.825	0.0161685
889.904	0.0161694
889.982	0.0162149
890.060	0.0160819
890.138	0.0162544
890.216	0.0161558
890.294	0.0162789
890.372	0.0161091
890.450	0.0161189
890.529	0.0161983
890.607	0.0161456
890.685	0.0161723
890.763	0.0162997
890.841	0.0161152
890.919	0.0161117
890.997	0.0161467
891.075	0.0161029
891.154	0.0160953
891.232	0.0160886
891.310	0.0159081
891.388	0.0161421
891.466	0.0160550
891.544	0.0160345
891.622	0.0159224
891.700	0.0159200
891.779	0.0159227
891.857	0.0160628
891.935	0.0159738
892.013	0.0159592
892.091	0.0159418
892.169	0.0159736
892.247	0.0159698
892.325	0.0159104
892.404	0.0159866
892.482	0.0160414
892.560	0.0159928
892.638	0.0160700
892.716	0.0160217
892.794	0.0159798
892.872	0.0159524
892.950	0.0160055
893.029	0.0159228
893.107	0.0160414
893.185	0.0159607
893.263	0.0160122
893.341	0.0160728
893.419	0.0160523
893.497	0.0159486
893.575	0.0162073
893.654	0.0161703
893.732	0.0160526
893.810	0.0160180
893.888	0.0160713
893.966	0.0160439
894.044	0.0160283
894.122	0.0160899
894.200	0.0159988
894.279	0.0159993
894.357	0.0159910
894.435	0.0161007
894.513	0.0160400
894.591	0.0159944
894.669	0.0161668
894.747	0.0160548
894.825	0.0160153
894.904	0.0161256
894.982	0.0160884
895.060	0.0160059
895.138	0.0161369
895.216	0.0161377
895.294	0.0160326
895.372	0.0159685
895.450	0.0161281
895.529	0.0161546
895.607	0.0161848
895.685	0.0160508
895.763	0.0161057
895.841	0.0160979
895.919	0.0161937
895.997	0.0160413
896.075	0.0160812
896.154	0.0160371
896.232	0.0160870
896.310	0.0160537
896.388	0.0160240
896.466	0.0159974
896.544	0.0160221
896.622	0.0159499
896.700	0.0162273
896.779	0.0160182
896.857	0.0160101
896.935	0.0161005
897.013	0.0160207
897.091	0.0160281
897.169	0.0159763
897.247	0.0160521
897.325	0.0161043
897.404	0.0160909
897.482	0.0160247
897.560	0.0159750
897.638	0.0160330
897.716	0.0161680
897.794	0.0162000
897.872	0.0161515
897.950	0.0159887
898.029	0.0162312
898.107	0.0161310
898.185	0.0161998
898.263	0.0162334
898.341	0.0160658
898.419	0.0160614
898.497	0.0161810
898.575	0.0160993
898.654	0.0162189
898.732	0.0161658
898.810	0.0162666
898.888	0.0162276
898.966	0.0160385
899.044	0.0162795
899.122	0.0161819
899.200	0.0160513
899.279	0.0160859
899.357	0.0160318
899.435	0.0160814
899.513	0.0161745
899.591	0.0160606
899.669	0.0160003
899.747	0.0160824
899.825	0.0161544
899.904	0.0162350
899.982	0.0160552
900.060	0.0160505
900.138	0.0160955
900.216	0.0160518
900.294	0.0161861
900.372	0.0161348
900.450	0.0161461
900.529	0.0161782
900.607	0.0160153
900.685	0.0162546
900.763	0.0161256
900.841	0.0160994
900.919	0.0161600
900.997	0.0160848
901.075	0.0161251
901.154	0.0160623
901.232	0.0160085
901.310	0.0160313
901.388	0.0160371
901.466	0.0159666
901.544	0.0158703
901.622	0.0158936
901.700	0.0158102
901.779	0.0157903
901.857	0.0159253
901.935	0.0159095
902.013	0.0157946
902.091	0.0158591
902.169	0.0158419
902.247	0.0158308
902.325	0.0158105
902.404	0.0158158
902.482	0.0157922
902.560	0.0158636
902.638	0.0159797
902.716	0.0159959
902.794	0.0158832
902.872	0.0160635
902.950	0.0159515
903.029	0.0160133
903.107	0.0160867
903.185	0.0158606
903.263	0.0158273
903.341	0.0159478
903.419	0.0158553
903.497	0.0159001
903.575	0.0159523
903.654	0.0158776
903.732	0.0158182
903.810	0.0158327
903.888	0.0158059
903.966	0.0158344
904.044	0.0158282
904.122	0.0157287
904.200	0.0156108
904.279	0.0158471
904.357	0.0157497
904.435	0.0157048
904.513	0.0156761
904.591	0.0156674
904.669	0.0158237
904.747	0.0157682
904.825	0.0156863
904.904	0.0157842
904.982	0.0157683
905.060	0.0157848
905.138	0.0158258
905.216	0.0157549
905.294	0.0158079
905.372	0.0158307
905.450	0.0159000
905.529	0.0158878
905.607	0.0158360
905.685	0.0159038
905.763	0.0158206
905.841	0.0159288
905.919	0.0159853
905.997	0.0157807
906.075	0.0158456
906.154	0.0158118
906.232	0.0159966
906.310	0.0159364
906.388	0.0158817
906.466	0.0160464
906.544	0.0157656
906.622	0.0157750
906.700	0.0159682
906.779	0.0159244
906.857	0.0157906
906.935	0.0158142
907.013	0.0160568
907.091	0.0158385
907.169	0.0158963
907.247	0.0160094
907.325	0.0159052
907.404	0.0159357
907.482	0.0159193
907.560	0.0159489
907.638	0.0160017
907.716	0.0159991
907.794	0.0158155
907.872	0.0159790
907.950	0.0160343
908.029	0.0160415
908.107	0.0160172
908.185	0.0159076
908.263	0.0160611
908.341	0.0160760
908.419	0.0159116
908.497	0.0160633
908.575	0.0161167
908.654	0.0161830
908.732	0.0161401
908.810	0.0161507
908.888	0.0160472
908.966	0.0159772
909.044	0.0160568
909.122	0.0161058
909.200	0.0161304
909.279	0.0161458
909.357	0.0163590
909.435	0.0161353
909.513	0.0161043
909.591	0.0161457
909.669	0.0160146
909.747	0.0160806
909.825	0.0159833
909.904	0.0160478
909.982	0.0159736
910.060	0.0159767
910.138	0.0159766
910.216	0.0160023
910.294	0.0160065
910.372	0.0159474
910.450	0.0159252
910.529	0.0160817
910.607	0.0158983
910.685	0.0160134
910.763	0.0158938
910.841	0.0160322
910.919	0.0160037
910.997	0.0158518
911.075	0.0158370
911.154	0.0158008
911.232	0.0160104
911.310	0.0160577
911.388	0.0160031
911.466	0.0158469
911.544	0.0157926
911.622	0.0159071
911.700	0.0156942
911.779	0.0159430
911.857	0.0159437
911.935	0.0158606
912.013	0.0160176
912.091	0.0160069
912.169	0.0159766
912.247	0.0161147
912.325	0.0161485
912.404	0.0160828
912.482	0.0161888
912.560	0.0161338
912.638	0.0160807
912.716	0.0160468
912.794	0.0161575
912.872	0.0161666
912.950	0.0161402
913.029	0.0161864
913.107	0.0163175
913.185	0.0161605
913.263	0.0161340
913.341	0.0162637
913.419	0.0160516
913.497	0.0160693
913.575	0.0161657
913.654	0.0161812
913.732	0.0161692
913.810	0.0160838
913.888	0.0161008
913.966	0.0160709
914.044	0.0160948
914.122	0.0162133
914.200	0.0161906
914.279	0.0158939
914.357	0.0160945
914.435	0.0161020
914.513	0.0160259
914.591	0.0159589
914.669	0.0159696
914.747	0.0158980
914.825	0.0161243
914.904	0.0160720
914.982	0.0160222
915.060	0.0159786
915.138	0.0158675
915.216	0.0159099
915.294	0.0159612
915.372	0.0157476
915.450	0.0159615
915.529	0.0160292
915.607	0.0159566
915.685	0.0159350
915.763	0.0159688
915.841	0.0160280
915.919	0.0159131
915.997	0.0160493
916.075	0.0160246
916.154	0.0159523
916.232	0.0161314
916.310	0.0161830
916.388	0.0160682
916.466	0.0160024
916.544	0.0161456
916.622	0.0159908
916.700	0.0160795
916.779	0.0160928
916.857	0.0161074
916.935	0.0161095
917.013	0.0161358
917.091	0.0160606
917.169	0.0160393
917.247	0.0162354
917.325	0.0161882
917.404	0.0162563
917.482	0.0162350
917.560	0.0162584
917.638	0.0162615
917.716	0.0161721
917.794	0.0162446
917.872	0.0163333
917.950	0.0163344
918.029	0.0161845
918.107	0.0161444
918.185	0.0162929
918.263	0.0163025
918.341	0.0162864
918.419	0.0162119
918.497	0.0162363
918.575	0.0161500
918.654	0.0162414
918.732	0.0162997
918.810	0.0160683
918.888	0.0162084
918.966	0.0161099
919.044	0.0160883
919.122	0.0161058
919.200	0.0160233
919.279	0.0159018
919.357	0.0159045
919.435	0.0158713
919.513	0.0159018
919.591	0.0159045
919.669	0.0158602
919.747	0.0158551
919.825	0.0158195
919.904	0.0159168
