05/24/2022	20:51:02	Ver.	4.1	UNKNOWN
Optical Delay	580.014591	Delta X		0.078125	Sweeps	1	Scan Rate	0/0
Coordinates	Axis 1	NaN	Axis 2	NaN	Axis 3	NaN	Axis 4	NaN	Axis 5	NaN	Axis 6	0.000000
TX Power	0.000000	RX Power	0.000000

580.015	0.0163007
580.093	0.0161571
580.171	0.0161697
580.249	0.0164160
580.327	0.0162351
580.405	0.0162740
580.483	0.0162044
580.561	0.0162580
580.640	0.0162537
580.718	0.0163125
580.796	0.0163569
580.874	0.0161141
580.952	0.0163706
581.030	0.0163405
581.108	0.0162499
581.186	0.0162041
581.265	0.0163811
581.343	0.0163943
581.421	0.0163396
581.499	0.0163860
581.577	0.0163686
581.655	0.0163826
581.733	0.0162698
581.811	0.0162818
581.890	0.0163671
581.968	0.0163640
582.046	0.0163189
582.124	0.0163978
582.202	0.0164534
582.280	0.0163089
582.358	0.0164327
582.436	0.0164175
582.515	0.0162315
582.593	0.0165322
582.671	0.0164181
582.749	0.0162557
582.827	0.0164385
582.905	0.0165175
582.983	0.0165327
583.061	0.0164415
583.140	0.0163943
583.218	0.0164635
583.296	0.0164699
583.374	0.0165637
583.452	0.0166125
583.530	0.0166274
583.608	0.0165338
583.686	0.0166172
583.765	0.0165623
583.843	0.0164516
583.921	0.0164531
583.999	0.0164531
584.077	0.0165349
584.155	0.0165295
584.233	0.0164999
584.311	0.0165106
584.390	0.0164296
584.468	0.0164552
584.546	0.0165377
584.624	0.0165086
584.702	0.0165957
584.780	0.0166083
584.858	0.0164375
584.936	0.0164727
585.015	0.0165995
585.093	0.0164178
585.171	0.0166039
585.249	0.0165590
585.327	0.0165179
585.405	0.0162962
585.483	0.0163552
585.561	0.0163000
585.640	0.0163377
585.718	0.0161702
585.796	0.0161816
585.874	0.0160947
585.952	0.0160599
586.030	0.0159993
586.108	0.0160698
586.186	0.0160473
586.265	0.0160019
586.343	0.0158820
586.421	0.0159312
586.499	0.0159557
586.577	0.0158899
586.655	0.0160710
586.733	0.0160623
586.811	0.0159884
586.890	0.0160448
586.968	0.0160134
587.046	0.0161235
587.124	0.0160192
587.202	0.0161835
587.280	0.0162327
587.358	0.0162530
587.436	0.0162542
587.515	0.0161470
587.593	0.0162087
587.671	0.0163403
587.749	0.0161772
587.827	0.0163707
587.905	0.0161707
587.983	0.0161274
588.061	0.0162127
588.140	0.0162702
588.218	0.0161022
588.296	0.0162191
588.374	0.0161399
588.452	0.0161041
588.530	0.0160371
588.608	0.0160047
588.686	0.0161226
588.765	0.0161433
588.843	0.0161256
588.921	0.0161079
588.999	0.0160266
589.077	0.0160486
589.155	0.0160644
589.233	0.0159781
589.311	0.0160551
589.390	0.0158847
589.468	0.0160207
589.546	0.0159856
589.624	0.0159583
589.702	0.0160857
589.780	0.0160105
589.858	0.0159381
589.936	0.0161936
590.015	0.0162239
590.093	0.0159578
590.171	0.0160915
590.249	0.0161382
590.327	0.0160912
590.405	0.0159592
590.483	0.0161211
590.561	0.0161964
590.640	0.0162363
590.718	0.0161997
590.796	0.0162209
590.874	0.0162503
590.952	0.0162360
591.030	0.0160800
591.108	0.0162843
591.186	0.0162678
591.265	0.0162806
591.343	0.0163065
591.421	0.0163593
591.499	0.0163518
591.577	0.0162988
591.655	0.0163368
591.733	0.0163982
591.811	0.0163335
591.890	0.0163601
591.968	0.0165465
592.046	0.0163637
592.124	0.0163160
592.202	0.0164364
592.280	0.0163558
592.358	0.0163929
592.436	0.0165141
592.515	0.0164351
592.593	0.0164204
592.671	0.0164687
592.749	0.0164439
592.827	0.0164407
592.905	0.0163950
592.983	0.0165115
593.061	0.0164796
593.140	0.0165551
593.218	0.0162834
593.296	0.0163940
593.374	0.0163168
593.452	0.0163926
593.530	0.0164902
593.608	0.0162409
593.686	0.0163073
593.765	0.0162682
593.843	0.0163221
593.921	0.0163576
593.999	0.0162444
594.077	0.0163195
594.155	0.0161993
594.233	0.0162820
594.311	0.0163670
594.390	0.0164506
594.468	0.0163881
594.546	0.0163016
594.624	0.0164460
594.702	0.0165075
594.780	0.0165159
594.858	0.0165627
594.936	0.0164490
595.015	0.0164487
595.093	0.0166456
595.171	0.0165073
595.249	0.0165025
595.327	0.0164911
595.405	0.0164238
595.483	0.0165804
595.561	0.0165096
595.640	0.0166130
595.718	0.0166190
595.796	0.0164784
595.874	0.0165731
595.952	0.0164848
596.030	0.0164373
596.108	0.0165108
596.186	0.0165329
596.265	0.0166093
596.343	0.0163367
596.421	0.0164137
596.499	0.0163956
596.577	0.0163492
596.655	0.0163277
596.733	0.0163340
596.811	0.0164725
596.890	0.0162961
596.968	0.0161369
597.046	0.0162177
597.124	0.0164265
597.202	0.0163551
597.280	0.0163220
597.358	0.0162981
597.436	0.0162727
597.515	0.0164135
597.593	0.0164381
597.671	0.0164249
597.749	0.0164484
597.827	0.0163814
597.905	0.0163440
597.983	0.0163568
598.061	0.0163277
598.140	0.0163942
598.218	0.0163230
598.296	0.0164422
598.374	0.0164647
598.452	0.0163083
598.530	0.0164768
598.608	0.0164301
598.686	0.0164306
598.765	0.0163580
598.843	0.0163696
598.921	0.0164202
598.999	0.0164697
599.077	0.0162547
599.155	0.0163211
599.233	0.0164479
599.311	0.0164050
599.390	0.0163520
599.468	0.0163521
599.546	0.0163526
599.624	0.0163978
599.702	0.0163151
599.780	0.0163442
599.858	0.0164262
599.936	0.0163640
600.015	0.0163379
600.093	0.0163371
600.171	0.0163548
600.249	0.0163642
600.327	0.0162804
600.405	0.0163742
600.483	0.0163391
600.561	0.0163770
600.640	0.0162913
600.718	0.0163388
600.796	0.0162234
600.874	0.0163490
600.952	0.0161367
601.030	0.0164096
601.108	0.0163657
601.186	0.0164053
601.265	0.0163299
601.343	0.0161695
601.421	0.0163620
601.499	0.0163248
601.577	0.0162457
601.655	0.0163815
601.733	0.0164632
601.811	0.0163302
601.890	0.0163860
601.968	0.0164404
602.046	0.0163878
602.124	0.0163740
602.202	0.0164329
602.280	0.0163510
602.358	0.0164140
602.436	0.0162800
602.515	0.0163992
602.593	0.0163341
602.671	0.0163254
602.749	0.0163323
602.827	0.0162466
602.905	0.0162997
602.983	0.0163467
603.061	0.0161935
603.140	0.0163145
603.218	0.0163597
603.296	0.0162323
603.374	0.0163159
603.452	0.0163468
603.530	0.0163548
603.608	0.0163294
603.686	0.0163687
603.765	0.0164706
603.843	0.0163480
603.921	0.0163484
603.999	0.0162968
604.077	0.0163907
604.155	0.0163991
604.233	0.0165116
604.311	0.0165946
604.390	0.0166096
604.468	0.0164881
604.546	0.0165751
604.624	0.0166797
604.702	0.0165189
604.780	0.0165752
604.858	0.0165914
604.936	0.0166134
605.015	0.0163290
605.093	0.0165009
605.171	0.0162782
605.249	0.0163129
605.327	0.0162282
605.405	0.0160148
605.483	0.0160103
605.561	0.0160565
605.640	0.0161018
605.718	0.0160328
605.796	0.0158118
605.874	0.0158899
605.952	0.0159740
606.030	0.0160544
606.108	0.0160143
606.186	0.0161322
606.265	0.0160137
606.343	0.0161708
606.421	0.0159995
606.499	0.0160803
606.577	0.0162195
606.655	0.0161024
606.733	0.0162064
606.811	0.0160185
606.890	0.0161464
606.968	0.0162441
607.046	0.0162174
607.124	0.0161774
607.202	0.0161579
607.280	0.0162456
607.358	0.0161182
607.436	0.0161193
607.515	0.0162556
607.593	0.0161906
607.671	0.0162650
607.749	0.0161703
607.827	0.0162663
607.905	0.0163477
607.983	0.0162847
608.061	0.0164413
608.140	0.0164498
608.218	0.0164499
608.296	0.0164242
608.374	0.0164643
608.452	0.0164039
608.530	0.0163626
608.608	0.0163954
608.686	0.0162498
608.765	0.0162960
608.843	0.0161821
608.921	0.0160224
608.999	0.0160252
609.077	0.0161012
609.155	0.0160248
609.233	0.0160950
609.311	0.0160271
609.390	0.0158432
609.468	0.0158891
609.546	0.0158028
609.624	0.0158418
609.702	0.0158511
609.780	0.0159441
609.858	0.0160361
609.936	0.0161340
610.015	0.0159509
610.093	0.0161227
610.171	0.0160691
610.249	0.0161711
610.327	0.0160980
610.405	0.0162695
610.483	0.0164092
610.561	0.0164824
610.640	0.0163689
610.718	0.0164596
610.796	0.0164970
610.874	0.0166267
610.952	0.0166378
611.030	0.0165356
611.108	0.0163177
611.186	0.0165559
611.265	0.0164221
611.343	0.0163271
611.421	0.0162303
611.499	0.0160504
611.577	0.0160504
611.655	0.0160783
611.733	0.0160808
611.811	0.0159080
611.890	0.0157709
611.968	0.0157769
612.046	0.0157866
612.124	0.0159420
612.202	0.0159550
612.280	0.0158695
612.358	0.0158015
612.436	0.0160921
612.515	0.0161957
612.593	0.0162901
612.671	0.0163509
612.749	0.0165577
612.827	0.0167029
612.905	0.0169077
612.983	0.0169144
613.061	0.0169032
613.140	0.0171677
613.218	0.0172668
613.296	0.0173171
613.374	0.0173510
613.452	0.0173860
613.530	0.0175020
613.608	0.0172340
613.686	0.0172362
613.765	0.0170361
613.843	0.0169115
613.921	0.0167220
613.999	0.0166717
614.077	0.0164664
614.155	0.0161042
614.233	0.0157530
614.311	0.0157185
614.390	0.0155785
614.468	0.0154505
614.546	0.0152845
614.624	0.0152233
614.702	0.0150092
614.780	0.0150262
614.858	0.0149777
614.936	0.0148226
615.015	0.0151652
615.093	0.0150901
615.171	0.0151443
615.249	0.0153007
615.327	0.0154333
615.405	0.0156137
615.483	0.0156581
615.561	0.0161012
615.640	0.0161939
615.718	0.0163802
615.796	0.0166602
615.874	0.0168597
615.952	0.0170745
616.030	0.0173381
616.108	0.0175650
616.186	0.0177880
616.265	0.0178481
616.343	0.0178983
616.421	0.0180965
616.499	0.0178519
616.577	0.0178886
616.655	0.0178955
616.733	0.0176923
616.811	0.0175214
616.890	0.0174537
616.968	0.0172142
617.046	0.0170338
617.124	0.0168890
617.202	0.0168096
617.280	0.0165667
617.358	0.0163123
617.436	0.0161789
617.515	0.0161029
617.593	0.0159679
617.671	0.0157121
617.749	0.0155460
617.827	0.0156128
617.905	0.0154900
617.983	0.0153757
618.061	0.0153695
618.140	0.0155038
618.218	0.0155279
618.296	0.0154858
618.374	0.0155139
618.452	0.0158202
618.530	0.0158311
618.608	0.0158571
618.686	0.0160240
618.765	0.0159052
618.843	0.0159981
618.921	0.0161108
618.999	0.0160954
619.077	0.0162345
619.155	0.0162437
619.233	0.0162478
619.311	0.0161750
619.390	0.0161474
619.468	0.0160297
619.546	0.0160436
619.624	0.0160857
619.702	0.0159747
619.780	0.0160783
619.858	0.0160346
619.936	0.0159331
620.015	0.0160547
620.093	0.0160983
620.171	0.0160168
620.249	0.0161010
620.327	0.0160110
620.405	0.0162186
620.483	0.0162357
620.561	0.0162291
620.640	0.0164230
620.718	0.0165780
620.796	0.0168298
620.874	0.0170424
620.952	0.0170426
621.030	0.0173772
621.108	0.0175269
621.186	0.0176392
621.265	0.0178380
621.343	0.0180794
621.421	0.0180153
621.499	0.0182530
621.577	0.0181388
621.655	0.0182032
621.733	0.0183389
621.811	0.0181290
621.890	0.0178259
621.968	0.0176968
622.046	0.0173331
622.124	0.0171378
622.202	0.0168918
622.280	0.0165629
622.358	0.0161448
622.436	0.0158100
622.515	0.0154826
622.593	0.0151244
622.671	0.0149284
622.749	0.0146684
622.827	0.0145052
622.905	0.0144022
622.983	0.0142729
623.061	0.0141753
623.140	0.0142191
623.218	0.0142881
623.296	0.0141871
623.374	0.0144936
623.452	0.0146546
623.530	0.0148450
623.608	0.0151266
623.686	0.0153207
623.765	0.0153872
623.843	0.0157325
623.921	0.0159628
623.999	0.0162550
624.077	0.0164536
624.155	0.0167060
624.233	0.0168781
624.311	0.0169749
624.390	0.0172626
624.468	0.0173423
624.546	0.0173788
624.624	0.0173192
624.702	0.0174146
624.780	0.0173541
624.858	0.0174547
624.936	0.0174531
625.015	0.0173792
625.093	0.0172744
625.171	0.0174281
625.249	0.0173627
625.327	0.0172695
625.405	0.0173949
625.483	0.0172523
625.561	0.0173882
625.640	0.0174165
625.718	0.0174398
625.796	0.0174194
625.874	0.0175565
625.952	0.0173491
626.030	0.0174497
626.108	0.0173618
626.186	0.0174065
626.265	0.0175003
626.343	0.0173443
626.421	0.0171658
626.499	0.0171184
626.577	0.0169405
626.655	0.0167953
626.733	0.0166119
626.811	0.0162911
626.890	0.0162325
626.968	0.0159123
627.046	0.0157087
627.124	0.0155073
627.202	0.0151689
627.280	0.0149745
627.358	0.0145541
627.436	0.0142369
627.515	0.0141823
627.593	0.0140541
627.671	0.0136980
627.749	0.0134615
627.827	0.0134011
627.905	0.0134299
627.983	0.0134393
628.061	0.0136088
628.140	0.0135277
628.218	0.0137750
628.296	0.0141232
628.374	0.0142533
628.452	0.0145695
628.530	0.0149342
628.608	0.0151708
628.686	0.0155172
628.765	0.0159480
628.843	0.0163091
628.921	0.0168295
628.999	0.0170554
629.077	0.0173035
629.155	0.0176138
629.233	0.0179145
629.311	0.0181897
629.390	0.0184135
629.468	0.0185895
629.546	0.0186575
629.624	0.0187643
629.702	0.0188259
629.780	0.0188732
629.858	0.0189861
629.936	0.0187179
630.015	0.0186588
630.093	0.0186565
630.171	0.0183871
630.249	0.0182845
630.327	0.0182605
630.405	0.0178963
630.483	0.0177707
630.561	0.0177573
630.640	0.0172781
630.718	0.0170205
630.796	0.0168746
630.874	0.0166647
630.952	0.0165867
631.030	0.0164207
631.108	0.0161992
631.186	0.0158989
631.265	0.0157127
631.343	0.0153813
631.421	0.0154020
631.499	0.0151891
631.577	0.0149649
631.655	0.0147445
631.733	0.0145548
631.811	0.0144105
631.890	0.0142705
631.968	0.0142810
632.046	0.0141297
632.124	0.0141656
632.202	0.0141199
632.280	0.0141294
632.358	0.0143287
632.436	0.0143644
632.515	0.0144696
632.593	0.0147720
632.671	0.0149753
632.749	0.0150703
632.827	0.0152405
632.905	0.0154052
632.983	0.0156751
633.061	0.0158683
633.140	0.0160865
633.218	0.0162896
633.296	0.0165143
633.374	0.0166638
633.452	0.0169420
633.530	0.0171223
633.608	0.0173515
633.686	0.0175862
633.765	0.0178097
633.843	0.0178344
633.921	0.0180016
633.999	0.0182114
634.077	0.0183581
634.155	0.0180884
634.233	0.0181168
634.311	0.0182469
634.390	0.0180213
634.468	0.0179149
634.546	0.0176022
634.624	0.0173740
634.702	0.0172051
634.780	0.0169951
634.858	0.0166993
634.936	0.0165514
635.015	0.0162362
635.093	0.0160585
635.171	0.0157204
635.249	0.0156795
635.327	0.0154516
635.405	0.0153521
635.483	0.0151626
635.561	0.0151561
635.640	0.0150303
635.718	0.0149403
635.796	0.0149915
635.874	0.0150437
635.952	0.0151287
636.030	0.0151830
636.108	0.0152364
636.186	0.0154160
636.265	0.0153585
636.343	0.0156380
636.421	0.0157829
636.499	0.0159891
636.577	0.0160003
636.655	0.0161548
636.733	0.0163885
636.811	0.0165083
636.890	0.0167250
636.968	0.0168608
637.046	0.0170284
637.124	0.0171967
637.202	0.0172508
637.280	0.0175175
637.358	0.0176874
637.436	0.0176965
637.515	0.0177898
637.593	0.0180106
637.671	0.0179810
637.749	0.0178584
637.827	0.0178402
637.905	0.0177178
637.983	0.0174205
638.061	0.0172000
638.140	0.0168913
638.218	0.0165546
638.296	0.0164079
638.374	0.0160102
638.452	0.0158011
638.530	0.0155748
638.608	0.0153386
638.686	0.0152443
638.765	0.0151121
638.843	0.0150544
638.921	0.0147823
638.999	0.0147650
639.077	0.0147598
639.155	0.0146254
639.233	0.0145104
639.311	0.0144160
639.390	0.0144952
639.468	0.0143655
639.546	0.0145214
639.624	0.0145236
639.702	0.0145795
639.780	0.0146964
639.858	0.0146278
639.936	0.0148457
640.015	0.0150300
640.093	0.0153068
640.171	0.0153213
640.249	0.0155202
640.327	0.0158586
640.405	0.0161771
640.483	0.0162910
640.561	0.0165826
640.640	0.0167997
640.718	0.0171912
640.796	0.0172764
640.874	0.0175350
640.952	0.0178189
641.030	0.0181660
641.108	0.0183120
641.186	0.0185144
641.265	0.0185606
641.343	0.0186068
641.421	0.0186578
641.499	0.0186153
641.577	0.0185860
641.655	0.0185509
641.733	0.0185755
641.811	0.0182740
641.890	0.0179552
641.968	0.0178665
642.046	0.0178432
642.124	0.0177567
642.202	0.0173757
642.280	0.0172964
642.358	0.0172029
642.436	0.0171513
642.515	0.0167552
642.593	0.0165338
642.671	0.0165968
642.749	0.0163134
642.827	0.0159366
642.905	0.0158043
642.983	0.0156213
643.061	0.0152538
643.140	0.0151720
643.218	0.0150957
643.296	0.0148492
643.374	0.0146865
643.452	0.0147173
643.530	0.0146294
643.608	0.0146410
643.686	0.0147950
643.765	0.0149165
643.843	0.0150758
643.921	0.0151817
643.999	0.0153029
644.077	0.0154955
644.155	0.0156781
644.233	0.0159378
644.311	0.0161481
644.390	0.0161167
644.468	0.0161612
644.546	0.0164493
644.624	0.0164680
644.702	0.0163583
644.780	0.0164165
644.858	0.0164995
644.936	0.0163734
645.015	0.0163475
645.093	0.0164913
645.171	0.0163782
645.249	0.0161504
645.327	0.0163119
645.405	0.0160609
645.483	0.0160925
645.561	0.0158989
645.640	0.0160741
645.718	0.0159799
645.796	0.0159464
645.874	0.0160600
645.952	0.0160196
646.030	0.0160459
646.108	0.0160872
646.186	0.0161634
646.265	0.0162301
646.343	0.0162460
646.421	0.0162825
646.499	0.0163103
646.577	0.0165972
646.655	0.0166351
646.733	0.0164487
646.811	0.0167041
646.890	0.0168938
646.968	0.0169753
647.046	0.0171018
647.124	0.0171759
647.202	0.0173769
647.280	0.0174622
647.358	0.0175417
647.436	0.0177055
647.515	0.0178765
647.593	0.0181019
647.671	0.0180710
647.749	0.0179928
647.827	0.0180573
647.905	0.0182982
647.983	0.0181237
648.061	0.0181942
648.140	0.0181052
648.218	0.0179227
648.296	0.0176598
648.374	0.0174528
648.452	0.0173916
648.530	0.0170615
648.608	0.0169389
648.686	0.0165573
648.765	0.0163730
648.843	0.0160251
648.921	0.0158468
648.999	0.0157402
649.077	0.0157111
649.155	0.0154301
649.233	0.0152773
649.311	0.0151527
649.390	0.0150726
649.468	0.0150632
649.546	0.0147765
649.624	0.0147237
649.702	0.0146714
649.780	0.0146194
649.858	0.0146365
649.936	0.0146708
650.015	0.0145238
650.093	0.0146580
650.171	0.0146426
650.249	0.0148028
650.327	0.0149045
650.405	0.0149695
650.483	0.0150216
650.561	0.0151307
650.640	0.0150942
650.718	0.0152139
650.796	0.0153677
650.874	0.0155326
650.952	0.0155467
651.030	0.0156083
651.108	0.0156813
651.186	0.0157850
651.265	0.0159701
651.343	0.0162477
651.421	0.0163969
651.499	0.0166166
651.577	0.0167110
651.655	0.0167712
651.733	0.0171429
651.811	0.0173400
651.890	0.0175999
651.968	0.0176983
652.046	0.0177715
652.124	0.0179218
652.202	0.0182147
652.280	0.0183278
652.358	0.0183012
652.436	0.0184727
652.515	0.0185619
652.593	0.0184814
652.671	0.0183729
652.749	0.0181893
652.827	0.0180650
652.905	0.0178783
652.983	0.0176588
653.061	0.0174234
653.140	0.0170648
653.218	0.0167211
653.296	0.0163873
653.374	0.0160416
653.452	0.0156802
653.530	0.0154684
653.608	0.0152348
653.686	0.0148584
653.765	0.0147798
653.843	0.0146469
653.921	0.0145399
653.999	0.0142483
654.077	0.0144328
654.155	0.0142317
654.233	0.0143403
654.311	0.0143594
654.390	0.0143481
654.468	0.0145157
654.546	0.0147095
654.624	0.0149947
654.702	0.0151724
654.780	0.0154375
654.858	0.0157291
654.936	0.0159369
655.015	0.0161322
655.093	0.0163687
655.171	0.0165909
655.249	0.0169218
655.327	0.0169633
655.405	0.0171799
655.483	0.0173090
655.561	0.0174090
655.640	0.0173714
655.718	0.0173694
655.796	0.0173357
655.874	0.0175156
655.952	0.0172839
656.030	0.0172443
656.108	0.0171689
656.186	0.0171213
656.265	0.0167698
656.343	0.0167693
656.421	0.0166023
656.499	0.0165144
656.577	0.0163634
656.655	0.0162398
656.733	0.0162389
656.811	0.0161066
656.890	0.0162078
656.968	0.0158763
657.046	0.0159402
657.124	0.0160130
657.202	0.0159612
657.280	0.0158144
657.358	0.0158714
657.436	0.0159064
657.515	0.0158543
657.593	0.0159480
657.671	0.0158451
657.749	0.0159653
657.827	0.0157693
657.905	0.0156823
657.983	0.0157735
658.061	0.0157656
658.140	0.0156979
658.218	0.0156577
658.296	0.0156523
658.374	0.0157915
658.452	0.0155993
658.530	0.0156794
658.608	0.0158889
658.686	0.0159036
658.765	0.0159907
658.843	0.0160944
658.921	0.0161707
658.999	0.0163193
659.077	0.0162807
659.155	0.0164662
659.233	0.0164704
659.311	0.0164416
659.390	0.0165464
659.468	0.0166881
659.546	0.0168498
659.624	0.0167699
659.702	0.0169620
659.780	0.0171645
659.858	0.0171581
659.936	0.0172223
660.015	0.0172389
660.093	0.0174082
660.171	0.0174889
660.249	0.0174706
660.327	0.0174652
660.405	0.0174670
660.483	0.0173149
660.561	0.0173009
660.640	0.0172500
660.718	0.0172481
660.796	0.0170822
660.874	0.0168587
660.952	0.0169128
661.030	0.0168047
661.108	0.0167175
661.186	0.0165864
661.265	0.0164478
661.343	0.0163416
661.421	0.0162434
661.499	0.0160207
661.577	0.0157340
661.655	0.0157876
661.733	0.0154490
661.811	0.0152681
661.890	0.0152826
661.968	0.0152087
662.046	0.0150233
662.124	0.0151283
662.202	0.0152159
662.280	0.0152532
662.358	0.0151093
662.436	0.0152615
662.515	0.0153628
662.593	0.0153660
662.671	0.0155257
662.749	0.0155840
662.827	0.0157979
662.905	0.0159216
662.983	0.0159582
663.061	0.0160317
663.140	0.0161899
663.218	0.0163885
663.296	0.0163433
663.374	0.0165960
663.452	0.0166170
663.530	0.0169193
663.608	0.0170582
663.686	0.0170546
663.765	0.0170133
663.843	0.0170141
663.921	0.0172726
663.999	0.0170885
664.077	0.0168285
664.155	0.0168590
664.233	0.0168999
664.311	0.0167505
664.390	0.0166598
664.468	0.0166344
664.546	0.0164514
664.624	0.0164590
664.702	0.0161727
664.780	0.0161392
664.858	0.0160358
664.936	0.0162104
665.015	0.0159922
665.093	0.0157748
665.171	0.0157125
665.249	0.0158537
665.327	0.0158430
665.405	0.0155254
665.483	0.0156944
665.561	0.0155764
665.640	0.0156863
665.718	0.0157368
665.796	0.0157024
665.874	0.0156512
665.952	0.0158247
666.030	0.0157330
666.108	0.0158282
666.186	0.0159473
666.265	0.0161401
666.343	0.0161290
666.421	0.0161613
666.499	0.0162978
666.577	0.0163591
666.655	0.0163632
666.733	0.0163739
666.811	0.0165553
666.890	0.0164947
666.968	0.0165151
667.046	0.0165413
667.124	0.0165318
667.202	0.0165929
667.280	0.0166708
667.358	0.0167334
667.436	0.0166684
667.515	0.0169042
667.593	0.0167541
667.671	0.0168555
667.749	0.0169834
667.827	0.0170586
667.905	0.0171912
667.983	0.0172231
668.061	0.0171346
668.140	0.0172237
668.218	0.0173254
668.296	0.0173389
668.374	0.0171715
668.452	0.0171561
668.530	0.0170335
668.608	0.0169889
668.686	0.0170795
668.765	0.0169308
668.843	0.0168818
668.921	0.0165849
668.999	0.0163746
669.077	0.0162474
669.155	0.0160031
669.233	0.0158904
669.311	0.0156021
669.390	0.0154610
669.468	0.0154129
669.546	0.0151992
669.624	0.0149849
669.702	0.0150460
669.780	0.0148671
669.858	0.0149124
669.936	0.0148536
670.015	0.0147993
670.093	0.0150629
670.171	0.0150097
670.249	0.0152125
670.327	0.0154113
670.405	0.0154103
670.483	0.0154148
670.561	0.0156063
670.640	0.0158681
670.718	0.0160684
670.796	0.0161725
670.874	0.0163210
670.952	0.0164054
671.030	0.0165907
671.108	0.0166548
671.186	0.0167252
671.265	0.0167629
671.343	0.0168379
671.421	0.0168643
671.499	0.0169724
671.577	0.0169540
671.655	0.0171268
671.733	0.0172331
671.811	0.0170549
671.890	0.0171231
671.968	0.0171465
672.046	0.0170540
672.124	0.0169317
672.202	0.0170313
672.280	0.0168611
672.358	0.0169208
672.436	0.0168493
672.515	0.0168095
672.593	0.0169129
672.671	0.0167010
672.749	0.0166141
672.827	0.0167155
672.905	0.0168941
672.983	0.0167230
673.061	0.0166399
673.140	0.0166418
673.218	0.0165458
673.296	0.0166585
673.374	0.0165445
673.452	0.0165314
673.530	0.0163879
673.608	0.0162994
673.686	0.0162481
673.765	0.0162547
673.843	0.0161875
673.921	0.0162634
673.999	0.0160977
674.077	0.0161504
674.155	0.0161825
674.233	0.0160896
674.311	0.0162360
674.390	0.0162905
674.468	0.0161422
674.546	0.0160866
674.624	0.0158468
674.702	0.0158823
674.780	0.0158311
674.858	0.0157415
674.936	0.0155413
675.015	0.0154771
675.093	0.0154359
675.171	0.0153226
675.249	0.0154584
675.327	0.0155824
675.405	0.0154226
675.483	0.0154140
675.561	0.0156129
675.640	0.0157780
675.718	0.0157404
675.796	0.0157914
675.874	0.0160616
675.952	0.0162836
676.030	0.0163877
676.108	0.0164382
676.186	0.0166099
676.265	0.0166419
676.343	0.0167337
676.421	0.0168857
676.499	0.0169355
676.577	0.0169633
676.655	0.0169935
676.733	0.0170688
676.811	0.0170446
676.890	0.0169751
676.968	0.0169839
677.046	0.0169263
677.124	0.0170190
677.202	0.0167851
677.280	0.0168191
677.358	0.0167806
677.436	0.0167234
677.515	0.0167670
677.593	0.0168089
677.671	0.0166641
677.749	0.0165347
677.827	0.0166407
677.905	0.0165723
677.983	0.0164932
678.061	0.0164742
678.140	0.0163808
678.218	0.0163568
678.296	0.0162238
678.374	0.0162901
678.452	0.0162577
678.530	0.0161171
678.608	0.0160107
678.686	0.0160161
678.765	0.0160883
678.843	0.0159233
678.921	0.0159814
678.999	0.0160366
679.077	0.0160834
679.155	0.0160234
679.233	0.0159657
679.311	0.0159044
679.390	0.0160386
679.468	0.0158950
679.546	0.0158903
679.624	0.0158341
679.702	0.0158055
679.780	0.0157019
679.858	0.0157444
679.936	0.0158022
680.015	0.0156933
680.093	0.0157753
680.171	0.0158887
680.249	0.0159081
680.327	0.0159982
680.405	0.0162341
680.483	0.0162432
680.561	0.0162951
680.640	0.0162547
680.718	0.0164429
680.796	0.0164008
680.874	0.0166418
680.952	0.0166697
681.030	0.0168139
681.108	0.0166872
681.186	0.0166275
681.265	0.0167900
681.343	0.0167408
681.421	0.0168191
681.499	0.0166302
681.577	0.0166237
681.655	0.0165376
681.733	0.0165855
681.811	0.0165487
681.890	0.0164561
681.968	0.0164272
682.046	0.0164233
682.124	0.0165896
682.202	0.0164072
682.280	0.0162882
682.358	0.0163551
682.436	0.0162795
682.515	0.0161678
682.593	0.0163236
682.671	0.0164189
682.749	0.0162567
682.827	0.0163145
682.905	0.0163305
682.983	0.0164484
683.061	0.0164850
683.140	0.0165839
683.218	0.0165556
683.296	0.0165145
683.374	0.0165489
683.452	0.0168008
683.530	0.0166934
683.608	0.0166396
683.686	0.0167110
683.765	0.0166998
683.843	0.0166489
683.921	0.0165342
683.999	0.0164982
684.077	0.0163281
684.155	0.0164156
684.233	0.0163320
684.311	0.0162675
684.390	0.0162775
684.468	0.0161331
684.546	0.0161667
684.624	0.0161752
684.702	0.0160032
684.780	0.0159202
684.858	0.0160651
684.936	0.0161993
685.015	0.0160532
685.093	0.0160818
685.171	0.0161588
685.249	0.0162865
685.327	0.0162615
685.405	0.0163267
685.483	0.0163025
685.561	0.0162261
685.640	0.0163070
685.718	0.0163335
685.796	0.0164286
685.874	0.0164272
685.952	0.0164496
686.030	0.0164390
686.108	0.0164036
686.186	0.0162492
686.265	0.0163499
686.343	0.0165005
686.421	0.0164555
686.499	0.0163962
686.577	0.0164512
686.655	0.0163919
686.733	0.0164140
686.811	0.0165066
686.890	0.0165468
686.968	0.0165453
687.046	0.0165710
687.124	0.0165324
687.202	0.0166589
687.280	0.0168029
687.358	0.0166799
687.436	0.0164745
687.515	0.0165618
687.593	0.0167094
687.671	0.0165237
687.749	0.0164928
687.827	0.0165811
687.905	0.0165902
687.983	0.0165361
688.061	0.0164850
688.140	0.0163867
688.218	0.0163928
688.296	0.0163869
688.374	0.0163163
688.452	0.0162888
688.530	0.0160924
688.608	0.0160816
688.686	0.0160548
688.765	0.0159603
688.843	0.0159750
688.921	0.0158495
688.999	0.0158514
689.077	0.0157401
689.155	0.0157447
689.233	0.0155846
689.311	0.0155358
689.390	0.0155836
689.468	0.0155702
689.546	0.0157531
689.624	0.0158457
689.702	0.0159507
689.780	0.0158697
689.858	0.0159774
689.936	0.0160775
690.015	0.0160596
690.093	0.0160917
690.171	0.0161830
690.249	0.0163689
690.327	0.0164014
690.405	0.0163874
690.483	0.0164267
690.561	0.0165934
690.640	0.0165943
690.718	0.0165615
690.796	0.0166242
690.874	0.0165244
690.952	0.0167366
691.030	0.0166048
691.108	0.0166331
691.186	0.0166868
691.265	0.0164097
691.343	0.0164735
691.421	0.0164385
691.499	0.0162617
691.577	0.0163321
691.655	0.0161021
691.733	0.0160707
691.811	0.0159892
691.890	0.0159543
691.968	0.0159274
692.046	0.0159351
692.124	0.0159678
692.202	0.0159161
692.280	0.0159022
692.358	0.0159033
692.436	0.0159190
692.515	0.0160995
692.593	0.0158626
692.671	0.0157685
692.749	0.0160300
692.827	0.0160242
692.905	0.0159769
692.983	0.0160496
693.061	0.0159083
693.140	0.0161596
693.218	0.0160614
693.296	0.0160833
693.374	0.0159088
693.452	0.0159715
693.530	0.0160989
693.608	0.0160578
693.686	0.0159420
693.765	0.0162458
693.843	0.0162415
693.921	0.0162731
693.999	0.0164017
694.077	0.0164060
694.155	0.0165226
694.233	0.0165501
694.311	0.0164690
694.390	0.0166019
694.468	0.0166881
694.546	0.0165914
694.624	0.0167392
694.702	0.0167341
694.780	0.0166199
694.858	0.0166632
694.936	0.0167113
695.015	0.0165711
695.093	0.0166002
695.171	0.0165718
695.249	0.0165050
695.327	0.0165627
695.405	0.0164334
695.483	0.0164399
695.561	0.0164703
695.640	0.0163499
695.718	0.0161986
695.796	0.0162009
695.874	0.0163271
695.952	0.0160833
696.030	0.0161436
696.108	0.0163096
696.186	0.0163197
696.265	0.0161902
696.343	0.0162309
696.421	0.0163960
696.499	0.0164279
696.577	0.0164971
696.655	0.0164073
696.733	0.0165263
696.811	0.0165322
696.890	0.0166367
696.968	0.0167218
697.046	0.0167252
697.124	0.0166309
697.202	0.0166903
697.280	0.0166647
697.358	0.0167723
697.436	0.0167646
697.515	0.0167200
697.593	0.0165943
697.671	0.0165923
697.749	0.0166468
697.827	0.0165166
697.905	0.0164342
697.983	0.0165347
698.061	0.0163522
698.140	0.0162711
698.218	0.0163150
698.296	0.0162238
698.374	0.0162920
698.452	0.0161716
698.530	0.0161033
698.608	0.0162909
698.686	0.0161234
698.765	0.0160630
698.843	0.0161584
698.921	0.0161433
698.999	0.0160635
699.077	0.0159848
699.155	0.0161568
699.233	0.0161737
699.311	0.0160789
699.390	0.0160990
699.468	0.0160995
699.546	0.0160144
699.624	0.0161538
699.702	0.0162324
699.780	0.0161972
699.858	0.0161459
699.936	0.0161645
700.015	0.0161891
700.093	0.0163218
700.171	0.0163079
700.249	0.0164307
700.327	0.0165096
700.405	0.0165026
700.483	0.0164494
700.561	0.0164436
700.640	0.0165154
700.718	0.0163987
700.796	0.0163857
700.874	0.0163581
700.952	0.0164284
701.030	0.0163354
701.108	0.0163670
701.186	0.0163774
701.265	0.0162949
701.343	0.0163146
701.421	0.0161929
701.499	0.0162200
701.577	0.0162253
701.655	0.0162368
701.733	0.0161393
701.811	0.0161507
701.890	0.0161906
701.968	0.0161726
702.046	0.0160822
702.124	0.0161716
702.202	0.0161140
702.280	0.0161485
702.358	0.0160288
702.436	0.0160157
702.515	0.0160149
702.593	0.0160310
702.671	0.0159835
702.749	0.0160967
702.827	0.0161605
702.905	0.0160863
702.983	0.0160820
703.061	0.0161303
703.140	0.0162316
703.218	0.0162531
703.296	0.0162271
703.374	0.0161482
703.452	0.0161018
703.530	0.0162020
703.608	0.0162702
703.686	0.0161786
703.765	0.0161192
703.843	0.0161687
703.921	0.0160809
703.999	0.0162180
704.077	0.0161702
704.155	0.0162066
704.233	0.0163360
704.311	0.0163368
704.390	0.0162965
704.468	0.0162982
704.546	0.0161697
704.624	0.0163275
704.702	0.0163263
704.780	0.0162408
704.858	0.0163402
704.936	0.0163253
705.015	0.0165702
705.093	0.0163656
705.171	0.0165085
705.249	0.0164484
705.327	0.0164185
705.405	0.0165292
705.483	0.0165704
705.561	0.0166310
705.640	0.0165994
705.718	0.0165792
705.796	0.0165620
705.874	0.0164097
705.952	0.0163280
706.030	0.0163431
706.108	0.0163042
706.186	0.0163938
706.265	0.0162486
706.343	0.0162229
706.421	0.0160749
706.499	0.0160584
706.577	0.0159805
706.655	0.0161350
706.733	0.0160414
706.811	0.0162083
706.890	0.0160453
706.968	0.0161333
707.046	0.0162045
707.124	0.0161857
707.202	0.0162354
707.280	0.0162637
707.358	0.0164450
707.436	0.0162888
707.515	0.0163419
707.593	0.0164458
707.671	0.0164108
707.749	0.0163387
707.827	0.0165129
707.905	0.0164612
707.983	0.0164436
708.061	0.0165665
708.140	0.0166325
708.218	0.0164616
708.296	0.0164906
708.374	0.0165771
708.452	0.0165021
708.530	0.0166921
708.608	0.0164936
708.686	0.0164592
708.765	0.0165350
708.843	0.0165309
708.921	0.0164200
708.999	0.0163477
709.077	0.0162329
709.155	0.0162290
709.233	0.0162996
709.311	0.0163576
709.390	0.0163376
709.468	0.0162492
709.546	0.0162859
709.624	0.0162980
709.702	0.0163305
709.780	0.0163839
709.858	0.0162669
709.936	0.0163374
710.015	0.0162422
710.093	0.0164153
710.171	0.0165656
710.249	0.0164014
710.327	0.0164461
710.405	0.0165202
710.483	0.0165408
710.561	0.0165622
710.640	0.0166016
710.718	0.0165175
710.796	0.0164764
710.874	0.0165452
710.952	0.0164813
711.030	0.0163898
711.108	0.0164488
711.186	0.0163896
711.265	0.0162563
711.343	0.0163934
711.421	0.0162389
711.499	0.0160561
711.577	0.0161476
711.655	0.0160735
711.733	0.0160740
711.811	0.0161005
711.890	0.0161243
711.968	0.0162470
712.046	0.0161633
712.124	0.0160235
712.202	0.0160782
712.280	0.0161293
712.358	0.0161108
712.436	0.0162192
712.515	0.0163168
712.593	0.0163802
712.671	0.0164111
712.749	0.0162663
712.827	0.0163390
712.905	0.0164157
712.983	0.0162571
713.061	0.0164402
713.140	0.0164395
713.218	0.0163036
713.296	0.0162614
713.374	0.0163046
713.452	0.0163116
713.530	0.0162144
713.608	0.0160887
713.686	0.0160504
713.765	0.0161472
713.843	0.0161066
713.921	0.0159834
713.999	0.0159170
714.077	0.0158738
714.155	0.0158671
714.233	0.0157722
714.311	0.0158286
714.390	0.0159972
714.468	0.0158858
714.546	0.0158485
714.624	0.0159101
714.702	0.0159651
714.780	0.0158404
714.858	0.0160458
714.936	0.0161018
715.015	0.0161703
715.093	0.0162144
715.171	0.0162238
715.249	0.0162930
715.327	0.0164100
715.405	0.0164609
715.483	0.0165400
715.561	0.0164348
715.640	0.0165697
715.718	0.0167355
715.796	0.0168524
715.874	0.0167365
715.952	0.0168092
716.030	0.0167562
716.108	0.0167284
716.186	0.0168988
716.265	0.0169283
716.343	0.0168350
716.421	0.0168560
716.499	0.0168517
716.577	0.0169601
716.655	0.0168401
716.733	0.0167261
716.811	0.0167831
716.890	0.0166869
716.968	0.0165806
717.046	0.0165820
717.124	0.0165400
717.202	0.0164333
717.280	0.0164657
717.358	0.0164486
717.436	0.0164475
717.515	0.0163297
717.593	0.0163087
717.671	0.0162910
717.749	0.0162871
717.827	0.0161906
717.905	0.0162792
717.983	0.0162801
718.061	0.0161789
718.140	0.0162081
718.218	0.0163479
718.296	0.0162155
718.374	0.0161305
718.452	0.0161875
718.530	0.0161819
718.608	0.0162591
718.686	0.0161533
718.765	0.0162398
718.843	0.0161933
718.921	0.0161763
718.999	0.0161028
719.077	0.0160521
719.155	0.0160152
719.233	0.0160120
719.311	0.0161462
719.390	0.0160690
719.468	0.0159958
719.546	0.0159868
719.624	0.0158968
719.702	0.0160315
719.780	0.0159185
719.858	0.0160440
719.936	0.0159184
720.015	0.0161430
720.093	0.0160490
720.171	0.0160785
720.249	0.0162009
720.327	0.0162183
720.405	0.0162984
720.483	0.0162855
720.561	0.0161687
720.640	0.0162773
720.718	0.0163275
720.796	0.0161795
720.874	0.0163519
720.952	0.0162874
721.030	0.0163318
721.108	0.0163686
721.186	0.0163416
721.265	0.0162468
721.343	0.0161173
721.421	0.0163258
721.499	0.0162427
721.577	0.0163000
721.655	0.0160929
721.733	0.0162077
721.811	0.0162195
721.890	0.0161646
721.968	0.0161263
722.046	0.0161619
722.124	0.0162857
722.202	0.0161343
722.280	0.0162337
722.358	0.0162778
722.436	0.0162697
722.515	0.0162365
722.593	0.0160798
722.671	0.0161359
722.749	0.0162633
722.827	0.0162906
722.905	0.0162099
722.983	0.0162778
723.061	0.0161366
723.140	0.0162218
723.218	0.0164405
723.296	0.0163305
723.374	0.0162486
723.452	0.0162518
723.530	0.0162755
723.608	0.0162312
723.686	0.0161097
723.765	0.0160918
723.843	0.0162330
723.921	0.0159573
723.999	0.0159628
724.077	0.0160222
724.155	0.0159390
724.233	0.0160767
724.311	0.0160455
724.390	0.0161024
724.468	0.0160229
724.546	0.0161356
724.624	0.0161285
724.702	0.0160736
724.780	0.0161340
724.858	0.0161507
724.936	0.0162187
725.015	0.0162917
725.093	0.0164494
725.171	0.0162909
725.249	0.0164090
725.327	0.0165532
725.405	0.0166495
725.483	0.0167029
725.561	0.0166991
725.640	0.0167508
725.718	0.0166349
725.796	0.0168932
725.874	0.0170469
725.952	0.0170110
726.030	0.0170166
726.108	0.0169550
726.186	0.0169228
726.265	0.0169093
726.343	0.0169020
726.421	0.0170146
726.499	0.0168490
726.577	0.0169157
726.655	0.0169891
726.733	0.0168156
726.811	0.0168368
726.890	0.0165773
726.968	0.0166245
727.046	0.0167812
727.124	0.0166478
727.202	0.0164715
727.280	0.0166768
727.358	0.0165895
727.436	0.0164941
727.515	0.0164843
727.593	0.0164841
727.671	0.0165081
727.749	0.0164030
727.827	0.0163803
727.905	0.0164258
727.983	0.0163352
728.061	0.0162463
728.140	0.0162852
728.218	0.0160869
728.296	0.0159636
728.374	0.0160547
728.452	0.0159990
728.530	0.0159418
728.608	0.0159531
728.686	0.0159795
728.765	0.0159162
728.843	0.0159135
728.921	0.0158440
728.999	0.0158591
729.077	0.0157211
729.155	0.0156964
729.233	0.0158862
729.311	0.0159759
729.390	0.0158277
729.468	0.0159251
729.546	0.0158821
729.624	0.0160779
729.702	0.0161129
729.780	0.0162323
729.858	0.0163374
729.936	0.0162270
730.015	0.0162004
730.093	0.0163086
730.171	0.0163543
730.249	0.0163853
730.327	0.0163567
730.405	0.0164406
730.483	0.0164606
730.561	0.0163600
730.640	0.0164061
730.718	0.0164657
730.796	0.0164639
730.874	0.0164331
730.952	0.0163541
731.030	0.0164076
731.108	0.0163916
731.186	0.0163766
731.265	0.0163037
731.343	0.0164064
731.421	0.0163995
731.499	0.0163010
731.577	0.0163294
731.655	0.0163003
731.733	0.0163939
731.811	0.0164787
731.890	0.0164225
731.968	0.0162507
732.046	0.0163815
732.124	0.0163456
732.202	0.0164232
732.280	0.0164436
732.358	0.0164006
732.436	0.0163839
732.515	0.0164768
732.593	0.0163831
732.671	0.0164328
732.749	0.0164559
732.827	0.0164910
732.905	0.0164317
732.983	0.0163605
733.061	0.0164114
733.140	0.0164346
733.218	0.0165022
733.296	0.0165830
733.374	0.0164105
733.452	0.0164413
733.530	0.0165765
733.608	0.0164281
733.686	0.0164353
733.765	0.0163984
733.843	0.0164989
733.921	0.0163836
733.999	0.0163474
734.077	0.0163831
734.155	0.0164364
734.233	0.0161726
734.311	0.0162316
734.390	0.0163063
734.468	0.0163277
734.546	0.0161891
734.624	0.0161992
734.702	0.0162818
734.780	0.0161604
734.858	0.0161932
734.936	0.0161703
735.015	0.0161300
735.093	0.0160180
735.171	0.0161046
735.249	0.0160777
735.327	0.0160249
735.405	0.0159933
735.483	0.0160349
735.561	0.0160110
735.640	0.0159760
735.718	0.0159296
735.796	0.0160625
735.874	0.0159623
735.952	0.0160776
736.030	0.0158561
736.108	0.0159443
736.186	0.0159634
736.265	0.0159726
736.343	0.0158099
736.421	0.0159437
736.499	0.0159075
736.577	0.0159978
736.655	0.0160223
736.733	0.0161005
736.811	0.0160534
736.890	0.0161673
736.968	0.0161593
737.046	0.0161845
737.124	0.0162469
737.202	0.0162965
737.280	0.0162571
737.358	0.0163663
737.436	0.0164549
737.515	0.0164568
737.593	0.0165708
737.671	0.0165907
737.749	0.0165529
737.827	0.0166378
737.905	0.0165397
737.983	0.0166786
738.061	0.0165900
738.140	0.0165774
738.218	0.0166091
738.296	0.0167577
738.374	0.0165976
738.452	0.0167523
738.530	0.0166471
738.608	0.0167906
738.686	0.0167146
738.765	0.0168088
738.843	0.0166439
738.921	0.0167455
738.999	0.0166836
739.077	0.0165991
739.155	0.0168002
739.233	0.0165754
739.311	0.0165392
739.390	0.0165520
739.468	0.0163909
739.546	0.0163512
739.624	0.0163562
739.702	0.0163514
739.780	0.0163058
739.858	0.0161178
739.936	0.0162301
740.015	0.0163265
740.093	0.0161301
740.171	0.0162127
740.249	0.0161443
740.327	0.0163503
740.405	0.0162414
740.483	0.0162251
740.561	0.0163585
740.640	0.0163281
740.718	0.0164015
740.796	0.0162876
740.874	0.0163171
740.952	0.0162582
741.030	0.0163884
741.108	0.0163425
741.186	0.0161869
741.265	0.0162993
741.343	0.0164642
741.421	0.0163386
741.499	0.0163808
741.577	0.0165338
741.655	0.0164650
741.733	0.0163113
741.811	0.0165117
741.890	0.0165897
741.968	0.0165083
742.046	0.0162775
742.124	0.0165762
742.202	0.0166033
742.280	0.0165559
742.358	0.0164359
742.436	0.0164375
742.515	0.0164223
742.593	0.0164531
742.671	0.0164376
742.749	0.0164092
742.827	0.0164725
742.905	0.0163532
742.983	0.0164497
743.061	0.0166331
743.140	0.0164861
743.218	0.0164500
743.296	0.0164513
743.374	0.0163287
743.452	0.0163715
743.530	0.0164243
743.608	0.0164899
743.686	0.0164256
743.765	0.0165490
743.843	0.0163862
743.921	0.0164324
743.999	0.0163051
744.077	0.0164221
744.155	0.0163763
744.233	0.0164558
744.311	0.0164878
744.390	0.0163425
744.468	0.0163850
744.546	0.0162119
744.624	0.0162606
744.702	0.0162500
744.780	0.0162704
744.858	0.0161832
744.936	0.0161057
745.015	0.0160898
745.093	0.0161828
745.171	0.0160893
745.249	0.0160326
745.327	0.0161319
745.405	0.0160606
745.483	0.0159003
745.561	0.0159617
745.640	0.0161020
745.718	0.0161242
745.796	0.0160690
745.874	0.0162376
745.952	0.0160423
746.030	0.0161028
746.108	0.0161958
746.186	0.0160976
746.265	0.0161797
746.343	0.0163394
746.421	0.0162644
746.499	0.0163561
746.577	0.0163321
746.655	0.0164320
746.733	0.0164051
746.811	0.0164501
746.890	0.0164696
746.968	0.0165124
747.046	0.0164986
747.124	0.0164366
747.202	0.0166191
747.280	0.0165569
747.358	0.0165113
747.436	0.0165339
747.515	0.0165864
747.593	0.0166775
747.671	0.0164679
747.749	0.0166319
747.827	0.0166383
747.905	0.0165865
747.983	0.0166984
748.061	0.0166314
748.140	0.0167567
748.218	0.0166271
748.296	0.0163398
748.374	0.0167211
748.452	0.0166419
748.530	0.0165375
748.608	0.0165643
748.686	0.0167435
748.765	0.0166749
748.843	0.0166324
748.921	0.0165905
748.999	0.0167308
749.077	0.0166034
749.155	0.0166328
749.233	0.0166227
749.311	0.0165548
749.390	0.0166462
749.468	0.0165629
749.546	0.0164841
749.624	0.0166306
749.702	0.0165800
749.780	0.0164523
749.858	0.0163197
749.936	0.0163811
750.015	0.0164140
750.093	0.0162773
750.171	0.0163491
750.249	0.0162785
750.327	0.0161964
750.405	0.0162171
750.483	0.0160629
750.561	0.0161845
750.640	0.0161138
750.718	0.0160954
750.796	0.0161091
750.874	0.0160540
750.952	0.0161204
751.030	0.0160017
751.108	0.0160886
751.186	0.0159968
751.265	0.0160577
751.343	0.0159846
751.421	0.0160085
751.499	0.0160361
751.577	0.0161761
751.655	0.0161488
751.733	0.0161273
751.811	0.0159131
751.890	0.0159741
751.968	0.0160168
752.046	0.0162231
752.124	0.0161100
752.202	0.0161778
752.280	0.0163426
752.358	0.0160722
752.436	0.0159601
752.515	0.0162414
752.593	0.0161433
752.671	0.0161064
752.749	0.0161228
752.827	0.0159387
752.905	0.0160559
752.983	0.0161127
753.061	0.0163091
753.140	0.0160106
753.218	0.0160737
753.296	0.0161804
753.374	0.0160760
753.452	0.0161218
753.530	0.0162685
753.608	0.0162344
753.686	0.0162885
753.765	0.0161507
753.843	0.0160648
753.921	0.0163258
753.999	0.0161938
754.077	0.0164773
754.155	0.0162359
754.233	0.0161812
754.311	0.0162453
754.390	0.0164170
754.468	0.0164120
754.546	0.0163129
754.624	0.0162029
754.702	0.0163247
754.780	0.0163485
754.858	0.0163608
754.936	0.0163189
755.015	0.0162889
755.093	0.0162235
755.171	0.0163154
755.249	0.0163999
755.327	0.0163676
755.405	0.0163004
755.483	0.0164577
755.561	0.0162766
755.640	0.0163337
755.718	0.0163266
755.796	0.0165374
755.874	0.0162927
755.952	0.0161633
756.030	0.0163921
756.108	0.0163557
756.186	0.0163535
756.265	0.0162452
756.343	0.0161503
756.421	0.0164209
756.499	0.0163143
756.577	0.0163408
756.655	0.0163443
756.733	0.0164265
756.811	0.0165945
756.890	0.0164404
756.968	0.0164330
757.046	0.0162553
757.124	0.0163285
757.202	0.0164109
757.280	0.0163531
757.358	0.0162910
757.436	0.0164162
757.515	0.0164383
757.593	0.0164368
757.671	0.0163834
757.749	0.0163376
757.827	0.0163032
757.905	0.0163219
757.983	0.0162170
758.061	0.0163625
758.140	0.0163464
758.218	0.0164311
758.296	0.0163041
758.374	0.0162747
758.452	0.0161987
758.530	0.0162822
758.608	0.0163694
758.686	0.0162634
758.765	0.0163165
758.843	0.0162233
758.921	0.0161174
758.999	0.0162910
759.077	0.0162683
759.155	0.0161016
759.233	0.0162670
759.311	0.0162386
759.390	0.0162524
759.468	0.0163017
759.546	0.0163522
759.624	0.0163829
759.702	0.0162354
759.780	0.0163651
759.858	0.0163834
759.936	0.0162018
760.015	0.0163748
760.093	0.0163422
760.171	0.0160616
760.249	0.0161678
760.327	0.0162788
760.405	0.0162077
760.483	0.0161294
760.561	0.0161144
760.640	0.0159283
760.718	0.0159926
760.796	0.0158442
760.874	0.0159126
760.952	0.0158060
761.030	0.0158247
761.108	0.0156367
761.186	0.0156735
761.265	0.0156808
761.343	0.0156949
761.421	0.0157986
761.499	0.0157578
761.577	0.0159157
761.655	0.0161485
761.733	0.0163620
761.811	0.0163776
761.890	0.0164898
761.968	0.0166591
762.046	0.0168182
762.124	0.0167848
762.202	0.0170734
762.280	0.0171371
762.358	0.0169811
762.436	0.0170367
762.515	0.0170670
762.593	0.0170438
762.671	0.0171454
762.749	0.0169751
762.827	0.0169696
762.905	0.0169652
762.983	0.0167821
763.061	0.0167095
763.140	0.0166694
763.218	0.0168018
763.296	0.0168479
763.374	0.0167339
763.452	0.0167627
763.530	0.0167272
763.608	0.0167316
763.686	0.0166897
763.765	0.0167263
763.843	0.0166821
763.921	0.0167611
763.999	0.0167436
764.077	0.0167562
764.155	0.0166725
764.233	0.0166507
764.311	0.0164883
764.390	0.0164658
764.468	0.0163964
764.546	0.0163541
764.624	0.0162247
764.702	0.0162480
764.780	0.0162940
764.858	0.0162835
764.936	0.0161893
765.015	0.0161792
765.093	0.0161865
765.171	0.0158838
765.249	0.0158623
765.327	0.0160004
765.405	0.0159600
765.483	0.0158678
765.561	0.0159208
765.640	0.0160001
765.718	0.0158860
765.796	0.0158463
765.874	0.0159709
765.952	0.0158422
766.030	0.0159193
766.108	0.0160687
766.186	0.0160322
766.265	0.0158603
766.343	0.0159730
766.421	0.0160095
766.499	0.0158958
766.577	0.0160239
766.655	0.0162003
766.733	0.0162523
766.811	0.0161427
766.890	0.0162792
766.968	0.0162096
767.046	0.0161824
767.124	0.0163390
767.202	0.0163046
767.280	0.0163620
767.358	0.0163435
767.436	0.0163197
767.515	0.0164697
767.593	0.0163725
767.671	0.0163536
767.749	0.0164011
767.827	0.0163885
767.905	0.0164637
767.983	0.0165430
768.061	0.0164720
768.140	0.0165529
768.218	0.0164896
768.296	0.0164751
768.374	0.0165740
768.452	0.0165039
768.530	0.0164754
768.608	0.0163216
768.686	0.0164675
768.765	0.0163818
768.843	0.0162206
768.921	0.0162252
768.999	0.0163551
769.077	0.0163042
769.155	0.0162326
769.233	0.0162455
769.311	0.0162214
769.390	0.0162546
769.468	0.0161230
769.546	0.0161837
769.624	0.0164240
769.702	0.0163220
769.780	0.0162383
769.858	0.0162738
769.936	0.0163307
770.015	0.0162298
770.093	0.0162243
770.171	0.0162325
770.249	0.0164276
770.327	0.0164344
770.405	0.0164040
770.483	0.0163916
770.561	0.0164996
770.640	0.0164337
770.718	0.0163100
770.796	0.0163172
770.874	0.0164992
770.952	0.0163179
771.030	0.0163017
771.108	0.0163306
771.186	0.0162868
771.265	0.0163129
771.343	0.0162232
771.421	0.0161900
771.499	0.0161639
771.577	0.0160971
771.655	0.0163658
771.733	0.0162382
771.811	0.0162688
771.890	0.0162782
771.968	0.0162395
772.046	0.0163524
772.124	0.0162740
772.202	0.0163163
772.280	0.0163320
772.358	0.0164440
772.436	0.0164519
772.515	0.0165539
772.593	0.0164349
772.671	0.0163665
772.749	0.0162955
772.827	0.0164541
772.905	0.0164599
772.983	0.0164424
773.061	0.0165869
773.140	0.0165021
773.218	0.0165259
773.296	0.0164331
773.374	0.0165333
773.452	0.0165517
773.530	0.0164137
773.608	0.0164219
773.686	0.0165823
773.765	0.0165434
773.843	0.0163933
773.921	0.0164217
773.999	0.0164748
774.077	0.0165739
774.155	0.0163927
774.233	0.0164723
774.311	0.0165857
774.390	0.0164974
774.468	0.0165054
774.546	0.0162077
774.624	0.0162395
774.702	0.0164352
774.780	0.0161109
774.858	0.0161400
774.936	0.0162376
775.015	0.0160899
775.093	0.0161005
775.171	0.0161095
775.249	0.0160329
775.327	0.0159970
775.405	0.0160836
775.483	0.0161789
775.561	0.0160681
775.640	0.0159591
775.718	0.0159560
775.796	0.0159555
775.874	0.0160462
775.952	0.0158913
776.030	0.0159528
776.108	0.0159316
776.186	0.0160560
776.265	0.0160604
776.343	0.0161687
776.421	0.0160897
776.499	0.0160719
776.577	0.0160057
776.655	0.0161734
776.733	0.0160323
776.811	0.0161687
776.890	0.0162680
776.968	0.0162442
777.046	0.0162083
777.124	0.0162780
777.202	0.0163127
777.280	0.0162428
777.358	0.0162425
777.436	0.0162689
777.515	0.0163634
777.593	0.0163690
777.671	0.0163190
777.749	0.0163401
777.827	0.0163233
777.905	0.0163376
777.983	0.0162670
778.061	0.0163309
778.140	0.0163196
778.218	0.0165036
778.296	0.0164993
778.374	0.0163816
778.452	0.0163698
778.530	0.0163858
778.608	0.0163723
778.686	0.0162965
778.765	0.0164542
778.843	0.0164040
778.921	0.0164661
778.999	0.0164131
779.077	0.0163444
779.155	0.0164825
779.233	0.0165136
779.311	0.0163960
779.390	0.0163926
779.468	0.0164913
779.546	0.0164257
779.624	0.0165787
779.702	0.0166286
779.780	0.0164926
779.858	0.0165471
779.936	0.0168024
780.015	0.0165365
780.093	0.0166486
780.171	0.0164780
780.249	0.0166734
780.327	0.0166393
780.405	0.0165530
780.483	0.0167200
780.561	0.0166739
780.640	0.0165650
780.718	0.0166176
780.796	0.0165593
780.874	0.0165316
780.952	0.0164990
781.030	0.0163476
781.108	0.0163825
781.186	0.0164837
781.265	0.0163711
781.343	0.0163525
781.421	0.0163107
781.499	0.0160762
781.577	0.0162155
781.655	0.0162823
781.733	0.0160880
781.811	0.0161040
781.890	0.0160912
781.968	0.0160886
782.046	0.0161761
782.124	0.0161534
782.202	0.0160394
782.280	0.0161559
782.358	0.0160723
782.436	0.0162102
782.515	0.0160985
782.593	0.0159937
782.671	0.0161329
782.749	0.0161222
782.827	0.0160349
782.905	0.0162972
782.983	0.0161373
783.061	0.0162411
783.140	0.0162437
783.218	0.0161327
783.296	0.0163672
783.374	0.0162667
783.452	0.0162186
783.530	0.0162899
783.608	0.0163435
783.686	0.0163363
783.765	0.0163553
783.843	0.0164707
783.921	0.0162365
783.999	0.0162856
784.077	0.0163306
784.155	0.0163426
784.233	0.0163349
784.311	0.0163460
784.390	0.0163561
784.468	0.0163137
784.546	0.0163599
784.624	0.0162821
784.702	0.0164225
784.780	0.0163362
784.858	0.0163145
784.936	0.0164109
785.015	0.0162218
785.093	0.0161861
785.171	0.0163922
785.249	0.0162795
785.327	0.0163989
785.405	0.0164111
785.483	0.0163024
785.561	0.0164545
785.640	0.0162737
785.718	0.0161914
785.796	0.0164208
785.874	0.0164886
785.952	0.0163196
786.030	0.0163218
786.108	0.0165134
786.186	0.0163731
786.265	0.0164529
786.343	0.0163292
786.421	0.0163947
786.499	0.0165606
786.577	0.0165515
786.655	0.0164317
786.733	0.0164852
786.811	0.0164879
786.890	0.0164957
786.968	0.0165087
787.046	0.0164530
787.124	0.0164999
787.202	0.0165409
787.280	0.0165241
787.358	0.0165658
787.436	0.0165231
787.515	0.0163834
787.593	0.0162701
787.671	0.0164161
787.749	0.0163866
787.827	0.0162452
787.905	0.0165311
787.983	0.0164599
788.061	0.0162908
788.140	0.0163818
788.218	0.0163140
788.296	0.0163515
788.374	0.0163371
788.452	0.0163338
788.530	0.0162918
788.608	0.0162202
788.686	0.0162837
788.765	0.0163506
788.843	0.0162551
788.921	0.0163512
788.999	0.0161997
789.077	0.0160480
789.155	0.0163206
789.233	0.0162695
789.311	0.0161481
789.390	0.0161961
789.468	0.0162878
789.546	0.0162493
789.624	0.0162331
789.702	0.0162257
789.780	0.0162156
789.858	0.0163560
789.936	0.0161160
790.015	0.0162957
790.093	0.0163225
790.171	0.0161285
790.249	0.0162099
790.327	0.0161623
790.405	0.0162142
790.483	0.0162933
790.561	0.0160930
790.640	0.0162435
790.718	0.0162884
790.796	0.0163892
790.874	0.0163937
790.952	0.0162936
791.030	0.0162728
791.108	0.0162533
791.186	0.0162999
791.265	0.0163361
791.343	0.0163598
791.421	0.0163273
791.499	0.0164102
791.577	0.0162606
791.655	0.0163549
791.733	0.0162553
791.811	0.0163467
791.890	0.0163823
791.968	0.0162505
792.046	0.0163432
792.124	0.0162827
792.202	0.0162754
792.280	0.0161905
792.358	0.0163016
792.436	0.0162202
792.515	0.0162234
792.593	0.0162514
792.671	0.0161868
792.749	0.0161887
792.827	0.0162865
792.905	0.0163662
792.983	0.0162463
793.061	0.0162605
793.140	0.0163310
793.218	0.0164185
793.296	0.0163303
793.374	0.0165405
793.452	0.0164956
793.530	0.0165583
793.608	0.0166362
793.686	0.0166660
793.765	0.0166609
793.843	0.0166125
793.921	0.0167005
793.999	0.0167176
794.077	0.0167520
794.155	0.0165403
794.233	0.0166801
794.311	0.0167130
794.390	0.0166267
794.468	0.0165537
794.546	0.0167088
794.624	0.0166145
794.702	0.0166447
794.780	0.0164626
794.858	0.0164634
794.936	0.0165697
795.015	0.0164722
795.093	0.0164658
795.171	0.0163914
795.249	0.0162737
795.327	0.0162542
795.405	0.0161739
795.483	0.0163473
795.561	0.0161684
795.640	0.0161088
795.718	0.0160446
795.796	0.0159403
795.874	0.0160052
795.952	0.0159793
796.030	0.0160879
796.108	0.0160406
796.186	0.0159383
796.265	0.0160125
796.343	0.0161093
796.421	0.0158147
796.499	0.0158549
796.577	0.0160725
796.655	0.0160519
796.733	0.0158893
796.811	0.0158803
796.890	0.0160098
796.968	0.0159021
797.046	0.0159495
797.124	0.0159335
797.202	0.0160785
797.280	0.0159945
797.358	0.0160791
797.436	0.0160320
797.515	0.0162020
797.593	0.0160970
797.671	0.0162792
797.749	0.0162298
797.827	0.0162025
797.905	0.0162093
797.983	0.0162814
798.061	0.0164278
798.140	0.0163699
798.218	0.0164116
798.296	0.0164578
798.374	0.0163705
798.452	0.0164461
798.530	0.0164706
798.608	0.0164622
798.686	0.0163774
798.765	0.0164629
798.843	0.0165536
798.921	0.0165771
798.999	0.0164653
799.077	0.0163795
799.155	0.0165789
799.233	0.0164866
799.311	0.0164727
799.390	0.0165345
799.468	0.0163657
799.546	0.0164007
799.624	0.0163910
799.702	0.0162996
799.780	0.0163795
799.858	0.0163802
799.936	0.0164168
800.015	0.0163955
800.093	0.0163079
800.171	0.0163104
800.249	0.0163196
800.327	0.0163148
800.405	0.0162367
800.483	0.0161613
800.561	0.0162752
800.640	0.0162743
800.718	0.0161794
800.796	0.0162227
800.874	0.0162469
800.952	0.0162076
801.030	0.0162353
801.108	0.0161441
801.186	0.0162294
801.265	0.0163402
801.343	0.0162662
801.421	0.0163415
801.499	0.0163831
801.577	0.0162167
801.655	0.0162642
801.733	0.0162133
801.811	0.0163650
801.890	0.0162997
801.968	0.0162592
802.046	0.0162688
802.124	0.0163442
802.202	0.0164948
802.280	0.0162959
802.358	0.0163337
802.436	0.0163755
802.515	0.0164362
802.593	0.0162149
802.671	0.0161880
802.749	0.0162450
802.827	0.0161407
802.905	0.0163252
802.983	0.0162667
803.061	0.0162914
803.140	0.0161122
803.218	0.0161781
803.296	0.0162674
803.374	0.0161732
803.452	0.0162116
803.530	0.0163834
803.608	0.0162827
803.686	0.0160577
803.765	0.0163329
803.843	0.0162896
803.921	0.0162828
803.999	0.0162696
804.077	0.0164483
804.155	0.0164300
804.233	0.0163272
804.311	0.0163617
804.390	0.0164091
804.468	0.0164380
804.546	0.0165778
804.624	0.0165128
804.702	0.0165179
804.780	0.0163371
804.858	0.0163606
804.936	0.0165448
805.015	0.0164410
805.093	0.0165023
805.171	0.0164935
805.249	0.0165342
805.327	0.0164137
805.405	0.0163821
805.483	0.0163628
805.561	0.0162978
805.640	0.0163419
805.718	0.0162782
805.796	0.0163313
805.874	0.0163836
805.952	0.0163251
806.030	0.0162817
806.108	0.0162605
806.186	0.0163949
806.265	0.0162981
806.343	0.0163153
806.421	0.0162780
806.499	0.0163063
806.577	0.0162660
806.655	0.0163122
806.733	0.0164428
806.811	0.0164494
806.890	0.0162988
806.968	0.0162527
807.046	0.0163398
807.124	0.0164226
807.202	0.0163250
807.280	0.0163052
807.358	0.0164615
807.436	0.0163018
807.515	0.0164785
807.593	0.0163301
807.671	0.0162775
807.749	0.0163473
807.827	0.0163723
807.905	0.0163059
807.983	0.0163926
808.061	0.0162740
808.140	0.0163324
808.218	0.0162604
808.296	0.0162479
808.374	0.0160888
808.452	0.0161057
808.530	0.0161621
808.608	0.0161826
808.686	0.0161819
808.765	0.0161464
808.843	0.0160301
808.921	0.0161861
808.999	0.0162154
809.077	0.0162894
809.155	0.0162420
809.233	0.0161718
809.311	0.0162056
809.390	0.0163085
809.468	0.0163613
809.546	0.0163094
809.624	0.0163060
809.702	0.0163981
809.780	0.0164436
809.858	0.0163998
809.936	0.0164414
810.015	0.0163782
810.093	0.0163000
810.171	0.0165075
810.249	0.0163589
810.327	0.0164491
810.405	0.0164752
810.483	0.0163824
810.561	0.0162811
810.640	0.0162833
810.718	0.0165004
810.796	0.0164639
810.874	0.0163826
810.952	0.0163559
811.030	0.0162846
811.108	0.0164323
811.186	0.0164703
811.265	0.0163213
811.343	0.0163957
811.421	0.0162272
811.499	0.0163868
811.577	0.0164066
811.655	0.0163358
811.733	0.0162770
811.811	0.0164488
811.890	0.0164334
811.968	0.0163506
812.046	0.0162839
812.124	0.0163127
812.202	0.0164425
812.280	0.0165186
812.358	0.0164461
812.436	0.0164483
812.515	0.0164870
812.593	0.0164719
812.671	0.0164838
812.749	0.0164435
812.827	0.0164784
812.905	0.0165179
812.983	0.0166250
813.061	0.0166827
813.140	0.0166161
813.218	0.0165741
813.296	0.0165794
813.374	0.0166888
813.452	0.0167451
813.530	0.0165943
813.608	0.0164429
813.686	0.0166255
813.765	0.0164905
813.843	0.0165371
813.921	0.0165804
813.999	0.0165467
814.077	0.0164774
814.155	0.0165063
814.233	0.0164114
814.311	0.0163759
814.390	0.0164591
814.468	0.0163926
814.546	0.0164691
814.624	0.0164494
814.702	0.0164423
814.780	0.0164912
814.858	0.0164391
814.936	0.0163611
815.015	0.0163989
815.093	0.0164828
815.171	0.0165694
815.249	0.0164550
815.327	0.0162949
815.405	0.0163488
815.483	0.0165836
815.561	0.0165234
815.640	0.0164716
815.718	0.0165382
815.796	0.0164348
815.874	0.0164706
815.952	0.0163461
816.030	0.0161824
816.108	0.0163582
816.186	0.0163176
816.265	0.0162612
816.343	0.0162131
816.421	0.0162641
816.499	0.0162824
816.577	0.0162293
816.655	0.0161462
816.733	0.0162825
816.811	0.0161983
816.890	0.0162202
816.968	0.0162131
817.046	0.0162592
817.124	0.0162754
817.202	0.0162157
817.280	0.0161275
817.358	0.0162096
817.436	0.0161976
817.515	0.0163334
817.593	0.0165999
817.671	0.0161623
817.749	0.0162633
817.827	0.0164390
817.905	0.0162405
817.983	0.0162820
818.061	0.0162563
818.140	0.0163419
818.218	0.0163883
818.296	0.0161196
818.374	0.0161327
818.452	0.0160976
818.530	0.0161529
818.608	0.0159657
818.686	0.0160681
818.765	0.0160545
818.843	0.0159472
818.921	0.0159559
818.999	0.0159579
819.077	0.0160887
819.155	0.0160573
819.233	0.0160675
819.311	0.0160188
819.390	0.0159643
819.468	0.0160323
819.546	0.0158776
819.624	0.0160613
819.702	0.0161525
819.780	0.0159978
819.858	0.0161266
819.936	0.0163072
820.015	0.0161577
820.093	0.0162624
820.171	0.0164661
820.249	0.0163134
820.327	0.0163197
820.405	0.0164302
820.483	0.0165219
820.561	0.0165723
820.640	0.0165997
820.718	0.0165520
820.796	0.0165984
820.874	0.0165784
820.952	0.0165701
821.030	0.0166576
821.108	0.0167469
821.186	0.0164378
821.265	0.0165572
821.343	0.0165005
821.421	0.0166562
821.499	0.0164503
821.577	0.0165147
821.655	0.0165163
821.733	0.0165104
821.811	0.0164445
821.890	0.0164053
821.968	0.0164215
822.046	0.0165242
822.124	0.0163580
822.202	0.0163345
822.280	0.0162629
822.358	0.0164027
822.436	0.0164323
822.515	0.0163238
822.593	0.0163736
822.671	0.0163250
822.749	0.0162041
822.827	0.0162860
822.905	0.0163756
822.983	0.0163699
823.061	0.0163405
823.140	0.0161890
823.218	0.0163052
823.296	0.0162056
823.374	0.0162008
823.452	0.0159007
823.530	0.0161932
823.608	0.0162177
823.686	0.0161361
823.765	0.0160777
823.843	0.0160073
823.921	0.0160858
823.999	0.0161132
824.077	0.0160876
824.155	0.0160835
824.233	0.0161045
824.311	0.0161446
824.390	0.0158862
824.468	0.0160239
824.546	0.0160822
824.624	0.0162664
824.702	0.0161345
824.780	0.0161882
824.858	0.0163136
824.936	0.0161907
825.015	0.0164454
825.093	0.0162228
825.171	0.0163323
825.249	0.0162411
825.327	0.0163170
825.405	0.0163846
825.483	0.0163795
825.561	0.0165160
825.640	0.0164723
825.718	0.0165799
825.796	0.0165570
825.874	0.0165558
825.952	0.0167109
826.030	0.0166917
826.108	0.0166036
826.186	0.0166087
826.265	0.0165668
826.343	0.0165898
826.421	0.0167084
826.499	0.0164964
826.577	0.0164225
826.655	0.0164100
826.733	0.0164681
826.811	0.0163413
826.890	0.0163995
826.968	0.0163544
827.046	0.0163782
827.124	0.0163755
827.202	0.0162479
827.280	0.0161375
827.358	0.0160871
827.436	0.0162836
827.515	0.0163348
827.593	0.0163089
827.671	0.0162431
827.749	0.0162665
827.827	0.0161295
827.905	0.0161619
827.983	0.0161176
828.061	0.0162587
828.140	0.0161916
828.218	0.0161640
828.296	0.0163079
828.374	0.0162376
828.452	0.0161382
828.530	0.0163347
828.608	0.0162338
828.686	0.0163232
828.765	0.0163471
828.843	0.0161554
828.921	0.0162089
828.999	0.0162474
829.077	0.0162973
829.155	0.0163106
829.233	0.0160658
829.311	0.0163049
829.390	0.0162920
829.468	0.0162358
829.546	0.0162489
829.624	0.0161779
829.702	0.0161553
829.780	0.0161611
829.858	0.0161787
829.936	0.0161914
830.015	0.0160959
830.093	0.0160345
830.171	0.0159977
830.249	0.0160728
830.327	0.0160657
830.405	0.0160433
830.483	0.0160735
830.561	0.0160976
830.640	0.0161196
830.718	0.0161040
830.796	0.0161552
830.874	0.0161758
830.952	0.0162851
831.030	0.0160973
831.108	0.0161555
831.186	0.0163086
831.265	0.0161582
831.343	0.0162856
831.421	0.0163102
831.499	0.0162921
831.577	0.0164451
831.655	0.0163359
831.733	0.0161796
831.811	0.0163246
831.890	0.0164182
831.968	0.0164640
832.046	0.0163660
832.124	0.0164763
832.202	0.0164572
832.280	0.0165828
832.358	0.0164668
832.436	0.0165128
832.515	0.0165691
832.593	0.0162831
832.671	0.0164986
832.749	0.0164925
832.827	0.0165216
832.905	0.0166098
832.983	0.0165363
833.061	0.0163948
833.140	0.0163656
833.218	0.0165103
833.296	0.0164691
833.374	0.0163379
833.452	0.0164095
833.530	0.0163285
833.608	0.0162312
833.686	0.0162933
833.765	0.0162134
833.843	0.0162780
833.921	0.0162653
833.999	0.0160995
834.077	0.0163382
834.155	0.0161828
834.233	0.0161601
834.311	0.0161188
834.390	0.0159870
834.468	0.0160339
834.546	0.0160841
834.624	0.0162006
834.702	0.0161737
834.780	0.0161246
834.858	0.0161886
834.936	0.0159650
835.015	0.0160487
835.093	0.0161724
835.171	0.0161659
835.249	0.0161807
835.327	0.0161234
835.405	0.0161454
835.483	0.0161382
835.561	0.0163487
835.640	0.0162019
835.718	0.0161340
835.796	0.0162878
835.874	0.0163106
835.952	0.0164080
836.030	0.0163378
836.108	0.0164410
836.186	0.0164909
836.265	0.0162752
836.343	0.0163692
836.421	0.0164441
836.499	0.0165472
836.577	0.0165374
836.655	0.0164199
836.733	0.0165566
836.811	0.0165608
836.890	0.0164897
836.968	0.0165714
837.046	0.0164858
837.124	0.0164515
837.202	0.0164328
837.280	0.0164068
837.358	0.0165337
837.436	0.0164698
837.515	0.0162907
837.593	0.0163087
837.671	0.0163573
837.749	0.0163695
837.827	0.0162517
837.905	0.0164481
837.983	0.0163630
838.061	0.0163203
838.140	0.0163177
838.218	0.0162754
838.296	0.0162059
838.374	0.0162424
838.452	0.0162522
838.530	0.0163383
838.608	0.0163321
838.686	0.0164365
838.765	0.0163895
838.843	0.0162755
838.921	0.0162566
838.999	0.0163509
839.077	0.0164657
839.155	0.0164208
839.233	0.0163560
839.311	0.0162705
839.390	0.0163421
839.468	0.0163451
839.546	0.0163724
839.624	0.0164011
839.702	0.0163943
839.780	0.0163002
839.858	0.0163923
839.936	0.0163169
840.015	0.0162237
840.093	0.0163066
840.171	0.0162283
840.249	0.0162012
840.327	0.0162057
840.405	0.0162284
840.483	0.0162097
840.561	0.0162047
840.640	0.0160935
840.718	0.0160831
840.796	0.0161792
840.874	0.0163000
840.952	0.0161445
841.030	0.0161739
841.108	0.0162560
841.186	0.0162055
841.265	0.0162778
841.343	0.0162521
841.421	0.0164413
841.499	0.0163424
841.577	0.0163892
841.655	0.0163100
841.733	0.0163922
841.811	0.0165665
841.890	0.0163608
841.968	0.0164048
842.046	0.0164610
842.124	0.0164658
842.202	0.0164032
842.280	0.0162480
842.358	0.0163934
842.436	0.0163593
842.515	0.0164336
842.593	0.0165266
842.671	0.0163094
842.749	0.0165347
842.827	0.0163986
842.905	0.0163886
842.983	0.0165285
843.061	0.0164716
843.140	0.0164655
843.218	0.0163842
843.296	0.0163165
843.374	0.0164801
843.452	0.0163297
843.530	0.0164450
843.608	0.0163680
843.686	0.0164155
843.765	0.0164320
843.843	0.0164069
843.921	0.0163727
843.999	0.0164104
844.077	0.0164884
844.155	0.0163018
844.233	0.0164606
844.311	0.0163432
844.390	0.0162937
844.468	0.0163978
844.546	0.0163153
844.624	0.0162484
844.702	0.0164141
844.780	0.0162658
844.858	0.0160829
844.936	0.0161779
845.015	0.0162603
845.093	0.0162154
845.171	0.0160889
845.249	0.0161744
845.327	0.0160683
845.405	0.0161420
845.483	0.0161092
845.561	0.0160998
845.640	0.0160899
845.718	0.0161023
845.796	0.0160823
845.874	0.0161665
845.952	0.0162769
846.030	0.0162157
846.108	0.0162016
846.186	0.0163625
846.265	0.0162306
846.343	0.0162017
846.421	0.0163147
846.499	0.0164205
846.577	0.0163195
846.655	0.0165057
846.733	0.0164384
846.811	0.0164106
846.890	0.0164288
846.968	0.0164936
847.046	0.0164934
847.124	0.0165999
847.202	0.0165942
847.280	0.0164759
847.358	0.0166501
847.436	0.0164671
847.515	0.0164710
847.593	0.0164869
847.671	0.0164577
847.749	0.0164006
847.827	0.0163711
847.905	0.0163754
847.983	0.0164647
848.061	0.0164036
848.140	0.0164547
848.218	0.0163641
848.296	0.0163191
848.374	0.0162859
848.452	0.0162536
848.530	0.0161700
848.608	0.0161024
848.686	0.0162920
848.765	0.0162975
848.843	0.0163554
848.921	0.0162801
848.999	0.0162242
849.077	0.0162915
849.155	0.0165131
849.233	0.0162757
849.311	0.0162427
849.390	0.0164275
849.468	0.0162676
849.546	0.0163844
849.624	0.0161655
849.702	0.0162676
849.780	0.0162275
849.858	0.0161537
849.936	0.0162467
850.015	0.0161727
850.093	0.0160847
850.171	0.0160923
850.249	0.0163831
850.327	0.0161119
850.405	0.0161055
850.483	0.0162122
850.561	0.0161611
850.640	0.0162566
850.718	0.0163216
850.796	0.0161407
850.874	0.0161531
850.952	0.0161307
851.030	0.0162827
851.108	0.0162669
851.186	0.0163482
851.265	0.0164088
851.343	0.0163412
851.421	0.0162778
851.499	0.0163788
851.577	0.0163880
851.655	0.0164125
851.733	0.0163932
851.811	0.0165398
851.890	0.0165983
851.968	0.0164700
852.046	0.0164300
852.124	0.0165286
852.202	0.0164765
852.280	0.0165619
852.358	0.0162897
852.436	0.0163867
852.515	0.0164851
852.593	0.0164937
852.671	0.0162830
852.749	0.0162376
852.827	0.0163931
852.905	0.0163498
852.983	0.0163436
853.061	0.0162350
853.140	0.0162062
853.218	0.0162435
853.296	0.0162836
853.374	0.0162525
853.452	0.0163022
853.530	0.0163803
853.608	0.0162874
853.686	0.0162245
853.765	0.0161862
853.843	0.0162174
853.921	0.0160963
853.999	0.0162991
854.077	0.0162970
854.155	0.0160104
854.233	0.0163355
854.311	0.0164897
854.390	0.0161098
854.468	0.0162341
854.546	0.0162576
854.624	0.0163665
854.702	0.0164105
854.780	0.0163357
854.858	0.0161790
854.936	0.0161485
855.015	0.0163167
855.093	0.0163047
855.171	0.0163142
855.249	0.0163960
855.327	0.0162470
855.405	0.0162303
855.483	0.0162106
855.561	0.0162208
855.640	0.0162553
855.718	0.0161311
855.796	0.0161134
855.874	0.0161114
855.952	0.0162388
856.030	0.0160442
856.108	0.0162048
856.186	0.0162019
856.265	0.0160955
856.343	0.0159779
856.421	0.0160918
856.499	0.0161361
856.577	0.0161391
856.655	0.0160928
856.733	0.0161610
856.811	0.0160873
856.890	0.0163018
856.968	0.0163467
857.046	0.0162392
857.124	0.0162608
857.202	0.0164465
857.280	0.0164439
857.358	0.0164102
857.436	0.0163503
857.515	0.0163776
857.593	0.0166725
857.671	0.0164841
857.749	0.0164701
857.827	0.0164452
857.905	0.0163626
857.983	0.0163548
858.061	0.0163805
858.140	0.0165147
858.218	0.0162681
858.296	0.0163498
858.374	0.0162823
858.452	0.0163785
858.530	0.0163271
858.608	0.0162405
858.686	0.0162737
858.765	0.0164211
858.843	0.0162537
858.921	0.0163924
858.999	0.0163402
859.077	0.0162113
859.155	0.0164270
859.233	0.0163072
859.311	0.0162457
859.390	0.0164738
859.468	0.0164908
859.546	0.0164104
859.624	0.0164246
859.702	0.0165004
859.780	0.0165169
859.858	0.0164228
859.936	0.0165101
860.015	0.0166315
860.093	0.0164657
860.171	0.0164773
860.249	0.0165155
860.327	0.0164895
860.405	0.0164743
860.483	0.0164532
860.561	0.0165047
860.640	0.0164267
860.718	0.0164755
860.796	0.0163957
860.874	0.0162301
860.952	0.0164027
861.030	0.0163529
861.108	0.0162806
861.186	0.0162759
861.265	0.0162098
861.343	0.0160646
861.421	0.0161705
861.499	0.0162743
861.577	0.0161442
861.655	0.0161803
861.733	0.0161551
861.811	0.0160942
861.890	0.0162436
861.968	0.0161849
862.046	0.0162330
862.124	0.0161251
862.202	0.0160558
862.280	0.0162119
862.358	0.0161636
862.436	0.0162421
862.515	0.0161823
862.593	0.0160607
862.671	0.0160733
862.749	0.0161207
862.827	0.0161819
862.905	0.0160094
862.983	0.0161694
863.061	0.0161244
863.140	0.0161124
863.218	0.0163000
863.296	0.0163245
863.374	0.0162440
863.452	0.0162103
863.530	0.0162057
863.608	0.0162237
863.686	0.0161687
863.765	0.0161098
863.843	0.0161608
863.921	0.0162004
863.999	0.0162817
864.077	0.0162108
864.155	0.0162547
864.233	0.0162801
864.311	0.0162896
864.390	0.0162518
864.468	0.0162597
864.546	0.0162927
864.624	0.0164984
864.702	0.0165017
864.780	0.0163984
864.858	0.0162809
864.936	0.0165300
865.015	0.0165060
865.093	0.0163486
865.171	0.0162556
865.249	0.0163456
865.327	0.0163892
865.405	0.0163870
865.483	0.0163731
865.561	0.0160992
865.640	0.0162151
865.718	0.0163412
865.796	0.0161875
865.874	0.0163019
865.952	0.0162461
866.030	0.0160842
866.108	0.0161860
866.186	0.0162239
866.265	0.0161941
866.343	0.0161220
866.421	0.0162032
866.499	0.0160789
866.577	0.0160914
866.655	0.0161253
866.733	0.0161285
866.811	0.0160654
866.890	0.0159836
866.968	0.0160416
867.046	0.0159725
867.124	0.0160098
867.202	0.0160369
867.280	0.0161129
867.358	0.0161344
867.436	0.0160890
867.515	0.0164024
867.593	0.0161520
867.671	0.0163348
867.749	0.0161250
867.827	0.0162313
867.905	0.0163503
867.983	0.0163354
868.061	0.0162737
868.140	0.0162846
868.218	0.0163010
868.296	0.0164472
868.374	0.0164491
868.452	0.0163655
868.530	0.0163270
868.608	0.0164551
868.686	0.0163943
868.765	0.0163506
868.843	0.0163271
868.921	0.0163219
868.999	0.0162711
869.077	0.0164089
869.155	0.0164124
869.233	0.0163604
869.311	0.0164165
869.390	0.0164040
869.468	0.0163081
869.546	0.0163406
869.624	0.0164159
869.702	0.0163473
869.780	0.0162295
869.858	0.0164642
869.936	0.0164365
870.015	0.0162532
870.093	0.0162856
870.171	0.0162722
870.249	0.0162635
870.327	0.0163061
870.405	0.0163815
870.483	0.0162240
870.561	0.0162482
870.640	0.0163721
870.718	0.0163268
870.796	0.0161668
870.874	0.0162125
870.952	0.0162029
871.030	0.0163308
871.108	0.0163062
871.186	0.0162032
871.265	0.0163741
871.343	0.0162182
871.421	0.0160513
871.499	0.0163950
871.577	0.0161266
871.655	0.0162494
871.733	0.0161903
871.811	0.0162159
871.890	0.0162624
871.968	0.0162072
872.046	0.0162733
872.124	0.0161248
872.202	0.0162257
872.280	0.0163530
872.358	0.0163315
872.436	0.0163358
872.515	0.0163573
872.593	0.0162049
872.671	0.0163800
872.749	0.0163456
872.827	0.0162632
872.905	0.0164265
872.983	0.0163862
873.061	0.0164580
873.140	0.0164330
873.218	0.0164321
873.296	0.0164730
873.374	0.0163819
873.452	0.0163940
873.530	0.0166018
873.608	0.0163521
873.686	0.0164718
873.765	0.0164233
873.843	0.0165057
873.921	0.0164868
873.999	0.0164223
874.077	0.0164066
874.155	0.0163721
874.233	0.0163957
874.311	0.0163977
874.390	0.0163239
874.468	0.0163625
874.546	0.0164399
874.624	0.0164415
874.702	0.0162974
874.780	0.0163482
874.858	0.0162749
874.936	0.0162874
875.015	0.0164884
875.093	0.0161841
875.171	0.0162099
875.249	0.0162265
875.327	0.0163159
875.405	0.0162122
875.483	0.0161476
875.561	0.0163778
875.640	0.0162744
875.718	0.0162260
875.796	0.0162799
875.874	0.0163502
875.952	0.0163642
876.030	0.0164011
876.108	0.0162959
876.186	0.0163609
876.265	0.0162897
876.343	0.0162883
876.421	0.0161890
876.499	0.0164207
876.577	0.0164074
876.655	0.0164730
876.733	0.0164102
876.811	0.0163955
876.890	0.0163741
876.968	0.0164671
877.046	0.0163563
877.124	0.0164531
877.202	0.0164220
877.280	0.0163657
877.358	0.0163178
877.436	0.0163660
877.515	0.0164382
877.593	0.0162994
877.671	0.0163710
877.749	0.0162659
877.827	0.0162440
877.905	0.0163414
877.983	0.0161932
878.061	0.0162913
878.140	0.0163278
878.218	0.0162208
878.296	0.0163534
878.374	0.0163015
878.452	0.0162052
878.530	0.0163043
878.608	0.0161808
878.686	0.0163121
878.765	0.0163279
878.843	0.0162486
878.921	0.0162230
878.999	0.0161559
879.077	0.0162833
879.155	0.0161720
879.233	0.0162598
879.311	0.0162551
879.390	0.0161028
879.468	0.0161839
879.546	0.0161987
879.624	0.0159736
879.702	0.0160619
879.780	0.0162599
879.858	0.0161605
879.936	0.0161808
880.015	0.0161235
880.093	0.0162435
880.171	0.0162225
880.249	0.0163336
880.327	0.0161183
880.405	0.0161902
880.483	0.0162447
880.561	0.0163046
880.640	0.0162449
880.718	0.0163849
880.796	0.0163433
880.874	0.0163177
880.952	0.0163370
881.030	0.0164609
881.108	0.0164004
881.186	0.0163345
881.265	0.0165242
881.343	0.0164229
881.421	0.0166097
881.499	0.0163552
881.577	0.0164745
881.655	0.0164941
881.733	0.0164761
881.811	0.0163943
881.890	0.0164565
881.968	0.0164795
882.046	0.0163772
882.124	0.0165714
882.202	0.0165095
882.280	0.0163824
882.358	0.0164182
882.436	0.0162283
882.515	0.0164521
882.593	0.0164409
882.671	0.0162716
882.749	0.0163319
882.827	0.0163483
882.905	0.0162778
882.983	0.0163229
883.061	0.0163136
883.140	0.0161926
883.218	0.0163016
883.296	0.0162264
883.374	0.0161526
883.452	0.0160561
883.530	0.0161249
883.608	0.0162978
883.686	0.0162214
883.765	0.0160884
883.843	0.0161622
883.921	0.0160500
883.999	0.0160009
884.077	0.0161460
884.155	0.0161308
884.233	0.0161387
884.311	0.0161045
884.390	0.0161256
884.468	0.0161422
884.546	0.0160175
884.624	0.0161572
884.702	0.0160714
884.780	0.0160780
884.858	0.0161828
884.936	0.0162374
885.015	0.0161747
885.093	0.0163131
885.171	0.0162039
885.249	0.0162461
885.327	0.0162349
885.405	0.0163329
885.483	0.0163155
885.561	0.0163293
885.640	0.0163104
885.718	0.0163032
885.796	0.0163337
885.874	0.0163177
885.952	0.0163619
886.030	0.0163641
886.108	0.0164250
886.186	0.0163136
886.265	0.0163330
886.343	0.0163174
886.421	0.0163725
886.499	0.0164278
886.577	0.0165026
886.655	0.0162393
886.733	0.0161956
886.811	0.0164655
886.890	0.0164568
886.968	0.0163101
887.046	0.0163003
887.124	0.0162720
887.202	0.0162982
887.280	0.0162293
887.358	0.0163301
887.436	0.0163507
887.515	0.0163245
887.593	0.0161962
887.671	0.0162507
887.749	0.0162091
887.827	0.0162029
887.905	0.0161121
887.983	0.0162917
888.061	0.0163176
888.140	0.0161848
888.218	0.0159851
888.296	0.0161634
888.374	0.0163630
888.452	0.0164209
888.530	0.0161507
888.608	0.0160690
888.686	0.0161617
888.765	0.0162365
888.843	0.0160962
888.921	0.0162070
888.999	0.0162413
889.077	0.0161146
889.155	0.0161688
889.233	0.0160342
889.311	0.0160730
889.390	0.0161472
889.468	0.0161647
889.546	0.0162644
889.624	0.0160705
889.702	0.0160759
889.780	0.0162594
889.858	0.0161256
889.936	0.0160655
890.015	0.0161463
890.093	0.0162794
890.171	0.0162547
890.249	0.0161598
890.327	0.0163551
890.405	0.0162267
890.483	0.0161716
890.561	0.0162518
890.640	0.0163059
890.718	0.0162000
890.796	0.0161933
890.874	0.0162975
890.952	0.0165072
891.030	0.0163570
891.108	0.0163663
891.186	0.0164713
891.265	0.0164300
891.343	0.0164001
891.421	0.0165414
891.499	0.0163683
891.577	0.0165430
891.655	0.0164479
891.733	0.0162985
891.811	0.0165327
891.890	0.0163253
891.968	0.0163781
892.046	0.0163573
892.124	0.0163078
892.202	0.0164902
892.280	0.0164987
892.358	0.0162728
892.436	0.0163702
892.515	0.0163700
892.593	0.0162315
892.671	0.0162940
892.749	0.0163100
892.827	0.0163196
892.905	0.0161732
892.983	0.0162709
893.061	0.0161861
893.140	0.0161346
893.218	0.0162016
893.296	0.0162111
893.374	0.0161224
893.452	0.0161658
893.530	0.0162453
893.608	0.0162169
893.686	0.0161588
893.765	0.0161012
893.843	0.0161517
893.921	0.0161871
893.999	0.0162150
894.077	0.0161552
894.155	0.0163127
894.233	0.0162126
894.311	0.0162105
894.390	0.0162586
894.468	0.0161937
894.546	0.0163280
894.624	0.0163226
894.702	0.0164482
894.780	0.0164209
894.858	0.0164497
894.936	0.0164013
895.015	0.0164652
895.093	0.0165187
895.171	0.0164364
895.249	0.0164853
895.327	0.0165888
895.405	0.0164858
895.483	0.0165642
895.561	0.0163731
895.640	0.0164422
895.718	0.0163972
895.796	0.0164225
895.874	0.0164713
895.952	0.0164300
896.030	0.0164474
896.108	0.0163083
896.186	0.0164228
896.265	0.0165519
896.343	0.0164774
896.421	0.0163870
896.499	0.0165302
896.577	0.0163593
896.655	0.0163660
896.733	0.0164038
896.811	0.0162949
896.890	0.0163724
896.968	0.0164177
897.046	0.0163274
897.124	0.0162505
897.202	0.0163512
897.280	0.0164860
897.358	0.0163884
897.436	0.0164775
897.515	0.0164352
897.593	0.0164201
897.671	0.0164070
897.749	0.0164404
897.827	0.0164008
897.905	0.0163673
897.983	0.0164248
898.061	0.0164764
898.140	0.0164091
898.218	0.0164915
898.296	0.0163052
898.374	0.0164777
898.452	0.0164301
898.530	0.0164529
898.608	0.0165425
898.686	0.0165585
898.765	0.0164185
898.843	0.0163621
898.921	0.0163841
898.999	0.0165425
899.077	0.0164519
899.155	0.0163572
899.233	0.0164523
899.311	0.0164436
899.390	0.0163834
899.468	0.0164485
899.546	0.0164714
899.624	0.0163590
899.702	0.0162540
899.780	0.0163570
899.858	0.0165536
899.936	0.0164206
