05/24/2022	20:52:47	Ver.	4.1	UNKNOWN
Optical Delay	580.014591	Delta X		0.078125	Sweeps	1	Scan Rate	0/0
Coordinates	Axis 1	NaN	Axis 2	NaN	Axis 3	NaN	Axis 4	NaN	Axis 5	NaN	Axis 6	0.000000
TX Power	0.000000	RX Power	0.000000

580.015	0.0167584
580.093	0.0169653
580.171	0.0166674
580.249	0.0167270
580.327	0.0167390
580.405	0.0167825
580.483	0.0168390
580.561	0.0167812
580.640	0.0167030
580.718	0.0167688
580.796	0.0168741
580.874	0.0167239
580.952	0.0168533
581.030	0.0168182
581.108	0.0167875
581.186	0.0166714
581.265	0.0167949
581.343	0.0168223
581.421	0.0167762
581.499	0.0169372
581.577	0.0169057
581.655	0.0168002
581.733	0.0167932
581.811	0.0168916
581.890	0.0167494
581.968	0.0168703
582.046	0.0169186
582.124	0.0169385
582.202	0.0168404
582.280	0.0167683
582.358	0.0166629
582.436	0.0169362
582.515	0.0167370
582.593	0.0166815
582.671	0.0170130
582.749	0.0168015
582.827	0.0167746
582.905	0.0168505
582.983	0.0167060
583.061	0.0167561
583.140	0.0166685
583.218	0.0166610
583.296	0.0165552
583.374	0.0165894
583.452	0.0167023
583.530	0.0166294
583.608	0.0166174
583.686	0.0167078
583.765	0.0167184
583.843	0.0168102
583.921	0.0166483
583.999	0.0166385
584.077	0.0167387
584.155	0.0167860
584.233	0.0168418
584.311	0.0168282
584.390	0.0168302
584.468	0.0168949
584.546	0.0168004
584.624	0.0168326
584.702	0.0169497
584.780	0.0168323
584.858	0.0169197
584.936	0.0169627
585.015	0.0168024
585.093	0.0168304
585.171	0.0167487
585.249	0.0169035
585.327	0.0168660
585.405	0.0167324
585.483	0.0167374
585.561	0.0167040
585.640	0.0167515
585.718	0.0167245
585.796	0.0168250
585.874	0.0166959
585.952	0.0167923
586.030	0.0166354
586.108	0.0167597
586.186	0.0168034
586.265	0.0169568
586.343	0.0167809
586.421	0.0168319
586.499	0.0167267
586.577	0.0168644
586.655	0.0168185
586.733	0.0168743
586.811	0.0168483
586.890	0.0169092
586.968	0.0168682
587.046	0.0170087
587.124	0.0169900
587.202	0.0169096
587.280	0.0169794
587.358	0.0168477
587.436	0.0168954
587.515	0.0169924
587.593	0.0168858
587.671	0.0169727
587.749	0.0169456
587.827	0.0168335
587.905	0.0168713
587.983	0.0169699
588.061	0.0168758
588.140	0.0169122
588.218	0.0171089
588.296	0.0169733
588.374	0.0170029
588.452	0.0169186
588.530	0.0169964
588.608	0.0170756
588.686	0.0170199
588.765	0.0170294
588.843	0.0171363
588.921	0.0169855
588.999	0.0170615
589.077	0.0170239
589.155	0.0171635
589.233	0.0170705
589.311	0.0169650
589.390	0.0170387
589.468	0.0169365
589.546	0.0170599
589.624	0.0171033
589.702	0.0170323
589.780	0.0168856
589.858	0.0168841
589.936	0.0169864
590.015	0.0168251
590.093	0.0170083
590.171	0.0168971
590.249	0.0168343
590.327	0.0168381
590.405	0.0167986
590.483	0.0166957
590.561	0.0167925
590.640	0.0168320
590.718	0.0167158
590.796	0.0168360
590.874	0.0166528
590.952	0.0168264
591.030	0.0168768
591.108	0.0167738
591.186	0.0167700
591.265	0.0167715
591.343	0.0167760
591.421	0.0169616
591.499	0.0169163
591.577	0.0168734
591.655	0.0168656
591.733	0.0169462
591.811	0.0168745
591.890	0.0169539
591.968	0.0170672
592.046	0.0169901
592.124	0.0169161
592.202	0.0168707
592.280	0.0169058
592.358	0.0169624
592.436	0.0167821
592.515	0.0167315
592.593	0.0168268
592.671	0.0167393
592.749	0.0167860
592.827	0.0166167
592.905	0.0164956
592.983	0.0166550
593.061	0.0165746
593.140	0.0166448
593.218	0.0165238
593.296	0.0164657
593.374	0.0165659
593.452	0.0165411
593.530	0.0164394
593.608	0.0164487
593.686	0.0166290
593.765	0.0165377
593.843	0.0165296
593.921	0.0166059
593.999	0.0165665
594.077	0.0165833
594.155	0.0164514
594.233	0.0166726
594.311	0.0167397
594.390	0.0167731
594.468	0.0166937
594.546	0.0167155
594.624	0.0165647
594.702	0.0167188
594.780	0.0167579
594.858	0.0167574
594.936	0.0167592
595.015	0.0166213
595.093	0.0167329
595.171	0.0167131
595.249	0.0167344
595.327	0.0167926
595.405	0.0167326
595.483	0.0166566
595.561	0.0167282
595.640	0.0167405
595.718	0.0166007
595.796	0.0166261
595.874	0.0168479
595.952	0.0167924
596.030	0.0167767
596.108	0.0167809
596.186	0.0167918
596.265	0.0168855
596.343	0.0168645
596.421	0.0169880
596.499	0.0168880
596.577	0.0170356
596.655	0.0170741
596.733	0.0169267
596.811	0.0169904
596.890	0.0170674
596.968	0.0169282
597.046	0.0169276
597.124	0.0169896
597.202	0.0169012
597.280	0.0168866
597.358	0.0168850
597.436	0.0168685
597.515	0.0168929
597.593	0.0168502
597.671	0.0166725
597.749	0.0167997
597.827	0.0167632
597.905	0.0167277
597.983	0.0167157
598.061	0.0166691
598.140	0.0166857
598.218	0.0167315
598.296	0.0168002
598.374	0.0168140
598.452	0.0167203
598.530	0.0167859
598.608	0.0167919
598.686	0.0168366
598.765	0.0168448
598.843	0.0168546
598.921	0.0169958
598.999	0.0168353
599.077	0.0168507
599.155	0.0168111
599.233	0.0167845
599.311	0.0167387
599.390	0.0168817
599.468	0.0167913
599.546	0.0168226
599.624	0.0169111
599.702	0.0168244
599.780	0.0167803
599.858	0.0168386
599.936	0.0167568
600.015	0.0167578
600.093	0.0166154
600.171	0.0166357
600.249	0.0166021
600.327	0.0167089
600.405	0.0165825
600.483	0.0165895
600.561	0.0166312
600.640	0.0166979
600.718	0.0165573
600.796	0.0168878
600.874	0.0167107
600.952	0.0167812
601.030	0.0170121
601.108	0.0169131
601.186	0.0170164
601.265	0.0170399
601.343	0.0170358
601.421	0.0169836
601.499	0.0169307
601.577	0.0170026
601.655	0.0171040
601.733	0.0172043
601.811	0.0170666
601.890	0.0170049
601.968	0.0169839
602.046	0.0168884
602.124	0.0169481
602.202	0.0167634
602.280	0.0167980
602.358	0.0167455
602.436	0.0168114
602.515	0.0166883
602.593	0.0166988
602.671	0.0165621
602.749	0.0165732
602.827	0.0166349
602.905	0.0164902
602.983	0.0165747
603.061	0.0166917
603.140	0.0166711
603.218	0.0167773
603.296	0.0165894
603.374	0.0166088
603.452	0.0167105
603.530	0.0167397
603.608	0.0168302
603.686	0.0167905
603.765	0.0169097
603.843	0.0169701
603.921	0.0169570
603.999	0.0169709
604.077	0.0170341
604.155	0.0171065
604.233	0.0171069
604.311	0.0169921
604.390	0.0168633
604.468	0.0169212
604.546	0.0169007
604.624	0.0169975
604.702	0.0168948
604.780	0.0168206
604.858	0.0167119
604.936	0.0168062
605.015	0.0167101
605.093	0.0167318
605.171	0.0167619
605.249	0.0166454
605.327	0.0167214
605.405	0.0168101
605.483	0.0166846
605.561	0.0167883
605.640	0.0168703
605.718	0.0167921
605.796	0.0168670
605.874	0.0169959
605.952	0.0168537
606.030	0.0168685
606.108	0.0170156
606.186	0.0170111
606.265	0.0169460
606.343	0.0168729
606.421	0.0168874
606.499	0.0167258
606.577	0.0166563
606.655	0.0167690
606.733	0.0167301
606.811	0.0166405
606.890	0.0166959
606.968	0.0166952
607.046	0.0166949
607.124	0.0165824
607.202	0.0165962
607.280	0.0166022
607.358	0.0166529
607.436	0.0167294
607.515	0.0167814
607.593	0.0166888
607.671	0.0168148
607.749	0.0170311
607.827	0.0170137
607.905	0.0169984
607.983	0.0170519
608.061	0.0172806
608.140	0.0172364
608.218	0.0172237
608.296	0.0172877
608.374	0.0172495
608.452	0.0173005
608.530	0.0172794
608.608	0.0171566
608.686	0.0171466
608.765	0.0171615
608.843	0.0169444
608.921	0.0169768
608.999	0.0168323
609.077	0.0165841
609.155	0.0166364
609.233	0.0166382
609.311	0.0163958
609.390	0.0164024
609.468	0.0163902
609.546	0.0164527
609.624	0.0164576
609.702	0.0163696
609.780	0.0163012
609.858	0.0164948
609.936	0.0165752
610.015	0.0167747
610.093	0.0169151
610.171	0.0168953
610.249	0.0170814
610.327	0.0171742
610.405	0.0171273
610.483	0.0173804
610.561	0.0175011
610.640	0.0174181
610.718	0.0176057
610.796	0.0176118
610.874	0.0176746
610.952	0.0177191
611.030	0.0176704
611.108	0.0175480
611.186	0.0175328
611.265	0.0174838
611.343	0.0172832
611.421	0.0171183
611.499	0.0169149
611.577	0.0167180
611.655	0.0165999
611.733	0.0163889
611.811	0.0161215
611.890	0.0161073
611.968	0.0158460
612.046	0.0156258
612.124	0.0157047
612.202	0.0155209
612.280	0.0155325
612.358	0.0154504
612.436	0.0154140
612.515	0.0155108
612.593	0.0156000
612.671	0.0158081
612.749	0.0158719
612.827	0.0159898
612.905	0.0162215
612.983	0.0164169
613.061	0.0164769
613.140	0.0166621
613.218	0.0168407
613.296	0.0171294
613.374	0.0172318
613.452	0.0175420
613.530	0.0178172
613.608	0.0179134
613.686	0.0180376
613.765	0.0181892
613.843	0.0183502
613.921	0.0182771
613.999	0.0183247
614.077	0.0182487
614.155	0.0181993
614.233	0.0182217
614.311	0.0178433
614.390	0.0178958
614.468	0.0177065
614.546	0.0174908
614.624	0.0174776
614.702	0.0171505
614.780	0.0170184
614.858	0.0167785
614.936	0.0165308
615.015	0.0164294
615.093	0.0161296
615.171	0.0162137
615.249	0.0160644
615.327	0.0158476
615.405	0.0156529
615.483	0.0156001
615.561	0.0157101
615.640	0.0155971
615.718	0.0155979
615.796	0.0156694
615.874	0.0156852
615.952	0.0157421
616.030	0.0157721
616.108	0.0158825
616.186	0.0160988
616.265	0.0161658
616.343	0.0163967
616.421	0.0164574
616.499	0.0165878
616.577	0.0165576
616.655	0.0167464
616.733	0.0169117
616.811	0.0168060
616.890	0.0168787
616.968	0.0170201
617.046	0.0169962
617.124	0.0168923
617.202	0.0170129
617.280	0.0170081
617.358	0.0170781
617.436	0.0171804
617.515	0.0171394
617.593	0.0170543
617.671	0.0170731
617.749	0.0169576
617.827	0.0169344
617.905	0.0169583
617.983	0.0169655
618.061	0.0167779
618.140	0.0169490
618.218	0.0170890
618.296	0.0169907
618.374	0.0171806
618.452	0.0171978
618.530	0.0173547
618.608	0.0174109
618.686	0.0175517
618.765	0.0176013
618.843	0.0176172
618.921	0.0177236
618.999	0.0179525
619.077	0.0178741
619.155	0.0178069
619.233	0.0177509
619.311	0.0177375
619.390	0.0178279
619.468	0.0175320
619.546	0.0174043
619.624	0.0173065
619.702	0.0169371
619.780	0.0167865
619.858	0.0166055
619.936	0.0163663
620.015	0.0160703
620.093	0.0158954
620.171	0.0155064
620.249	0.0153049
620.327	0.0151714
620.405	0.0149394
620.483	0.0148561
620.561	0.0146903
620.640	0.0146458
620.718	0.0146135
620.796	0.0146335
620.874	0.0146465
620.952	0.0149967
621.030	0.0150706
621.108	0.0152286
621.186	0.0154951
621.265	0.0154766
621.343	0.0158949
621.421	0.0161246
621.499	0.0162415
621.577	0.0165484
621.655	0.0167507
621.733	0.0171201
621.811	0.0172646
621.890	0.0172929
621.968	0.0175324
622.046	0.0174923
622.124	0.0176803
622.202	0.0177575
622.280	0.0178451
622.358	0.0178725
622.436	0.0181075
622.515	0.0180138
622.593	0.0178398
622.671	0.0180124
622.749	0.0181797
622.827	0.0181471
622.905	0.0179787
622.983	0.0179470
623.061	0.0179964
623.140	0.0180254
623.218	0.0180324
623.296	0.0179684
623.374	0.0178930
623.452	0.0178233
623.530	0.0180048
623.608	0.0179443
623.686	0.0178812
623.765	0.0178057
623.843	0.0176523
623.921	0.0174928
623.999	0.0173529
624.077	0.0171486
624.155	0.0169436
624.233	0.0168317
624.311	0.0166995
624.390	0.0164790
624.468	0.0161696
624.546	0.0161839
624.624	0.0158757
624.702	0.0155795
624.780	0.0154675
624.858	0.0154797
624.936	0.0153175
625.015	0.0150852
625.093	0.0148845
625.171	0.0148425
625.249	0.0148007
625.327	0.0147189
625.405	0.0146304
625.483	0.0145548
625.561	0.0147960
625.640	0.0147664
625.718	0.0148887
625.796	0.0148815
625.874	0.0150117
625.952	0.0152837
626.030	0.0155292
626.108	0.0159160
626.186	0.0160686
626.265	0.0161903
626.343	0.0164220
626.421	0.0169647
626.499	0.0171435
626.577	0.0171915
626.655	0.0176274
626.733	0.0179266
626.811	0.0181917
626.890	0.0182198
626.968	0.0184400
627.046	0.0187339
627.124	0.0187727
627.202	0.0188284
627.280	0.0188541
627.358	0.0189590
627.436	0.0189232
627.515	0.0189054
627.593	0.0188121
627.671	0.0187724
627.749	0.0187271
627.827	0.0187229
627.905	0.0184470
627.983	0.0182922
628.061	0.0183949
628.140	0.0182480
628.218	0.0181778
628.296	0.0179261
628.374	0.0179745
628.452	0.0178899
628.530	0.0176648
628.608	0.0174773
628.686	0.0173798
628.765	0.0171839
628.843	0.0170271
628.921	0.0168517
628.999	0.0163587
629.077	0.0162709
629.155	0.0160203
629.233	0.0157822
629.311	0.0155148
629.390	0.0153243
629.468	0.0151283
629.546	0.0149188
629.624	0.0147545
629.702	0.0146250
629.780	0.0144935
629.858	0.0145522
629.936	0.0144772
630.015	0.0143810
630.093	0.0143808
630.171	0.0146152
630.249	0.0145859
630.327	0.0145185
630.405	0.0148374
630.483	0.0151160
630.561	0.0151835
630.640	0.0153319
630.718	0.0159077
630.796	0.0159795
630.874	0.0162008
630.952	0.0165680
631.030	0.0168401
631.108	0.0171945
631.186	0.0173037
631.265	0.0176353
631.343	0.0180679
631.421	0.0181332
631.499	0.0185064
631.577	0.0183781
631.655	0.0185268
631.733	0.0188174
631.811	0.0188789
631.890	0.0189141
631.968	0.0187331
632.046	0.0187448
632.124	0.0186205
632.202	0.0186018
632.280	0.0186855
632.358	0.0183917
632.436	0.0181768
632.515	0.0180939
632.593	0.0180782
632.671	0.0177110
632.749	0.0174759
632.827	0.0173861
632.905	0.0171648
632.983	0.0171614
633.061	0.0168664
633.140	0.0165565
633.218	0.0164799
633.296	0.0164288
633.374	0.0162475
633.452	0.0161603
633.530	0.0160113
633.608	0.0160774
633.686	0.0160044
633.765	0.0159900
633.843	0.0159559
633.921	0.0158932
633.999	0.0158965
634.077	0.0160625
634.155	0.0160123
634.233	0.0161702
634.311	0.0164433
634.390	0.0164884
634.468	0.0166204
634.546	0.0167162
634.624	0.0169519
634.702	0.0169759
634.780	0.0170230
634.858	0.0171217
634.936	0.0170720
635.015	0.0172129
635.093	0.0172339
635.171	0.0170206
635.249	0.0169548
635.327	0.0168530
635.405	0.0169331
635.483	0.0168729
635.561	0.0168903
635.640	0.0167903
635.718	0.0166856
635.796	0.0167657
635.874	0.0167890
635.952	0.0166395
636.030	0.0166983
636.108	0.0168329
636.186	0.0166569
636.265	0.0165462
636.343	0.0165598
636.421	0.0164859
636.499	0.0164336
636.577	0.0162447
636.655	0.0161638
636.733	0.0160695
636.811	0.0159536
636.890	0.0159517
636.968	0.0160046
637.046	0.0158440
637.124	0.0158385
637.202	0.0158347
637.280	0.0158897
637.358	0.0159399
637.436	0.0158855
637.515	0.0160075
637.593	0.0160924
637.671	0.0159439
637.749	0.0160863
637.827	0.0162251
637.905	0.0165037
637.983	0.0166007
638.061	0.0166563
638.140	0.0166088
638.218	0.0170326
638.296	0.0172297
638.374	0.0173589
638.452	0.0175493
638.530	0.0176923
638.608	0.0179580
638.686	0.0181119
638.765	0.0182609
638.843	0.0184209
638.921	0.0184714
638.999	0.0185432
639.077	0.0185887
639.155	0.0186337
639.233	0.0186079
639.311	0.0185542
639.390	0.0184911
639.468	0.0183805
639.546	0.0183405
639.624	0.0183666
639.702	0.0182044
639.780	0.0181943
639.858	0.0179449
639.936	0.0178255
640.015	0.0178218
640.093	0.0174442
640.171	0.0172895
640.249	0.0170565
640.327	0.0168319
640.405	0.0165596
640.483	0.0164137
640.561	0.0162792
640.640	0.0161183
640.718	0.0157854
640.796	0.0155969
640.874	0.0154885
640.952	0.0153130
641.030	0.0151513
641.108	0.0150037
641.186	0.0148629
641.265	0.0147796
641.343	0.0146673
641.421	0.0146045
641.499	0.0146689
641.577	0.0147015
641.655	0.0146727
641.733	0.0146555
641.811	0.0148518
641.890	0.0148867
641.968	0.0150183
642.046	0.0153014
642.124	0.0154607
642.202	0.0156195
642.280	0.0161047
642.358	0.0161355
642.436	0.0164063
642.515	0.0166984
642.593	0.0167894
642.671	0.0168812
642.749	0.0171328
642.827	0.0172298
642.905	0.0174593
642.983	0.0174991
643.061	0.0175786
643.140	0.0177418
643.218	0.0178445
643.296	0.0178716
643.374	0.0180403
643.452	0.0179508
643.530	0.0180936
643.608	0.0180147
643.686	0.0180629
643.765	0.0181107
643.843	0.0179157
643.921	0.0179105
643.999	0.0177239
644.077	0.0176469
644.155	0.0175160
644.233	0.0174409
644.311	0.0172083
644.390	0.0169542
644.468	0.0170418
644.546	0.0167400
644.624	0.0167679
644.702	0.0166332
644.780	0.0164147
644.858	0.0165181
644.936	0.0165174
645.015	0.0164394
645.093	0.0164038
645.171	0.0163004
645.249	0.0164340
645.327	0.0163309
645.405	0.0163534
645.483	0.0163891
645.561	0.0162450
645.640	0.0163754
645.718	0.0163503
645.796	0.0165909
645.874	0.0166455
645.952	0.0167373
646.030	0.0169624
646.108	0.0168861
646.186	0.0169582
646.265	0.0172221
646.343	0.0173664
646.421	0.0174821
646.499	0.0173653
646.577	0.0175478
646.655	0.0175039
646.733	0.0176133
646.811	0.0175444
646.890	0.0174641
646.968	0.0172393
647.046	0.0173292
647.124	0.0169763
647.202	0.0168801
647.280	0.0167714
647.358	0.0166225
647.436	0.0163832
647.515	0.0161331
647.593	0.0158306
647.671	0.0154936
647.749	0.0155608
647.827	0.0153130
647.905	0.0150998
647.983	0.0149142
648.061	0.0148407
648.140	0.0146918
648.218	0.0146256
648.296	0.0145036
648.374	0.0145941
648.452	0.0146406
648.530	0.0147395
648.608	0.0148984
648.686	0.0149490
648.765	0.0150943
648.843	0.0154150
648.921	0.0154718
648.999	0.0157023
649.077	0.0160157
649.155	0.0163004
649.233	0.0163772
649.311	0.0166656
649.390	0.0170348
649.468	0.0171996
649.546	0.0174812
649.624	0.0176324
649.702	0.0178769
649.780	0.0179189
649.858	0.0180722
649.936	0.0184329
650.015	0.0184323
650.093	0.0186501
650.171	0.0187738
650.249	0.0188901
650.327	0.0189345
650.405	0.0189830
650.483	0.0192062
650.561	0.0191305
650.640	0.0192168
650.718	0.0192465
650.796	0.0191537
650.874	0.0190696
650.952	0.0189362
651.030	0.0187798
651.108	0.0186014
651.186	0.0181911
651.265	0.0180044
651.343	0.0178246
651.421	0.0174763
651.499	0.0172546
651.577	0.0169781
651.655	0.0166883
651.733	0.0164626
651.811	0.0161362
651.890	0.0160948
651.968	0.0159601
652.046	0.0158432
652.124	0.0155064
652.202	0.0155194
652.280	0.0154616
652.358	0.0153193
652.436	0.0152087
652.515	0.0152696
652.593	0.0153073
652.671	0.0152884
652.749	0.0152332
652.827	0.0152206
652.905	0.0152333
652.983	0.0153614
653.061	0.0153018
653.140	0.0154189
653.218	0.0154582
653.296	0.0154929
653.374	0.0155889
653.452	0.0156374
653.530	0.0157705
653.608	0.0159268
653.686	0.0161813
653.765	0.0163036
653.843	0.0163733
653.921	0.0166288
653.999	0.0169050
654.077	0.0171338
654.155	0.0172346
654.233	0.0175408
654.311	0.0177014
654.390	0.0179050
654.468	0.0179180
654.546	0.0180903
654.624	0.0181834
654.702	0.0181345
654.780	0.0181026
654.858	0.0181912
654.936	0.0182138
655.015	0.0180164
655.093	0.0179662
655.171	0.0179324
655.249	0.0176050
655.327	0.0174551
655.405	0.0172891
655.483	0.0171503
655.561	0.0168372
655.640	0.0164697
655.718	0.0162275
655.796	0.0161681
655.874	0.0157409
655.952	0.0156293
656.030	0.0154944
656.108	0.0155255
656.186	0.0154668
656.265	0.0156155
656.343	0.0157838
656.421	0.0157088
656.499	0.0158132
656.577	0.0159710
656.655	0.0161945
656.733	0.0164144
656.811	0.0164815
656.890	0.0167673
656.968	0.0168286
657.046	0.0169008
657.124	0.0171191
657.202	0.0173239
657.280	0.0173638
657.358	0.0175358
657.436	0.0177560
657.515	0.0177184
657.593	0.0178141
657.671	0.0178508
657.749	0.0179691
657.827	0.0179746
657.905	0.0179153
657.983	0.0179833
658.061	0.0179314
658.140	0.0178321
658.218	0.0176885
658.296	0.0175248
658.374	0.0173357
658.452	0.0171526
658.530	0.0171760
658.608	0.0169395
658.686	0.0169347
658.765	0.0166662
658.843	0.0164796
658.921	0.0162334
658.999	0.0160134
659.077	0.0157899
659.155	0.0158769
659.233	0.0158640
659.311	0.0155819
659.390	0.0156007
659.468	0.0156463
659.546	0.0155147
659.624	0.0156797
659.702	0.0156051
659.780	0.0157720
659.858	0.0157282
659.936	0.0159236
660.015	0.0160938
660.093	0.0161762
660.171	0.0162157
660.249	0.0164584
660.327	0.0165226
660.405	0.0164486
660.483	0.0164575
660.561	0.0165312
660.640	0.0166925
660.718	0.0166152
660.796	0.0168118
660.874	0.0166924
660.952	0.0167277
661.030	0.0167039
661.108	0.0166904
661.186	0.0167240
661.265	0.0167464
661.343	0.0166805
661.421	0.0166657
661.499	0.0166801
661.577	0.0167999
661.655	0.0167233
661.733	0.0168166
661.811	0.0167780
661.890	0.0167559
661.968	0.0168238
662.046	0.0170595
662.124	0.0171110
662.202	0.0172229
662.280	0.0172631
662.358	0.0173232
662.436	0.0174139
662.515	0.0175137
662.593	0.0176928
662.671	0.0176515
662.749	0.0177329
662.827	0.0178791
662.905	0.0179604
662.983	0.0178888
663.061	0.0178800
663.140	0.0178918
663.218	0.0178716
663.296	0.0178046
663.374	0.0177472
663.452	0.0177493
663.530	0.0176155
663.608	0.0175247
663.686	0.0173950
663.765	0.0172382
663.843	0.0171942
663.921	0.0171333
663.999	0.0169678
664.077	0.0168388
664.155	0.0166944
664.233	0.0165191
664.311	0.0165592
664.390	0.0163905
664.468	0.0162186
664.546	0.0160048
664.624	0.0160276
664.702	0.0158915
664.780	0.0158978
664.858	0.0158102
664.936	0.0158261
665.015	0.0157105
665.093	0.0158937
665.171	0.0158869
665.249	0.0157640
665.327	0.0158363
665.405	0.0159747
665.483	0.0159262
665.561	0.0160676
665.640	0.0160841
665.718	0.0162205
665.796	0.0162712
665.874	0.0164608
665.952	0.0165932
666.030	0.0164243
666.108	0.0165836
666.186	0.0167799
666.265	0.0167098
666.343	0.0167770
666.421	0.0168713
666.499	0.0168958
666.577	0.0168517
666.655	0.0170567
666.733	0.0170824
666.811	0.0170039
666.890	0.0169791
666.968	0.0170200
667.046	0.0170432
667.124	0.0170857
667.202	0.0171227
667.280	0.0170359
667.358	0.0170033
667.436	0.0171312
667.515	0.0170415
667.593	0.0171334
667.671	0.0171917
667.749	0.0172887
667.827	0.0172977
667.905	0.0173324
667.983	0.0172078
668.061	0.0171509
668.140	0.0172380
668.218	0.0171891
668.296	0.0169743
668.374	0.0169923
668.452	0.0167757
668.530	0.0167464
668.608	0.0167395
668.686	0.0165989
668.765	0.0164460
668.843	0.0162460
668.921	0.0161356
668.999	0.0162259
669.077	0.0162434
669.155	0.0162986
669.233	0.0163054
669.311	0.0163795
669.390	0.0164407
669.468	0.0165837
669.546	0.0166614
669.624	0.0166909
669.702	0.0168517
669.780	0.0168871
669.858	0.0170641
669.936	0.0170036
670.015	0.0170771
670.093	0.0171278
670.171	0.0171926
670.249	0.0172401
670.327	0.0172255
670.405	0.0172826
670.483	0.0174675
670.561	0.0174356
670.640	0.0173991
670.718	0.0172723
670.796	0.0171853
670.874	0.0171625
670.952	0.0171977
671.030	0.0171922
671.108	0.0172189
671.186	0.0171203
671.265	0.0170018
671.343	0.0169904
671.421	0.0169244
671.499	0.0168676
671.577	0.0167881
671.655	0.0167309
671.733	0.0166830
671.811	0.0166734
671.890	0.0167857
671.968	0.0166744
672.046	0.0165871
672.124	0.0165671
672.202	0.0165942
672.280	0.0165413
672.358	0.0164964
672.436	0.0164669
672.515	0.0165712
672.593	0.0164742
672.671	0.0164288
672.749	0.0162663
672.827	0.0162186
672.905	0.0162250
672.983	0.0161402
673.061	0.0160742
673.140	0.0160240
673.218	0.0159517
673.296	0.0159403
673.374	0.0159676
673.452	0.0159389
673.530	0.0157955
673.608	0.0158741
673.686	0.0160904
673.765	0.0161768
673.843	0.0161665
673.921	0.0163377
673.999	0.0165307
674.077	0.0165987
674.155	0.0166740
674.233	0.0169889
674.311	0.0170541
674.390	0.0172034
674.468	0.0172344
674.546	0.0173462
674.624	0.0175900
674.702	0.0175558
674.780	0.0176701
674.858	0.0176036
674.936	0.0176774
675.015	0.0175637
675.093	0.0176201
675.171	0.0176100
675.249	0.0175401
675.327	0.0174308
675.405	0.0174082
675.483	0.0174277
675.561	0.0172716
675.640	0.0170792
675.718	0.0169363
675.796	0.0168549
675.874	0.0168830
675.952	0.0166042
676.030	0.0165765
676.108	0.0165670
676.186	0.0164178
676.265	0.0162952
676.343	0.0162655
676.421	0.0162537
676.499	0.0161106
676.577	0.0162070
676.655	0.0160873
676.733	0.0162384
676.811	0.0161082
676.890	0.0162460
676.968	0.0162163
677.046	0.0162768
677.124	0.0164023
677.202	0.0165388
677.280	0.0164316
677.358	0.0165861
677.436	0.0165958
677.515	0.0166553
677.593	0.0166330
677.671	0.0166995
677.749	0.0165513
677.827	0.0165835
677.905	0.0167443
677.983	0.0167523
678.061	0.0167248
678.140	0.0166520
678.218	0.0166239
678.296	0.0165784
678.374	0.0166419
678.452	0.0166982
678.530	0.0166360
678.608	0.0168724
678.686	0.0169862
678.765	0.0168945
678.843	0.0168817
678.921	0.0168239
678.999	0.0171261
679.077	0.0171768
679.155	0.0169221
679.233	0.0170041
679.311	0.0169874
679.390	0.0170280
679.468	0.0169273
679.546	0.0167352
679.624	0.0167668
679.702	0.0166850
679.780	0.0166358
679.858	0.0166321
679.936	0.0167086
680.015	0.0166305
680.093	0.0166661
680.171	0.0167374
680.249	0.0166974
680.327	0.0168089
680.405	0.0169086
680.483	0.0169736
680.561	0.0169550
680.640	0.0170809
680.718	0.0169841
680.796	0.0170715
680.874	0.0171175
680.952	0.0170600
681.030	0.0170857
681.108	0.0169698
681.186	0.0171520
681.265	0.0171236
681.343	0.0169939
681.421	0.0171740
681.499	0.0171374
681.577	0.0170779
681.655	0.0171725
681.733	0.0170581
681.811	0.0171093
681.890	0.0170577
681.968	0.0172147
682.046	0.0171756
682.124	0.0170805
682.202	0.0172314
682.280	0.0171391
682.358	0.0169328
682.436	0.0170637
682.515	0.0170929
682.593	0.0169016
682.671	0.0169618
682.749	0.0169556
682.827	0.0166373
682.905	0.0168602
682.983	0.0166726
683.061	0.0166006
683.140	0.0165663
683.218	0.0164095
683.296	0.0164999
683.374	0.0166631
683.452	0.0165186
683.530	0.0164729
683.608	0.0165083
683.686	0.0164558
683.765	0.0165739
683.843	0.0166177
683.921	0.0164962
683.999	0.0165768
684.077	0.0165016
684.155	0.0166981
684.233	0.0168214
684.311	0.0167249
684.390	0.0167651
684.468	0.0169176
684.546	0.0167359
684.624	0.0169186
684.702	0.0170266
684.780	0.0169857
684.858	0.0170596
684.936	0.0171249
685.015	0.0171490
685.093	0.0170374
685.171	0.0171539
685.249	0.0171665
685.327	0.0170923
685.405	0.0172333
685.483	0.0171852
685.561	0.0171501
685.640	0.0169611
685.718	0.0169100
685.796	0.0170087
685.874	0.0168616
685.952	0.0167249
686.030	0.0167625
686.108	0.0168020
686.186	0.0166898
686.265	0.0166872
686.343	0.0166890
686.421	0.0166044
686.499	0.0165833
686.577	0.0165739
686.655	0.0165251
686.733	0.0165909
686.811	0.0165340
686.890	0.0165529
686.968	0.0164816
687.046	0.0164842
687.124	0.0164574
687.202	0.0162650
687.280	0.0165107
687.358	0.0163986
687.436	0.0164787
687.515	0.0164771
687.593	0.0165199
687.671	0.0164152
687.749	0.0165131
687.827	0.0165953
687.905	0.0166627
687.983	0.0167317
688.061	0.0167969
688.140	0.0167397
688.218	0.0167571
688.296	0.0168839
688.374	0.0168991
688.452	0.0170675
688.530	0.0168404
688.608	0.0167850
688.686	0.0168593
688.765	0.0168716
688.843	0.0169211
688.921	0.0169090
688.999	0.0168589
689.077	0.0169061
689.155	0.0169186
689.233	0.0166542
689.311	0.0167207
689.390	0.0170866
689.468	0.0170155
689.546	0.0168941
689.624	0.0169267
689.702	0.0169778
689.780	0.0169489
689.858	0.0169356
689.936	0.0170109
690.015	0.0170071
690.093	0.0169186
690.171	0.0169423
690.249	0.0170657
690.327	0.0169324
690.405	0.0169895
690.483	0.0168163
690.561	0.0167925
690.640	0.0168223
690.718	0.0168318
690.796	0.0166359
690.874	0.0166601
690.952	0.0166223
691.030	0.0166137
691.108	0.0165694
691.186	0.0164654
691.265	0.0165062
691.343	0.0165218
691.421	0.0165813
691.499	0.0164909
691.577	0.0165194
691.655	0.0163892
691.733	0.0163577
691.811	0.0166393
691.890	0.0166365
691.968	0.0165512
692.046	0.0165087
692.124	0.0167352
692.202	0.0167404
692.280	0.0167513
692.358	0.0167090
692.436	0.0168296
692.515	0.0168214
692.593	0.0168475
692.671	0.0167947
692.749	0.0168536
692.827	0.0168349
692.905	0.0170064
692.983	0.0169593
693.061	0.0169772
693.140	0.0170099
693.218	0.0169208
693.296	0.0169366
693.374	0.0169524
693.452	0.0169280
693.530	0.0169049
693.608	0.0169854
693.686	0.0168990
693.765	0.0170125
693.843	0.0171201
693.921	0.0169566
693.999	0.0169331
694.077	0.0167384
694.155	0.0169627
694.233	0.0170326
694.311	0.0169115
694.390	0.0169196
694.468	0.0169400
694.546	0.0169499
694.624	0.0169605
694.702	0.0168410
694.780	0.0168668
694.858	0.0169072
694.936	0.0169240
695.015	0.0169370
695.093	0.0169942
695.171	0.0170669
695.249	0.0169215
695.327	0.0169321
695.405	0.0169381
695.483	0.0171301
695.561	0.0170037
695.640	0.0170930
695.718	0.0169713
695.796	0.0168772
695.874	0.0170309
695.952	0.0170779
696.030	0.0170629
696.108	0.0169479
696.186	0.0170552
696.265	0.0169996
696.343	0.0168360
696.421	0.0168056
696.499	0.0168784
696.577	0.0166022
696.655	0.0166383
696.733	0.0167450
696.811	0.0166848
696.890	0.0166352
696.968	0.0166148
697.046	0.0164735
697.124	0.0166267
697.202	0.0166406
697.280	0.0166428
697.358	0.0165234
697.436	0.0165191
697.515	0.0165361
697.593	0.0166213
697.671	0.0165611
697.749	0.0166763
697.827	0.0164545
697.905	0.0165681
697.983	0.0165363
698.061	0.0165287
698.140	0.0165034
698.218	0.0164526
698.296	0.0167772
698.374	0.0166759
698.452	0.0166423
698.530	0.0166364
698.608	0.0166629
698.686	0.0166651
698.765	0.0164071
698.843	0.0165107
698.921	0.0164816
698.999	0.0164636
699.077	0.0164192
699.155	0.0165084
699.233	0.0166136
699.311	0.0167136
699.390	0.0165619
699.468	0.0165197
699.546	0.0165023
699.624	0.0166486
699.702	0.0166969
699.780	0.0166801
699.858	0.0168291
699.936	0.0166725
700.015	0.0166936
700.093	0.0167192
700.171	0.0168548
700.249	0.0167723
700.327	0.0169200
700.405	0.0168380
700.483	0.0169239
700.561	0.0168359
700.640	0.0169299
700.718	0.0168447
700.796	0.0169732
700.874	0.0168661
700.952	0.0168932
701.030	0.0170628
701.108	0.0171507
701.186	0.0170442
701.265	0.0171621
701.343	0.0173701
701.421	0.0172359
701.499	0.0170895
701.577	0.0172145
701.655	0.0173446
701.733	0.0173524
701.811	0.0173864
701.890	0.0172116
701.968	0.0171014
702.046	0.0169868
702.124	0.0170207
702.202	0.0169604
702.280	0.0167683
702.358	0.0167065
702.436	0.0167480
702.515	0.0166500
702.593	0.0166199
702.671	0.0166057
702.749	0.0165865
702.827	0.0166161
702.905	0.0166383
702.983	0.0166858
703.061	0.0168566
703.140	0.0167467
703.218	0.0168813
703.296	0.0168831
703.374	0.0168367
703.452	0.0169750
703.530	0.0168877
703.608	0.0169873
703.686	0.0167776
703.765	0.0169803
703.843	0.0170251
703.921	0.0170531
703.999	0.0169120
704.077	0.0169051
704.155	0.0170030
704.233	0.0168372
704.311	0.0168752
704.390	0.0168450
704.468	0.0167535
704.546	0.0168131
704.624	0.0166835
704.702	0.0166369
704.780	0.0164817
704.858	0.0165853
704.936	0.0165277
705.015	0.0165404
705.093	0.0165350
705.171	0.0165081
705.249	0.0165269
705.327	0.0165175
705.405	0.0165880
705.483	0.0164684
705.561	0.0165194
705.640	0.0163969
705.718	0.0165682
705.796	0.0163967
705.874	0.0165403
705.952	0.0165942
706.030	0.0166491
706.108	0.0166901
706.186	0.0165822
706.265	0.0168163
706.343	0.0166968
706.421	0.0167094
706.499	0.0167618
706.577	0.0168003
706.655	0.0167628
706.733	0.0168253
706.811	0.0166627
706.890	0.0165936
706.968	0.0168758
707.046	0.0167770
707.124	0.0167779
707.202	0.0167247
707.280	0.0169189
707.358	0.0169326
707.436	0.0168640
707.515	0.0168271
707.593	0.0167977
707.671	0.0169569
707.749	0.0168293
707.827	0.0168205
707.905	0.0168532
707.983	0.0168799
708.061	0.0168219
708.140	0.0168064
708.218	0.0167683
708.296	0.0167583
708.374	0.0168052
708.452	0.0170102
708.530	0.0168264
708.608	0.0168366
708.686	0.0168530
708.765	0.0168045
708.843	0.0167448
708.921	0.0166925
708.999	0.0167790
709.077	0.0169125
709.155	0.0169425
709.233	0.0166279
709.311	0.0165982
709.390	0.0166424
709.468	0.0166840
709.546	0.0166658
709.624	0.0167146
709.702	0.0165793
709.780	0.0165572
709.858	0.0165373
709.936	0.0166352
710.015	0.0165460
710.093	0.0166662
710.171	0.0164927
710.249	0.0166168
710.327	0.0166663
710.405	0.0165811
710.483	0.0166954
710.561	0.0166512
710.640	0.0167154
710.718	0.0168548
710.796	0.0168057
710.874	0.0167999
710.952	0.0169750
711.030	0.0169167
711.108	0.0169847
711.186	0.0170559
711.265	0.0170960
711.343	0.0171452
711.421	0.0171635
711.499	0.0171774
711.577	0.0170612
711.655	0.0171174
711.733	0.0171229
711.811	0.0170155
711.890	0.0169152
711.968	0.0169596
712.046	0.0169228
712.124	0.0167369
712.202	0.0168705
712.280	0.0168382
712.358	0.0167793
712.436	0.0167892
712.515	0.0167410
712.593	0.0166499
712.671	0.0165395
712.749	0.0166234
712.827	0.0166025
712.905	0.0166276
712.983	0.0166977
713.061	0.0165943
713.140	0.0165823
713.218	0.0168271
713.296	0.0166804
713.374	0.0167683
713.452	0.0169254
713.530	0.0168385
713.608	0.0169179
713.686	0.0168887
713.765	0.0168398
713.843	0.0168879
713.921	0.0169193
713.999	0.0168762
714.077	0.0168156
714.155	0.0168814
714.233	0.0168313
714.311	0.0167599
714.390	0.0166795
714.468	0.0167296
714.546	0.0166649
714.624	0.0165914
714.702	0.0166607
714.780	0.0167096
714.858	0.0166088
714.936	0.0165243
715.015	0.0165080
715.093	0.0166004
715.171	0.0166766
715.249	0.0165836
715.327	0.0166794
715.405	0.0168982
715.483	0.0169069
715.561	0.0168906
715.640	0.0168806
715.718	0.0169552
715.796	0.0169632
715.874	0.0171040
715.952	0.0169868
716.030	0.0169440
716.108	0.0168424
716.186	0.0171386
716.265	0.0170609
716.343	0.0169501
716.421	0.0169772
716.499	0.0169892
716.577	0.0169541
716.655	0.0169116
716.733	0.0167906
716.811	0.0168822
716.890	0.0167339
716.968	0.0167553
717.046	0.0167162
717.124	0.0166094
717.202	0.0166667
717.280	0.0165634
717.358	0.0165011
717.436	0.0163913
717.515	0.0163740
717.593	0.0164844
717.671	0.0165811
717.749	0.0165337
717.827	0.0165993
717.905	0.0165822
717.983	0.0166996
718.061	0.0166543
718.140	0.0168640
718.218	0.0167662
718.296	0.0167440
718.374	0.0167649
718.452	0.0168806
718.530	0.0169296
718.608	0.0168787
718.686	0.0170007
718.765	0.0170009
718.843	0.0170374
718.921	0.0168314
718.999	0.0170422
719.077	0.0170876
719.155	0.0169096
719.233	0.0169438
719.311	0.0169776
719.390	0.0169637
719.468	0.0169618
719.546	0.0169489
719.624	0.0168211
719.702	0.0169827
719.780	0.0170593
719.858	0.0167235
719.936	0.0168399
720.015	0.0169043
720.093	0.0167001
720.171	0.0167957
720.249	0.0168371
720.327	0.0167397
720.405	0.0167564
720.483	0.0167962
720.561	0.0167669
720.640	0.0167171
720.718	0.0165967
720.796	0.0166199
720.874	0.0166481
720.952	0.0165943
721.030	0.0163714
721.108	0.0165009
721.186	0.0164579
721.265	0.0165282
721.343	0.0164631
721.421	0.0165585
721.499	0.0165063
721.577	0.0163599
721.655	0.0164643
721.733	0.0163989
721.811	0.0164268
721.890	0.0165152
721.968	0.0164191
722.046	0.0165444
722.124	0.0163777
722.202	0.0164422
722.280	0.0164168
722.358	0.0163449
722.436	0.0163457
722.515	0.0164255
722.593	0.0164252
722.671	0.0163940
722.749	0.0163010
722.827	0.0165491
722.905	0.0165615
722.983	0.0166036
723.061	0.0165772
723.140	0.0165395
723.218	0.0166626
723.296	0.0168883
723.374	0.0167999
723.452	0.0168779
723.530	0.0168572
723.608	0.0170609
723.686	0.0172134
723.765	0.0171226
723.843	0.0171481
723.921	0.0173058
723.999	0.0173814
724.077	0.0173743
724.155	0.0174225
724.233	0.0174074
724.311	0.0173402
724.390	0.0173997
724.468	0.0172386
724.546	0.0171692
724.624	0.0172107
724.702	0.0171606
724.780	0.0171433
724.858	0.0171179
724.936	0.0171127
725.015	0.0171841
725.093	0.0171111
725.171	0.0171288
725.249	0.0169284
725.327	0.0169485
725.405	0.0169122
725.483	0.0168678
725.561	0.0169084
725.640	0.0168150
725.718	0.0167329
725.796	0.0168268
725.874	0.0168243
725.952	0.0167859
726.030	0.0166947
726.108	0.0168883
726.186	0.0168530
726.265	0.0166553
726.343	0.0167226
726.421	0.0166026
726.499	0.0166166
726.577	0.0167550
726.655	0.0166431
726.733	0.0165840
726.811	0.0165810
726.890	0.0164503
726.968	0.0167062
727.046	0.0164592
727.124	0.0163808
727.202	0.0164824
727.280	0.0164484
727.358	0.0163706
727.436	0.0163508
727.515	0.0164545
727.593	0.0164105
727.671	0.0162893
727.749	0.0163727
727.827	0.0163785
727.905	0.0164432
727.983	0.0165003
728.061	0.0164693
728.140	0.0164921
728.218	0.0165241
728.296	0.0169286
728.374	0.0167826
728.452	0.0170763
728.530	0.0167883
728.608	0.0168298
728.686	0.0169201
728.765	0.0168980
728.843	0.0170026
728.921	0.0170049
728.999	0.0171093
729.077	0.0171088
729.155	0.0171280
729.233	0.0170066
729.311	0.0170446
729.390	0.0171239
729.468	0.0170997
729.546	0.0170817
729.624	0.0168884
729.702	0.0169379
729.780	0.0169014
729.858	0.0168844
729.936	0.0167506
730.015	0.0166647
730.093	0.0167587
730.171	0.0167098
730.249	0.0167874
730.327	0.0166891
730.405	0.0166797
730.483	0.0167315
730.561	0.0167422
730.640	0.0167657
730.718	0.0167036
730.796	0.0167814
730.874	0.0168680
730.952	0.0168681
731.030	0.0167805
731.108	0.0168889
731.186	0.0170738
731.265	0.0170184
731.343	0.0169821
731.421	0.0170615
731.499	0.0171349
731.577	0.0170586
731.655	0.0170927
731.733	0.0170688
731.811	0.0170335
731.890	0.0172160
731.968	0.0170444
732.046	0.0170169
732.124	0.0170456
732.202	0.0169370
732.280	0.0168702
732.358	0.0170825
732.436	0.0168974
732.515	0.0168025
732.593	0.0166712
732.671	0.0167068
732.749	0.0166338
732.827	0.0165068
732.905	0.0165054
732.983	0.0164557
733.061	0.0163615
733.140	0.0164247
733.218	0.0164693
733.296	0.0164117
733.374	0.0162908
733.452	0.0163737
733.530	0.0164293
733.608	0.0164189
733.686	0.0163525
733.765	0.0164357
733.843	0.0163918
733.921	0.0166243
733.999	0.0167056
734.077	0.0166692
734.155	0.0167256
734.233	0.0168131
734.311	0.0169250
734.390	0.0167816
734.468	0.0167592
734.546	0.0169101
734.624	0.0168482
734.702	0.0168449
734.780	0.0169633
734.858	0.0169479
734.936	0.0169070
735.015	0.0169172
735.093	0.0169133
735.171	0.0170428
735.249	0.0170226
735.327	0.0168850
735.405	0.0169563
735.483	0.0169689
735.561	0.0170035
735.640	0.0170014
735.718	0.0169325
735.796	0.0169736
735.874	0.0168656
735.952	0.0169145
736.030	0.0169634
736.108	0.0169294
736.186	0.0170004
736.265	0.0169503
736.343	0.0169115
736.421	0.0169155
736.499	0.0169395
736.577	0.0168955
736.655	0.0168770
736.733	0.0169371
736.811	0.0168855
736.890	0.0168179
736.968	0.0168756
737.046	0.0168912
737.124	0.0167870
737.202	0.0167741
737.280	0.0167712
737.358	0.0166938
737.436	0.0166776
737.515	0.0166888
737.593	0.0167797
737.671	0.0165904
737.749	0.0166250
737.827	0.0165238
737.905	0.0165456
737.983	0.0165053
738.061	0.0167139
738.140	0.0166142
738.218	0.0166036
738.296	0.0167793
738.374	0.0164944
738.452	0.0165533
738.530	0.0166681
738.608	0.0166992
738.686	0.0166315
738.765	0.0165770
738.843	0.0166300
738.921	0.0166965
738.999	0.0168545
739.077	0.0167894
739.155	0.0168140
739.233	0.0168925
739.311	0.0170281
739.390	0.0169291
739.468	0.0168618
739.546	0.0170399
739.624	0.0169247
739.702	0.0169180
739.780	0.0170914
739.858	0.0170995
739.936	0.0169178
740.015	0.0169814
740.093	0.0171342
740.171	0.0169840
740.249	0.0169440
740.327	0.0170074
740.405	0.0169906
740.483	0.0168790
740.561	0.0167927
740.640	0.0167145
740.718	0.0167949
740.796	0.0169764
740.874	0.0168082
740.952	0.0166875
741.030	0.0166792
741.108	0.0165981
741.186	0.0165390
741.265	0.0165469
741.343	0.0165472
741.421	0.0165258
741.499	0.0167255
741.577	0.0164890
741.655	0.0164220
741.733	0.0165630
741.811	0.0165731
741.890	0.0166514
741.968	0.0165437
742.046	0.0164577
742.124	0.0166137
742.202	0.0166181
742.280	0.0166355
742.358	0.0167196
742.436	0.0167215
742.515	0.0168087
742.593	0.0166872
742.671	0.0166447
742.749	0.0168267
742.827	0.0166898
742.905	0.0166212
742.983	0.0167762
743.061	0.0167563
743.140	0.0167553
743.218	0.0168938
743.296	0.0168066
743.374	0.0167059
743.452	0.0167064
743.530	0.0168166
743.608	0.0168426
743.686	0.0167614
743.765	0.0167557
743.843	0.0166721
743.921	0.0167153
743.999	0.0166627
744.077	0.0166717
744.155	0.0166679
744.233	0.0167229
744.311	0.0167227
744.390	0.0167566
744.468	0.0167091
744.546	0.0167630
744.624	0.0167010
744.702	0.0166019
744.780	0.0167407
744.858	0.0165055
744.936	0.0165596
745.015	0.0166441
745.093	0.0165536
745.171	0.0164629
745.249	0.0165378
745.327	0.0165556
745.405	0.0165289
745.483	0.0165546
745.561	0.0164112
745.640	0.0165673
745.718	0.0164568
745.796	0.0165663
745.874	0.0165442
745.952	0.0165104
746.030	0.0165521
746.108	0.0166064
746.186	0.0166783
746.265	0.0166689
746.343	0.0167541
746.421	0.0167727
746.499	0.0169492
746.577	0.0169359
746.655	0.0170445
746.733	0.0171311
746.811	0.0172188
746.890	0.0173799
746.968	0.0174220
747.046	0.0174104
747.124	0.0174713
747.202	0.0173888
747.280	0.0173402
747.358	0.0173284
747.436	0.0172856
747.515	0.0173994
747.593	0.0172012
747.671	0.0170757
747.749	0.0172065
747.827	0.0172784
747.905	0.0171494
747.983	0.0170646
748.061	0.0168020
748.140	0.0170357
748.218	0.0168991
748.296	0.0167867
748.374	0.0166501
748.452	0.0166485
748.530	0.0167190
748.608	0.0166936
748.686	0.0165761
748.765	0.0166518
748.843	0.0165955
748.921	0.0165562
748.999	0.0165772
749.077	0.0164391
749.155	0.0165221
749.233	0.0165704
749.311	0.0164746
749.390	0.0163493
749.468	0.0165273
749.546	0.0166095
749.624	0.0165779
749.702	0.0165120
749.780	0.0165067
749.858	0.0166964
749.936	0.0166396
750.015	0.0165205
750.093	0.0166967
750.171	0.0167709
750.249	0.0167164
750.327	0.0167764
750.405	0.0167315
750.483	0.0166986
750.561	0.0167272
750.640	0.0167645
750.718	0.0167375
750.796	0.0168886
750.874	0.0168021
750.952	0.0167482
751.030	0.0169183
751.108	0.0169405
751.186	0.0169614
751.265	0.0170292
751.343	0.0170187
751.421	0.0170477
751.499	0.0170666
751.577	0.0170739
751.655	0.0170419
751.733	0.0170401
751.811	0.0172461
751.890	0.0171265
751.968	0.0170503
752.046	0.0168741
752.124	0.0170448
752.202	0.0169736
752.280	0.0169682
752.358	0.0168613
752.436	0.0169751
752.515	0.0168790
752.593	0.0166873
752.671	0.0167908
752.749	0.0166624
752.827	0.0167980
752.905	0.0168440
752.983	0.0167044
753.061	0.0167679
753.140	0.0166356
753.218	0.0166962
753.296	0.0167863
753.374	0.0166811
753.452	0.0167353
753.530	0.0169247
753.608	0.0168398
753.686	0.0167465
753.765	0.0168608
753.843	0.0168068
753.921	0.0168661
753.999	0.0168149
754.077	0.0167661
754.155	0.0169632
754.233	0.0168287
754.311	0.0167823
754.390	0.0167953
754.468	0.0169810
754.546	0.0167957
754.624	0.0167635
754.702	0.0168415
754.780	0.0168240
754.858	0.0167259
754.936	0.0167369
755.015	0.0168079
755.093	0.0167900
755.171	0.0167440
755.249	0.0165820
755.327	0.0166253
755.405	0.0165714
755.483	0.0166190
755.561	0.0165502
755.640	0.0165413
755.718	0.0166595
755.796	0.0165849
755.874	0.0164929
755.952	0.0165466
756.030	0.0166573
756.108	0.0165077
756.186	0.0165128
756.265	0.0165453
756.343	0.0165003
756.421	0.0164732
756.499	0.0166006
756.577	0.0166168
756.655	0.0166132
756.733	0.0165920
756.811	0.0166152
756.890	0.0165921
756.968	0.0165776
757.046	0.0168145
757.124	0.0167159
757.202	0.0167235
757.280	0.0167175
757.358	0.0167635
757.436	0.0167918
757.515	0.0166794
757.593	0.0166375
757.671	0.0168241
757.749	0.0167600
757.827	0.0167968
757.905	0.0167928
757.983	0.0167286
758.061	0.0168452
758.140	0.0168806
758.218	0.0168006
758.296	0.0168380
758.374	0.0168730
758.452	0.0167829
758.530	0.0168031
758.608	0.0168568
758.686	0.0168472
758.765	0.0167810
758.843	0.0168867
758.921	0.0168095
758.999	0.0169308
759.077	0.0169951
759.155	0.0168956
759.233	0.0167931
759.311	0.0168568
759.390	0.0168972
759.468	0.0169590
759.546	0.0168404
759.624	0.0167493
759.702	0.0169492
759.780	0.0168809
759.858	0.0168334
759.936	0.0168048
760.015	0.0168831
760.093	0.0168562
760.171	0.0167313
760.249	0.0166768
760.327	0.0166287
760.405	0.0168332
760.483	0.0168579
760.561	0.0166127
760.640	0.0166871
760.718	0.0167644
760.796	0.0167314
760.874	0.0166507
760.952	0.0167134
761.030	0.0166990
761.108	0.0167648
761.186	0.0166970
761.265	0.0167788
761.343	0.0167429
761.421	0.0167535
761.499	0.0166492
761.577	0.0166722
761.655	0.0166539
761.733	0.0167061
761.811	0.0167413
761.890	0.0166664
761.968	0.0167364
762.046	0.0166099
762.124	0.0166929
762.202	0.0166843
762.280	0.0167081
762.358	0.0166190
762.436	0.0165536
762.515	0.0166056
762.593	0.0165451
762.671	0.0165209
762.749	0.0165972
762.827	0.0167652
762.905	0.0165633
762.983	0.0166231
763.061	0.0166917
763.140	0.0165586
763.218	0.0166627
763.296	0.0166496
763.374	0.0165259
763.452	0.0166791
763.530	0.0165304
763.608	0.0167194
763.686	0.0167111
763.765	0.0166367
763.843	0.0166211
763.921	0.0167822
763.999	0.0166749
764.077	0.0167653
764.155	0.0168718
764.233	0.0167789
764.311	0.0169025
764.390	0.0168558
764.468	0.0168665
764.546	0.0169168
764.624	0.0169086
764.702	0.0169129
764.780	0.0169172
764.858	0.0167036
764.936	0.0168411
765.015	0.0167524
765.093	0.0168813
765.171	0.0169674
765.249	0.0167695
765.327	0.0167908
765.405	0.0167522
765.483	0.0168551
765.561	0.0168910
765.640	0.0168953
765.718	0.0168990
765.796	0.0169601
765.874	0.0168271
765.952	0.0169283
766.030	0.0168904
766.108	0.0168785
766.186	0.0169599
766.265	0.0168970
766.343	0.0168272
766.421	0.0167552
766.499	0.0168568
766.577	0.0168486
766.655	0.0168171
766.733	0.0168040
766.811	0.0165756
766.890	0.0169567
766.968	0.0167383
767.046	0.0167838
767.124	0.0168764
767.202	0.0168557
767.280	0.0168615
767.358	0.0169917
767.436	0.0168437
767.515	0.0167887
767.593	0.0166989
767.671	0.0167824
767.749	0.0167485
767.827	0.0167192
767.905	0.0167711
767.983	0.0168165
768.061	0.0167261
768.140	0.0167246
768.218	0.0166584
768.296	0.0167348
768.374	0.0168071
768.452	0.0165379
768.530	0.0166279
768.608	0.0166984
768.686	0.0167230
768.765	0.0167104
768.843	0.0168210
768.921	0.0168830
768.999	0.0166862
769.077	0.0166904
769.155	0.0168825
769.233	0.0167281
769.311	0.0167467
769.390	0.0167286
769.468	0.0169577
769.546	0.0168423
769.624	0.0168727
769.702	0.0168612
769.780	0.0167936
769.858	0.0168542
769.936	0.0167934
770.015	0.0168160
770.093	0.0167853
770.171	0.0168914
770.249	0.0168919
770.327	0.0168652
770.405	0.0166956
770.483	0.0168988
770.561	0.0168124
770.640	0.0167734
770.718	0.0167693
770.796	0.0168562
770.874	0.0166551
770.952	0.0168536
771.030	0.0168048
771.108	0.0167822
771.186	0.0167529
771.265	0.0166344
771.343	0.0166641
771.421	0.0168221
771.499	0.0166684
771.577	0.0168896
771.655	0.0168412
771.733	0.0167697
771.811	0.0166085
771.890	0.0165775
771.968	0.0167970
772.046	0.0167051
772.124	0.0167844
772.202	0.0166568
772.280	0.0168340
772.358	0.0168181
772.436	0.0169524
772.515	0.0168432
772.593	0.0168860
772.671	0.0168844
772.749	0.0168338
772.827	0.0168331
772.905	0.0167798
772.983	0.0167319
773.061	0.0168204
773.140	0.0167423
773.218	0.0168407
773.296	0.0168768
773.374	0.0166656
773.452	0.0167540
773.530	0.0167446
773.608	0.0168674
773.686	0.0167496
773.765	0.0166412
773.843	0.0167109
773.921	0.0168027
773.999	0.0166825
774.077	0.0168084
774.155	0.0168268
774.233	0.0166027
774.311	0.0168313
774.390	0.0168673
774.468	0.0166811
774.546	0.0167131
774.624	0.0168379
774.702	0.0166796
774.780	0.0168575
774.858	0.0168375
774.936	0.0167950
775.015	0.0168948
775.093	0.0167913
775.171	0.0167786
775.249	0.0169022
775.327	0.0168353
775.405	0.0168548
775.483	0.0167656
775.561	0.0167767
775.640	0.0169727
775.718	0.0168639
775.796	0.0168674
775.874	0.0168900
775.952	0.0168213
776.030	0.0168707
776.108	0.0168063
776.186	0.0166438
776.265	0.0167373
776.343	0.0168835
776.421	0.0167603
776.499	0.0166440
776.577	0.0168684
776.655	0.0168530
776.733	0.0168476
776.811	0.0166578
776.890	0.0168611
776.968	0.0168546
777.046	0.0168977
777.124	0.0169427
777.202	0.0168607
777.280	0.0168813
777.358	0.0168776
777.436	0.0168404
777.515	0.0167720
777.593	0.0168611
777.671	0.0169221
777.749	0.0169590
777.827	0.0168730
777.905	0.0167149
777.983	0.0168983
778.061	0.0168837
778.140	0.0168042
778.218	0.0170507
778.296	0.0170422
778.374	0.0169391
778.452	0.0169299
778.530	0.0171295
778.608	0.0169371
778.686	0.0168985
778.765	0.0167177
778.843	0.0168183
778.921	0.0168217
778.999	0.0167772
779.077	0.0168671
779.155	0.0167008
779.233	0.0168271
779.311	0.0167479
779.390	0.0168929
779.468	0.0167935
779.546	0.0167963
779.624	0.0167097
779.702	0.0167977
779.780	0.0168921
779.858	0.0167712
779.936	0.0167769
780.015	0.0168673
780.093	0.0167764
780.171	0.0168178
780.249	0.0168892
780.327	0.0168111
780.405	0.0167199
780.483	0.0168596
780.561	0.0167423
780.640	0.0168742
780.718	0.0167013
780.796	0.0168768
780.874	0.0168234
780.952	0.0168974
781.030	0.0166890
781.108	0.0167210
781.186	0.0169042
781.265	0.0166827
781.343	0.0165845
781.421	0.0167258
781.499	0.0167994
781.577	0.0168256
781.655	0.0166444
781.733	0.0167276
781.811	0.0167780
781.890	0.0167889
781.968	0.0166205
782.046	0.0166898
782.124	0.0166676
782.202	0.0166906
782.280	0.0166656
782.358	0.0165793
782.436	0.0165135
782.515	0.0166315
782.593	0.0164307
782.671	0.0163673
782.749	0.0165465
782.827	0.0165772
782.905	0.0166692
782.983	0.0166393
783.061	0.0167539
783.140	0.0166385
783.218	0.0167577
783.296	0.0168694
783.374	0.0168996
783.452	0.0170074
783.530	0.0168439
783.608	0.0168906
783.686	0.0168396
783.765	0.0169523
783.843	0.0169515
783.921	0.0168098
783.999	0.0169341
784.077	0.0169022
784.155	0.0168372
784.233	0.0169099
784.311	0.0168354
784.390	0.0168450
784.468	0.0169315
784.546	0.0168539
784.624	0.0166589
784.702	0.0167929
784.780	0.0167348
784.858	0.0167660
784.936	0.0167392
785.015	0.0167235
785.093	0.0166747
785.171	0.0167726
785.249	0.0166917
785.327	0.0167056
785.405	0.0166132
785.483	0.0167302
785.561	0.0168272
785.640	0.0168410
785.718	0.0166743
785.796	0.0168269
785.874	0.0167099
785.952	0.0167621
786.030	0.0167908
786.108	0.0166401
786.186	0.0166354
786.265	0.0166624
786.343	0.0166546
786.421	0.0165630
786.499	0.0166932
786.577	0.0166127
786.655	0.0167323
786.733	0.0166579
786.811	0.0168053
786.890	0.0165665
786.968	0.0166602
787.046	0.0168650
787.124	0.0164887
787.202	0.0167242
787.280	0.0167547
787.358	0.0166473
787.436	0.0167216
787.515	0.0167002
787.593	0.0166809
787.671	0.0165676
787.749	0.0166096
787.827	0.0166818
787.905	0.0166046
787.983	0.0166510
788.061	0.0168581
788.140	0.0166589
788.218	0.0167328
788.296	0.0168332
788.374	0.0167422
788.452	0.0168816
788.530	0.0167764
788.608	0.0168439
788.686	0.0168378
788.765	0.0169196
788.843	0.0169334
788.921	0.0168991
788.999	0.0168045
789.077	0.0169592
789.155	0.0169212
789.233	0.0166585
789.311	0.0168538
789.390	0.0169956
789.468	0.0168481
789.546	0.0169594
789.624	0.0168260
789.702	0.0168141
789.780	0.0168765
789.858	0.0168876
789.936	0.0169531
790.015	0.0168690
790.093	0.0168645
790.171	0.0168144
790.249	0.0169622
790.327	0.0168698
790.405	0.0167139
790.483	0.0167375
790.561	0.0168454
790.640	0.0168523
790.718	0.0168140
790.796	0.0166385
790.874	0.0167578
790.952	0.0166995
791.030	0.0169079
791.108	0.0167616
791.186	0.0167548
791.265	0.0167208
791.343	0.0169448
791.421	0.0166911
791.499	0.0167556
791.577	0.0167494
791.655	0.0167706
791.733	0.0167260
791.811	0.0167914
791.890	0.0167667
791.968	0.0169512
792.046	0.0167892
792.124	0.0168601
792.202	0.0168043
792.280	0.0168475
792.358	0.0169276
792.436	0.0168768
792.515	0.0167604
792.593	0.0168217
792.671	0.0168847
792.749	0.0170803
792.827	0.0168839
792.905	0.0168908
792.983	0.0168703
793.061	0.0168999
793.140	0.0169662
793.218	0.0167390
793.296	0.0168421
793.374	0.0168902
793.452	0.0170185
793.530	0.0169024
793.608	0.0168788
793.686	0.0169763
793.765	0.0168097
793.843	0.0167442
793.921	0.0168181
793.999	0.0168833
794.077	0.0169435
794.155	0.0166399
794.233	0.0169901
794.311	0.0168980
794.390	0.0168676
794.468	0.0168988
794.546	0.0167258
794.624	0.0168993
794.702	0.0169125
794.780	0.0169010
794.858	0.0169000
794.936	0.0169385
795.015	0.0168137
795.093	0.0168793
795.171	0.0167980
795.249	0.0169840
795.327	0.0169338
795.405	0.0168853
795.483	0.0169251
795.561	0.0170022
795.640	0.0169874
795.718	0.0169091
795.796	0.0168816
795.874	0.0170414
795.952	0.0169286
796.030	0.0168907
796.108	0.0169083
796.186	0.0171365
796.265	0.0169966
796.343	0.0170039
796.421	0.0169962
796.499	0.0168143
796.577	0.0168582
796.655	0.0167725
796.733	0.0168729
796.811	0.0171142
796.890	0.0170190
796.968	0.0170041
797.046	0.0167829
797.124	0.0168354
797.202	0.0170454
797.280	0.0169435
797.358	0.0169151
797.436	0.0170190
797.515	0.0168639
797.593	0.0168470
797.671	0.0170371
797.749	0.0170621
797.827	0.0169063
797.905	0.0168589
797.983	0.0168809
798.061	0.0169706
798.140	0.0169457
798.218	0.0170097
798.296	0.0171384
798.374	0.0169113
798.452	0.0168892
798.530	0.0169049
798.608	0.0170567
798.686	0.0169527
798.765	0.0169896
798.843	0.0171001
798.921	0.0170251
798.999	0.0169594
799.077	0.0169508
799.155	0.0171637
799.233	0.0170229
799.311	0.0170850
799.390	0.0170554
799.468	0.0171450
799.546	0.0171456
799.624	0.0170956
799.702	0.0171404
799.780	0.0170717
799.858	0.0171756
799.936	0.0171150
800.015	0.0171304
800.093	0.0170231
800.171	0.0170805
800.249	0.0169412
800.327	0.0169611
800.405	0.0170099
800.483	0.0169135
800.561	0.0167502
800.640	0.0168796
800.718	0.0169476
800.796	0.0168944
800.874	0.0168167
800.952	0.0168535
801.030	0.0166535
801.108	0.0167203
801.186	0.0167137
801.265	0.0167049
801.343	0.0166117
801.421	0.0167271
801.499	0.0167734
801.577	0.0166056
801.655	0.0167806
801.733	0.0165292
801.811	0.0166006
801.890	0.0165890
801.968	0.0167255
802.046	0.0167032
802.124	0.0166161
802.202	0.0167370
802.280	0.0168576
802.358	0.0167298
802.436	0.0167175
802.515	0.0167779
802.593	0.0168449
802.671	0.0167980
802.749	0.0166400
802.827	0.0166770
802.905	0.0166923
802.983	0.0164427
803.061	0.0165031
803.140	0.0165806
803.218	0.0165705
803.296	0.0166186
803.374	0.0164890
803.452	0.0164491
803.530	0.0165142
803.608	0.0165336
803.686	0.0164642
803.765	0.0164965
803.843	0.0164310
803.921	0.0166585
803.999	0.0164622
804.077	0.0166432
804.155	0.0165737
804.233	0.0166256
804.311	0.0166200
804.390	0.0165556
804.468	0.0166951
804.546	0.0167432
804.624	0.0168779
804.702	0.0166656
804.780	0.0167931
804.858	0.0168774
804.936	0.0168320
805.015	0.0167210
805.093	0.0168324
805.171	0.0169204
805.249	0.0168683
805.327	0.0169742
805.405	0.0169611
805.483	0.0168536
805.561	0.0167624
805.640	0.0169759
805.718	0.0167638
805.796	0.0168930
805.874	0.0167918
805.952	0.0169828
806.030	0.0169263
806.108	0.0169083
806.186	0.0168921
806.265	0.0168545
806.343	0.0168367
806.421	0.0168433
806.499	0.0170276
806.577	0.0167066
806.655	0.0168018
806.733	0.0167729
806.811	0.0169171
806.890	0.0166848
806.968	0.0166951
807.046	0.0169177
807.124	0.0169422
807.202	0.0168156
807.280	0.0168700
807.358	0.0168318
807.436	0.0168851
807.515	0.0168696
807.593	0.0168213
807.671	0.0167688
807.749	0.0168288
807.827	0.0167368
807.905	0.0167861
807.983	0.0167323
808.061	0.0166976
808.140	0.0166836
808.218	0.0166794
808.296	0.0166693
808.374	0.0166628
808.452	0.0166897
808.530	0.0166738
808.608	0.0165784
808.686	0.0165907
808.765	0.0165365
808.843	0.0165355
808.921	0.0166150
808.999	0.0167049
809.077	0.0165538
809.155	0.0164717
809.233	0.0166368
809.311	0.0166496
809.390	0.0167031
809.468	0.0165607
809.546	0.0165733
809.624	0.0165908
809.702	0.0165488
809.780	0.0165711
809.858	0.0164514
809.936	0.0163943
810.015	0.0165149
810.093	0.0166091
810.171	0.0164863
810.249	0.0164639
810.327	0.0164810
810.405	0.0165674
810.483	0.0164835
810.561	0.0164907
810.640	0.0165352
810.718	0.0166621
810.796	0.0166248
810.874	0.0166457
810.952	0.0166711
811.030	0.0168701
811.108	0.0166621
811.186	0.0166076
811.265	0.0166842
811.343	0.0167396
811.421	0.0167623
811.499	0.0167384
811.577	0.0167278
811.655	0.0169294
811.733	0.0167753
811.811	0.0166537
811.890	0.0167700
811.968	0.0169203
812.046	0.0166920
812.124	0.0168208
812.202	0.0168534
812.280	0.0168894
812.358	0.0169254
812.436	0.0169611
812.515	0.0169792
812.593	0.0168509
812.671	0.0169634
812.749	0.0170697
812.827	0.0170422
812.905	0.0171421
812.983	0.0170470
813.061	0.0171006
813.140	0.0171143
813.218	0.0172306
813.296	0.0171416
813.374	0.0170210
813.452	0.0171050
813.530	0.0170018
813.608	0.0170646
813.686	0.0170802
813.765	0.0170323
813.843	0.0169018
813.921	0.0170254
813.999	0.0169398
814.077	0.0170804
814.155	0.0170113
814.233	0.0169598
814.311	0.0168560
814.390	0.0170043
814.468	0.0169416
814.546	0.0167837
814.624	0.0167548
814.702	0.0169099
814.780	0.0169448
814.858	0.0170256
814.936	0.0169683
815.015	0.0169131
815.093	0.0170472
815.171	0.0169653
815.249	0.0169962
815.327	0.0170277
815.405	0.0169772
815.483	0.0169683
815.561	0.0168865
815.640	0.0169183
815.718	0.0169364
815.796	0.0168964
815.874	0.0168536
815.952	0.0168027
816.030	0.0167751
816.108	0.0167465
816.186	0.0167113
816.265	0.0166222
816.343	0.0167380
816.421	0.0166131
816.499	0.0166365
816.577	0.0165887
816.655	0.0166811
816.733	0.0165086
816.811	0.0166316
816.890	0.0165958
816.968	0.0166604
817.046	0.0166139
817.124	0.0167126
817.202	0.0167549
817.280	0.0166781
817.358	0.0166943
817.436	0.0167313
817.515	0.0168978
817.593	0.0166961
817.671	0.0166961
817.749	0.0167787
817.827	0.0168809
817.905	0.0170138
817.983	0.0168172
818.061	0.0170586
818.140	0.0169389
818.218	0.0169536
818.296	0.0169096
818.374	0.0169889
818.452	0.0169045
818.530	0.0171399
818.608	0.0169202
818.686	0.0169846
818.765	0.0171011
818.843	0.0169777
818.921	0.0169828
818.999	0.0170037
819.077	0.0169163
819.155	0.0169621
819.233	0.0169106
819.311	0.0169382
819.390	0.0169188
819.468	0.0168763
819.546	0.0168967
819.624	0.0170317
819.702	0.0168017
819.780	0.0167627
819.858	0.0168294
819.936	0.0168552
820.015	0.0167883
820.093	0.0169151
820.171	0.0167538
820.249	0.0168656
820.327	0.0167977
820.405	0.0167776
820.483	0.0167513
820.561	0.0167596
820.640	0.0168376
820.718	0.0167509
820.796	0.0168159
820.874	0.0168839
820.952	0.0167170
821.030	0.0167879
821.108	0.0167787
821.186	0.0165881
821.265	0.0166670
821.343	0.0167393
821.421	0.0166422
821.499	0.0167101
821.577	0.0167513
821.655	0.0166921
821.733	0.0166472
821.811	0.0165401
821.890	0.0168413
821.968	0.0167994
822.046	0.0167017
822.124	0.0166712
822.202	0.0168117
822.280	0.0168893
822.358	0.0168648
822.436	0.0167790
822.515	0.0167898
822.593	0.0168534
822.671	0.0169037
822.749	0.0168373
822.827	0.0169941
822.905	0.0169093
822.983	0.0170177
823.061	0.0169051
823.140	0.0169584
823.218	0.0167610
823.296	0.0169153
823.374	0.0168189
823.452	0.0167183
823.530	0.0167661
823.608	0.0167533
823.686	0.0168158
823.765	0.0167987
823.843	0.0166215
823.921	0.0166623
823.999	0.0165686
824.077	0.0164730
824.155	0.0165560
824.233	0.0166541
824.311	0.0166116
824.390	0.0165004
824.468	0.0164754
824.546	0.0164680
824.624	0.0164040
824.702	0.0164721
824.780	0.0165238
824.858	0.0166422
824.936	0.0165121
825.015	0.0166084
825.093	0.0166756
825.171	0.0165928
825.249	0.0165916
825.327	0.0167631
825.405	0.0165181
825.483	0.0166298
825.561	0.0166091
825.640	0.0166308
825.718	0.0167112
825.796	0.0167439
825.874	0.0168166
825.952	0.0166669
826.030	0.0167685
826.108	0.0168034
826.186	0.0168253
826.265	0.0168338
826.343	0.0169669
826.421	0.0168990
826.499	0.0169164
826.577	0.0168949
826.655	0.0169532
826.733	0.0169598
826.811	0.0168810
826.890	0.0168781
826.968	0.0169074
827.046	0.0167834
827.124	0.0169205
827.202	0.0168650
827.280	0.0169122
827.358	0.0169505
827.436	0.0168211
827.515	0.0167663
827.593	0.0169640
827.671	0.0168861
827.749	0.0168086
827.827	0.0167410
827.905	0.0166805
827.983	0.0168481
828.061	0.0168024
828.140	0.0167773
828.218	0.0168464
828.296	0.0167899
828.374	0.0168159
828.452	0.0168507
828.530	0.0168045
828.608	0.0168256
828.686	0.0166956
828.765	0.0167278
828.843	0.0168414
828.921	0.0166809
828.999	0.0168451
829.077	0.0169303
829.155	0.0167484
829.233	0.0167628
829.311	0.0168638
829.390	0.0167887
829.468	0.0168057
829.546	0.0166361
829.624	0.0168058
829.702	0.0169250
829.780	0.0169088
829.858	0.0168929
829.936	0.0167642
830.015	0.0169669
830.093	0.0168780
830.171	0.0168195
830.249	0.0169061
830.327	0.0169467
830.405	0.0169328
830.483	0.0169787
830.561	0.0166712
830.640	0.0168728
830.718	0.0169618
830.796	0.0168894
830.874	0.0168919
830.952	0.0168875
831.030	0.0167344
831.108	0.0168238
831.186	0.0168388
831.265	0.0168567
831.343	0.0168797
831.421	0.0167816
831.499	0.0169070
831.577	0.0168616
831.655	0.0167128
831.733	0.0167397
831.811	0.0168123
831.890	0.0168484
831.968	0.0168021
832.046	0.0166479
832.124	0.0166984
832.202	0.0165701
832.280	0.0165238
832.358	0.0166430
832.436	0.0167207
832.515	0.0166469
832.593	0.0166718
832.671	0.0166064
832.749	0.0167432
832.827	0.0166448
832.905	0.0167039
832.983	0.0165845
833.061	0.0165764
833.140	0.0167530
833.218	0.0168176
833.296	0.0167254
833.374	0.0167352
833.452	0.0167033
833.530	0.0166546
833.608	0.0167493
833.686	0.0166842
833.765	0.0167525
833.843	0.0167377
833.921	0.0169099
833.999	0.0168243
834.077	0.0168500
834.155	0.0170255
834.233	0.0168744
834.311	0.0169026
834.390	0.0168565
834.468	0.0169783
834.546	0.0170027
834.624	0.0168537
834.702	0.0170023
834.780	0.0168764
834.858	0.0168670
834.936	0.0168340
835.015	0.0167085
835.093	0.0167789
835.171	0.0169603
835.249	0.0168181
835.327	0.0167437
835.405	0.0167917
835.483	0.0168547
835.561	0.0167721
835.640	0.0167412
835.718	0.0167177
835.796	0.0167010
835.874	0.0166875
835.952	0.0168702
836.030	0.0167922
836.108	0.0167723
836.186	0.0166508
836.265	0.0167388
836.343	0.0165961
836.421	0.0167956
836.499	0.0167153
836.577	0.0168576
836.655	0.0167140
836.733	0.0167442
836.811	0.0166068
836.890	0.0166644
836.968	0.0164960
837.046	0.0167139
837.124	0.0167470
837.202	0.0165704
837.280	0.0167053
837.358	0.0167261
837.436	0.0167968
837.515	0.0167485
837.593	0.0166599
837.671	0.0167794
837.749	0.0167808
837.827	0.0166354
837.905	0.0167280
837.983	0.0169617
838.061	0.0170393
838.140	0.0168462
838.218	0.0167052
838.296	0.0167246
838.374	0.0168350
838.452	0.0168690
838.530	0.0169320
838.608	0.0171069
838.686	0.0169403
838.765	0.0169211
838.843	0.0168865
838.921	0.0168860
838.999	0.0168006
839.077	0.0169742
839.155	0.0168036
839.233	0.0168575
839.311	0.0168263
839.390	0.0168642
839.468	0.0168363
839.546	0.0167194
839.624	0.0168354
839.702	0.0168156
839.780	0.0166451
839.858	0.0166933
839.936	0.0167086
840.015	0.0167917
840.093	0.0166196
840.171	0.0167216
840.249	0.0168364
840.327	0.0168331
840.405	0.0167444
840.483	0.0168192
840.561	0.0168262
840.640	0.0168453
840.718	0.0168207
840.796	0.0168190
840.874	0.0168969
840.952	0.0168957
841.030	0.0168198
841.108	0.0168271
841.186	0.0168214
841.265	0.0168765
841.343	0.0168745
841.421	0.0167442
841.499	0.0166360
841.577	0.0166246
841.655	0.0168093
841.733	0.0167461
841.811	0.0167284
841.890	0.0167810
841.968	0.0167797
842.046	0.0167954
842.124	0.0168663
842.202	0.0167263
842.280	0.0168593
842.358	0.0169228
842.436	0.0169086
842.515	0.0167799
842.593	0.0169028
842.671	0.0167702
842.749	0.0167705
842.827	0.0167344
842.905	0.0167274
842.983	0.0166623
843.061	0.0166859
843.140	0.0167208
843.218	0.0166473
843.296	0.0166556
843.374	0.0166668
843.452	0.0165848
843.530	0.0166647
843.608	0.0166716
843.686	0.0167533
843.765	0.0166221
843.843	0.0167929
843.921	0.0166474
843.999	0.0164935
844.077	0.0167160
844.155	0.0167670
844.233	0.0167793
844.311	0.0167912
844.390	0.0167460
844.468	0.0166753
844.546	0.0168398
844.624	0.0168772
844.702	0.0166755
844.780	0.0167537
844.858	0.0168183
844.936	0.0167480
845.015	0.0169519
845.093	0.0170110
845.171	0.0167272
845.249	0.0168220
845.327	0.0168853
845.405	0.0167823
845.483	0.0168072
845.561	0.0169966
845.640	0.0168950
845.718	0.0168835
845.796	0.0169195
845.874	0.0169432
845.952	0.0168443
846.030	0.0168472
846.108	0.0167227
846.186	0.0167326
846.265	0.0167663
846.343	0.0167896
846.421	0.0168772
846.499	0.0167986
846.577	0.0168734
846.655	0.0168261
846.733	0.0167585
846.811	0.0167825
846.890	0.0165990
846.968	0.0166914
847.046	0.0166577
847.124	0.0166210
847.202	0.0166731
847.280	0.0166527
847.358	0.0166002
847.436	0.0165553
847.515	0.0164781
847.593	0.0166432
847.671	0.0164635
847.749	0.0165351
847.827	0.0166273
847.905	0.0166145
847.983	0.0165804
848.061	0.0165829
848.140	0.0166907
848.218	0.0166238
848.296	0.0165861
848.374	0.0166537
848.452	0.0167818
848.530	0.0166094
848.608	0.0168236
848.686	0.0167139
848.765	0.0167625
848.843	0.0168591
848.921	0.0168462
848.999	0.0167515
849.077	0.0167902
849.155	0.0168057
849.233	0.0169067
849.311	0.0169392
849.390	0.0169035
849.468	0.0166523
849.546	0.0167843
849.624	0.0168249
849.702	0.0168055
849.780	0.0168343
849.858	0.0168428
849.936	0.0166869
850.015	0.0168434
850.093	0.0169997
850.171	0.0167735
850.249	0.0166662
850.327	0.0167166
850.405	0.0167540
850.483	0.0168482
850.561	0.0167447
850.640	0.0167093
850.718	0.0166762
850.796	0.0167614
850.874	0.0167920
850.952	0.0167725
851.030	0.0166594
851.108	0.0167532
851.186	0.0168140
851.265	0.0167879
851.343	0.0166965
851.421	0.0167677
851.499	0.0167579
851.577	0.0166804
851.655	0.0168012
851.733	0.0167137
851.811	0.0168256
851.890	0.0168378
851.968	0.0168024
852.046	0.0168135
852.124	0.0168145
852.202	0.0168622
852.280	0.0167908
852.358	0.0167787
852.436	0.0166299
852.515	0.0168243
852.593	0.0168012
852.671	0.0167966
852.749	0.0167689
852.827	0.0165726
852.905	0.0166479
852.983	0.0166714
853.061	0.0166904
853.140	0.0165236
853.218	0.0165818
853.296	0.0166143
853.374	0.0165668
853.452	0.0166112
853.530	0.0166924
853.608	0.0166586
853.686	0.0166075
853.765	0.0166630
853.843	0.0165511
853.921	0.0167647
853.999	0.0166597
854.077	0.0165826
854.155	0.0166067
854.233	0.0167433
854.311	0.0167673
854.390	0.0166779
854.468	0.0168649
854.546	0.0168066
854.624	0.0166985
854.702	0.0166082
854.780	0.0168415
854.858	0.0168201
854.936	0.0167665
855.015	0.0166101
855.093	0.0166042
855.171	0.0166402
855.249	0.0167781
855.327	0.0167411
855.405	0.0165245
855.483	0.0166555
855.561	0.0166416
855.640	0.0167439
855.718	0.0166669
855.796	0.0165392
855.874	0.0163268
855.952	0.0167033
856.030	0.0168721
856.108	0.0165723
856.186	0.0167166
856.265	0.0168129
856.343	0.0167865
856.421	0.0168180
856.499	0.0166709
856.577	0.0167633
856.655	0.0167940
856.733	0.0167903
856.811	0.0166357
856.890	0.0166212
856.968	0.0166267
857.046	0.0168309
857.124	0.0167656
857.202	0.0168014
857.280	0.0168628
857.358	0.0168468
857.436	0.0168773
857.515	0.0168123
857.593	0.0169171
857.671	0.0170881
857.749	0.0169578
857.827	0.0169466
857.905	0.0170589
857.983	0.0169107
858.061	0.0169884
858.140	0.0169912
858.218	0.0168800
858.296	0.0169020
858.374	0.0170628
858.452	0.0169431
858.530	0.0170298
858.608	0.0171862
858.686	0.0170176
858.765	0.0170605
858.843	0.0170166
858.921	0.0169033
858.999	0.0169109
859.077	0.0170126
859.155	0.0170042
859.233	0.0169566
859.311	0.0170509
859.390	0.0170110
859.468	0.0170354
859.546	0.0170738
859.624	0.0170057
859.702	0.0169083
859.780	0.0169234
859.858	0.0168052
859.936	0.0169280
860.015	0.0169382
860.093	0.0168901
860.171	0.0168056
860.249	0.0167532
860.327	0.0167735
860.405	0.0167518
860.483	0.0168230
860.561	0.0167584
860.640	0.0168151
860.718	0.0169437
860.796	0.0167490
860.874	0.0168810
860.952	0.0168612
861.030	0.0168295
861.108	0.0167819
861.186	0.0168765
861.265	0.0168195
861.343	0.0170554
861.421	0.0169173
861.499	0.0167913
861.577	0.0168043
861.655	0.0167717
861.733	0.0168508
861.811	0.0169213
861.890	0.0168146
861.968	0.0168114
862.046	0.0167125
862.124	0.0168095
862.202	0.0169432
862.280	0.0168768
862.358	0.0170156
862.436	0.0168362
862.515	0.0169640
862.593	0.0168334
862.671	0.0169121
862.749	0.0169640
862.827	0.0168362
862.905	0.0168423
862.983	0.0167275
863.061	0.0169676
863.140	0.0168540
863.218	0.0168667
863.296	0.0169905
863.374	0.0169853
863.452	0.0168797
863.530	0.0167398
863.608	0.0168694
863.686	0.0169450
863.765	0.0168828
863.843	0.0168342
863.921	0.0168047
863.999	0.0167578
864.077	0.0167851
864.155	0.0167763
864.233	0.0167234
864.311	0.0167906
864.390	0.0166523
864.468	0.0167071
864.546	0.0169039
864.624	0.0167884
864.702	0.0166599
864.780	0.0166308
864.858	0.0166719
864.936	0.0167033
865.015	0.0166980
865.093	0.0167923
865.171	0.0165916
865.249	0.0167381
865.327	0.0167855
865.405	0.0168421
865.483	0.0168153
865.561	0.0168900
865.640	0.0167854
865.718	0.0169028
865.796	0.0170356
865.874	0.0169714
865.952	0.0168342
866.030	0.0169350
866.108	0.0168808
866.186	0.0169566
866.265	0.0170193
866.343	0.0169550
866.421	0.0168843
866.499	0.0169701
866.577	0.0170906
866.655	0.0170444
866.733	0.0169768
866.811	0.0169389
866.890	0.0168634
866.968	0.0169757
867.046	0.0169071
867.124	0.0167661
867.202	0.0168789
867.280	0.0167951
867.358	0.0167647
867.436	0.0167500
867.515	0.0169315
867.593	0.0168493
867.671	0.0168288
867.749	0.0167395
867.827	0.0165974
867.905	0.0166448
867.983	0.0167654
868.061	0.0167485
868.140	0.0167656
868.218	0.0165667
868.296	0.0166705
868.374	0.0168056
868.452	0.0167479
868.530	0.0165246
868.608	0.0166977
868.686	0.0166663
868.765	0.0166657
868.843	0.0166421
868.921	0.0167834
868.999	0.0166763
869.077	0.0165832
869.155	0.0166246
869.233	0.0165569
869.311	0.0166331
869.390	0.0165304
869.468	0.0166454
869.546	0.0167265
869.624	0.0166608
869.702	0.0167260
869.780	0.0167042
869.858	0.0165729
869.936	0.0167830
870.015	0.0167452
870.093	0.0166054
870.171	0.0166650
870.249	0.0168134
870.327	0.0167633
870.405	0.0167500
870.483	0.0167173
870.561	0.0167580
870.640	0.0168465
870.718	0.0167345
870.796	0.0168593
870.874	0.0166874
870.952	0.0166864
871.030	0.0169414
871.108	0.0168407
871.186	0.0168465
871.265	0.0168325
871.343	0.0168638
871.421	0.0167373
871.499	0.0167847
871.577	0.0166998
871.655	0.0166933
871.733	0.0167170
871.811	0.0168892
871.890	0.0167318
871.968	0.0167710
872.046	0.0168510
872.124	0.0168555
872.202	0.0166976
872.280	0.0166656
872.358	0.0166067
872.436	0.0167596
872.515	0.0166980
872.593	0.0168790
872.671	0.0166731
872.749	0.0166801
872.827	0.0166947
872.905	0.0166394
872.983	0.0168543
873.061	0.0166448
873.140	0.0168827
873.218	0.0167817
873.296	0.0166708
873.374	0.0168193
873.452	0.0166757
873.530	0.0167843
873.608	0.0166837
873.686	0.0168555
873.765	0.0166861
873.843	0.0168291
873.921	0.0168237
873.999	0.0167165
874.077	0.0167719
874.155	0.0166949
874.233	0.0168404
874.311	0.0168492
874.390	0.0167149
874.468	0.0167616
874.546	0.0167420
874.624	0.0168071
874.702	0.0167969
874.780	0.0167480
874.858	0.0167190
874.936	0.0167258
875.015	0.0167580
875.093	0.0167747
875.171	0.0166782
875.249	0.0167055
875.327	0.0167582
875.405	0.0167098
875.483	0.0166551
875.561	0.0167149
875.640	0.0166324
875.718	0.0167354
875.796	0.0168085
875.874	0.0166486
875.952	0.0168151
876.030	0.0166621
876.108	0.0167635
876.186	0.0166916
876.265	0.0165022
876.343	0.0166045
876.421	0.0166487
876.499	0.0165745
876.577	0.0165459
876.655	0.0167974
876.733	0.0167284
876.811	0.0166054
876.890	0.0166564
876.968	0.0166306
877.046	0.0166978
877.124	0.0167898
877.202	0.0166033
877.280	0.0168219
877.358	0.0167023
877.436	0.0166238
877.515	0.0165443
877.593	0.0167287
877.671	0.0165067
877.749	0.0166916
877.827	0.0166932
877.905	0.0166206
877.983	0.0167550
878.061	0.0166210
878.140	0.0164929
878.218	0.0165601
878.296	0.0166299
878.374	0.0166101
878.452	0.0166611
878.530	0.0165551
878.608	0.0166798
878.686	0.0169272
878.765	0.0168428
878.843	0.0168800
878.921	0.0167104
878.999	0.0168522
879.077	0.0169264
879.155	0.0169048
879.233	0.0168411
879.311	0.0167207
879.390	0.0168365
879.468	0.0167920
879.546	0.0167085
879.624	0.0167744
879.702	0.0169353
879.780	0.0168975
879.858	0.0168758
879.936	0.0169194
880.015	0.0167500
880.093	0.0169438
880.171	0.0169108
880.249	0.0168365
880.327	0.0166921
880.405	0.0168845
880.483	0.0169293
880.561	0.0167928
880.640	0.0167822
880.718	0.0168079
880.796	0.0169753
880.874	0.0169286
880.952	0.0168565
881.030	0.0167233
881.108	0.0168430
881.186	0.0169444
881.265	0.0168347
881.343	0.0167789
881.421	0.0169105
881.499	0.0168585
881.577	0.0168481
881.655	0.0169464
881.733	0.0168552
881.811	0.0169325
881.890	0.0168655
881.968	0.0168421
882.046	0.0168987
882.124	0.0169147
882.202	0.0169709
882.280	0.0168791
882.358	0.0168896
882.436	0.0168288
882.515	0.0168164
882.593	0.0169587
882.671	0.0168584
882.749	0.0168474
882.827	0.0168690
882.905	0.0169019
882.983	0.0168391
883.061	0.0168953
883.140	0.0169119
883.218	0.0168951
883.296	0.0168288
883.374	0.0168237
883.452	0.0168517
883.530	0.0169201
883.608	0.0168318
883.686	0.0167917
883.765	0.0169128
883.843	0.0168250
883.921	0.0170011
883.999	0.0168568
884.077	0.0169207
884.155	0.0170998
884.233	0.0170274
884.311	0.0169960
884.390	0.0170230
884.468	0.0170061
884.546	0.0169289
884.624	0.0169710
884.702	0.0168677
884.780	0.0169980
884.858	0.0170258
884.936	0.0167992
885.015	0.0168681
885.093	0.0170100
885.171	0.0169153
885.249	0.0167809
885.327	0.0168848
885.405	0.0167886
885.483	0.0169054
885.561	0.0167699
885.640	0.0167464
885.718	0.0166681
885.796	0.0169483
885.874	0.0168229
885.952	0.0167902
886.030	0.0166848
886.108	0.0167918
886.186	0.0167448
886.265	0.0167100
886.343	0.0167603
886.421	0.0166628
886.499	0.0167651
886.577	0.0167730
886.655	0.0167651
886.733	0.0166965
886.811	0.0167012
886.890	0.0168320
886.968	0.0165834
887.046	0.0166425
887.124	0.0167284
887.202	0.0168351
887.280	0.0167364
887.358	0.0166663
887.436	0.0167474
887.515	0.0167886
887.593	0.0167306
887.671	0.0167177
887.749	0.0167422
887.827	0.0167408
887.905	0.0167229
887.983	0.0166582
888.061	0.0167785
888.140	0.0166924
888.218	0.0166654
888.296	0.0165628
888.374	0.0168498
888.452	0.0167505
888.530	0.0165833
888.608	0.0167066
888.686	0.0167060
888.765	0.0167203
888.843	0.0167426
888.921	0.0166978
888.999	0.0167883
889.077	0.0166315
889.155	0.0167508
889.233	0.0168453
889.311	0.0167878
889.390	0.0168385
889.468	0.0166863
889.546	0.0167488
889.624	0.0167843
889.702	0.0167250
889.780	0.0167068
889.858	0.0166943
889.936	0.0167378
890.015	0.0167059
890.093	0.0167956
890.171	0.0166330
890.249	0.0167286
890.327	0.0166333
890.405	0.0166392
890.483	0.0166523
890.561	0.0165266
890.640	0.0166613
890.718	0.0167442
890.796	0.0166335
890.874	0.0165536
890.952	0.0165679
891.030	0.0166685
891.108	0.0166489
891.186	0.0166101
891.265	0.0166116
891.343	0.0165935
891.421	0.0167343
891.499	0.0166389
891.577	0.0165892
891.655	0.0166591
891.733	0.0166431
891.811	0.0167160
891.890	0.0165732
891.968	0.0165446
892.046	0.0165843
892.124	0.0165992
892.202	0.0165143
892.280	0.0167166
892.358	0.0166686
892.436	0.0167061
892.515	0.0165446
892.593	0.0166676
892.671	0.0168446
892.749	0.0167433
892.827	0.0167050
892.905	0.0167802
892.983	0.0168089
893.061	0.0167685
893.140	0.0165538
893.218	0.0168589
893.296	0.0168568
893.374	0.0166910
893.452	0.0168024
893.530	0.0166605
893.608	0.0167318
893.686	0.0166401
893.765	0.0167358
893.843	0.0166963
893.921	0.0167596
893.999	0.0164868
894.077	0.0167284
894.155	0.0166318
894.233	0.0167394
894.311	0.0166816
894.390	0.0166494
894.468	0.0166813
894.546	0.0166338
894.624	0.0166072
894.702	0.0166531
894.780	0.0165567
894.858	0.0166448
894.936	0.0166085
895.015	0.0166695
895.093	0.0166592
895.171	0.0165405
895.249	0.0166766
895.327	0.0166860
895.405	0.0165632
895.483	0.0165170
895.561	0.0167447
895.640	0.0167611
895.718	0.0166579
895.796	0.0166912
895.874	0.0167753
895.952	0.0166895
896.030	0.0167866
896.108	0.0166453
896.186	0.0168086
896.265	0.0167580
896.343	0.0167775
896.421	0.0168189
896.499	0.0169777
896.577	0.0167853
896.655	0.0167854
896.733	0.0167974
896.811	0.0168066
896.890	0.0168300
896.968	0.0168193
897.046	0.0167850
897.124	0.0166632
897.202	0.0167474
897.280	0.0167267
897.358	0.0167319
897.436	0.0168472
897.515	0.0168163
897.593	0.0165878
897.671	0.0167522
897.749	0.0167042
897.827	0.0167033
897.905	0.0167603
897.983	0.0167608
898.061	0.0167015
898.140	0.0168266
898.218	0.0167794
898.296	0.0167451
898.374	0.0167115
898.452	0.0167316
898.530	0.0165206
898.608	0.0166088
898.686	0.0165604
898.765	0.0166038
898.843	0.0165881
898.921	0.0167474
898.999	0.0167383
899.077	0.0166058
899.155	0.0165885
899.233	0.0166966
899.311	0.0166134
899.390	0.0167064
899.468	0.0166636
899.546	0.0167068
899.624	0.0166377
899.702	0.0166411
899.780	0.0166565
899.858	0.0167485
899.936	0.0166708
