05/24/2022	20:53:07	Ver.	4.1	UNKNOWN
Optical Delay	580.014591	Delta X		0.078125	Sweeps	1	Scan Rate	0/0
Coordinates	Axis 1	NaN	Axis 2	NaN	Axis 3	NaN	Axis 4	NaN	Axis 5	NaN	Axis 6	0.000000
TX Power	0.000000	RX Power	0.000000

580.015	0.0166709
580.093	0.0165945
580.171	0.0165337
580.249	0.0165593
580.327	0.0166668
580.405	0.0166141
580.483	0.0165816
580.561	0.0164891
580.640	0.0167020
580.718	0.0166871
580.796	0.0166872
580.874	0.0166661
580.952	0.0165236
581.030	0.0166004
581.108	0.0166224
581.186	0.0165485
581.265	0.0168230
581.343	0.0166414
581.421	0.0166381
581.499	0.0166334
581.577	0.0167590
581.655	0.0166819
581.733	0.0165405
581.811	0.0165358
581.890	0.0166621
581.968	0.0167001
582.046	0.0166533
582.124	0.0166758
582.202	0.0166215
582.280	0.0167023
582.358	0.0166360
582.436	0.0164991
582.515	0.0166808
582.593	0.0166488
582.671	0.0166241
582.749	0.0166885
582.827	0.0165439
582.905	0.0166515
582.983	0.0167431
583.061	0.0167889
583.140	0.0166557
583.218	0.0168266
583.296	0.0166933
583.374	0.0168903
583.452	0.0167132
583.530	0.0167564
583.608	0.0167350
583.686	0.0169707
583.765	0.0170049
583.843	0.0169660
583.921	0.0168366
583.999	0.0169178
584.077	0.0168834
584.155	0.0170404
584.233	0.0169304
584.311	0.0168759
584.390	0.0170060
584.468	0.0169688
584.546	0.0167750
584.624	0.0167992
584.702	0.0167638
584.780	0.0167767
584.858	0.0167935
584.936	0.0167155
585.015	0.0167362
585.093	0.0168095
585.171	0.0166534
585.249	0.0167484
585.327	0.0167992
585.405	0.0167169
585.483	0.0167754
585.561	0.0167624
585.640	0.0168151
585.718	0.0167432
585.796	0.0168529
585.874	0.0168139
585.952	0.0168315
586.030	0.0168780
586.108	0.0167460
586.186	0.0166756
586.265	0.0168996
586.343	0.0168906
586.421	0.0168839
586.499	0.0167717
586.577	0.0168237
586.655	0.0168790
586.733	0.0169077
586.811	0.0167641
586.890	0.0166995
586.968	0.0167798
587.046	0.0167688
587.124	0.0168037
587.202	0.0168215
587.280	0.0167206
587.358	0.0168247
587.436	0.0167639
587.515	0.0169558
587.593	0.0167774
587.671	0.0167704
587.749	0.0167587
587.827	0.0167366
587.905	0.0167923
587.983	0.0167674
588.061	0.0166241
588.140	0.0167140
588.218	0.0167681
588.296	0.0167014
588.374	0.0168658
588.452	0.0167849
588.530	0.0168233
588.608	0.0167651
588.686	0.0167292
588.765	0.0167307
588.843	0.0167527
588.921	0.0165844
588.999	0.0165548
589.077	0.0166961
589.155	0.0165612
589.233	0.0166631
589.311	0.0165295
589.390	0.0164699
589.468	0.0166734
589.546	0.0165764
589.624	0.0166092
589.702	0.0163725
589.780	0.0164148
589.858	0.0164152
589.936	0.0164304
590.015	0.0164874
590.093	0.0163723
590.171	0.0164468
590.249	0.0164668
590.327	0.0163517
590.405	0.0163919
590.483	0.0164218
590.561	0.0165319
590.640	0.0165393
590.718	0.0166080
590.796	0.0166315
590.874	0.0165757
590.952	0.0167471
591.030	0.0166026
591.108	0.0166224
591.186	0.0166751
591.265	0.0167870
591.343	0.0168404
591.421	0.0167940
591.499	0.0168119
591.577	0.0168804
591.655	0.0167707
591.733	0.0167392
591.811	0.0166749
591.890	0.0165163
591.968	0.0164719
592.046	0.0164457
592.124	0.0165922
592.202	0.0165150
592.280	0.0163898
592.358	0.0165273
592.436	0.0164297
592.515	0.0164417
592.593	0.0164402
592.671	0.0164471
592.749	0.0165464
592.827	0.0165344
592.905	0.0165375
592.983	0.0165752
593.061	0.0166072
593.140	0.0164967
593.218	0.0165490
593.296	0.0165599
593.374	0.0166956
593.452	0.0167249
593.530	0.0166787
593.608	0.0165958
593.686	0.0166880
593.765	0.0168836
593.843	0.0166805
593.921	0.0166407
593.999	0.0167863
594.077	0.0166433
594.155	0.0166725
594.233	0.0166514
594.311	0.0167046
594.390	0.0166735
594.468	0.0165765
594.546	0.0164768
594.624	0.0165601
594.702	0.0166310
594.780	0.0165574
594.858	0.0164890
594.936	0.0165069
595.015	0.0166396
595.093	0.0164705
595.171	0.0165806
595.249	0.0165031
595.327	0.0166032
595.405	0.0165639
595.483	0.0165326
595.561	0.0165847
595.640	0.0166846
595.718	0.0167818
595.796	0.0168216
595.874	0.0168336
595.952	0.0167751
596.030	0.0167628
596.108	0.0168781
596.186	0.0168732
596.265	0.0167751
596.343	0.0166830
596.421	0.0166637
596.499	0.0167043
596.577	0.0165751
596.655	0.0165297
596.733	0.0165788
596.811	0.0165922
596.890	0.0165441
596.968	0.0164757
597.046	0.0165416
597.124	0.0163376
597.202	0.0164199
597.280	0.0163836
597.358	0.0164226
597.436	0.0165086
597.515	0.0164118
597.593	0.0163734
597.671	0.0165798
597.749	0.0165682
597.827	0.0165888
597.905	0.0164120
597.983	0.0164743
598.061	0.0165682
598.140	0.0166530
598.218	0.0166698
598.296	0.0166891
598.374	0.0166934
598.452	0.0166383
598.530	0.0167551
598.608	0.0167113
598.686	0.0169025
598.765	0.0167712
598.843	0.0168141
598.921	0.0168517
598.999	0.0168130
599.077	0.0167258
599.155	0.0165958
599.233	0.0166953
599.311	0.0166795
599.390	0.0166245
599.468	0.0165818
599.546	0.0166447
599.624	0.0166594
599.702	0.0166898
599.780	0.0165269
599.858	0.0165428
599.936	0.0166449
600.015	0.0167168
600.093	0.0165820
600.171	0.0167049
600.249	0.0167337
600.327	0.0168363
600.405	0.0169186
600.483	0.0166748
600.561	0.0167178
600.640	0.0168724
600.718	0.0169852
600.796	0.0170789
600.874	0.0169518
600.952	0.0168714
601.030	0.0168407
601.108	0.0169030
601.186	0.0168983
601.265	0.0167586
601.343	0.0168311
601.421	0.0168036
601.499	0.0165879
601.577	0.0167759
601.655	0.0166280
601.733	0.0165784
601.811	0.0166169
601.890	0.0165257
601.968	0.0164512
602.046	0.0164223
602.124	0.0165192
602.202	0.0164330
602.280	0.0163956
602.358	0.0165174
602.436	0.0164649
602.515	0.0163828
602.593	0.0165266
602.671	0.0165384
602.749	0.0165129
602.827	0.0165895
602.905	0.0166739
602.983	0.0167047
603.061	0.0167491
603.140	0.0168665
603.218	0.0168919
603.296	0.0169170
603.374	0.0168859
603.452	0.0168412
603.530	0.0169468
603.608	0.0170328
603.686	0.0169255
603.765	0.0169063
603.843	0.0168198
603.921	0.0169959
603.999	0.0168545
604.077	0.0167890
604.155	0.0168082
604.233	0.0168112
604.311	0.0167873
604.390	0.0167670
604.468	0.0167783
604.546	0.0168620
604.624	0.0167780
604.702	0.0165983
604.780	0.0168134
604.858	0.0168345
604.936	0.0167293
605.015	0.0167944
605.093	0.0167911
605.171	0.0166884
605.249	0.0168563
605.327	0.0168439
605.405	0.0167730
605.483	0.0168455
605.561	0.0169749
605.640	0.0168789
605.718	0.0168406
605.796	0.0166804
605.874	0.0167498
605.952	0.0166792
606.030	0.0168264
606.108	0.0166898
606.186	0.0166330
606.265	0.0165616
606.343	0.0165888
606.421	0.0165497
606.499	0.0163799
606.577	0.0164869
606.655	0.0163332
606.733	0.0163800
606.811	0.0165105
606.890	0.0164418
606.968	0.0165154
607.046	0.0164513
607.124	0.0166872
607.202	0.0167240
607.280	0.0166191
607.358	0.0166503
607.436	0.0168755
607.515	0.0169370
607.593	0.0171030
607.671	0.0170645
607.749	0.0170912
607.827	0.0170889
607.905	0.0170363
607.983	0.0170917
608.061	0.0169701
608.140	0.0169591
608.218	0.0169431
608.296	0.0168070
608.374	0.0167953
608.452	0.0166801
608.530	0.0165508
608.608	0.0163804
608.686	0.0163476
608.765	0.0162405
608.843	0.0163042
608.921	0.0161926
608.999	0.0161900
609.077	0.0161229
609.155	0.0161981
609.233	0.0161950
609.311	0.0162548
609.390	0.0163270
609.468	0.0164705
609.546	0.0166898
609.624	0.0166824
609.702	0.0165980
609.780	0.0169579
609.858	0.0169976
609.936	0.0170081
610.015	0.0170644
610.093	0.0173800
610.171	0.0172484
610.249	0.0173845
610.327	0.0174705
610.405	0.0173809
610.483	0.0174559
610.561	0.0175026
610.640	0.0174229
610.718	0.0173875
610.796	0.0171140
610.874	0.0169964
610.952	0.0168969
611.030	0.0166992
611.108	0.0165126
611.186	0.0162861
611.265	0.0161386
611.343	0.0159478
611.421	0.0157701
611.499	0.0156102
611.577	0.0156059
611.655	0.0156080
611.733	0.0153349
611.811	0.0152649
611.890	0.0153936
611.968	0.0154369
612.046	0.0157459
612.124	0.0154599
612.202	0.0155277
612.280	0.0158601
612.358	0.0160022
612.436	0.0161174
612.515	0.0161692
612.593	0.0165330
612.671	0.0166698
612.749	0.0169414
612.827	0.0171573
612.905	0.0173975
612.983	0.0176366
613.061	0.0176753
613.140	0.0179717
613.218	0.0181103
613.296	0.0181386
613.374	0.0180216
613.452	0.0180962
613.530	0.0182955
613.608	0.0181986
613.686	0.0180673
613.765	0.0181529
613.843	0.0178502
613.921	0.0176771
613.999	0.0176501
614.077	0.0172318
614.155	0.0169747
614.233	0.0168817
614.311	0.0166155
614.390	0.0163018
614.468	0.0162693
614.546	0.0160491
614.624	0.0158850
614.702	0.0156493
614.780	0.0154469
614.858	0.0154179
614.936	0.0154545
615.015	0.0152969
615.093	0.0152353
615.171	0.0153147
615.249	0.0153587
615.327	0.0152663
615.405	0.0152734
615.483	0.0153805
615.561	0.0155896
615.640	0.0157661
615.718	0.0159166
615.796	0.0159154
615.874	0.0160691
615.952	0.0163431
616.030	0.0162846
616.108	0.0163951
616.186	0.0164880
616.265	0.0166788
616.343	0.0167587
616.421	0.0168639
616.499	0.0170355
616.577	0.0168670
616.655	0.0168077
616.733	0.0169996
616.811	0.0169962
616.890	0.0168807
616.968	0.0167843
617.046	0.0167800
617.124	0.0168494
617.202	0.0169128
617.280	0.0167953
617.358	0.0166058
617.436	0.0166854
617.515	0.0165952
617.593	0.0166258
617.671	0.0167542
617.749	0.0166477
617.827	0.0168308
617.905	0.0167359
617.983	0.0167783
618.061	0.0171401
618.140	0.0171430
618.218	0.0171703
618.296	0.0173743
618.374	0.0174692
618.452	0.0174903
618.530	0.0176051
618.608	0.0175902
618.686	0.0177666
618.765	0.0177508
618.843	0.0176929
618.921	0.0175987
618.999	0.0175282
619.077	0.0172739
619.155	0.0172002
619.233	0.0169635
619.311	0.0168719
619.390	0.0166355
619.468	0.0164625
619.546	0.0161233
619.624	0.0159016
619.702	0.0157243
619.780	0.0155303
619.858	0.0153567
619.936	0.0150143
620.015	0.0149486
620.093	0.0149188
620.171	0.0148437
620.249	0.0147877
620.327	0.0149871
620.405	0.0149687
620.483	0.0150890
620.561	0.0151921
620.640	0.0153040
620.718	0.0154733
620.796	0.0157127
620.874	0.0159146
620.952	0.0161797
621.030	0.0164349
621.108	0.0165063
621.186	0.0167962
621.265	0.0169441
621.343	0.0171128
621.421	0.0170491
621.499	0.0173296
621.577	0.0173240
621.655	0.0174780
621.733	0.0176502
621.811	0.0176584
621.890	0.0176109
621.968	0.0176021
622.046	0.0177312
622.124	0.0178577
622.202	0.0178125
622.280	0.0177452
622.358	0.0177179
622.436	0.0177751
622.515	0.0177971
622.593	0.0178223
622.671	0.0177934
622.749	0.0177675
622.827	0.0179339
622.905	0.0178611
622.983	0.0177604
623.061	0.0177145
623.140	0.0177415
623.218	0.0177032
623.296	0.0176202
623.374	0.0175414
623.452	0.0175029
623.530	0.0171836
623.608	0.0169061
623.686	0.0167982
623.765	0.0165353
623.843	0.0163826
623.921	0.0161163
623.999	0.0160389
624.077	0.0158034
624.155	0.0156015
624.233	0.0155457
624.311	0.0153326
624.390	0.0153361
624.468	0.0151450
624.546	0.0149548
624.624	0.0149895
624.702	0.0149258
624.780	0.0148315
624.858	0.0147835
624.936	0.0146496
625.015	0.0147076
625.093	0.0147359
625.171	0.0149259
625.249	0.0148993
625.327	0.0150040
625.405	0.0153056
625.483	0.0154326
625.561	0.0156126
625.640	0.0157629
625.718	0.0160423
625.796	0.0163120
625.874	0.0165413
625.952	0.0168970
626.030	0.0170305
626.108	0.0172734
626.186	0.0173462
626.265	0.0175694
626.343	0.0177448
626.421	0.0179846
626.499	0.0181509
626.577	0.0183438
626.655	0.0184183
626.733	0.0184411
626.811	0.0185264
626.890	0.0185272
626.968	0.0186012
627.046	0.0183987
627.124	0.0185226
627.202	0.0183325
627.280	0.0181326
627.358	0.0181590
627.436	0.0180989
627.515	0.0180741
627.593	0.0179482
627.671	0.0178422
627.749	0.0177695
627.827	0.0178252
627.905	0.0177472
627.983	0.0176969
628.061	0.0175031
628.140	0.0173930
628.218	0.0173102
628.296	0.0171743
628.374	0.0168435
628.452	0.0168332
628.530	0.0166192
628.608	0.0162007
628.686	0.0159413
628.765	0.0157682
628.843	0.0154557
628.921	0.0152479
628.999	0.0150569
629.077	0.0149415
629.155	0.0146640
629.233	0.0145357
629.311	0.0145388
629.390	0.0144881
629.468	0.0144558
629.546	0.0142384
629.624	0.0141872
629.702	0.0143944
629.780	0.0144815
629.858	0.0145397
629.936	0.0146632
630.015	0.0146891
630.093	0.0151492
630.171	0.0154135
630.249	0.0154745
630.327	0.0158800
630.405	0.0160934
630.483	0.0164244
630.561	0.0168227
630.640	0.0170677
630.718	0.0172694
630.796	0.0176571
630.874	0.0179720
630.952	0.0181635
631.030	0.0183677
631.108	0.0184173
631.186	0.0186243
631.265	0.0187777
631.343	0.0186342
631.421	0.0187066
631.499	0.0187460
631.577	0.0187392
631.655	0.0185970
631.733	0.0186147
631.811	0.0184301
631.890	0.0182910
631.968	0.0182085
632.046	0.0180036
632.124	0.0178967
632.202	0.0175088
632.280	0.0174072
632.358	0.0173454
632.436	0.0168884
632.515	0.0168496
632.593	0.0166488
632.671	0.0163358
632.749	0.0163243
632.827	0.0161030
632.905	0.0160191
632.983	0.0158185
633.061	0.0158153
633.140	0.0156659
633.218	0.0156503
633.296	0.0154967
633.374	0.0155016
633.452	0.0155186
633.530	0.0155874
633.608	0.0156615
633.686	0.0156834
633.765	0.0157944
633.843	0.0159179
633.921	0.0161983
633.999	0.0162495
634.077	0.0162708
634.155	0.0164668
634.233	0.0165443
634.311	0.0165722
634.390	0.0166730
634.468	0.0166620
634.546	0.0167635
634.624	0.0167338
634.702	0.0168093
634.780	0.0165947
634.858	0.0166489
634.936	0.0165803
635.015	0.0166747
635.093	0.0165671
635.171	0.0166053
635.249	0.0165392
635.327	0.0164657
635.405	0.0165417
635.483	0.0165730
635.561	0.0166000
635.640	0.0166844
635.718	0.0168498
635.796	0.0166628
635.874	0.0167155
635.952	0.0167498
636.030	0.0166359
636.108	0.0166318
636.186	0.0164361
636.265	0.0165067
636.343	0.0164649
636.421	0.0163313
636.499	0.0162401
636.577	0.0161109
636.655	0.0161348
636.733	0.0161339
636.811	0.0160892
636.890	0.0160892
636.968	0.0161736
637.046	0.0158479
637.124	0.0160392
637.202	0.0161426
637.280	0.0160695
637.358	0.0161601
637.436	0.0163495
637.515	0.0163783
637.593	0.0164108
637.671	0.0165934
637.749	0.0165941
637.827	0.0167299
637.905	0.0169309
637.983	0.0170444
638.061	0.0172337
638.140	0.0172222
638.218	0.0174637
638.296	0.0175627
638.374	0.0177248
638.452	0.0180391
638.530	0.0180154
638.608	0.0180367
638.686	0.0181419
638.765	0.0182006
638.843	0.0180669
638.921	0.0180192
638.999	0.0180533
639.077	0.0181049
639.155	0.0178847
639.233	0.0176270
639.311	0.0176984
639.390	0.0175040
639.468	0.0173782
639.546	0.0173441
639.624	0.0171584
639.702	0.0168841
639.780	0.0168704
639.858	0.0166981
639.936	0.0163797
640.015	0.0162924
640.093	0.0159379
640.171	0.0157506
640.249	0.0157105
640.327	0.0156139
640.405	0.0155653
640.483	0.0153152
640.561	0.0150993
640.640	0.0149438
640.718	0.0148911
640.796	0.0149316
640.874	0.0146967
640.952	0.0145866
641.030	0.0147585
641.108	0.0145798
641.186	0.0147083
641.265	0.0148907
641.343	0.0148811
641.421	0.0149211
641.499	0.0151591
641.577	0.0152722
641.655	0.0154132
641.733	0.0157297
641.811	0.0158202
641.890	0.0161234
641.968	0.0162901
642.046	0.0164410
642.124	0.0164206
642.202	0.0165509
642.280	0.0167868
642.358	0.0170194
642.436	0.0172691
642.515	0.0172551
642.593	0.0173281
642.671	0.0176382
642.749	0.0176788
642.827	0.0180052
642.905	0.0178852
642.983	0.0180235
643.061	0.0181110
643.140	0.0182980
643.218	0.0181694
643.296	0.0179834
643.374	0.0179323
643.452	0.0180256
643.530	0.0178192
643.608	0.0177124
643.686	0.0176548
643.765	0.0173995
643.843	0.0173223
643.921	0.0170122
643.999	0.0168796
644.077	0.0168135
644.155	0.0165647
644.233	0.0163704
644.311	0.0163309
644.390	0.0161131
644.468	0.0161223
644.546	0.0159925
644.624	0.0159987
644.702	0.0159470
644.780	0.0160136
644.858	0.0160226
644.936	0.0158636
645.015	0.0159414
645.093	0.0159893
645.171	0.0159772
645.249	0.0161279
645.327	0.0160323
645.405	0.0161703
645.483	0.0163262
645.561	0.0164333
645.640	0.0167085
645.718	0.0166733
645.796	0.0167782
645.874	0.0169484
645.952	0.0171117
646.030	0.0171724
646.108	0.0173505
646.186	0.0173771
646.265	0.0175671
646.343	0.0176037
646.421	0.0175765
646.499	0.0174854
646.577	0.0176970
646.655	0.0175821
646.733	0.0173331
646.811	0.0173317
646.890	0.0171741
646.968	0.0169909
647.046	0.0169162
647.124	0.0165117
647.202	0.0160921
647.280	0.0160430
647.358	0.0157615
647.436	0.0155615
647.515	0.0153524
647.593	0.0150247
647.671	0.0147232
647.749	0.0148022
647.827	0.0143828
647.905	0.0144975
647.983	0.0145796
648.061	0.0144763
648.140	0.0145130
648.218	0.0147086
648.296	0.0147060
648.374	0.0149468
648.452	0.0150900
648.530	0.0153001
648.608	0.0156047
648.686	0.0158363
648.765	0.0160477
648.843	0.0163762
648.921	0.0165775
648.999	0.0167905
649.077	0.0170502
649.155	0.0173446
649.233	0.0175793
649.311	0.0177701
649.390	0.0179227
649.468	0.0183144
649.546	0.0183751
649.624	0.0184189
649.702	0.0185340
649.780	0.0187766
649.858	0.0187769
649.936	0.0188123
650.015	0.0187531
650.093	0.0189438
650.171	0.0189533
650.249	0.0189359
650.327	0.0190158
650.405	0.0190546
650.483	0.0187878
650.561	0.0187457
650.640	0.0186944
650.718	0.0183102
650.796	0.0181299
650.874	0.0180142
650.952	0.0174882
651.030	0.0174683
651.108	0.0170570
651.186	0.0168668
651.265	0.0167708
651.343	0.0162977
651.421	0.0161858
651.499	0.0160465
651.577	0.0158591
651.655	0.0157084
651.733	0.0155087
651.811	0.0154071
651.890	0.0154077
651.968	0.0151752
652.046	0.0151838
652.124	0.0151024
652.202	0.0150987
652.280	0.0150230
652.358	0.0150123
652.436	0.0150658
652.515	0.0151660
652.593	0.0149510
652.671	0.0150298
652.749	0.0149642
652.827	0.0149781
652.905	0.0151402
652.983	0.0149968
653.061	0.0152295
653.140	0.0152028
653.218	0.0151606
653.296	0.0152625
653.374	0.0157737
653.452	0.0158105
653.530	0.0159109
653.608	0.0161589
653.686	0.0164858
653.765	0.0166615
653.843	0.0169246
653.921	0.0171006
653.999	0.0173007
654.077	0.0176066
654.155	0.0176811
654.233	0.0179762
654.311	0.0180785
654.390	0.0182638
654.468	0.0182675
654.546	0.0182246
654.624	0.0183092
654.702	0.0181660
654.780	0.0180626
654.858	0.0179168
654.936	0.0176348
655.015	0.0174618
655.093	0.0173364
655.171	0.0171071
655.249	0.0168729
655.327	0.0165136
655.405	0.0164155
655.483	0.0162929
655.561	0.0160440
655.640	0.0159154
655.718	0.0158951
655.796	0.0157711
655.874	0.0157889
655.952	0.0157327
656.030	0.0158442
656.108	0.0158333
656.186	0.0159871
656.265	0.0161615
656.343	0.0161681
656.421	0.0162289
656.499	0.0164234
656.577	0.0165605
656.655	0.0166070
656.733	0.0167973
656.811	0.0169425
656.890	0.0172280
656.968	0.0173702
657.046	0.0173661
657.124	0.0176762
657.202	0.0178041
657.280	0.0177089
657.358	0.0178197
657.436	0.0179142
657.515	0.0177375
657.593	0.0178445
657.671	0.0176075
657.749	0.0175610
657.827	0.0175797
657.905	0.0174012
657.983	0.0173128
658.061	0.0170465
658.140	0.0169559
658.218	0.0168666
658.296	0.0165755
658.374	0.0164775
658.452	0.0164443
658.530	0.0161519
658.608	0.0160151
658.686	0.0158597
658.765	0.0156346
658.843	0.0155058
658.921	0.0154594
658.999	0.0152956
659.077	0.0151408
659.155	0.0154649
659.233	0.0152499
659.311	0.0151366
659.390	0.0154372
659.468	0.0153773
659.546	0.0155852
659.624	0.0158907
659.702	0.0159045
659.780	0.0161436
659.858	0.0162937
659.936	0.0164713
660.015	0.0165417
660.093	0.0166257
660.171	0.0167860
660.249	0.0169954
660.327	0.0169950
660.405	0.0170029
660.483	0.0171998
660.561	0.0169760
660.640	0.0169188
660.718	0.0169581
660.796	0.0169981
660.874	0.0169247
660.952	0.0169311
661.030	0.0168967
661.108	0.0166982
661.186	0.0165997
661.265	0.0167278
661.343	0.0166786
661.421	0.0166066
661.499	0.0165231
661.577	0.0167244
661.655	0.0166533
661.733	0.0166634
661.811	0.0167665
661.890	0.0167900
661.968	0.0169626
662.046	0.0169729
662.124	0.0171182
662.202	0.0173280
662.280	0.0173194
662.358	0.0173351
662.436	0.0175239
662.515	0.0174969
662.593	0.0175558
662.671	0.0176377
662.749	0.0176134
662.827	0.0175573
662.905	0.0175349
662.983	0.0175977
663.061	0.0175986
663.140	0.0173449
663.218	0.0173199
663.296	0.0172253
663.374	0.0172139
663.452	0.0172632
663.530	0.0170689
663.608	0.0169204
663.686	0.0168256
663.765	0.0167278
663.843	0.0166728
663.921	0.0164067
663.999	0.0162949
664.077	0.0161203
664.155	0.0160037
664.233	0.0159473
664.311	0.0159062
664.390	0.0157316
664.468	0.0157797
664.546	0.0156718
664.624	0.0156084
664.702	0.0156422
664.780	0.0157426
664.858	0.0157339
664.936	0.0159765
665.015	0.0159166
665.093	0.0158889
665.171	0.0159208
665.249	0.0159580
665.327	0.0161723
665.405	0.0163060
665.483	0.0164363
665.561	0.0165614
665.640	0.0165199
665.718	0.0164842
665.796	0.0165100
665.874	0.0167339
665.952	0.0166468
666.030	0.0166908
666.108	0.0167898
666.186	0.0168199
666.265	0.0168192
666.343	0.0169580
666.421	0.0167895
666.499	0.0169122
666.577	0.0169733
666.655	0.0170950
666.733	0.0171232
666.811	0.0171205
666.890	0.0171524
666.968	0.0171284
667.046	0.0172713
667.124	0.0173026
667.202	0.0172803
667.280	0.0172521
667.358	0.0172260
667.436	0.0172373
667.515	0.0172321
667.593	0.0172579
667.671	0.0171149
667.749	0.0171428
667.827	0.0171035
667.905	0.0169192
667.983	0.0169014
668.061	0.0166718
668.140	0.0166456
668.218	0.0164452
668.296	0.0162991
668.374	0.0164471
668.452	0.0161426
668.530	0.0160442
668.608	0.0159109
668.686	0.0160195
668.765	0.0160402
668.843	0.0160250
668.921	0.0159953
668.999	0.0161617
669.077	0.0161825
669.155	0.0162011
669.233	0.0163531
669.311	0.0163036
669.390	0.0165166
669.468	0.0165472
669.546	0.0165501
669.624	0.0166905
669.702	0.0167900
669.780	0.0166828
669.858	0.0167426
669.936	0.0167356
670.015	0.0170374
670.093	0.0170272
670.171	0.0169801
670.249	0.0170812
670.327	0.0170678
670.405	0.0170348
670.483	0.0170593
670.561	0.0170686
670.640	0.0171139
670.718	0.0169373
670.796	0.0170942
670.874	0.0168767
670.952	0.0169785
671.030	0.0170521
671.108	0.0168632
671.186	0.0168532
671.265	0.0167858
671.343	0.0167229
671.421	0.0167094
671.499	0.0167306
671.577	0.0167651
671.655	0.0164529
671.733	0.0165102
671.811	0.0165940
671.890	0.0163971
671.968	0.0162389
672.046	0.0162024
672.124	0.0162623
672.202	0.0160012
672.280	0.0161267
672.358	0.0160555
672.436	0.0158895
672.515	0.0159021
672.593	0.0158057
672.671	0.0157195
672.749	0.0157929
672.827	0.0158549
672.905	0.0158292
672.983	0.0159367
673.061	0.0157245
673.140	0.0159374
673.218	0.0159721
673.296	0.0158531
673.374	0.0160116
673.452	0.0160870
673.530	0.0160811
673.608	0.0162175
673.686	0.0163109
673.765	0.0163152
673.843	0.0165221
673.921	0.0167412
673.999	0.0167049
674.077	0.0168477
674.155	0.0169600
674.233	0.0171900
674.311	0.0172119
674.390	0.0172926
674.468	0.0173871
674.546	0.0172910
674.624	0.0173849
674.702	0.0174731
674.780	0.0175253
674.858	0.0176439
674.936	0.0174309
675.015	0.0174812
675.093	0.0174774
675.171	0.0171336
675.249	0.0171908
675.327	0.0170996
675.405	0.0170033
675.483	0.0169826
675.561	0.0168088
675.640	0.0166759
675.718	0.0165289
675.796	0.0164780
675.874	0.0164082
675.952	0.0165004
676.030	0.0164099
676.108	0.0163595
676.186	0.0164233
676.265	0.0162399
676.343	0.0164151
676.421	0.0164735
676.499	0.0163776
676.577	0.0164238
676.655	0.0164955
676.733	0.0164254
676.811	0.0165474
676.890	0.0166127
676.968	0.0165376
677.046	0.0164952
677.124	0.0167657
677.202	0.0164911
677.280	0.0166820
677.358	0.0168221
677.436	0.0167551
677.515	0.0167419
677.593	0.0167627
677.671	0.0167977
677.749	0.0167412
677.827	0.0168373
677.905	0.0166975
677.983	0.0166458
678.061	0.0165961
678.140	0.0167796
678.218	0.0167735
678.296	0.0169492
678.374	0.0168313
678.452	0.0168383
678.530	0.0169194
678.608	0.0169035
678.686	0.0169975
678.765	0.0171870
678.843	0.0169313
678.921	0.0168746
678.999	0.0169122
679.077	0.0168111
679.155	0.0168919
679.233	0.0167252
679.311	0.0167661
679.390	0.0167758
679.468	0.0165156
679.546	0.0164509
679.624	0.0164095
679.702	0.0164194
679.780	0.0162409
679.858	0.0164207
679.936	0.0164679
680.015	0.0164493
680.093	0.0164387
680.171	0.0163145
680.249	0.0166968
680.327	0.0166396
680.405	0.0166430
680.483	0.0168112
680.561	0.0168519
680.640	0.0167842
680.718	0.0168460
680.796	0.0169772
680.874	0.0170341
680.952	0.0169810
681.030	0.0170283
681.108	0.0169669
681.186	0.0171292
681.265	0.0171922
681.343	0.0169975
681.421	0.0171503
681.499	0.0170899
681.577	0.0171038
681.655	0.0171964
681.733	0.0172501
681.811	0.0170860
681.890	0.0171153
681.968	0.0170631
682.046	0.0170496
682.124	0.0170519
682.202	0.0170639
682.280	0.0169593
682.358	0.0168492
682.436	0.0167985
682.515	0.0166976
682.593	0.0166561
682.671	0.0166281
682.749	0.0166502
682.827	0.0164051
682.905	0.0164027
682.983	0.0164221
683.061	0.0161331
683.140	0.0162962
683.218	0.0161417
683.296	0.0162670
683.374	0.0161009
683.452	0.0162218
683.530	0.0161166
683.608	0.0161163
683.686	0.0162683
683.765	0.0161339
683.843	0.0163017
683.921	0.0163236
683.999	0.0164352
684.077	0.0164454
684.155	0.0166413
684.233	0.0164907
684.311	0.0164783
684.390	0.0166536
684.468	0.0166721
684.546	0.0167141
684.624	0.0167211
684.702	0.0167781
684.780	0.0168723
684.858	0.0167870
684.936	0.0168527
685.015	0.0169943
685.093	0.0169132
685.171	0.0168536
685.249	0.0168566
685.327	0.0168642
685.405	0.0167152
685.483	0.0165500
685.561	0.0165537
685.640	0.0165712
685.718	0.0165533
685.796	0.0165383
685.874	0.0164651
685.952	0.0163995
686.030	0.0161557
686.108	0.0164272
686.186	0.0164294
686.265	0.0163322
686.343	0.0163220
686.421	0.0164438
686.499	0.0164997
686.577	0.0164693
686.655	0.0165043
686.733	0.0162486
686.811	0.0164195
686.890	0.0163375
686.968	0.0163173
687.046	0.0163901
687.124	0.0163335
687.202	0.0163409
687.280	0.0164516
687.358	0.0163403
687.436	0.0165073
687.515	0.0164759
687.593	0.0163980
687.671	0.0165264
687.749	0.0167408
687.827	0.0167493
687.905	0.0167325
687.983	0.0166975
688.061	0.0167181
688.140	0.0167899
688.218	0.0168212
688.296	0.0169958
688.374	0.0170171
688.452	0.0170084
688.530	0.0170160
688.608	0.0170485
688.686	0.0169923
688.765	0.0169759
688.843	0.0168893
688.921	0.0168485
688.999	0.0168505
689.077	0.0169164
689.155	0.0168765
689.233	0.0168691
689.311	0.0167973
689.390	0.0167747
689.468	0.0168932
689.546	0.0168414
689.624	0.0169070
689.702	0.0168993
689.780	0.0168513
689.858	0.0169009
689.936	0.0167908
690.015	0.0168380
690.093	0.0168296
690.171	0.0169154
690.249	0.0169086
690.327	0.0168784
690.405	0.0167618
690.483	0.0167671
690.561	0.0169165
690.640	0.0167394
690.718	0.0167941
690.796	0.0167554
690.874	0.0166067
690.952	0.0166205
691.030	0.0166160
691.108	0.0166212
691.186	0.0167272
691.265	0.0166660
691.343	0.0165765
691.421	0.0165149
691.499	0.0165272
691.577	0.0166111
691.655	0.0164304
691.733	0.0165237
691.811	0.0165536
691.890	0.0165366
691.968	0.0165841
692.046	0.0165054
692.124	0.0165061
692.202	0.0165810
692.280	0.0164996
692.358	0.0164846
692.436	0.0164392
692.515	0.0165302
692.593	0.0167059
692.671	0.0165975
692.749	0.0165876
692.827	0.0166029
692.905	0.0165435
692.983	0.0165536
693.061	0.0165541
693.140	0.0166380
693.218	0.0166985
693.296	0.0165529
693.374	0.0165146
693.452	0.0166219
693.530	0.0166084
693.608	0.0166289
693.686	0.0167294
693.765	0.0168745
693.843	0.0167524
693.921	0.0168307
693.999	0.0168430
694.077	0.0167918
694.155	0.0168018
694.233	0.0168082
694.311	0.0166380
694.390	0.0166941
694.468	0.0168523
694.546	0.0167220
694.624	0.0167099
694.702	0.0166238
694.780	0.0166251
694.858	0.0168053
694.936	0.0166135
695.015	0.0166270
695.093	0.0167467
695.171	0.0165643
695.249	0.0166586
695.327	0.0166345
695.405	0.0167028
695.483	0.0167636
695.561	0.0167744
695.640	0.0166144
695.718	0.0167885
695.796	0.0167265
695.874	0.0167244
695.952	0.0166988
696.030	0.0166578
696.108	0.0166106
696.186	0.0165260
696.265	0.0166520
696.343	0.0167278
696.421	0.0165231
696.499	0.0164402
696.577	0.0164372
696.655	0.0165146
696.733	0.0164741
696.811	0.0163768
696.890	0.0162691
696.968	0.0163111
697.046	0.0163761
697.124	0.0163283
697.202	0.0162499
697.280	0.0164008
697.358	0.0164861
697.436	0.0164635
697.515	0.0164767
697.593	0.0165392
697.671	0.0165950
697.749	0.0165475
697.827	0.0165487
697.905	0.0165793
697.983	0.0167306
698.061	0.0167057
698.140	0.0166869
698.218	0.0168160
698.296	0.0167027
698.374	0.0166325
698.452	0.0167247
698.530	0.0166579
698.608	0.0166499
698.686	0.0166778
698.765	0.0167397
698.843	0.0167130
698.921	0.0167845
698.999	0.0167482
699.077	0.0166952
699.155	0.0167419
699.233	0.0167108
699.311	0.0167430
699.390	0.0166792
699.468	0.0167564
699.546	0.0168053
699.624	0.0168034
699.702	0.0167301
699.780	0.0168136
699.858	0.0168893
699.936	0.0167992
700.015	0.0167013
700.093	0.0169074
700.171	0.0167939
700.249	0.0167439
700.327	0.0168327
700.405	0.0167665
700.483	0.0167072
700.561	0.0166884
700.640	0.0167770
700.718	0.0168832
700.796	0.0167460
700.874	0.0167591
700.952	0.0168964
701.030	0.0168585
701.108	0.0169731
701.186	0.0168928
701.265	0.0169924
701.343	0.0168665
701.421	0.0169151
701.499	0.0169097
701.577	0.0169339
701.655	0.0168214
701.733	0.0167896
701.811	0.0167494
701.890	0.0169490
701.968	0.0167918
702.046	0.0166271
702.124	0.0164706
702.202	0.0163857
702.280	0.0164282
702.358	0.0163447
702.436	0.0162895
702.515	0.0162840
702.593	0.0161474
702.671	0.0163433
702.749	0.0162862
702.827	0.0163557
702.905	0.0163522
702.983	0.0164166
703.061	0.0164317
703.140	0.0165354
703.218	0.0165754
703.296	0.0164851
703.374	0.0166425
703.452	0.0166494
703.530	0.0165792
703.608	0.0165940
703.686	0.0167334
703.765	0.0166912
703.843	0.0166534
703.921	0.0166963
703.999	0.0167107
704.077	0.0166824
704.155	0.0166685
704.233	0.0166082
704.311	0.0166398
704.390	0.0166738
704.468	0.0168144
704.546	0.0167759
704.624	0.0165237
704.702	0.0165337
704.780	0.0166245
704.858	0.0165659
704.936	0.0164914
705.015	0.0165010
705.093	0.0164770
705.171	0.0163879
705.249	0.0163491
705.327	0.0164076
705.405	0.0163572
705.483	0.0164470
705.561	0.0164997
705.640	0.0164868
705.718	0.0165274
705.796	0.0165843
705.874	0.0167429
705.952	0.0166815
706.030	0.0167506
706.108	0.0167210
706.186	0.0167510
706.265	0.0167917
706.343	0.0169122
706.421	0.0169286
706.499	0.0169109
706.577	0.0169538
706.655	0.0168233
706.733	0.0169460
706.811	0.0170155
706.890	0.0167690
706.968	0.0167709
707.046	0.0169092
707.124	0.0168704
707.202	0.0168092
707.280	0.0168156
707.358	0.0168060
707.436	0.0167393
707.515	0.0167922
707.593	0.0167905
707.671	0.0167724
707.749	0.0166109
707.827	0.0167659
707.905	0.0168436
707.983	0.0167090
708.061	0.0166624
708.140	0.0166641
708.218	0.0167563
708.296	0.0166422
708.374	0.0166488
708.452	0.0167289
708.530	0.0166841
708.608	0.0168270
708.686	0.0168288
708.765	0.0167850
708.843	0.0168846
708.921	0.0168117
708.999	0.0168337
709.077	0.0167921
709.155	0.0167191
709.233	0.0167533
709.311	0.0167811
709.390	0.0167348
709.468	0.0166909
709.546	0.0165920
709.624	0.0165790
709.702	0.0166199
709.780	0.0166137
709.858	0.0164790
709.936	0.0164056
710.015	0.0165392
710.093	0.0166341
710.171	0.0165405
710.249	0.0164523
710.327	0.0165201
710.405	0.0166367
710.483	0.0166380
710.561	0.0166768
710.640	0.0165707
710.718	0.0164330
710.796	0.0165385
710.874	0.0166989
710.952	0.0165538
711.030	0.0167102
711.108	0.0167385
711.186	0.0166133
711.265	0.0166019
711.343	0.0167715
711.421	0.0167435
711.499	0.0167656
711.577	0.0168501
711.655	0.0167757
711.733	0.0167841
711.811	0.0166260
711.890	0.0167385
711.968	0.0166293
712.046	0.0164513
712.124	0.0165738
712.202	0.0165698
712.280	0.0166792
712.358	0.0166058
712.436	0.0166129
712.515	0.0166832
712.593	0.0167505
712.671	0.0166566
712.749	0.0165616
712.827	0.0166456
712.905	0.0167027
712.983	0.0165743
713.061	0.0165981
713.140	0.0167005
713.218	0.0167183
713.296	0.0166466
713.374	0.0166205
713.452	0.0166599
713.530	0.0166405
713.608	0.0167749
713.686	0.0166600
713.765	0.0166528
713.843	0.0165918
713.921	0.0165536
713.999	0.0166042
714.077	0.0166251
714.155	0.0164573
714.233	0.0165009
714.311	0.0165549
714.390	0.0164502
714.468	0.0164765
714.546	0.0163823
714.624	0.0164627
714.702	0.0165070
714.780	0.0165495
714.858	0.0164382
714.936	0.0164442
715.015	0.0164805
715.093	0.0165067
715.171	0.0165218
715.249	0.0167577
715.327	0.0167648
715.405	0.0165775
715.483	0.0167805
715.561	0.0167487
715.640	0.0168849
715.718	0.0168258
715.796	0.0168742
715.874	0.0168678
715.952	0.0168394
716.030	0.0168081
716.108	0.0168485
716.186	0.0167725
716.265	0.0166741
716.343	0.0167146
716.421	0.0165459
716.499	0.0166045
716.577	0.0165885
716.655	0.0164851
716.733	0.0166442
716.811	0.0164845
716.890	0.0165704
716.968	0.0166035
717.046	0.0164720
717.124	0.0163264
717.202	0.0163908
717.280	0.0164985
717.358	0.0165478
717.436	0.0164793
717.515	0.0164982
717.593	0.0165326
717.671	0.0166701
717.749	0.0165887
717.827	0.0165987
717.905	0.0166423
717.983	0.0168193
718.061	0.0166647
718.140	0.0166320
718.218	0.0167868
718.296	0.0167712
718.374	0.0169546
718.452	0.0168413
718.530	0.0168521
718.608	0.0168298
718.686	0.0168069
718.765	0.0169183
718.843	0.0167625
718.921	0.0168140
718.999	0.0167408
719.077	0.0169043
719.155	0.0167941
719.233	0.0168378
719.311	0.0169143
719.390	0.0168001
719.468	0.0167143
719.546	0.0167103
719.624	0.0168682
719.702	0.0167495
719.780	0.0166206
719.858	0.0166513
719.936	0.0167102
720.015	0.0167521
720.093	0.0166779
720.171	0.0166515
720.249	0.0166399
720.327	0.0166833
720.405	0.0164886
720.483	0.0165011
720.561	0.0164497
720.640	0.0164407
720.718	0.0166214
720.796	0.0165659
720.874	0.0164550
720.952	0.0163229
721.030	0.0164523
721.108	0.0164662
721.186	0.0164779
721.265	0.0164603
721.343	0.0165359
721.421	0.0165522
721.499	0.0164272
721.577	0.0163946
721.655	0.0163333
721.733	0.0164651
721.811	0.0164809
721.890	0.0164354
721.968	0.0165787
722.046	0.0165554
722.124	0.0164571
722.202	0.0163506
722.280	0.0165076
722.358	0.0164777
722.436	0.0164752
722.515	0.0165988
722.593	0.0165137
722.671	0.0165273
722.749	0.0165625
722.827	0.0168207
722.905	0.0166603
722.983	0.0167667
723.061	0.0168804
723.140	0.0167760
723.218	0.0169122
723.296	0.0169497
723.374	0.0170954
723.452	0.0170848
723.530	0.0171261
723.608	0.0169788
723.686	0.0169209
723.765	0.0170731
723.843	0.0171859
723.921	0.0171344
723.999	0.0170428
724.077	0.0170286
724.155	0.0169796
724.233	0.0169392
724.311	0.0170551
724.390	0.0168410
724.468	0.0167369
724.546	0.0167667
724.624	0.0167851
724.702	0.0167915
724.780	0.0168404
724.858	0.0166795
724.936	0.0166048
725.015	0.0164655
725.093	0.0164865
725.171	0.0163617
725.249	0.0164059
725.327	0.0164234
725.405	0.0163431
725.483	0.0163268
725.561	0.0163195
725.640	0.0164194
725.718	0.0163232
725.796	0.0163598
725.874	0.0163396
725.952	0.0162556
726.030	0.0163184
726.108	0.0162868
726.186	0.0163055
726.265	0.0163312
726.343	0.0162515
726.421	0.0163771
726.499	0.0164735
726.577	0.0164006
726.655	0.0163850
726.733	0.0162626
726.811	0.0164336
726.890	0.0163305
726.968	0.0163448
727.046	0.0162768
727.124	0.0162699
727.202	0.0163250
727.280	0.0164368
727.358	0.0162849
727.436	0.0163193
727.515	0.0163618
727.593	0.0163928
727.671	0.0162797
727.749	0.0163514
727.827	0.0165765
727.905	0.0164939
727.983	0.0165621
728.061	0.0167202
728.140	0.0167252
728.218	0.0167882
728.296	0.0166909
728.374	0.0167686
728.452	0.0168085
728.530	0.0168837
728.608	0.0169481
728.686	0.0168971
728.765	0.0168836
728.843	0.0171172
728.921	0.0170329
728.999	0.0170406
729.077	0.0169572
729.155	0.0171089
729.233	0.0171217
729.311	0.0170414
729.390	0.0169032
729.468	0.0169298
729.546	0.0169620
729.624	0.0169741
729.702	0.0168281
729.780	0.0166408
729.858	0.0166801
729.936	0.0167129
730.015	0.0166562
730.093	0.0164570
730.171	0.0164695
730.249	0.0164649
730.327	0.0165363
730.405	0.0166049
730.483	0.0165411
730.561	0.0165316
730.640	0.0166209
730.718	0.0167061
730.796	0.0166862
730.874	0.0166817
730.952	0.0167117
731.030	0.0168583
731.108	0.0167448
731.186	0.0166436
731.265	0.0169305
731.343	0.0168211
731.421	0.0169849
731.499	0.0168224
731.577	0.0169279
731.655	0.0168864
731.733	0.0168375
731.811	0.0167998
731.890	0.0167961
731.968	0.0168661
732.046	0.0167386
732.124	0.0166899
732.202	0.0165257
732.280	0.0165969
732.358	0.0165897
732.436	0.0165798
732.515	0.0163831
732.593	0.0164323
732.671	0.0164325
732.749	0.0163579
732.827	0.0164583
732.905	0.0164304
732.983	0.0163479
733.061	0.0163792
733.140	0.0162390
733.218	0.0161905
733.296	0.0162823
733.374	0.0164013
733.452	0.0164751
733.530	0.0164566
733.608	0.0163625
733.686	0.0165160
733.765	0.0164343
733.843	0.0165730
733.921	0.0167188
733.999	0.0166431
734.077	0.0166952
734.155	0.0167764
734.233	0.0167316
734.311	0.0168806
734.390	0.0168426
734.468	0.0167486
734.546	0.0169970
734.624	0.0168922
734.702	0.0168877
734.780	0.0169972
734.858	0.0169950
734.936	0.0169456
735.015	0.0170019
735.093	0.0170289
735.171	0.0167392
735.249	0.0167757
735.327	0.0169161
735.405	0.0170483
735.483	0.0168263
735.561	0.0168999
735.640	0.0169289
735.718	0.0169285
735.796	0.0168075
735.874	0.0168915
735.952	0.0168344
736.030	0.0166142
736.108	0.0166670
736.186	0.0169938
736.265	0.0167123
736.343	0.0167104
736.421	0.0168833
736.499	0.0168152
736.577	0.0168241
736.655	0.0168090
736.733	0.0166236
736.811	0.0168113
736.890	0.0167446
736.968	0.0164715
737.046	0.0165528
737.124	0.0165247
737.202	0.0165073
737.280	0.0164030
737.358	0.0164140
737.436	0.0164140
737.515	0.0162905
737.593	0.0162725
737.671	0.0162440
737.749	0.0161617
737.827	0.0162735
737.905	0.0162609
737.983	0.0162364
738.061	0.0163467
738.140	0.0162972
738.218	0.0162259
738.296	0.0163489
738.374	0.0164567
738.452	0.0163877
738.530	0.0163847
738.608	0.0163937
738.686	0.0163618
738.765	0.0165474
738.843	0.0166094
738.921	0.0166174
738.999	0.0166570
739.077	0.0167434
739.155	0.0167286
739.233	0.0167828
739.311	0.0169198
739.390	0.0168038
739.468	0.0168665
739.546	0.0170161
739.624	0.0170081
739.702	0.0168425
739.780	0.0168517
739.858	0.0169618
739.936	0.0168444
740.015	0.0167593
740.093	0.0168595
740.171	0.0168126
740.249	0.0168993
740.327	0.0168489
740.405	0.0168039
740.483	0.0167838
740.561	0.0166617
740.640	0.0166494
740.718	0.0165998
740.796	0.0165600
740.874	0.0165433
740.952	0.0164185
741.030	0.0165364
741.108	0.0165797
741.186	0.0166064
741.265	0.0164832
741.343	0.0164974
741.421	0.0163497
741.499	0.0163280
741.577	0.0165145
741.655	0.0164081
741.733	0.0164977
741.811	0.0163757
741.890	0.0164130
741.968	0.0164938
742.046	0.0163342
742.124	0.0164218
742.202	0.0165259
742.280	0.0164424
742.358	0.0162858
742.436	0.0163315
742.515	0.0163201
742.593	0.0162827
742.671	0.0163771
742.749	0.0164027
742.827	0.0163970
742.905	0.0162447
742.983	0.0162941
743.061	0.0164445
743.140	0.0165256
743.218	0.0166658
743.296	0.0165633
743.374	0.0165318
743.452	0.0166695
743.530	0.0165946
743.608	0.0167531
743.686	0.0167568
743.765	0.0168084
743.843	0.0167666
743.921	0.0168358
743.999	0.0168836
744.077	0.0168336
744.155	0.0168906
744.233	0.0167706
744.311	0.0168729
744.390	0.0167637
744.468	0.0166339
744.546	0.0166782
744.624	0.0166997
744.702	0.0167712
744.780	0.0167571
744.858	0.0167925
744.936	0.0166859
745.015	0.0167347
745.093	0.0167551
745.171	0.0168189
745.249	0.0167132
745.327	0.0165848
745.405	0.0166888
745.483	0.0166459
745.561	0.0167219
745.640	0.0168084
745.718	0.0167334
745.796	0.0168562
745.874	0.0167937
745.952	0.0167562
746.030	0.0167756
746.108	0.0169027
746.186	0.0169903
746.265	0.0168639
746.343	0.0170949
746.421	0.0170710
746.499	0.0170145
746.577	0.0169096
746.655	0.0169849
746.733	0.0170837
746.811	0.0169520
746.890	0.0168186
746.968	0.0169673
747.046	0.0168188
747.124	0.0169266
747.202	0.0169295
747.280	0.0169843
747.358	0.0168907
747.436	0.0168140
747.515	0.0167249
747.593	0.0168159
747.671	0.0167654
747.749	0.0167860
747.827	0.0168141
747.905	0.0165270
747.983	0.0164548
748.061	0.0165210
748.140	0.0166750
748.218	0.0164724
748.296	0.0162666
748.374	0.0165166
748.452	0.0165312
748.530	0.0165182
748.608	0.0164540
748.686	0.0163512
748.765	0.0164761
748.843	0.0164711
748.921	0.0164561
748.999	0.0165099
749.077	0.0163411
749.155	0.0164186
749.233	0.0166142
749.311	0.0164695
749.390	0.0164423
749.468	0.0164494
749.546	0.0164986
749.624	0.0163316
749.702	0.0164869
749.780	0.0165971
749.858	0.0165257
749.936	0.0165383
750.015	0.0165755
750.093	0.0166232
750.171	0.0164137
750.249	0.0164089
750.327	0.0165607
750.405	0.0165678
750.483	0.0165823
750.561	0.0164742
750.640	0.0167278
750.718	0.0166518
750.796	0.0166711
750.874	0.0166342
750.952	0.0167827
751.030	0.0166904
751.108	0.0167269
751.186	0.0167947
751.265	0.0167485
751.343	0.0167023
751.421	0.0166689
751.499	0.0167740
751.577	0.0168257
751.655	0.0167843
751.733	0.0166176
751.811	0.0167532
751.890	0.0167313
751.968	0.0167648
752.046	0.0167233
752.124	0.0166099
752.202	0.0167110
752.280	0.0166656
752.358	0.0167361
752.436	0.0167271
752.515	0.0167326
752.593	0.0166238
752.671	0.0166883
752.749	0.0168574
752.827	0.0166526
752.905	0.0166444
752.983	0.0167090
753.061	0.0167017
753.140	0.0167467
753.218	0.0167787
753.296	0.0166647
753.374	0.0166298
753.452	0.0167236
753.530	0.0167151
753.608	0.0166653
753.686	0.0167952
753.765	0.0167608
753.843	0.0166137
753.921	0.0166246
753.999	0.0166658
754.077	0.0166935
754.155	0.0166256
754.233	0.0166327
754.311	0.0167222
754.390	0.0167587
754.468	0.0167081
754.546	0.0165627
754.624	0.0165829
754.702	0.0166361
754.780	0.0166819
754.858	0.0166223
754.936	0.0167404
755.015	0.0164314
755.093	0.0165519
755.171	0.0165750
755.249	0.0165688
755.327	0.0166113
755.405	0.0165858
755.483	0.0164519
755.561	0.0164633
755.640	0.0166274
755.718	0.0164928
755.796	0.0165221
755.874	0.0163325
755.952	0.0165226
756.030	0.0164277
756.108	0.0163990
756.186	0.0165210
756.265	0.0166228
756.343	0.0163526
756.421	0.0165041
756.499	0.0165513
756.577	0.0164417
756.655	0.0164725
756.733	0.0164263
756.811	0.0164683
756.890	0.0165403
756.968	0.0164049
757.046	0.0165550
757.124	0.0165212
757.202	0.0165190
757.280	0.0163930
757.358	0.0163167
757.436	0.0165569
757.515	0.0164613
757.593	0.0163814
757.671	0.0164555
757.749	0.0164088
757.827	0.0164848
757.905	0.0165399
757.983	0.0163401
758.061	0.0164631
758.140	0.0163955
758.218	0.0163877
758.296	0.0163744
758.374	0.0164635
758.452	0.0166640
758.530	0.0165636
758.608	0.0164507
758.686	0.0164572
758.765	0.0164588
758.843	0.0164893
758.921	0.0166523
758.999	0.0166651
759.077	0.0166635
759.155	0.0166602
759.233	0.0165230
759.311	0.0165636
759.390	0.0165737
759.468	0.0166534
759.546	0.0166579
759.624	0.0166900
759.702	0.0165662
759.780	0.0166505
759.858	0.0165269
759.936	0.0166692
760.015	0.0166024
760.093	0.0167083
760.171	0.0165637
760.249	0.0167026
760.327	0.0167982
760.405	0.0167519
760.483	0.0167472
760.561	0.0166090
760.640	0.0166750
760.718	0.0168140
760.796	0.0167516
760.874	0.0167084
760.952	0.0167641
761.030	0.0169344
761.108	0.0168546
761.186	0.0167764
761.265	0.0167365
761.343	0.0167879
761.421	0.0167065
761.499	0.0167585
761.577	0.0166782
761.655	0.0166880
761.733	0.0166349
761.811	0.0166393
761.890	0.0166604
761.968	0.0165746
762.046	0.0165459
762.124	0.0164625
762.202	0.0164628
762.280	0.0164021
762.358	0.0165736
762.436	0.0165080
762.515	0.0164990
762.593	0.0165396
762.671	0.0164699
762.749	0.0164542
762.827	0.0164771
762.905	0.0164871
762.983	0.0164733
763.061	0.0165641
763.140	0.0164507
763.218	0.0163229
763.296	0.0165092
763.374	0.0165558
763.452	0.0165269
763.530	0.0164922
763.608	0.0165363
763.686	0.0165535
763.765	0.0167234
763.843	0.0166949
763.921	0.0166948
763.999	0.0166890
764.077	0.0166457
764.155	0.0166914
764.233	0.0167269
764.311	0.0166858
764.390	0.0166586
764.468	0.0165902
764.546	0.0167130
764.624	0.0167468
764.702	0.0167591
764.780	0.0166510
764.858	0.0166111
764.936	0.0166562
765.015	0.0166734
765.093	0.0166317
765.171	0.0167349
765.249	0.0166850
765.327	0.0166106
765.405	0.0166890
765.483	0.0165778
765.561	0.0166523
765.640	0.0167368
765.718	0.0166550
765.796	0.0166868
765.874	0.0167934
765.952	0.0167126
766.030	0.0167091
766.108	0.0165955
766.186	0.0167120
766.265	0.0167126
766.343	0.0166829
766.421	0.0166954
766.499	0.0167987
766.577	0.0168689
766.655	0.0168278
766.733	0.0169304
766.811	0.0169491
766.890	0.0168684
766.968	0.0167858
767.046	0.0167493
767.124	0.0168142
767.202	0.0168355
767.280	0.0166991
767.358	0.0166802
767.436	0.0168697
767.515	0.0167597
767.593	0.0167126
767.671	0.0167522
767.749	0.0167191
767.827	0.0167119
767.905	0.0166357
767.983	0.0167502
768.061	0.0165369
768.140	0.0166854
768.218	0.0166416
768.296	0.0165192
768.374	0.0165310
768.452	0.0166547
768.530	0.0166171
768.608	0.0167165
768.686	0.0166721
768.765	0.0167047
768.843	0.0167865
768.921	0.0167300
768.999	0.0168330
769.077	0.0167423
769.155	0.0166830
769.233	0.0167738
769.311	0.0165897
769.390	0.0168289
769.468	0.0167170
769.546	0.0168618
769.624	0.0167365
769.702	0.0168849
769.780	0.0168424
769.858	0.0167201
769.936	0.0167733
770.015	0.0166093
770.093	0.0167854
770.171	0.0168452
770.249	0.0167103
770.327	0.0168014
770.405	0.0167104
770.483	0.0167068
770.561	0.0166685
770.640	0.0167967
770.718	0.0166454
770.796	0.0166039
770.874	0.0166420
770.952	0.0165889
771.030	0.0165129
771.108	0.0166504
771.186	0.0165912
771.265	0.0165054
771.343	0.0167536
771.421	0.0165645
771.499	0.0165851
771.577	0.0165910
771.655	0.0165601
771.733	0.0166370
771.811	0.0166518
771.890	0.0165050
771.968	0.0164395
772.046	0.0166538
772.124	0.0165102
772.202	0.0164951
772.280	0.0165221
772.358	0.0165606
772.436	0.0166028
772.515	0.0165210
772.593	0.0165166
772.671	0.0166244
772.749	0.0165186
772.827	0.0165425
772.905	0.0165532
772.983	0.0165569
773.061	0.0166482
773.140	0.0166413
773.218	0.0165791
773.296	0.0166576
773.374	0.0165065
773.452	0.0165423
773.530	0.0166715
773.608	0.0165597
773.686	0.0166850
773.765	0.0167181
773.843	0.0167643
773.921	0.0166348
773.999	0.0166530
774.077	0.0166566
774.155	0.0167417
774.233	0.0167751
774.311	0.0165812
774.390	0.0167329
774.468	0.0167516
774.546	0.0167360
774.624	0.0169118
774.702	0.0168501
774.780	0.0166096
774.858	0.0168063
774.936	0.0167724
775.015	0.0167768
775.093	0.0168473
775.171	0.0168581
775.249	0.0168598
775.327	0.0168990
775.405	0.0167054
775.483	0.0167767
775.561	0.0168869
775.640	0.0169225
775.718	0.0168732
775.796	0.0168265
775.874	0.0168382
775.952	0.0169246
776.030	0.0169064
776.108	0.0166917
776.186	0.0168169
776.265	0.0168394
776.343	0.0167862
776.421	0.0167607
776.499	0.0168106
776.577	0.0168083
776.655	0.0167924
776.733	0.0167074
776.811	0.0169140
776.890	0.0167688
776.968	0.0166872
777.046	0.0167398
777.124	0.0166912
777.202	0.0167319
777.280	0.0168485
777.358	0.0166304
777.436	0.0166529
777.515	0.0167650
777.593	0.0167245
777.671	0.0166536
777.749	0.0166764
777.827	0.0166626
777.905	0.0165859
777.983	0.0165757
778.061	0.0166418
778.140	0.0166871
778.218	0.0166043
778.296	0.0165385
778.374	0.0164596
778.452	0.0164268
778.530	0.0164523
778.608	0.0164693
778.686	0.0163778
778.765	0.0165121
778.843	0.0163576
778.921	0.0162886
778.999	0.0163646
779.077	0.0163634
779.155	0.0163782
779.233	0.0163086
779.311	0.0162879
779.390	0.0163492
779.468	0.0163222
779.546	0.0163335
779.624	0.0163754
779.702	0.0164278
779.780	0.0163925
779.858	0.0165527
779.936	0.0165565
780.015	0.0164375
780.093	0.0165415
780.171	0.0166489
780.249	0.0165650
780.327	0.0166492
780.405	0.0168108
780.483	0.0169473
780.561	0.0167115
780.640	0.0167860
780.718	0.0169360
780.796	0.0168784
780.874	0.0167648
780.952	0.0167247
781.030	0.0167535
781.108	0.0168465
781.186	0.0168832
781.265	0.0168777
781.343	0.0168449
781.421	0.0169389
781.499	0.0169350
781.577	0.0167801
781.655	0.0167935
781.733	0.0168331
781.811	0.0167284
781.890	0.0167933
781.968	0.0167769
782.046	0.0165309
782.124	0.0165636
782.202	0.0166374
782.280	0.0167783
782.358	0.0166376
782.436	0.0167091
782.515	0.0167585
782.593	0.0165472
782.671	0.0166107
782.749	0.0166032
782.827	0.0166044
782.905	0.0165543
782.983	0.0166183
783.061	0.0166034
783.140	0.0164627
783.218	0.0164175
783.296	0.0165305
783.374	0.0165818
783.452	0.0166571
783.530	0.0166219
783.608	0.0165558
783.686	0.0164037
783.765	0.0165077
783.843	0.0164956
783.921	0.0164795
783.999	0.0164629
784.077	0.0164623
784.155	0.0166460
784.233	0.0165536
784.311	0.0164877
784.390	0.0166124
784.468	0.0165824
784.546	0.0165259
784.624	0.0164922
784.702	0.0164678
784.780	0.0165250
784.858	0.0165384
784.936	0.0166149
785.015	0.0166705
785.093	0.0166633
785.171	0.0165591
785.249	0.0165923
785.327	0.0165586
785.405	0.0166078
785.483	0.0165023
785.561	0.0166161
785.640	0.0165510
785.718	0.0165558
785.796	0.0165514
785.874	0.0166284
785.952	0.0166231
786.030	0.0166192
786.108	0.0166661
786.186	0.0165346
786.265	0.0164439
786.343	0.0164706
786.421	0.0166584
786.499	0.0165096
786.577	0.0166565
786.655	0.0165082
786.733	0.0166740
786.811	0.0165762
786.890	0.0167033
786.968	0.0166891
787.046	0.0166212
787.124	0.0165591
787.202	0.0166586
787.280	0.0168043
787.358	0.0166935
787.436	0.0167004
787.515	0.0166948
787.593	0.0167038
787.671	0.0167047
787.749	0.0166564
787.827	0.0167197
787.905	0.0166500
787.983	0.0168065
788.061	0.0167081
788.140	0.0165437
788.218	0.0166953
788.296	0.0168648
788.374	0.0165208
788.452	0.0165814
788.530	0.0166801
788.608	0.0165646
788.686	0.0166891
788.765	0.0166928
788.843	0.0166364
788.921	0.0166739
788.999	0.0166683
789.077	0.0167755
789.155	0.0165913
789.233	0.0167004
789.311	0.0167631
789.390	0.0167834
789.468	0.0166154
789.546	0.0166932
789.624	0.0167450
789.702	0.0166033
789.780	0.0165366
789.858	0.0166338
789.936	0.0166117
790.015	0.0166891
790.093	0.0166070
790.171	0.0165498
790.249	0.0165522
790.327	0.0167825
790.405	0.0166837
790.483	0.0165711
790.561	0.0166574
790.640	0.0165939
790.718	0.0164873
790.796	0.0166486
790.874	0.0166581
790.952	0.0167009
791.030	0.0166838
791.108	0.0166003
791.186	0.0167238
791.265	0.0167426
791.343	0.0166772
791.421	0.0166960
791.499	0.0166528
791.577	0.0167671
791.655	0.0167417
791.733	0.0167484
791.811	0.0167329
791.890	0.0167798
791.968	0.0168317
792.046	0.0167676
792.124	0.0168082
792.202	0.0168456
792.280	0.0168133
792.358	0.0167820
792.436	0.0167521
792.515	0.0169127
792.593	0.0168034
792.671	0.0168616
792.749	0.0168604
792.827	0.0170280
792.905	0.0168997
792.983	0.0168187
793.061	0.0168547
793.140	0.0169966
793.218	0.0169797
793.296	0.0167738
793.374	0.0168517
793.452	0.0168162
793.530	0.0168473
793.608	0.0168123
793.686	0.0167434
793.765	0.0167654
793.843	0.0168558
793.921	0.0169251
793.999	0.0167351
794.077	0.0167117
794.155	0.0167471
794.233	0.0168704
794.311	0.0168127
794.390	0.0167284
794.468	0.0168299
794.546	0.0168349
794.624	0.0167951
794.702	0.0167871
794.780	0.0167271
794.858	0.0166192
794.936	0.0169514
795.015	0.0169853
795.093	0.0167923
795.171	0.0168707
795.249	0.0168197
795.327	0.0167223
795.405	0.0168114
795.483	0.0168349
795.561	0.0167982
795.640	0.0169152
795.718	0.0167710
795.796	0.0167725
795.874	0.0167585
795.952	0.0167654
796.030	0.0168304
796.108	0.0168867
796.186	0.0167633
796.265	0.0169054
796.343	0.0166762
796.421	0.0168674
796.499	0.0168889
796.577	0.0167170
796.655	0.0168136
796.733	0.0169666
796.811	0.0168625
796.890	0.0166698
796.968	0.0166525
797.046	0.0167976
797.124	0.0166879
797.202	0.0167760
797.280	0.0168028
797.358	0.0168022
797.436	0.0166341
797.515	0.0166049
797.593	0.0166754
797.671	0.0167401
797.749	0.0166673
797.827	0.0166247
797.905	0.0167750
797.983	0.0165906
798.061	0.0166703
798.140	0.0164454
798.218	0.0165665
798.296	0.0166032
798.374	0.0165417
798.452	0.0164889
798.530	0.0165091
798.608	0.0165302
798.686	0.0165734
798.765	0.0165650
798.843	0.0165966
798.921	0.0165585
798.999	0.0166801
799.077	0.0165768
799.155	0.0166319
799.233	0.0166196
799.311	0.0165800
799.390	0.0167403
799.468	0.0165369
799.546	0.0166000
799.624	0.0166122
799.702	0.0165779
799.780	0.0166766
799.858	0.0165470
799.936	0.0166265
800.015	0.0166206
800.093	0.0164543
800.171	0.0165358
800.249	0.0165850
800.327	0.0164652
800.405	0.0164652
800.483	0.0165171
800.561	0.0163988
800.640	0.0163899
800.718	0.0163704
800.796	0.0164561
800.874	0.0164659
800.952	0.0163088
801.030	0.0164654
801.108	0.0166100
801.186	0.0165137
801.265	0.0165862
801.343	0.0164980
801.421	0.0166207
801.499	0.0165885
801.577	0.0166323
801.655	0.0167388
801.733	0.0165199
801.811	0.0165338
801.890	0.0165811
801.968	0.0166528
802.046	0.0167133
802.124	0.0166779
802.202	0.0165156
802.280	0.0165510
802.358	0.0165781
802.436	0.0165395
802.515	0.0166570
802.593	0.0165084
802.671	0.0165523
802.749	0.0164242
802.827	0.0164663
802.905	0.0164969
802.983	0.0165838
803.061	0.0165435
803.140	0.0164735
803.218	0.0165282
803.296	0.0165449
803.374	0.0165857
803.452	0.0166913
803.530	0.0165363
803.608	0.0166408
803.686	0.0166235
803.765	0.0166180
803.843	0.0166140
803.921	0.0167015
803.999	0.0166139
804.077	0.0167397
804.155	0.0167391
804.233	0.0168577
804.311	0.0166929
804.390	0.0167184
804.468	0.0167023
804.546	0.0166532
804.624	0.0166893
804.702	0.0167181
804.780	0.0167816
804.858	0.0167976
804.936	0.0167397
805.015	0.0166689
805.093	0.0166900
805.171	0.0166573
805.249	0.0167098
805.327	0.0167418
805.405	0.0165709
805.483	0.0166784
805.561	0.0166496
805.640	0.0164937
805.718	0.0166364
805.796	0.0166177
805.874	0.0165690
805.952	0.0165881
806.030	0.0165311
806.108	0.0164943
806.186	0.0165166
806.265	0.0164693
806.343	0.0163960
806.421	0.0163939
806.499	0.0165009
806.577	0.0164544
806.655	0.0165005
806.733	0.0163882
806.811	0.0164982
806.890	0.0165331
806.968	0.0165411
807.046	0.0164936
807.124	0.0164288
807.202	0.0165546
807.280	0.0162687
807.358	0.0164141
807.436	0.0165201
807.515	0.0164301
807.593	0.0163741
807.671	0.0165543
807.749	0.0164634
807.827	0.0165445
807.905	0.0165026
807.983	0.0164351
808.061	0.0165278
808.140	0.0166250
808.218	0.0165143
808.296	0.0163898
808.374	0.0164485
808.452	0.0165932
808.530	0.0165587
808.608	0.0167030
808.686	0.0166496
808.765	0.0166792
808.843	0.0166329
808.921	0.0165442
808.999	0.0166647
809.077	0.0166386
809.155	0.0167316
809.233	0.0167430
809.311	0.0166418
809.390	0.0168240
809.468	0.0168040
809.546	0.0167282
809.624	0.0168961
809.702	0.0168294
809.780	0.0167927
809.858	0.0167720
809.936	0.0168191
810.015	0.0168356
810.093	0.0169270
810.171	0.0169065
810.249	0.0166868
810.327	0.0168891
810.405	0.0169797
810.483	0.0168188
810.561	0.0166813
810.640	0.0166720
810.718	0.0166827
810.796	0.0167293
810.874	0.0166884
810.952	0.0167631
811.030	0.0166631
811.108	0.0165703
811.186	0.0165925
811.265	0.0165546
811.343	0.0165538
811.421	0.0166511
811.499	0.0167294
811.577	0.0166123
811.655	0.0165543
811.733	0.0166199
811.811	0.0166710
811.890	0.0166537
811.968	0.0167277
812.046	0.0167493
812.124	0.0167791
812.202	0.0167971
812.280	0.0167240
812.358	0.0167875
812.436	0.0167810
812.515	0.0167989
812.593	0.0168656
812.671	0.0169300
812.749	0.0167880
812.827	0.0168472
812.905	0.0168427
812.983	0.0168637
813.061	0.0167919
813.140	0.0169501
813.218	0.0166345
813.296	0.0167300
813.374	0.0167345
813.452	0.0168002
813.530	0.0167587
813.608	0.0167842
813.686	0.0167088
813.765	0.0167332
813.843	0.0167188
813.921	0.0168626
813.999	0.0167665
814.077	0.0167105
814.155	0.0167818
814.233	0.0167886
814.311	0.0166299
814.390	0.0167883
814.468	0.0168523
814.546	0.0169172
814.624	0.0167663
814.702	0.0167516
814.780	0.0167840
814.858	0.0168690
814.936	0.0167631
815.015	0.0168336
815.093	0.0167232
815.171	0.0167411
815.249	0.0167375
815.327	0.0166556
815.405	0.0168029
815.483	0.0165027
815.561	0.0165240
815.640	0.0165985
815.718	0.0166222
815.796	0.0166163
815.874	0.0164178
815.952	0.0164970
816.030	0.0164679
816.108	0.0163456
816.186	0.0164085
816.265	0.0164400
816.343	0.0163335
816.421	0.0164198
816.499	0.0163789
816.577	0.0165037
816.655	0.0166066
816.733	0.0164278
816.811	0.0165366
816.890	0.0165397
816.968	0.0164041
817.046	0.0164378
817.124	0.0165581
817.202	0.0165643
817.280	0.0165893
817.358	0.0166356
817.436	0.0166241
817.515	0.0165141
817.593	0.0166687
817.671	0.0165633
817.749	0.0166296
817.827	0.0166601
817.905	0.0165704
817.983	0.0167744
818.061	0.0166557
818.140	0.0166241
818.218	0.0166252
818.296	0.0167698
818.374	0.0167683
818.452	0.0165689
818.530	0.0166157
818.608	0.0166074
818.686	0.0166446
818.765	0.0166275
818.843	0.0166908
818.921	0.0166270
818.999	0.0165524
819.077	0.0166143
819.155	0.0165256
819.233	0.0166388
819.311	0.0166808
819.390	0.0167353
819.468	0.0165839
819.546	0.0166530
819.624	0.0167906
819.702	0.0167491
819.780	0.0167289
819.858	0.0166449
819.936	0.0166214
820.015	0.0167088
820.093	0.0167406
820.171	0.0167677
820.249	0.0167033
820.327	0.0167114
820.405	0.0167019
820.483	0.0165865
820.561	0.0165079
820.640	0.0166553
820.718	0.0165726
820.796	0.0165701
820.874	0.0165784
820.952	0.0164912
821.030	0.0164986
821.108	0.0166449
821.186	0.0165675
821.265	0.0164319
821.343	0.0164793
821.421	0.0165162
821.499	0.0165948
821.577	0.0164198
821.655	0.0164873
821.733	0.0165576
821.811	0.0166376
821.890	0.0166026
821.968	0.0166624
822.046	0.0165627
822.124	0.0167464
822.202	0.0167988
822.280	0.0167082
822.358	0.0166464
822.436	0.0168083
822.515	0.0167272
822.593	0.0166660
822.671	0.0167147
822.749	0.0166879
822.827	0.0167479
822.905	0.0166711
822.983	0.0166898
823.061	0.0167432
823.140	0.0166154
823.218	0.0167231
823.296	0.0166715
823.374	0.0165984
823.452	0.0165206
823.530	0.0163904
823.608	0.0165242
823.686	0.0164896
823.765	0.0164159
823.843	0.0163724
823.921	0.0164489
823.999	0.0164535
824.077	0.0163530
824.155	0.0164829
824.233	0.0166195
824.311	0.0164926
824.390	0.0164514
824.468	0.0165781
824.546	0.0165044
824.624	0.0164779
824.702	0.0164807
824.780	0.0164983
824.858	0.0166100
824.936	0.0165948
825.015	0.0166075
825.093	0.0165288
825.171	0.0166501
825.249	0.0165601
825.327	0.0165861
825.405	0.0167474
825.483	0.0165261
825.561	0.0166298
825.640	0.0166622
825.718	0.0166814
825.796	0.0167252
825.874	0.0166608
825.952	0.0167782
826.030	0.0168356
826.108	0.0168831
826.186	0.0168192
826.265	0.0168948
826.343	0.0167314
826.421	0.0168128
826.499	0.0169495
826.577	0.0167764
826.655	0.0168243
826.733	0.0166373
826.811	0.0167065
826.890	0.0167352
826.968	0.0166463
827.046	0.0167156
827.124	0.0168060
827.202	0.0167834
827.280	0.0167536
827.358	0.0167751
827.436	0.0167227
827.515	0.0167721
827.593	0.0167882
827.671	0.0167615
827.749	0.0167459
827.827	0.0166985
827.905	0.0165997
827.983	0.0165705
828.061	0.0167410
828.140	0.0166148
828.218	0.0165718
828.296	0.0165308
828.374	0.0165492
828.452	0.0165317
828.530	0.0164063
828.608	0.0165810
828.686	0.0164895
828.765	0.0165513
828.843	0.0164420
828.921	0.0165432
828.999	0.0165931
829.077	0.0165278
829.155	0.0165834
829.233	0.0166283
829.311	0.0166326
829.390	0.0164979
829.468	0.0165452
829.546	0.0165245
829.624	0.0167139
829.702	0.0166875
829.780	0.0166250
829.858	0.0165514
829.936	0.0166390
830.015	0.0166502
830.093	0.0165514
830.171	0.0166537
830.249	0.0167640
830.327	0.0166436
830.405	0.0166825
830.483	0.0166862
830.561	0.0166360
830.640	0.0165778
830.718	0.0167542
830.796	0.0164825
830.874	0.0166834
830.952	0.0167595
831.030	0.0166114
831.108	0.0166564
831.186	0.0166929
831.265	0.0164963
831.343	0.0165425
831.421	0.0165485
831.499	0.0165734
831.577	0.0165376
831.655	0.0166467
831.733	0.0165429
831.811	0.0165353
831.890	0.0165707
831.968	0.0163796
832.046	0.0165279
832.124	0.0165650
832.202	0.0164688
832.280	0.0165910
832.358	0.0165845
832.436	0.0165909
832.515	0.0165450
832.593	0.0164709
832.671	0.0166301
832.749	0.0166939
832.827	0.0165153
832.905	0.0166315
832.983	0.0166698
833.061	0.0165693
833.140	0.0165556
833.218	0.0165219
833.296	0.0166129
833.374	0.0165545
833.452	0.0168325
833.530	0.0167780
833.608	0.0166859
833.686	0.0165755
833.765	0.0167863
833.843	0.0167357
833.921	0.0166417
833.999	0.0167181
834.077	0.0167618
834.155	0.0165711
834.233	0.0165914
834.311	0.0165570
834.390	0.0166869
834.468	0.0166922
834.546	0.0165696
834.624	0.0166445
834.702	0.0167048
834.780	0.0167323
834.858	0.0165752
834.936	0.0166024
835.015	0.0165549
835.093	0.0166218
835.171	0.0167427
835.249	0.0167278
835.327	0.0165352
835.405	0.0165533
835.483	0.0165266
835.561	0.0166457
835.640	0.0166477
835.718	0.0166423
835.796	0.0166614
835.874	0.0166227
835.952	0.0165577
836.030	0.0167017
836.108	0.0165939
836.186	0.0165969
836.265	0.0166482
836.343	0.0166835
836.421	0.0165883
836.499	0.0165433
836.577	0.0167342
836.655	0.0167231
836.733	0.0166169
836.811	0.0165724
836.890	0.0166048
836.968	0.0166055
837.046	0.0165499
837.124	0.0166994
837.202	0.0165656
837.280	0.0167793
837.358	0.0166915
837.436	0.0166881
837.515	0.0167163
837.593	0.0167519
837.671	0.0167910
837.749	0.0166315
837.827	0.0168208
837.905	0.0167313
837.983	0.0168050
838.061	0.0168060
838.140	0.0167921
838.218	0.0169288
838.296	0.0169310
838.374	0.0167430
838.452	0.0167071
838.530	0.0167775
838.608	0.0166634
838.686	0.0166313
838.765	0.0166796
838.843	0.0166499
838.921	0.0167495
838.999	0.0167278
839.077	0.0166627
839.155	0.0166822
839.233	0.0165902
839.311	0.0165317
839.390	0.0165375
839.468	0.0166404
839.546	0.0165534
839.624	0.0165289
839.702	0.0165368
839.780	0.0164054
839.858	0.0165186
839.936	0.0165724
840.015	0.0165955
840.093	0.0165671
840.171	0.0165482
840.249	0.0167233
840.327	0.0166199
840.405	0.0165157
840.483	0.0163604
840.561	0.0166316
840.640	0.0167245
840.718	0.0164953
840.796	0.0166260
840.874	0.0167234
840.952	0.0166764
841.030	0.0166087
841.108	0.0165810
841.186	0.0166252
841.265	0.0165282
841.343	0.0165723
841.421	0.0166385
841.499	0.0165698
841.577	0.0165687
841.655	0.0165486
841.733	0.0166647
841.811	0.0164683
841.890	0.0164437
841.968	0.0165965
842.046	0.0165003
842.124	0.0165915
842.202	0.0165844
842.280	0.0165611
842.358	0.0165655
842.436	0.0165078
842.515	0.0165941
842.593	0.0166105
842.671	0.0166350
842.749	0.0165572
842.827	0.0166010
842.905	0.0165955
842.983	0.0165262
843.061	0.0164399
843.140	0.0165881
843.218	0.0165986
843.296	0.0165344
843.374	0.0166491
843.452	0.0167843
843.530	0.0166843
843.608	0.0166338
843.686	0.0165532
843.765	0.0167717
843.843	0.0166940
843.921	0.0166250
843.999	0.0166917
844.077	0.0165823
844.155	0.0167098
844.233	0.0166927
844.311	0.0167651
844.390	0.0167908
844.468	0.0167286
844.546	0.0165092
844.624	0.0166460
844.702	0.0166586
844.780	0.0166674
844.858	0.0165722
844.936	0.0166144
845.015	0.0166254
845.093	0.0167097
845.171	0.0166621
845.249	0.0167045
845.327	0.0166568
845.405	0.0168042
845.483	0.0167390
845.561	0.0164846
845.640	0.0166507
845.718	0.0167184
845.796	0.0165779
845.874	0.0166761
845.952	0.0167223
846.030	0.0166976
846.108	0.0165697
846.186	0.0165828
846.265	0.0165739
846.343	0.0165076
846.421	0.0164489
846.499	0.0165949
846.577	0.0164739
846.655	0.0165560
846.733	0.0166476
846.811	0.0164162
846.890	0.0163936
846.968	0.0164446
847.046	0.0163263
847.124	0.0164560
847.202	0.0164085
847.280	0.0163020
847.358	0.0165730
847.436	0.0164381
847.515	0.0164169
847.593	0.0164568
847.671	0.0163509
847.749	0.0165216
847.827	0.0165330
847.905	0.0164355
847.983	0.0165051
848.061	0.0166264
848.140	0.0166727
848.218	0.0167773
848.296	0.0166448
848.374	0.0166357
848.452	0.0166455
848.530	0.0167656
848.608	0.0167722
848.686	0.0166861
848.765	0.0167326
848.843	0.0168056
848.921	0.0167587
848.999	0.0168142
849.077	0.0168006
849.155	0.0167878
849.233	0.0169018
849.311	0.0166405
849.390	0.0167257
849.468	0.0166279
849.546	0.0167875
849.624	0.0166803
849.702	0.0167691
849.780	0.0166719
849.858	0.0166389
849.936	0.0165649
850.015	0.0165559
850.093	0.0165165
850.171	0.0164147
850.249	0.0165518
850.327	0.0165427
850.405	0.0165672
850.483	0.0165244
850.561	0.0164912
850.640	0.0164268
850.718	0.0164182
850.796	0.0165437
850.874	0.0165816
850.952	0.0165723
851.030	0.0165660
851.108	0.0167309
851.186	0.0166405
851.265	0.0166301
851.343	0.0166901
851.421	0.0165631
851.499	0.0166808
851.577	0.0167936
851.655	0.0166519
851.733	0.0166343
851.811	0.0165563
851.890	0.0164999
851.968	0.0166348
852.046	0.0166117
852.124	0.0165340
852.202	0.0166377
852.280	0.0164857
852.358	0.0164501
852.436	0.0166461
852.515	0.0165862
852.593	0.0165574
852.671	0.0165576
852.749	0.0164964
852.827	0.0164723
852.905	0.0165186
852.983	0.0165933
853.061	0.0164568
853.140	0.0165392
853.218	0.0165096
853.296	0.0163314
853.374	0.0165462
853.452	0.0164413
853.530	0.0164478
853.608	0.0165977
853.686	0.0165135
853.765	0.0165739
853.843	0.0166379
853.921	0.0165977
853.999	0.0166470
854.077	0.0165469
854.155	0.0165295
854.233	0.0166867
854.311	0.0166131
854.390	0.0166231
854.468	0.0166205
854.546	0.0165888
854.624	0.0167147
854.702	0.0165292
854.780	0.0166493
854.858	0.0166436
854.936	0.0166243
855.015	0.0166936
855.093	0.0166676
855.171	0.0165893
855.249	0.0165722
855.327	0.0167012
855.405	0.0165612
855.483	0.0166915
855.561	0.0165719
855.640	0.0165269
855.718	0.0165880
855.796	0.0166959
855.874	0.0168018
855.952	0.0165700
856.030	0.0166467
856.108	0.0166415
856.186	0.0166904
856.265	0.0165858
856.343	0.0166788
856.421	0.0167213
856.499	0.0166389
856.577	0.0167879
856.655	0.0167550
856.733	0.0166956
856.811	0.0168336
856.890	0.0167733
856.968	0.0168380
857.046	0.0169149
857.124	0.0168539
857.202	0.0167527
857.280	0.0167739
857.358	0.0168745
857.436	0.0168421
857.515	0.0167905
857.593	0.0168827
857.671	0.0168494
857.749	0.0169229
857.827	0.0168742
857.905	0.0168403
857.983	0.0167490
858.061	0.0169245
858.140	0.0167176
858.218	0.0167737
858.296	0.0167896
858.374	0.0167316
858.452	0.0167410
858.530	0.0166590
858.608	0.0167699
858.686	0.0166835
858.765	0.0167198
858.843	0.0167752
858.921	0.0167942
858.999	0.0167335
859.077	0.0166975
859.155	0.0167265
859.233	0.0166724
859.311	0.0166903
859.390	0.0169832
859.468	0.0167390
859.546	0.0167248
859.624	0.0167529
859.702	0.0168756
859.780	0.0167579
859.858	0.0166145
859.936	0.0167437
860.015	0.0167017
860.093	0.0167003
860.171	0.0165518
860.249	0.0167210
860.327	0.0167821
860.405	0.0166924
860.483	0.0166422
860.561	0.0165677
860.640	0.0166219
860.718	0.0167538
860.796	0.0168341
860.874	0.0166091
860.952	0.0167134
861.030	0.0166951
861.108	0.0167374
861.186	0.0167046
861.265	0.0166547
861.343	0.0166159
861.421	0.0166382
861.499	0.0166811
861.577	0.0167937
861.655	0.0167580
861.733	0.0167623
861.811	0.0166689
861.890	0.0167036
861.968	0.0166385
862.046	0.0167289
862.124	0.0166862
862.202	0.0167107
862.280	0.0165781
862.358	0.0167747
862.436	0.0168475
862.515	0.0167627
862.593	0.0167978
862.671	0.0166567
862.749	0.0168183
862.827	0.0167318
862.905	0.0167638
862.983	0.0167778
863.061	0.0167463
863.140	0.0167985
863.218	0.0166527
863.296	0.0166121
863.374	0.0166389
863.452	0.0166073
863.530	0.0167162
863.608	0.0166581
863.686	0.0167467
863.765	0.0165894
863.843	0.0165565
863.921	0.0165740
863.999	0.0166212
864.077	0.0165568
864.155	0.0164729
864.233	0.0165836
864.311	0.0164651
864.390	0.0165351
864.468	0.0166054
864.546	0.0166029
864.624	0.0164588
864.702	0.0165948
864.780	0.0164874
864.858	0.0165309
864.936	0.0166769
865.015	0.0165137
865.093	0.0165569
865.171	0.0164831
865.249	0.0164986
865.327	0.0166642
865.405	0.0165673
865.483	0.0165925
865.561	0.0165625
865.640	0.0165909
865.718	0.0167143
865.796	0.0167127
865.874	0.0166907
865.952	0.0167739
866.030	0.0166592
866.108	0.0166426
866.186	0.0166244
866.265	0.0165253
866.343	0.0166178
866.421	0.0167016
866.499	0.0166891
866.577	0.0167937
866.655	0.0165675
866.733	0.0166807
866.811	0.0168312
866.890	0.0166079
866.968	0.0167549
867.046	0.0168219
867.124	0.0167975
867.202	0.0166372
867.280	0.0166140
867.358	0.0166527
867.436	0.0166973
867.515	0.0167580
867.593	0.0166918
867.671	0.0167583
867.749	0.0166866
867.827	0.0166090
867.905	0.0165901
867.983	0.0166738
868.061	0.0166154
868.140	0.0166303
868.218	0.0165841
868.296	0.0167036
868.374	0.0166328
868.452	0.0164876
868.530	0.0166074
868.608	0.0166036
868.686	0.0166892
868.765	0.0166243
868.843	0.0166027
868.921	0.0164808
868.999	0.0166093
869.077	0.0165832
869.155	0.0164885
869.233	0.0165794
869.311	0.0164499
869.390	0.0164960
869.468	0.0166357
869.546	0.0163490
869.624	0.0165621
869.702	0.0165208
869.780	0.0163647
869.858	0.0164799
869.936	0.0165402
870.015	0.0164886
870.093	0.0165691
870.171	0.0166155
870.249	0.0166732
870.327	0.0165911
870.405	0.0164754
870.483	0.0166462
870.561	0.0167358
870.640	0.0166272
870.718	0.0166733
870.796	0.0165952
870.874	0.0167068
870.952	0.0167709
871.030	0.0167304
871.108	0.0165752
871.186	0.0166740
871.265	0.0165811
871.343	0.0166663
871.421	0.0165913
871.499	0.0166013
871.577	0.0166445
871.655	0.0165552
871.733	0.0167313
871.811	0.0167357
871.890	0.0167260
871.968	0.0166830
872.046	0.0165814
872.124	0.0165964
872.202	0.0165183
872.280	0.0165903
872.358	0.0165867
872.436	0.0165013
872.515	0.0165182
872.593	0.0165711
872.671	0.0165686
872.749	0.0164783
872.827	0.0164536
872.905	0.0165086
872.983	0.0166098
873.061	0.0165875
873.140	0.0165208
873.218	0.0165424
873.296	0.0165768
873.374	0.0163785
873.452	0.0163687
873.530	0.0164845
873.608	0.0165098
873.686	0.0165887
873.765	0.0165931
873.843	0.0164532
873.921	0.0164960
873.999	0.0165475
874.077	0.0165941
874.155	0.0165411
874.233	0.0165849
874.311	0.0165810
874.390	0.0166116
874.468	0.0164572
874.546	0.0164851
874.624	0.0165366
874.702	0.0163834
874.780	0.0165278
874.858	0.0164833
874.936	0.0164819
875.015	0.0165327
875.093	0.0163058
875.171	0.0165078
875.249	0.0165914
875.327	0.0165924
875.405	0.0165580
875.483	0.0165865
875.561	0.0164830
875.640	0.0165678
875.718	0.0165777
875.796	0.0166434
875.874	0.0166872
875.952	0.0165166
876.030	0.0166904
876.108	0.0167607
876.186	0.0166503
876.265	0.0165307
876.343	0.0166140
876.421	0.0168608
876.499	0.0167671
876.577	0.0167708
876.655	0.0166302
876.733	0.0166963
876.811	0.0166922
876.890	0.0166674
876.968	0.0166072
877.046	0.0166048
877.124	0.0167183
877.202	0.0166071
877.280	0.0165873
877.358	0.0166169
877.436	0.0166213
877.515	0.0167807
877.593	0.0166343
877.671	0.0167286
877.749	0.0166996
877.827	0.0166717
877.905	0.0167081
877.983	0.0167802
878.061	0.0168215
878.140	0.0168129
878.218	0.0167601
878.296	0.0168053
878.374	0.0168153
878.452	0.0168134
878.530	0.0168452
878.608	0.0167950
878.686	0.0168982
878.765	0.0167992
878.843	0.0168898
878.921	0.0167804
878.999	0.0166234
879.077	0.0166766
879.155	0.0168486
879.233	0.0168440
879.311	0.0166776
879.390	0.0167920
879.468	0.0168087
879.546	0.0168562
879.624	0.0167905
879.702	0.0167690
879.780	0.0169132
879.858	0.0169438
879.936	0.0167815
880.015	0.0167391
880.093	0.0168421
880.171	0.0169288
880.249	0.0168591
880.327	0.0167522
880.405	0.0166349
880.483	0.0167671
880.561	0.0167896
880.640	0.0166621
880.718	0.0165858
880.796	0.0166793
880.874	0.0167581
880.952	0.0165005
881.030	0.0166152
881.108	0.0163837
881.186	0.0165966
881.265	0.0166481
881.343	0.0164771
881.421	0.0165726
881.499	0.0165331
881.577	0.0165615
881.655	0.0164851
881.733	0.0165799
881.811	0.0165929
881.890	0.0165392
881.968	0.0164426
882.046	0.0166436
882.124	0.0164955
882.202	0.0164092
882.280	0.0166290
882.358	0.0165354
882.436	0.0165362
882.515	0.0164475
882.593	0.0166824
882.671	0.0165803
882.749	0.0165641
882.827	0.0165829
882.905	0.0168015
882.983	0.0166336
883.061	0.0166351
883.140	0.0166381
883.218	0.0168078
883.296	0.0167037
883.374	0.0166408
883.452	0.0167117
883.530	0.0167981
883.608	0.0166103
883.686	0.0165611
883.765	0.0167100
883.843	0.0167358
883.921	0.0166377
883.999	0.0166863
884.077	0.0166975
884.155	0.0166309
884.233	0.0167953
884.311	0.0168272
884.390	0.0166901
884.468	0.0167788
884.546	0.0167783
884.624	0.0167257
884.702	0.0167068
884.780	0.0166216
884.858	0.0165021
884.936	0.0166391
885.015	0.0164838
885.093	0.0165140
885.171	0.0165134
885.249	0.0165976
885.327	0.0166016
885.405	0.0165713
885.483	0.0166825
885.561	0.0166351
885.640	0.0165966
885.718	0.0165632
885.796	0.0164112
885.874	0.0164436
885.952	0.0164612
886.030	0.0165022
886.108	0.0165843
886.186	0.0165087
886.265	0.0164565
886.343	0.0163932
886.421	0.0165105
886.499	0.0164108
886.577	0.0164904
886.655	0.0164342
886.733	0.0164668
886.811	0.0164408
886.890	0.0163981
886.968	0.0166006
887.046	0.0165389
887.124	0.0163694
887.202	0.0165372
887.280	0.0164846
887.358	0.0164432
887.436	0.0164996
887.515	0.0164468
887.593	0.0163612
887.671	0.0165428
887.749	0.0165485
887.827	0.0163744
887.905	0.0164198
887.983	0.0164079
888.061	0.0165958
888.140	0.0165609
888.218	0.0163644
888.296	0.0164985
888.374	0.0165902
888.452	0.0165472
888.530	0.0165665
888.608	0.0164523
888.686	0.0166650
888.765	0.0165626
888.843	0.0166325
888.921	0.0166708
888.999	0.0165833
889.077	0.0165529
889.155	0.0166368
889.233	0.0166515
889.311	0.0165471
889.390	0.0165660
889.468	0.0166598
889.546	0.0167200
889.624	0.0167298
889.702	0.0166877
889.780	0.0166099
889.858	0.0165569
889.936	0.0166701
890.015	0.0167033
890.093	0.0164880
890.171	0.0166210
890.249	0.0166096
890.327	0.0166698
890.405	0.0165961
890.483	0.0165047
890.561	0.0165761
890.640	0.0164959
890.718	0.0164375
890.796	0.0166109
890.874	0.0166136
890.952	0.0165782
891.030	0.0165256
891.108	0.0165392
891.186	0.0166402
891.265	0.0164828
891.343	0.0165542
891.421	0.0164936
891.499	0.0165758
891.577	0.0164777
891.655	0.0165842
891.733	0.0164780
891.811	0.0165103
891.890	0.0164982
891.968	0.0165524
892.046	0.0165505
892.124	0.0163521
892.202	0.0165392
892.280	0.0164191
892.358	0.0165858
892.436	0.0165567
892.515	0.0163479
892.593	0.0165337
892.671	0.0164384
892.749	0.0164610
892.827	0.0164230
892.905	0.0164439
892.983	0.0166347
893.061	0.0165195
893.140	0.0165718
893.218	0.0165577
893.296	0.0166429
893.374	0.0163458
893.452	0.0164220
893.530	0.0164492
893.608	0.0167151
893.686	0.0165080
893.765	0.0164172
893.843	0.0165022
893.921	0.0165015
893.999	0.0164771
894.077	0.0165557
894.155	0.0164250
894.233	0.0165699
894.311	0.0164878
894.390	0.0165351
894.468	0.0164297
894.546	0.0166733
894.624	0.0166441
894.702	0.0165147
894.780	0.0166767
894.858	0.0166851
894.936	0.0165979
895.015	0.0165687
895.093	0.0166787
895.171	0.0166712
895.249	0.0167600
895.327	0.0165952
895.405	0.0165931
895.483	0.0166430
895.561	0.0166750
895.640	0.0166543
895.718	0.0166342
895.796	0.0166783
895.874	0.0166832
895.952	0.0167426
896.030	0.0165627
896.108	0.0167068
896.186	0.0167854
896.265	0.0167725
896.343	0.0167971
896.421	0.0167851
896.499	0.0167376
896.577	0.0167273
896.655	0.0168101
896.733	0.0167030
896.811	0.0167908
896.890	0.0167102
896.968	0.0168047
897.046	0.0167439
897.124	0.0166584
897.202	0.0167649
897.280	0.0166305
897.358	0.0166566
897.436	0.0167470
897.515	0.0166509
897.593	0.0167632
897.671	0.0167365
897.749	0.0166030
897.827	0.0165532
897.905	0.0164729
897.983	0.0166741
898.061	0.0166294
898.140	0.0164781
898.218	0.0165748
898.296	0.0165420
898.374	0.0165922
898.452	0.0164214
898.530	0.0165190
898.608	0.0164945
898.686	0.0164749
898.765	0.0164571
898.843	0.0164764
898.921	0.0164592
898.999	0.0165316
899.077	0.0165334
899.155	0.0165108
899.233	0.0166025
899.311	0.0165903
899.390	0.0166280
899.468	0.0165551
899.546	0.0165786
899.624	0.0165900
899.702	0.0166256
899.780	0.0166940
899.858	0.0166707
899.936	0.0165614
