05/24/2022	20:55:02	Ver.	4.1	UNKNOWN
Optical Delay	580.014591	Delta X		0.078125	Sweeps	1	Scan Rate	0/0
Coordinates	Axis 1	NaN	Axis 2	NaN	Axis 3	NaN	Axis 4	NaN	Axis 5	NaN	Axis 6	0.000000
TX Power	0.000000	RX Power	0.000000

580.015	0.0164564
580.093	0.0164556
580.171	0.0166307
580.249	0.0164952
580.327	0.0165235
580.405	0.0164427
580.483	0.0164420
580.561	0.0165081
580.640	0.0164104
580.718	0.0165703
580.796	0.0163640
580.874	0.0162824
580.952	0.0164066
581.030	0.0163613
581.108	0.0163336
581.186	0.0163151
581.265	0.0163309
581.343	0.0162826
581.421	0.0163799
581.499	0.0162905
581.577	0.0163100
581.655	0.0162858
581.733	0.0163298
581.811	0.0163303
581.890	0.0162995
581.968	0.0162450
582.046	0.0161674
582.124	0.0163515
582.202	0.0163634
582.280	0.0163893
582.358	0.0161948
582.436	0.0163326
582.515	0.0164248
582.593	0.0164795
582.671	0.0164752
582.749	0.0162356
582.827	0.0162524
582.905	0.0163931
582.983	0.0162592
583.061	0.0162317
583.140	0.0164275
583.218	0.0163906
583.296	0.0164293
583.374	0.0164132
583.452	0.0164270
583.530	0.0163413
583.608	0.0163492
583.686	0.0163394
583.765	0.0163748
583.843	0.0163605
583.921	0.0163345
583.999	0.0163042
584.077	0.0161950
584.155	0.0164478
584.233	0.0163230
584.311	0.0162463
584.390	0.0164935
584.468	0.0163388
584.546	0.0162917
584.624	0.0162700
584.702	0.0163865
584.780	0.0162708
584.858	0.0163054
584.936	0.0164235
585.015	0.0163435
585.093	0.0163401
585.171	0.0163347
585.249	0.0163981
585.327	0.0162335
585.405	0.0163391
585.483	0.0163073
585.561	0.0162840
585.640	0.0162482
585.718	0.0163251
585.796	0.0163052
585.874	0.0163869
585.952	0.0163135
586.030	0.0162006
586.108	0.0163599
586.186	0.0163113
586.265	0.0162085
586.343	0.0163422
586.421	0.0163932
586.499	0.0164711
586.577	0.0163463
586.655	0.0162706
586.733	0.0162511
586.811	0.0161704
586.890	0.0164271
586.968	0.0162749
587.046	0.0162790
587.124	0.0163573
587.202	0.0165538
587.280	0.0164485
587.358	0.0163357
587.436	0.0164082
587.515	0.0164417
587.593	0.0163166
587.671	0.0163510
587.749	0.0163745
587.827	0.0162946
587.905	0.0163666
587.983	0.0163154
588.061	0.0163823
588.140	0.0163220
588.218	0.0161774
588.296	0.0163526
588.374	0.0162592
588.452	0.0164046
588.530	0.0161765
588.608	0.0162688
588.686	0.0162659
588.765	0.0162224
588.843	0.0163095
588.921	0.0162293
588.999	0.0163215
589.077	0.0163113
589.155	0.0162610
589.233	0.0162679
589.311	0.0162328
589.390	0.0162229
589.468	0.0163223
589.546	0.0164501
589.624	0.0163691
589.702	0.0164658
589.780	0.0165125
589.858	0.0163081
589.936	0.0163833
590.015	0.0163899
590.093	0.0164083
590.171	0.0164767
590.249	0.0164679
590.327	0.0164069
590.405	0.0162788
590.483	0.0163292
590.561	0.0163313
590.640	0.0163966
590.718	0.0164088
590.796	0.0163742
590.874	0.0163240
590.952	0.0162284
591.030	0.0164567
591.108	0.0162582
591.186	0.0161909
591.265	0.0162750
591.343	0.0163961
591.421	0.0164259
591.499	0.0163597
591.577	0.0163297
591.655	0.0164135
591.733	0.0164098
591.811	0.0163271
591.890	0.0163835
591.968	0.0164504
592.046	0.0165855
592.124	0.0165575
592.202	0.0163993
592.280	0.0165215
592.358	0.0165510
592.436	0.0164767
592.515	0.0164626
592.593	0.0166064
592.671	0.0164146
592.749	0.0163291
592.827	0.0164441
592.905	0.0163265
592.983	0.0163023
593.061	0.0164066
593.140	0.0163129
593.218	0.0162730
593.296	0.0162776
593.374	0.0162318
593.452	0.0163610
593.530	0.0162666
593.608	0.0163725
593.686	0.0164728
593.765	0.0164236
593.843	0.0163315
593.921	0.0163498
593.999	0.0164368
594.077	0.0163440
594.155	0.0163683
594.233	0.0165395
594.311	0.0163721
594.390	0.0166710
594.468	0.0165134
594.546	0.0164181
594.624	0.0164465
594.702	0.0164991
594.780	0.0164787
594.858	0.0164144
594.936	0.0164500
595.015	0.0163625
595.093	0.0164220
595.171	0.0165728
595.249	0.0163923
595.327	0.0163913
595.405	0.0163498
595.483	0.0163592
595.561	0.0163441
595.640	0.0163901
595.718	0.0163515
595.796	0.0163232
595.874	0.0162113
595.952	0.0162469
596.030	0.0164827
596.108	0.0163582
596.186	0.0160584
596.265	0.0163358
596.343	0.0163969
596.421	0.0163538
596.499	0.0164989
596.577	0.0164084
596.655	0.0164745
596.733	0.0163471
596.811	0.0164115
596.890	0.0165941
596.968	0.0164577
597.046	0.0165157
597.124	0.0164599
597.202	0.0164259
597.280	0.0164464
597.358	0.0163933
597.436	0.0162946
597.515	0.0163952
597.593	0.0164875
597.671	0.0163948
597.749	0.0163394
597.827	0.0163203
597.905	0.0163828
597.983	0.0163510
598.061	0.0163668
598.140	0.0162427
598.218	0.0163608
598.296	0.0163165
598.374	0.0163116
598.452	0.0162586
598.530	0.0162856
598.608	0.0162883
598.686	0.0162727
598.765	0.0161764
598.843	0.0161459
598.921	0.0162586
598.999	0.0161149
599.077	0.0161108
599.155	0.0161648
599.233	0.0161292
599.311	0.0162843
599.390	0.0163011
599.468	0.0163273
599.546	0.0164273
599.624	0.0164564
599.702	0.0163585
599.780	0.0164619
599.858	0.0164251
599.936	0.0164111
600.015	0.0164367
600.093	0.0163837
600.171	0.0163023
600.249	0.0162296
600.327	0.0161811
600.405	0.0163078
600.483	0.0163706
600.561	0.0162653
600.640	0.0163577
600.718	0.0163049
600.796	0.0160738
600.874	0.0161982
600.952	0.0161119
601.030	0.0160528
601.108	0.0161790
601.186	0.0161875
601.265	0.0160040
601.343	0.0159966
601.421	0.0159863
601.499	0.0161372
601.577	0.0161783
601.655	0.0161490
601.733	0.0160819
601.811	0.0161660
601.890	0.0164365
601.968	0.0162128
602.046	0.0162080
602.124	0.0163721
602.202	0.0164180
602.280	0.0163989
602.358	0.0164316
602.436	0.0163656
602.515	0.0163390
602.593	0.0163147
602.671	0.0163595
602.749	0.0162528
602.827	0.0161039
602.905	0.0162979
602.983	0.0161280
603.061	0.0160917
603.140	0.0160720
603.218	0.0160701
603.296	0.0160938
603.374	0.0161138
603.452	0.0159781
603.530	0.0159547
603.608	0.0160399
603.686	0.0161471
603.765	0.0161436
603.843	0.0163029
603.921	0.0163445
603.999	0.0164351
604.077	0.0165295
604.155	0.0166017
604.233	0.0166167
604.311	0.0166739
604.390	0.0167236
604.468	0.0166315
604.546	0.0165578
604.624	0.0165523
604.702	0.0166743
604.780	0.0165144
604.858	0.0163632
604.936	0.0163665
605.015	0.0164175
605.093	0.0162144
605.171	0.0162392
605.249	0.0160577
605.327	0.0159515
605.405	0.0159004
605.483	0.0159526
605.561	0.0158903
605.640	0.0158387
605.718	0.0159287
605.796	0.0160226
605.874	0.0161627
605.952	0.0159897
606.030	0.0160989
606.108	0.0163884
606.186	0.0164340
606.265	0.0163934
606.343	0.0165245
606.421	0.0165571
606.499	0.0166132
606.577	0.0167504
606.655	0.0167957
606.733	0.0168574
606.811	0.0169792
606.890	0.0169778
606.968	0.0168868
607.046	0.0169906
607.124	0.0170142
607.202	0.0166797
607.280	0.0167569
607.358	0.0168105
607.436	0.0165231
607.515	0.0165026
607.593	0.0164721
607.671	0.0163474
607.749	0.0161141
607.827	0.0160032
607.905	0.0158247
607.983	0.0158858
608.061	0.0156306
608.140	0.0156853
608.218	0.0156018
608.296	0.0155006
608.374	0.0153973
608.452	0.0153636
608.530	0.0151995
608.608	0.0154519
608.686	0.0154539
608.765	0.0154317
608.843	0.0156979
608.921	0.0157552
608.999	0.0158920
609.077	0.0160561
609.155	0.0160983
609.233	0.0162170
609.311	0.0164675
609.390	0.0167497
609.468	0.0169633
609.546	0.0169191
609.624	0.0170850
609.702	0.0172269
609.780	0.0174888
609.858	0.0177122
609.936	0.0176768
610.015	0.0175796
610.093	0.0176171
610.171	0.0176977
610.249	0.0175436
610.327	0.0175104
610.405	0.0173232
610.483	0.0171789
610.561	0.0170195
610.640	0.0167353
610.718	0.0165843
610.796	0.0161823
610.874	0.0160623
610.952	0.0158112
611.030	0.0155164
611.108	0.0155262
611.186	0.0152995
611.265	0.0151331
611.343	0.0150478
611.421	0.0149647
611.499	0.0149432
611.577	0.0148936
611.655	0.0149451
611.733	0.0150428
611.811	0.0150688
611.890	0.0151246
611.968	0.0153643
612.046	0.0155522
612.124	0.0155759
612.202	0.0157668
612.280	0.0160266
612.358	0.0162064
612.436	0.0162877
612.515	0.0165318
612.593	0.0164145
612.671	0.0167361
612.749	0.0169208
612.827	0.0169380
612.905	0.0169660
612.983	0.0171010
613.061	0.0171416
613.140	0.0170726
613.218	0.0168808
613.296	0.0170428
613.374	0.0170090
613.452	0.0167787
613.530	0.0166853
613.608	0.0165919
613.686	0.0167107
613.765	0.0165065
613.843	0.0163982
613.921	0.0163918
613.999	0.0162057
614.077	0.0161253
614.155	0.0161189
614.233	0.0162435
614.311	0.0160679
614.390	0.0161540
614.468	0.0162184
614.546	0.0162609
614.624	0.0162640
614.702	0.0162551
614.780	0.0162833
614.858	0.0164034
614.936	0.0165090
615.015	0.0165587
615.093	0.0167381
615.171	0.0168418
615.249	0.0167119
615.327	0.0167155
615.405	0.0167418
615.483	0.0168829
615.561	0.0168671
615.640	0.0168894
615.718	0.0167310
615.796	0.0166429
615.874	0.0164623
615.952	0.0164482
616.030	0.0163853
616.108	0.0161792
616.186	0.0158858
616.265	0.0158118
616.343	0.0156205
616.421	0.0155150
616.499	0.0153262
616.577	0.0151691
616.655	0.0151949
616.733	0.0150775
616.811	0.0148566
616.890	0.0148849
616.968	0.0151028
617.046	0.0151690
617.124	0.0150628
617.202	0.0151958
617.280	0.0153765
617.358	0.0154743
617.436	0.0156953
617.515	0.0157533
617.593	0.0157979
617.671	0.0161655
617.749	0.0161700
617.827	0.0163705
617.905	0.0163648
617.983	0.0165833
618.061	0.0166409
618.140	0.0166332
618.218	0.0166865
618.296	0.0167112
618.374	0.0167913
618.452	0.0168319
618.530	0.0170051
618.608	0.0168552
618.686	0.0167746
618.765	0.0168774
618.843	0.0168151
618.921	0.0169087
618.999	0.0169996
619.077	0.0169910
619.155	0.0172366
619.233	0.0170658
619.311	0.0171658
619.390	0.0171720
619.468	0.0171535
619.546	0.0171824
619.624	0.0170711
619.702	0.0170876
619.780	0.0170341
619.858	0.0169056
619.936	0.0167612
620.015	0.0167241
620.093	0.0166019
620.171	0.0164692
620.249	0.0162552
620.327	0.0160840
620.405	0.0158599
620.483	0.0159213
620.561	0.0154655
620.640	0.0153667
620.718	0.0153208
620.796	0.0151798
620.874	0.0151447
620.952	0.0150311
621.030	0.0149450
621.108	0.0149149
621.186	0.0149647
621.265	0.0149345
621.343	0.0148947
621.421	0.0149534
621.499	0.0151579
621.577	0.0151222
621.655	0.0154935
621.733	0.0156644
621.811	0.0155984
621.890	0.0157666
621.968	0.0158685
622.046	0.0161502
622.124	0.0161460
622.202	0.0162970
622.280	0.0164346
622.358	0.0165174
622.436	0.0164780
622.515	0.0165348
622.593	0.0165336
622.671	0.0167824
622.749	0.0166829
622.827	0.0166641
622.905	0.0166580
622.983	0.0168037
623.061	0.0168982
623.140	0.0168348
623.218	0.0168381
623.296	0.0168853
623.374	0.0168823
623.452	0.0168111
623.530	0.0169046
623.608	0.0168172
623.686	0.0168681
623.765	0.0169028
623.843	0.0168076
623.921	0.0168407
623.999	0.0169153
624.077	0.0168125
624.155	0.0168428
624.233	0.0169897
624.311	0.0169880
624.390	0.0170876
624.468	0.0171286
624.546	0.0172579
624.624	0.0171889
624.702	0.0172856
624.780	0.0172338
624.858	0.0172367
624.936	0.0171314
625.015	0.0171358
625.093	0.0169975
625.171	0.0167051
625.249	0.0167475
625.327	0.0163953
625.405	0.0162582
625.483	0.0159026
625.561	0.0157021
625.640	0.0154897
625.718	0.0151913
625.796	0.0151862
625.874	0.0148554
625.952	0.0146586
626.030	0.0144319
626.108	0.0145147
626.186	0.0142425
626.265	0.0141591
626.343	0.0141714
626.421	0.0141516
626.499	0.0141527
626.577	0.0143701
626.655	0.0143172
626.733	0.0143844
626.811	0.0144811
626.890	0.0146505
626.968	0.0150630
627.046	0.0152171
627.124	0.0153071
627.202	0.0155238
627.280	0.0157760
627.358	0.0161105
627.436	0.0163548
627.515	0.0164362
627.593	0.0168957
627.671	0.0169266
627.749	0.0173099
627.827	0.0174226
627.905	0.0176395
627.983	0.0176385
628.061	0.0178558
628.140	0.0179512
628.218	0.0178600
628.296	0.0180716
628.374	0.0181329
628.452	0.0180711
628.530	0.0179983
628.608	0.0179773
628.686	0.0176866
628.765	0.0177141
628.843	0.0173500
628.921	0.0172741
628.999	0.0170896
629.077	0.0169276
629.155	0.0166492
629.233	0.0166532
629.311	0.0163216
629.390	0.0162686
629.468	0.0162173
629.546	0.0160801
629.624	0.0160804
629.702	0.0159328
629.780	0.0157515
629.858	0.0157887
629.936	0.0156893
630.015	0.0155116
630.093	0.0155508
630.171	0.0155891
630.249	0.0154607
630.327	0.0154405
630.405	0.0153874
630.483	0.0154412
630.561	0.0154690
630.640	0.0155794
630.718	0.0154057
630.796	0.0154876
630.874	0.0156048
630.952	0.0155598
631.030	0.0155083
631.108	0.0157827
631.186	0.0156512
631.265	0.0156524
631.343	0.0157754
631.421	0.0158328
631.499	0.0157919
631.577	0.0155956
631.655	0.0157699
631.733	0.0159005
631.811	0.0157349
631.890	0.0157845
631.968	0.0158721
632.046	0.0160709
632.124	0.0160387
632.202	0.0162015
632.280	0.0163407
632.358	0.0162689
632.436	0.0164397
632.515	0.0164996
632.593	0.0167871
632.671	0.0167306
632.749	0.0168328
632.827	0.0167976
632.905	0.0169531
632.983	0.0170937
633.061	0.0170609
633.140	0.0171914
633.218	0.0172071
633.296	0.0173513
633.374	0.0172306
633.452	0.0172563
633.530	0.0171600
633.608	0.0171181
633.686	0.0169317
633.765	0.0167163
633.843	0.0166561
633.921	0.0166285
633.999	0.0165302
634.077	0.0162321
634.155	0.0161522
634.233	0.0160845
634.311	0.0158304
634.390	0.0157957
634.468	0.0156735
634.546	0.0156824
634.624	0.0154498
634.702	0.0154924
634.780	0.0156074
634.858	0.0155796
634.936	0.0157034
635.015	0.0158007
635.093	0.0157738
635.171	0.0159441
635.249	0.0160864
635.327	0.0159863
635.405	0.0162249
635.483	0.0163641
635.561	0.0166598
635.640	0.0167435
635.718	0.0168781
635.796	0.0169289
635.874	0.0172410
635.952	0.0171811
636.030	0.0172784
636.108	0.0173503
636.186	0.0173173
636.265	0.0173602
636.343	0.0172326
636.421	0.0169329
636.499	0.0168172
636.577	0.0166933
636.655	0.0166523
636.733	0.0164156
636.811	0.0162746
636.890	0.0161505
636.968	0.0158786
637.046	0.0156695
637.124	0.0157323
637.202	0.0155645
637.280	0.0152850
637.358	0.0153058
637.436	0.0151705
637.515	0.0151553
637.593	0.0150563
637.671	0.0149681
637.749	0.0148814
637.827	0.0149700
637.905	0.0151130
637.983	0.0149974
638.061	0.0151278
638.140	0.0152583
638.218	0.0152573
638.296	0.0154371
638.374	0.0155988
638.452	0.0156290
638.530	0.0157548
638.608	0.0159166
638.686	0.0160251
638.765	0.0161238
638.843	0.0162140
638.921	0.0161479
638.999	0.0161608
639.077	0.0164571
639.155	0.0163531
639.233	0.0163869
639.311	0.0166353
639.390	0.0165406
639.468	0.0166760
639.546	0.0166862
639.624	0.0167841
639.702	0.0169582
639.780	0.0170084
639.858	0.0169895
639.936	0.0171556
640.015	0.0171155
640.093	0.0172826
640.171	0.0173790
640.249	0.0176083
640.327	0.0176810
640.405	0.0176720
640.483	0.0176389
640.561	0.0177885
640.640	0.0179226
640.718	0.0178866
640.796	0.0177800
640.874	0.0177542
640.952	0.0176263
641.030	0.0174924
641.108	0.0174715
641.186	0.0172260
641.265	0.0169906
641.343	0.0167021
641.421	0.0164930
641.499	0.0162881
641.577	0.0160673
641.655	0.0159146
641.733	0.0155160
641.811	0.0151929
641.890	0.0151617
641.968	0.0151435
642.046	0.0150578
642.124	0.0147318
642.202	0.0148330
642.280	0.0148259
642.358	0.0150212
642.436	0.0150883
642.515	0.0151044
642.593	0.0152671
642.671	0.0153354
642.749	0.0155793
642.827	0.0158681
642.905	0.0159353
642.983	0.0161957
643.061	0.0163980
643.140	0.0165997
643.218	0.0166346
643.296	0.0168586
643.374	0.0168630
643.452	0.0170132
643.530	0.0170567
643.608	0.0170106
643.686	0.0171063
643.765	0.0170581
643.843	0.0172285
643.921	0.0172343
643.999	0.0171890
644.077	0.0172368
644.155	0.0173105
644.233	0.0171745
644.311	0.0171478
644.390	0.0169785
644.468	0.0167975
644.546	0.0167559
644.624	0.0166383
644.702	0.0163229
644.780	0.0160075
644.858	0.0159369
644.936	0.0156608
645.015	0.0154255
645.093	0.0152213
645.171	0.0149484
645.249	0.0148976
645.327	0.0146660
645.405	0.0146576
645.483	0.0145271
645.561	0.0145441
645.640	0.0146198
645.718	0.0147704
645.796	0.0147881
645.874	0.0149562
645.952	0.0151926
646.030	0.0156207
646.108	0.0157681
646.186	0.0159083
646.265	0.0162534
646.343	0.0164475
646.421	0.0166853
646.499	0.0169952
646.577	0.0171028
646.655	0.0174453
646.733	0.0174960
646.811	0.0176377
646.890	0.0177583
646.968	0.0179839
647.046	0.0179531
647.124	0.0180762
647.202	0.0180225
647.280	0.0179836
647.358	0.0179162
647.436	0.0181762
647.515	0.0181127
647.593	0.0179562
647.671	0.0178138
647.749	0.0176099
647.827	0.0176639
647.905	0.0175980
647.983	0.0173967
648.061	0.0173586
648.140	0.0172803
648.218	0.0171163
648.296	0.0171207
648.374	0.0169648
648.452	0.0168311
648.530	0.0167704
648.608	0.0165604
648.686	0.0164207
648.765	0.0163099
648.843	0.0162338
648.921	0.0159783
648.999	0.0159530
649.077	0.0158041
649.155	0.0156438
649.233	0.0156063
649.311	0.0153506
649.390	0.0151925
649.468	0.0150140
649.546	0.0149753
649.624	0.0147512
649.702	0.0148415
649.780	0.0146928
649.858	0.0148735
649.936	0.0149786
650.015	0.0147241
650.093	0.0147142
650.171	0.0147607
650.249	0.0146958
650.327	0.0149815
650.405	0.0149763
650.483	0.0150197
650.561	0.0154253
650.640	0.0154402
650.718	0.0155676
650.796	0.0156422
650.874	0.0157320
650.952	0.0160372
651.030	0.0161462
651.108	0.0161725
651.186	0.0164287
651.265	0.0165533
651.343	0.0164986
651.421	0.0166795
651.499	0.0165760
651.577	0.0167743
651.655	0.0169592
651.733	0.0169694
651.811	0.0171491
651.890	0.0172548
651.968	0.0173096
652.046	0.0173665
652.124	0.0175124
652.202	0.0176344
652.280	0.0176608
652.358	0.0177697
652.436	0.0175838
652.515	0.0178628
652.593	0.0179653
652.671	0.0177649
652.749	0.0176925
652.827	0.0177795
652.905	0.0177550
652.983	0.0177242
653.061	0.0175535
653.140	0.0173544
653.218	0.0171807
653.296	0.0169678
653.374	0.0168066
653.452	0.0164957
653.530	0.0165245
653.608	0.0164700
653.686	0.0162344
653.765	0.0161420
653.843	0.0158486
653.921	0.0156802
653.999	0.0156820
654.077	0.0155795
654.155	0.0154064
654.233	0.0154286
654.311	0.0155240
654.390	0.0155795
654.468	0.0155203
654.546	0.0154945
654.624	0.0157061
654.702	0.0157135
654.780	0.0158214
654.858	0.0160142
654.936	0.0159718
655.015	0.0160217
655.093	0.0160441
655.171	0.0161223
655.249	0.0161318
655.327	0.0161102
655.405	0.0161007
655.483	0.0161117
655.561	0.0159448
655.640	0.0159389
655.718	0.0159340
655.796	0.0160365
655.874	0.0159623
655.952	0.0156255
656.030	0.0158778
656.108	0.0159143
656.186	0.0155795
656.265	0.0155461
656.343	0.0155744
656.421	0.0155556
656.499	0.0153043
656.577	0.0152657
656.655	0.0152790
656.733	0.0154174
656.811	0.0153102
656.890	0.0153966
656.968	0.0153011
657.046	0.0155656
657.124	0.0154675
657.202	0.0155795
657.280	0.0158827
657.358	0.0158992
657.436	0.0160377
657.515	0.0161781
657.593	0.0162942
657.671	0.0164053
657.749	0.0166570
657.827	0.0168552
657.905	0.0170129
657.983	0.0171046
658.061	0.0172474
658.140	0.0173420
658.218	0.0174177
658.296	0.0175938
658.374	0.0176189
658.452	0.0174159
658.530	0.0177294
658.608	0.0176343
658.686	0.0174323
658.765	0.0172767
658.843	0.0173026
658.921	0.0173135
658.999	0.0169920
659.077	0.0167899
659.155	0.0167201
659.233	0.0167057
659.311	0.0167066
659.390	0.0165878
659.468	0.0165630
659.546	0.0164110
659.624	0.0164455
659.702	0.0163762
659.780	0.0163125
659.858	0.0162874
659.936	0.0163118
660.015	0.0162071
660.093	0.0162151
660.171	0.0162352
660.249	0.0162346
660.327	0.0163062
660.405	0.0162688
660.483	0.0165155
660.561	0.0162959
660.640	0.0163907
660.718	0.0165494
660.796	0.0164747
660.874	0.0164167
660.952	0.0163913
661.030	0.0164966
661.108	0.0165732
661.186	0.0165352
661.265	0.0165312
661.343	0.0164191
661.421	0.0164545
661.499	0.0165979
661.577	0.0165486
661.655	0.0165844
661.733	0.0166822
661.811	0.0165681
661.890	0.0166334
661.968	0.0165630
662.046	0.0165165
662.124	0.0164060
662.202	0.0163547
662.280	0.0165128
662.358	0.0163015
662.436	0.0161950
662.515	0.0162374
662.593	0.0159931
662.671	0.0160704
662.749	0.0161979
662.827	0.0161393
662.905	0.0162120
662.983	0.0162404
663.061	0.0162326
663.140	0.0162437
663.218	0.0164269
663.296	0.0164246
663.374	0.0164765
663.452	0.0165248
663.530	0.0167285
663.608	0.0167391
663.686	0.0167197
663.765	0.0167224
663.843	0.0167951
663.921	0.0169586
663.999	0.0170636
664.077	0.0169440
664.155	0.0169856
664.233	0.0168785
664.311	0.0169712
664.390	0.0169461
664.468	0.0168834
664.546	0.0168173
664.624	0.0168777
664.702	0.0166541
664.780	0.0166717
664.858	0.0166687
664.936	0.0166100
665.015	0.0164600
665.093	0.0165109
665.171	0.0164826
665.249	0.0164742
665.327	0.0164441
665.405	0.0164764
665.483	0.0163548
665.561	0.0165599
665.640	0.0166662
665.718	0.0165656
665.796	0.0165919
665.874	0.0165058
665.952	0.0164339
666.030	0.0165687
666.108	0.0165020
666.186	0.0163681
666.265	0.0162956
666.343	0.0161398
666.421	0.0163073
666.499	0.0161610
666.577	0.0160686
666.655	0.0161024
666.733	0.0161182
666.811	0.0159255
666.890	0.0160820
666.968	0.0159286
667.046	0.0158981
667.124	0.0159458
667.202	0.0160757
667.280	0.0160458
667.358	0.0160108
667.436	0.0159832
667.515	0.0160233
667.593	0.0160505
667.671	0.0160273
667.749	0.0159910
667.827	0.0160409
667.905	0.0159898
667.983	0.0161092
668.061	0.0159708
668.140	0.0160955
668.218	0.0160282
668.296	0.0161789
668.374	0.0162011
668.452	0.0162748
668.530	0.0163239
668.608	0.0163433
668.686	0.0164577
668.765	0.0164491
668.843	0.0163012
668.921	0.0162787
668.999	0.0163762
669.077	0.0163718
669.155	0.0163851
669.233	0.0164454
669.311	0.0163005
669.390	0.0163191
669.468	0.0164205
669.546	0.0163444
669.624	0.0163672
669.702	0.0163956
669.780	0.0163206
669.858	0.0163455
669.936	0.0163645
670.015	0.0163933
670.093	0.0163737
670.171	0.0164578
670.249	0.0166220
670.327	0.0164804
670.405	0.0164725
670.483	0.0166593
670.561	0.0165005
670.640	0.0166724
670.718	0.0167650
670.796	0.0166886
670.874	0.0166887
670.952	0.0167812
671.030	0.0168163
671.108	0.0168273
671.186	0.0168233
671.265	0.0168288
671.343	0.0167692
671.421	0.0166273
671.499	0.0165785
671.577	0.0165999
671.655	0.0166389
671.733	0.0164713
671.811	0.0165042
671.890	0.0165930
671.968	0.0164309
672.046	0.0164645
672.124	0.0164680
672.202	0.0165012
672.280	0.0165266
672.358	0.0163501
672.436	0.0164577
672.515	0.0163480
672.593	0.0163471
672.671	0.0163781
672.749	0.0162619
672.827	0.0163358
672.905	0.0163295
672.983	0.0160968
673.061	0.0161578
673.140	0.0161263
673.218	0.0161774
673.296	0.0162340
673.374	0.0162415
673.452	0.0161940
673.530	0.0161861
673.608	0.0164417
673.686	0.0163813
673.765	0.0163102
673.843	0.0163587
673.921	0.0163518
673.999	0.0163527
674.077	0.0163834
674.155	0.0162717
674.233	0.0162255
674.311	0.0163033
674.390	0.0161214
674.468	0.0160937
674.546	0.0160570
674.624	0.0160430
674.702	0.0159738
674.780	0.0159763
674.858	0.0159828
674.936	0.0159542
675.015	0.0160239
675.093	0.0162132
675.171	0.0161088
675.249	0.0160114
675.327	0.0162342
675.405	0.0162772
675.483	0.0164019
675.561	0.0164654
675.640	0.0164609
675.718	0.0164590
675.796	0.0166552
675.874	0.0166150
675.952	0.0165502
676.030	0.0166144
676.108	0.0166413
676.186	0.0166299
676.265	0.0167307
676.343	0.0165762
676.421	0.0164423
676.499	0.0166129
676.577	0.0164674
676.655	0.0164485
676.733	0.0165744
676.811	0.0163654
676.890	0.0165100
676.968	0.0165472
677.046	0.0164942
677.124	0.0164848
677.202	0.0164591
677.280	0.0166129
677.358	0.0165932
677.436	0.0165298
677.515	0.0165712
677.593	0.0165283
677.671	0.0166314
677.749	0.0164285
677.827	0.0165318
677.905	0.0163586
677.983	0.0164400
678.061	0.0162719
678.140	0.0162310
678.218	0.0162397
678.296	0.0161604
678.374	0.0161974
678.452	0.0160804
678.530	0.0160207
678.608	0.0159783
678.686	0.0159871
678.765	0.0159557
678.843	0.0159860
678.921	0.0158452
678.999	0.0158440
679.077	0.0158039
679.155	0.0158537
679.233	0.0156860
679.311	0.0158686
679.390	0.0160262
679.468	0.0159483
679.546	0.0160183
679.624	0.0160335
679.702	0.0159339
679.780	0.0161800
679.858	0.0160027
679.936	0.0162737
680.015	0.0161967
680.093	0.0162472
680.171	0.0164630
680.249	0.0164515
680.327	0.0165248
680.405	0.0165489
680.483	0.0167146
680.561	0.0167258
680.640	0.0167714
680.718	0.0167843
680.796	0.0170132
680.874	0.0169807
680.952	0.0170004
681.030	0.0170849
681.108	0.0169717
681.186	0.0172140
681.265	0.0168472
681.343	0.0168217
681.421	0.0168273
681.499	0.0167654
681.577	0.0167424
681.655	0.0166368
681.733	0.0165615
681.811	0.0164569
681.890	0.0164355
681.968	0.0162183
682.046	0.0162849
682.124	0.0161320
682.202	0.0161676
682.280	0.0160486
682.358	0.0159086
682.436	0.0159568
682.515	0.0158237
682.593	0.0158163
682.671	0.0156882
682.749	0.0156992
682.827	0.0159041
682.905	0.0157848
682.983	0.0158099
683.061	0.0159934
683.140	0.0159370
683.218	0.0160282
683.296	0.0160397
683.374	0.0161572
683.452	0.0161844
683.530	0.0163247
683.608	0.0162725
683.686	0.0162878
683.765	0.0163334
683.843	0.0164637
683.921	0.0165912
683.999	0.0166640
684.077	0.0165484
684.155	0.0164883
684.233	0.0164977
684.311	0.0165435
684.390	0.0167368
684.468	0.0165150
684.546	0.0164291
684.624	0.0165109
684.702	0.0165168
684.780	0.0164349
684.858	0.0164528
684.936	0.0163801
685.015	0.0163979
685.093	0.0165089
685.171	0.0164436
685.249	0.0165050
685.327	0.0163789
685.405	0.0162925
685.483	0.0165875
685.561	0.0165325
685.640	0.0162931
685.718	0.0165239
685.796	0.0165228
685.874	0.0165171
685.952	0.0166442
686.030	0.0166733
686.108	0.0165174
686.186	0.0164504
686.265	0.0165337
686.343	0.0165771
686.421	0.0163527
686.499	0.0164439
686.577	0.0165723
686.655	0.0163797
686.733	0.0163139
686.811	0.0163467
686.890	0.0164113
686.968	0.0162523
687.046	0.0161649
687.124	0.0162830
687.202	0.0162083
687.280	0.0162791
687.358	0.0162618
687.436	0.0163376
687.515	0.0163670
687.593	0.0162859
687.671	0.0164428
687.749	0.0164239
687.827	0.0164564
687.905	0.0164269
687.983	0.0163092
688.061	0.0164681
688.140	0.0164461
688.218	0.0163154
688.296	0.0164304
688.374	0.0164153
688.452	0.0165582
688.530	0.0163980
688.608	0.0164814
688.686	0.0164179
688.765	0.0164633
688.843	0.0164007
688.921	0.0164196
688.999	0.0162281
689.077	0.0163562
689.155	0.0165100
689.233	0.0164869
689.311	0.0162434
689.390	0.0163571
689.468	0.0162984
689.546	0.0161798
689.624	0.0161334
689.702	0.0161243
689.780	0.0162102
689.858	0.0159623
689.936	0.0159055
690.015	0.0159383
690.093	0.0158633
690.171	0.0157916
690.249	0.0158176
690.327	0.0159366
690.405	0.0159444
690.483	0.0160342
690.561	0.0160027
690.640	0.0160674
690.718	0.0159705
690.796	0.0161380
690.874	0.0162508
690.952	0.0161912
691.030	0.0162786
691.108	0.0165136
691.186	0.0164814
691.265	0.0165102
691.343	0.0165523
691.421	0.0167041
691.499	0.0166851
691.577	0.0165696
691.655	0.0167322
691.733	0.0166914
691.811	0.0169562
691.890	0.0167606
691.968	0.0165597
692.046	0.0165797
692.124	0.0166756
692.202	0.0166068
692.280	0.0165700
692.358	0.0164035
692.436	0.0163912
692.515	0.0164474
692.593	0.0165149
692.671	0.0165725
692.749	0.0162974
692.827	0.0164821
692.905	0.0164277
692.983	0.0162671
693.061	0.0164314
693.140	0.0164671
693.218	0.0162402
693.296	0.0162775
693.374	0.0162751
693.452	0.0164192
693.530	0.0163013
693.608	0.0162745
693.686	0.0161196
693.765	0.0162201
693.843	0.0161882
693.921	0.0163150
693.999	0.0162148
694.077	0.0160584
694.155	0.0160771
694.233	0.0160462
694.311	0.0160171
694.390	0.0160655
694.468	0.0161191
694.546	0.0160706
694.624	0.0159962
694.702	0.0159897
694.780	0.0162201
694.858	0.0161031
694.936	0.0161326
695.015	0.0161677
695.093	0.0162955
695.171	0.0164033
695.249	0.0164050
695.327	0.0163989
695.405	0.0165376
695.483	0.0165678
695.561	0.0164922
695.640	0.0165673
695.718	0.0166982
695.796	0.0165897
695.874	0.0167478
695.952	0.0167889
696.030	0.0167684
696.108	0.0166716
696.186	0.0168305
696.265	0.0167644
696.343	0.0167506
696.421	0.0166655
696.499	0.0166742
696.577	0.0165828
696.655	0.0165909
696.733	0.0164587
696.811	0.0164626
696.890	0.0163550
696.968	0.0162479
697.046	0.0163274
697.124	0.0163167
697.202	0.0162814
697.280	0.0162910
697.358	0.0162735
697.436	0.0162476
697.515	0.0162670
697.593	0.0162342
697.671	0.0161263
697.749	0.0163297
697.827	0.0163525
697.905	0.0162901
697.983	0.0163489
698.061	0.0163881
698.140	0.0163087
698.218	0.0164693
698.296	0.0164465
698.374	0.0164706
698.452	0.0164870
698.530	0.0164071
698.608	0.0165182
698.686	0.0165283
698.765	0.0164655
698.843	0.0163937
698.921	0.0163993
698.999	0.0164056
699.077	0.0163481
699.155	0.0163615
699.233	0.0165426
699.311	0.0164178
699.390	0.0163216
699.468	0.0162376
699.546	0.0162614
699.624	0.0162353
699.702	0.0162593
699.780	0.0162404
699.858	0.0162406
699.936	0.0162064
700.015	0.0161512
700.093	0.0161366
700.171	0.0163033
700.249	0.0162688
700.327	0.0162691
700.405	0.0162012
700.483	0.0161134
700.561	0.0162549
700.640	0.0163303
700.718	0.0162185
700.796	0.0162174
700.874	0.0162436
700.952	0.0161516
701.030	0.0160812
701.108	0.0162091
701.186	0.0161860
701.265	0.0160070
701.343	0.0161588
701.421	0.0161015
701.499	0.0162275
701.577	0.0161926
701.655	0.0161189
701.733	0.0161086
701.811	0.0161304
701.890	0.0160495
701.968	0.0159696
702.046	0.0160429
702.124	0.0160834
702.202	0.0161060
702.280	0.0161964
702.358	0.0159817
702.436	0.0158468
702.515	0.0160343
702.593	0.0160956
702.671	0.0160535
702.749	0.0159330
702.827	0.0160483
702.905	0.0160864
702.983	0.0159649
703.061	0.0159953
703.140	0.0160133
703.218	0.0162225
703.296	0.0162565
703.374	0.0162246
703.452	0.0162546
703.530	0.0163445
703.608	0.0162618
703.686	0.0163522
703.765	0.0163827
703.843	0.0164134
703.921	0.0163858
703.999	0.0164958
704.077	0.0166631
704.155	0.0165105
704.233	0.0164965
704.311	0.0165599
704.390	0.0164926
704.468	0.0164932
704.546	0.0163615
704.624	0.0163264
704.702	0.0161920
704.780	0.0162928
704.858	0.0162323
704.936	0.0160949
705.015	0.0161716
705.093	0.0162082
705.171	0.0161431
705.249	0.0161209
705.327	0.0159498
705.405	0.0159830
705.483	0.0159984
705.561	0.0159962
705.640	0.0160928
705.718	0.0160770
705.796	0.0161265
705.874	0.0161125
705.952	0.0162292
706.030	0.0164429
706.108	0.0165228
706.186	0.0163860
706.265	0.0165216
706.343	0.0165763
706.421	0.0165895
706.499	0.0165337
706.577	0.0166108
706.655	0.0164204
706.733	0.0165381
706.811	0.0166322
706.890	0.0165746
706.968	0.0166011
707.046	0.0165654
707.124	0.0164324
707.202	0.0164754
707.280	0.0162668
707.358	0.0163573
707.436	0.0162210
707.515	0.0162733
707.593	0.0162497
707.671	0.0161525
707.749	0.0161536
707.827	0.0161413
707.905	0.0159306
707.983	0.0160603
708.061	0.0161031
708.140	0.0160213
708.218	0.0160661
708.296	0.0160547
708.374	0.0161401
708.452	0.0161665
708.530	0.0162881
708.608	0.0164088
708.686	0.0164169
708.765	0.0165263
708.843	0.0163093
708.921	0.0163634
708.999	0.0165996
709.077	0.0165021
709.155	0.0166124
709.233	0.0165515
709.311	0.0165472
709.390	0.0167049
709.468	0.0166741
709.546	0.0167738
709.624	0.0166428
709.702	0.0166930
709.780	0.0167781
709.858	0.0166204
709.936	0.0166748
710.015	0.0166386
710.093	0.0165940
710.171	0.0166688
710.249	0.0166591
710.327	0.0166563
710.405	0.0165322
710.483	0.0164929
710.561	0.0165005
710.640	0.0165265
710.718	0.0164616
710.796	0.0162978
710.874	0.0163991
710.952	0.0164118
711.030	0.0162665
711.108	0.0160842
711.186	0.0164582
711.265	0.0163319
711.343	0.0163815
711.421	0.0164687
711.499	0.0163099
711.577	0.0161954
711.655	0.0163133
711.733	0.0164619
711.811	0.0164278
711.890	0.0162964
711.968	0.0162123
712.046	0.0162659
712.124	0.0162306
712.202	0.0162484
712.280	0.0162322
712.358	0.0160722
712.436	0.0161726
712.515	0.0162211
712.593	0.0160974
712.671	0.0161077
712.749	0.0160284
712.827	0.0159458
712.905	0.0159735
712.983	0.0158616
713.061	0.0158359
713.140	0.0159608
713.218	0.0160881
713.296	0.0158383
713.374	0.0159175
713.452	0.0157808
713.530	0.0157171
713.608	0.0158689
713.686	0.0158019
713.765	0.0158727
713.843	0.0158274
713.921	0.0158952
713.999	0.0160445
714.077	0.0160391
714.155	0.0159361
714.233	0.0159597
714.311	0.0161079
714.390	0.0161176
714.468	0.0161942
714.546	0.0162498
714.624	0.0163749
714.702	0.0162914
714.780	0.0164001
714.858	0.0164907
714.936	0.0163783
715.015	0.0164330
715.093	0.0163990
715.171	0.0167477
715.249	0.0164980
715.327	0.0164600
715.405	0.0166933
715.483	0.0166235
715.561	0.0167388
715.640	0.0166767
715.718	0.0166191
715.796	0.0166308
715.874	0.0166106
715.952	0.0164873
716.030	0.0166553
716.108	0.0165350
716.186	0.0166080
716.265	0.0164342
716.343	0.0164761
716.421	0.0163988
716.499	0.0163657
716.577	0.0162982
716.655	0.0163350
716.733	0.0163760
716.811	0.0161803
716.890	0.0162662
716.968	0.0161965
717.046	0.0162802
717.124	0.0163081
717.202	0.0162893
717.280	0.0163164
717.358	0.0161366
717.436	0.0163201
717.515	0.0162885
717.593	0.0163328
717.671	0.0162216
717.749	0.0161591
717.827	0.0162312
717.905	0.0163290
717.983	0.0162833
718.061	0.0162708
718.140	0.0162824
718.218	0.0162972
718.296	0.0163273
718.374	0.0163480
718.452	0.0164184
718.530	0.0162229
718.608	0.0162843
718.686	0.0163560
718.765	0.0164583
718.843	0.0162556
718.921	0.0163862
718.999	0.0165201
719.077	0.0164030
719.155	0.0163644
719.233	0.0163459
719.311	0.0164852
719.390	0.0164830
719.468	0.0165018
719.546	0.0165229
719.624	0.0164489
719.702	0.0164823
719.780	0.0166231
719.858	0.0165821
719.936	0.0165861
720.015	0.0165565
720.093	0.0164835
720.171	0.0166024
720.249	0.0165120
720.327	0.0165869
720.405	0.0163888
720.483	0.0164986
720.561	0.0163949
720.640	0.0163180
720.718	0.0162942
720.796	0.0164830
720.874	0.0162595
720.952	0.0163692
721.030	0.0163795
721.108	0.0162521
721.186	0.0163654
721.265	0.0163316
721.343	0.0161219
721.421	0.0163225
721.499	0.0163145
721.577	0.0164790
721.655	0.0164487
721.733	0.0164807
721.811	0.0163578
721.890	0.0163709
721.968	0.0164522
722.046	0.0163720
722.124	0.0162807
722.202	0.0164019
722.280	0.0163761
722.358	0.0164144
722.436	0.0162479
722.515	0.0162215
722.593	0.0163333
722.671	0.0162717
722.749	0.0161776
722.827	0.0162634
722.905	0.0162359
722.983	0.0162070
723.061	0.0161066
723.140	0.0163300
723.218	0.0161645
723.296	0.0160466
723.374	0.0160410
723.452	0.0161617
723.530	0.0161533
723.608	0.0161635
723.686	0.0161768
723.765	0.0162717
723.843	0.0161586
723.921	0.0161127
723.999	0.0162876
724.077	0.0161976
724.155	0.0162108
724.233	0.0162627
724.311	0.0161725
724.390	0.0161641
724.468	0.0163979
724.546	0.0162012
724.624	0.0161559
724.702	0.0162218
724.780	0.0163185
724.858	0.0163294
724.936	0.0161871
725.015	0.0162957
725.093	0.0161827
725.171	0.0163243
725.249	0.0163579
725.327	0.0161887
725.405	0.0161150
725.483	0.0163944
725.561	0.0164761
725.640	0.0163512
725.718	0.0162683
725.796	0.0163358
725.874	0.0163634
725.952	0.0163017
726.030	0.0162981
726.108	0.0162885
726.186	0.0163651
726.265	0.0162517
726.343	0.0162267
726.421	0.0162251
726.499	0.0161996
726.577	0.0162468
726.655	0.0161574
726.733	0.0160941
726.811	0.0161406
726.890	0.0161271
726.968	0.0161251
727.046	0.0161306
727.124	0.0161286
727.202	0.0160711
727.280	0.0161897
727.358	0.0160620
727.436	0.0161621
727.515	0.0162226
727.593	0.0161941
727.671	0.0162374
727.749	0.0161914
727.827	0.0161495
727.905	0.0161692
727.983	0.0162402
728.061	0.0162598
728.140	0.0162032
728.218	0.0162463
728.296	0.0163228
728.374	0.0161763
728.452	0.0163609
728.530	0.0164066
728.608	0.0163531
728.686	0.0162781
728.765	0.0162041
728.843	0.0163033
728.921	0.0164046
728.999	0.0163007
729.077	0.0163125
729.155	0.0163657
729.233	0.0164894
729.311	0.0164713
729.390	0.0164668
729.468	0.0164441
729.546	0.0164020
729.624	0.0163317
729.702	0.0164654
729.780	0.0163508
729.858	0.0163783
729.936	0.0164429
730.015	0.0164203
730.093	0.0163232
730.171	0.0161696
730.249	0.0162801
730.327	0.0162714
730.405	0.0163332
730.483	0.0162300
730.561	0.0162885
730.640	0.0161073
730.718	0.0161083
730.796	0.0161857
730.874	0.0161472
730.952	0.0163223
731.030	0.0163339
731.108	0.0162660
731.186	0.0163201
731.265	0.0162830
731.343	0.0163310
731.421	0.0164455
731.499	0.0163565
731.577	0.0163161
731.655	0.0163199
731.733	0.0164168
731.811	0.0164144
731.890	0.0164780
731.968	0.0162923
732.046	0.0163824
732.124	0.0163967
732.202	0.0165220
732.280	0.0163154
732.358	0.0162679
732.436	0.0164284
732.515	0.0162159
732.593	0.0163360
732.671	0.0163548
732.749	0.0163607
732.827	0.0163515
732.905	0.0162930
732.983	0.0162482
733.061	0.0162611
733.140	0.0164581
733.218	0.0163640
733.296	0.0163620
733.374	0.0162567
733.452	0.0162340
733.530	0.0163121
733.608	0.0161187
733.686	0.0161900
733.765	0.0162785
733.843	0.0162826
733.921	0.0160876
733.999	0.0162739
734.077	0.0162351
734.155	0.0162920
734.233	0.0163705
734.311	0.0162542
734.390	0.0161622
734.468	0.0162690
734.546	0.0164191
734.624	0.0164585
734.702	0.0164471
734.780	0.0165146
734.858	0.0165678
734.936	0.0164363
735.015	0.0163625
735.093	0.0162393
735.171	0.0162096
735.249	0.0163766
735.327	0.0164574
735.405	0.0163259
735.483	0.0163459
735.561	0.0163542
735.640	0.0161902
735.718	0.0162379
735.796	0.0163313
735.874	0.0163632
735.952	0.0163242
736.030	0.0163378
736.108	0.0162859
736.186	0.0164162
736.265	0.0163924
736.343	0.0164363
736.421	0.0163562
736.499	0.0165497
736.577	0.0165131
736.655	0.0165604
736.733	0.0164979
736.811	0.0166212
736.890	0.0166056
736.968	0.0165175
737.046	0.0166834
737.124	0.0165455
737.202	0.0166081
737.280	0.0166130
737.358	0.0166116
737.436	0.0165295
737.515	0.0165308
737.593	0.0164133
737.671	0.0164349
737.749	0.0163684
737.827	0.0163177
737.905	0.0163054
737.983	0.0161760
738.061	0.0162006
738.140	0.0160788
738.218	0.0160686
738.296	0.0160571
738.374	0.0160155
738.452	0.0159192
738.530	0.0160257
738.608	0.0159842
738.686	0.0159756
738.765	0.0160989
738.843	0.0160873
738.921	0.0160565
738.999	0.0160918
739.077	0.0159119
739.155	0.0160270
739.233	0.0162099
739.311	0.0161540
739.390	0.0162816
739.468	0.0162395
739.546	0.0162296
739.624	0.0162590
739.702	0.0163739
739.780	0.0164497
739.858	0.0163703
739.936	0.0162907
740.015	0.0163662
740.093	0.0164783
740.171	0.0165329
740.249	0.0164927
740.327	0.0164689
740.405	0.0165768
740.483	0.0165290
740.561	0.0166001
740.640	0.0165338
740.718	0.0165583
740.796	0.0163879
740.874	0.0163956
740.952	0.0163731
741.030	0.0163483
741.108	0.0165939
741.186	0.0163342
741.265	0.0163643
741.343	0.0165796
741.421	0.0164341
741.499	0.0163319
741.577	0.0161998
741.655	0.0162498
741.733	0.0162325
741.811	0.0163676
741.890	0.0163797
741.968	0.0163222
742.046	0.0162824
742.124	0.0163337
742.202	0.0164359
742.280	0.0164409
742.358	0.0163303
742.436	0.0164693
742.515	0.0164726
742.593	0.0164371
742.671	0.0164626
742.749	0.0165053
742.827	0.0163628
742.905	0.0163864
742.983	0.0165207
743.061	0.0163253
743.140	0.0164734
743.218	0.0164370
743.296	0.0163535
743.374	0.0163808
743.452	0.0165504
743.530	0.0164783
743.608	0.0164321
743.686	0.0165276
743.765	0.0164594
743.843	0.0164668
743.921	0.0163950
743.999	0.0163802
744.077	0.0164346
744.155	0.0164629
744.233	0.0162009
744.311	0.0163425
744.390	0.0162904
744.468	0.0162305
744.546	0.0161966
744.624	0.0162716
744.702	0.0163404
744.780	0.0162072
744.858	0.0161697
744.936	0.0163197
745.015	0.0162275
745.093	0.0161904
745.171	0.0162579
745.249	0.0162516
745.327	0.0162166
745.405	0.0161584
745.483	0.0160860
745.561	0.0162170
745.640	0.0162573
745.718	0.0160647
745.796	0.0160797
745.874	0.0161201
745.952	0.0159985
746.030	0.0159990
746.108	0.0159869
746.186	0.0159794
746.265	0.0160802
746.343	0.0160993
746.421	0.0159251
746.499	0.0159381
746.577	0.0160568
746.655	0.0160807
746.733	0.0159749
746.811	0.0159763
746.890	0.0161071
746.968	0.0160590
747.046	0.0160274
747.124	0.0162579
747.202	0.0161958
747.280	0.0161751
747.358	0.0160561
747.436	0.0161721
747.515	0.0160698
747.593	0.0162160
747.671	0.0162421
747.749	0.0162476
747.827	0.0164043
747.905	0.0164281
747.983	0.0162268
748.061	0.0164626
748.140	0.0163221
748.218	0.0164413
748.296	0.0162750
748.374	0.0164491
748.452	0.0164830
748.530	0.0166117
748.608	0.0164091
748.686	0.0165991
748.765	0.0164629
748.843	0.0164207
748.921	0.0164675
748.999	0.0165686
749.077	0.0164078
749.155	0.0164719
749.233	0.0164981
749.311	0.0164484
749.390	0.0163762
749.468	0.0164176
749.546	0.0164139
749.624	0.0164419
749.702	0.0163503
749.780	0.0163251
749.858	0.0162757
749.936	0.0162843
750.015	0.0162207
750.093	0.0163093
750.171	0.0163815
750.249	0.0163029
750.327	0.0162695
750.405	0.0162812
750.483	0.0163934
750.561	0.0162677
750.640	0.0162203
750.718	0.0162482
750.796	0.0163236
750.874	0.0163339
750.952	0.0162897
751.030	0.0163506
751.108	0.0163217
751.186	0.0163827
751.265	0.0164579
751.343	0.0163519
751.421	0.0163231
751.499	0.0162807
751.577	0.0164312
751.655	0.0163906
751.733	0.0162806
751.811	0.0163026
751.890	0.0163277
751.968	0.0162853
752.046	0.0163018
752.124	0.0162086
752.202	0.0161496
752.280	0.0162191
752.358	0.0161572
752.436	0.0161288
752.515	0.0161249
752.593	0.0162165
752.671	0.0160677
752.749	0.0160399
752.827	0.0159563
752.905	0.0161507
752.983	0.0160955
753.061	0.0159852
753.140	0.0160384
753.218	0.0160783
753.296	0.0159656
753.374	0.0160690
753.452	0.0160889
753.530	0.0162011
753.608	0.0160769
753.686	0.0162708
753.765	0.0162510
753.843	0.0161622
753.921	0.0162834
753.999	0.0162971
754.077	0.0164163
754.155	0.0163690
754.233	0.0163129
754.311	0.0164080
754.390	0.0163979
754.468	0.0165925
754.546	0.0164851
754.624	0.0166099
754.702	0.0165378
754.780	0.0164949
754.858	0.0166050
754.936	0.0167232
755.015	0.0165834
755.093	0.0165633
755.171	0.0166327
755.249	0.0165951
755.327	0.0165764
755.405	0.0165634
755.483	0.0166664
755.561	0.0165194
755.640	0.0165450
755.718	0.0165836
755.796	0.0167381
755.874	0.0165748
755.952	0.0165508
756.030	0.0165709
756.108	0.0166429
756.186	0.0165534
756.265	0.0164745
756.343	0.0165977
756.421	0.0166206
756.499	0.0165691
756.577	0.0165582
756.655	0.0167286
756.733	0.0165405
756.811	0.0165675
756.890	0.0164188
756.968	0.0165284
757.046	0.0166699
757.124	0.0166230
757.202	0.0163814
757.280	0.0164005
757.358	0.0164814
757.436	0.0165385
757.515	0.0165880
757.593	0.0165053
757.671	0.0164756
757.749	0.0165331
757.827	0.0164917
757.905	0.0165007
757.983	0.0164665
758.061	0.0165220
758.140	0.0164890
758.218	0.0165773
758.296	0.0163862
758.374	0.0164996
758.452	0.0164153
758.530	0.0164449
758.608	0.0163805
758.686	0.0163570
758.765	0.0164332
758.843	0.0164621
758.921	0.0163900
758.999	0.0163987
759.077	0.0163876
759.155	0.0163644
759.233	0.0163781
759.311	0.0163419
759.390	0.0164573
759.468	0.0163043
759.546	0.0162968
759.624	0.0162985
759.702	0.0161438
759.780	0.0162830
759.858	0.0164183
759.936	0.0162845
760.015	0.0161315
760.093	0.0161898
760.171	0.0163230
760.249	0.0161847
760.327	0.0163572
760.405	0.0162743
760.483	0.0162856
760.561	0.0162986
760.640	0.0162383
760.718	0.0162649
760.796	0.0164218
760.874	0.0164000
760.952	0.0162843
761.030	0.0164297
761.108	0.0165329
761.186	0.0163850
761.265	0.0164591
761.343	0.0164645
761.421	0.0164474
761.499	0.0164061
761.577	0.0163711
761.655	0.0163766
761.733	0.0163756
761.811	0.0163834
761.890	0.0163361
761.968	0.0163832
762.046	0.0163195
762.124	0.0163158
762.202	0.0163497
762.280	0.0163647
762.358	0.0162921
762.436	0.0163136
762.515	0.0162222
762.593	0.0161984
762.671	0.0160474
762.749	0.0162363
762.827	0.0160526
762.905	0.0162669
762.983	0.0161825
763.061	0.0160478
763.140	0.0162690
763.218	0.0164074
763.296	0.0161601
763.374	0.0162135
763.452	0.0163331
763.530	0.0162649
763.608	0.0161007
763.686	0.0161558
763.765	0.0163686
763.843	0.0162218
763.921	0.0161407
763.999	0.0161285
764.077	0.0163358
764.155	0.0163169
764.233	0.0161834
764.311	0.0162600
764.390	0.0161888
764.468	0.0161867
764.546	0.0161763
764.624	0.0163290
764.702	0.0163146
764.780	0.0161600
764.858	0.0164008
764.936	0.0163634
765.015	0.0161799
765.093	0.0161876
765.171	0.0163392
765.249	0.0161468
765.327	0.0162078
765.405	0.0162851
765.483	0.0163947
765.561	0.0162959
765.640	0.0163206
765.718	0.0164101
765.796	0.0162875
765.874	0.0162783
765.952	0.0163955
766.030	0.0164619
766.108	0.0163866
766.186	0.0164920
766.265	0.0164063
766.343	0.0164444
766.421	0.0164159
766.499	0.0163994
766.577	0.0163906
766.655	0.0164642
766.733	0.0164674
766.811	0.0163549
766.890	0.0164799
766.968	0.0163811
767.046	0.0163811
767.124	0.0162537
767.202	0.0164038
767.280	0.0163602
767.358	0.0163172
767.436	0.0162994
767.515	0.0163305
767.593	0.0164023
767.671	0.0164276
767.749	0.0162771
767.827	0.0162936
767.905	0.0163739
767.983	0.0163197
768.061	0.0163057
768.140	0.0164001
768.218	0.0162354
768.296	0.0162543
768.374	0.0163543
768.452	0.0162742
768.530	0.0161848
768.608	0.0162324
768.686	0.0162999
768.765	0.0164339
768.843	0.0163184
768.921	0.0163387
768.999	0.0161800
769.077	0.0161802
769.155	0.0162628
769.233	0.0162848
769.311	0.0163783
769.390	0.0162564
769.468	0.0165401
769.546	0.0163364
769.624	0.0163499
769.702	0.0162811
769.780	0.0162806
769.858	0.0164767
769.936	0.0163177
770.015	0.0162372
770.093	0.0162260
770.171	0.0163360
770.249	0.0162804
770.327	0.0163421
770.405	0.0162872
770.483	0.0163177
770.561	0.0163604
770.640	0.0163763
770.718	0.0163734
770.796	0.0162786
770.874	0.0163017
770.952	0.0163821
771.030	0.0163330
771.108	0.0162222
771.186	0.0163455
771.265	0.0162031
771.343	0.0163708
771.421	0.0164021
771.499	0.0163969
771.577	0.0164007
771.655	0.0163988
771.733	0.0164532
771.811	0.0163821
771.890	0.0162470
771.968	0.0164381
772.046	0.0164319
772.124	0.0163340
772.202	0.0164217
772.280	0.0164415
772.358	0.0162164
772.436	0.0163953
772.515	0.0163779
772.593	0.0163310
772.671	0.0162163
772.749	0.0163016
772.827	0.0161712
772.905	0.0162390
772.983	0.0164706
773.061	0.0162977
773.140	0.0162403
773.218	0.0163464
773.296	0.0162819
773.374	0.0161441
773.452	0.0164204
773.530	0.0164477
773.608	0.0162138
773.686	0.0163100
773.765	0.0163174
773.843	0.0163326
773.921	0.0163827
773.999	0.0163025
774.077	0.0163827
774.155	0.0163109
774.233	0.0162680
774.311	0.0163524
774.390	0.0163374
774.468	0.0163683
774.546	0.0163532
774.624	0.0162589
774.702	0.0162047
774.780	0.0161990
774.858	0.0161478
774.936	0.0162432
775.015	0.0160873
775.093	0.0161541
775.171	0.0162820
775.249	0.0162328
775.327	0.0161342
775.405	0.0160757
775.483	0.0162397
775.561	0.0161842
775.640	0.0162066
775.718	0.0162206
775.796	0.0162032
775.874	0.0161323
775.952	0.0163079
776.030	0.0162106
776.108	0.0161615
776.186	0.0163356
776.265	0.0162858
776.343	0.0163602
776.421	0.0162727
776.499	0.0163747
776.577	0.0162128
776.655	0.0163025
776.733	0.0163632
776.811	0.0163795
776.890	0.0164288
776.968	0.0163255
777.046	0.0163164
777.124	0.0162855
777.202	0.0163880
777.280	0.0163757
777.358	0.0162539
777.436	0.0164036
777.515	0.0163261
777.593	0.0163677
777.671	0.0160710
777.749	0.0163050
777.827	0.0164309
777.905	0.0162231
777.983	0.0161520
778.061	0.0163399
778.140	0.0162738
778.218	0.0163799
778.296	0.0164022
778.374	0.0164296
778.452	0.0164398
778.530	0.0164284
778.608	0.0165618
778.686	0.0165142
778.765	0.0164217
778.843	0.0163911
778.921	0.0165148
778.999	0.0164989
779.077	0.0165794
779.155	0.0165977
779.233	0.0166618
779.311	0.0165250
779.390	0.0164413
779.468	0.0164551
779.546	0.0165636
779.624	0.0165080
779.702	0.0165333
779.780	0.0164154
779.858	0.0165412
779.936	0.0164335
780.015	0.0166535
780.093	0.0166080
780.171	0.0165114
780.249	0.0166034
780.327	0.0165320
780.405	0.0164563
780.483	0.0165545
780.561	0.0165307
780.640	0.0164480
780.718	0.0163687
780.796	0.0164155
780.874	0.0165546
780.952	0.0165741
781.030	0.0163354
781.108	0.0163865
781.186	0.0163934
781.265	0.0165185
781.343	0.0165305
781.421	0.0164118
781.499	0.0164938
781.577	0.0164317
781.655	0.0164166
781.733	0.0163390
781.811	0.0163125
781.890	0.0163637
781.968	0.0164980
782.046	0.0164576
782.124	0.0164434
782.202	0.0163734
782.280	0.0163761
782.358	0.0163960
782.436	0.0164878
782.515	0.0164317
782.593	0.0163755
782.671	0.0164011
782.749	0.0163143
782.827	0.0163638
782.905	0.0165021
782.983	0.0163492
783.061	0.0162866
783.140	0.0163924
783.218	0.0164133
783.296	0.0161729
783.374	0.0162545
783.452	0.0163596
783.530	0.0165498
783.608	0.0163285
783.686	0.0163260
783.765	0.0162492
783.843	0.0163316
783.921	0.0163355
783.999	0.0163366
784.077	0.0164973
784.155	0.0164395
784.233	0.0162995
784.311	0.0164914
784.390	0.0165321
784.468	0.0163693
784.546	0.0163734
784.624	0.0163683
784.702	0.0162617
784.780	0.0163537
784.858	0.0164632
784.936	0.0164230
785.015	0.0164177
785.093	0.0163541
785.171	0.0164302
785.249	0.0164858
785.327	0.0164471
785.405	0.0162595
785.483	0.0163569
785.561	0.0164334
785.640	0.0164875
785.718	0.0163084
785.796	0.0162774
785.874	0.0163536
785.952	0.0163012
786.030	0.0163515
786.108	0.0163775
786.186	0.0162666
786.265	0.0163584
786.343	0.0163041
786.421	0.0163486
786.499	0.0163451
786.577	0.0163545
786.655	0.0162046
786.733	0.0161568
786.811	0.0163285
786.890	0.0163122
786.968	0.0163339
787.046	0.0162570
787.124	0.0163299
787.202	0.0163545
787.280	0.0163985
787.358	0.0163655
787.436	0.0162672
787.515	0.0161617
787.593	0.0164130
787.671	0.0162283
787.749	0.0163838
787.827	0.0162837
787.905	0.0164272
787.983	0.0162592
788.061	0.0163744
788.140	0.0162874
788.218	0.0161871
788.296	0.0162758
788.374	0.0161637
788.452	0.0162119
788.530	0.0161131
788.608	0.0162975
788.686	0.0163294
788.765	0.0163868
788.843	0.0162643
788.921	0.0162217
788.999	0.0160909
789.077	0.0162724
789.155	0.0161750
789.233	0.0162649
789.311	0.0162701
789.390	0.0163764
789.468	0.0161771
789.546	0.0163055
789.624	0.0162654
789.702	0.0162562
789.780	0.0162569
789.858	0.0163228
789.936	0.0162904
790.015	0.0162592
790.093	0.0162344
790.171	0.0163333
790.249	0.0163500
790.327	0.0162910
790.405	0.0161444
790.483	0.0163940
790.561	0.0162307
790.640	0.0162601
790.718	0.0162040
790.796	0.0162875
790.874	0.0162872
790.952	0.0161212
791.030	0.0162421
791.108	0.0162064
791.186	0.0162959
791.265	0.0164349
791.343	0.0162975
791.421	0.0161896
791.499	0.0162860
791.577	0.0163646
791.655	0.0163078
791.733	0.0163847
791.811	0.0162724
791.890	0.0163034
791.968	0.0162231
792.046	0.0162298
792.124	0.0163503
792.202	0.0162044
792.280	0.0161689
792.358	0.0161057
792.436	0.0163127
792.515	0.0162049
792.593	0.0162387
792.671	0.0163041
792.749	0.0163724
792.827	0.0162894
792.905	0.0161501
792.983	0.0163022
793.061	0.0163356
793.140	0.0162462
793.218	0.0164321
793.296	0.0164368
793.374	0.0165395
793.452	0.0163268
793.530	0.0165452
793.608	0.0164849
793.686	0.0164323
793.765	0.0164192
793.843	0.0165150
793.921	0.0164634
793.999	0.0164220
794.077	0.0164876
794.155	0.0165368
794.233	0.0164885
794.311	0.0164681
794.390	0.0164828
794.468	0.0164886
794.546	0.0165537
794.624	0.0166122
794.702	0.0164264
794.780	0.0164547
794.858	0.0165701
794.936	0.0165128
795.015	0.0163644
795.093	0.0164719
795.171	0.0163965
795.249	0.0164864
795.327	0.0165678
795.405	0.0164125
795.483	0.0164079
795.561	0.0162916
795.640	0.0165549
795.718	0.0165997
795.796	0.0163309
795.874	0.0164357
795.952	0.0164205
796.030	0.0165864
796.108	0.0164207
796.186	0.0163665
796.265	0.0162866
796.343	0.0164339
796.421	0.0163526
796.499	0.0164345
796.577	0.0164354
796.655	0.0163387
796.733	0.0164028
796.811	0.0161715
796.890	0.0162286
796.968	0.0163355
797.046	0.0159737
797.124	0.0160916
797.202	0.0163284
797.280	0.0162581
797.358	0.0162200
797.436	0.0162183
797.515	0.0162246
797.593	0.0161224
797.671	0.0162313
797.749	0.0162876
797.827	0.0162490
797.905	0.0162788
797.983	0.0161987
798.061	0.0163351
798.140	0.0163319
798.218	0.0163532
798.296	0.0162598
798.374	0.0163419
798.452	0.0163832
798.530	0.0162595
798.608	0.0163721
798.686	0.0163816
798.765	0.0163333
798.843	0.0162305
798.921	0.0163712
798.999	0.0162510
799.077	0.0162433
799.155	0.0162943
799.233	0.0163209
799.311	0.0163103
799.390	0.0164095
799.468	0.0161536
799.546	0.0161301
799.624	0.0161955
799.702	0.0161792
799.780	0.0163764
799.858	0.0162144
799.936	0.0161980
800.015	0.0162630
800.093	0.0162303
800.171	0.0162492
800.249	0.0162674
800.327	0.0160846
800.405	0.0161578
800.483	0.0162807
800.561	0.0163712
800.640	0.0162621
800.718	0.0162585
800.796	0.0161936
800.874	0.0161694
800.952	0.0163452
801.030	0.0163677
801.108	0.0163410
801.186	0.0164306
801.265	0.0162659
801.343	0.0163844
801.421	0.0163857
801.499	0.0164121
801.577	0.0164783
801.655	0.0166550
801.733	0.0165806
801.811	0.0166592
801.890	0.0165032
801.968	0.0164289
802.046	0.0165112
802.124	0.0165201
802.202	0.0163910
802.280	0.0163985
802.358	0.0164825
802.436	0.0165289
802.515	0.0164870
802.593	0.0163451
802.671	0.0162234
802.749	0.0163795
802.827	0.0163422
802.905	0.0163292
802.983	0.0163179
803.061	0.0164373
803.140	0.0162492
803.218	0.0162354
803.296	0.0162843
803.374	0.0164439
803.452	0.0163876
803.530	0.0163473
803.608	0.0163897
803.686	0.0163663
803.765	0.0162932
803.843	0.0163459
803.921	0.0164365
803.999	0.0164040
804.077	0.0165498
804.155	0.0165592
804.233	0.0164717
804.311	0.0165012
804.390	0.0164387
804.468	0.0163704
804.546	0.0163876
804.624	0.0163717
804.702	0.0163745
804.780	0.0164339
804.858	0.0162985
804.936	0.0163408
805.015	0.0162843
805.093	0.0162655
805.171	0.0162025
805.249	0.0163065
805.327	0.0162892
805.405	0.0163058
805.483	0.0161979
805.561	0.0162161
805.640	0.0162897
805.718	0.0162474
805.796	0.0163402
805.874	0.0163446
805.952	0.0164825
806.030	0.0163246
806.108	0.0163752
806.186	0.0164366
806.265	0.0163697
806.343	0.0164574
806.421	0.0164534
806.499	0.0163253
806.577	0.0163644
806.655	0.0163956
806.733	0.0163556
806.811	0.0164481
806.890	0.0164616
806.968	0.0164182
807.046	0.0163092
807.124	0.0163328
807.202	0.0163421
807.280	0.0163226
807.358	0.0162699
807.436	0.0163224
807.515	0.0163167
807.593	0.0163194
807.671	0.0162305
807.749	0.0160654
807.827	0.0163146
807.905	0.0162207
807.983	0.0161954
808.061	0.0162608
808.140	0.0162849
808.218	0.0162347
808.296	0.0162663
808.374	0.0162032
808.452	0.0162686
808.530	0.0162457
808.608	0.0161747
808.686	0.0162631
808.765	0.0164069
808.843	0.0162905
808.921	0.0164153
808.999	0.0163657
809.077	0.0163786
809.155	0.0163734
809.233	0.0161985
809.311	0.0165068
809.390	0.0164198
809.468	0.0163564
809.546	0.0164240
809.624	0.0164252
809.702	0.0164243
809.780	0.0164030
809.858	0.0163945
809.936	0.0163722
810.015	0.0164732
810.093	0.0163535
810.171	0.0165915
810.249	0.0163437
810.327	0.0162917
810.405	0.0164227
810.483	0.0163274
810.561	0.0162930
810.640	0.0163725
810.718	0.0164690
810.796	0.0164606
810.874	0.0162698
810.952	0.0163578
811.030	0.0164263
811.108	0.0164154
811.186	0.0163950
811.265	0.0163757
811.343	0.0164309
811.421	0.0163869
811.499	0.0164517
811.577	0.0163359
811.655	0.0163293
811.733	0.0163355
811.811	0.0163929
811.890	0.0163925
811.968	0.0164403
812.046	0.0163454
812.124	0.0162878
812.202	0.0163088
812.280	0.0162045
812.358	0.0162055
812.436	0.0160905
812.515	0.0162460
812.593	0.0161428
812.671	0.0161982
812.749	0.0163329
812.827	0.0163782
812.905	0.0161995
812.983	0.0162328
813.061	0.0161941
813.140	0.0163117
813.218	0.0160944
813.296	0.0161971
813.374	0.0161768
813.452	0.0161060
813.530	0.0160874
813.608	0.0161422
813.686	0.0162768
813.765	0.0162182
813.843	0.0161864
813.921	0.0161694
813.999	0.0163267
814.077	0.0162227
814.155	0.0163428
814.233	0.0161491
814.311	0.0161610
814.390	0.0162891
814.468	0.0162542
814.546	0.0160771
814.624	0.0162109
814.702	0.0161870
814.780	0.0162773
814.858	0.0160838
814.936	0.0161684
815.015	0.0161286
815.093	0.0162584
815.171	0.0162350
815.249	0.0162415
815.327	0.0160644
815.405	0.0160803
815.483	0.0161548
815.561	0.0161292
815.640	0.0160788
815.718	0.0161548
815.796	0.0161463
815.874	0.0161247
815.952	0.0161803
816.030	0.0162414
816.108	0.0161281
816.186	0.0162385
816.265	0.0163308
816.343	0.0162130
816.421	0.0162106
816.499	0.0162396
816.577	0.0161534
816.655	0.0162209
816.733	0.0162006
816.811	0.0163218
816.890	0.0161460
816.968	0.0163194
817.046	0.0162962
817.124	0.0161754
817.202	0.0161832
817.280	0.0163480
817.358	0.0162194
817.436	0.0163089
817.515	0.0162827
817.593	0.0162867
817.671	0.0162164
817.749	0.0161401
817.827	0.0162565
817.905	0.0161966
817.983	0.0163026
818.061	0.0162313
818.140	0.0161856
818.218	0.0162673
818.296	0.0163256
818.374	0.0163605
818.452	0.0162247
818.530	0.0163808
818.608	0.0162663
818.686	0.0163080
818.765	0.0164030
818.843	0.0164912
818.921	0.0163878
818.999	0.0164986
819.077	0.0164190
819.155	0.0164922
819.233	0.0164125
819.311	0.0164959
819.390	0.0164455
819.468	0.0165138
819.546	0.0164826
819.624	0.0164793
819.702	0.0164981
819.780	0.0165413
819.858	0.0165386
819.936	0.0164294
820.015	0.0164662
820.093	0.0165295
820.171	0.0164573
820.249	0.0163797
820.327	0.0164497
820.405	0.0164211
820.483	0.0163886
820.561	0.0164700
820.640	0.0164143
820.718	0.0164144
820.796	0.0163402
820.874	0.0164546
820.952	0.0162673
821.030	0.0162358
821.108	0.0163776
821.186	0.0162902
821.265	0.0162587
821.343	0.0164222
821.421	0.0162534
821.499	0.0161871
821.577	0.0162005
821.655	0.0162833
821.733	0.0161298
821.811	0.0161957
821.890	0.0162596
821.968	0.0163190
822.046	0.0162287
822.124	0.0161425
822.202	0.0161608
822.280	0.0162665
822.358	0.0162585
822.436	0.0162099
822.515	0.0162199
822.593	0.0163143
822.671	0.0162241
822.749	0.0163512
822.827	0.0163385
822.905	0.0163295
822.983	0.0162157
823.061	0.0161844
823.140	0.0162524
823.218	0.0164349
823.296	0.0162636
823.374	0.0163688
823.452	0.0164143
823.530	0.0162457
823.608	0.0164049
823.686	0.0164178
823.765	0.0162489
823.843	0.0162097
823.921	0.0161288
823.999	0.0162847
824.077	0.0163863
824.155	0.0162530
824.233	0.0163690
824.311	0.0162919
824.390	0.0162490
824.468	0.0161577
824.546	0.0163980
824.624	0.0163467
824.702	0.0163786
824.780	0.0163291
824.858	0.0162536
824.936	0.0163367
825.015	0.0163435
825.093	0.0162625
825.171	0.0163311
825.249	0.0163715
825.327	0.0162904
825.405	0.0163809
825.483	0.0163499
825.561	0.0162087
825.640	0.0162498
825.718	0.0162708
825.796	0.0162708
825.874	0.0163197
825.952	0.0161906
826.030	0.0161747
826.108	0.0161613
826.186	0.0162611
826.265	0.0161196
826.343	0.0161297
826.421	0.0162994
826.499	0.0163420
826.577	0.0163566
826.655	0.0162243
826.733	0.0164192
826.811	0.0161715
826.890	0.0163633
826.968	0.0163848
827.046	0.0164853
827.124	0.0163046
827.202	0.0164017
827.280	0.0164252
827.358	0.0164744
827.436	0.0165675
827.515	0.0165625
827.593	0.0164066
827.671	0.0163461
827.749	0.0164441
827.827	0.0165448
827.905	0.0164038
827.983	0.0164675
828.061	0.0165256
828.140	0.0164655
828.218	0.0163686
828.296	0.0163229
828.374	0.0163853
828.452	0.0162666
828.530	0.0163685
828.608	0.0163759
828.686	0.0162109
828.765	0.0163155
828.843	0.0163675
828.921	0.0162490
828.999	0.0163755
829.077	0.0163829
829.155	0.0164125
829.233	0.0163520
829.311	0.0162099
829.390	0.0162027
829.468	0.0164091
829.546	0.0163678
829.624	0.0164351
829.702	0.0164745
829.780	0.0163295
829.858	0.0164327
829.936	0.0166126
830.015	0.0164410
830.093	0.0165561
830.171	0.0165359
830.249	0.0165474
830.327	0.0165406
830.405	0.0165496
830.483	0.0164555
830.561	0.0165443
830.640	0.0164809
830.718	0.0164445
830.796	0.0165454
830.874	0.0165168
830.952	0.0166356
831.030	0.0164042
831.108	0.0165444
831.186	0.0166846
831.265	0.0167008
831.343	0.0163359
831.421	0.0164307
831.499	0.0164497
831.577	0.0163979
831.655	0.0165010
831.733	0.0165591
831.811	0.0164726
831.890	0.0163911
831.968	0.0163200
832.046	0.0163217
832.124	0.0163794
832.202	0.0164344
832.280	0.0165069
832.358	0.0164051
832.436	0.0164471
832.515	0.0164119
832.593	0.0164306
832.671	0.0163989
832.749	0.0164095
832.827	0.0164613
832.905	0.0163819
832.983	0.0162875
833.061	0.0162952
833.140	0.0163912
833.218	0.0162270
833.296	0.0162102
833.374	0.0163275
833.452	0.0162632
833.530	0.0163033
833.608	0.0163858
833.686	0.0163512
833.765	0.0162557
833.843	0.0162341
833.921	0.0163396
833.999	0.0162354
834.077	0.0162639
834.155	0.0163280
834.233	0.0165073
834.311	0.0163258
834.390	0.0163856
834.468	0.0164320
834.546	0.0164507
834.624	0.0165486
834.702	0.0164137
834.780	0.0164384
834.858	0.0163374
834.936	0.0163304
835.015	0.0165872
835.093	0.0165192
835.171	0.0164829
835.249	0.0164318
835.327	0.0162766
835.405	0.0162397
835.483	0.0163519
835.561	0.0162796
835.640	0.0162933
835.718	0.0162772
835.796	0.0164120
835.874	0.0162726
835.952	0.0163630
836.030	0.0163593
836.108	0.0162678
836.186	0.0161813
836.265	0.0162773
836.343	0.0160717
836.421	0.0162998
836.499	0.0162182
836.577	0.0160843
836.655	0.0161761
836.733	0.0162556
836.811	0.0160773
836.890	0.0162650
836.968	0.0162163
837.046	0.0162601
837.124	0.0161591
837.202	0.0160747
837.280	0.0160741
837.358	0.0161061
837.436	0.0163010
837.515	0.0162116
837.593	0.0161624
837.671	0.0162615
837.749	0.0162247
837.827	0.0163283
837.905	0.0163041
837.983	0.0161970
838.061	0.0162991
838.140	0.0164011
838.218	0.0163197
838.296	0.0163160
838.374	0.0163039
838.452	0.0163644
838.530	0.0163329
838.608	0.0165099
838.686	0.0163772
838.765	0.0163618
838.843	0.0164083
838.921	0.0164147
838.999	0.0162997
839.077	0.0163487
839.155	0.0163441
839.233	0.0162816
839.311	0.0163103
839.390	0.0163628
839.468	0.0163462
839.546	0.0163091
839.624	0.0162285
839.702	0.0164241
839.780	0.0163958
839.858	0.0163260
839.936	0.0166026
840.015	0.0164983
840.093	0.0163359
840.171	0.0163244
840.249	0.0164397
840.327	0.0164670
840.405	0.0164909
840.483	0.0165060
840.561	0.0165714
840.640	0.0164746
840.718	0.0165488
840.796	0.0165059
840.874	0.0163036
840.952	0.0164793
841.030	0.0165209
841.108	0.0166563
841.186	0.0164550
841.265	0.0164610
841.343	0.0163874
841.421	0.0164738
841.499	0.0164760
841.577	0.0164920
841.655	0.0163370
841.733	0.0163938
841.811	0.0165236
841.890	0.0165150
841.968	0.0164674
842.046	0.0164770
842.124	0.0164364
842.202	0.0163824
842.280	0.0164008
842.358	0.0165723
842.436	0.0165519
842.515	0.0164207
842.593	0.0163977
842.671	0.0163558
842.749	0.0163308
842.827	0.0165637
842.905	0.0164952
842.983	0.0164227
843.061	0.0162729
843.140	0.0163599
843.218	0.0164012
843.296	0.0162356
843.374	0.0163164
843.452	0.0162908
843.530	0.0162267
843.608	0.0162804
843.686	0.0164386
843.765	0.0163304
843.843	0.0162063
843.921	0.0163023
843.999	0.0163820
844.077	0.0162920
844.155	0.0161659
844.233	0.0163717
844.311	0.0162289
844.390	0.0162414
844.468	0.0162726
844.546	0.0161317
844.624	0.0161835
844.702	0.0161906
844.780	0.0159950
844.858	0.0163412
844.936	0.0162476
845.015	0.0162235
845.093	0.0162711
845.171	0.0161751
845.249	0.0162518
845.327	0.0161881
845.405	0.0162445
845.483	0.0161069
845.561	0.0162869
845.640	0.0162089
845.718	0.0160790
845.796	0.0161228
845.874	0.0162404
845.952	0.0162009
846.030	0.0161305
846.108	0.0160753
846.186	0.0162347
846.265	0.0161051
846.343	0.0160157
846.421	0.0160979
846.499	0.0160657
846.577	0.0161501
846.655	0.0161049
846.733	0.0161510
846.811	0.0161054
846.890	0.0161197
846.968	0.0161824
847.046	0.0161230
847.124	0.0161516
847.202	0.0161130
847.280	0.0161855
847.358	0.0161978
847.436	0.0161574
847.515	0.0161932
847.593	0.0161536
847.671	0.0162720
847.749	0.0161889
847.827	0.0162778
847.905	0.0160962
847.983	0.0162280
848.061	0.0163851
848.140	0.0162675
848.218	0.0163007
848.296	0.0163036
848.374	0.0162834
848.452	0.0161694
848.530	0.0163807
848.608	0.0163818
848.686	0.0161518
848.765	0.0162324
848.843	0.0162761
848.921	0.0163650
848.999	0.0165206
849.077	0.0164207
849.155	0.0162159
849.233	0.0164778
849.311	0.0163708
849.390	0.0164189
849.468	0.0165567
849.546	0.0165446
849.624	0.0164314
849.702	0.0165672
849.780	0.0165443
849.858	0.0164452
849.936	0.0165041
850.015	0.0164961
850.093	0.0163763
850.171	0.0164902
850.249	0.0164713
850.327	0.0165085
850.405	0.0164851
850.483	0.0165316
850.561	0.0164819
850.640	0.0164550
850.718	0.0164326
850.796	0.0165172
850.874	0.0164119
850.952	0.0164359
851.030	0.0164720
851.108	0.0164697
851.186	0.0164599
851.265	0.0163882
851.343	0.0166259
851.421	0.0164716
851.499	0.0164977
851.577	0.0164735
851.655	0.0164818
851.733	0.0164612
851.811	0.0164532
851.890	0.0164563
851.968	0.0165166
852.046	0.0165424
852.124	0.0163813
852.202	0.0164394
852.280	0.0165118
852.358	0.0165214
852.436	0.0163758
852.515	0.0164365
852.593	0.0164767
852.671	0.0164299
852.749	0.0165218
852.827	0.0164475
852.905	0.0163968
852.983	0.0164740
853.061	0.0164553
853.140	0.0164848
853.218	0.0164892
853.296	0.0165417
853.374	0.0163763
853.452	0.0164940
853.530	0.0166280
853.608	0.0164216
853.686	0.0164694
853.765	0.0164262
853.843	0.0164151
853.921	0.0164398
853.999	0.0165186
854.077	0.0164321
854.155	0.0162812
854.233	0.0163152
854.311	0.0163834
854.390	0.0162366
854.468	0.0162886
854.546	0.0161980
854.624	0.0161381
854.702	0.0162166
854.780	0.0162531
854.858	0.0161993
854.936	0.0160860
855.015	0.0162316
855.093	0.0160865
855.171	0.0162094
855.249	0.0161325
855.327	0.0160897
855.405	0.0161588
855.483	0.0161795
855.561	0.0161847
855.640	0.0162807
855.718	0.0162202
855.796	0.0164034
855.874	0.0162156
855.952	0.0161573
856.030	0.0161724
856.108	0.0161817
856.186	0.0163795
856.265	0.0163202
856.343	0.0162322
856.421	0.0162522
856.499	0.0163928
856.577	0.0164119
856.655	0.0164800
856.733	0.0163563
856.811	0.0163715
856.890	0.0164773
856.968	0.0162363
857.046	0.0163142
857.124	0.0163651
857.202	0.0163789
857.280	0.0164204
857.358	0.0164183
857.436	0.0163232
857.515	0.0163019
857.593	0.0162888
857.671	0.0163438
857.749	0.0164050
857.827	0.0164543
857.905	0.0164178
857.983	0.0163815
858.061	0.0162655
858.140	0.0163371
858.218	0.0163545
858.296	0.0164030
858.374	0.0163565
858.452	0.0163330
858.530	0.0163157
858.608	0.0163199
858.686	0.0164600
858.765	0.0162814
858.843	0.0164633
858.921	0.0165250
858.999	0.0163875
859.077	0.0162666
859.155	0.0164507
859.233	0.0163313
859.311	0.0163599
859.390	0.0164422
859.468	0.0163340
859.546	0.0163111
859.624	0.0163882
859.702	0.0163884
859.780	0.0163674
859.858	0.0163563
859.936	0.0163361
860.015	0.0161922
860.093	0.0163852
860.171	0.0163470
860.249	0.0162891
860.327	0.0162149
860.405	0.0163254
860.483	0.0163200
860.561	0.0161819
860.640	0.0163848
860.718	0.0162215
860.796	0.0162043
860.874	0.0163123
860.952	0.0163502
861.030	0.0162271
861.108	0.0163148
861.186	0.0163130
861.265	0.0163740
861.343	0.0164459
861.421	0.0162629
861.499	0.0163113
861.577	0.0162458
861.655	0.0163284
861.733	0.0163837
861.811	0.0163095
861.890	0.0162694
861.968	0.0164230
862.046	0.0163693
862.124	0.0162881
862.202	0.0164269
862.280	0.0163882
862.358	0.0162493
862.436	0.0163110
862.515	0.0163174
862.593	0.0163983
862.671	0.0161579
862.749	0.0161685
862.827	0.0162548
862.905	0.0163165
862.983	0.0162434
863.061	0.0162432
863.140	0.0162396
863.218	0.0162917
863.296	0.0162254
863.374	0.0163474
863.452	0.0161312
863.530	0.0162117
863.608	0.0162655
863.686	0.0162478
863.765	0.0162759
863.843	0.0162619
863.921	0.0162354
863.999	0.0162263
864.077	0.0161350
864.155	0.0163531
864.233	0.0163480
864.311	0.0163048
864.390	0.0162021
864.468	0.0162400
864.546	0.0162866
864.624	0.0160276
864.702	0.0161507
864.780	0.0162599
864.858	0.0164337
864.936	0.0161971
865.015	0.0162820
865.093	0.0162003
865.171	0.0162937
865.249	0.0162036
865.327	0.0164035
865.405	0.0163126
865.483	0.0163357
865.561	0.0162650
865.640	0.0161620
865.718	0.0162472
865.796	0.0161937
865.874	0.0162253
865.952	0.0162528
866.030	0.0163451
866.108	0.0163129
866.186	0.0161768
866.265	0.0162064
866.343	0.0161241
866.421	0.0163142
866.499	0.0162135
866.577	0.0162038
866.655	0.0162846
866.733	0.0163287
866.811	0.0163674
866.890	0.0163320
866.968	0.0162389
867.046	0.0162388
867.124	0.0162363
867.202	0.0163523
867.280	0.0161826
867.358	0.0161430
867.436	0.0162849
867.515	0.0162225
867.593	0.0162064
867.671	0.0162025
867.749	0.0163029
867.827	0.0161710
867.905	0.0161578
867.983	0.0162586
868.061	0.0162088
868.140	0.0162036
868.218	0.0162228
868.296	0.0161253
868.374	0.0163013
868.452	0.0161901
868.530	0.0161317
868.608	0.0161378
868.686	0.0161205
868.765	0.0162220
868.843	0.0161752
868.921	0.0163268
868.999	0.0161800
869.077	0.0160787
869.155	0.0161703
869.233	0.0161764
869.311	0.0162196
869.390	0.0160687
869.468	0.0161141
869.546	0.0161092
869.624	0.0161361
869.702	0.0162688
869.780	0.0160951
869.858	0.0160270
869.936	0.0161316
870.015	0.0161121
870.093	0.0160313
870.171	0.0160612
870.249	0.0160439
870.327	0.0160812
870.405	0.0160450
870.483	0.0160140
870.561	0.0161093
870.640	0.0162252
870.718	0.0159803
870.796	0.0160305
870.874	0.0161916
870.952	0.0160664
871.030	0.0161741
871.108	0.0161688
871.186	0.0162606
871.265	0.0162579
871.343	0.0162005
871.421	0.0162655
871.499	0.0163715
871.577	0.0163515
871.655	0.0164341
871.733	0.0163523
871.811	0.0163764
871.890	0.0164955
871.968	0.0163400
872.046	0.0163286
872.124	0.0163792
872.202	0.0164294
872.280	0.0163488
872.358	0.0164278
872.436	0.0163663
872.515	0.0163824
872.593	0.0162217
872.671	0.0163146
872.749	0.0163390
872.827	0.0164138
872.905	0.0163821
872.983	0.0163773
873.061	0.0163964
873.140	0.0163396
873.218	0.0163028
873.296	0.0163461
873.374	0.0161877
873.452	0.0162061
873.530	0.0162301
873.608	0.0163054
873.686	0.0163440
873.765	0.0163417
873.843	0.0162835
873.921	0.0162679
873.999	0.0163191
874.077	0.0161531
874.155	0.0162989
874.233	0.0163477
874.311	0.0163100
874.390	0.0162946
874.468	0.0163705
874.546	0.0163415
874.624	0.0164187
874.702	0.0164452
874.780	0.0162488
874.858	0.0162212
874.936	0.0163003
875.015	0.0162689
875.093	0.0163719
875.171	0.0164444
875.249	0.0163757
875.327	0.0163760
875.405	0.0164021
875.483	0.0163097
875.561	0.0165375
875.640	0.0163646
875.718	0.0164294
875.796	0.0162984
875.874	0.0163803
875.952	0.0163543
876.030	0.0164950
876.108	0.0162538
876.186	0.0164390
876.265	0.0163680
876.343	0.0162908
876.421	0.0163358
876.499	0.0162875
876.577	0.0163091
876.655	0.0162298
876.733	0.0162363
876.811	0.0163110
876.890	0.0161971
876.968	0.0161791
877.046	0.0162231
877.124	0.0162015
877.202	0.0161412
877.280	0.0161263
877.358	0.0161308
877.436	0.0162185
877.515	0.0160140
877.593	0.0161847
877.671	0.0161869
877.749	0.0161436
877.827	0.0162053
877.905	0.0160894
877.983	0.0162804
878.061	0.0161222
878.140	0.0161456
878.218	0.0160691
878.296	0.0162619
878.374	0.0162629
878.452	0.0162465
878.530	0.0162019
878.608	0.0161457
878.686	0.0162106
878.765	0.0162817
878.843	0.0163200
878.921	0.0161939
878.999	0.0162660
879.077	0.0161977
879.155	0.0162934
879.233	0.0162848
879.311	0.0162014
879.390	0.0162968
879.468	0.0161824
879.546	0.0163762
879.624	0.0162600
879.702	0.0162896
879.780	0.0163353
879.858	0.0163350
879.936	0.0162767
880.015	0.0163972
880.093	0.0164261
880.171	0.0163862
880.249	0.0161895
880.327	0.0163184
880.405	0.0164433
880.483	0.0163229
880.561	0.0163461
880.640	0.0163179
880.718	0.0163337
880.796	0.0163441
880.874	0.0163615
880.952	0.0162357
881.030	0.0163168
881.108	0.0162940
881.186	0.0162084
881.265	0.0163046
881.343	0.0162259
881.421	0.0163023
881.499	0.0161913
881.577	0.0161762
881.655	0.0161839
881.733	0.0163432
881.811	0.0161435
881.890	0.0160801
881.968	0.0160794
882.046	0.0161768
882.124	0.0163908
882.202	0.0162959
882.280	0.0162336
882.358	0.0162560
882.436	0.0161274
882.515	0.0159933
882.593	0.0162927
882.671	0.0162389
882.749	0.0162695
882.827	0.0163654
882.905	0.0162564
882.983	0.0161307
883.061	0.0160685
883.140	0.0161418
883.218	0.0161655
883.296	0.0161999
883.374	0.0161827
883.452	0.0162193
883.530	0.0161821
883.608	0.0162576
883.686	0.0162599
883.765	0.0163258
883.843	0.0161548
883.921	0.0163247
883.999	0.0162716
884.077	0.0163122
884.155	0.0163663
884.233	0.0162793
884.311	0.0164073
884.390	0.0164081
884.468	0.0162589
884.546	0.0163572
884.624	0.0163516
884.702	0.0163649
884.780	0.0163970
884.858	0.0163708
884.936	0.0163440
885.015	0.0163346
885.093	0.0163474
885.171	0.0164085
885.249	0.0163277
885.327	0.0163574
885.405	0.0163630
885.483	0.0164526
885.561	0.0164075
885.640	0.0164297
885.718	0.0161836
885.796	0.0162429
885.874	0.0162961
885.952	0.0163922
886.030	0.0163612
886.108	0.0163345
886.186	0.0165921
886.265	0.0165157
886.343	0.0163899
886.421	0.0164565
886.499	0.0164798
886.577	0.0164282
886.655	0.0164065
886.733	0.0164299
886.811	0.0163780
886.890	0.0164546
886.968	0.0165617
887.046	0.0163772
887.124	0.0164555
887.202	0.0163743
887.280	0.0165204
887.358	0.0164285
887.436	0.0165124
887.515	0.0164170
887.593	0.0163357
887.671	0.0164328
887.749	0.0163891
887.827	0.0164835
887.905	0.0164650
887.983	0.0165058
888.061	0.0164132
888.140	0.0164154
888.218	0.0164566
888.296	0.0164554
888.374	0.0163191
888.452	0.0164732
888.530	0.0163434
888.608	0.0163605
888.686	0.0162690
888.765	0.0163473
888.843	0.0163457
888.921	0.0162763
888.999	0.0163264
889.077	0.0162257
889.155	0.0161063
889.233	0.0161390
889.311	0.0160562
889.390	0.0162504
889.468	0.0161912
889.546	0.0161074
889.624	0.0160731
889.702	0.0160010
889.780	0.0160886
889.858	0.0161538
889.936	0.0161092
890.015	0.0162041
890.093	0.0160249
890.171	0.0159809
890.249	0.0162073
890.327	0.0160329
890.405	0.0160203
890.483	0.0160460
890.561	0.0161751
890.640	0.0161311
890.718	0.0160134
890.796	0.0161216
890.874	0.0161421
890.952	0.0161334
891.030	0.0162628
891.108	0.0163132
891.186	0.0161791
891.265	0.0162537
891.343	0.0162861
891.421	0.0162776
891.499	0.0165027
891.577	0.0164044
891.655	0.0162852
891.733	0.0162852
891.811	0.0163661
891.890	0.0164591
891.968	0.0163661
892.046	0.0164409
892.124	0.0164566
892.202	0.0163902
892.280	0.0163902
892.358	0.0165222
892.436	0.0164347
892.515	0.0164860
892.593	0.0165527
892.671	0.0165082
892.749	0.0165801
892.827	0.0164503
892.905	0.0164629
892.983	0.0165383
893.061	0.0164882
893.140	0.0164703
893.218	0.0164661
893.296	0.0165380
893.374	0.0164810
893.452	0.0164024
893.530	0.0164114
893.608	0.0165810
893.686	0.0165521
893.765	0.0164050
893.843	0.0165532
893.921	0.0166208
893.999	0.0164806
894.077	0.0163802
894.155	0.0164575
894.233	0.0164834
894.311	0.0164262
894.390	0.0166035
894.468	0.0166120
894.546	0.0164098
894.624	0.0165624
894.702	0.0163901
894.780	0.0165240
894.858	0.0164446
894.936	0.0165348
895.015	0.0163943
895.093	0.0164129
895.171	0.0164632
895.249	0.0163144
895.327	0.0162881
895.405	0.0162981
895.483	0.0163987
895.561	0.0162138
895.640	0.0163409
895.718	0.0162675
895.796	0.0162344
895.874	0.0162734
895.952	0.0162334
896.030	0.0163914
896.108	0.0162856
896.186	0.0162883
896.265	0.0163324
896.343	0.0163661
896.421	0.0162496
896.499	0.0163379
896.577	0.0164190
896.655	0.0164217
896.733	0.0165527
896.811	0.0164153
896.890	0.0163872
896.968	0.0164104
897.046	0.0164364
897.124	0.0166425
897.202	0.0164292
897.280	0.0164995
897.358	0.0164100
897.436	0.0163592
897.515	0.0164876
897.593	0.0165426
897.671	0.0166204
897.749	0.0165685
897.827	0.0166040
897.905	0.0166372
897.983	0.0166261
898.061	0.0166064
898.140	0.0166441
898.218	0.0165232
898.296	0.0164593
898.374	0.0165046
898.452	0.0164404
898.530	0.0164169
898.608	0.0164968
898.686	0.0165210
898.765	0.0163825
898.843	0.0163989
898.921	0.0164143
898.999	0.0163635
899.077	0.0162925
899.155	0.0164430
899.233	0.0162068
899.311	0.0163462
899.390	0.0162991
899.468	0.0163134
899.546	0.0162461
899.624	0.0163235
899.702	0.0163145
899.780	0.0164119
899.858	0.0162783
899.936	0.0162452
