05/24/2022	20:55:17	Ver.	4.1	UNKNOWN
Optical Delay	580.014591	Delta X		0.078125	Sweeps	1	Scan Rate	0/0
Coordinates	Axis 1	NaN	Axis 2	NaN	Axis 3	NaN	Axis 4	NaN	Axis 5	NaN	Axis 6	0.000000
TX Power	0.000000	RX Power	0.000000

580.015	0.0165575
580.093	0.0164814
580.171	0.0164595
580.249	0.0164330
580.327	0.0164827
580.405	0.0164866
580.483	0.0165575
580.561	0.0165401
580.640	0.0164407
580.718	0.0164197
580.796	0.0164531
580.874	0.0163930
580.952	0.0163890
581.030	0.0164774
581.108	0.0164689
581.186	0.0165296
581.265	0.0164843
581.343	0.0165563
581.421	0.0165110
581.499	0.0165117
581.577	0.0165778
581.655	0.0165652
581.733	0.0165229
581.811	0.0166087
581.890	0.0165406
581.968	0.0165437
582.046	0.0164890
582.124	0.0165337
582.202	0.0165909
582.280	0.0164929
582.358	0.0166414
582.436	0.0166449
582.515	0.0166708
582.593	0.0166536
582.671	0.0165315
582.749	0.0166645
582.827	0.0166245
582.905	0.0165998
582.983	0.0165118
583.061	0.0165405
583.140	0.0166107
583.218	0.0165946
583.296	0.0165170
583.374	0.0165632
583.452	0.0166241
583.530	0.0164771
583.608	0.0164938
583.686	0.0165672
583.765	0.0165755
583.843	0.0165490
583.921	0.0165690
583.999	0.0165978
584.077	0.0165851
584.155	0.0164817
584.233	0.0164394
584.311	0.0165393
584.390	0.0164964
584.468	0.0163560
584.546	0.0166781
584.624	0.0165220
584.702	0.0165959
584.780	0.0164947
584.858	0.0163316
584.936	0.0165443
585.015	0.0165047
585.093	0.0164085
585.171	0.0164355
585.249	0.0164486
585.327	0.0164379
585.405	0.0163802
585.483	0.0163996
585.561	0.0163853
585.640	0.0163360
585.718	0.0163955
585.796	0.0163645
585.874	0.0163805
585.952	0.0163811
586.030	0.0163410
586.108	0.0163007
586.186	0.0164158
586.265	0.0164896
586.343	0.0164474
586.421	0.0164207
586.499	0.0164521
586.577	0.0162885
586.655	0.0164177
586.733	0.0166198
586.811	0.0165743
586.890	0.0165417
586.968	0.0165305
587.046	0.0164645
587.124	0.0166641
587.202	0.0166576
587.280	0.0165582
587.358	0.0164763
587.436	0.0165335
587.515	0.0166200
587.593	0.0166441
587.671	0.0167241
587.749	0.0166103
587.827	0.0165530
587.905	0.0164639
587.983	0.0165276
588.061	0.0164513
588.140	0.0166855
588.218	0.0163949
588.296	0.0164073
588.374	0.0166419
588.452	0.0166248
588.530	0.0164645
588.608	0.0164157
588.686	0.0165583
588.765	0.0167097
588.843	0.0164967
588.921	0.0165514
588.999	0.0165840
589.077	0.0166216
589.155	0.0166566
589.233	0.0164972
589.311	0.0163733
589.390	0.0166276
589.468	0.0166750
589.546	0.0167363
589.624	0.0166990
589.702	0.0167908
589.780	0.0167120
589.858	0.0165492
589.936	0.0167055
590.015	0.0168097
590.093	0.0166175
590.171	0.0166613
590.249	0.0164571
590.327	0.0164594
590.405	0.0166846
590.483	0.0166084
590.561	0.0166039
590.640	0.0166889
590.718	0.0164982
590.796	0.0165817
590.874	0.0165772
590.952	0.0165207
591.030	0.0164464
591.108	0.0165509
591.186	0.0166968
591.265	0.0166110
591.343	0.0164968
591.421	0.0166174
591.499	0.0166193
591.577	0.0165855
591.655	0.0166586
591.733	0.0164930
591.811	0.0165162
591.890	0.0166433
591.968	0.0167545
592.046	0.0166872
592.124	0.0165466
592.202	0.0166885
592.280	0.0166401
592.358	0.0166920
592.436	0.0165690
592.515	0.0165507
592.593	0.0166398
592.671	0.0164732
592.749	0.0165242
592.827	0.0166173
592.905	0.0166488
592.983	0.0165303
593.061	0.0165160
593.140	0.0165334
593.218	0.0164410
593.296	0.0165050
593.374	0.0164335
593.452	0.0165369
593.530	0.0165607
593.608	0.0165557
593.686	0.0165226
593.765	0.0166466
593.843	0.0165617
593.921	0.0166243
593.999	0.0165044
594.077	0.0165468
594.155	0.0167110
594.233	0.0166660
594.311	0.0165315
594.390	0.0166430
594.468	0.0166824
594.546	0.0166144
594.624	0.0166519
594.702	0.0165473
594.780	0.0166171
594.858	0.0166333
594.936	0.0166151
595.015	0.0163753
595.093	0.0164925
595.171	0.0166145
595.249	0.0165617
595.327	0.0164086
595.405	0.0164557
595.483	0.0164798
595.561	0.0164822
595.640	0.0163738
595.718	0.0163924
595.796	0.0165022
595.874	0.0163512
595.952	0.0164812
596.030	0.0165141
596.108	0.0164611
596.186	0.0164155
596.265	0.0164521
596.343	0.0164279
596.421	0.0164954
596.499	0.0164878
596.577	0.0165083
596.655	0.0166980
596.733	0.0164904
596.811	0.0164971
596.890	0.0163688
596.968	0.0164837
597.046	0.0164183
597.124	0.0164738
597.202	0.0165598
597.280	0.0164929
597.358	0.0163838
597.436	0.0163676
597.515	0.0162991
597.593	0.0164495
597.671	0.0163874
597.749	0.0162910
597.827	0.0162852
597.905	0.0164091
597.983	0.0161989
598.061	0.0163419
598.140	0.0162125
598.218	0.0163863
598.296	0.0162321
598.374	0.0162557
598.452	0.0163229
598.530	0.0162361
598.608	0.0161349
598.686	0.0162280
598.765	0.0163605
598.843	0.0164243
598.921	0.0161736
598.999	0.0162724
599.077	0.0162569
599.155	0.0163918
599.233	0.0163877
599.311	0.0165124
599.390	0.0165327
599.468	0.0165543
599.546	0.0164350
599.624	0.0165421
599.702	0.0166856
599.780	0.0166048
599.858	0.0165148
599.936	0.0165181
600.015	0.0166385
600.093	0.0165947
600.171	0.0165707
600.249	0.0165459
600.327	0.0164749
600.405	0.0164981
600.483	0.0164798
600.561	0.0164408
600.640	0.0163194
600.718	0.0164391
600.796	0.0164500
600.874	0.0165185
600.952	0.0163105
601.030	0.0163161
601.108	0.0164138
601.186	0.0164634
601.265	0.0164359
601.343	0.0164272
601.421	0.0164678
601.499	0.0165559
601.577	0.0164915
601.655	0.0165102
601.733	0.0166335
601.811	0.0164702
601.890	0.0166262
601.968	0.0166431
602.046	0.0165154
602.124	0.0165350
602.202	0.0167064
602.280	0.0165938
602.358	0.0165282
602.436	0.0164377
602.515	0.0166254
602.593	0.0163968
602.671	0.0163933
602.749	0.0162926
602.827	0.0163882
602.905	0.0163205
602.983	0.0163797
603.061	0.0163189
603.140	0.0163030
603.218	0.0162090
603.296	0.0163655
603.374	0.0163130
603.452	0.0164853
603.530	0.0163583
603.608	0.0164501
603.686	0.0164973
603.765	0.0165744
603.843	0.0166885
603.921	0.0168272
603.999	0.0167336
604.077	0.0167754
604.155	0.0169213
604.233	0.0168887
604.311	0.0169238
604.390	0.0169033
604.468	0.0169360
604.546	0.0168563
604.624	0.0168501
604.702	0.0168071
604.780	0.0166334
604.858	0.0165238
604.936	0.0164517
605.015	0.0163160
605.093	0.0164235
605.171	0.0162148
605.249	0.0161530
605.327	0.0160992
605.405	0.0161215
605.483	0.0161022
605.561	0.0161111
605.640	0.0161272
605.718	0.0162493
605.796	0.0163038
605.874	0.0163577
605.952	0.0163947
606.030	0.0164903
606.108	0.0164855
606.186	0.0165817
606.265	0.0167915
606.343	0.0168716
606.421	0.0168829
606.499	0.0167700
606.577	0.0168624
606.655	0.0170179
606.733	0.0169749
606.811	0.0169656
606.890	0.0169567
606.968	0.0169106
607.046	0.0169302
607.124	0.0168313
607.202	0.0168858
607.280	0.0169335
607.358	0.0165601
607.436	0.0166245
607.515	0.0164375
607.593	0.0163172
607.671	0.0164149
607.749	0.0161449
607.827	0.0161304
607.905	0.0160485
607.983	0.0159062
608.061	0.0157787
608.140	0.0157751
608.218	0.0156837
608.296	0.0155543
608.374	0.0155112
608.452	0.0155106
608.530	0.0154002
608.608	0.0155338
608.686	0.0156442
608.765	0.0156270
608.843	0.0158640
608.921	0.0158475
608.999	0.0159619
609.077	0.0163587
609.155	0.0164494
609.233	0.0165607
609.311	0.0165401
609.390	0.0169308
609.468	0.0171577
609.546	0.0172543
609.624	0.0175014
609.702	0.0175325
609.780	0.0176058
609.858	0.0177563
609.936	0.0177264
610.015	0.0177279
610.093	0.0178282
610.171	0.0177634
610.249	0.0174945
610.327	0.0173431
610.405	0.0172389
610.483	0.0171357
610.561	0.0170449
610.640	0.0167402
610.718	0.0163554
610.796	0.0161261
610.874	0.0160900
610.952	0.0159264
611.030	0.0156685
611.108	0.0154821
611.186	0.0152678
611.265	0.0152052
611.343	0.0150401
611.421	0.0150040
611.499	0.0151485
611.577	0.0152569
611.655	0.0151185
611.733	0.0153355
611.811	0.0154651
611.890	0.0156356
611.968	0.0158080
612.046	0.0158365
612.124	0.0160442
612.202	0.0162522
612.280	0.0164008
612.358	0.0164652
612.436	0.0166193
612.515	0.0167802
612.593	0.0169872
612.671	0.0170921
612.749	0.0172382
612.827	0.0170931
612.905	0.0172354
612.983	0.0171878
613.061	0.0172234
613.140	0.0171318
613.218	0.0171003
613.296	0.0171219
613.374	0.0170385
613.452	0.0168839
613.530	0.0166902
613.608	0.0165252
613.686	0.0164659
613.765	0.0164191
613.843	0.0164108
613.921	0.0163579
613.999	0.0162010
614.077	0.0160777
614.155	0.0161749
614.233	0.0162092
614.311	0.0160817
614.390	0.0159952
614.468	0.0162537
614.546	0.0161741
614.624	0.0163450
614.702	0.0161847
614.780	0.0164111
614.858	0.0165508
614.936	0.0164085
615.015	0.0165539
615.093	0.0165652
615.171	0.0166228
615.249	0.0166346
615.327	0.0167157
615.405	0.0167071
615.483	0.0167730
615.561	0.0166663
615.640	0.0164809
615.718	0.0165805
615.796	0.0164784
615.874	0.0162855
615.952	0.0163075
616.030	0.0160695
616.108	0.0159724
616.186	0.0158701
616.265	0.0157252
616.343	0.0156156
616.421	0.0156244
616.499	0.0155116
616.577	0.0153117
616.655	0.0152260
616.733	0.0151460
616.811	0.0151814
616.890	0.0154375
616.968	0.0154034
617.046	0.0153972
617.124	0.0155151
617.202	0.0157674
617.280	0.0157908
617.358	0.0158484
617.436	0.0159834
617.515	0.0161151
617.593	0.0162813
617.671	0.0163121
617.749	0.0164855
617.827	0.0165828
617.905	0.0167934
617.983	0.0168633
618.061	0.0168736
618.140	0.0168347
618.218	0.0170229
618.296	0.0169350
618.374	0.0170480
618.452	0.0171359
618.530	0.0170325
618.608	0.0171188
618.686	0.0171095
618.765	0.0172581
618.843	0.0171829
618.921	0.0172234
618.999	0.0172408
619.077	0.0172986
619.155	0.0174335
619.233	0.0174655
619.311	0.0174195
619.390	0.0174178
619.468	0.0173526
619.546	0.0173717
619.624	0.0173804
619.702	0.0172594
619.780	0.0171281
619.858	0.0170171
619.936	0.0167710
620.015	0.0166504
620.093	0.0165372
620.171	0.0163983
620.249	0.0161573
620.327	0.0158959
620.405	0.0156800
620.483	0.0155463
620.561	0.0154792
620.640	0.0152835
620.718	0.0153141
620.796	0.0151029
620.874	0.0150298
620.952	0.0150243
621.030	0.0149344
621.108	0.0151183
621.186	0.0151953
621.265	0.0152721
621.343	0.0152004
621.421	0.0153109
621.499	0.0156580
621.577	0.0156171
621.655	0.0158241
621.733	0.0159908
621.811	0.0160561
621.890	0.0162437
621.968	0.0163783
622.046	0.0165738
622.124	0.0166566
622.202	0.0166158
622.280	0.0167176
622.358	0.0168247
622.436	0.0168500
622.515	0.0167065
622.593	0.0169966
622.671	0.0171808
622.749	0.0169120
622.827	0.0169305
622.905	0.0170238
622.983	0.0168536
623.061	0.0170650
623.140	0.0169290
623.218	0.0169200
623.296	0.0170315
623.374	0.0169107
623.452	0.0169071
623.530	0.0170272
623.608	0.0169717
623.686	0.0167545
623.765	0.0169205
623.843	0.0168840
623.921	0.0168532
623.999	0.0168927
624.077	0.0168127
624.155	0.0169370
624.233	0.0169191
624.311	0.0169182
624.390	0.0170780
624.468	0.0171171
624.546	0.0172198
624.624	0.0173100
624.702	0.0171845
624.780	0.0172975
624.858	0.0172488
624.936	0.0170770
625.015	0.0169821
625.093	0.0167764
625.171	0.0167385
625.249	0.0163924
625.327	0.0161804
625.405	0.0160616
625.483	0.0158715
625.561	0.0154121
625.640	0.0153899
625.718	0.0151091
625.796	0.0149760
625.874	0.0148623
625.952	0.0146299
626.030	0.0145863
626.108	0.0145425
626.186	0.0143748
626.265	0.0144761
626.343	0.0146208
626.421	0.0145392
626.499	0.0144849
626.577	0.0146711
626.655	0.0147128
626.733	0.0149242
626.811	0.0150670
626.890	0.0152995
626.968	0.0155017
627.046	0.0157067
627.124	0.0157257
627.202	0.0160955
627.280	0.0164053
627.358	0.0165156
627.436	0.0167017
627.515	0.0170911
627.593	0.0172491
627.671	0.0174764
627.749	0.0175288
627.827	0.0177105
627.905	0.0177843
627.983	0.0179401
628.061	0.0181573
628.140	0.0182932
628.218	0.0181748
628.296	0.0181191
628.374	0.0181727
628.452	0.0180232
628.530	0.0180589
628.608	0.0181079
628.686	0.0179442
628.765	0.0177848
628.843	0.0175813
628.921	0.0173965
628.999	0.0170422
629.077	0.0170288
629.155	0.0169371
629.233	0.0167159
629.311	0.0164616
629.390	0.0164845
629.468	0.0163433
629.546	0.0163418
629.624	0.0162960
629.702	0.0162614
629.780	0.0161804
629.858	0.0160351
629.936	0.0160641
630.015	0.0158427
630.093	0.0158818
630.171	0.0158434
630.249	0.0158585
630.327	0.0157642
630.405	0.0156595
630.483	0.0157744
630.561	0.0157957
630.640	0.0157134
630.718	0.0157809
630.796	0.0158766
630.874	0.0158199
630.952	0.0157273
631.030	0.0158167
631.108	0.0157913
631.186	0.0159314
631.265	0.0156297
631.343	0.0157327
631.421	0.0157284
631.499	0.0158105
631.577	0.0158334
631.655	0.0157494
631.733	0.0160170
631.811	0.0160608
631.890	0.0161464
631.968	0.0161602
632.046	0.0163493
632.124	0.0163041
632.202	0.0164400
632.280	0.0165726
632.358	0.0165785
632.436	0.0166967
632.515	0.0168967
632.593	0.0169437
632.671	0.0170277
632.749	0.0172532
632.827	0.0172723
632.905	0.0171168
632.983	0.0172174
633.061	0.0172288
633.140	0.0173206
633.218	0.0173156
633.296	0.0173582
633.374	0.0173248
633.452	0.0172752
633.530	0.0171446
633.608	0.0170328
633.686	0.0168929
633.765	0.0169067
633.843	0.0167159
633.921	0.0163390
633.999	0.0163380
634.077	0.0161311
634.155	0.0161174
634.233	0.0161455
634.311	0.0158746
634.390	0.0158900
634.468	0.0159238
634.546	0.0158746
634.624	0.0156958
634.702	0.0157446
634.780	0.0158166
634.858	0.0158849
634.936	0.0158453
635.015	0.0160171
635.093	0.0161551
635.171	0.0161023
635.249	0.0161169
635.327	0.0165327
635.405	0.0166413
635.483	0.0166820
635.561	0.0167870
635.640	0.0170251
635.718	0.0171494
635.796	0.0172270
635.874	0.0172420
635.952	0.0173029
636.030	0.0174306
636.108	0.0174068
636.186	0.0174072
636.265	0.0173587
636.343	0.0172211
636.421	0.0170706
636.499	0.0169183
636.577	0.0167617
636.655	0.0166640
636.733	0.0164124
636.811	0.0163215
636.890	0.0161467
636.968	0.0160249
637.046	0.0158486
637.124	0.0158271
637.202	0.0157678
637.280	0.0155247
637.358	0.0154027
637.436	0.0153210
637.515	0.0152988
637.593	0.0154704
637.671	0.0155190
637.749	0.0154232
637.827	0.0152715
637.905	0.0153900
637.983	0.0154456
638.061	0.0155463
638.140	0.0155068
638.218	0.0155932
638.296	0.0158383
638.374	0.0158997
638.452	0.0159595
638.530	0.0160077
638.608	0.0161291
638.686	0.0160767
638.765	0.0161716
638.843	0.0162021
638.921	0.0163255
638.999	0.0163604
639.077	0.0164542
639.155	0.0164887
639.233	0.0165619
639.311	0.0165427
639.390	0.0165984
639.468	0.0168325
639.546	0.0168188
639.624	0.0167485
639.702	0.0168441
639.780	0.0169573
639.858	0.0170795
639.936	0.0171711
640.015	0.0171831
640.093	0.0171237
640.171	0.0172816
640.249	0.0173373
640.327	0.0175223
640.405	0.0176199
640.483	0.0175318
640.561	0.0176452
640.640	0.0177708
640.718	0.0177629
640.796	0.0175703
640.874	0.0176528
640.952	0.0177956
641.030	0.0175209
641.108	0.0174886
641.186	0.0173780
641.265	0.0171123
641.343	0.0170667
641.421	0.0166740
641.499	0.0164894
641.577	0.0163089
641.655	0.0161008
641.733	0.0159185
641.811	0.0156783
641.890	0.0155953
641.968	0.0153944
642.046	0.0153000
642.124	0.0152059
642.202	0.0151646
642.280	0.0152550
642.358	0.0151897
642.436	0.0154275
642.515	0.0155573
642.593	0.0157392
642.671	0.0157055
642.749	0.0159580
642.827	0.0161763
642.905	0.0161615
642.983	0.0164194
643.061	0.0166615
643.140	0.0168287
643.218	0.0169817
643.296	0.0169699
643.374	0.0171668
643.452	0.0170416
643.530	0.0172140
643.608	0.0173415
643.686	0.0173549
643.765	0.0174207
643.843	0.0173605
643.921	0.0174872
643.999	0.0172947
644.077	0.0174434
644.155	0.0174912
644.233	0.0173657
644.311	0.0173934
644.390	0.0172413
644.468	0.0171442
644.546	0.0170466
644.624	0.0169740
644.702	0.0166066
644.780	0.0163638
644.858	0.0162850
644.936	0.0159756
645.015	0.0159098
645.093	0.0156940
645.171	0.0154079
645.249	0.0153297
645.327	0.0151424
645.405	0.0152016
645.483	0.0151705
645.561	0.0152477
645.640	0.0151634
645.718	0.0151202
645.796	0.0154455
645.874	0.0154802
645.952	0.0154671
646.030	0.0157124
646.108	0.0159897
646.186	0.0160985
646.265	0.0163788
646.343	0.0165482
646.421	0.0167966
646.499	0.0171239
646.577	0.0171843
646.655	0.0174020
646.733	0.0176814
646.811	0.0177355
646.890	0.0179304
646.968	0.0178371
647.046	0.0178958
647.124	0.0179515
647.202	0.0180173
647.280	0.0179222
647.358	0.0180775
647.436	0.0178730
647.515	0.0177829
647.593	0.0179115
647.671	0.0177300
647.749	0.0176321
647.827	0.0176295
647.905	0.0173956
647.983	0.0175295
648.061	0.0174554
648.140	0.0172835
648.218	0.0171809
648.296	0.0170824
648.374	0.0170349
648.452	0.0169666
648.530	0.0167811
648.608	0.0166041
648.686	0.0164520
648.765	0.0164793
648.843	0.0163996
648.921	0.0160155
648.999	0.0159915
649.077	0.0159011
649.155	0.0157473
649.233	0.0156726
649.311	0.0154467
649.390	0.0154085
649.468	0.0153788
649.546	0.0152507
649.624	0.0151207
649.702	0.0151175
649.780	0.0149492
649.858	0.0149961
649.936	0.0151382
650.015	0.0150934
650.093	0.0150943
650.171	0.0151543
650.249	0.0153217
650.327	0.0152766
650.405	0.0153773
650.483	0.0155502
650.561	0.0157375
650.640	0.0158408
650.718	0.0159354
650.796	0.0161253
650.874	0.0164475
650.952	0.0164110
651.030	0.0164579
651.108	0.0166093
651.186	0.0167380
651.265	0.0168893
651.343	0.0167943
651.421	0.0168370
651.499	0.0168719
651.577	0.0167879
651.655	0.0168888
651.733	0.0168298
651.811	0.0168650
651.890	0.0170861
651.968	0.0169320
652.046	0.0169531
652.124	0.0170499
652.202	0.0171449
652.280	0.0171185
652.358	0.0172706
652.436	0.0174072
652.515	0.0174273
652.593	0.0175562
652.671	0.0174933
652.749	0.0174124
652.827	0.0175394
652.905	0.0175302
652.983	0.0174758
653.061	0.0173186
653.140	0.0171986
653.218	0.0171587
653.296	0.0170136
653.374	0.0169690
653.452	0.0168297
653.530	0.0166814
653.608	0.0164731
653.686	0.0161465
653.765	0.0160859
653.843	0.0158617
653.921	0.0157534
653.999	0.0156971
654.077	0.0154577
654.155	0.0154081
654.233	0.0155181
654.311	0.0153976
654.390	0.0154462
654.468	0.0154035
654.546	0.0155403
654.624	0.0155129
654.702	0.0155747
654.780	0.0158102
654.858	0.0159087
654.936	0.0158172
655.015	0.0159396
655.093	0.0160267
655.171	0.0160887
655.249	0.0162349
655.327	0.0163059
655.405	0.0162872
655.483	0.0163003
655.561	0.0163863
655.640	0.0164913
655.718	0.0164376
655.796	0.0166317
655.874	0.0165305
655.952	0.0164864
656.030	0.0164619
656.108	0.0164994
656.186	0.0165473
656.265	0.0163387
656.343	0.0162488
656.421	0.0162877
656.499	0.0163784
656.577	0.0161971
656.655	0.0162066
656.733	0.0161429
656.811	0.0161259
656.890	0.0161642
656.968	0.0163612
657.046	0.0162759
657.124	0.0162691
657.202	0.0164791
657.280	0.0163996
657.358	0.0165147
657.436	0.0167225
657.515	0.0166747
657.593	0.0168022
657.671	0.0169714
657.749	0.0171724
657.827	0.0172385
657.905	0.0174357
657.983	0.0176379
658.061	0.0177447
658.140	0.0176914
658.218	0.0178605
658.296	0.0179611
658.374	0.0180821
658.452	0.0180583
658.530	0.0181605
658.608	0.0180426
658.686	0.0178870
658.765	0.0179718
658.843	0.0177798
658.921	0.0177575
658.999	0.0178101
659.077	0.0174213
659.155	0.0173325
659.233	0.0172791
659.311	0.0170361
659.390	0.0169061
659.468	0.0168111
659.546	0.0167519
659.624	0.0165867
659.702	0.0164970
659.780	0.0162583
659.858	0.0164140
659.936	0.0163412
660.015	0.0161480
660.093	0.0160249
660.171	0.0159332
660.249	0.0161242
660.327	0.0161668
660.405	0.0161338
660.483	0.0161272
660.561	0.0160695
660.640	0.0161432
660.718	0.0161977
660.796	0.0162807
660.874	0.0162391
660.952	0.0162605
661.030	0.0163688
661.108	0.0163067
661.186	0.0162263
661.265	0.0162618
661.343	0.0162658
661.421	0.0163425
661.499	0.0163763
661.577	0.0163895
661.655	0.0163234
661.733	0.0163731
661.811	0.0164029
661.890	0.0162884
661.968	0.0164175
662.046	0.0161979
662.124	0.0162948
662.202	0.0162817
662.280	0.0161729
662.358	0.0161816
662.436	0.0160787
662.515	0.0161876
662.593	0.0159916
662.671	0.0160929
662.749	0.0160293
662.827	0.0162241
662.905	0.0161482
662.983	0.0160917
663.061	0.0161314
663.140	0.0163070
663.218	0.0162863
663.296	0.0163849
663.374	0.0165329
663.452	0.0165055
663.530	0.0165238
663.608	0.0166705
663.686	0.0167970
663.765	0.0166959
663.843	0.0169803
663.921	0.0169204
663.999	0.0169770
664.077	0.0169964
664.155	0.0168077
664.233	0.0169529
664.311	0.0170172
664.390	0.0169558
664.468	0.0169958
664.546	0.0168365
664.624	0.0168321
664.702	0.0167291
664.780	0.0167174
664.858	0.0165175
664.936	0.0166544
665.015	0.0166393
665.093	0.0165856
665.171	0.0164709
665.249	0.0165596
665.327	0.0165032
665.405	0.0165126
665.483	0.0165489
665.561	0.0166490
665.640	0.0166351
665.718	0.0168495
665.796	0.0167084
665.874	0.0167408
665.952	0.0169578
666.030	0.0168400
666.108	0.0167334
666.186	0.0167152
666.265	0.0168110
666.343	0.0166098
666.421	0.0166609
666.499	0.0166287
666.577	0.0164989
666.655	0.0164351
666.733	0.0163053
666.811	0.0162700
666.890	0.0162822
666.968	0.0162640
667.046	0.0161973
667.124	0.0160358
667.202	0.0161330
667.280	0.0161574
667.358	0.0161334
667.436	0.0162077
667.515	0.0161565
667.593	0.0159894
667.671	0.0160875
667.749	0.0161827
667.827	0.0162622
667.905	0.0163404
667.983	0.0162424
668.061	0.0163126
668.140	0.0163713
668.218	0.0163146
668.296	0.0161694
668.374	0.0164499
668.452	0.0164389
668.530	0.0163054
668.608	0.0163810
668.686	0.0167019
668.765	0.0166113
668.843	0.0167276
668.921	0.0166553
668.999	0.0167179
669.077	0.0167222
669.155	0.0167389
669.233	0.0167466
669.311	0.0166962
669.390	0.0167352
669.468	0.0165601
669.546	0.0166074
669.624	0.0166709
669.702	0.0166222
669.780	0.0167314
669.858	0.0166885
669.936	0.0166319
670.015	0.0166946
670.093	0.0168385
670.171	0.0167332
670.249	0.0168150
670.327	0.0168433
670.405	0.0166994
670.483	0.0168208
670.561	0.0169397
670.640	0.0170979
670.718	0.0169647
670.796	0.0169766
670.874	0.0170406
670.952	0.0171551
671.030	0.0169646
671.108	0.0169820
671.186	0.0169648
671.265	0.0167706
671.343	0.0170203
671.421	0.0168578
671.499	0.0167338
671.577	0.0168192
671.655	0.0167141
671.733	0.0165604
671.811	0.0165885
671.890	0.0167085
671.968	0.0165912
672.046	0.0164883
672.124	0.0164477
672.202	0.0163960
672.280	0.0165971
672.358	0.0164668
672.436	0.0163525
672.515	0.0163906
672.593	0.0162645
672.671	0.0162300
672.749	0.0162690
672.827	0.0162811
672.905	0.0160851
672.983	0.0160035
673.061	0.0160989
673.140	0.0159952
673.218	0.0160989
673.296	0.0159560
673.374	0.0160190
673.452	0.0160690
673.530	0.0162198
673.608	0.0162505
673.686	0.0161951
673.765	0.0164146
673.843	0.0163433
673.921	0.0164678
673.999	0.0163427
674.077	0.0164809
674.155	0.0165754
674.233	0.0165323
674.311	0.0163927
674.390	0.0165024
674.468	0.0164138
674.546	0.0163608
674.624	0.0163839
674.702	0.0161436
674.780	0.0160999
674.858	0.0161703
674.936	0.0162096
675.015	0.0160309
675.093	0.0160825
675.171	0.0161092
675.249	0.0160920
675.327	0.0162318
675.405	0.0161440
675.483	0.0162654
675.561	0.0163632
675.640	0.0163288
675.718	0.0165401
675.796	0.0164384
675.874	0.0165443
675.952	0.0166499
676.030	0.0165750
676.108	0.0167834
676.186	0.0166186
676.265	0.0166786
676.343	0.0168674
676.421	0.0169208
676.499	0.0166438
676.577	0.0167390
676.655	0.0168071
676.733	0.0167913
676.811	0.0167294
676.890	0.0167149
676.968	0.0167590
677.046	0.0166940
677.124	0.0167426
677.202	0.0166959
677.280	0.0166281
677.358	0.0165549
677.436	0.0166003
677.515	0.0167508
677.593	0.0166317
677.671	0.0166496
677.749	0.0167107
677.827	0.0166072
677.905	0.0165099
677.983	0.0165663
678.061	0.0164612
678.140	0.0164591
678.218	0.0164860
678.296	0.0164073
678.374	0.0164819
678.452	0.0163184
678.530	0.0162631
678.608	0.0161960
678.686	0.0161141
678.765	0.0161308
678.843	0.0161243
678.921	0.0160479
678.999	0.0159323
679.077	0.0159413
679.155	0.0160275
679.233	0.0161510
679.311	0.0161224
679.390	0.0161120
679.468	0.0160488
679.546	0.0159766
679.624	0.0162058
679.702	0.0161786
679.780	0.0160931
679.858	0.0162373
679.936	0.0163301
680.015	0.0163213
680.093	0.0164082
680.171	0.0165791
680.249	0.0165181
680.327	0.0166644
680.405	0.0167892
680.483	0.0166387
680.561	0.0167885
680.640	0.0168137
680.718	0.0169295
680.796	0.0170679
680.874	0.0171169
680.952	0.0170877
681.030	0.0171672
681.108	0.0170890
681.186	0.0169968
681.265	0.0170034
681.343	0.0170554
681.421	0.0168560
681.499	0.0169323
681.577	0.0168034
681.655	0.0167831
681.733	0.0168108
681.811	0.0167902
681.890	0.0166887
681.968	0.0164322
682.046	0.0163313
682.124	0.0164024
682.202	0.0162888
682.280	0.0162436
682.358	0.0161808
682.436	0.0161431
682.515	0.0160729
682.593	0.0160301
682.671	0.0160226
682.749	0.0159232
682.827	0.0160102
682.905	0.0159558
682.983	0.0157770
683.061	0.0158683
683.140	0.0161584
683.218	0.0160221
683.296	0.0161591
683.374	0.0160888
683.452	0.0162681
683.530	0.0164539
683.608	0.0163889
683.686	0.0164801
683.765	0.0164462
683.843	0.0166457
683.921	0.0165609
683.999	0.0167145
684.077	0.0168026
684.155	0.0168350
684.233	0.0168999
684.311	0.0168887
684.390	0.0167654
684.468	0.0168037
684.546	0.0166998
684.624	0.0167524
684.702	0.0167553
684.780	0.0166834
684.858	0.0167042
684.936	0.0166601
685.015	0.0168265
685.093	0.0165788
685.171	0.0166121
685.249	0.0165478
685.327	0.0165850
685.405	0.0165546
685.483	0.0165033
685.561	0.0165758
685.640	0.0166161
685.718	0.0166407
685.796	0.0165753
685.874	0.0165270
685.952	0.0167152
686.030	0.0167941
686.108	0.0167373
686.186	0.0167486
686.265	0.0167648
686.343	0.0167904
686.421	0.0166766
686.499	0.0168868
686.577	0.0168713
686.655	0.0167273
686.733	0.0167703
686.811	0.0166956
686.890	0.0166220
686.968	0.0167075
687.046	0.0166652
687.124	0.0165639
687.202	0.0165046
687.280	0.0166009
687.358	0.0166066
687.436	0.0165730
687.515	0.0165714
687.593	0.0164376
687.671	0.0165419
687.749	0.0167072
687.827	0.0165972
687.905	0.0164900
687.983	0.0165823
688.061	0.0166041
688.140	0.0165990
688.218	0.0165833
688.296	0.0164446
688.374	0.0164803
688.452	0.0165407
688.530	0.0164427
688.608	0.0165529
688.686	0.0165042
688.765	0.0165054
688.843	0.0163229
688.921	0.0164743
688.999	0.0164799
689.077	0.0163586
689.155	0.0163852
689.233	0.0163925
689.311	0.0164477
689.390	0.0163427
689.468	0.0164003
689.546	0.0163823
689.624	0.0163401
689.702	0.0161315
689.780	0.0161812
689.858	0.0162360
689.936	0.0162901
690.015	0.0161772
690.093	0.0160770
690.171	0.0162861
690.249	0.0162772
690.327	0.0162084
690.405	0.0160873
690.483	0.0161525
690.561	0.0163853
690.640	0.0164128
690.718	0.0162712
690.796	0.0162802
690.874	0.0165334
690.952	0.0163792
691.030	0.0165890
691.108	0.0165984
691.186	0.0166122
691.265	0.0165718
691.343	0.0165581
691.421	0.0167566
691.499	0.0167376
691.577	0.0168266
691.655	0.0167532
691.733	0.0168934
691.811	0.0168057
691.890	0.0168135
691.968	0.0168661
692.046	0.0167075
692.124	0.0168518
692.202	0.0167244
692.280	0.0166829
692.358	0.0166666
692.436	0.0164701
692.515	0.0163853
692.593	0.0164497
692.671	0.0163473
692.749	0.0164381
692.827	0.0164304
692.905	0.0163198
692.983	0.0164298
693.061	0.0162339
693.140	0.0162100
693.218	0.0163280
693.296	0.0162875
693.374	0.0161728
693.452	0.0162758
693.530	0.0164784
693.608	0.0163396
693.686	0.0163393
693.765	0.0163190
693.843	0.0161776
693.921	0.0163906
693.999	0.0163441
694.077	0.0163541
694.155	0.0162585
694.233	0.0161933
694.311	0.0162867
694.390	0.0162231
694.468	0.0161732
694.546	0.0163184
694.624	0.0163445
694.702	0.0162943
694.780	0.0163033
694.858	0.0162148
694.936	0.0163969
695.015	0.0163589
695.093	0.0164036
695.171	0.0163944
695.249	0.0165328
695.327	0.0165567
695.405	0.0166622
695.483	0.0166341
695.561	0.0165947
695.640	0.0166319
695.718	0.0166296
695.796	0.0166363
695.874	0.0167438
695.952	0.0167481
696.030	0.0167940
696.108	0.0168547
696.186	0.0167411
696.265	0.0168097
696.343	0.0167474
696.421	0.0167145
696.499	0.0167278
696.577	0.0167559
696.655	0.0167163
696.733	0.0166689
696.811	0.0167046
696.890	0.0167303
696.968	0.0165192
697.046	0.0163966
697.124	0.0166609
697.202	0.0164434
697.280	0.0164608
697.358	0.0163539
697.436	0.0162413
697.515	0.0163112
697.593	0.0161567
697.671	0.0163785
697.749	0.0162167
697.827	0.0161767
697.905	0.0162592
697.983	0.0162599
698.061	0.0161980
698.140	0.0163509
698.218	0.0162279
698.296	0.0162824
698.374	0.0164094
698.452	0.0164039
698.530	0.0164033
698.608	0.0164173
698.686	0.0163502
698.765	0.0163969
698.843	0.0165960
698.921	0.0164931
698.999	0.0165090
699.077	0.0166371
699.155	0.0165114
699.233	0.0164371
699.311	0.0165795
699.390	0.0165715
699.468	0.0165517
699.546	0.0164259
699.624	0.0164197
699.702	0.0164169
699.780	0.0163314
699.858	0.0162704
699.936	0.0163271
700.015	0.0161739
700.093	0.0161392
700.171	0.0161164
700.249	0.0161769
700.327	0.0160973
700.405	0.0161328
700.483	0.0160962
700.561	0.0161765
700.640	0.0161679
700.718	0.0160932
700.796	0.0162283
700.874	0.0162778
700.952	0.0161604
701.030	0.0161680
701.108	0.0162299
701.186	0.0162786
701.265	0.0162040
701.343	0.0161736
701.421	0.0161514
701.499	0.0163995
701.577	0.0162366
701.655	0.0162270
701.733	0.0161901
701.811	0.0161547
701.890	0.0161654
701.968	0.0161603
702.046	0.0162749
702.124	0.0162901
702.202	0.0162849
702.280	0.0163821
702.358	0.0163007
702.436	0.0163321
702.515	0.0162889
702.593	0.0164249
702.671	0.0163736
702.749	0.0163184
702.827	0.0163622
702.905	0.0164157
702.983	0.0163792
703.061	0.0162642
703.140	0.0163356
703.218	0.0163334
703.296	0.0165319
703.374	0.0163544
703.452	0.0164770
703.530	0.0165513
703.608	0.0164548
703.686	0.0165440
703.765	0.0167629
703.843	0.0167091
703.921	0.0167272
703.999	0.0166796
704.077	0.0166376
704.155	0.0168324
704.233	0.0167553
704.311	0.0166825
704.390	0.0167846
704.468	0.0167964
704.546	0.0167316
704.624	0.0165978
704.702	0.0167041
704.780	0.0165488
704.858	0.0166605
704.936	0.0166286
705.015	0.0165192
705.093	0.0164915
705.171	0.0165250
705.249	0.0164417
705.327	0.0162621
705.405	0.0163284
705.483	0.0164046
705.561	0.0162352
705.640	0.0162400
705.718	0.0162664
705.796	0.0164222
705.874	0.0164657
705.952	0.0163171
706.030	0.0164011
706.108	0.0163877
706.186	0.0164636
706.265	0.0164550
706.343	0.0167730
706.421	0.0167507
706.499	0.0167424
706.577	0.0167462
706.655	0.0168081
706.733	0.0167658
706.811	0.0167805
706.890	0.0168349
706.968	0.0168784
707.046	0.0168462
707.124	0.0166643
707.202	0.0167403
707.280	0.0165812
707.358	0.0165602
707.436	0.0166885
707.515	0.0164925
707.593	0.0165852
707.671	0.0164214
707.749	0.0165138
707.827	0.0165067
707.905	0.0162513
707.983	0.0163551
708.061	0.0162899
708.140	0.0163454
708.218	0.0163505
708.296	0.0163070
708.374	0.0163102
708.452	0.0163765
708.530	0.0163496
708.608	0.0164985
708.686	0.0166019
708.765	0.0164381
708.843	0.0164765
708.921	0.0166325
708.999	0.0167313
709.077	0.0165955
709.155	0.0167014
709.233	0.0167547
709.311	0.0165974
709.390	0.0165832
709.468	0.0166499
709.546	0.0166953
709.624	0.0166228
709.702	0.0166644
709.780	0.0165314
709.858	0.0165811
709.936	0.0165910
710.015	0.0164313
710.093	0.0164476
710.171	0.0165985
710.249	0.0164923
710.327	0.0164197
710.405	0.0163885
710.483	0.0164721
710.561	0.0165697
710.640	0.0165091
710.718	0.0162786
710.796	0.0163139
710.874	0.0163431
710.952	0.0162423
711.030	0.0162992
711.108	0.0162199
711.186	0.0162319
711.265	0.0161467
711.343	0.0162550
711.421	0.0162460
711.499	0.0161918
711.577	0.0161632
711.655	0.0162121
711.733	0.0161418
711.811	0.0162406
711.890	0.0162101
711.968	0.0163087
712.046	0.0162820
712.124	0.0163629
712.202	0.0163905
712.280	0.0163729
712.358	0.0164705
712.436	0.0164175
712.515	0.0163600
712.593	0.0164220
712.671	0.0163857
712.749	0.0165508
712.827	0.0163953
712.905	0.0163838
712.983	0.0163376
713.061	0.0165053
713.140	0.0164214
713.218	0.0163284
713.296	0.0162041
713.374	0.0162707
713.452	0.0162489
713.530	0.0161911
713.608	0.0161228
713.686	0.0162413
713.765	0.0161333
713.843	0.0162073
713.921	0.0161642
713.999	0.0161522
714.077	0.0161111
714.155	0.0162772
714.233	0.0161469
714.311	0.0162773
714.390	0.0163187
714.468	0.0163557
714.546	0.0163390
714.624	0.0162870
714.702	0.0164391
714.780	0.0164833
714.858	0.0166214
714.936	0.0166617
715.015	0.0166091
715.093	0.0166599
715.171	0.0167984
715.249	0.0168056
715.327	0.0167132
715.405	0.0167864
715.483	0.0168475
715.561	0.0168855
715.640	0.0169344
715.718	0.0169383
715.796	0.0168474
715.874	0.0168700
715.952	0.0167880
716.030	0.0168541
716.108	0.0169732
716.186	0.0169122
716.265	0.0167113
716.343	0.0167122
716.421	0.0167679
716.499	0.0166958
716.577	0.0166538
716.655	0.0166583
716.733	0.0166277
716.811	0.0165621
716.890	0.0166151
716.968	0.0165025
717.046	0.0165732
717.124	0.0164641
717.202	0.0163869
717.280	0.0164513
717.358	0.0163727
717.436	0.0164182
717.515	0.0163659
717.593	0.0163526
717.671	0.0164931
717.749	0.0164330
717.827	0.0163808
717.905	0.0164755
717.983	0.0165627
718.061	0.0164704
718.140	0.0165939
718.218	0.0166346
718.296	0.0164758
718.374	0.0165987
718.452	0.0166652
718.530	0.0166173
718.608	0.0164273
718.686	0.0165586
718.765	0.0166479
718.843	0.0165949
718.921	0.0164826
718.999	0.0163963
719.077	0.0164545
719.155	0.0164159
719.233	0.0164873
719.311	0.0163403
719.390	0.0165057
719.468	0.0165285
719.546	0.0164785
719.624	0.0164296
719.702	0.0164109
719.780	0.0164957
719.858	0.0165870
719.936	0.0166234
720.015	0.0166272
720.093	0.0167088
720.171	0.0165421
720.249	0.0166949
720.327	0.0166085
720.405	0.0166265
720.483	0.0165778
720.561	0.0165906
720.640	0.0166166
720.718	0.0166122
720.796	0.0166114
720.874	0.0166459
720.952	0.0166545
721.030	0.0165061
721.108	0.0164553
721.186	0.0163864
721.265	0.0164452
721.343	0.0164476
721.421	0.0162869
721.499	0.0163970
721.577	0.0163067
721.655	0.0164496
721.733	0.0163450
721.811	0.0163618
721.890	0.0163351
721.968	0.0162922
722.046	0.0163367
722.124	0.0164183
722.202	0.0163477
722.280	0.0162746
722.358	0.0163278
722.436	0.0163614
722.515	0.0161742
722.593	0.0160558
722.671	0.0162152
722.749	0.0162041
722.827	0.0162027
722.905	0.0160532
722.983	0.0160732
723.061	0.0161251
723.140	0.0160239
723.218	0.0160346
723.296	0.0160967
723.374	0.0161559
723.452	0.0161339
723.530	0.0160374
723.608	0.0162730
723.686	0.0162074
723.765	0.0162199
723.843	0.0162576
723.921	0.0162993
723.999	0.0161909
724.077	0.0164397
724.155	0.0163226
724.233	0.0164594
724.311	0.0163787
724.390	0.0163280
724.468	0.0164940
724.546	0.0165622
724.624	0.0164361
724.702	0.0166718
724.780	0.0164298
724.858	0.0165441
724.936	0.0166010
725.015	0.0166563
725.093	0.0165133
725.171	0.0165474
725.249	0.0166281
725.327	0.0166158
725.405	0.0165849
725.483	0.0164876
725.561	0.0166165
725.640	0.0165212
725.718	0.0163960
725.796	0.0164199
725.874	0.0165381
725.952	0.0165070
726.030	0.0164215
726.108	0.0164932
726.186	0.0165873
726.265	0.0164452
726.343	0.0164300
726.421	0.0163907
726.499	0.0164253
726.577	0.0163872
726.655	0.0164285
726.733	0.0164582
726.811	0.0163892
726.890	0.0164597
726.968	0.0163190
727.046	0.0164011
727.124	0.0163814
727.202	0.0163665
727.280	0.0164031
727.358	0.0164799
727.436	0.0165454
727.515	0.0164886
727.593	0.0164604
727.671	0.0165548
727.749	0.0164825
727.827	0.0166836
727.905	0.0167194
727.983	0.0167285
728.061	0.0165446
728.140	0.0165950
728.218	0.0165152
728.296	0.0166722
728.374	0.0166750
728.452	0.0166254
728.530	0.0165549
728.608	0.0165929
728.686	0.0166248
728.765	0.0165371
728.843	0.0166005
728.921	0.0164585
728.999	0.0165598
729.077	0.0165604
729.155	0.0164742
729.233	0.0164700
729.311	0.0165531
729.390	0.0166537
729.468	0.0166241
729.546	0.0165193
729.624	0.0165737
729.702	0.0165175
729.780	0.0166270
729.858	0.0165309
729.936	0.0166439
730.015	0.0167534
730.093	0.0165095
730.171	0.0164532
730.249	0.0165371
730.327	0.0166589
730.405	0.0164860
730.483	0.0164979
730.561	0.0165467
730.640	0.0164751
730.718	0.0163727
730.796	0.0164085
730.874	0.0164888
730.952	0.0164431
731.030	0.0164781
731.108	0.0164113
731.186	0.0162901
731.265	0.0164500
731.343	0.0163673
731.421	0.0163232
731.499	0.0164622
731.577	0.0163570
731.655	0.0164099
731.733	0.0165200
731.811	0.0164310
731.890	0.0164436
731.968	0.0163927
732.046	0.0165054
732.124	0.0162351
732.202	0.0162773
732.280	0.0164817
732.358	0.0164768
732.436	0.0162778
732.515	0.0164362
732.593	0.0164035
732.671	0.0165199
732.749	0.0164642
732.827	0.0165311
732.905	0.0166084
732.983	0.0166261
733.061	0.0165933
733.140	0.0166735
733.218	0.0166542
733.296	0.0166078
733.374	0.0164388
733.452	0.0165590
733.530	0.0165240
733.608	0.0166476
733.686	0.0164500
733.765	0.0164372
733.843	0.0165385
733.921	0.0163138
733.999	0.0163752
734.077	0.0163258
734.155	0.0163803
734.233	0.0163972
734.311	0.0162896
734.390	0.0161913
734.468	0.0163428
734.546	0.0163395
734.624	0.0163371
734.702	0.0162804
734.780	0.0163651
734.858	0.0163116
734.936	0.0164564
735.015	0.0163364
735.093	0.0165219
735.171	0.0164040
735.249	0.0163346
735.327	0.0164722
735.405	0.0164983
735.483	0.0165098
735.561	0.0164304
735.640	0.0164660
735.718	0.0165288
735.796	0.0164403
735.874	0.0165533
735.952	0.0166251
736.030	0.0165356
736.108	0.0165610
736.186	0.0165392
736.265	0.0167619
736.343	0.0166226
736.421	0.0166898
736.499	0.0167259
736.577	0.0168838
736.655	0.0167941
736.733	0.0167294
736.811	0.0169218
736.890	0.0169118
736.968	0.0168994
737.046	0.0168074
737.124	0.0168313
737.202	0.0167338
737.280	0.0167352
737.358	0.0167802
737.436	0.0166792
737.515	0.0167632
737.593	0.0165764
737.671	0.0165469
737.749	0.0165534
737.827	0.0164642
737.905	0.0164445
737.983	0.0163794
738.061	0.0162975
738.140	0.0164229
738.218	0.0162467
738.296	0.0162163
738.374	0.0163206
738.452	0.0162525
738.530	0.0163866
738.608	0.0163153
738.686	0.0162558
738.765	0.0163969
738.843	0.0162856
738.921	0.0162668
738.999	0.0164019
739.077	0.0162863
739.155	0.0162399
739.233	0.0163297
739.311	0.0162875
739.390	0.0164111
739.468	0.0164378
739.546	0.0162974
739.624	0.0163925
739.702	0.0163757
739.780	0.0164393
739.858	0.0164571
739.936	0.0165174
740.015	0.0166095
740.093	0.0164522
740.171	0.0166283
740.249	0.0165697
740.327	0.0166370
740.405	0.0166312
740.483	0.0165784
740.561	0.0165548
740.640	0.0165923
740.718	0.0166518
740.796	0.0166945
740.874	0.0167500
740.952	0.0167814
741.030	0.0167120
741.108	0.0169460
741.186	0.0168102
741.265	0.0166866
741.343	0.0168310
741.421	0.0165983
741.499	0.0167339
741.577	0.0166933
741.655	0.0167627
741.733	0.0166924
741.811	0.0166637
741.890	0.0164642
741.968	0.0164445
742.046	0.0165553
742.124	0.0165557
742.202	0.0166094
742.280	0.0164838
742.358	0.0163892
742.436	0.0163005
742.515	0.0165059
742.593	0.0163438
742.671	0.0164121
742.749	0.0163270
742.827	0.0163930
742.905	0.0164201
742.983	0.0163853
743.061	0.0163447
743.140	0.0162290
743.218	0.0162875
743.296	0.0162902
743.374	0.0163615
743.452	0.0161964
743.530	0.0164106
743.608	0.0164158
743.686	0.0164963
743.765	0.0164965
743.843	0.0164977
743.921	0.0163383
743.999	0.0163998
744.077	0.0162873
744.155	0.0163804
744.233	0.0164981
744.311	0.0166033
744.390	0.0164771
744.468	0.0164322
744.546	0.0165279
744.624	0.0165586
744.702	0.0165092
744.780	0.0166028
744.858	0.0164234
744.936	0.0164587
745.015	0.0164375
745.093	0.0164552
745.171	0.0164595
745.249	0.0165592
745.327	0.0165062
745.405	0.0163447
745.483	0.0163884
745.561	0.0162584
745.640	0.0163698
745.718	0.0162971
745.796	0.0161408
745.874	0.0162135
745.952	0.0162774
746.030	0.0161052
746.108	0.0162325
746.186	0.0162651
746.265	0.0162872
746.343	0.0161514
746.421	0.0160665
746.499	0.0161163
746.577	0.0161921
746.655	0.0162413
746.733	0.0160947
746.811	0.0162152
746.890	0.0162459
746.968	0.0161403
747.046	0.0162144
747.124	0.0161500
747.202	0.0162360
747.280	0.0162444
747.358	0.0162895
747.436	0.0161639
747.515	0.0163329
747.593	0.0163670
747.671	0.0162659
747.749	0.0162990
747.827	0.0163968
747.905	0.0162347
747.983	0.0163451
748.061	0.0164692
748.140	0.0164303
748.218	0.0165002
748.296	0.0164710
748.374	0.0163845
748.452	0.0166467
748.530	0.0164899
748.608	0.0166058
748.686	0.0166403
748.765	0.0165267
748.843	0.0166254
748.921	0.0165133
748.999	0.0165303
749.077	0.0166898
749.155	0.0165184
749.233	0.0166750
749.311	0.0167020
749.390	0.0165596
749.468	0.0165542
749.546	0.0165984
749.624	0.0165057
749.702	0.0166555
749.780	0.0166352
749.858	0.0166878
749.936	0.0166949
750.015	0.0166466
750.093	0.0166541
750.171	0.0165031
750.249	0.0166455
750.327	0.0165786
750.405	0.0165591
750.483	0.0165654
750.561	0.0166389
750.640	0.0166750
750.718	0.0165716
750.796	0.0165459
750.874	0.0164526
750.952	0.0165815
751.030	0.0166671
751.108	0.0167004
751.186	0.0163331
751.265	0.0166045
751.343	0.0166292
751.421	0.0166956
751.499	0.0165005
751.577	0.0164920
751.655	0.0164480
751.733	0.0166064
751.811	0.0166195
751.890	0.0164498
751.968	0.0165311
752.046	0.0164919
752.124	0.0164328
752.202	0.0165164
752.280	0.0164024
752.358	0.0164600
752.436	0.0163400
752.515	0.0163468
752.593	0.0164268
752.671	0.0163126
752.749	0.0163396
752.827	0.0163153
752.905	0.0162563
752.983	0.0164040
753.061	0.0163366
753.140	0.0164494
753.218	0.0164459
753.296	0.0163564
753.374	0.0164624
753.452	0.0166120
753.530	0.0166516
753.608	0.0164874
753.686	0.0166053
753.765	0.0166145
753.843	0.0166353
753.921	0.0166714
753.999	0.0167436
754.077	0.0168370
754.155	0.0166721
754.233	0.0166297
754.311	0.0166867
754.390	0.0167644
754.468	0.0167294
754.546	0.0168800
754.624	0.0168187
754.702	0.0167980
754.780	0.0166895
754.858	0.0168255
754.936	0.0168302
755.015	0.0168452
755.093	0.0169422
755.171	0.0167800
755.249	0.0168948
755.327	0.0169635
755.405	0.0168070
755.483	0.0169201
755.561	0.0168859
755.640	0.0170036
755.718	0.0168929
755.796	0.0168620
755.874	0.0169300
755.952	0.0169781
756.030	0.0167521
756.108	0.0168868
756.186	0.0168859
756.265	0.0169250
756.343	0.0168211
756.421	0.0167419
756.499	0.0168044
756.577	0.0168098
756.655	0.0167344
756.733	0.0168115
756.811	0.0167274
756.890	0.0165865
756.968	0.0167151
757.046	0.0165923
757.124	0.0165260
757.202	0.0165774
757.280	0.0165009
757.358	0.0164170
757.436	0.0165585
757.515	0.0165224
757.593	0.0162822
757.671	0.0162981
757.749	0.0163586
757.827	0.0163645
757.905	0.0162861
757.983	0.0162012
758.061	0.0163550
758.140	0.0162257
758.218	0.0163167
758.296	0.0161995
758.374	0.0164030
758.452	0.0162526
758.530	0.0162716
758.608	0.0163425
758.686	0.0162965
758.765	0.0163291
758.843	0.0161734
758.921	0.0163382
758.999	0.0163129
759.077	0.0162142
759.155	0.0162398
759.233	0.0162608
759.311	0.0163900
759.390	0.0164480
759.468	0.0164104
759.546	0.0161940
759.624	0.0163007
759.702	0.0164005
759.780	0.0164229
759.858	0.0163302
759.936	0.0163547
760.015	0.0164150
760.093	0.0163326
760.171	0.0164709
760.249	0.0164565
760.327	0.0165788
760.405	0.0164891
760.483	0.0165935
760.561	0.0165910
760.640	0.0164840
760.718	0.0166325
760.796	0.0165215
760.874	0.0165250
760.952	0.0164992
761.030	0.0165417
761.108	0.0166273
761.186	0.0165524
761.265	0.0164701
761.343	0.0165730
761.421	0.0164658
761.499	0.0165446
761.577	0.0166037
761.655	0.0164372
761.733	0.0165439
761.811	0.0165104
761.890	0.0163908
761.968	0.0164845
762.046	0.0166635
762.124	0.0165082
762.202	0.0164581
762.280	0.0165380
762.358	0.0164899
762.436	0.0164922
762.515	0.0164805
762.593	0.0163802
762.671	0.0164317
762.749	0.0162904
762.827	0.0164725
762.905	0.0164114
762.983	0.0163815
763.061	0.0163467
763.140	0.0163977
763.218	0.0162678
763.296	0.0162918
763.374	0.0162892
763.452	0.0164841
763.530	0.0163845
763.608	0.0164163
763.686	0.0165270
763.765	0.0163645
763.843	0.0162914
763.921	0.0163132
763.999	0.0162909
764.077	0.0164157
764.155	0.0162505
764.233	0.0163464
764.311	0.0164098
764.390	0.0164516
764.468	0.0163072
764.546	0.0163517
764.624	0.0164821
764.702	0.0165298
764.780	0.0165160
764.858	0.0165239
764.936	0.0166035
765.015	0.0165021
765.093	0.0165952
765.171	0.0164504
765.249	0.0164949
765.327	0.0165578
765.405	0.0167834
765.483	0.0165649
765.561	0.0165997
765.640	0.0167249
765.718	0.0166528
765.796	0.0165668
765.874	0.0166447
765.952	0.0165793
766.030	0.0165796
766.108	0.0166210
766.186	0.0166411
766.265	0.0166484
766.343	0.0165052
766.421	0.0165833
766.499	0.0167213
766.577	0.0166051
766.655	0.0166568
766.733	0.0165937
766.811	0.0166721
766.890	0.0165885
766.968	0.0165563
767.046	0.0165466
767.124	0.0163981
767.202	0.0165463
767.280	0.0165231
767.358	0.0165021
767.436	0.0165049
767.515	0.0164420
767.593	0.0164848
767.671	0.0164269
767.749	0.0164470
767.827	0.0163685
767.905	0.0163490
767.983	0.0164153
768.061	0.0164246
768.140	0.0163343
768.218	0.0163147
768.296	0.0164578
768.374	0.0163779
768.452	0.0165234
768.530	0.0163837
768.608	0.0164456
768.686	0.0165121
768.765	0.0164059
768.843	0.0164915
768.921	0.0164734
768.999	0.0164425
769.077	0.0163633
769.155	0.0164590
769.233	0.0166197
769.311	0.0165476
769.390	0.0165195
769.468	0.0165693
769.546	0.0165802
769.624	0.0165224
769.702	0.0165516
769.780	0.0164156
769.858	0.0163114
769.936	0.0163112
770.015	0.0165075
770.093	0.0165059
770.171	0.0164427
770.249	0.0164701
770.327	0.0165145
770.405	0.0162860
770.483	0.0162797
770.561	0.0164104
770.640	0.0165199
770.718	0.0163603
770.796	0.0163857
770.874	0.0163391
770.952	0.0165109
771.030	0.0165201
771.108	0.0164317
771.186	0.0163729
771.265	0.0163000
771.343	0.0163067
771.421	0.0163953
771.499	0.0164378
771.577	0.0164508
771.655	0.0163921
771.733	0.0164951
771.811	0.0163746
771.890	0.0165092
771.968	0.0163628
772.046	0.0163780
772.124	0.0163504
772.202	0.0163947
772.280	0.0163870
772.358	0.0162887
772.436	0.0163066
772.515	0.0163035
772.593	0.0163786
772.671	0.0162744
772.749	0.0163231
772.827	0.0163229
772.905	0.0163116
772.983	0.0163358
773.061	0.0164207
773.140	0.0163605
773.218	0.0165546
773.296	0.0164336
773.374	0.0164317
773.452	0.0164638
773.530	0.0164890
773.608	0.0164066
773.686	0.0164055
773.765	0.0165636
773.843	0.0164996
773.921	0.0164835
773.999	0.0166169
774.077	0.0165950
774.155	0.0165733
774.233	0.0165153
774.311	0.0163966
774.390	0.0164561
774.468	0.0166814
774.546	0.0166226
774.624	0.0164679
774.702	0.0165161
774.780	0.0165738
774.858	0.0165645
774.936	0.0163808
775.015	0.0164228
775.093	0.0165036
775.171	0.0165531
775.249	0.0165614
775.327	0.0164081
775.405	0.0166026
775.483	0.0165282
775.561	0.0164426
775.640	0.0165005
775.718	0.0165194
775.796	0.0163533
775.874	0.0166002
775.952	0.0164239
776.030	0.0165036
776.108	0.0165440
776.186	0.0165653
776.265	0.0165520
776.343	0.0165636
776.421	0.0166303
776.499	0.0166188
776.577	0.0165932
776.655	0.0166190
776.733	0.0167033
776.811	0.0167816
776.890	0.0166006
776.968	0.0165520
777.046	0.0167554
777.124	0.0167496
777.202	0.0167192
777.280	0.0165980
777.358	0.0165915
777.436	0.0167770
777.515	0.0165578
777.593	0.0166851
777.671	0.0167651
777.749	0.0168714
777.827	0.0168134
777.905	0.0166406
777.983	0.0167429
778.061	0.0167054
778.140	0.0167120
778.218	0.0167561
778.296	0.0167294
778.374	0.0166899
778.452	0.0166315
778.530	0.0166403
778.608	0.0166518
778.686	0.0166159
778.765	0.0165289
778.843	0.0166869
778.921	0.0166286
778.999	0.0166546
779.077	0.0166926
779.155	0.0165641
779.233	0.0166631
779.311	0.0165781
779.390	0.0166103
779.468	0.0166776
779.546	0.0167156
779.624	0.0165972
779.702	0.0165192
779.780	0.0166832
779.858	0.0167315
779.936	0.0164738
780.015	0.0164321
780.093	0.0165513
780.171	0.0166904
780.249	0.0166594
780.327	0.0164879
780.405	0.0166257
780.483	0.0164706
780.561	0.0165102
780.640	0.0163561
780.718	0.0164388
780.796	0.0165090
780.874	0.0163609
780.952	0.0165009
781.030	0.0165047
781.108	0.0164787
781.186	0.0164896
781.265	0.0163395
781.343	0.0163969
781.421	0.0164436
781.499	0.0164465
781.577	0.0163880
781.655	0.0164714
781.733	0.0163888
781.811	0.0165509
781.890	0.0166170
781.968	0.0164722
782.046	0.0163286
782.124	0.0164941
782.202	0.0164286
782.280	0.0163532
782.358	0.0163807
782.436	0.0164800
782.515	0.0165337
782.593	0.0165160
782.671	0.0164620
782.749	0.0163456
782.827	0.0164662
782.905	0.0165388
782.983	0.0164232
783.061	0.0165517
783.140	0.0166489
783.218	0.0166283
783.296	0.0165467
783.374	0.0165056
783.452	0.0165569
783.530	0.0166660
783.608	0.0165585
783.686	0.0166312
783.765	0.0166021
783.843	0.0166260
783.921	0.0166165
783.999	0.0165958
784.077	0.0166161
784.155	0.0166135
784.233	0.0164835
784.311	0.0164914
784.390	0.0165754
784.468	0.0165612
784.546	0.0165192
784.624	0.0165245
784.702	0.0165861
784.780	0.0163889
784.858	0.0165163
784.936	0.0164365
785.015	0.0165724
785.093	0.0164381
785.171	0.0165739
785.249	0.0165631
785.327	0.0164478
785.405	0.0164681
785.483	0.0164785
785.561	0.0165004
785.640	0.0165318
785.718	0.0164511
785.796	0.0165173
785.874	0.0165132
785.952	0.0165239
786.030	0.0165260
786.108	0.0164322
786.186	0.0164088
786.265	0.0165259
786.343	0.0164314
786.421	0.0164589
786.499	0.0164751
786.577	0.0165018
786.655	0.0165087
786.733	0.0164037
786.811	0.0164648
786.890	0.0164583
786.968	0.0163615
787.046	0.0163404
787.124	0.0165026
787.202	0.0164600
787.280	0.0163367
787.358	0.0164504
787.436	0.0165561
787.515	0.0165151
787.593	0.0164148
787.671	0.0164983
787.749	0.0164711
787.827	0.0164314
787.905	0.0164226
787.983	0.0164596
788.061	0.0165267
788.140	0.0164572
788.218	0.0165103
788.296	0.0165692
788.374	0.0165470
788.452	0.0163985
788.530	0.0164319
788.608	0.0162492
788.686	0.0164130
788.765	0.0164383
788.843	0.0163376
788.921	0.0163957
788.999	0.0164880
789.077	0.0164971
789.155	0.0164300
789.233	0.0164452
789.311	0.0164272
789.390	0.0163773
789.468	0.0163140
789.546	0.0162639
789.624	0.0164387
789.702	0.0164519
789.780	0.0165152
789.858	0.0165336
789.936	0.0163703
790.015	0.0162774
790.093	0.0163308
790.171	0.0165488
790.249	0.0165749
790.327	0.0163990
790.405	0.0164457
790.483	0.0164532
790.561	0.0163868
790.640	0.0164912
790.718	0.0165427
790.796	0.0165540
790.874	0.0165062
790.952	0.0165258
791.030	0.0165426
791.108	0.0164391
791.186	0.0166103
791.265	0.0166844
791.343	0.0164767
791.421	0.0165937
791.499	0.0165797
791.577	0.0165489
791.655	0.0165939
791.733	0.0165670
791.811	0.0164532
791.890	0.0166029
791.968	0.0165457
792.046	0.0166331
792.124	0.0165816
792.202	0.0166329
792.280	0.0164772
792.358	0.0166039
792.436	0.0166502
792.515	0.0165683
792.593	0.0166011
792.671	0.0165295
792.749	0.0164980
792.827	0.0166125
792.905	0.0166457
792.983	0.0164175
793.061	0.0166079
793.140	0.0166278
793.218	0.0164661
793.296	0.0165649
793.374	0.0164815
793.452	0.0164542
793.530	0.0166267
793.608	0.0164259
793.686	0.0165111
793.765	0.0165751
793.843	0.0166047
793.921	0.0166071
793.999	0.0166981
794.077	0.0166695
794.155	0.0164861
794.233	0.0166204
794.311	0.0164719
794.390	0.0166348
794.468	0.0165503
794.546	0.0164610
794.624	0.0166083
794.702	0.0165189
794.780	0.0164908
794.858	0.0166386
794.936	0.0165324
795.015	0.0163364
795.093	0.0163857
795.171	0.0166195
795.249	0.0165001
795.327	0.0163562
795.405	0.0163559
795.483	0.0163818
795.561	0.0164384
795.640	0.0163493
795.718	0.0162587
795.796	0.0164204
795.874	0.0163890
795.952	0.0163027
796.030	0.0164183
796.108	0.0163916
796.186	0.0163000
796.265	0.0162553
796.343	0.0163206
796.421	0.0163641
796.499	0.0162827
796.577	0.0163686
796.655	0.0162948
796.733	0.0163963
796.811	0.0163984
796.890	0.0163914
796.968	0.0163112
797.046	0.0163666
797.124	0.0162791
797.202	0.0163933
797.280	0.0163718
797.358	0.0163419
797.436	0.0163477
797.515	0.0163361
797.593	0.0164373
797.671	0.0165331
797.749	0.0165726
797.827	0.0164523
797.905	0.0164409
797.983	0.0165450
798.061	0.0164349
798.140	0.0164620
798.218	0.0165302
798.296	0.0165478
798.374	0.0163602
798.452	0.0162785
798.530	0.0165093
798.608	0.0165259
798.686	0.0163179
798.765	0.0164571
798.843	0.0165404
798.921	0.0163750
798.999	0.0164734
799.077	0.0164331
799.155	0.0164234
799.233	0.0164262
799.311	0.0165207
799.390	0.0165228
799.468	0.0164084
799.546	0.0164758
799.624	0.0165296
799.702	0.0166188
799.780	0.0166428
799.858	0.0165447
799.936	0.0165044
800.015	0.0166021
800.093	0.0166195
800.171	0.0166882
800.249	0.0166828
800.327	0.0166294
800.405	0.0166149
800.483	0.0166146
800.561	0.0165908
800.640	0.0167233
800.718	0.0166689
800.796	0.0166593
800.874	0.0167885
800.952	0.0166888
801.030	0.0167930
801.108	0.0167056
801.186	0.0165505
801.265	0.0166857
801.343	0.0167124
801.421	0.0167056
801.499	0.0166962
801.577	0.0166090
801.655	0.0166111
801.733	0.0166883
801.811	0.0166549
801.890	0.0166491
801.968	0.0166264
802.046	0.0165218
802.124	0.0164828
802.202	0.0164856
802.280	0.0164716
802.358	0.0164008
802.436	0.0165015
802.515	0.0164733
802.593	0.0163538
802.671	0.0163570
802.749	0.0164924
802.827	0.0163390
802.905	0.0163887
802.983	0.0163786
803.061	0.0163911
803.140	0.0163935
803.218	0.0163589
803.296	0.0163529
803.374	0.0164768
803.452	0.0164503
803.530	0.0164748
803.608	0.0163886
803.686	0.0163829
803.765	0.0164468
803.843	0.0165265
803.921	0.0165231
803.999	0.0164118
804.077	0.0166036
804.155	0.0165379
804.233	0.0165412
804.311	0.0164390
804.390	0.0163970
804.468	0.0165566
804.546	0.0164489
804.624	0.0164636
804.702	0.0165012
804.780	0.0167098
804.858	0.0165001
804.936	0.0164955
805.015	0.0163842
805.093	0.0165010
805.171	0.0164584
805.249	0.0163485
805.327	0.0163574
805.405	0.0165270
805.483	0.0163807
805.561	0.0163281
805.640	0.0164162
805.718	0.0162735
805.796	0.0164252
805.874	0.0163551
805.952	0.0163975
806.030	0.0163962
806.108	0.0165066
806.186	0.0165222
806.265	0.0164587
806.343	0.0163614
806.421	0.0165218
806.499	0.0164257
806.577	0.0164573
806.655	0.0166032
806.733	0.0166756
806.811	0.0166505
806.890	0.0166934
806.968	0.0166884
807.046	0.0166431
807.124	0.0167012
807.202	0.0164917
807.280	0.0164909
807.358	0.0167101
807.436	0.0167259
807.515	0.0165719
807.593	0.0166180
807.671	0.0164896
807.749	0.0165887
807.827	0.0165239
807.905	0.0165446
807.983	0.0165678
808.061	0.0164928
808.140	0.0165831
808.218	0.0165047
808.296	0.0165431
808.374	0.0165758
808.452	0.0164460
808.530	0.0165592
808.608	0.0164690
808.686	0.0164365
808.765	0.0165419
808.843	0.0166144
808.921	0.0165458
808.999	0.0164715
809.077	0.0165499
809.155	0.0165691
809.233	0.0165721
809.311	0.0165297
809.390	0.0166704
809.468	0.0166951
809.546	0.0166285
809.624	0.0166169
809.702	0.0167149
809.780	0.0165627
809.858	0.0165988
809.936	0.0166058
810.015	0.0165307
810.093	0.0165401
810.171	0.0164288
810.249	0.0163315
810.327	0.0164688
810.405	0.0166431
810.483	0.0164330
810.561	0.0164385
810.640	0.0164235
810.718	0.0164811
810.796	0.0164968
810.874	0.0165612
810.952	0.0163265
811.030	0.0163564
811.108	0.0164533
811.186	0.0164832
811.265	0.0165116
811.343	0.0164926
811.421	0.0164214
811.499	0.0163867
811.577	0.0164883
811.655	0.0164584
811.733	0.0163095
811.811	0.0164601
811.890	0.0163896
811.968	0.0163946
812.046	0.0162789
812.124	0.0163176
812.202	0.0163695
812.280	0.0163758
812.358	0.0164187
812.436	0.0162849
812.515	0.0161788
812.593	0.0161790
812.671	0.0162949
812.749	0.0162453
812.827	0.0163680
812.905	0.0161459
812.983	0.0163234
813.061	0.0162015
813.140	0.0162591
813.218	0.0162501
813.296	0.0162765
813.374	0.0163384
813.452	0.0163644
813.530	0.0163280
813.608	0.0164616
813.686	0.0165170
813.765	0.0163187
813.843	0.0161832
813.921	0.0163526
813.999	0.0164438
814.077	0.0162846
814.155	0.0162867
814.233	0.0164517
814.311	0.0164467
814.390	0.0165237
814.468	0.0163148
814.546	0.0163143
814.624	0.0163543
814.702	0.0164495
814.780	0.0163914
814.858	0.0163453
814.936	0.0163110
815.015	0.0162260
815.093	0.0163484
815.171	0.0163680
815.249	0.0164870
815.327	0.0164226
815.405	0.0164134
815.483	0.0161942
815.561	0.0164288
815.640	0.0164174
815.718	0.0164053
815.796	0.0164619
815.874	0.0163508
815.952	0.0165679
816.030	0.0165158
816.108	0.0164010
816.186	0.0164749
816.265	0.0165496
816.343	0.0164542
816.421	0.0164932
816.499	0.0166022
816.577	0.0164660
816.655	0.0165337
816.733	0.0165874
816.811	0.0164144
816.890	0.0163664
816.968	0.0165741
817.046	0.0164658
817.124	0.0164181
817.202	0.0163926
817.280	0.0163298
817.358	0.0163300
817.436	0.0164879
817.515	0.0163839
817.593	0.0163927
817.671	0.0164897
817.749	0.0164407
817.827	0.0164622
817.905	0.0164171
817.983	0.0165533
818.061	0.0165023
818.140	0.0164574
818.218	0.0164568
818.296	0.0166467
818.374	0.0165498
818.452	0.0165134
818.530	0.0166781
818.608	0.0166259
818.686	0.0166682
818.765	0.0166975
818.843	0.0166943
818.921	0.0167325
818.999	0.0166857
819.077	0.0166454
819.155	0.0166339
819.233	0.0167449
819.311	0.0167464
819.390	0.0165466
819.468	0.0166602
819.546	0.0164616
819.624	0.0165668
819.702	0.0165428
819.780	0.0165155
819.858	0.0166418
819.936	0.0164969
820.015	0.0165462
820.093	0.0165174
820.171	0.0164909
820.249	0.0163567
820.327	0.0164979
820.405	0.0163786
820.483	0.0162818
820.561	0.0163594
820.640	0.0164811
820.718	0.0162476
820.796	0.0163123
820.874	0.0163602
820.952	0.0163160
821.030	0.0163001
821.108	0.0161977
821.186	0.0162167
821.265	0.0163984
821.343	0.0162923
821.421	0.0162740
821.499	0.0163818
821.577	0.0161427
821.655	0.0162294
821.733	0.0163930
821.811	0.0164506
821.890	0.0164268
821.968	0.0164097
822.046	0.0164495
822.124	0.0163680
822.202	0.0164699
822.280	0.0164130
822.358	0.0164622
822.436	0.0164852
822.515	0.0164591
822.593	0.0164344
822.671	0.0165670
822.749	0.0164412
822.827	0.0163627
822.905	0.0164262
822.983	0.0165898
823.061	0.0164856
823.140	0.0162495
823.218	0.0164212
823.296	0.0163741
823.374	0.0164243
823.452	0.0163168
823.530	0.0164275
823.608	0.0167304
823.686	0.0164638
823.765	0.0165573
823.843	0.0165533
823.921	0.0164387
823.999	0.0167374
824.077	0.0166270
824.155	0.0165929
824.233	0.0166036
824.311	0.0166298
824.390	0.0166898
824.468	0.0165784
824.546	0.0166402
824.624	0.0167329
824.702	0.0167197
824.780	0.0166121
824.858	0.0167637
824.936	0.0166942
825.015	0.0166814
825.093	0.0165245
825.171	0.0167121
825.249	0.0168216
825.327	0.0165999
825.405	0.0166798
825.483	0.0165847
825.561	0.0165374
825.640	0.0164144
825.718	0.0163702
825.796	0.0165480
825.874	0.0164360
825.952	0.0162978
826.030	0.0164276
826.108	0.0163680
826.186	0.0164226
826.265	0.0164192
826.343	0.0165353
826.421	0.0163994
826.499	0.0164148
826.577	0.0164208
826.655	0.0163641
826.733	0.0164384
826.811	0.0165517
826.890	0.0165022
826.968	0.0164670
827.046	0.0164946
827.124	0.0163311
827.202	0.0163911
827.280	0.0166206
827.358	0.0165553
827.436	0.0164318
827.515	0.0163768
827.593	0.0165469
827.671	0.0167081
827.749	0.0164981
827.827	0.0165984
827.905	0.0167770
827.983	0.0166168
828.061	0.0165916
828.140	0.0166972
828.218	0.0166544
828.296	0.0167400
828.374	0.0166103
828.452	0.0166294
828.530	0.0167929
828.608	0.0166165
828.686	0.0167377
828.765	0.0166830
828.843	0.0168015
828.921	0.0167764
828.999	0.0168391
829.077	0.0165071
829.155	0.0166862
829.233	0.0167248
829.311	0.0165962
829.390	0.0165844
829.468	0.0167491
829.546	0.0167119
829.624	0.0165664
829.702	0.0165817
829.780	0.0167859
829.858	0.0165216
829.936	0.0166096
830.015	0.0167674
830.093	0.0165786
830.171	0.0165285
830.249	0.0165295
830.327	0.0168027
830.405	0.0166551
830.483	0.0166164
830.561	0.0165164
830.640	0.0165450
830.718	0.0165492
830.796	0.0166356
830.874	0.0165896
830.952	0.0164825
831.030	0.0165898
831.108	0.0164923
831.186	0.0163762
831.265	0.0162994
831.343	0.0164446
831.421	0.0165159
831.499	0.0165343
831.577	0.0163694
831.655	0.0164554
831.733	0.0164431
831.811	0.0164614
831.890	0.0164886
831.968	0.0164474
832.046	0.0166288
832.124	0.0165799
832.202	0.0164349
832.280	0.0165459
832.358	0.0165268
832.436	0.0165376
832.515	0.0166318
832.593	0.0165316
832.671	0.0165246
832.749	0.0167167
832.827	0.0165344
832.905	0.0163887
832.983	0.0164915
833.061	0.0165231
833.140	0.0166335
833.218	0.0163853
833.296	0.0163023
833.374	0.0165385
833.452	0.0163795
833.530	0.0164551
833.608	0.0165714
833.686	0.0165121
833.765	0.0163846
833.843	0.0164381
833.921	0.0163526
833.999	0.0164345
834.077	0.0163174
834.155	0.0163449
834.233	0.0164349
834.311	0.0163596
834.390	0.0163738
834.468	0.0164382
834.546	0.0165586
834.624	0.0165488
834.702	0.0164943
834.780	0.0165047
834.858	0.0164955
834.936	0.0164950
835.015	0.0165162
835.093	0.0163696
835.171	0.0165267
835.249	0.0164460
835.327	0.0165521
835.405	0.0164470
835.483	0.0164413
835.561	0.0162775
835.640	0.0164066
835.718	0.0163367
835.796	0.0163703
835.874	0.0164184
835.952	0.0164888
836.030	0.0164967
836.108	0.0165251
836.186	0.0163799
836.265	0.0163082
836.343	0.0164752
836.421	0.0164285
836.499	0.0164149
836.577	0.0164610
836.655	0.0165630
836.733	0.0164513
836.811	0.0164896
836.890	0.0165137
836.968	0.0164475
837.046	0.0162801
837.124	0.0164589
837.202	0.0164773
837.280	0.0164565
837.358	0.0164506
837.436	0.0164828
837.515	0.0164869
837.593	0.0164323
837.671	0.0163580
837.749	0.0164555
837.827	0.0165086
837.905	0.0164049
837.983	0.0164423
838.061	0.0165450
838.140	0.0164872
838.218	0.0166077
838.296	0.0166284
838.374	0.0165645
838.452	0.0165408
838.530	0.0164998
838.608	0.0166314
838.686	0.0167081
838.765	0.0164011
838.843	0.0165460
838.921	0.0165919
838.999	0.0165482
839.077	0.0165696
839.155	0.0164330
839.233	0.0166721
839.311	0.0165472
839.390	0.0165219
839.468	0.0166861
839.546	0.0167988
839.624	0.0167186
839.702	0.0166669
839.780	0.0166379
839.858	0.0167606
839.936	0.0166241
840.015	0.0166838
840.093	0.0165810
840.171	0.0165464
840.249	0.0166141
840.327	0.0165880
840.405	0.0166930
840.483	0.0166237
840.561	0.0165408
840.640	0.0165323
840.718	0.0165666
840.796	0.0165157
840.874	0.0165283
840.952	0.0165235
841.030	0.0164445
841.108	0.0164747
841.186	0.0164350
841.265	0.0164347
841.343	0.0163020
841.421	0.0162486
841.499	0.0164676
841.577	0.0164794
841.655	0.0163023
841.733	0.0163634
841.811	0.0163837
841.890	0.0163432
841.968	0.0163120
842.046	0.0163585
842.124	0.0161821
842.202	0.0162056
842.280	0.0162924
842.358	0.0163299
842.436	0.0163192
842.515	0.0163512
842.593	0.0163681
842.671	0.0162342
842.749	0.0163731
842.827	0.0161996
842.905	0.0162975
842.983	0.0163252
843.061	0.0162373
843.140	0.0163397
843.218	0.0163821
843.296	0.0161776
843.374	0.0163383
843.452	0.0162361
843.530	0.0162456
843.608	0.0163120
843.686	0.0164067
843.765	0.0163994
843.843	0.0163727
843.921	0.0163590
843.999	0.0163366
844.077	0.0163445
844.155	0.0164310
844.233	0.0162653
844.311	0.0164401
844.390	0.0163156
844.468	0.0164136
844.546	0.0164502
844.624	0.0163580
844.702	0.0163676
844.780	0.0164472
844.858	0.0164417
844.936	0.0163426
845.015	0.0163400
845.093	0.0165369
845.171	0.0164569
845.249	0.0164725
845.327	0.0165321
845.405	0.0165533
845.483	0.0163009
845.561	0.0164613
845.640	0.0165083
845.718	0.0164228
845.796	0.0166364
845.874	0.0165509
845.952	0.0164999
846.030	0.0165038
846.108	0.0166254
846.186	0.0164684
846.265	0.0165411
846.343	0.0165102
846.421	0.0166750
846.499	0.0165797
846.577	0.0165484
846.655	0.0165032
846.733	0.0165748
846.811	0.0166647
846.890	0.0166593
846.968	0.0165667
847.046	0.0166821
847.124	0.0164048
847.202	0.0166119
847.280	0.0166119
847.358	0.0165963
847.436	0.0164978
847.515	0.0166299
847.593	0.0165298
847.671	0.0165311
847.749	0.0165640
847.827	0.0166233
847.905	0.0167545
847.983	0.0165376
848.061	0.0165023
848.140	0.0165365
848.218	0.0164809
848.296	0.0165706
848.374	0.0167135
848.452	0.0165827
848.530	0.0165823
848.608	0.0165553
848.686	0.0164538
848.765	0.0165507
848.843	0.0166004
848.921	0.0165034
848.999	0.0166023
849.077	0.0166088
849.155	0.0165556
849.233	0.0164827
849.311	0.0164382
849.390	0.0166008
849.468	0.0163156
849.546	0.0166115
849.624	0.0166167
849.702	0.0166591
849.780	0.0165174
849.858	0.0163823
849.936	0.0164526
850.015	0.0164770
850.093	0.0165099
850.171	0.0164426
850.249	0.0165694
850.327	0.0165016
850.405	0.0164938
850.483	0.0165301
850.561	0.0165742
850.640	0.0164818
850.718	0.0165130
850.796	0.0165927
850.874	0.0164329
850.952	0.0164524
851.030	0.0164623
851.108	0.0164867
851.186	0.0164705
851.265	0.0164919
851.343	0.0165512
851.421	0.0165347
851.499	0.0165552
851.577	0.0164619
851.655	0.0164610
851.733	0.0164924
851.811	0.0165018
851.890	0.0164597
851.968	0.0165681
852.046	0.0165487
852.124	0.0165603
852.202	0.0165206
852.280	0.0165429
852.358	0.0164849
852.436	0.0166282
852.515	0.0164415
852.593	0.0166195
852.671	0.0165116
852.749	0.0164500
852.827	0.0164837
852.905	0.0165277
852.983	0.0165852
853.061	0.0165746
853.140	0.0167299
853.218	0.0165720
853.296	0.0166138
853.374	0.0165163
853.452	0.0165804
853.530	0.0166883
853.608	0.0165116
853.686	0.0166859
853.765	0.0167705
853.843	0.0168362
853.921	0.0165872
853.999	0.0166206
854.077	0.0167238
854.155	0.0167742
854.233	0.0168659
854.311	0.0165730
854.390	0.0166588
854.468	0.0165324
854.546	0.0165615
854.624	0.0165233
854.702	0.0166703
854.780	0.0165350
854.858	0.0165710
854.936	0.0166837
855.015	0.0165563
855.093	0.0166295
855.171	0.0166135
855.249	0.0166264
855.327	0.0165511
855.405	0.0166355
855.483	0.0165508
855.561	0.0165454
855.640	0.0166114
855.718	0.0163331
855.796	0.0164714
855.874	0.0164430
855.952	0.0164946
856.030	0.0164082
856.108	0.0164140
856.186	0.0162618
856.265	0.0163994
856.343	0.0163255
856.421	0.0163210
856.499	0.0163714
856.577	0.0161877
856.655	0.0162314
856.733	0.0163467
856.811	0.0162000
856.890	0.0162281
856.968	0.0162738
857.046	0.0164025
857.124	0.0164067
857.202	0.0163705
857.280	0.0163685
857.358	0.0163831
857.436	0.0163429
857.515	0.0163562
857.593	0.0164105
857.671	0.0163675
857.749	0.0163574
857.827	0.0163837
857.905	0.0163256
857.983	0.0164796
858.061	0.0163791
858.140	0.0163540
858.218	0.0164547
858.296	0.0163508
858.374	0.0162825
858.452	0.0163269
858.530	0.0162132
858.608	0.0163148
858.686	0.0163040
858.765	0.0163428
858.843	0.0162280
858.921	0.0162074
858.999	0.0162191
859.077	0.0162859
859.155	0.0162999
859.233	0.0162898
859.311	0.0163121
859.390	0.0164291
859.468	0.0161993
859.546	0.0162528
859.624	0.0163370
859.702	0.0163735
859.780	0.0163251
859.858	0.0163190
859.936	0.0163120
860.015	0.0162511
860.093	0.0162843
860.171	0.0163495
860.249	0.0165273
860.327	0.0164536
860.405	0.0164043
860.483	0.0164416
860.561	0.0163461
860.640	0.0164406
860.718	0.0165057
860.796	0.0164171
860.874	0.0164610
860.952	0.0163015
861.030	0.0163461
861.108	0.0163380
861.186	0.0163909
861.265	0.0163647
861.343	0.0162884
861.421	0.0164735
861.499	0.0163721
861.577	0.0165599
861.655	0.0165257
861.733	0.0164120
861.811	0.0163711
861.890	0.0164523
861.968	0.0164173
862.046	0.0163815
862.124	0.0164362
862.202	0.0166386
862.280	0.0164809
862.358	0.0164913
862.436	0.0165173
862.515	0.0165064
862.593	0.0164642
862.671	0.0163849
862.749	0.0165306
862.827	0.0165838
862.905	0.0164764
862.983	0.0165099
863.061	0.0164364
863.140	0.0163349
863.218	0.0164658
863.296	0.0164902
863.374	0.0164354
863.452	0.0162601
863.530	0.0164391
863.608	0.0163718
863.686	0.0162506
863.765	0.0161073
863.843	0.0162427
863.921	0.0163087
863.999	0.0162585
864.077	0.0163412
864.155	0.0161526
864.233	0.0162012
864.311	0.0161276
864.390	0.0162763
864.468	0.0162922
864.546	0.0161927
864.624	0.0162837
864.702	0.0161690
864.780	0.0162958
864.858	0.0163292
864.936	0.0162843
865.015	0.0161987
865.093	0.0162794
865.171	0.0163827
865.249	0.0162702
865.327	0.0162067
865.405	0.0162993
865.483	0.0163751
865.561	0.0164199
865.640	0.0164413
865.718	0.0164957
865.796	0.0163522
865.874	0.0163765
865.952	0.0164793
866.030	0.0163956
866.108	0.0164542
866.186	0.0163496
866.265	0.0165096
866.343	0.0163387
866.421	0.0162516
866.499	0.0163808
866.577	0.0164410
866.655	0.0164350
866.733	0.0163985
866.811	0.0164677
866.890	0.0163599
866.968	0.0164492
867.046	0.0163187
867.124	0.0164304
867.202	0.0164004
867.280	0.0164436
867.358	0.0163577
867.436	0.0162114
867.515	0.0163860
867.593	0.0164648
867.671	0.0163743
867.749	0.0162761
867.827	0.0164500
867.905	0.0164658
867.983	0.0163725
868.061	0.0164362
868.140	0.0163400
868.218	0.0163021
868.296	0.0165837
868.374	0.0166170
868.452	0.0165768
868.530	0.0165887
868.608	0.0164996
868.686	0.0164666
868.765	0.0164883
868.843	0.0165240
868.921	0.0165431
868.999	0.0163525
869.077	0.0164969
869.155	0.0165211
869.233	0.0165347
869.311	0.0165490
869.390	0.0164462
869.468	0.0164178
869.546	0.0165955
869.624	0.0164624
869.702	0.0165183
869.780	0.0167183
869.858	0.0164583
869.936	0.0166064
870.015	0.0164605
870.093	0.0166381
870.171	0.0165027
870.249	0.0165413
870.327	0.0164670
870.405	0.0163863
870.483	0.0166618
870.561	0.0165980
870.640	0.0165422
870.718	0.0165028
870.796	0.0164080
870.874	0.0164536
870.952	0.0165348
871.030	0.0164445
871.108	0.0164278
871.186	0.0164103
871.265	0.0164957
871.343	0.0165050
871.421	0.0163177
871.499	0.0163456
871.577	0.0163128
871.655	0.0163701
871.733	0.0164030
871.811	0.0164232
871.890	0.0162195
871.968	0.0163573
872.046	0.0163090
872.124	0.0163327
872.202	0.0162604
872.280	0.0164439
872.358	0.0162171
872.436	0.0162478
872.515	0.0164193
872.593	0.0164496
872.671	0.0163539
872.749	0.0162952
872.827	0.0161710
872.905	0.0163535
872.983	0.0163913
873.061	0.0163125
873.140	0.0165108
873.218	0.0164957
873.296	0.0164599
873.374	0.0164359
873.452	0.0165971
873.530	0.0164748
873.608	0.0164309
873.686	0.0166373
873.765	0.0166048
873.843	0.0165319
873.921	0.0166303
873.999	0.0165504
874.077	0.0166619
874.155	0.0164547
874.233	0.0166131
874.311	0.0167083
874.390	0.0165783
874.468	0.0165039
874.546	0.0166216
874.624	0.0166317
874.702	0.0166447
874.780	0.0165743
874.858	0.0165589
874.936	0.0164675
875.015	0.0166525
875.093	0.0163985
875.171	0.0164628
875.249	0.0166754
875.327	0.0167326
875.405	0.0165176
875.483	0.0165076
875.561	0.0164086
875.640	0.0165365
875.718	0.0165479
875.796	0.0165243
875.874	0.0165003
875.952	0.0163870
876.030	0.0164309
876.108	0.0165173
876.186	0.0164100
876.265	0.0164431
876.343	0.0163815
876.421	0.0164664
876.499	0.0164687
876.577	0.0165363
876.655	0.0163869
876.733	0.0163300
876.811	0.0165522
876.890	0.0164542
876.968	0.0165117
877.046	0.0163654
877.124	0.0163844
877.202	0.0162386
877.280	0.0163492
877.358	0.0162816
877.436	0.0163646
877.515	0.0163432
877.593	0.0163523
877.671	0.0161945
877.749	0.0162639
877.827	0.0162264
877.905	0.0162739
877.983	0.0161615
878.061	0.0161227
878.140	0.0160782
878.218	0.0161884
878.296	0.0161480
878.374	0.0162956
878.452	0.0162839
878.530	0.0162408
878.608	0.0163125
878.686	0.0162979
878.765	0.0163702
878.843	0.0163077
878.921	0.0163914
878.999	0.0163012
879.077	0.0164308
879.155	0.0163688
879.233	0.0164394
879.311	0.0164397
879.390	0.0165222
879.468	0.0165280
879.546	0.0163991
879.624	0.0164212
879.702	0.0164143
879.780	0.0164912
879.858	0.0164552
879.936	0.0166730
880.015	0.0166410
880.093	0.0165123
880.171	0.0165075
880.249	0.0166211
880.327	0.0166080
880.405	0.0164155
880.483	0.0165455
880.561	0.0165739
880.640	0.0164258
880.718	0.0164379
880.796	0.0165704
880.874	0.0164421
880.952	0.0163898
881.030	0.0165252
881.108	0.0165083
881.186	0.0164730
881.265	0.0163754
881.343	0.0164824
881.421	0.0165181
881.499	0.0164522
881.577	0.0164571
881.655	0.0164030
881.733	0.0163272
881.811	0.0165305
881.890	0.0165263
881.968	0.0164709
882.046	0.0164621
882.124	0.0164401
882.202	0.0164830
882.280	0.0164566
882.358	0.0163746
882.436	0.0165565
882.515	0.0164304
882.593	0.0164521
882.671	0.0165482
882.749	0.0164651
882.827	0.0164416
882.905	0.0164762
882.983	0.0165543
883.061	0.0164085
883.140	0.0164091
883.218	0.0164915
883.296	0.0165089
883.374	0.0163844
883.452	0.0165030
883.530	0.0165655
883.608	0.0165151
883.686	0.0163808
883.765	0.0163638
883.843	0.0163803
883.921	0.0163676
883.999	0.0162733
884.077	0.0163093
884.155	0.0163464
884.233	0.0163750
884.311	0.0163695
884.390	0.0163673
884.468	0.0162385
884.546	0.0163023
884.624	0.0164625
884.702	0.0162942
884.780	0.0163956
884.858	0.0163718
884.936	0.0164448
885.015	0.0162946
885.093	0.0164458
885.171	0.0164100
885.249	0.0164156
885.327	0.0165097
885.405	0.0164014
885.483	0.0164512
885.561	0.0163918
885.640	0.0165459
885.718	0.0165411
885.796	0.0164021
885.874	0.0164996
885.952	0.0165156
886.030	0.0165721
886.108	0.0164230
886.186	0.0163747
886.265	0.0165413
886.343	0.0163860
886.421	0.0165533
886.499	0.0167050
886.577	0.0164441
886.655	0.0163805
886.733	0.0164453
886.811	0.0164481
886.890	0.0164429
886.968	0.0163721
887.046	0.0164907
887.124	0.0165518
887.202	0.0164545
887.280	0.0163876
887.358	0.0164077
887.436	0.0164725
887.515	0.0165587
887.593	0.0164310
887.671	0.0164590
887.749	0.0165287
887.827	0.0164394
887.905	0.0164802
887.983	0.0163351
888.061	0.0164818
888.140	0.0165787
888.218	0.0164158
888.296	0.0164735
888.374	0.0162909
888.452	0.0164521
888.530	0.0163602
888.608	0.0164169
888.686	0.0164700
888.765	0.0165435
888.843	0.0164663
888.921	0.0164042
888.999	0.0165092
889.077	0.0165768
889.155	0.0165447
889.233	0.0164552
889.311	0.0165193
889.390	0.0164346
889.468	0.0164469
889.546	0.0164738
889.624	0.0164572
889.702	0.0164128
889.780	0.0164239
889.858	0.0163749
889.936	0.0165945
890.015	0.0164867
890.093	0.0164496
890.171	0.0165673
890.249	0.0165824
890.327	0.0164403
890.405	0.0165491
890.483	0.0166026
890.561	0.0164827
890.640	0.0164201
890.718	0.0164959
890.796	0.0166603
890.874	0.0166815
890.952	0.0166076
891.030	0.0167513
891.108	0.0165665
891.186	0.0166157
891.265	0.0166917
891.343	0.0166730
891.421	0.0167721
891.499	0.0167379
891.577	0.0167715
891.655	0.0167080
891.733	0.0167664
891.811	0.0168384
891.890	0.0165972
891.968	0.0167786
892.046	0.0168152
892.124	0.0168766
892.202	0.0168924
892.280	0.0166298
892.358	0.0167699
892.436	0.0166219
892.515	0.0167855
892.593	0.0167202
892.671	0.0166215
892.749	0.0166930
892.827	0.0168349
892.905	0.0166418
892.983	0.0167725
893.061	0.0167094
893.140	0.0166990
893.218	0.0167567
893.296	0.0167688
893.374	0.0167014
893.452	0.0167117
893.530	0.0166191
893.608	0.0166789
893.686	0.0166782
893.765	0.0166389
893.843	0.0166605
893.921	0.0165524
893.999	0.0166402
894.077	0.0165104
894.155	0.0164628
894.233	0.0164228
894.311	0.0164310
894.390	0.0165354
894.468	0.0163997
894.546	0.0163876
894.624	0.0164957
894.702	0.0164140
894.780	0.0162884
894.858	0.0163136
894.936	0.0165231
895.015	0.0162881
895.093	0.0164640
895.171	0.0164463
895.249	0.0162801
895.327	0.0163531
895.405	0.0163432
895.483	0.0164635
895.561	0.0164046
895.640	0.0165491
895.718	0.0164510
895.796	0.0164391
895.874	0.0166217
895.952	0.0164713
896.030	0.0165105
896.108	0.0166293
896.186	0.0166050
896.265	0.0164275
896.343	0.0165676
896.421	0.0167017
896.499	0.0165218
896.577	0.0165488
896.655	0.0165958
896.733	0.0165219
896.811	0.0165630
896.890	0.0166125
896.968	0.0166510
897.046	0.0166191
897.124	0.0166805
897.202	0.0166528
897.280	0.0164738
897.358	0.0166089
897.436	0.0166156
897.515	0.0166570
897.593	0.0165878
897.671	0.0166440
897.749	0.0165869
897.827	0.0166119
897.905	0.0166161
897.983	0.0166785
898.061	0.0166777
898.140	0.0165837
898.218	0.0166009
898.296	0.0167131
898.374	0.0165416
898.452	0.0165097
898.530	0.0166129
898.608	0.0166279
898.686	0.0164959
898.765	0.0164425
898.843	0.0164963
898.921	0.0165715
898.999	0.0164512
899.077	0.0164197
899.155	0.0164972
899.233	0.0164074
899.311	0.0165388
899.390	0.0164663
899.468	0.0163860
899.546	0.0163969
899.624	0.0165654
899.702	0.0164931
899.780	0.0165125
899.858	0.0164021
899.936	0.0165019
