05/24/2022	20:55:38	Ver.	4.1	UNKNOWN
Optical Delay	580.014591	Delta X		0.078125	Sweeps	1	Scan Rate	0/0
Coordinates	Axis 1	NaN	Axis 2	NaN	Axis 3	NaN	Axis 4	NaN	Axis 5	NaN	Axis 6	0.000000
TX Power	0.000000	RX Power	0.000000

580.015	0.0168887
580.093	0.0168809
580.171	0.0169560
580.249	0.0168036
580.327	0.0168809
580.405	0.0168168
580.483	0.0169331
580.561	0.0167985
580.640	0.0167771
580.718	0.0169132
580.796	0.0167805
580.874	0.0168295
580.952	0.0167117
581.030	0.0168111
581.108	0.0169099
581.186	0.0168316
581.265	0.0167248
581.343	0.0167627
581.421	0.0167417
581.499	0.0167322
581.577	0.0168038
581.655	0.0167566
581.733	0.0167632
581.811	0.0169233
581.890	0.0168261
581.968	0.0168135
582.046	0.0169733
582.124	0.0169041
582.202	0.0169540
582.280	0.0170566
582.358	0.0169460
582.436	0.0169284
582.515	0.0167754
582.593	0.0169872
582.671	0.0169620
582.749	0.0168385
582.827	0.0169299
582.905	0.0169492
582.983	0.0169469
583.061	0.0169100
583.140	0.0168426
583.218	0.0167853
583.296	0.0170195
583.374	0.0169724
583.452	0.0169133
583.530	0.0168565
583.608	0.0168680
583.686	0.0168670
583.765	0.0169272
583.843	0.0168082
583.921	0.0169408
583.999	0.0169236
584.077	0.0169532
584.155	0.0169363
584.233	0.0167972
584.311	0.0167789
584.390	0.0170515
584.468	0.0168950
584.546	0.0168891
584.624	0.0170462
584.702	0.0169451
584.780	0.0167705
584.858	0.0167142
584.936	0.0168309
585.015	0.0169953
585.093	0.0167849
585.171	0.0168110
585.249	0.0168690
585.327	0.0169778
585.405	0.0168272
585.483	0.0168563
585.561	0.0168095
585.640	0.0167365
585.718	0.0168398
585.796	0.0169419
585.874	0.0169023
585.952	0.0168684
586.030	0.0168402
586.108	0.0169231
586.186	0.0169292
586.265	0.0167378
586.343	0.0169129
586.421	0.0168343
586.499	0.0169025
586.577	0.0169914
586.655	0.0169103
586.733	0.0170932
586.811	0.0170136
586.890	0.0169503
586.968	0.0168959
587.046	0.0170137
587.124	0.0169479
587.202	0.0168984
587.280	0.0169050
587.358	0.0168847
587.436	0.0168905
587.515	0.0168548
587.593	0.0168157
587.671	0.0169056
587.749	0.0169114
587.827	0.0168100
587.905	0.0168141
587.983	0.0168746
588.061	0.0168758
588.140	0.0168381
588.218	0.0167444
588.296	0.0168422
588.374	0.0167786
588.452	0.0168071
588.530	0.0168078
588.608	0.0167472
588.686	0.0167847
588.765	0.0169288
588.843	0.0169476
588.921	0.0169511
588.999	0.0168996
589.077	0.0168923
589.155	0.0168530
589.233	0.0169395
589.311	0.0168842
589.390	0.0169604
589.468	0.0168974
589.546	0.0169436
589.624	0.0168723
589.702	0.0168887
589.780	0.0169711
589.858	0.0168047
589.936	0.0168492
590.015	0.0168097
590.093	0.0167933
590.171	0.0167116
590.249	0.0166853
590.327	0.0167200
590.405	0.0166470
590.483	0.0168796
590.561	0.0167310
590.640	0.0166406
590.718	0.0166622
590.796	0.0167491
590.874	0.0168476
590.952	0.0168345
591.030	0.0168150
591.108	0.0168330
591.186	0.0168717
591.265	0.0170154
591.343	0.0170089
591.421	0.0169570
591.499	0.0169017
591.577	0.0168676
591.655	0.0168713
591.733	0.0170734
591.811	0.0169819
591.890	0.0170354
591.968	0.0168816
592.046	0.0169538
592.124	0.0169032
592.202	0.0168240
592.280	0.0169143
592.358	0.0169498
592.436	0.0167671
592.515	0.0167517
592.593	0.0167527
592.671	0.0168988
592.749	0.0168575
592.827	0.0166740
592.905	0.0167994
592.983	0.0168004
593.061	0.0167587
593.140	0.0167797
593.218	0.0169121
593.296	0.0169016
593.374	0.0167475
593.452	0.0167136
593.530	0.0168011
593.608	0.0168619
593.686	0.0169433
593.765	0.0167422
593.843	0.0168594
593.921	0.0168417
593.999	0.0167670
594.077	0.0168564
594.155	0.0168979
594.233	0.0168798
594.311	0.0169141
594.390	0.0167079
594.468	0.0168259
594.546	0.0169003
594.624	0.0166890
594.702	0.0167305
594.780	0.0167536
594.858	0.0167616
594.936	0.0166502
595.015	0.0167405
595.093	0.0166045
595.171	0.0167822
595.249	0.0166729
595.327	0.0167948
595.405	0.0166326
595.483	0.0166075
595.561	0.0166732
595.640	0.0168674
595.718	0.0166409
595.796	0.0166526
595.874	0.0165695
595.952	0.0166299
596.030	0.0166750
596.108	0.0166686
596.186	0.0165715
596.265	0.0165884
596.343	0.0167870
596.421	0.0166613
596.499	0.0165644
596.577	0.0164957
596.655	0.0167614
596.733	0.0167146
596.811	0.0168645
596.890	0.0166892
596.968	0.0166341
597.046	0.0167069
597.124	0.0167489
597.202	0.0167143
597.280	0.0166730
597.358	0.0167279
597.436	0.0167520
597.515	0.0167677
597.593	0.0167559
597.671	0.0167481
597.749	0.0168185
597.827	0.0167743
597.905	0.0166463
597.983	0.0167403
598.061	0.0167899
598.140	0.0166549
598.218	0.0166515
598.296	0.0167850
598.374	0.0167683
598.452	0.0167000
598.530	0.0167284
598.608	0.0167714
598.686	0.0168486
598.765	0.0168887
598.843	0.0168165
598.921	0.0169523
598.999	0.0169756
599.077	0.0169069
599.155	0.0169276
599.233	0.0169238
599.311	0.0170615
599.390	0.0169926
599.468	0.0169892
599.546	0.0169888
599.624	0.0170155
599.702	0.0170464
599.780	0.0169304
599.858	0.0170072
599.936	0.0168526
600.015	0.0168020
600.093	0.0167924
600.171	0.0169226
600.249	0.0166354
600.327	0.0166624
600.405	0.0167013
600.483	0.0166234
600.561	0.0167262
600.640	0.0166778
600.718	0.0166433
600.796	0.0164858
600.874	0.0166244
600.952	0.0167824
601.030	0.0167543
601.108	0.0168681
601.186	0.0167889
601.265	0.0167357
601.343	0.0168018
601.421	0.0170435
601.499	0.0170441
601.577	0.0169759
601.655	0.0169961
601.733	0.0168551
601.811	0.0169513
601.890	0.0170656
601.968	0.0168922
602.046	0.0168589
602.124	0.0167696
602.202	0.0167460
602.280	0.0168006
602.358	0.0166789
602.436	0.0165535
602.515	0.0166451
602.593	0.0165853
602.671	0.0164774
602.749	0.0164659
602.827	0.0166726
602.905	0.0167016
602.983	0.0166994
603.061	0.0167384
603.140	0.0166953
603.218	0.0167455
603.296	0.0168450
603.374	0.0169829
603.452	0.0170699
603.530	0.0170483
603.608	0.0171584
603.686	0.0172144
603.765	0.0171978
603.843	0.0170359
603.921	0.0171400
603.999	0.0171520
604.077	0.0170791
604.155	0.0170048
604.233	0.0169585
604.311	0.0167982
604.390	0.0168253
604.468	0.0167455
604.546	0.0165536
604.624	0.0165108
604.702	0.0163787
604.780	0.0163312
604.858	0.0162425
604.936	0.0162056
605.015	0.0162562
605.093	0.0162362
605.171	0.0163021
605.249	0.0164914
605.327	0.0165308
605.405	0.0164827
605.483	0.0166737
605.561	0.0166940
605.640	0.0169348
605.718	0.0170276
605.796	0.0171281
605.874	0.0171813
605.952	0.0171387
606.030	0.0170774
606.108	0.0172767
606.186	0.0173251
606.265	0.0172927
606.343	0.0173173
606.421	0.0173555
606.499	0.0172620
606.577	0.0172291
606.655	0.0172163
606.733	0.0170364
606.811	0.0168208
606.890	0.0169101
606.968	0.0165768
607.046	0.0166273
607.124	0.0166072
607.202	0.0165058
607.280	0.0164697
607.358	0.0162852
607.436	0.0162083
607.515	0.0162434
607.593	0.0160274
607.671	0.0160102
607.749	0.0159299
607.827	0.0160366
607.905	0.0161243
607.983	0.0160144
608.061	0.0161927
608.140	0.0162215
608.218	0.0162923
608.296	0.0164474
608.374	0.0165921
608.452	0.0166687
608.530	0.0168158
608.608	0.0169945
608.686	0.0170749
608.765	0.0172457
608.843	0.0172469
608.921	0.0173707
608.999	0.0175644
609.077	0.0176899
609.155	0.0179037
609.233	0.0179489
609.311	0.0177988
609.390	0.0179243
609.468	0.0178584
609.546	0.0177894
609.624	0.0175893
609.702	0.0176749
609.780	0.0175337
609.858	0.0173826
609.936	0.0170568
610.015	0.0169533
610.093	0.0167568
610.171	0.0165266
610.249	0.0163326
610.327	0.0161802
610.405	0.0158611
610.483	0.0158283
610.561	0.0157979
610.640	0.0155383
610.718	0.0155236
610.796	0.0154058
610.874	0.0153963
610.952	0.0154980
611.030	0.0154295
611.108	0.0154841
611.186	0.0156230
611.265	0.0156731
611.343	0.0159237
611.421	0.0158741
611.499	0.0159487
611.577	0.0162498
611.655	0.0165594
611.733	0.0165082
611.811	0.0167158
611.890	0.0168165
611.968	0.0169128
612.046	0.0169553
612.124	0.0171234
612.202	0.0170018
612.280	0.0170380
612.358	0.0172085
612.436	0.0173069
612.515	0.0171379
612.593	0.0170565
612.671	0.0169592
612.749	0.0170400
612.827	0.0169997
612.905	0.0167964
612.983	0.0167384
613.061	0.0167120
613.140	0.0165630
613.218	0.0165579
613.296	0.0165206
613.374	0.0164291
613.452	0.0162554
613.530	0.0163557
613.608	0.0165087
613.686	0.0163329
613.765	0.0163377
613.843	0.0164120
613.921	0.0164459
613.999	0.0164927
614.077	0.0165563
614.155	0.0166656
614.233	0.0167442
614.311	0.0167795
614.390	0.0170876
614.468	0.0169705
614.546	0.0169483
614.624	0.0170430
614.702	0.0170839
614.780	0.0170981
614.858	0.0171697
614.936	0.0170692
615.015	0.0169604
615.093	0.0170017
615.171	0.0169425
615.249	0.0169147
615.327	0.0168061
615.405	0.0166273
615.483	0.0165246
615.561	0.0164703
615.640	0.0162831
615.718	0.0162461
615.796	0.0161266
615.874	0.0159808
615.952	0.0159056
616.030	0.0159422
616.108	0.0158279
616.186	0.0159742
616.265	0.0159341
616.343	0.0158022
616.421	0.0160295
616.499	0.0161676
616.577	0.0161035
616.655	0.0162029
616.733	0.0164427
616.811	0.0164896
616.890	0.0166085
616.968	0.0166375
617.046	0.0168133
617.124	0.0169712
617.202	0.0170294
617.280	0.0171247
617.358	0.0170709
617.436	0.0172149
617.515	0.0172939
617.593	0.0173200
617.671	0.0172160
617.749	0.0173792
617.827	0.0174962
617.905	0.0173352
617.983	0.0173642
618.061	0.0175476
618.140	0.0174408
618.218	0.0174181
618.296	0.0175427
618.374	0.0175577
618.452	0.0175928
618.530	0.0175690
618.608	0.0174617
618.686	0.0176535
618.765	0.0177610
618.843	0.0176968
618.921	0.0176803
618.999	0.0176280
619.077	0.0176168
619.155	0.0176549
619.233	0.0172775
619.311	0.0173141
619.390	0.0171580
619.468	0.0170356
619.546	0.0169038
619.624	0.0168249
619.702	0.0165213
619.780	0.0164314
619.858	0.0162315
619.936	0.0160550
620.015	0.0161122
620.093	0.0159547
620.171	0.0156460
620.249	0.0156676
620.327	0.0156110
620.405	0.0156576
620.483	0.0156181
620.561	0.0154959
620.640	0.0156702
620.718	0.0156713
620.796	0.0156620
620.874	0.0157729
620.952	0.0159312
621.030	0.0160120
621.108	0.0162121
621.186	0.0165063
621.265	0.0164753
621.343	0.0166529
621.421	0.0168271
621.499	0.0168165
621.577	0.0169602
621.655	0.0171291
621.733	0.0170499
621.811	0.0170392
621.890	0.0171690
621.968	0.0171914
622.046	0.0171869
622.124	0.0172585
622.202	0.0171122
622.280	0.0170403
622.358	0.0170013
622.436	0.0170680
622.515	0.0172527
622.593	0.0170649
622.671	0.0169770
622.749	0.0169603
622.827	0.0171772
622.905	0.0169994
622.983	0.0171714
623.061	0.0170554
623.140	0.0169868
623.218	0.0168993
623.296	0.0169656
623.374	0.0170879
623.452	0.0171033
623.530	0.0171080
623.608	0.0170796
623.686	0.0170802
623.765	0.0173086
623.843	0.0173751
623.921	0.0173968
623.999	0.0175284
624.077	0.0176778
624.155	0.0176182
624.233	0.0175465
624.311	0.0175516
624.390	0.0174397
624.468	0.0173784
624.546	0.0173264
624.624	0.0171651
624.702	0.0170463
624.780	0.0166982
624.858	0.0165092
624.936	0.0163636
625.015	0.0162364
625.093	0.0159505
625.171	0.0158027
625.249	0.0155476
625.327	0.0154530
625.405	0.0152948
625.483	0.0152283
625.561	0.0150207
625.640	0.0150104
625.718	0.0151536
625.796	0.0150304
625.874	0.0149665
625.952	0.0151159
626.030	0.0153471
626.108	0.0151992
626.186	0.0153490
626.265	0.0156689
626.343	0.0157030
626.421	0.0157893
626.499	0.0160857
626.577	0.0162899
626.655	0.0164085
626.733	0.0166348
626.811	0.0168636
626.890	0.0171554
626.968	0.0173592
627.046	0.0175153
627.124	0.0176101
627.202	0.0178056
627.280	0.0178794
627.358	0.0180209
627.436	0.0180206
627.515	0.0182701
627.593	0.0182079
627.671	0.0183289
627.749	0.0184721
627.827	0.0183973
627.905	0.0184073
627.983	0.0184312
628.061	0.0182019
628.140	0.0182755
628.218	0.0181086
628.296	0.0179916
628.374	0.0178596
628.452	0.0177973
628.530	0.0175726
628.608	0.0175123
628.686	0.0172350
628.765	0.0170981
628.843	0.0170055
628.921	0.0168801
628.999	0.0166495
629.077	0.0166804
629.155	0.0166334
629.233	0.0164916
629.311	0.0165942
629.390	0.0165043
629.468	0.0162275
629.546	0.0164172
629.624	0.0162404
629.702	0.0160476
629.780	0.0161825
629.858	0.0162717
629.936	0.0160545
630.015	0.0159920
630.093	0.0161083
630.171	0.0159853
630.249	0.0161548
630.327	0.0161039
630.405	0.0161939
630.483	0.0161291
630.561	0.0160845
630.640	0.0161530
630.718	0.0162139
630.796	0.0163143
630.874	0.0160951
630.952	0.0161735
631.030	0.0161715
631.108	0.0161208
631.186	0.0161845
631.265	0.0161731
631.343	0.0162244
631.421	0.0164918
631.499	0.0165909
631.577	0.0166953
631.655	0.0166753
631.733	0.0167348
631.811	0.0168161
631.890	0.0167364
631.968	0.0170741
632.046	0.0170805
632.124	0.0170583
632.202	0.0171687
632.280	0.0170765
632.358	0.0172726
632.436	0.0174538
632.515	0.0173180
632.593	0.0173083
632.671	0.0172478
632.749	0.0173235
632.827	0.0172629
632.905	0.0173192
632.983	0.0174618
633.061	0.0172535
633.140	0.0171553
633.218	0.0172045
633.296	0.0170278
633.374	0.0168658
633.452	0.0168317
633.530	0.0166387
633.608	0.0165417
633.686	0.0164322
633.765	0.0161544
633.843	0.0162650
633.921	0.0161050
633.999	0.0162917
634.077	0.0161769
634.155	0.0160268
634.233	0.0161802
634.311	0.0161866
634.390	0.0160985
634.468	0.0161053
634.546	0.0162196
634.624	0.0162185
634.702	0.0164342
634.780	0.0166830
634.858	0.0165487
634.936	0.0166464
635.015	0.0168640
635.093	0.0169843
635.171	0.0170063
635.249	0.0171374
635.327	0.0172368
635.405	0.0175170
635.483	0.0175677
635.561	0.0176475
635.640	0.0176361
635.718	0.0175519
635.796	0.0174678
635.874	0.0173950
635.952	0.0173349
636.030	0.0173221
636.108	0.0170990
636.186	0.0169146
636.265	0.0167733
636.343	0.0166588
636.421	0.0164152
636.499	0.0162650
636.577	0.0160648
636.655	0.0161143
636.733	0.0158537
636.811	0.0158047
636.890	0.0158405
636.968	0.0157681
637.046	0.0158026
637.124	0.0157371
637.202	0.0156739
637.280	0.0157384
637.358	0.0157545
637.436	0.0159476
637.515	0.0158665
637.593	0.0159171
637.671	0.0161026
637.749	0.0162615
637.827	0.0162928
637.905	0.0164763
637.983	0.0165460
638.061	0.0165215
638.140	0.0166351
638.218	0.0166949
638.296	0.0168176
638.374	0.0168114
638.452	0.0168533
638.530	0.0169788
638.608	0.0170055
638.686	0.0171584
638.765	0.0172565
638.843	0.0170669
638.921	0.0173486
638.999	0.0173598
639.077	0.0173925
639.155	0.0174088
639.233	0.0174522
639.311	0.0174623
639.390	0.0174988
639.468	0.0175466
639.546	0.0175764
639.624	0.0178225
639.702	0.0176771
639.780	0.0177731
639.858	0.0177232
639.936	0.0179159
640.015	0.0179874
640.093	0.0179324
640.171	0.0179879
640.249	0.0181724
640.327	0.0181275
640.405	0.0181015
640.483	0.0180017
640.561	0.0179218
640.640	0.0178925
640.718	0.0177328
640.796	0.0175573
640.874	0.0174313
640.952	0.0172304
641.030	0.0169341
641.108	0.0166957
641.186	0.0164711
641.265	0.0162821
641.343	0.0160096
641.421	0.0158645
641.499	0.0158344
641.577	0.0154915
641.655	0.0155633
641.733	0.0156030
641.811	0.0156086
641.890	0.0155296
641.968	0.0155931
642.046	0.0156909
642.124	0.0158323
642.202	0.0159277
642.280	0.0162658
642.358	0.0163053
642.436	0.0165430
642.515	0.0168781
642.593	0.0169515
642.671	0.0170103
642.749	0.0171812
642.827	0.0173093
642.905	0.0175102
642.983	0.0175435
643.061	0.0175461
643.140	0.0176537
643.218	0.0177343
643.296	0.0176202
643.374	0.0176258
643.452	0.0177327
643.530	0.0177129
643.608	0.0176914
643.686	0.0176157
643.765	0.0177674
643.843	0.0177073
643.921	0.0176830
643.999	0.0175124
644.077	0.0175463
644.155	0.0175008
644.233	0.0172298
644.311	0.0171316
644.390	0.0168768
644.468	0.0166443
644.546	0.0166560
644.624	0.0164103
644.702	0.0162536
644.780	0.0160577
644.858	0.0160091
644.936	0.0158686
645.015	0.0158406
645.093	0.0157925
645.171	0.0157108
645.249	0.0157490
645.327	0.0157230
645.405	0.0157671
645.483	0.0158292
645.561	0.0160116
645.640	0.0160773
645.718	0.0162837
645.796	0.0164899
645.874	0.0165238
645.952	0.0168325
646.030	0.0168909
646.108	0.0170427
646.186	0.0173408
646.265	0.0174776
646.343	0.0176291
646.421	0.0177541
646.499	0.0178443
646.577	0.0179445
646.655	0.0178340
646.733	0.0181568
646.811	0.0180918
646.890	0.0181495
646.968	0.0180721
647.046	0.0181314
647.124	0.0180828
647.202	0.0179471
647.280	0.0179562
647.358	0.0180530
647.436	0.0179676
647.515	0.0177433
647.593	0.0175114
647.671	0.0175684
647.749	0.0174519
647.827	0.0172516
647.905	0.0171419
647.983	0.0169436
648.061	0.0169053
648.140	0.0166576
648.218	0.0166627
648.296	0.0163731
648.374	0.0163405
648.452	0.0161968
648.530	0.0161306
648.608	0.0159361
648.686	0.0158409
648.765	0.0158261
648.843	0.0157336
648.921	0.0156440
648.999	0.0155116
649.077	0.0154316
649.155	0.0154317
649.233	0.0151926
649.311	0.0152805
649.390	0.0153986
649.468	0.0152797
649.546	0.0154390
649.624	0.0154976
649.702	0.0155478
649.780	0.0156054
649.858	0.0156947
649.936	0.0157870
650.015	0.0159169
650.093	0.0160916
650.171	0.0161589
650.249	0.0163425
650.327	0.0165218
650.405	0.0168145
650.483	0.0168841
650.561	0.0169057
650.640	0.0170698
650.718	0.0171763
650.796	0.0173888
650.874	0.0173402
650.952	0.0173523
651.030	0.0173804
651.108	0.0173432
651.186	0.0174274
651.265	0.0173283
651.343	0.0173249
651.421	0.0172166
651.499	0.0172869
651.577	0.0173453
651.655	0.0174729
651.733	0.0174612
651.811	0.0175896
651.890	0.0176542
651.968	0.0177370
652.046	0.0179238
652.124	0.0180430
652.202	0.0182552
652.280	0.0181750
652.358	0.0181447
652.436	0.0182567
652.515	0.0181121
652.593	0.0182214
652.671	0.0179988
652.749	0.0179808
652.827	0.0180299
652.905	0.0178090
652.983	0.0174862
653.061	0.0174874
653.140	0.0172763
653.218	0.0171644
653.296	0.0170409
653.374	0.0166779
653.452	0.0164038
653.530	0.0162280
653.608	0.0161652
653.686	0.0160591
653.765	0.0159045
653.843	0.0158745
653.921	0.0158879
653.999	0.0157913
654.077	0.0157181
654.155	0.0157558
654.233	0.0159657
654.311	0.0159255
654.390	0.0158440
654.468	0.0159991
654.546	0.0161763
654.624	0.0162967
654.702	0.0163531
654.780	0.0163905
654.858	0.0164269
654.936	0.0164004
655.015	0.0164420
655.093	0.0165907
655.171	0.0167241
655.249	0.0167171
655.327	0.0168829
655.405	0.0166794
655.483	0.0168368
655.561	0.0167778
655.640	0.0167788
655.718	0.0169874
655.796	0.0168859
655.874	0.0168451
655.952	0.0168665
656.030	0.0168064
656.108	0.0166367
656.186	0.0166901
656.265	0.0167247
656.343	0.0166778
656.421	0.0166631
656.499	0.0166483
656.577	0.0166658
656.655	0.0166895
656.733	0.0168472
656.811	0.0168411
656.890	0.0168619
656.968	0.0168169
657.046	0.0169247
657.124	0.0170168
657.202	0.0171097
657.280	0.0171221
657.358	0.0172719
657.436	0.0175506
657.515	0.0175613
657.593	0.0176787
657.671	0.0177850
657.749	0.0178959
657.827	0.0181184
657.905	0.0180751
657.983	0.0181724
658.061	0.0182850
658.140	0.0183203
658.218	0.0180792
658.296	0.0180856
658.374	0.0181596
658.452	0.0180688
658.530	0.0179375
658.608	0.0178619
658.686	0.0176511
658.765	0.0174565
658.843	0.0174032
658.921	0.0172016
658.999	0.0170885
659.077	0.0168592
659.155	0.0167519
659.233	0.0165108
659.311	0.0164745
659.390	0.0163561
659.468	0.0162156
659.546	0.0161756
659.624	0.0161773
659.702	0.0159703
659.780	0.0159571
659.858	0.0158124
659.936	0.0158820
660.015	0.0159860
660.093	0.0160696
660.171	0.0161021
660.249	0.0160359
660.327	0.0160275
660.405	0.0161977
660.483	0.0162719
660.561	0.0163624
660.640	0.0161725
660.718	0.0164997
660.796	0.0164249
660.874	0.0164301
660.952	0.0164902
661.030	0.0165166
661.108	0.0165664
661.186	0.0166543
661.265	0.0167754
661.343	0.0166751
661.421	0.0168895
661.499	0.0168482
661.577	0.0167963
661.655	0.0169247
661.733	0.0168594
661.811	0.0169769
661.890	0.0168915
661.968	0.0168750
662.046	0.0168437
662.124	0.0167587
662.202	0.0167519
662.280	0.0167770
662.358	0.0168142
662.436	0.0168886
662.515	0.0168761
662.593	0.0168041
662.671	0.0167854
662.749	0.0167375
662.827	0.0169563
662.905	0.0168859
662.983	0.0169933
663.061	0.0170715
663.140	0.0170951
663.218	0.0172482
663.296	0.0172481
663.374	0.0171700
663.452	0.0172626
663.530	0.0172534
663.608	0.0175707
663.686	0.0175000
663.765	0.0174307
663.843	0.0174553
663.921	0.0175220
663.999	0.0174082
664.077	0.0173764
664.155	0.0173634
664.233	0.0173856
664.311	0.0172697
664.390	0.0171792
664.468	0.0170953
664.546	0.0171275
664.624	0.0169360
664.702	0.0168423
664.780	0.0169800
664.858	0.0168805
664.936	0.0169061
665.015	0.0168955
665.093	0.0170559
665.171	0.0169352
665.249	0.0171748
665.327	0.0171949
665.405	0.0170432
665.483	0.0171835
665.561	0.0173241
665.640	0.0173602
665.718	0.0173129
665.796	0.0171055
665.874	0.0171266
665.952	0.0171564
666.030	0.0171671
666.108	0.0170292
666.186	0.0170332
666.265	0.0168941
666.343	0.0168489
666.421	0.0167767
666.499	0.0167994
666.577	0.0166176
666.655	0.0164246
666.733	0.0164482
666.811	0.0164227
666.890	0.0164361
666.968	0.0163552
667.046	0.0163607
667.124	0.0163129
667.202	0.0164880
667.280	0.0165371
667.358	0.0164525
667.436	0.0162994
667.515	0.0165592
667.593	0.0165629
667.671	0.0164732
667.749	0.0166862
667.827	0.0166738
667.905	0.0166347
667.983	0.0165739
668.061	0.0167129
668.140	0.0168430
668.218	0.0167976
668.296	0.0168255
668.374	0.0167709
668.452	0.0167970
668.530	0.0169099
668.608	0.0168670
668.686	0.0168826
668.765	0.0169590
668.843	0.0169333
668.921	0.0169439
668.999	0.0170403
669.077	0.0171106
669.155	0.0168845
669.233	0.0169054
669.311	0.0168707
669.390	0.0168376
669.468	0.0168606
669.546	0.0168956
669.624	0.0168404
669.702	0.0167747
669.780	0.0167661
669.858	0.0168418
669.936	0.0167478
670.015	0.0169869
670.093	0.0168752
670.171	0.0167811
670.249	0.0168829
670.327	0.0169250
670.405	0.0168024
670.483	0.0168355
670.561	0.0169857
670.640	0.0168947
670.718	0.0168748
670.796	0.0170815
670.874	0.0170065
670.952	0.0170700
671.030	0.0169028
671.108	0.0169576
671.186	0.0168104
671.265	0.0168858
671.343	0.0169949
671.421	0.0168334
671.499	0.0167530
671.577	0.0168271
671.655	0.0167954
671.733	0.0166351
671.811	0.0165462
671.890	0.0167888
671.968	0.0168010
672.046	0.0166717
672.124	0.0166511
672.202	0.0165039
672.280	0.0165488
672.358	0.0165398
672.436	0.0162743
672.515	0.0163720
672.593	0.0163701
672.671	0.0163051
672.749	0.0164178
672.827	0.0163754
672.905	0.0162565
672.983	0.0163940
673.061	0.0164521
673.140	0.0165475
673.218	0.0164758
673.296	0.0166569
673.374	0.0167160
673.452	0.0168092
673.530	0.0167847
673.608	0.0169769
673.686	0.0170448
673.765	0.0170473
673.843	0.0170542
673.921	0.0169240
673.999	0.0170615
674.077	0.0170284
674.155	0.0169872
674.233	0.0168511
674.311	0.0169247
674.390	0.0168210
674.468	0.0167827
674.546	0.0168367
674.624	0.0165679
674.702	0.0166250
674.780	0.0164417
674.858	0.0164804
674.936	0.0166530
675.015	0.0165629
675.093	0.0165043
675.171	0.0165778
675.249	0.0166378
675.327	0.0167270
675.405	0.0166532
675.483	0.0168167
675.561	0.0169193
675.640	0.0169785
675.718	0.0170322
675.796	0.0170798
675.874	0.0170332
675.952	0.0170547
676.030	0.0171429
676.108	0.0170485
676.186	0.0171552
676.265	0.0171131
676.343	0.0170699
676.421	0.0171335
676.499	0.0169926
676.577	0.0169547
676.655	0.0169756
676.733	0.0169753
676.811	0.0169778
676.890	0.0168753
676.968	0.0169344
677.046	0.0167789
677.124	0.0168203
677.202	0.0168581
677.280	0.0166637
677.358	0.0165961
677.436	0.0166405
677.515	0.0166467
677.593	0.0166330
677.671	0.0166769
677.749	0.0165886
677.827	0.0165208
677.905	0.0163968
677.983	0.0164957
678.061	0.0165067
678.140	0.0164584
678.218	0.0164934
678.296	0.0163873
678.374	0.0164176
678.452	0.0163382
678.530	0.0164528
678.608	0.0164383
678.686	0.0164384
678.765	0.0164244
678.843	0.0163708
678.921	0.0166673
678.999	0.0165952
679.077	0.0166348
679.155	0.0166106
679.233	0.0165167
679.311	0.0166750
679.390	0.0165789
679.468	0.0164124
679.546	0.0164375
679.624	0.0165297
679.702	0.0165131
679.780	0.0165446
679.858	0.0166331
679.936	0.0167834
680.015	0.0167146
680.093	0.0169518
680.171	0.0168863
680.249	0.0168642
680.327	0.0169843
680.405	0.0170350
680.483	0.0171426
680.561	0.0172422
680.640	0.0172579
680.718	0.0172984
680.796	0.0173550
680.874	0.0172990
680.952	0.0173830
681.030	0.0174840
681.108	0.0173374
681.186	0.0173880
681.265	0.0172859
681.343	0.0173785
681.421	0.0173186
681.499	0.0171045
681.577	0.0169669
681.655	0.0170206
681.733	0.0169089
681.811	0.0168767
681.890	0.0167789
681.968	0.0166606
682.046	0.0165601
682.124	0.0163457
682.202	0.0165159
682.280	0.0164579
682.358	0.0163900
682.436	0.0163689
682.515	0.0162597
682.593	0.0163332
682.671	0.0164185
682.749	0.0163550
682.827	0.0163656
682.905	0.0164076
682.983	0.0165703
683.061	0.0166784
683.140	0.0166462
683.218	0.0167504
683.296	0.0167906
683.374	0.0168758
683.452	0.0169494
683.530	0.0169486
683.608	0.0170051
683.686	0.0170431
683.765	0.0171391
683.843	0.0170648
683.921	0.0171156
683.999	0.0172530
684.077	0.0173077
684.155	0.0171059
684.233	0.0173198
684.311	0.0171386
684.390	0.0173241
684.468	0.0171740
684.546	0.0173325
684.624	0.0172887
684.702	0.0174354
684.780	0.0172600
684.858	0.0171629
684.936	0.0171374
685.015	0.0171156
685.093	0.0170071
685.171	0.0169186
685.249	0.0170137
685.327	0.0168880
685.405	0.0170418
685.483	0.0169868
685.561	0.0169241
685.640	0.0169549
685.718	0.0170081
685.796	0.0170805
685.874	0.0169670
685.952	0.0169035
686.030	0.0169357
686.108	0.0171400
686.186	0.0170648
686.265	0.0168784
686.343	0.0170332
686.421	0.0169498
686.499	0.0169388
686.577	0.0169012
686.655	0.0168680
686.733	0.0167882
686.811	0.0167390
686.890	0.0167699
686.968	0.0167938
687.046	0.0167049
687.124	0.0166885
687.202	0.0167092
687.280	0.0166048
687.358	0.0165433
687.436	0.0167142
687.515	0.0166193
687.593	0.0166779
687.671	0.0167659
687.749	0.0167124
687.827	0.0167921
687.905	0.0166767
687.983	0.0168375
688.061	0.0166951
688.140	0.0166587
688.218	0.0167134
688.296	0.0167072
688.374	0.0165407
688.452	0.0166791
688.530	0.0165837
688.608	0.0166179
688.686	0.0166302
688.765	0.0165968
688.843	0.0164754
688.921	0.0164084
688.999	0.0165738
689.077	0.0163798
689.155	0.0163533
689.233	0.0165332
689.311	0.0165548
689.390	0.0165642
689.468	0.0164391
689.546	0.0163529
689.624	0.0165164
689.702	0.0164485
689.780	0.0164970
689.858	0.0164679
689.936	0.0163753
690.015	0.0164071
690.093	0.0165100
690.171	0.0164943
690.249	0.0165123
690.327	0.0165230
690.405	0.0167543
690.483	0.0167363
690.561	0.0166772
690.640	0.0167140
690.718	0.0167913
690.796	0.0168117
690.874	0.0170347
690.952	0.0170515
691.030	0.0169936
691.108	0.0171779
691.186	0.0173217
691.265	0.0170439
691.343	0.0171130
691.421	0.0170979
691.499	0.0171657
691.577	0.0170770
691.655	0.0172239
691.733	0.0170956
691.811	0.0170473
691.890	0.0170345
691.968	0.0169899
692.046	0.0169536
692.124	0.0168581
692.202	0.0169180
692.280	0.0168777
692.358	0.0167704
692.436	0.0166241
692.515	0.0166712
692.593	0.0167136
692.671	0.0167842
692.749	0.0167222
692.827	0.0167581
692.905	0.0167269
692.983	0.0168163
693.061	0.0165643
693.140	0.0166827
693.218	0.0167056
693.296	0.0166871
693.374	0.0167318
693.452	0.0167156
693.530	0.0165209
693.608	0.0166443
693.686	0.0166509
693.765	0.0166296
693.843	0.0166191
693.921	0.0165199
693.999	0.0165087
694.077	0.0166656
694.155	0.0165165
694.233	0.0166087
694.311	0.0167120
694.390	0.0165957
694.468	0.0166672
694.546	0.0166551
694.624	0.0165370
694.702	0.0167590
694.780	0.0166980
694.858	0.0166673
694.936	0.0167305
695.015	0.0168759
695.093	0.0168073
695.171	0.0169370
695.249	0.0169086
695.327	0.0168571
695.405	0.0169474
695.483	0.0169812
695.561	0.0169110
695.640	0.0169144
695.718	0.0168655
695.796	0.0169118
695.874	0.0167680
695.952	0.0167644
696.030	0.0169977
696.108	0.0170218
696.186	0.0169025
696.265	0.0169778
696.343	0.0167795
696.421	0.0169323
696.499	0.0168437
696.577	0.0168783
696.655	0.0169756
696.733	0.0169116
696.811	0.0167445
696.890	0.0167193
696.968	0.0168033
697.046	0.0167926
697.124	0.0166434
697.202	0.0166367
697.280	0.0166940
697.358	0.0167355
697.436	0.0164664
697.515	0.0165130
697.593	0.0163943
697.671	0.0165833
697.749	0.0166183
697.827	0.0165131
697.905	0.0165180
697.983	0.0165224
698.061	0.0164976
698.140	0.0165278
698.218	0.0166360
698.296	0.0166644
698.374	0.0167662
698.452	0.0167854
698.530	0.0166801
698.608	0.0168859
698.686	0.0168263
698.765	0.0168727
698.843	0.0170274
698.921	0.0168313
698.999	0.0167577
699.077	0.0169112
699.155	0.0169530
699.233	0.0167535
699.311	0.0166989
699.390	0.0166920
699.468	0.0168295
699.546	0.0165852
699.624	0.0166286
699.702	0.0167221
699.780	0.0166707
699.858	0.0165495
699.936	0.0165802
700.015	0.0164568
700.093	0.0165838
700.171	0.0165603
700.249	0.0166273
700.327	0.0167448
700.405	0.0166065
700.483	0.0166563
700.561	0.0165367
700.640	0.0166560
700.718	0.0168366
700.796	0.0165468
700.874	0.0167162
700.952	0.0166956
701.030	0.0167520
701.108	0.0167682
701.186	0.0165321
701.265	0.0165805
701.343	0.0166208
701.421	0.0166755
701.499	0.0167027
701.577	0.0167351
701.655	0.0166660
701.733	0.0165883
701.811	0.0167168
701.890	0.0167342
701.968	0.0168593
702.046	0.0167519
702.124	0.0168218
702.202	0.0167880
702.280	0.0168861
702.358	0.0169064
702.436	0.0168702
702.515	0.0169795
702.593	0.0168557
702.671	0.0167951
702.749	0.0169756
702.827	0.0169471
702.905	0.0168082
702.983	0.0168538
703.061	0.0169763
703.140	0.0167596
703.218	0.0168755
703.296	0.0169408
703.374	0.0169650
703.452	0.0167831
703.530	0.0166821
703.608	0.0167775
703.686	0.0169288
703.765	0.0167806
703.843	0.0168185
703.921	0.0167648
703.999	0.0168725
704.077	0.0167650
704.155	0.0167960
704.233	0.0168114
704.311	0.0167892
704.390	0.0167953
704.468	0.0168071
704.546	0.0168008
704.624	0.0167854
704.702	0.0166854
704.780	0.0168202
704.858	0.0168050
704.936	0.0168339
705.015	0.0168345
705.093	0.0168185
705.171	0.0168780
705.249	0.0168697
705.327	0.0169167
705.405	0.0169312
705.483	0.0168250
705.561	0.0168084
705.640	0.0168054
705.718	0.0168633
705.796	0.0168298
705.874	0.0168399
705.952	0.0168186
706.030	0.0167822
706.108	0.0169656
706.186	0.0169611
706.265	0.0168934
706.343	0.0169078
706.421	0.0168864
706.499	0.0169184
706.577	0.0168806
706.655	0.0169866
706.733	0.0169970
706.811	0.0171168
706.890	0.0169786
706.968	0.0170013
707.046	0.0169487
707.124	0.0169553
707.202	0.0167597
707.280	0.0167925
707.358	0.0169344
707.436	0.0168082
707.515	0.0168161
707.593	0.0167896
707.671	0.0166965
707.749	0.0167461
707.827	0.0166979
707.905	0.0165908
707.983	0.0166459
708.061	0.0166235
708.140	0.0166048
708.218	0.0167307
708.296	0.0166183
708.374	0.0166181
708.452	0.0166371
708.530	0.0166485
708.608	0.0168488
708.686	0.0168325
708.765	0.0167577
708.843	0.0167892
708.921	0.0166986
708.999	0.0167593
709.077	0.0166628
709.155	0.0168258
709.233	0.0167579
709.311	0.0168130
709.390	0.0168319
709.468	0.0167952
709.546	0.0167110
709.624	0.0167046
709.702	0.0165865
709.780	0.0167298
709.858	0.0166605
709.936	0.0166689
710.015	0.0166801
710.093	0.0166705
710.171	0.0166026
710.249	0.0167132
710.327	0.0166393
710.405	0.0167299
710.483	0.0167913
710.561	0.0167366
710.640	0.0167998
710.718	0.0165985
710.796	0.0165869
710.874	0.0165575
710.952	0.0167461
711.030	0.0166213
711.108	0.0165988
711.186	0.0165453
711.265	0.0167340
711.343	0.0166689
711.421	0.0166422
711.499	0.0165164
711.577	0.0165156
711.655	0.0164682
711.733	0.0165955
711.811	0.0166512
711.890	0.0166184
711.968	0.0165479
712.046	0.0166669
712.124	0.0166386
712.202	0.0169055
712.280	0.0167375
712.358	0.0168330
712.436	0.0169128
712.515	0.0168900
712.593	0.0167429
712.671	0.0168336
712.749	0.0170387
712.827	0.0168993
712.905	0.0168460
712.983	0.0169395
713.061	0.0169320
713.140	0.0168019
713.218	0.0167933
713.296	0.0168143
713.374	0.0167056
713.452	0.0166682
713.530	0.0167321
713.608	0.0167017
713.686	0.0164851
713.765	0.0165004
713.843	0.0164793
713.921	0.0166068
713.999	0.0165468
714.077	0.0165929
714.155	0.0167667
714.233	0.0165505
714.311	0.0168298
714.390	0.0169582
714.468	0.0168832
714.546	0.0170479
714.624	0.0168968
714.702	0.0170657
714.780	0.0171288
714.858	0.0173360
714.936	0.0172212
715.015	0.0173061
715.093	0.0172816
715.171	0.0172820
715.249	0.0173727
715.327	0.0172645
715.405	0.0171829
715.483	0.0172293
715.561	0.0172621
715.640	0.0171067
715.718	0.0172524
715.796	0.0170721
715.874	0.0170661
715.952	0.0169711
716.030	0.0169133
716.108	0.0168990
716.186	0.0168857
716.265	0.0168631
716.343	0.0169253
716.421	0.0166961
716.499	0.0166903
716.577	0.0167189
716.655	0.0167082
716.733	0.0166344
716.811	0.0167587
716.890	0.0166636
716.968	0.0164948
717.046	0.0165237
717.124	0.0165424
717.202	0.0166283
717.280	0.0165755
717.358	0.0166352
717.436	0.0165706
717.515	0.0164751
717.593	0.0165916
717.671	0.0166775
717.749	0.0167201
717.827	0.0167001
717.905	0.0166021
717.983	0.0167944
718.061	0.0168333
718.140	0.0167400
718.218	0.0168128
718.296	0.0168758
718.374	0.0167789
718.452	0.0168353
718.530	0.0168868
718.608	0.0167557
718.686	0.0167618
718.765	0.0167680
718.843	0.0167807
718.921	0.0167097
718.999	0.0167371
719.077	0.0168626
719.155	0.0166493
719.233	0.0167188
719.311	0.0167692
719.390	0.0168462
719.468	0.0166532
719.546	0.0164738
719.624	0.0166576
719.702	0.0166137
719.780	0.0165939
719.858	0.0166730
719.936	0.0166225
720.015	0.0167696
720.093	0.0165989
720.171	0.0166525
720.249	0.0167169
720.327	0.0166084
720.405	0.0167938
720.483	0.0166428
720.561	0.0167185
720.640	0.0166366
720.718	0.0167708
720.796	0.0168459
720.874	0.0166432
720.952	0.0167419
721.030	0.0166473
721.108	0.0165379
721.186	0.0165656
721.265	0.0167627
721.343	0.0164973
721.421	0.0164613
721.499	0.0165708
721.577	0.0165738
721.655	0.0163993
721.733	0.0165340
721.811	0.0164968
721.890	0.0165555
721.968	0.0166734
722.046	0.0165453
722.124	0.0166308
722.202	0.0167359
722.280	0.0166695
722.358	0.0168060
722.436	0.0164842
722.515	0.0167957
722.593	0.0168684
722.671	0.0167278
722.749	0.0167954
722.827	0.0168496
722.905	0.0166640
722.983	0.0169056
723.061	0.0168066
723.140	0.0168085
723.218	0.0168867
723.296	0.0168578
723.374	0.0168311
723.452	0.0168681
723.530	0.0167642
723.608	0.0168811
723.686	0.0168194
723.765	0.0168413
723.843	0.0168764
723.921	0.0169012
723.999	0.0168074
724.077	0.0168428
724.155	0.0168463
724.233	0.0168839
724.311	0.0169924
724.390	0.0169479
724.468	0.0168420
724.546	0.0169914
724.624	0.0169757
724.702	0.0168488
724.780	0.0169407
724.858	0.0167908
724.936	0.0168966
725.015	0.0168861
725.093	0.0168945
725.171	0.0168486
725.249	0.0168853
725.327	0.0166856
725.405	0.0167446
725.483	0.0168472
725.561	0.0168436
725.640	0.0167227
725.718	0.0167887
725.796	0.0166932
725.874	0.0167195
725.952	0.0167489
726.030	0.0168347
726.108	0.0168445
726.186	0.0169749
726.265	0.0168916
726.343	0.0168027
726.421	0.0168884
726.499	0.0170888
726.577	0.0169460
726.655	0.0168605
726.733	0.0170393
726.811	0.0169254
726.890	0.0169807
726.968	0.0170949
727.046	0.0168040
727.124	0.0168172
727.202	0.0169479
727.280	0.0167823
727.358	0.0168045
727.436	0.0168360
727.515	0.0169354
727.593	0.0168948
727.671	0.0167949
727.749	0.0168271
727.827	0.0168313
727.905	0.0169328
727.983	0.0169214
728.061	0.0169044
728.140	0.0169627
728.218	0.0168045
728.296	0.0167542
728.374	0.0169154
728.452	0.0168733
728.530	0.0169539
728.608	0.0168471
728.686	0.0169291
728.765	0.0168963
728.843	0.0168231
728.921	0.0169316
728.999	0.0169511
729.077	0.0168789
729.155	0.0168078
729.233	0.0168816
729.311	0.0168981
729.390	0.0168325
729.468	0.0167559
729.546	0.0167879
729.624	0.0166563
729.702	0.0167661
729.780	0.0168850
729.858	0.0167440
729.936	0.0166920
730.015	0.0166579
730.093	0.0166713
730.171	0.0167540
730.249	0.0167451
730.327	0.0166212
730.405	0.0165421
730.483	0.0165933
730.561	0.0164353
730.640	0.0164493
730.718	0.0165269
730.796	0.0166711
730.874	0.0166779
730.952	0.0167273
731.030	0.0166097
731.108	0.0166078
731.186	0.0168215
731.265	0.0169316
731.343	0.0169524
731.421	0.0170493
731.499	0.0170115
731.577	0.0170772
731.655	0.0171855
731.733	0.0170264
731.811	0.0170336
731.890	0.0170169
731.968	0.0171660
732.046	0.0170404
732.124	0.0167757
732.202	0.0167317
732.280	0.0167190
732.358	0.0164941
732.436	0.0165107
732.515	0.0165026
732.593	0.0164502
732.671	0.0164584
732.749	0.0162421
732.827	0.0164450
732.905	0.0165523
732.983	0.0165340
733.061	0.0166261
733.140	0.0166642
733.218	0.0166622
733.296	0.0169052
733.374	0.0168009
733.452	0.0168562
733.530	0.0167928
733.608	0.0168449
733.686	0.0170078
733.765	0.0168143
733.843	0.0168561
733.921	0.0169365
733.999	0.0169178
734.077	0.0168011
734.155	0.0169202
734.233	0.0168736
734.311	0.0169456
734.390	0.0169160
734.468	0.0170477
734.546	0.0170254
734.624	0.0169878
734.702	0.0170315
734.780	0.0169723
734.858	0.0169753
734.936	0.0170817
735.015	0.0170244
735.093	0.0170207
735.171	0.0169565
735.249	0.0170139
735.327	0.0169440
735.405	0.0169595
735.483	0.0169448
735.561	0.0169909
735.640	0.0169460
735.718	0.0169209
735.796	0.0169183
735.874	0.0169828
735.952	0.0169695
736.030	0.0168122
736.108	0.0169865
736.186	0.0170409
736.265	0.0169621
736.343	0.0169980
736.421	0.0169040
736.499	0.0169544
736.577	0.0170197
736.655	0.0170767
736.733	0.0169064
736.811	0.0168890
736.890	0.0170721
736.968	0.0168221
737.046	0.0170815
737.124	0.0169200
737.202	0.0170072
737.280	0.0168745
737.358	0.0169237
737.436	0.0168258
737.515	0.0166289
737.593	0.0166802
737.671	0.0168044
737.749	0.0167056
737.827	0.0166911
737.905	0.0166749
737.983	0.0165095
738.061	0.0166738
738.140	0.0166785
738.218	0.0165840
738.296	0.0165607
738.374	0.0165337
738.452	0.0166302
738.530	0.0166196
738.608	0.0165528
738.686	0.0166106
738.765	0.0165665
738.843	0.0167542
738.921	0.0167378
738.999	0.0168472
739.077	0.0167363
739.155	0.0168985
739.233	0.0168070
739.311	0.0169188
739.390	0.0169550
739.468	0.0168928
739.546	0.0170361
739.624	0.0169736
739.702	0.0171450
739.780	0.0171964
739.858	0.0170559
739.936	0.0170694
740.015	0.0170158
740.093	0.0170227
740.171	0.0170092
740.249	0.0170644
740.327	0.0170715
740.405	0.0168813
740.483	0.0168899
740.561	0.0170014
740.640	0.0167513
740.718	0.0168966
740.796	0.0167834
740.874	0.0166397
740.952	0.0166132
741.030	0.0165199
741.108	0.0166598
741.186	0.0166087
741.265	0.0166045
741.343	0.0166402
741.421	0.0165656
741.499	0.0164420
741.577	0.0166156
741.655	0.0165854
741.733	0.0165202
741.811	0.0164934
741.890	0.0166477
741.968	0.0165116
742.046	0.0165678
742.124	0.0167437
742.202	0.0166954
742.280	0.0165603
742.358	0.0165934
742.436	0.0166942
742.515	0.0166223
742.593	0.0165991
742.671	0.0165540
742.749	0.0165391
742.827	0.0166246
742.905	0.0166843
742.983	0.0165961
743.061	0.0166506
743.140	0.0165047
743.218	0.0167010
743.296	0.0167495
743.374	0.0166485
743.452	0.0167413
743.530	0.0167791
743.608	0.0167845
743.686	0.0167500
743.765	0.0168346
743.843	0.0168558
743.921	0.0168835
743.999	0.0167332
744.077	0.0168503
744.155	0.0168060
744.233	0.0168949
744.311	0.0167594
744.390	0.0168852
744.468	0.0167088
744.546	0.0166875
744.624	0.0167941
744.702	0.0167077
744.780	0.0166964
744.858	0.0166866
744.936	0.0166794
745.015	0.0166967
745.093	0.0167047
745.171	0.0166448
745.249	0.0167094
745.327	0.0166313
745.405	0.0166945
745.483	0.0165429
745.561	0.0166061
745.640	0.0164379
745.718	0.0166670
745.796	0.0166683
745.874	0.0165289
745.952	0.0166292
746.030	0.0166059
746.108	0.0165324
746.186	0.0163844
746.265	0.0164927
746.343	0.0165980
746.421	0.0166409
746.499	0.0166529
746.577	0.0166348
746.655	0.0164967
746.733	0.0166465
746.811	0.0166074
746.890	0.0166286
746.968	0.0165363
747.046	0.0166325
747.124	0.0166717
747.202	0.0167808
747.280	0.0165089
747.358	0.0166150
747.436	0.0168298
747.515	0.0169962
747.593	0.0168538
747.671	0.0168116
747.749	0.0167960
747.827	0.0168169
747.905	0.0169166
747.983	0.0171369
748.061	0.0170207
748.140	0.0170228
748.218	0.0170605
748.296	0.0169079
748.374	0.0170629
748.452	0.0170724
748.530	0.0171233
748.608	0.0170130
748.686	0.0171505
748.765	0.0170959
748.843	0.0171379
748.921	0.0170486
748.999	0.0169242
749.077	0.0170725
749.155	0.0170722
749.233	0.0169838
749.311	0.0169670
749.390	0.0169904
749.468	0.0168802
749.546	0.0168273
749.624	0.0169288
749.702	0.0169019
749.780	0.0169633
749.858	0.0167909
749.936	0.0168218
750.015	0.0169804
750.093	0.0168214
750.171	0.0170316
750.249	0.0168979
750.327	0.0168837
750.405	0.0169234
750.483	0.0169927
750.561	0.0167837
750.640	0.0168376
750.718	0.0168823
750.796	0.0168279
750.874	0.0170057
750.952	0.0170074
751.030	0.0168552
751.108	0.0168365
751.186	0.0169383
751.265	0.0170319
751.343	0.0168948
751.421	0.0168080
751.499	0.0169031
751.577	0.0168149
751.655	0.0169647
751.733	0.0168974
751.811	0.0169451
751.890	0.0168745
751.968	0.0168300
752.046	0.0167863
752.124	0.0167499
752.202	0.0169337
752.280	0.0168841
752.358	0.0169038
752.436	0.0168065
752.515	0.0166421
752.593	0.0168542
752.671	0.0168238
752.749	0.0169814
752.827	0.0168747
752.905	0.0167173
752.983	0.0167677
753.061	0.0168782
753.140	0.0169736
753.218	0.0169337
753.296	0.0169994
753.374	0.0170293
753.452	0.0169206
753.530	0.0169883
753.608	0.0170494
753.686	0.0169313
753.765	0.0171681
753.843	0.0171494
753.921	0.0170499
753.999	0.0171306
754.077	0.0171772
754.155	0.0172721
754.233	0.0171938
754.311	0.0170430
754.390	0.0171874
754.468	0.0172912
754.546	0.0172443
754.624	0.0172515
754.702	0.0171181
754.780	0.0172925
754.858	0.0172738
754.936	0.0171928
755.015	0.0171323
755.093	0.0172296
755.171	0.0169842
755.249	0.0171107
755.327	0.0170773
755.405	0.0170975
755.483	0.0171236
755.561	0.0170603
755.640	0.0169333
755.718	0.0169684
755.796	0.0170383
755.874	0.0167802
755.952	0.0168054
756.030	0.0168328
756.108	0.0168810
756.186	0.0167069
756.265	0.0167670
756.343	0.0167088
756.421	0.0167189
756.499	0.0167128
756.577	0.0166204
756.655	0.0167246
756.733	0.0166165
756.811	0.0167244
756.890	0.0166911
756.968	0.0166112
757.046	0.0165546
757.124	0.0166312
757.202	0.0167358
757.280	0.0166989
757.358	0.0165955
757.436	0.0166209
757.515	0.0166354
757.593	0.0165972
757.671	0.0166709
757.749	0.0166646
757.827	0.0166297
757.905	0.0165245
757.983	0.0165203
758.061	0.0166401
758.140	0.0167542
758.218	0.0166268
758.296	0.0166679
758.374	0.0167415
758.452	0.0166685
758.530	0.0166951
758.608	0.0168378
758.686	0.0166669
758.765	0.0166085
758.843	0.0166728
758.921	0.0167662
758.999	0.0166855
759.077	0.0166987
759.155	0.0167953
759.233	0.0168941
759.311	0.0167204
759.390	0.0168263
759.468	0.0167564
759.546	0.0167305
759.624	0.0167592
759.702	0.0167938
759.780	0.0167918
759.858	0.0168745
759.936	0.0169025
760.015	0.0167996
760.093	0.0166815
760.171	0.0167523
760.249	0.0168816
760.327	0.0168124
760.405	0.0168703
760.483	0.0168395
760.561	0.0168309
760.640	0.0168944
760.718	0.0168192
760.796	0.0168117
760.874	0.0168053
760.952	0.0169175
761.030	0.0167953
761.108	0.0169435
761.186	0.0168694
761.265	0.0168311
761.343	0.0168320
761.421	0.0167639
761.499	0.0168411
761.577	0.0167905
761.655	0.0169353
761.733	0.0168272
761.811	0.0168143
761.890	0.0169431
761.968	0.0168587
762.046	0.0168657
762.124	0.0168588
762.202	0.0168555
762.280	0.0168758
762.358	0.0167550
762.436	0.0168164
762.515	0.0168127
762.593	0.0169225
762.671	0.0167667
762.749	0.0169035
762.827	0.0168378
762.905	0.0169884
762.983	0.0170023
763.061	0.0168522
763.140	0.0168281
763.218	0.0169266
763.296	0.0168749
763.374	0.0169855
763.452	0.0168730
763.530	0.0168475
763.608	0.0168017
763.686	0.0167856
763.765	0.0169879
763.843	0.0168350
763.921	0.0167683
763.999	0.0169208
764.077	0.0168465
764.155	0.0168813
764.233	0.0168047
764.311	0.0167548
764.390	0.0168266
764.468	0.0169314
764.546	0.0168401
764.624	0.0169659
764.702	0.0169939
764.780	0.0167445
764.858	0.0169614
764.936	0.0168890
765.015	0.0168645
765.093	0.0168942
765.171	0.0168131
765.249	0.0168646
765.327	0.0168423
765.405	0.0169291
765.483	0.0168462
765.561	0.0167274
765.640	0.0168449
765.718	0.0167286
765.796	0.0168826
765.874	0.0167126
765.952	0.0168272
766.030	0.0168131
766.108	0.0167535
766.186	0.0166653
766.265	0.0167570
766.343	0.0168543
766.421	0.0167790
766.499	0.0167551
766.577	0.0168401
766.655	0.0167602
766.733	0.0167262
766.811	0.0167093
766.890	0.0168796
766.968	0.0167689
767.046	0.0166138
767.124	0.0168074
767.202	0.0164985
767.280	0.0166122
767.358	0.0166759
767.436	0.0166805
767.515	0.0165227
767.593	0.0164497
767.671	0.0164290
767.749	0.0166238
767.827	0.0166512
767.905	0.0166295
767.983	0.0166302
768.061	0.0164999
768.140	0.0165279
768.218	0.0165845
768.296	0.0165201
768.374	0.0164876
768.452	0.0165231
768.530	0.0165952
768.608	0.0166541
768.686	0.0166680
768.765	0.0166483
768.843	0.0166197
768.921	0.0167275
768.999	0.0167384
769.077	0.0166846
769.155	0.0167439
769.233	0.0167345
769.311	0.0167592
769.390	0.0166290
769.468	0.0167716
769.546	0.0167087
769.624	0.0167162
769.702	0.0168570
769.780	0.0167117
769.858	0.0168972
769.936	0.0168406
770.015	0.0168046
770.093	0.0168213
770.171	0.0168723
770.249	0.0168392
770.327	0.0169402
770.405	0.0168036
770.483	0.0168360
770.561	0.0166923
770.640	0.0167824
770.718	0.0167459
770.796	0.0167216
770.874	0.0168294
770.952	0.0167260
771.030	0.0168488
771.108	0.0169032
771.186	0.0167416
771.265	0.0168103
771.343	0.0168398
771.421	0.0168289
771.499	0.0169245
771.577	0.0169135
771.655	0.0169626
771.733	0.0169177
771.811	0.0169706
771.890	0.0167701
771.968	0.0168117
772.046	0.0169408
772.124	0.0170042
772.202	0.0170087
772.280	0.0168951
772.358	0.0169689
772.436	0.0169626
772.515	0.0169592
772.593	0.0169450
772.671	0.0170412
772.749	0.0167863
772.827	0.0168816
772.905	0.0169971
772.983	0.0169342
773.061	0.0171227
773.140	0.0172058
773.218	0.0169984
773.296	0.0169279
773.374	0.0170679
773.452	0.0170079
773.530	0.0171101
773.608	0.0169575
773.686	0.0170922
773.765	0.0171437
773.843	0.0168597
773.921	0.0170473
773.999	0.0171381
774.077	0.0170361
774.155	0.0169296
774.233	0.0168261
774.311	0.0169202
774.390	0.0169525
774.468	0.0167970
774.546	0.0168536
774.624	0.0169301
774.702	0.0168731
774.780	0.0168706
774.858	0.0167942
774.936	0.0167374
775.015	0.0168217
775.093	0.0168888
775.171	0.0168478
775.249	0.0168240
775.327	0.0168519
775.405	0.0167799
775.483	0.0168208
775.561	0.0167686
775.640	0.0167688
775.718	0.0168261
775.796	0.0168496
775.874	0.0168069
775.952	0.0168285
776.030	0.0168858
776.108	0.0169332
776.186	0.0167529
776.265	0.0167065
776.343	0.0169653
776.421	0.0170515
776.499	0.0168911
776.577	0.0168182
776.655	0.0169214
776.733	0.0169908
776.811	0.0168980
776.890	0.0167642
776.968	0.0168118
777.046	0.0167722
777.124	0.0167572
777.202	0.0167400
777.280	0.0168667
777.358	0.0168512
777.436	0.0167078
777.515	0.0168110
777.593	0.0167455
777.671	0.0168642
777.749	0.0168172
777.827	0.0167778
777.905	0.0167452
777.983	0.0169679
778.061	0.0167697
778.140	0.0168658
778.218	0.0169349
778.296	0.0170338
778.374	0.0168749
778.452	0.0169446
778.530	0.0169767
778.608	0.0168858
778.686	0.0169358
778.765	0.0169825
778.843	0.0169179
778.921	0.0168947
778.999	0.0169515
779.077	0.0169570
779.155	0.0169389
779.233	0.0168882
779.311	0.0168888
779.390	0.0171221
779.468	0.0168768
779.546	0.0169032
779.624	0.0168473
779.702	0.0169249
779.780	0.0170771
779.858	0.0170000
779.936	0.0169562
780.015	0.0170514
780.093	0.0168838
780.171	0.0168224
780.249	0.0169720
780.327	0.0168326
780.405	0.0167887
780.483	0.0170306
780.561	0.0169090
780.640	0.0168999
780.718	0.0169130
780.796	0.0169434
780.874	0.0167660
780.952	0.0167970
781.030	0.0169253
781.108	0.0169366
781.186	0.0167757
781.265	0.0169509
781.343	0.0169572
781.421	0.0169776
781.499	0.0169067
781.577	0.0168884
781.655	0.0168613
781.733	0.0170466
781.811	0.0169888
781.890	0.0168802
781.968	0.0169505
782.046	0.0168241
782.124	0.0168533
782.202	0.0168980
782.280	0.0169454
782.358	0.0168978
782.436	0.0168819
782.515	0.0169283
782.593	0.0168903
782.671	0.0167216
782.749	0.0167023
782.827	0.0167948
782.905	0.0169034
782.983	0.0168532
783.061	0.0168123
783.140	0.0168005
783.218	0.0166505
783.296	0.0167982
783.374	0.0167904
783.452	0.0167578
783.530	0.0167383
783.608	0.0166901
783.686	0.0166853
783.765	0.0166688
783.843	0.0165688
783.921	0.0167048
783.999	0.0166942
784.077	0.0167262
784.155	0.0166232
784.233	0.0166975
784.311	0.0165564
784.390	0.0168067
784.468	0.0166972
784.546	0.0166374
784.624	0.0166200
784.702	0.0166700
784.780	0.0166277
784.858	0.0167770
784.936	0.0167071
785.015	0.0166274
785.093	0.0166338
785.171	0.0166590
785.249	0.0167487
785.327	0.0168504
785.405	0.0167635
785.483	0.0167144
785.561	0.0166510
785.640	0.0167271
785.718	0.0167736
785.796	0.0168153
785.874	0.0166594
785.952	0.0166564
786.030	0.0167292
786.108	0.0167947
786.186	0.0167738
786.265	0.0167046
786.343	0.0169003
786.421	0.0168382
786.499	0.0167943
786.577	0.0168961
786.655	0.0169072
786.733	0.0169346
786.811	0.0167935
786.890	0.0168496
786.968	0.0168084
787.046	0.0167092
787.124	0.0168166
787.202	0.0168742
787.280	0.0168765
787.358	0.0169446
787.436	0.0170387
787.515	0.0168506
787.593	0.0169997
787.671	0.0169287
787.749	0.0168828
787.827	0.0170603
787.905	0.0170648
787.983	0.0169066
788.061	0.0169107
788.140	0.0169661
788.218	0.0170179
788.296	0.0168545
788.374	0.0168783
788.452	0.0168819
788.530	0.0169447
788.608	0.0167935
788.686	0.0169331
788.765	0.0169523
788.843	0.0168316
788.921	0.0168639
788.999	0.0168285
789.077	0.0168898
789.155	0.0169076
789.233	0.0168604
789.311	0.0168214
789.390	0.0169000
789.468	0.0169759
789.546	0.0169305
789.624	0.0169798
789.702	0.0169866
789.780	0.0168968
789.858	0.0170729
789.936	0.0170196
790.015	0.0169130
790.093	0.0169540
790.171	0.0170741
790.249	0.0168791
790.327	0.0168974
790.405	0.0169718
790.483	0.0169111
790.561	0.0168528
790.640	0.0168848
790.718	0.0169447
790.796	0.0170511
790.874	0.0169190
790.952	0.0168917
791.030	0.0169121
791.108	0.0168256
791.186	0.0167834
791.265	0.0167078
791.343	0.0167847
791.421	0.0167466
791.499	0.0167355
791.577	0.0169670
791.655	0.0168282
791.733	0.0167104
791.811	0.0166209
791.890	0.0166332
791.968	0.0165969
792.046	0.0166636
792.124	0.0166354
792.202	0.0167535
792.280	0.0166946
792.358	0.0167537
792.436	0.0165499
792.515	0.0166574
792.593	0.0166728
792.671	0.0165295
792.749	0.0167487
792.827	0.0168388
792.905	0.0166780
792.983	0.0167534
793.061	0.0166707
793.140	0.0167899
793.218	0.0166810
793.296	0.0167533
793.374	0.0166689
793.452	0.0167252
793.530	0.0167672
793.608	0.0168127
793.686	0.0167113
793.765	0.0166518
793.843	0.0166386
793.921	0.0168167
793.999	0.0167266
794.077	0.0165865
794.155	0.0167278
794.233	0.0167243
794.311	0.0167736
794.390	0.0167706
794.468	0.0166664
794.546	0.0166097
794.624	0.0167752
794.702	0.0168931
794.780	0.0168686
794.858	0.0169379
794.936	0.0168378
795.015	0.0168603
795.093	0.0169321
795.171	0.0169695
795.249	0.0169100
795.327	0.0167863
795.405	0.0168742
795.483	0.0168958
795.561	0.0168985
795.640	0.0169784
795.718	0.0168143
795.796	0.0168173
795.874	0.0168126
795.952	0.0168388
796.030	0.0167899
796.108	0.0166445
796.186	0.0166980
796.265	0.0166982
796.343	0.0167823
796.421	0.0166795
796.499	0.0165828
796.577	0.0166612
796.655	0.0166061
796.733	0.0164993
796.811	0.0165985
796.890	0.0164881
796.968	0.0165956
797.046	0.0167018
797.124	0.0166126
797.202	0.0165813
797.280	0.0166625
797.358	0.0167107
797.436	0.0167327
797.515	0.0165937
797.593	0.0168299
797.671	0.0166782
797.749	0.0167238
797.827	0.0166896
797.905	0.0168069
797.983	0.0167886
798.061	0.0167223
798.140	0.0167673
798.218	0.0166441
798.296	0.0167987
798.374	0.0167976
798.452	0.0169144
798.530	0.0167815
798.608	0.0167362
798.686	0.0168056
798.765	0.0166232
798.843	0.0167072
798.921	0.0168586
798.999	0.0167481
799.077	0.0168282
799.155	0.0167393
799.233	0.0166740
799.311	0.0167908
799.390	0.0167086
799.468	0.0167886
799.546	0.0168191
799.624	0.0167971
799.702	0.0168028
799.780	0.0167807
799.858	0.0167612
799.936	0.0167148
800.015	0.0168372
800.093	0.0168835
800.171	0.0167529
800.249	0.0167539
800.327	0.0167934
800.405	0.0169508
800.483	0.0168787
800.561	0.0168829
800.640	0.0169409
800.718	0.0167802
800.796	0.0169377
800.874	0.0169295
800.952	0.0169740
801.030	0.0169167
801.108	0.0170361
801.186	0.0169691
801.265	0.0169338
801.343	0.0168161
801.421	0.0168509
801.499	0.0169706
801.577	0.0169682
801.655	0.0168714
801.733	0.0170347
801.811	0.0168571
801.890	0.0169251
801.968	0.0169312
802.046	0.0169315
802.124	0.0168094
802.202	0.0166923
802.280	0.0168040
802.358	0.0167498
802.436	0.0167192
802.515	0.0168176
802.593	0.0168040
802.671	0.0166470
802.749	0.0169128
802.827	0.0168398
802.905	0.0167105
802.983	0.0169028
803.061	0.0168054
803.140	0.0168474
803.218	0.0168127
803.296	0.0169653
803.374	0.0169827
803.452	0.0168557
803.530	0.0168006
803.608	0.0169976
803.686	0.0169873
803.765	0.0168703
803.843	0.0167500
803.921	0.0166777
803.999	0.0167994
804.077	0.0169486
804.155	0.0167230
804.233	0.0166624
804.311	0.0168809
804.390	0.0167904
804.468	0.0167811
804.546	0.0167687
804.624	0.0167553
804.702	0.0167306
804.780	0.0166553
804.858	0.0167171
804.936	0.0167871
805.015	0.0168228
805.093	0.0167616
805.171	0.0168716
805.249	0.0169599
805.327	0.0167518
805.405	0.0167313
805.483	0.0167588
805.561	0.0168436
805.640	0.0169138
805.718	0.0168881
805.796	0.0169317
805.874	0.0169886
805.952	0.0169825
806.030	0.0168872
806.108	0.0169884
806.186	0.0169732
806.265	0.0168951
806.343	0.0170485
806.421	0.0170209
806.499	0.0168987
806.577	0.0169339
806.655	0.0169422
806.733	0.0170867
806.811	0.0169823
806.890	0.0169098
806.968	0.0170229
807.046	0.0169682
807.124	0.0169314
807.202	0.0170318
807.280	0.0169643
807.358	0.0169240
807.436	0.0168789
807.515	0.0168776
807.593	0.0168196
807.671	0.0168697
807.749	0.0169102
807.827	0.0169691
807.905	0.0168751
807.983	0.0169678
808.061	0.0170045
808.140	0.0167670
808.218	0.0169588
808.296	0.0168892
808.374	0.0169085
808.452	0.0168396
808.530	0.0168190
808.608	0.0168082
808.686	0.0167955
808.765	0.0167603
808.843	0.0168210
808.921	0.0168324
808.999	0.0168300
809.077	0.0167726
809.155	0.0167991
809.233	0.0167522
809.311	0.0168652
809.390	0.0168290
809.468	0.0168051
809.546	0.0168524
809.624	0.0167262
809.702	0.0167085
809.780	0.0166425
809.858	0.0167521
809.936	0.0167636
810.015	0.0167242
810.093	0.0168548
810.171	0.0167617
810.249	0.0167989
810.327	0.0166149
810.405	0.0166602
810.483	0.0166830
810.561	0.0166495
810.640	0.0167339
810.718	0.0166402
810.796	0.0167315
810.874	0.0167764
810.952	0.0165639
811.030	0.0164807
811.108	0.0166003
811.186	0.0166072
811.265	0.0165280
811.343	0.0164124
811.421	0.0166870
811.499	0.0165810
811.577	0.0165240
811.655	0.0166129
811.733	0.0166045
811.811	0.0165741
811.890	0.0166335
811.968	0.0165685
812.046	0.0166608
812.124	0.0165726
812.202	0.0165843
812.280	0.0165639
812.358	0.0166662
812.436	0.0167072
812.515	0.0167606
812.593	0.0165048
812.671	0.0167538
812.749	0.0167483
812.827	0.0166300
812.905	0.0168201
812.983	0.0167253
813.061	0.0167676
813.140	0.0166403
813.218	0.0166501
813.296	0.0166724
813.374	0.0168007
813.452	0.0168398
813.530	0.0167953
813.608	0.0166553
813.686	0.0168118
813.765	0.0167937
813.843	0.0169090
813.921	0.0167441
813.999	0.0168385
814.077	0.0168068
814.155	0.0167146
814.233	0.0168371
814.311	0.0168157
814.390	0.0168401
814.468	0.0168902
814.546	0.0168416
814.624	0.0168105
814.702	0.0167245
814.780	0.0168548
814.858	0.0167680
814.936	0.0166950
815.015	0.0168250
815.093	0.0167634
815.171	0.0167970
815.249	0.0168452
815.327	0.0168028
815.405	0.0168906
815.483	0.0168659
815.561	0.0169238
815.640	0.0168999
815.718	0.0168188
815.796	0.0168897
815.874	0.0169706
815.952	0.0169382
816.030	0.0168932
816.108	0.0167329
816.186	0.0167484
816.265	0.0167986
816.343	0.0168334
816.421	0.0168615
816.499	0.0169479
816.577	0.0166841
816.655	0.0167903
816.733	0.0167326
816.811	0.0166264
816.890	0.0167044
816.968	0.0168046
817.046	0.0168135
817.124	0.0167319
817.202	0.0168091
817.280	0.0168909
817.358	0.0167984
817.436	0.0169405
817.515	0.0170158
817.593	0.0167514
817.671	0.0169550
817.749	0.0168096
817.827	0.0170177
817.905	0.0169817
817.983	0.0168840
818.061	0.0169804
818.140	0.0169060
818.218	0.0168938
818.296	0.0170667
818.374	0.0170155
818.452	0.0170679
818.530	0.0169041
818.608	0.0171037
818.686	0.0168964
818.765	0.0169066
818.843	0.0169139
818.921	0.0169444
818.999	0.0167946
819.077	0.0167716
819.155	0.0168919
819.233	0.0167596
819.311	0.0168130
819.390	0.0168337
819.468	0.0168810
819.546	0.0170120
819.624	0.0168793
819.702	0.0167233
819.780	0.0169109
819.858	0.0167719
819.936	0.0167922
820.015	0.0169301
820.093	0.0169064
820.171	0.0167501
820.249	0.0169076
820.327	0.0167408
820.405	0.0166399
820.483	0.0167295
820.561	0.0168446
820.640	0.0169041
820.718	0.0169369
820.796	0.0168812
820.874	0.0167172
820.952	0.0167651
821.030	0.0168500
821.108	0.0166306
821.186	0.0167197
821.265	0.0168716
821.343	0.0167538
821.421	0.0167152
821.499	0.0167255
821.577	0.0167632
821.655	0.0167349
821.733	0.0169614
821.811	0.0168248
821.890	0.0167776
821.968	0.0168513
822.046	0.0168030
822.124	0.0169096
822.202	0.0168991
822.280	0.0169508
822.358	0.0168495
822.436	0.0169367
822.515	0.0168221
822.593	0.0169600
822.671	0.0169714
822.749	0.0168566
822.827	0.0169354
822.905	0.0170049
822.983	0.0169669
823.061	0.0170455
823.140	0.0169387
823.218	0.0169508
823.296	0.0170670
823.374	0.0171484
823.452	0.0169584
823.530	0.0168690
823.608	0.0167800
823.686	0.0169371
823.765	0.0169050
823.843	0.0168041
823.921	0.0168421
823.999	0.0168031
824.077	0.0167633
824.155	0.0168126
824.233	0.0167077
824.311	0.0167635
824.390	0.0167461
824.468	0.0169656
824.546	0.0169186
824.624	0.0168389
824.702	0.0168661
824.780	0.0167923
824.858	0.0168965
824.936	0.0169138
825.015	0.0168295
825.093	0.0168921
825.171	0.0168829
825.249	0.0167776
825.327	0.0167333
825.405	0.0167249
825.483	0.0166931
825.561	0.0167131
825.640	0.0167257
825.718	0.0168484
825.796	0.0167713
825.874	0.0168293
825.952	0.0166375
826.030	0.0167790
826.108	0.0168319
826.186	0.0167133
826.265	0.0167985
826.343	0.0168399
826.421	0.0169661
826.499	0.0168686
826.577	0.0168837
826.655	0.0170261
826.733	0.0172173
826.811	0.0170631
826.890	0.0169783
826.968	0.0171246
827.046	0.0171595
827.124	0.0172633
827.202	0.0170949
827.280	0.0172883
827.358	0.0171521
827.436	0.0171813
827.515	0.0171400
827.593	0.0170803
827.671	0.0170785
827.749	0.0172338
827.827	0.0171551
827.905	0.0171111
827.983	0.0170453
828.061	0.0170439
828.140	0.0169695
828.218	0.0170981
828.296	0.0170890
828.374	0.0169584
828.452	0.0169711
828.530	0.0167444
828.608	0.0170494
828.686	0.0169344
828.765	0.0168705
828.843	0.0169685
828.921	0.0168694
828.999	0.0168140
829.077	0.0168147
829.155	0.0168316
829.233	0.0169382
829.311	0.0168639
829.390	0.0168763
829.468	0.0168336
829.546	0.0169737
829.624	0.0168832
829.702	0.0170097
829.780	0.0167742
829.858	0.0167742
829.936	0.0168775
830.015	0.0169122
830.093	0.0168650
830.171	0.0169244
830.249	0.0169400
830.327	0.0168024
830.405	0.0167467
830.483	0.0171368
830.561	0.0170788
830.640	0.0169917
830.718	0.0169730
830.796	0.0169176
830.874	0.0169868
830.952	0.0168301
831.030	0.0170609
831.108	0.0168113
831.186	0.0168546
831.265	0.0168465
831.343	0.0168684
831.421	0.0168124
831.499	0.0168537
831.577	0.0167943
831.655	0.0167632
831.733	0.0168645
831.811	0.0168498
831.890	0.0168918
831.968	0.0167759
832.046	0.0169257
832.124	0.0169313
832.202	0.0168815
832.280	0.0167742
832.358	0.0169054
832.436	0.0167756
832.515	0.0167072
832.593	0.0167181
832.671	0.0167389
832.749	0.0166841
832.827	0.0166650
832.905	0.0167009
832.983	0.0166827
833.061	0.0165689
833.140	0.0166432
833.218	0.0166278
833.296	0.0167750
833.374	0.0167048
833.452	0.0166943
833.530	0.0166940
833.608	0.0165220
833.686	0.0166004
833.765	0.0166778
833.843	0.0166795
833.921	0.0166593
833.999	0.0166923
834.077	0.0167126
834.155	0.0167625
834.233	0.0167966
834.311	0.0167715
834.390	0.0166532
834.468	0.0168165
834.546	0.0168863
834.624	0.0167660
834.702	0.0167958
834.780	0.0168458
834.858	0.0168736
834.936	0.0167922
835.015	0.0169684
835.093	0.0169236
835.171	0.0168604
835.249	0.0168816
835.327	0.0168468
835.405	0.0168051
835.483	0.0168533
835.561	0.0167702
835.640	0.0168731
835.718	0.0167431
835.796	0.0168387
835.874	0.0167794
835.952	0.0167396
836.030	0.0165791
836.108	0.0166647
836.186	0.0165943
836.265	0.0166196
836.343	0.0164809
836.421	0.0165731
836.499	0.0163887
836.577	0.0164272
836.655	0.0165522
836.733	0.0165443
836.811	0.0165667
836.890	0.0165726
836.968	0.0166658
837.046	0.0165854
837.124	0.0166031
837.202	0.0166971
837.280	0.0165071
837.358	0.0167674
837.436	0.0168843
837.515	0.0168128
837.593	0.0168891
837.671	0.0169679
837.749	0.0169877
837.827	0.0169497
837.905	0.0169180
837.983	0.0169502
838.061	0.0169398
838.140	0.0168123
838.218	0.0168774
838.296	0.0171094
838.374	0.0169594
838.452	0.0168855
838.530	0.0168829
838.608	0.0167923
838.686	0.0167321
838.765	0.0168072
838.843	0.0169789
838.921	0.0168789
838.999	0.0168140
839.077	0.0169106
839.155	0.0168195
839.233	0.0168649
839.311	0.0169057
839.390	0.0169999
839.468	0.0169322
839.546	0.0169965
839.624	0.0172045
839.702	0.0169941
839.780	0.0172089
839.858	0.0170775
839.936	0.0170823
840.015	0.0170747
840.093	0.0170178
840.171	0.0170959
840.249	0.0170000
840.327	0.0169604
840.405	0.0168682
840.483	0.0169363
840.561	0.0169521
840.640	0.0168659
840.718	0.0168981
840.796	0.0169026
840.874	0.0167255
840.952	0.0167867
841.030	0.0169321
841.108	0.0168887
841.186	0.0167801
841.265	0.0167980
841.343	0.0168579
841.421	0.0168019
841.499	0.0166370
841.577	0.0168198
841.655	0.0168122
841.733	0.0168204
841.811	0.0167329
841.890	0.0167335
841.968	0.0167041
842.046	0.0167414
842.124	0.0167744
842.202	0.0168528
842.280	0.0168304
842.358	0.0168143
842.436	0.0168124
842.515	0.0167033
842.593	0.0167180
842.671	0.0166918
842.749	0.0166330
842.827	0.0166852
842.905	0.0166663
842.983	0.0166839
843.061	0.0165559
843.140	0.0165034
843.218	0.0165267
843.296	0.0165986
843.374	0.0166225
843.452	0.0166920
843.530	0.0166042
843.608	0.0165932
843.686	0.0168367
843.765	0.0166177
843.843	0.0166967
843.921	0.0167213
843.999	0.0168171
844.077	0.0168465
844.155	0.0167562
844.233	0.0168637
844.311	0.0169554
844.390	0.0167245
844.468	0.0168150
844.546	0.0169108
844.624	0.0169312
844.702	0.0169753
844.780	0.0167960
844.858	0.0169503
844.936	0.0169676
845.015	0.0169363
845.093	0.0168729
845.171	0.0168019
845.249	0.0168452
845.327	0.0168835
845.405	0.0169131
845.483	0.0167415
845.561	0.0168391
845.640	0.0169360
845.718	0.0169134
845.796	0.0167924
845.874	0.0167870
845.952	0.0167590
846.030	0.0167424
846.108	0.0167343
846.186	0.0168975
846.265	0.0169204
846.343	0.0167905
846.421	0.0168277
846.499	0.0169247
846.577	0.0168536
846.655	0.0168772
846.733	0.0168906
846.811	0.0168064
846.890	0.0168050
846.968	0.0169689
847.046	0.0168537
847.124	0.0169475
847.202	0.0169132
847.280	0.0169578
847.358	0.0169019
847.436	0.0168683
847.515	0.0169379
847.593	0.0170522
847.671	0.0169682
847.749	0.0169067
847.827	0.0167353
847.905	0.0169180
847.983	0.0169874
848.061	0.0169646
848.140	0.0169307
848.218	0.0169930
848.296	0.0169097
848.374	0.0168827
848.452	0.0169853
848.530	0.0170619
848.608	0.0169996
848.686	0.0169572
848.765	0.0169591
848.843	0.0169891
848.921	0.0171751
848.999	0.0170956
849.077	0.0170263
849.155	0.0168543
849.233	0.0169283
849.311	0.0169311
849.390	0.0169467
849.468	0.0169862
849.546	0.0168926
849.624	0.0169620
849.702	0.0168893
849.780	0.0168996
849.858	0.0168305
849.936	0.0169128
850.015	0.0168729
850.093	0.0168626
850.171	0.0168473
850.249	0.0168358
850.327	0.0168310
850.405	0.0169529
850.483	0.0169267
850.561	0.0168239
850.640	0.0166656
850.718	0.0168059
850.796	0.0168936
850.874	0.0166827
850.952	0.0167963
851.030	0.0168726
851.108	0.0168322
851.186	0.0168552
851.265	0.0167290
851.343	0.0167672
851.421	0.0167139
851.499	0.0166873
851.577	0.0167941
851.655	0.0167942
851.733	0.0168174
851.811	0.0168328
851.890	0.0167390
851.968	0.0168318
852.046	0.0168478
852.124	0.0167442
852.202	0.0168192
852.280	0.0169180
852.358	0.0168471
852.436	0.0169868
852.515	0.0167574
852.593	0.0167813
852.671	0.0169563
852.749	0.0168675
852.827	0.0167922
852.905	0.0169343
852.983	0.0169556
853.061	0.0169325
853.140	0.0170538
853.218	0.0170029
853.296	0.0169427
853.374	0.0169740
853.452	0.0170698
853.530	0.0169255
853.608	0.0170238
853.686	0.0169309
853.765	0.0169396
853.843	0.0169814
853.921	0.0169416
853.999	0.0167981
854.077	0.0168745
854.155	0.0169164
854.233	0.0167955
854.311	0.0166600
854.390	0.0167419
854.468	0.0169949
854.546	0.0168100
854.624	0.0168044
854.702	0.0165908
854.780	0.0165250
854.858	0.0167083
854.936	0.0165989
855.015	0.0166796
855.093	0.0166756
855.171	0.0167952
855.249	0.0166833
855.327	0.0166936
855.405	0.0167374
855.483	0.0165852
855.561	0.0166399
855.640	0.0167035
855.718	0.0167861
855.796	0.0165536
855.874	0.0167058
855.952	0.0167146
856.030	0.0167988
856.108	0.0167260
856.186	0.0168092
856.265	0.0166673
856.343	0.0167297
856.421	0.0167111
856.499	0.0166111
856.577	0.0168211
856.655	0.0167377
856.733	0.0167191
856.811	0.0166683
856.890	0.0167546
856.968	0.0168350
857.046	0.0167944
857.124	0.0167217
857.202	0.0167077
857.280	0.0166497
857.358	0.0167279
857.436	0.0167253
857.515	0.0167233
857.593	0.0167203
857.671	0.0167012
857.749	0.0167059
857.827	0.0166862
857.905	0.0168389
857.983	0.0167347
858.061	0.0166974
858.140	0.0167881
858.218	0.0168184
858.296	0.0167881
858.374	0.0168259
858.452	0.0164862
858.530	0.0166346
858.608	0.0168279
858.686	0.0167291
858.765	0.0166013
858.843	0.0167058
858.921	0.0167297
858.999	0.0166931
859.077	0.0166503
859.155	0.0166118
859.233	0.0167320
859.311	0.0167636
859.390	0.0167077
859.468	0.0165710
859.546	0.0165746
859.624	0.0166640
859.702	0.0165582
859.780	0.0165189
859.858	0.0166254
859.936	0.0165229
860.015	0.0165757
860.093	0.0166504
860.171	0.0166545
860.249	0.0166927
860.327	0.0167282
860.405	0.0165624
860.483	0.0164742
860.561	0.0167168
860.640	0.0166864
860.718	0.0166284
860.796	0.0166844
860.874	0.0167006
860.952	0.0168013
861.030	0.0167165
861.108	0.0166605
861.186	0.0166000
861.265	0.0165586
861.343	0.0167937
861.421	0.0167116
861.499	0.0167691
861.577	0.0167731
861.655	0.0167488
861.733	0.0167725
861.811	0.0166527
861.890	0.0166670
861.968	0.0166550
862.046	0.0168066
862.124	0.0167705
862.202	0.0166516
862.280	0.0165625
862.358	0.0167101
862.436	0.0166704
862.515	0.0166924
862.593	0.0166999
862.671	0.0167237
862.749	0.0168248
862.827	0.0167861
862.905	0.0165907
862.983	0.0168103
863.061	0.0168221
863.140	0.0168951
863.218	0.0167442
863.296	0.0167633
863.374	0.0167760
863.452	0.0168926
863.530	0.0167832
863.608	0.0168481
863.686	0.0169943
863.765	0.0168938
863.843	0.0168089
863.921	0.0169983
863.999	0.0168433
864.077	0.0167960
864.155	0.0168277
864.233	0.0167840
864.311	0.0169335
864.390	0.0168371
864.468	0.0168381
864.546	0.0168796
864.624	0.0168577
864.702	0.0168858
864.780	0.0168311
864.858	0.0168007
864.936	0.0168581
865.015	0.0169969
865.093	0.0169247
865.171	0.0168832
865.249	0.0168151
865.327	0.0167870
865.405	0.0168864
865.483	0.0168864
865.561	0.0167505
865.640	0.0168644
865.718	0.0168202
865.796	0.0168060
865.874	0.0168735
865.952	0.0167986
866.030	0.0167681
866.108	0.0167629
866.186	0.0166968
866.265	0.0167943
866.343	0.0166742
866.421	0.0167030
866.499	0.0166705
866.577	0.0166640
866.655	0.0167188
866.733	0.0166628
866.811	0.0165643
866.890	0.0166394
866.968	0.0167390
867.046	0.0166682
867.124	0.0165649
867.202	0.0165038
867.280	0.0165934
867.358	0.0165895
867.436	0.0165943
867.515	0.0163969
867.593	0.0166348
867.671	0.0166252
867.749	0.0166373
867.827	0.0167094
867.905	0.0168138
867.983	0.0168688
868.061	0.0168182
868.140	0.0167371
868.218	0.0167896
868.296	0.0169011
868.374	0.0168214
868.452	0.0170300
868.530	0.0168769
868.608	0.0167669
868.686	0.0169131
868.765	0.0169894
868.843	0.0168407
868.921	0.0168580
868.999	0.0170647
869.077	0.0169752
869.155	0.0169268
869.233	0.0167084
869.311	0.0168669
869.390	0.0169125
869.468	0.0166972
869.546	0.0166388
869.624	0.0167418
869.702	0.0166706
869.780	0.0167278
869.858	0.0167033
869.936	0.0167782
870.015	0.0166602
870.093	0.0166249
870.171	0.0168208
870.249	0.0168030
870.327	0.0167772
870.405	0.0167248
870.483	0.0166365
870.561	0.0167349
870.640	0.0167545
870.718	0.0168649
870.796	0.0167876
870.874	0.0167236
870.952	0.0167792
871.030	0.0167996
871.108	0.0168356
871.186	0.0166872
871.265	0.0168133
871.343	0.0167056
871.421	0.0167746
871.499	0.0167303
871.577	0.0166424
871.655	0.0169635
871.733	0.0168990
871.811	0.0167442
871.890	0.0169006
871.968	0.0168568
872.046	0.0168665
872.124	0.0167366
872.202	0.0168890
872.280	0.0169571
872.358	0.0168504
872.436	0.0167216
872.515	0.0168830
872.593	0.0169139
872.671	0.0169608
872.749	0.0167996
872.827	0.0168296
872.905	0.0168302
872.983	0.0168252
873.061	0.0167163
873.140	0.0168888
873.218	0.0167198
873.296	0.0167781
873.374	0.0168175
873.452	0.0166724
873.530	0.0167386
873.608	0.0168161
873.686	0.0166874
873.765	0.0167599
873.843	0.0167221
873.921	0.0168108
873.999	0.0168582
874.077	0.0166664
874.155	0.0166144
874.233	0.0166142
874.311	0.0167973
874.390	0.0167850
874.468	0.0166663
874.546	0.0168309
874.624	0.0168150
874.702	0.0166937
874.780	0.0167855
874.858	0.0167299
874.936	0.0167923
875.015	0.0169411
875.093	0.0169026
875.171	0.0167239
875.249	0.0168818
875.327	0.0167567
875.405	0.0168403
875.483	0.0168562
875.561	0.0167938
875.640	0.0168626
875.718	0.0168468
875.796	0.0167970
875.874	0.0167152
875.952	0.0168528
876.030	0.0168885
876.108	0.0168359
876.186	0.0167386
876.265	0.0167168
876.343	0.0167555
876.421	0.0168189
876.499	0.0167588
876.577	0.0167517
876.655	0.0167867
876.733	0.0166649
876.811	0.0166897
876.890	0.0166763
876.968	0.0166788
877.046	0.0166731
877.124	0.0168056
877.202	0.0167825
877.280	0.0166287
877.358	0.0167434
877.436	0.0167656
877.515	0.0165675
877.593	0.0167419
877.671	0.0168473
877.749	0.0167248
877.827	0.0165552
877.905	0.0167271
877.983	0.0167997
878.061	0.0166405
878.140	0.0166911
878.218	0.0166958
878.296	0.0165545
878.374	0.0166985
878.452	0.0167400
878.530	0.0167828
878.608	0.0166553
878.686	0.0167300
878.765	0.0168360
878.843	0.0167432
878.921	0.0166661
878.999	0.0166026
879.077	0.0167119
879.155	0.0167258
879.233	0.0167692
879.311	0.0168030
879.390	0.0166975
879.468	0.0168120
879.546	0.0166274
879.624	0.0166801
879.702	0.0167077
879.780	0.0166964
879.858	0.0166232
879.936	0.0166444
880.015	0.0167979
880.093	0.0167483
880.171	0.0167604
880.249	0.0167413
880.327	0.0166299
880.405	0.0166817
880.483	0.0167301
880.561	0.0166195
880.640	0.0166985
880.718	0.0166698
880.796	0.0168196
880.874	0.0167121
880.952	0.0164882
881.030	0.0167483
881.108	0.0165906
881.186	0.0166072
881.265	0.0168336
881.343	0.0166628
881.421	0.0166885
881.499	0.0167741
881.577	0.0167200
881.655	0.0166896
881.733	0.0166623
881.811	0.0166190
881.890	0.0167738
881.968	0.0166076
882.046	0.0166526
882.124	0.0167830
882.202	0.0167648
882.280	0.0168006
882.358	0.0168414
882.436	0.0166974
882.515	0.0167823
882.593	0.0167471
882.671	0.0169166
882.749	0.0168858
882.827	0.0169337
882.905	0.0167899
882.983	0.0168884
883.061	0.0167970
883.140	0.0168859
883.218	0.0168505
883.296	0.0168640
883.374	0.0169152
883.452	0.0168278
883.530	0.0169524
883.608	0.0170325
883.686	0.0170399
883.765	0.0168623
883.843	0.0169631
883.921	0.0169976
883.999	0.0170151
884.077	0.0168934
884.155	0.0169389
884.233	0.0171765
884.311	0.0171097
884.390	0.0169386
884.468	0.0169640
884.546	0.0169841
884.624	0.0169022
884.702	0.0169266
884.780	0.0168948
884.858	0.0168198
884.936	0.0168710
885.015	0.0170544
885.093	0.0169123
885.171	0.0169193
885.249	0.0168313
885.327	0.0168718
885.405	0.0169705
885.483	0.0167961
885.561	0.0168909
885.640	0.0169266
885.718	0.0169054
885.796	0.0169205
885.874	0.0169560
885.952	0.0167682
886.030	0.0168579
886.108	0.0166822
886.186	0.0167978
886.265	0.0167853
886.343	0.0167041
886.421	0.0168019
886.499	0.0167539
886.577	0.0167915
886.655	0.0167813
886.733	0.0167081
886.811	0.0168212
886.890	0.0167773
886.968	0.0167454
887.046	0.0167939
887.124	0.0167786
887.202	0.0167754
887.280	0.0168845
887.358	0.0167721
887.436	0.0166856
887.515	0.0167813
887.593	0.0169158
887.671	0.0168748
887.749	0.0168520
887.827	0.0168929
887.905	0.0169189
887.983	0.0167815
888.061	0.0169012
888.140	0.0169720
888.218	0.0168509
888.296	0.0167303
888.374	0.0169546
888.452	0.0168599
888.530	0.0167827
888.608	0.0168147
888.686	0.0167371
888.765	0.0167900
888.843	0.0168217
888.921	0.0168500
888.999	0.0168818
889.077	0.0167657
889.155	0.0168208
889.233	0.0168523
889.311	0.0167657
889.390	0.0168320
889.468	0.0167564
889.546	0.0168295
889.624	0.0168492
889.702	0.0169397
889.780	0.0168941
889.858	0.0168459
889.936	0.0169522
890.015	0.0167611
890.093	0.0169871
890.171	0.0169559
890.249	0.0168802
890.327	0.0168844
890.405	0.0169086
890.483	0.0168705
890.561	0.0169619
890.640	0.0168651
890.718	0.0169521
890.796	0.0170966
890.874	0.0169184
890.952	0.0170785
891.030	0.0170420
891.108	0.0170120
891.186	0.0169522
891.265	0.0171069
891.343	0.0172221
891.421	0.0170264
891.499	0.0170218
891.577	0.0171768
891.655	0.0171747
891.733	0.0171382
891.811	0.0172169
891.890	0.0172669
891.968	0.0172074
892.046	0.0172479
892.124	0.0172034
892.202	0.0170045
892.280	0.0172072
892.358	0.0170545
892.436	0.0169951
892.515	0.0170337
892.593	0.0168603
892.671	0.0169918
892.749	0.0170015
892.827	0.0170219
892.905	0.0167648
892.983	0.0169522
893.061	0.0168941
893.140	0.0167573
893.218	0.0167872
893.296	0.0168614
893.374	0.0168797
893.452	0.0167975
893.530	0.0168672
893.608	0.0169063
893.686	0.0169313
893.765	0.0168549
893.843	0.0167809
893.921	0.0169088
893.999	0.0167849
894.077	0.0168366
894.155	0.0168488
894.233	0.0168664
894.311	0.0168951
894.390	0.0168784
894.468	0.0167718
894.546	0.0168729
894.624	0.0167424
894.702	0.0167104
894.780	0.0166681
894.858	0.0168507
894.936	0.0166549
895.015	0.0168125
895.093	0.0167075
895.171	0.0167407
895.249	0.0166683
895.327	0.0165981
895.405	0.0167538
895.483	0.0165680
895.561	0.0168346
895.640	0.0166980
895.718	0.0168748
895.796	0.0168410
895.874	0.0168514
895.952	0.0167861
896.030	0.0169819
896.108	0.0168452
896.186	0.0168819
896.265	0.0168243
896.343	0.0169188
896.421	0.0169643
896.499	0.0170160
896.577	0.0168368
896.655	0.0168832
896.733	0.0168522
896.811	0.0168378
896.890	0.0169269
896.968	0.0169977
897.046	0.0169273
897.124	0.0168267
897.202	0.0168779
897.280	0.0171075
897.358	0.0168835
897.436	0.0168053
897.515	0.0169959
897.593	0.0169374
897.671	0.0169829
897.749	0.0168436
897.827	0.0169800
897.905	0.0170458
897.983	0.0171023
898.061	0.0168719
898.140	0.0170890
898.218	0.0170454
898.296	0.0170480
898.374	0.0169591
898.452	0.0168484
898.530	0.0168185
898.608	0.0167323
898.686	0.0169289
898.765	0.0167658
898.843	0.0166940
898.921	0.0167959
898.999	0.0168073
899.077	0.0168071
899.155	0.0168846
899.233	0.0168696
899.311	0.0168192
899.390	0.0166751
899.468	0.0168433
899.546	0.0169212
899.624	0.0168914
899.702	0.0168438
899.780	0.0168970
899.858	0.0168147
899.936	0.0167102
