05/24/2022	20:06:38	Ver.	4.1	UNKNOWN
Optical Delay	599.988409	Delta X		0.078125	Sweeps	1	Scan Rate	0/0
Coordinates	Axis 1	NaN	Axis 2	NaN	Axis 3	NaN	Axis 4	NaN	Axis 5	NaN	Axis 6	0.000000
TX Power	0.000000	RX Power	0.000000

599.988	0.0170216
600.067	0.0170018
600.145	0.0170356
600.223	0.0169678
600.301	0.0169581
600.379	0.0169350
600.457	0.0169924
600.535	0.0169647
600.613	0.0170363
600.692	0.0170460
600.770	0.0170428
600.848	0.0170521
600.926	0.0171595
601.004	0.0168888
601.082	0.0170042
601.160	0.0170433
601.238	0.0169988
601.317	0.0170114
601.395	0.0170563
601.473	0.0172176
601.551	0.0170564
601.629	0.0168725
601.707	0.0170360
601.785	0.0170138
601.863	0.0168542
601.942	0.0169943
602.020	0.0171340
602.098	0.0169820
602.176	0.0170396
602.254	0.0170431
602.332	0.0170158
602.410	0.0170254
602.488	0.0169637
602.567	0.0170353
602.645	0.0169458
602.723	0.0170361
602.801	0.0170435
602.879	0.0169994
602.957	0.0170281
603.035	0.0170281
603.113	0.0169373
603.192	0.0169379
603.270	0.0169748
603.348	0.0169777
603.426	0.0170974
603.504	0.0170873
603.582	0.0170672
603.660	0.0170233
603.738	0.0169431
603.817	0.0169746
603.895	0.0170248
603.973	0.0171184
604.051	0.0169997
604.129	0.0172288
604.207	0.0170322
604.285	0.0169942
604.363	0.0169498
604.442	0.0172030
604.520	0.0170422
604.598	0.0169419
604.676	0.0170457
604.754	0.0170219
604.832	0.0169788
604.910	0.0170049
604.988	0.0170808
605.067	0.0170438
605.145	0.0170316
605.223	0.0170726
605.301	0.0169637
605.379	0.0170433
605.457	0.0171128
605.535	0.0170309
605.613	0.0168669
605.692	0.0169815
605.770	0.0170361
605.848	0.0171285
605.926	0.0170518
606.004	0.0170257
606.082	0.0170355
606.160	0.0169088
606.238	0.0170804
606.317	0.0171142
606.395	0.0169844
606.473	0.0171499
606.551	0.0171211
606.629	0.0171008
606.707	0.0171793
606.785	0.0171384
606.863	0.0170744
606.942	0.0170221
607.020	0.0169192
607.098	0.0169609
607.176	0.0170640
607.254	0.0171560
607.332	0.0169793
607.410	0.0169530
607.488	0.0169526
607.567	0.0170372
607.645	0.0169954
607.723	0.0170847
607.801	0.0169842
607.879	0.0168726
607.957	0.0169929
608.035	0.0170506
608.113	0.0170869
608.192	0.0170962
608.270	0.0171385
608.348	0.0169447
608.426	0.0171221
608.504	0.0171505
608.582	0.0169850
608.660	0.0170517
608.738	0.0170478
608.817	0.0170286
608.895	0.0170627
608.973	0.0170856
609.051	0.0170332
609.129	0.0170674
609.207	0.0170125
609.285	0.0170103
609.363	0.0170760
609.442	0.0170697
609.520	0.0170346
609.598	0.0171352
609.676	0.0170321
609.754	0.0170052
609.832	0.0170930
609.910	0.0171188
609.988	0.0170105
610.067	0.0169364
610.145	0.0170265
610.223	0.0170663
610.301	0.0170193
610.379	0.0170471
610.457	0.0169893
610.535	0.0169955
610.613	0.0170415
610.692	0.0171255
610.770	0.0170635
610.848	0.0170599
610.926	0.0169348
611.004	0.0170634
611.082	0.0170101
611.160	0.0169360
611.238	0.0169669
611.317	0.0171717
611.395	0.0171084
611.473	0.0169811
611.551	0.0170351
611.629	0.0171724
611.707	0.0169581
611.785	0.0169909
611.863	0.0169794
611.942	0.0171594
612.020	0.0169972
612.098	0.0169374
612.176	0.0170895
612.254	0.0170947
612.332	0.0171343
612.410	0.0171175
612.488	0.0170225
612.567	0.0171314
612.645	0.0170494
612.723	0.0169498
612.801	0.0171681
612.879	0.0170612
612.957	0.0171962
613.035	0.0169875
613.113	0.0170560
613.192	0.0169710
613.270	0.0169514
613.348	0.0170924
613.426	0.0170837
613.504	0.0170754
613.582	0.0170626
613.660	0.0169095
613.738	0.0170849
613.817	0.0171407
613.895	0.0171084
613.973	0.0169421
614.051	0.0168998
614.129	0.0170107
614.207	0.0171947
614.285	0.0170647
614.363	0.0171400
614.442	0.0172083
614.520	0.0170652
614.598	0.0168908
614.676	0.0169672
614.754	0.0170818
614.832	0.0168676
614.910	0.0169054
614.988	0.0170374
615.067	0.0170937
615.145	0.0170647
615.223	0.0169919
615.301	0.0171098
615.379	0.0169657
615.457	0.0169307
615.535	0.0170457
615.613	0.0170873
615.692	0.0170356
615.770	0.0170123
615.848	0.0170480
615.926	0.0169696
616.004	0.0171461
616.082	0.0171772
616.160	0.0169361
616.238	0.0169100
616.317	0.0170391
616.395	0.0171194
616.473	0.0170438
616.551	0.0168595
616.629	0.0170495
616.707	0.0170615
616.785	0.0170350
616.863	0.0171454
616.942	0.0170705
617.020	0.0170335
617.098	0.0170190
617.176	0.0170776
617.254	0.0169539
617.332	0.0171307
617.410	0.0170470
617.488	0.0169085
617.567	0.0170123
617.645	0.0170734
617.723	0.0170515
617.801	0.0171273
617.879	0.0170608
617.957	0.0169710
618.035	0.0170508
618.113	0.0171083
618.192	0.0168494
618.270	0.0168478
618.348	0.0170311
618.426	0.0169967
618.504	0.0169284
618.582	0.0169990
618.660	0.0171744
618.738	0.0171346
618.817	0.0169870
618.895	0.0170107
618.973	0.0170004
619.051	0.0170602
619.129	0.0169450
619.207	0.0169762
619.285	0.0169817
619.363	0.0170356
619.442	0.0170869
619.520	0.0169651
619.598	0.0170780
619.676	0.0170105
619.754	0.0169940
619.832	0.0169830
619.910	0.0169476
619.988	0.0170067
620.067	0.0171072
620.145	0.0170575
620.223	0.0170890
620.301	0.0169975
620.379	0.0170465
620.457	0.0171088
620.535	0.0169705
620.613	0.0170063
620.692	0.0170126
620.770	0.0170679
620.848	0.0170853
620.926	0.0171612
621.004	0.0169688
621.082	0.0169281
621.160	0.0169892
621.238	0.0170851
621.317	0.0170608
621.395	0.0169248
621.473	0.0169037
621.551	0.0170269
621.629	0.0169775
621.707	0.0170319
621.785	0.0169942
621.863	0.0171078
621.942	0.0170000
622.020	0.0169695
622.098	0.0170419
622.176	0.0170210
622.254	0.0170940
622.332	0.0170741
622.410	0.0169984
622.488	0.0170277
622.567	0.0169573
622.645	0.0170635
622.723	0.0171159
622.801	0.0169064
622.879	0.0170061
622.957	0.0170448
623.035	0.0171174
623.113	0.0170145
623.192	0.0170184
623.270	0.0171412
623.348	0.0170370
623.426	0.0169284
623.504	0.0170020
623.582	0.0170243
623.660	0.0170188
623.738	0.0169278
623.817	0.0171214
623.895	0.0171258
623.973	0.0170293
624.051	0.0170473
624.129	0.0170010
624.207	0.0170615
624.285	0.0170334
624.363	0.0170357
624.442	0.0171132
624.520	0.0169557
624.598	0.0170004
624.676	0.0171661
624.754	0.0170570
624.832	0.0170095
624.910	0.0170824
624.988	0.0170641
625.067	0.0169675
625.145	0.0169630
625.223	0.0171878
625.301	0.0169393
625.379	0.0170477
625.457	0.0170190
625.535	0.0170247
625.613	0.0171039
625.692	0.0169690
625.770	0.0170375
625.848	0.0170460
625.926	0.0170215
626.004	0.0170507
626.082	0.0170547
626.160	0.0171017
626.238	0.0169357
626.317	0.0170737
626.395	0.0169310
626.473	0.0169959
626.551	0.0169374
626.629	0.0170084
626.707	0.0170166
626.785	0.0170327
626.863	0.0169376
626.942	0.0170007
627.020	0.0170518
627.098	0.0170675
627.176	0.0172043
627.254	0.0169970
627.332	0.0170072
627.410	0.0170830
627.488	0.0169494
627.567	0.0168990
627.645	0.0171246
627.723	0.0169672
627.801	0.0169159
627.879	0.0170861
627.957	0.0170245
628.035	0.0169944
628.113	0.0169968
628.192	0.0171305
628.270	0.0170918
628.348	0.0171171
628.426	0.0170890
628.504	0.0171111
628.582	0.0170490
628.660	0.0170739
628.738	0.0169678
628.817	0.0171012
628.895	0.0170358
628.973	0.0169832
629.051	0.0170806
629.129	0.0171165
629.207	0.0171059
629.285	0.0170631
629.363	0.0169798
629.442	0.0170419
629.520	0.0170665
629.598	0.0170483
629.676	0.0170329
629.754	0.0170075
629.832	0.0170110
629.910	0.0169122
629.988	0.0170997
630.067	0.0170240
630.145	0.0170282
630.223	0.0169281
630.301	0.0170100
630.379	0.0169082
630.457	0.0169411
630.535	0.0169830
630.613	0.0169845
630.692	0.0170518
630.770	0.0170189
630.848	0.0170480
630.926	0.0169480
631.004	0.0170081
631.082	0.0171326
631.160	0.0170776
631.238	0.0170264
631.317	0.0170188
631.395	0.0169485
631.473	0.0171102
631.551	0.0170230
631.629	0.0169859
631.707	0.0170500
631.785	0.0170998
631.863	0.0170613
631.942	0.0169462
632.020	0.0169854
632.098	0.0171265
632.176	0.0170158
632.254	0.0169468
632.332	0.0170355
632.410	0.0171041
632.488	0.0170499
632.567	0.0171053
632.645	0.0171407
632.723	0.0169710
632.801	0.0171604
632.879	0.0171770
632.957	0.0171339
633.035	0.0171052
633.113	0.0169772
633.192	0.0170272
633.270	0.0170248
633.348	0.0170286
633.426	0.0170402
633.504	0.0170554
633.582	0.0171505
633.660	0.0170042
633.738	0.0170114
633.817	0.0169796
633.895	0.0169440
633.973	0.0170410
634.051	0.0170419
634.129	0.0169621
634.207	0.0171250
634.285	0.0169889
634.363	0.0169696
634.442	0.0170422
634.520	0.0170648
634.598	0.0169855
634.676	0.0170044
634.754	0.0170855
634.832	0.0170073
634.910	0.0171284
634.988	0.0170374
635.067	0.0169568
635.145	0.0170405
635.223	0.0169839
635.301	0.0169613
635.379	0.0171906
635.457	0.0172002
635.535	0.0169226
635.613	0.0168745
635.692	0.0170248
635.770	0.0171766
635.848	0.0171124
635.926	0.0170773
636.004	0.0170397
636.082	0.0169901
636.160	0.0169118
636.238	0.0170696
636.317	0.0171081
636.395	0.0170789
636.473	0.0172303
636.551	0.0168825
636.629	0.0170901
636.707	0.0169467
636.785	0.0171221
636.863	0.0170419
636.942	0.0170976
637.020	0.0170100
637.098	0.0169695
637.176	0.0168822
637.254	0.0168974
637.332	0.0170110
637.410	0.0170741
637.488	0.0171176
637.567	0.0169888
637.645	0.0170052
637.723	0.0171388
637.801	0.0169769
637.879	0.0171217
637.957	0.0170930
638.035	0.0170132
638.113	0.0170983
638.192	0.0171575
638.270	0.0169943
638.348	0.0169274
638.426	0.0170786
638.504	0.0170837
638.582	0.0170510
638.660	0.0171310
638.738	0.0170496
638.817	0.0170651
638.895	0.0170061
638.973	0.0171031
639.051	0.0171428
639.129	0.0170232
639.207	0.0170467
639.285	0.0171772
639.363	0.0171420
639.442	0.0170061
639.520	0.0169648
639.598	0.0170746
639.676	0.0170403
639.754	0.0172289
639.832	0.0171542
639.910	0.0171397
639.988	0.0170744
640.067	0.0171022
640.145	0.0169183
640.223	0.0168803
640.301	0.0169856
640.379	0.0171734
640.457	0.0170494
640.535	0.0170333
640.613	0.0171204
640.692	0.0170695
640.770	0.0170477
640.848	0.0172005
640.926	0.0170457
641.004	0.0170514
641.082	0.0171021
641.160	0.0169956
641.238	0.0170452
641.317	0.0170860
641.395	0.0170421
641.473	0.0169936
641.551	0.0170353
641.629	0.0171957
641.707	0.0170689
641.785	0.0170120
641.863	0.0170373
641.942	0.0169270
642.020	0.0171227
642.098	0.0170704
642.176	0.0169885
642.254	0.0170070
642.332	0.0170231
642.410	0.0170249
642.488	0.0170817
642.567	0.0170492
642.645	0.0169981
642.723	0.0170953
642.801	0.0170670
642.879	0.0170273
642.957	0.0172114
643.035	0.0171635
643.113	0.0171828
643.192	0.0170574
643.270	0.0169527
643.348	0.0170039
643.426	0.0171862
643.504	0.0171358
643.582	0.0169779
643.660	0.0170809
643.738	0.0170820
643.817	0.0171213
643.895	0.0171465
643.973	0.0170444
644.051	0.0169914
644.129	0.0171168
644.207	0.0169224
644.285	0.0171768
644.363	0.0171181
644.442	0.0170156
644.520	0.0170922
644.598	0.0170200
644.676	0.0169970
644.754	0.0171717
644.832	0.0170535
644.910	0.0169518
644.988	0.0170218
645.067	0.0171606
645.145	0.0171326
645.223	0.0170248
645.301	0.0171154
645.379	0.0169720
645.457	0.0170345
645.535	0.0170089
645.613	0.0170704
645.692	0.0170591
645.770	0.0170303
645.848	0.0169607
645.926	0.0171017
646.004	0.0171191
646.082	0.0170206
646.160	0.0170244
646.238	0.0171035
646.317	0.0170560
646.395	0.0170030
646.473	0.0171114
646.551	0.0170504
646.629	0.0168967
646.707	0.0170376
646.785	0.0172176
646.863	0.0171491
646.942	0.0171662
647.020	0.0169678
647.098	0.0170142
647.176	0.0170573
647.254	0.0170193
647.332	0.0170330
647.410	0.0168889
647.488	0.0169986
647.567	0.0170322
647.645	0.0169360
647.723	0.0170231
647.801	0.0169583
647.879	0.0171009
647.957	0.0170940
648.035	0.0169569
648.113	0.0170142
648.192	0.0169977
648.270	0.0170260
648.348	0.0170625
648.426	0.0170579
648.504	0.0170208
648.582	0.0170743
648.660	0.0170185
648.738	0.0169678
648.817	0.0170035
648.895	0.0169858
648.973	0.0169395
649.051	0.0170750
649.129	0.0170928
649.207	0.0170095
649.285	0.0171320
649.363	0.0170985
649.442	0.0170950
649.520	0.0169799
649.598	0.0171483
649.676	0.0170191
649.754	0.0170299
649.832	0.0170208
649.910	0.0170231
649.988	0.0170927
650.067	0.0169966
650.145	0.0170525
650.223	0.0170830
650.301	0.0170141
650.379	0.0170342
650.457	0.0172198
650.535	0.0169962
650.613	0.0170101
650.692	0.0171121
650.770	0.0171415
650.848	0.0171066
650.926	0.0171551
651.004	0.0171547
651.082	0.0170256
651.160	0.0171494
651.238	0.0170340
651.317	0.0170689
651.395	0.0169848
651.473	0.0170161
651.551	0.0170921
651.629	0.0170778
651.707	0.0171017
651.785	0.0170613
651.863	0.0169992
651.942	0.0170201
652.020	0.0170061
652.098	0.0170193
652.176	0.0169924
652.254	0.0170910
652.332	0.0169021
652.410	0.0170271
652.488	0.0170687
652.567	0.0170876
652.645	0.0170845
652.723	0.0169522
652.801	0.0169182
652.879	0.0170275
652.957	0.0170885
653.035	0.0170135
653.113	0.0172060
653.192	0.0170745
653.270	0.0169250
653.348	0.0170439
653.426	0.0171082
653.504	0.0170751
653.582	0.0170952
653.660	0.0171432
653.738	0.0171242
653.817	0.0171107
653.895	0.0169881
653.973	0.0169762
654.051	0.0171229
654.129	0.0171112
654.207	0.0170560
654.285	0.0170232
654.363	0.0170734
654.442	0.0170615
654.520	0.0169798
654.598	0.0170835
654.676	0.0170058
654.754	0.0169978
654.832	0.0171680
654.910	0.0170580
654.988	0.0170743
655.067	0.0169364
655.145	0.0170730
655.223	0.0171159
655.301	0.0171110
655.379	0.0169289
655.457	0.0169875
655.535	0.0170272
655.613	0.0171004
655.692	0.0170029
655.770	0.0169861
655.848	0.0170959
655.926	0.0170094
656.004	0.0172333
656.082	0.0170987
656.160	0.0170230
656.238	0.0169300
656.317	0.0170081
656.395	0.0170085
656.473	0.0170322
656.551	0.0171286
656.629	0.0171410
656.707	0.0169248
656.785	0.0170102
656.863	0.0171703
656.942	0.0172226
657.020	0.0171789
657.098	0.0171067
657.176	0.0169157
657.254	0.0170885
657.332	0.0171153
657.410	0.0171253
657.488	0.0169827
657.567	0.0170079
657.645	0.0170290
657.723	0.0170152
657.801	0.0170319
657.879	0.0170444
657.957	0.0170377
658.035	0.0171259
658.113	0.0170360
658.192	0.0170557
658.270	0.0170215
658.348	0.0170474
658.426	0.0169555
658.504	0.0171350
658.582	0.0170351
658.660	0.0170728
658.738	0.0170818
658.817	0.0168811
658.895	0.0169718
658.973	0.0172232
659.051	0.0170323
659.129	0.0169557
659.207	0.0170224
659.285	0.0171918
659.363	0.0169987
659.442	0.0170317
659.520	0.0171192
659.598	0.0170176
659.676	0.0171098
659.754	0.0169799
659.832	0.0170078
659.910	0.0170359
659.988	0.0171127
660.067	0.0170747
660.145	0.0170039
660.223	0.0170998
660.301	0.0172790
660.379	0.0171418
660.457	0.0170443
660.535	0.0170454
660.613	0.0169501
660.692	0.0170274
660.770	0.0170304
660.848	0.0171249
660.926	0.0170268
661.004	0.0170436
661.082	0.0169612
661.160	0.0171244
661.238	0.0170042
661.317	0.0170223
661.395	0.0169883
661.473	0.0171232
661.551	0.0170484
661.629	0.0170927
661.707	0.0169147
661.785	0.0168880
661.863	0.0170670
661.942	0.0170884
662.020	0.0170367
662.098	0.0171670
662.176	0.0169601
662.254	0.0170166
662.332	0.0170109
662.410	0.0171376
662.488	0.0170399
662.567	0.0170490
662.645	0.0170585
662.723	0.0170554
662.801	0.0169518
662.879	0.0170399
662.957	0.0170591
663.035	0.0171343
663.113	0.0171080
663.192	0.0170961
663.270	0.0170930
663.348	0.0170074
663.426	0.0169968
663.504	0.0170154
663.582	0.0171116
663.660	0.0170846
663.738	0.0171451
663.817	0.0169855
663.895	0.0170557
663.973	0.0170441
664.051	0.0170441
664.129	0.0170116
664.207	0.0169215
664.285	0.0171412
664.363	0.0171561
664.442	0.0169848
664.520	0.0169864
664.598	0.0171505
664.676	0.0170184
664.754	0.0170270
664.832	0.0171080
664.910	0.0168573
664.988	0.0170650
665.067	0.0169624
665.145	0.0170012
665.223	0.0170306
665.301	0.0169824
665.379	0.0170104
665.457	0.0170094
665.535	0.0171498
665.613	0.0171006
665.692	0.0170576
665.770	0.0169723
665.848	0.0169879
665.926	0.0171592
666.004	0.0170582
666.082	0.0170147
666.160	0.0171230
666.238	0.0170563
666.317	0.0169608
666.395	0.0170428
666.473	0.0170832
666.551	0.0170632
666.629	0.0171198
666.707	0.0170328
666.785	0.0169821
666.863	0.0172171
666.942	0.0169875
667.020	0.0170223
667.098	0.0170545
667.176	0.0171077
667.254	0.0169967
667.332	0.0169669
667.410	0.0169596
667.488	0.0169896
667.567	0.0169506
667.645	0.0170290
667.723	0.0172435
667.801	0.0170653
667.879	0.0170720
667.957	0.0170394
668.035	0.0171209
668.113	0.0171904
668.192	0.0171213
668.270	0.0170030
668.348	0.0169908
668.426	0.0171951
668.504	0.0169367
668.582	0.0170167
668.660	0.0171556
668.738	0.0171680
668.817	0.0171729
668.895	0.0171019
668.973	0.0172448
669.051	0.0172189
669.129	0.0172290
669.207	0.0172124
669.285	0.0171186
669.363	0.0171075
669.442	0.0171771
669.520	0.0171439
669.598	0.0170272
669.676	0.0172359
669.754	0.0172521
669.832	0.0171808
669.910	0.0171955
669.988	0.0172555
670.067	0.0171922
670.145	0.0172167
670.223	0.0172469
670.301	0.0172456
670.379	0.0171233
670.457	0.0171820
670.535	0.0172415
670.613	0.0171900
670.692	0.0172197
670.770	0.0171678
670.848	0.0171465
670.926	0.0170855
671.004	0.0171669
671.082	0.0171571
671.160	0.0171147
671.238	0.0170193
671.317	0.0170483
671.395	0.0171149
671.473	0.0170600
671.551	0.0170748
671.629	0.0171695
671.707	0.0169598
671.785	0.0171291
671.863	0.0171856
671.942	0.0171739
672.020	0.0170858
672.098	0.0171233
672.176	0.0172678
672.254	0.0170475
672.332	0.0170637
672.410	0.0171850
672.488	0.0171509
672.567	0.0171354
672.645	0.0172190
672.723	0.0171592
672.801	0.0171598
672.879	0.0172089
672.957	0.0170856
673.035	0.0169790
673.113	0.0170366
673.192	0.0170456
673.270	0.0171675
673.348	0.0171827
673.426	0.0169035
673.504	0.0169572
673.582	0.0170020
673.660	0.0171352
673.738	0.0171161
673.817	0.0171121
673.895	0.0169487
673.973	0.0171403
674.051	0.0170181
674.129	0.0169466
674.207	0.0169612
674.285	0.0170185
674.363	0.0170333
674.442	0.0169427
674.520	0.0170221
674.598	0.0170313
674.676	0.0169620
674.754	0.0169986
674.832	0.0169788
674.910	0.0168889
674.988	0.0168933
675.067	0.0168333
675.145	0.0170029
675.223	0.0170175
675.301	0.0169218
675.379	0.0169031
675.457	0.0169263
675.535	0.0168506
675.613	0.0169350
675.692	0.0169209
675.770	0.0169197
675.848	0.0169965
675.926	0.0169385
676.004	0.0168843
676.082	0.0170618
676.160	0.0168813
676.238	0.0168826
676.317	0.0168143
676.395	0.0169717
676.473	0.0169113
676.551	0.0168927
676.629	0.0169589
676.707	0.0169134
676.785	0.0169320
676.863	0.0168898
676.942	0.0169492
677.020	0.0168549
677.098	0.0170125
677.176	0.0168697
677.254	0.0168383
677.332	0.0168954
677.410	0.0170604
677.488	0.0169399
677.567	0.0169987
677.645	0.0169582
677.723	0.0168832
677.801	0.0169991
677.879	0.0170341
677.957	0.0169332
678.035	0.0169592
678.113	0.0169614
678.192	0.0169996
678.270	0.0170422
678.348	0.0168982
678.426	0.0169828
678.504	0.0170239
678.582	0.0171230
678.660	0.0170615
678.738	0.0168690
678.817	0.0169226
678.895	0.0170109
678.973	0.0170322
679.051	0.0170573
679.129	0.0170300
679.207	0.0170028
679.285	0.0170090
679.363	0.0170712
679.442	0.0169513
679.520	0.0170049
679.598	0.0170606
679.676	0.0169651
679.754	0.0169174
679.832	0.0169125
679.910	0.0169617
679.988	0.0169988
680.067	0.0170216
680.145	0.0169963
680.223	0.0170643
680.301	0.0170246
680.379	0.0170078
680.457	0.0169619
680.535	0.0171991
680.613	0.0170556
680.692	0.0171124
680.770	0.0171113
680.848	0.0171052
680.926	0.0170194
681.004	0.0170565
681.082	0.0170569
681.160	0.0171019
681.238	0.0170353
681.317	0.0171107
681.395	0.0171604
681.473	0.0171793
681.551	0.0170033
681.629	0.0170572
681.707	0.0170969
681.785	0.0170800
681.863	0.0171230
681.942	0.0171662
682.020	0.0169948
682.098	0.0170801
682.176	0.0170823
682.254	0.0171870
682.332	0.0171264
682.410	0.0171149
682.488	0.0171260
682.567	0.0170731
682.645	0.0172169
682.723	0.0171673
682.801	0.0171463
682.879	0.0171851
682.957	0.0171796
683.035	0.0172506
683.113	0.0171833
683.192	0.0172168
683.270	0.0169666
683.348	0.0168575
683.426	0.0167594
683.504	0.0167682
683.582	0.0166573
683.660	0.0167420
683.738	0.0168584
683.817	0.0168739
683.895	0.0172451
683.973	0.0173743
684.051	0.0176939
684.129	0.0179256
684.207	0.0180605
684.285	0.0180742
684.363	0.0180123
684.442	0.0178916
684.520	0.0174667
684.598	0.0170019
684.676	0.0164886
684.754	0.0158686
684.832	0.0150876
684.910	0.0145960
684.988	0.0140617
685.067	0.0137031
685.145	0.0136716
685.223	0.0140034
685.301	0.0146089
685.379	0.0155232
685.457	0.0166510
685.535	0.0180019
685.613	0.0194847
685.692	0.0207888
685.770	0.0219869
685.848	0.0228013
685.926	0.0233839
686.004	0.0235412
686.082	0.0232740
686.160	0.0223837
686.238	0.0212635
686.317	0.0199586
686.395	0.0182830
686.473	0.0165053
686.551	0.0147514
686.629	0.0129542
686.707	0.0115778
686.785	0.0104164
686.863	0.00939560
686.942	0.00905235
687.020	0.00909569
687.098	0.00959351
687.176	0.0103716
687.254	0.0115746
687.332	0.0130712
687.410	0.0148772
687.488	0.0168183
687.567	0.0187809
687.645	0.0206213
687.723	0.0223311
687.801	0.0238137
687.879	0.0247719
687.957	0.0253986
688.035	0.0255546
688.113	0.0251266
688.192	0.0246211
688.270	0.0234026
688.348	0.0219783
688.426	0.0202481
688.504	0.0186995
688.582	0.0170410
688.660	0.0152912
688.738	0.0138887
688.817	0.0126560
688.895	0.0119259
688.973	0.0113419
689.051	0.0110709
689.129	0.0108494
689.207	0.0111616
689.285	0.0115592
689.363	0.0121315
689.442	0.0129015
689.520	0.0135506
689.598	0.0143470
689.676	0.0152220
689.754	0.0158836
689.832	0.0166814
689.910	0.0172253
689.988	0.0178033
690.067	0.0184409
690.145	0.0187773
690.223	0.0193649
690.301	0.0198859
690.379	0.0202794
690.457	0.0205563
690.535	0.0207455
690.613	0.0209019
690.692	0.0209747
690.770	0.0210250
690.848	0.0207424
690.926	0.0204651
691.004	0.0198202
691.082	0.0193484
691.160	0.0187514
691.238	0.0180997
691.317	0.0175296
691.395	0.0169433
691.473	0.0161454
691.551	0.0157726
691.629	0.0152103
691.707	0.0146641
691.785	0.0140726
691.863	0.0137784
691.942	0.0132877
692.020	0.0131386
692.098	0.0130457
692.176	0.0129505
692.254	0.0129443
692.332	0.0129865
692.410	0.0133042
692.488	0.0137338
692.567	0.0138717
692.645	0.0145358
692.723	0.0151591
692.801	0.0156454
692.879	0.0163013
692.957	0.0169787
693.035	0.0176405
693.113	0.0183229
693.192	0.0189075
693.270	0.0195814
693.348	0.0201421
693.426	0.0207804
693.504	0.0210558
693.582	0.0212534
693.660	0.0215085
693.738	0.0216581
693.817	0.0215368
693.895	0.0214413
693.973	0.0213403
694.051	0.0208586
694.129	0.0204930
694.207	0.0200667
694.285	0.0195767
694.363	0.0190131
694.442	0.0185403
694.520	0.0179273
694.598	0.0173260
694.676	0.0166068
694.754	0.0158921
694.832	0.0152573
694.910	0.0149233
694.988	0.0144156
695.067	0.0139197
695.145	0.0134745
695.223	0.0130499
695.301	0.0130836
695.379	0.0130163
695.457	0.0128885
695.535	0.0130814
695.613	0.0132996
695.692	0.0136082
695.770	0.0137221
695.848	0.0142190
695.926	0.0146252
696.004	0.0150440
696.082	0.0154144
696.160	0.0158087
696.238	0.0164902
696.317	0.0170121
696.395	0.0173010
696.473	0.0177419
696.551	0.0180309
696.629	0.0182806
696.707	0.0187355
696.785	0.0187119
696.863	0.0188629
696.942	0.0188867
697.020	0.0189831
697.098	0.0189194
697.176	0.0189435
697.254	0.0189722
697.332	0.0189258
697.410	0.0188487
697.488	0.0187128
697.567	0.0187132
697.645	0.0187955
697.723	0.0187505
697.801	0.0187793
697.879	0.0184555
697.957	0.0186285
698.035	0.0187116
698.113	0.0185703
698.192	0.0184447
698.270	0.0184126
698.348	0.0183289
698.426	0.0181798
698.504	0.0179610
698.582	0.0177445
698.660	0.0176558
698.738	0.0174474
698.817	0.0171252
698.895	0.0169556
698.973	0.0167729
699.051	0.0164348
699.129	0.0162509
699.207	0.0160580
699.285	0.0157856
699.363	0.0156371
699.442	0.0155007
699.520	0.0154494
699.598	0.0153239
699.676	0.0152161
699.754	0.0151804
699.832	0.0152458
699.910	0.0150084
699.988	0.0150625
700.067	0.0149911
700.145	0.0149712
700.223	0.0149580
700.301	0.0151496
700.379	0.0152130
700.457	0.0153624
700.535	0.0155495
700.613	0.0159991
700.692	0.0162626
700.770	0.0165086
700.848	0.0169963
700.926	0.0172868
701.004	0.0175671
701.082	0.0179803
701.160	0.0181823
701.238	0.0184642
701.317	0.0184981
701.395	0.0186344
701.473	0.0186221
701.551	0.0185700
701.629	0.0184588
701.707	0.0181730
701.785	0.0179894
701.863	0.0178378
701.942	0.0176080
702.020	0.0175124
702.098	0.0172637
702.176	0.0171545
702.254	0.0171262
702.332	0.0171061
702.410	0.0172385
702.488	0.0171687
702.567	0.0173701
702.645	0.0173727
702.723	0.0175002
702.801	0.0174750
702.879	0.0176708
702.957	0.0178008
703.035	0.0177883
703.113	0.0178354
703.192	0.0178568
703.270	0.0179118
703.348	0.0180418
703.426	0.0180736
703.504	0.0181609
703.582	0.0179954
703.660	0.0180384
703.738	0.0180914
703.817	0.0180576
703.895	0.0177635
703.973	0.0176026
704.051	0.0174273
704.129	0.0171424
704.207	0.0168695
704.285	0.0165118
704.363	0.0160723
704.442	0.0159074
704.520	0.0155482
704.598	0.0152950
704.676	0.0149773
704.754	0.0149097
704.832	0.0145509
704.910	0.0144234
704.988	0.0144704
705.067	0.0145073
705.145	0.0147623
705.223	0.0148429
705.301	0.0151442
705.379	0.0155266
705.457	0.0157475
705.535	0.0160796
705.613	0.0164267
705.692	0.0167492
705.770	0.0171251
705.848	0.0174307
705.926	0.0177689
706.004	0.0178265
706.082	0.0179838
706.160	0.0180968
706.238	0.0182525
706.317	0.0182870
706.395	0.0181837
706.473	0.0182703
706.551	0.0182162
706.629	0.0180914
706.707	0.0180834
706.785	0.0179762
706.863	0.0179047
706.942	0.0177354
707.020	0.0176407
707.098	0.0175880
707.176	0.0176225
707.254	0.0175733
707.332	0.0175069
707.410	0.0174436
707.488	0.0174980
707.567	0.0176268
707.645	0.0174984
707.723	0.0174209
707.801	0.0175004
707.879	0.0176048
707.957	0.0174378
708.035	0.0175098
708.113	0.0176718
708.192	0.0177763
708.270	0.0177751
708.348	0.0176892
708.426	0.0177299
708.504	0.0179145
708.582	0.0177266
708.660	0.0176238
708.738	0.0175424
708.817	0.0174440
708.895	0.0171300
708.973	0.0170076
709.051	0.0168587
709.129	0.0165505
709.207	0.0163015
709.285	0.0160195
709.363	0.0158763
709.442	0.0156727
709.520	0.0154630
709.598	0.0153915
709.676	0.0152212
709.754	0.0150642
709.832	0.0150790
709.910	0.0152686
709.988	0.0153470
710.067	0.0155791
710.145	0.0157465
710.223	0.0159879
710.301	0.0161427
710.379	0.0164259
710.457	0.0166604
710.535	0.0168941
710.613	0.0169860
710.692	0.0173327
710.770	0.0175128
710.848	0.0175809
710.926	0.0176855
711.004	0.0175198
711.082	0.0175534
711.160	0.0174853
711.238	0.0176231
711.317	0.0174983
711.395	0.0173880
711.473	0.0172610
711.551	0.0173650
711.629	0.0174740
711.707	0.0177658
711.785	0.0176984
711.863	0.0176330
711.942	0.0177978
712.020	0.0179593
712.098	0.0178409
712.176	0.0180128
712.254	0.0179419
712.332	0.0178770
712.410	0.0177283
712.488	0.0177367
712.567	0.0174927
712.645	0.0174209
712.723	0.0172719
712.801	0.0172016
712.879	0.0171149
712.957	0.0170687
713.035	0.0169125
713.113	0.0169958
713.192	0.0169926
713.270	0.0169698
713.348	0.0170566
713.426	0.0171546
713.504	0.0172609
713.582	0.0173590
713.660	0.0173228
713.738	0.0172198
713.817	0.0171940
713.895	0.0168729
713.973	0.0167590
714.051	0.0166430
714.129	0.0164355
714.207	0.0160847
714.285	0.0159641
714.363	0.0158336
714.442	0.0157099
714.520	0.0157022
714.598	0.0156714
714.676	0.0156131
714.754	0.0158425
714.832	0.0159314
714.910	0.0161858
714.988	0.0163753
715.067	0.0165260
715.145	0.0166934
715.223	0.0170484
715.301	0.0172950
715.379	0.0173840
715.457	0.0174804
715.535	0.0176984
715.613	0.0177641
715.692	0.0177390
715.770	0.0177012
715.848	0.0175272
715.926	0.0175221
716.004	0.0173992
716.082	0.0172131
716.160	0.0169302
716.238	0.0167950
716.317	0.0167130
716.395	0.0167182
716.473	0.0168031
716.551	0.0169502
716.629	0.0168215
716.707	0.0169086
716.785	0.0170008
716.863	0.0170824
716.942	0.0171205
717.020	0.0172157
717.098	0.0173712
717.176	0.0172044
717.254	0.0174549
717.332	0.0173551
717.410	0.0173991
717.488	0.0175694
717.567	0.0174717
717.645	0.0177299
717.723	0.0177004
717.801	0.0176263
717.879	0.0177386
717.957	0.0177203
718.035	0.0176742
718.113	0.0177158
718.192	0.0176534
718.270	0.0175826
718.348	0.0174669
718.426	0.0172982
718.504	0.0171826
718.582	0.0169968
718.660	0.0168349
718.738	0.0166930
718.817	0.0167238
718.895	0.0165736
718.973	0.0164229
719.051	0.0164001
719.129	0.0162054
719.207	0.0162619
719.285	0.0162740
719.363	0.0162517
719.442	0.0162162
719.520	0.0162062
719.598	0.0162872
719.676	0.0164536
719.754	0.0163995
719.832	0.0164500
719.910	0.0166144
719.988	0.0165837
720.067	0.0165992
720.145	0.0167167
720.223	0.0168874
720.301	0.0168728
720.379	0.0168527
720.457	0.0169441
720.535	0.0170040
720.613	0.0171198
720.692	0.0172742
720.770	0.0172585
720.848	0.0174746
720.926	0.0173679
721.004	0.0176592
721.082	0.0177246
721.160	0.0176605
721.238	0.0176623
721.317	0.0176208
721.395	0.0176530
721.473	0.0174808
721.551	0.0175088
721.629	0.0173119
721.707	0.0172871
721.785	0.0171965
721.863	0.0169278
721.942	0.0168865
722.020	0.0168153
722.098	0.0169234
722.176	0.0168822
722.254	0.0169220
722.332	0.0169527
722.410	0.0169968
722.488	0.0171026
722.567	0.0173103
722.645	0.0173612
722.723	0.0174561
722.801	0.0174593
722.879	0.0174762
722.957	0.0175693
723.035	0.0174303
723.113	0.0174528
723.192	0.0174607
723.270	0.0172694
723.348	0.0171381
723.426	0.0172694
723.504	0.0170342
723.582	0.0169336
723.660	0.0168293
723.738	0.0168385
723.817	0.0166733
723.895	0.0166039
723.973	0.0165367
724.051	0.0164730
724.129	0.0163615
724.207	0.0164378
724.285	0.0166199
724.363	0.0165043
724.442	0.0167673
724.520	0.0167007
724.598	0.0167293
724.676	0.0167000
724.754	0.0167350
724.832	0.0168413
724.910	0.0169585
724.988	0.0168887
725.067	0.0167861
725.145	0.0168134
725.223	0.0169097
725.301	0.0168874
725.379	0.0168144
725.457	0.0170055
725.535	0.0171407
725.613	0.0171706
725.692	0.0171932
725.770	0.0172348
725.848	0.0175650
725.926	0.0176851
726.004	0.0177295
726.082	0.0178059
726.160	0.0177847
726.238	0.0176952
726.317	0.0177847
726.395	0.0176218
726.473	0.0174794
726.551	0.0174490
726.629	0.0173315
726.707	0.0170046
726.785	0.0167416
726.863	0.0165479
726.942	0.0163884
727.020	0.0162318
727.098	0.0160518
727.176	0.0160145
727.254	0.0159705
727.332	0.0160747
727.410	0.0161520
727.488	0.0161369
727.567	0.0163374
727.645	0.0163755
727.723	0.0167186
727.801	0.0167679
727.879	0.0170547
727.957	0.0171423
728.035	0.0171925
728.113	0.0174014
728.192	0.0174522
728.270	0.0175021
728.348	0.0176125
728.426	0.0175545
728.504	0.0176182
728.582	0.0173779
728.660	0.0173390
728.738	0.0174701
728.817	0.0172602
728.895	0.0171230
728.973	0.0171934
729.051	0.0172516
729.129	0.0171003
729.207	0.0172251
729.285	0.0170375
729.363	0.0170534
729.442	0.0170432
729.520	0.0168105
729.598	0.0170929
729.676	0.0170262
729.754	0.0170138
729.832	0.0170386
729.910	0.0171486
729.988	0.0171187
730.067	0.0171287
730.145	0.0171640
730.223	0.0169254
730.301	0.0170087
730.379	0.0167310
730.457	0.0168523
730.535	0.0167498
730.613	0.0167460
730.692	0.0166603
730.770	0.0167106
730.848	0.0165511
730.926	0.0165467
731.004	0.0166994
731.082	0.0166873
731.160	0.0166329
731.238	0.0166353
731.317	0.0167157
731.395	0.0168501
731.473	0.0167688
731.551	0.0168075
731.629	0.0168763
731.707	0.0168409
731.785	0.0170045
731.863	0.0170461
731.942	0.0172488
732.020	0.0172133
732.098	0.0171727
732.176	0.0173882
732.254	0.0173755
732.332	0.0172196
732.410	0.0173536
732.488	0.0174639
732.567	0.0173995
732.645	0.0173431
732.723	0.0173393
732.801	0.0173641
732.879	0.0173482
732.957	0.0173143
733.035	0.0173591
733.113	0.0172983
733.192	0.0170513
733.270	0.0170767
733.348	0.0171699
733.426	0.0172556
733.504	0.0171849
733.582	0.0172736
733.660	0.0172154
733.738	0.0173518
733.817	0.0174240
733.895	0.0174721
733.973	0.0172469
734.051	0.0173950
734.129	0.0173550
734.207	0.0173138
734.285	0.0171967
734.363	0.0171491
734.442	0.0170388
734.520	0.0169785
734.598	0.0167026
734.676	0.0167216
734.754	0.0167429
734.832	0.0165644
734.910	0.0167823
734.988	0.0168101
735.067	0.0167006
735.145	0.0166862
735.223	0.0168211
735.301	0.0167441
735.379	0.0170409
735.457	0.0171793
735.535	0.0171498
735.613	0.0171285
735.692	0.0170618
735.770	0.0171452
735.848	0.0170764
735.926	0.0172019
736.004	0.0169424
736.082	0.0169566
736.160	0.0169527
736.238	0.0169987
736.317	0.0170123
736.395	0.0169733
736.473	0.0168591
736.551	0.0169846
736.629	0.0169144
736.707	0.0169965
736.785	0.0170747
736.863	0.0170091
736.942	0.0168987
737.020	0.0168436
737.098	0.0169125
737.176	0.0168758
737.254	0.0168517
737.332	0.0168409
737.410	0.0167744
737.488	0.0168195
737.567	0.0168487
737.645	0.0168839
737.723	0.0168007
737.801	0.0167782
737.879	0.0168283
737.957	0.0169143
738.035	0.0170167
738.113	0.0171474
738.192	0.0168677
738.270	0.0170929
738.348	0.0170724
738.426	0.0171034
738.504	0.0172308
738.582	0.0172099
738.660	0.0173408
738.738	0.0173660
738.817	0.0175591
738.895	0.0174203
738.973	0.0173227
739.051	0.0173920
739.129	0.0173235
739.207	0.0173233
739.285	0.0172484
739.363	0.0171399
739.442	0.0170367
739.520	0.0171665
739.598	0.0170532
739.676	0.0170109
739.754	0.0169510
739.832	0.0170023
739.910	0.0169930
739.988	0.0169559
740.067	0.0171211
740.145	0.0169810
740.223	0.0171386
740.301	0.0172211
740.379	0.0172897
740.457	0.0172109
740.535	0.0173689
740.613	0.0173508
740.692	0.0173254
740.770	0.0174500
740.848	0.0172798
740.926	0.0171545
741.004	0.0170924
741.082	0.0170164
741.160	0.0169464
741.238	0.0168922
741.317	0.0168199
741.395	0.0165938
741.473	0.0164857
741.551	0.0164473
741.629	0.0163095
741.707	0.0163027
741.785	0.0162847
741.863	0.0162112
741.942	0.0162073
742.020	0.0162802
742.098	0.0164735
742.176	0.0163670
742.254	0.0164684
742.332	0.0167065
742.410	0.0167015
742.488	0.0167041
742.567	0.0168449
742.645	0.0169433
742.723	0.0170586
742.801	0.0173478
742.879	0.0171165
742.957	0.0172368
743.035	0.0173775
743.113	0.0174231
743.192	0.0173542
743.270	0.0173933
743.348	0.0172346
743.426	0.0172826
743.504	0.0171391
743.582	0.0170746
743.660	0.0169621
743.738	0.0170270
743.817	0.0169650
743.895	0.0170456
743.973	0.0169042
744.051	0.0168816
744.129	0.0169672
744.207	0.0169514
744.285	0.0169494
744.363	0.0170742
744.442	0.0172038
744.520	0.0170674
744.598	0.0170060
744.676	0.0169833
744.754	0.0171691
744.832	0.0171896
744.910	0.0172636
744.988	0.0171883
745.067	0.0171130
745.145	0.0171622
745.223	0.0170550
745.301	0.0172075
745.379	0.0172433
745.457	0.0172557
745.535	0.0173711
745.613	0.0172855
745.692	0.0171205
745.770	0.0173591
745.848	0.0173505
745.926	0.0173568
746.004	0.0174527
746.082	0.0174239
746.160	0.0174120
746.238	0.0174244
746.317	0.0173558
746.395	0.0171404
746.473	0.0171847
746.551	0.0170940
746.629	0.0170602
746.707	0.0169733
746.785	0.0169733
746.863	0.0169350
746.942	0.0167739
747.020	0.0167482
747.098	0.0167081
747.176	0.0166805
747.254	0.0165114
747.332	0.0165654
747.410	0.0164463
747.488	0.0167218
747.567	0.0167792
747.645	0.0166492
747.723	0.0166640
747.801	0.0168773
747.879	0.0168536
747.957	0.0168460
748.035	0.0169221
748.113	0.0170599
748.192	0.0170784
748.270	0.0169977
748.348	0.0171213
748.426	0.0170746
748.504	0.0170819
748.582	0.0170731
748.660	0.0171591
748.738	0.0171546
748.817	0.0172034
748.895	0.0172586
748.973	0.0172372
749.051	0.0172494
749.129	0.0172112
749.207	0.0173082
749.285	0.0172172
749.363	0.0171647
749.442	0.0170543
749.520	0.0171947
749.598	0.0172549
749.676	0.0172107
749.754	0.0170042
749.832	0.0170906
749.910	0.0172143
749.988	0.0169984
750.067	0.0169157
750.145	0.0170775
750.223	0.0169507
750.301	0.0167449
750.379	0.0167386
750.457	0.0167294
750.535	0.0166828
750.613	0.0166261
750.692	0.0167944
750.770	0.0166156
750.848	0.0168140
750.926	0.0167747
751.004	0.0169353
751.082	0.0169421
751.160	0.0170879
751.238	0.0171440
751.317	0.0172144
751.395	0.0172972
751.473	0.0173653
751.551	0.0173687
751.629	0.0173347
751.707	0.0173298
751.785	0.0173106
751.863	0.0171861
751.942	0.0172057
752.020	0.0169559
752.098	0.0170699
752.176	0.0170329
752.254	0.0169685
752.332	0.0169933
752.410	0.0168764
752.488	0.0167904
752.567	0.0169709
752.645	0.0170341
752.723	0.0168655
752.801	0.0169359
752.879	0.0170567
752.957	0.0170940
753.035	0.0171758
753.113	0.0170551
753.192	0.0172840
753.270	0.0172643
753.348	0.0173585
753.426	0.0173049
753.504	0.0174052
753.582	0.0172969
753.660	0.0172441
753.738	0.0173917
753.817	0.0172211
753.895	0.0171951
753.973	0.0169708
754.051	0.0169781
754.129	0.0169729
754.207	0.0169262
754.285	0.0169791
754.363	0.0167276
754.442	0.0167274
754.520	0.0166288
754.598	0.0167960
754.676	0.0167892
754.754	0.0165823
754.832	0.0166371
754.910	0.0167589
754.988	0.0167904
755.067	0.0167862
755.145	0.0167884
755.223	0.0168022
755.301	0.0168410
755.379	0.0167641
755.457	0.0168504
755.535	0.0168396
755.613	0.0170507
755.692	0.0169125
755.770	0.0169066
755.848	0.0170364
755.926	0.0170048
756.004	0.0171293
756.082	0.0172082
756.160	0.0171929
756.238	0.0171840
756.317	0.0172455
756.395	0.0173670
756.473	0.0174738
756.551	0.0174013
756.629	0.0175072
756.707	0.0175381
756.785	0.0175310
756.863	0.0173352
756.942	0.0173689
757.020	0.0173847
757.098	0.0172664
757.176	0.0172739
757.254	0.0172031
757.332	0.0170961
757.410	0.0168452
757.488	0.0169321
757.567	0.0168019
757.645	0.0167664
757.723	0.0167303
757.801	0.0167339
757.879	0.0166576
757.957	0.0167417
758.035	0.0166578
758.113	0.0167739
758.192	0.0168352
758.270	0.0168870
758.348	0.0169188
758.426	0.0169540
758.504	0.0169948
758.582	0.0170197
758.660	0.0171824
758.738	0.0171595
758.817	0.0172218
758.895	0.0172995
758.973	0.0173123
759.051	0.0173909
759.129	0.0174310
759.207	0.0173481
759.285	0.0173331
759.363	0.0172781
759.442	0.0172564
759.520	0.0172560
759.598	0.0173434
759.676	0.0171849
759.754	0.0171267
759.832	0.0172098
759.910	0.0170817
759.988	0.0171239
760.067	0.0171198
760.145	0.0171928
760.223	0.0171187
760.301	0.0170168
760.379	0.0171692
760.457	0.0169943
760.535	0.0171359
760.613	0.0171356
760.692	0.0169378
760.770	0.0171037
760.848	0.0170411
760.926	0.0169397
761.004	0.0169189
761.082	0.0170435
761.160	0.0169992
761.238	0.0171029
761.317	0.0170630
761.395	0.0169242
761.473	0.0168166
761.551	0.0169618
761.629	0.0170196
761.707	0.0169890
761.785	0.0169425
761.863	0.0168731
761.942	0.0168269
762.020	0.0168909
762.098	0.0167003
762.176	0.0168076
762.254	0.0168893
762.332	0.0168995
762.410	0.0164869
762.488	0.0165459
762.567	0.0166728
762.645	0.0166818
762.723	0.0165479
762.801	0.0168037
762.879	0.0166805
762.957	0.0166607
763.035	0.0167268
763.113	0.0167850
763.192	0.0168181
763.270	0.0168554
763.348	0.0169775
763.426	0.0169860
763.504	0.0170088
763.582	0.0172102
763.660	0.0172336
763.738	0.0173118
763.817	0.0173369
763.895	0.0174583
763.973	0.0174725
764.051	0.0173393
764.129	0.0174383
764.207	0.0174180
764.285	0.0173750
764.363	0.0173670
764.442	0.0173785
764.520	0.0173104
764.598	0.0172495
764.676	0.0172349
764.754	0.0171455
764.832	0.0170570
764.910	0.0170123
764.988	0.0171443
765.067	0.0170421
765.145	0.0168734
765.223	0.0168844
765.301	0.0169099
765.379	0.0168377
765.457	0.0169197
765.535	0.0169766
765.613	0.0169586
765.692	0.0168922
765.770	0.0169088
765.848	0.0169707
765.926	0.0169975
766.004	0.0171668
766.082	0.0171394
766.160	0.0172290
766.238	0.0172600
766.317	0.0172757
766.395	0.0173545
766.473	0.0171847
766.551	0.0172106
766.629	0.0172247
766.707	0.0174229
766.785	0.0173298
766.863	0.0172527
766.942	0.0172461
767.020	0.0172900
767.098	0.0173312
767.176	0.0173225
767.254	0.0173087
767.332	0.0171259
767.410	0.0172322
767.488	0.0171119
767.567	0.0171149
767.645	0.0170604
767.723	0.0170213
767.801	0.0169619
767.879	0.0167500
767.957	0.0167408
768.035	0.0167995
768.113	0.0168048
768.192	0.0168121
768.270	0.0165386
768.348	0.0167324
768.426	0.0167456
768.504	0.0169078
768.582	0.0168869
768.660	0.0169032
768.738	0.0168412
768.817	0.0168770
768.895	0.0170194
768.973	0.0169509
769.051	0.0171374
769.129	0.0172960
769.207	0.0172251
769.285	0.0171940
769.363	0.0173753
769.442	0.0173082
769.520	0.0172405
769.598	0.0171036
769.676	0.0171694
769.754	0.0173197
769.832	0.0170711
769.910	0.0170778
769.988	0.0171911
770.067	0.0170295
770.145	0.0169603
770.223	0.0170301
770.301	0.0169679
770.379	0.0167968
770.457	0.0168644
770.535	0.0168216
770.613	0.0169583
770.692	0.0169452
770.770	0.0169948
770.848	0.0170446
770.926	0.0171938
771.004	0.0171336
771.082	0.0171385
771.160	0.0171285
771.238	0.0172487
771.317	0.0172155
771.395	0.0172652
771.473	0.0172190
771.551	0.0173523
771.629	0.0173000
771.707	0.0171758
771.785	0.0172829
771.863	0.0171697
771.942	0.0172207
772.020	0.0170800
772.098	0.0170750
772.176	0.0170303
772.254	0.0171216
772.332	0.0170765
772.410	0.0169463
772.488	0.0171944
772.567	0.0171645
772.645	0.0168712
772.723	0.0168416
772.801	0.0169493
772.879	0.0170862
772.957	0.0170957
773.035	0.0169559
773.113	0.0171185
773.192	0.0171657
773.270	0.0171075
773.348	0.0170678
773.426	0.0170943
773.504	0.0171752
773.582	0.0172428
773.660	0.0171391
773.738	0.0170649
773.817	0.0169948
773.895	0.0172565
773.973	0.0173109
774.051	0.0171054
774.129	0.0170806
774.207	0.0172939
774.285	0.0170882
774.363	0.0168625
774.442	0.0169821
774.520	0.0168144
774.598	0.0168799
774.676	0.0168320
774.754	0.0168042
774.832	0.0167186
774.910	0.0167824
774.988	0.0166741
775.067	0.0165638
775.145	0.0165440
775.223	0.0166330
775.301	0.0163758
775.379	0.0165952
775.457	0.0166290
775.535	0.0166689
775.613	0.0165827
775.692	0.0166112
775.770	0.0167976
775.848	0.0167122
775.926	0.0169093
776.004	0.0169800
776.082	0.0169939
776.160	0.0170774
776.238	0.0172259
776.317	0.0171571
776.395	0.0172318
776.473	0.0173203
776.551	0.0173412
776.629	0.0174757
776.707	0.0174297
776.785	0.0174068
776.863	0.0174915
776.942	0.0174158
777.020	0.0173940
777.098	0.0172199
777.176	0.0174114
777.254	0.0173444
777.332	0.0174203
777.410	0.0172784
777.488	0.0171781
777.567	0.0170618
777.645	0.0170653
777.723	0.0171042
777.801	0.0169667
777.879	0.0170410
777.957	0.0168920
778.035	0.0169503
778.113	0.0169200
778.192	0.0169799
778.270	0.0171574
778.348	0.0170908
778.426	0.0171738
778.504	0.0170580
778.582	0.0171404
778.660	0.0170776
778.738	0.0171295
778.817	0.0171221
778.895	0.0172147
778.973	0.0169704
779.051	0.0169627
779.129	0.0169804
779.207	0.0170019
779.285	0.0170496
779.363	0.0169072
779.442	0.0169219
779.520	0.0168298
779.598	0.0167422
779.676	0.0167455
779.754	0.0166615
779.832	0.0166785
779.910	0.0167288
779.988	0.0166930
780.067	0.0166234
780.145	0.0167858
780.223	0.0168406
780.301	0.0168649
780.379	0.0167677
780.457	0.0169334
780.535	0.0169057
780.613	0.0170150
780.692	0.0171461
780.770	0.0170409
780.848	0.0170644
780.926	0.0170914
781.004	0.0171131
781.082	0.0171217
781.160	0.0171917
781.238	0.0172810
781.317	0.0171430
781.395	0.0172417
781.473	0.0172782
781.551	0.0173589
781.629	0.0173191
781.707	0.0174399
781.785	0.0174773
781.863	0.0176072
781.942	0.0173524
782.020	0.0173833
782.098	0.0174345
782.176	0.0175497
782.254	0.0173524
782.332	0.0172052
782.410	0.0170906
782.488	0.0170201
782.567	0.0170511
782.645	0.0168997
782.723	0.0168172
782.801	0.0166709
782.879	0.0166119
782.957	0.0165199
783.035	0.0165179
783.113	0.0165238
783.192	0.0165752
783.270	0.0167026
783.348	0.0166724
783.426	0.0167601
783.504	0.0169007
783.582	0.0170633
783.660	0.0170168
783.738	0.0171603
783.817	0.0174065
783.895	0.0174111
783.973	0.0174937
784.051	0.0175671
784.129	0.0174922
784.207	0.0173627
784.285	0.0174239
784.363	0.0174619
784.442	0.0171637
784.520	0.0172742
784.598	0.0172345
784.676	0.0170512
784.754	0.0170078
784.832	0.0169822
784.910	0.0167615
784.988	0.0167308
785.067	0.0167980
785.145	0.0167400
785.223	0.0166217
785.301	0.0166782
785.379	0.0166277
785.457	0.0166570
785.535	0.0168229
785.613	0.0167087
785.692	0.0169476
785.770	0.0170074
785.848	0.0170012
785.926	0.0168812
786.004	0.0169498
786.082	0.0170981
786.160	0.0171641
786.238	0.0170625
786.317	0.0170076
786.395	0.0170376
786.473	0.0171495
786.551	0.0171503
786.629	0.0171213
786.707	0.0173095
786.785	0.0171388
786.863	0.0172420
786.942	0.0171061
787.020	0.0172060
787.098	0.0171207
787.176	0.0171732
787.254	0.0173174
787.332	0.0171770
787.410	0.0171684
787.488	0.0171494
787.567	0.0173016
787.645	0.0171915
787.723	0.0171003
787.801	0.0170864
787.879	0.0169975
787.957	0.0169338
788.035	0.0169956
788.113	0.0170622
788.192	0.0169749
788.270	0.0169862
788.348	0.0169757
788.426	0.0168835
788.504	0.0169354
788.582	0.0168570
788.660	0.0168518
788.738	0.0168211
788.817	0.0168227
788.895	0.0168059
788.973	0.0168041
789.051	0.0167719
789.129	0.0167987
789.207	0.0168681
789.285	0.0169158
789.363	0.0168421
789.442	0.0169016
789.520	0.0168962
789.598	0.0169559
789.676	0.0170124
789.754	0.0171045
789.832	0.0170406
789.910	0.0172553
789.988	0.0171519
790.067	0.0172907
790.145	0.0172757
790.223	0.0173516
790.301	0.0173568
790.379	0.0173518
790.457	0.0174249
790.535	0.0174023
790.613	0.0174667
790.692	0.0174811
790.770	0.0175482
790.848	0.0175757
790.926	0.0174669
791.004	0.0175002
791.082	0.0173898
791.160	0.0173450
791.238	0.0171862
791.317	0.0172546
791.395	0.0172134
791.473	0.0171970
791.551	0.0171485
791.629	0.0170522
791.707	0.0169543
791.785	0.0169344
791.863	0.0168686
791.942	0.0167286
792.020	0.0167107
792.098	0.0166637
792.176	0.0166332
792.254	0.0166357
792.332	0.0166719
792.410	0.0164931
792.488	0.0165417
792.567	0.0166126
792.645	0.0166524
792.723	0.0166693
792.801	0.0168559
792.879	0.0165772
792.957	0.0165595
793.035	0.0168393
793.113	0.0168680
793.192	0.0169173
793.270	0.0169178
793.348	0.0168980
793.426	0.0169294
793.504	0.0170789
793.582	0.0170256
793.660	0.0169679
793.738	0.0170379
793.817	0.0172250
793.895	0.0171040
793.973	0.0171283
794.051	0.0171642
794.129	0.0173029
794.207	0.0173235
794.285	0.0173724
794.363	0.0172839
794.442	0.0173902
794.520	0.0173560
794.598	0.0174522
794.676	0.0176110
794.754	0.0175222
794.832	0.0173438
794.910	0.0174756
794.988	0.0175047
795.067	0.0173840
795.145	0.0172209
795.223	0.0170957
795.301	0.0171163
795.379	0.0170340
795.457	0.0170058
795.535	0.0168729
795.613	0.0167265
795.692	0.0166792
795.770	0.0166457
795.848	0.0167116
795.926	0.0166832
796.004	0.0167661
796.082	0.0166158
796.160	0.0166371
796.238	0.0168638
796.317	0.0167579
796.395	0.0168294
796.473	0.0168526
796.551	0.0170129
796.629	0.0168975
796.707	0.0168980
796.785	0.0170924
796.863	0.0171952
796.942	0.0170813
797.020	0.0171886
797.098	0.0173785
797.176	0.0171846
797.254	0.0171413
797.332	0.0171656
797.410	0.0172093
797.488	0.0170872
797.567	0.0171231
797.645	0.0171251
797.723	0.0171398
797.801	0.0170862
797.879	0.0170605
797.957	0.0169588
798.035	0.0168800
798.113	0.0168163
798.192	0.0168631
798.270	0.0168889
798.348	0.0169028
798.426	0.0169142
798.504	0.0167882
798.582	0.0168604
798.660	0.0168930
798.738	0.0169150
798.817	0.0168208
798.895	0.0170900
798.973	0.0171311
799.051	0.0171359
799.129	0.0171429
799.207	0.0170860
799.285	0.0171709
799.363	0.0172773
799.442	0.0171687
799.520	0.0172294
799.598	0.0171662
799.676	0.0170801
799.754	0.0170685
799.832	0.0169281
799.910	0.0170016
799.988	0.0168786
800.067	0.0168875
800.145	0.0168992
800.223	0.0166704
800.301	0.0165556
800.379	0.0166261
800.457	0.0166277
800.535	0.0165983
800.613	0.0164900
800.692	0.0165307
800.770	0.0165004
800.848	0.0166483
800.926	0.0166335
801.004	0.0166068
801.082	0.0166513
801.160	0.0166679
801.238	0.0167461
801.317	0.0167967
801.395	0.0167989
801.473	0.0169036
801.551	0.0169547
801.629	0.0170908
801.707	0.0171681
801.785	0.0171848
801.863	0.0171236
801.942	0.0173415
802.020	0.0172991
802.098	0.0173141
802.176	0.0172881
802.254	0.0173972
802.332	0.0175488
802.410	0.0174127
802.488	0.0173699
802.567	0.0174000
802.645	0.0173991
802.723	0.0174596
802.801	0.0173479
802.879	0.0171829
802.957	0.0172011
803.035	0.0171831
803.113	0.0172977
803.192	0.0171316
803.270	0.0172085
803.348	0.0170932
803.426	0.0170031
803.504	0.0169772
803.582	0.0168974
803.660	0.0168445
803.738	0.0168369
803.817	0.0166917
803.895	0.0169235
803.973	0.0167707
804.051	0.0167454
804.129	0.0167564
804.207	0.0167235
804.285	0.0167302
804.363	0.0166959
804.442	0.0169124
804.520	0.0168851
804.598	0.0170022
804.676	0.0170456
804.754	0.0172766
804.832	0.0172075
804.910	0.0172389
804.988	0.0173231
805.067	0.0173798
805.145	0.0175085
805.223	0.0176286
805.301	0.0175937
805.379	0.0174823
805.457	0.0175279
805.535	0.0174443
805.613	0.0173998
805.692	0.0173827
805.770	0.0173484
805.848	0.0172216
805.926	0.0171412
806.004	0.0171330
806.082	0.0170429
806.160	0.0170696
806.238	0.0169922
806.317	0.0169214
806.395	0.0168884
806.473	0.0168301
806.551	0.0167825
806.629	0.0168272
806.707	0.0167889
806.785	0.0165712
806.863	0.0166257
806.942	0.0165333
807.020	0.0164223
807.098	0.0164346
807.176	0.0165438
807.254	0.0165316
807.332	0.0164108
807.410	0.0164454
807.488	0.0164705
807.567	0.0164787
807.645	0.0165002
807.723	0.0165376
807.801	0.0167272
807.879	0.0167799
807.957	0.0167030
808.035	0.0167674
808.113	0.0167519
808.192	0.0168622
808.270	0.0169756
808.348	0.0169908
808.426	0.0170860
808.504	0.0170687
808.582	0.0171254
808.660	0.0171040
808.738	0.0172619
808.817	0.0171398
808.895	0.0171787
808.973	0.0171294
809.051	0.0172998
809.129	0.0172652
809.207	0.0170757
809.285	0.0170747
809.363	0.0172290
809.442	0.0170551
809.520	0.0170714
809.598	0.0173025
809.676	0.0173370
809.754	0.0173840
809.832	0.0174134
809.910	0.0174445
809.988	0.0176152
810.067	0.0175046
810.145	0.0174223
810.223	0.0173899
810.301	0.0174842
810.379	0.0172900
810.457	0.0172229
810.535	0.0172485
810.613	0.0171528
810.692	0.0172256
810.770	0.0171749
810.848	0.0169730
810.926	0.0170677
811.004	0.0169495
811.082	0.0169503
811.160	0.0168128
811.238	0.0168169
811.317	0.0166508
811.395	0.0167913
811.473	0.0168249
811.551	0.0168650
811.629	0.0167844
811.707	0.0167969
811.785	0.0168073
811.863	0.0167505
811.942	0.0169667
812.020	0.0169172
812.098	0.0167950
812.176	0.0170549
812.254	0.0168764
812.332	0.0167580
812.410	0.0169242
812.488	0.0168440
812.567	0.0168108
812.645	0.0168326
812.723	0.0168288
812.801	0.0169351
812.879	0.0166710
812.957	0.0166852
813.035	0.0167661
813.113	0.0167094
813.192	0.0168244
813.270	0.0166795
813.348	0.0165749
813.426	0.0167078
813.504	0.0166982
813.582	0.0166705
813.660	0.0165655
813.738	0.0165872
813.817	0.0167264
813.895	0.0167350
813.973	0.0168422
814.051	0.0168221
814.129	0.0168243
814.207	0.0169049
814.285	0.0170268
814.363	0.0170332
814.442	0.0171880
814.520	0.0173226
814.598	0.0173022
814.676	0.0174132
814.754	0.0173299
814.832	0.0174940
814.910	0.0175507
814.988	0.0176781
815.067	0.0176069
815.145	0.0176049
815.223	0.0176997
815.301	0.0175738
815.379	0.0176859
815.457	0.0175568
815.535	0.0174875
815.613	0.0175477
815.692	0.0173730
815.770	0.0173775
815.848	0.0170752
815.926	0.0170806
816.004	0.0171442
816.082	0.0169692
816.160	0.0170053
816.238	0.0170068
816.317	0.0169354
816.395	0.0168275
816.473	0.0164757
816.551	0.0168238
816.629	0.0168378
816.707	0.0168144
816.785	0.0168044
816.863	0.0166483
816.942	0.0167503
817.020	0.0168755
817.098	0.0168176
817.176	0.0168819
817.254	0.0168230
817.332	0.0168771
817.410	0.0168935
817.488	0.0168449
817.567	0.0168265
817.645	0.0169357
817.723	0.0169096
817.801	0.0168632
817.879	0.0168787
817.957	0.0169691
818.035	0.0169401
818.113	0.0166940
818.192	0.0168359
818.270	0.0167968
818.348	0.0168574
818.426	0.0169314
818.504	0.0167330
818.582	0.0168964
818.660	0.0168522
818.738	0.0168729
818.817	0.0166985
818.895	0.0168707
818.973	0.0168585
819.051	0.0168097
819.129	0.0168104
819.207	0.0168918
819.285	0.0169995
819.363	0.0169975
819.442	0.0169557
819.520	0.0169732
819.598	0.0169576
819.676	0.0169843
819.754	0.0170933
819.832	0.0172257
819.910	0.0173339
819.988	0.0171851
820.067	0.0173631
820.145	0.0174683
820.223	0.0174128
820.301	0.0174583
820.379	0.0175027
820.457	0.0175986
820.535	0.0175288
820.613	0.0174283
820.692	0.0175281
820.770	0.0176210
820.848	0.0176888
820.926	0.0175603
821.004	0.0175172
821.082	0.0175700
821.160	0.0176682
821.238	0.0175163
821.317	0.0174510
821.395	0.0174477
821.473	0.0174823
821.551	0.0174019
821.629	0.0172501
821.707	0.0171810
821.785	0.0171558
821.863	0.0170438
821.942	0.0170052
822.020	0.0170602
822.098	0.0168955
822.176	0.0168160
822.254	0.0167426
822.332	0.0167062
822.410	0.0166088
822.488	0.0164835
822.567	0.0165286
822.645	0.0163908
822.723	0.0164088
822.801	0.0163602
822.879	0.0162379
822.957	0.0162626
823.035	0.0163638
823.113	0.0162111
823.192	0.0161578
823.270	0.0161564
823.348	0.0161646
823.426	0.0162212
823.504	0.0162529
823.582	0.0162639
823.660	0.0163567
823.738	0.0164712
823.817	0.0165742
823.895	0.0164760
823.973	0.0165336
824.051	0.0168584
824.129	0.0168364
824.207	0.0169040
824.285	0.0170185
824.363	0.0171037
824.442	0.0169022
824.520	0.0171901
824.598	0.0172702
824.676	0.0172929
824.754	0.0173998
824.832	0.0174054
824.910	0.0174003
824.988	0.0174999
825.067	0.0176454
825.145	0.0175062
825.223	0.0177573
825.301	0.0177277
825.379	0.0177567
825.457	0.0176884
825.535	0.0177315
825.613	0.0177592
825.692	0.0177407
825.770	0.0177848
825.848	0.0178379
825.926	0.0177608
826.004	0.0177107
826.082	0.0176417
826.160	0.0176039
826.238	0.0176508
826.317	0.0175111
826.395	0.0176788
826.473	0.0174508
826.551	0.0174380
826.629	0.0173739
826.707	0.0173844
826.785	0.0172803
826.863	0.0171540
826.942	0.0169936
827.020	0.0168747
827.098	0.0168315
827.176	0.0167597
827.254	0.0167563
827.332	0.0166235
827.410	0.0165053
827.488	0.0164493
827.567	0.0164436
827.645	0.0160718
827.723	0.0161132
827.801	0.0162364
827.879	0.0160885
827.957	0.0160223
828.035	0.0160396
828.113	0.0160973
828.192	0.0159381
828.270	0.0160738
828.348	0.0160604
828.426	0.0161147
828.504	0.0162279
828.582	0.0164930
828.660	0.0164840
828.738	0.0166456
828.817	0.0167608
828.895	0.0169456
828.973	0.0168962
829.051	0.0170338
829.129	0.0172366
829.207	0.0171756
829.285	0.0173660
829.363	0.0173375
829.442	0.0172516
829.520	0.0172438
829.598	0.0171931
829.676	0.0173012
829.754	0.0172238
829.832	0.0173535
829.910	0.0172419
829.988	0.0172872
830.067	0.0172332
830.145	0.0173309
830.223	0.0172542
830.301	0.0173591
830.379	0.0174985
830.457	0.0174470
830.535	0.0173654
830.613	0.0174600
830.692	0.0175179
830.770	0.0175639
830.848	0.0174892
830.926	0.0173074
831.004	0.0174836
831.082	0.0173798
831.160	0.0174493
831.238	0.0172838
831.317	0.0172170
831.395	0.0171488
831.473	0.0172015
831.551	0.0171883
831.629	0.0170355
831.707	0.0170708
831.785	0.0170351
831.863	0.0168998
831.942	0.0168440
832.020	0.0167400
832.098	0.0166763
832.176	0.0167992
832.254	0.0167328
832.332	0.0168060
832.410	0.0166554
832.488	0.0167239
832.567	0.0166161
832.645	0.0167142
832.723	0.0166544
832.801	0.0168842
832.879	0.0169582
832.957	0.0169359
833.035	0.0169457
833.113	0.0170071
833.192	0.0170188
833.270	0.0170904
833.348	0.0171004
833.426	0.0171725
833.504	0.0172205
833.582	0.0173285
833.660	0.0172626
833.738	0.0172405
833.817	0.0171962
833.895	0.0172618
833.973	0.0172826
834.051	0.0171678
834.129	0.0173358
834.207	0.0171792
834.285	0.0173067
834.363	0.0171896
834.442	0.0170554
834.520	0.0170173
834.598	0.0170834
834.676	0.0169279
834.754	0.0168114
834.832	0.0168536
834.910	0.0169578
834.988	0.0168208
835.067	0.0168372
835.145	0.0167738
835.223	0.0164944
835.301	0.0166042
835.379	0.0165843
835.457	0.0165971
835.535	0.0165279
835.613	0.0164977
835.692	0.0164377
835.770	0.0165793
835.848	0.0166177
835.926	0.0164376
836.004	0.0166416
836.082	0.0166351
836.160	0.0166032
836.238	0.0168901
836.317	0.0168768
836.395	0.0169395
836.473	0.0170762
836.551	0.0170499
836.629	0.0171973
836.707	0.0172691
836.785	0.0173286
836.863	0.0172095
836.942	0.0173484
837.020	0.0174193
837.098	0.0173494
837.176	0.0174110
837.254	0.0173814
837.332	0.0175655
837.410	0.0174934
837.488	0.0174817
837.567	0.0174057
837.645	0.0173623
837.723	0.0171956
837.801	0.0173016
837.879	0.0171570
837.957	0.0171506
838.035	0.0171103
838.113	0.0171156
838.192	0.0172443
838.270	0.0172180
838.348	0.0171977
838.426	0.0171658
838.504	0.0171028
838.582	0.0171490
838.660	0.0172394
838.738	0.0173950
838.817	0.0173301
838.895	0.0173615
838.973	0.0172894
839.051	0.0174422
839.129	0.0173166
839.207	0.0174509
839.285	0.0174231
839.363	0.0172839
839.442	0.0172890
839.520	0.0173530
839.598	0.0171703
839.676	0.0171704
839.754	0.0170901
839.832	0.0168892
839.910	0.0168501
839.988	0.0169534
840.067	0.0166936
840.145	0.0167075
840.223	0.0166819
840.301	0.0166363
840.379	0.0165737
840.457	0.0164642
840.535	0.0163937
840.613	0.0165307
840.692	0.0165379
840.770	0.0164750
840.848	0.0165363
840.926	0.0166727
841.004	0.0165696
841.082	0.0166021
841.160	0.0167596
841.238	0.0167475
841.317	0.0166624
841.395	0.0168130
841.473	0.0168758
841.551	0.0170413
841.629	0.0169524
841.707	0.0170250
841.785	0.0170426
841.863	0.0170146
841.942	0.0169946
842.020	0.0171738
842.098	0.0171469
842.176	0.0170458
842.254	0.0172205
842.332	0.0172066
842.410	0.0171463
842.488	0.0171567
842.567	0.0171173
842.645	0.0172253
842.723	0.0171739
842.801	0.0172645
842.879	0.0170956
842.957	0.0170712
843.035	0.0172340
843.113	0.0171867
843.192	0.0171877
843.270	0.0171233
843.348	0.0172249
843.426	0.0170448
843.504	0.0169903
843.582	0.0171924
843.660	0.0172016
843.738	0.0170480
843.817	0.0171231
843.895	0.0172176
843.973	0.0172248
844.051	0.0172241
844.129	0.0173448
844.207	0.0171828
844.285	0.0171408
844.363	0.0172192
844.442	0.0172164
844.520	0.0172631
844.598	0.0171740
844.676	0.0172616
844.754	0.0174349
844.832	0.0174014
844.910	0.0172894
844.988	0.0171842
845.067	0.0171946
845.145	0.0174165
845.223	0.0173358
845.301	0.0172720
845.379	0.0172555
845.457	0.0172704
845.535	0.0172192
845.613	0.0171867
845.692	0.0172363
845.770	0.0171163
845.848	0.0170499
845.926	0.0170248
846.004	0.0170555
846.082	0.0169970
846.160	0.0170274
846.238	0.0168600
846.317	0.0167813
846.395	0.0170345
846.473	0.0169141
846.551	0.0168378
846.629	0.0170239
846.707	0.0168371
846.785	0.0168186
846.863	0.0168430
846.942	0.0167912
847.020	0.0167017
847.098	0.0167679
847.176	0.0166676
847.254	0.0166233
847.332	0.0166953
847.410	0.0165833
847.488	0.0165970
847.567	0.0166331
847.645	0.0167191
847.723	0.0165845
847.801	0.0165933
847.879	0.0166199
847.957	0.0166056
848.035	0.0166407
848.113	0.0165308
848.192	0.0166962
848.270	0.0168420
848.348	0.0168047
848.426	0.0167739
848.504	0.0167798
848.582	0.0167653
848.660	0.0167328
848.738	0.0168243
848.817	0.0169833
848.895	0.0168154
848.973	0.0168046
849.051	0.0170821
849.129	0.0169158
849.207	0.0170142
849.285	0.0169923
849.363	0.0170913
849.442	0.0170191
849.520	0.0170583
849.598	0.0173419
849.676	0.0174346
849.754	0.0173681
849.832	0.0173776
849.910	0.0175253
849.988	0.0174580
850.067	0.0174149
850.145	0.0175333
850.223	0.0174968
850.301	0.0175642
850.379	0.0174586
850.457	0.0174477
850.535	0.0174792
850.613	0.0173716
850.692	0.0173763
850.770	0.0173267
850.848	0.0173042
850.926	0.0174310
851.004	0.0174010
851.082	0.0172808
851.160	0.0172121
851.238	0.0173782
851.317	0.0174712
851.395	0.0172520
851.473	0.0171956
851.551	0.0174123
851.629	0.0174186
851.707	0.0173707
851.785	0.0173362
851.863	0.0173170
851.942	0.0173566
852.020	0.0174595
852.098	0.0172469
852.176	0.0172041
852.254	0.0172165
852.332	0.0170538
852.410	0.0170084
852.488	0.0170034
852.567	0.0170072
852.645	0.0167960
852.723	0.0168536
852.801	0.0167429
852.879	0.0166042
852.957	0.0167200
853.035	0.0165542
853.113	0.0165800
853.192	0.0164408
853.270	0.0164333
853.348	0.0164732
853.426	0.0163378
853.504	0.0163608
853.582	0.0162145
853.660	0.0163967
853.738	0.0162840
853.817	0.0163179
853.895	0.0162817
853.973	0.0163446
854.051	0.0162442
854.129	0.0164574
854.207	0.0165888
854.285	0.0165675
854.363	0.0166833
854.442	0.0165361
854.520	0.0166658
854.598	0.0166693
854.676	0.0169497
854.754	0.0167973
854.832	0.0168349
854.910	0.0168858
854.988	0.0168566
855.067	0.0169662
855.145	0.0171320
855.223	0.0170438
855.301	0.0170452
855.379	0.0171269
855.457	0.0171159
855.535	0.0173638
855.613	0.0173899
855.692	0.0174582
855.770	0.0175109
855.848	0.0176556
855.926	0.0175738
856.004	0.0176210
856.082	0.0177071
856.160	0.0177083
856.238	0.0176582
856.317	0.0177080
856.395	0.0177601
856.473	0.0177186
856.551	0.0177087
856.629	0.0177107
856.707	0.0177200
856.785	0.0177567
856.863	0.0176572
856.942	0.0175554
857.020	0.0175198
857.098	0.0174275
857.176	0.0174041
857.254	0.0173461
857.332	0.0172102
857.410	0.0172267
857.488	0.0171844
857.567	0.0169971
857.645	0.0167631
857.723	0.0169156
857.801	0.0169160
857.879	0.0168343
857.957	0.0167839
858.035	0.0168262
858.113	0.0167139
858.192	0.0168218
858.270	0.0166512
858.348	0.0166994
858.426	0.0167842
858.504	0.0167470
858.582	0.0166810
858.660	0.0166628
858.738	0.0166466
858.817	0.0167061
858.895	0.0167898
858.973	0.0167477
859.051	0.0167042
859.129	0.0166974
859.207	0.0166000
859.285	0.0166411
859.363	0.0167100
859.442	0.0166359
859.520	0.0165580
859.598	0.0165792
859.676	0.0165295
859.754	0.0164219
859.832	0.0165442
859.910	0.0165179
859.988	0.0166928
860.067	0.0166440
860.145	0.0167164
860.223	0.0167036
860.301	0.0167779
860.379	0.0168237
860.457	0.0169217
860.535	0.0168110
860.613	0.0168935
860.692	0.0168527
860.770	0.0168945
860.848	0.0169289
860.926	0.0170287
861.004	0.0170607
861.082	0.0171188
861.160	0.0169691
861.238	0.0170918
861.317	0.0171288
861.395	0.0171834
861.473	0.0172750
861.551	0.0174221
861.629	0.0173714
861.707	0.0173589
861.785	0.0173759
861.863	0.0175316
861.942	0.0175091
862.020	0.0174982
862.098	0.0175017
862.176	0.0172935
862.254	0.0173479
862.332	0.0173775
862.410	0.0171743
862.488	0.0171706
862.567	0.0172073
862.645	0.0171993
862.723	0.0170347
862.801	0.0171854
862.879	0.0170399
862.957	0.0169668
863.035	0.0171819
863.113	0.0170330
863.192	0.0171154
863.270	0.0171286
863.348	0.0171472
863.426	0.0171061
863.504	0.0173620
863.582	0.0171982
863.660	0.0172407
863.738	0.0173008
863.817	0.0173448
863.895	0.0173183
863.973	0.0173486
864.051	0.0171137
864.129	0.0172530
864.207	0.0171101
864.285	0.0171162
864.363	0.0170514
864.442	0.0170192
864.520	0.0168983
864.598	0.0169064
864.676	0.0169248
864.754	0.0168484
864.832	0.0169543
864.910	0.0170413
864.988	0.0170445
865.067	0.0167930
865.145	0.0168111
865.223	0.0169660
865.301	0.0169666
865.379	0.0170222
865.457	0.0168974
865.535	0.0168163
865.613	0.0170163
865.692	0.0168501
865.770	0.0169779
865.848	0.0169812
865.926	0.0169292
866.004	0.0168496
866.082	0.0169469
866.160	0.0168244
866.238	0.0169909
866.317	0.0169441
866.395	0.0168888
866.473	0.0167747
866.551	0.0168877
866.629	0.0168484
866.707	0.0169225
866.785	0.0168617
866.863	0.0168726
866.942	0.0168876
867.020	0.0171367
867.098	0.0169495
867.176	0.0168350
867.254	0.0170090
867.332	0.0171304
867.410	0.0169996
867.488	0.0170191
867.567	0.0170646
867.645	0.0169748
867.723	0.0169685
867.801	0.0169948
867.879	0.0169967
867.957	0.0170171
868.035	0.0168427
868.113	0.0169448
868.192	0.0170236
868.270	0.0170423
868.348	0.0170728
868.426	0.0170499
868.504	0.0170379
868.582	0.0171358
868.660	0.0171323
868.738	0.0170653
868.817	0.0172464
868.895	0.0172709
868.973	0.0171205
869.051	0.0172359
869.129	0.0171295
869.207	0.0172029
869.285	0.0171968
869.363	0.0171602
869.442	0.0172076
869.520	0.0171391
869.598	0.0171257
869.676	0.0171689
869.754	0.0172200
869.832	0.0172662
869.910	0.0172270
869.988	0.0172707
870.067	0.0173004
870.145	0.0173165
870.223	0.0172009
870.301	0.0171468
870.379	0.0171622
870.457	0.0171223
870.535	0.0172161
870.613	0.0171314
870.692	0.0170922
870.770	0.0169760
870.848	0.0170075
870.926	0.0170465
871.004	0.0171027
871.082	0.0170135
871.160	0.0169077
871.238	0.0171029
871.317	0.0170293
871.395	0.0170096
871.473	0.0170460
871.551	0.0169111
871.629	0.0169080
871.707	0.0169028
871.785	0.0168080
871.863	0.0167822
871.942	0.0167090
872.020	0.0166790
872.098	0.0166529
872.176	0.0166238
872.254	0.0166456
872.332	0.0166460
872.410	0.0167075
872.488	0.0167161
872.567	0.0167632
872.645	0.0168159
872.723	0.0169511
872.801	0.0167467
872.879	0.0167424
872.957	0.0169091
873.035	0.0170168
873.113	0.0168857
873.192	0.0170209
873.270	0.0171523
873.348	0.0170740
873.426	0.0170531
873.504	0.0171183
873.582	0.0170802
873.660	0.0170662
873.738	0.0170995
873.817	0.0171526
873.895	0.0171766
873.973	0.0169765
874.051	0.0170004
874.129	0.0169586
874.207	0.0171140
874.285	0.0170632
874.363	0.0170271
874.442	0.0171973
874.520	0.0171529
874.598	0.0172290
874.676	0.0171422
874.754	0.0171588
874.832	0.0172811
874.910	0.0172843
874.988	0.0172136
875.067	0.0173895
875.145	0.0172475
875.223	0.0173035
875.301	0.0170858
875.379	0.0171471
875.457	0.0171500
875.535	0.0170867
875.613	0.0172574
875.692	0.0170222
875.770	0.0169613
875.848	0.0169814
875.926	0.0170490
876.004	0.0170258
876.082	0.0169780
876.160	0.0170427
876.238	0.0169269
876.317	0.0168995
876.395	0.0169434
876.473	0.0168291
876.551	0.0166949
876.629	0.0166126
876.707	0.0166600
876.785	0.0167416
876.863	0.0167645
876.942	0.0167219
877.020	0.0166777
877.098	0.0167462
877.176	0.0169790
877.254	0.0172884
877.332	0.0172136
877.410	0.0173251
877.488	0.0173086
877.567	0.0172484
877.645	0.0173612
877.723	0.0175112
877.801	0.0174429
877.879	0.0173499
877.957	0.0173514
878.035	0.0171313
878.113	0.0169402
878.192	0.0167872
878.270	0.0166793
878.348	0.0165823
878.426	0.0163139
878.504	0.0163756
878.582	0.0163843
878.660	0.0165412
878.738	0.0165678
878.817	0.0166055
878.895	0.0167635
878.973	0.0166190
879.051	0.0169887
879.129	0.0171690
879.207	0.0173683
879.285	0.0173473
879.363	0.0174454
879.442	0.0173617
879.520	0.0176409
879.598	0.0174138
879.676	0.0176166
879.754	0.0176207
879.832	0.0175669
879.910	0.0174975
879.988	0.0174234
880.067	0.0172064
880.145	0.0168870
880.223	0.0170257
880.301	0.0168916
880.379	0.0168221
880.457	0.0167701
880.535	0.0167156
880.613	0.0166199
880.692	0.0164688
880.770	0.0165638
880.848	0.0165465
880.926	0.0164399
881.004	0.0165446
881.082	0.0166112
881.160	0.0167654
881.238	0.0167651
881.317	0.0166434
881.395	0.0167750
881.473	0.0168016
881.551	0.0168821
881.629	0.0169015
881.707	0.0169308
881.785	0.0171521
881.863	0.0171198
881.942	0.0173044
882.020	0.0172315
882.098	0.0174220
882.176	0.0175325
882.254	0.0175813
882.332	0.0176891
882.410	0.0176114
882.488	0.0177102
882.567	0.0175487
882.645	0.0177233
882.723	0.0176656
882.801	0.0175269
882.879	0.0174525
882.957	0.0173064
883.035	0.0170899
883.113	0.0171420
883.192	0.0169529
883.270	0.0169336
883.348	0.0166122
883.426	0.0166321
883.504	0.0165190
883.582	0.0164307
883.660	0.0164626
883.738	0.0164017
883.817	0.0165035
883.895	0.0164184
883.973	0.0164302
884.051	0.0164545
884.129	0.0165472
884.207	0.0167290
884.285	0.0168475
884.363	0.0170845
884.442	0.0169920
884.520	0.0172783
884.598	0.0172924
884.676	0.0174158
884.754	0.0173224
884.832	0.0175838
884.910	0.0174595
884.988	0.0175801
885.067	0.0175942
885.145	0.0176129
885.223	0.0174440
885.301	0.0174572
885.379	0.0174245
885.457	0.0173032
885.535	0.0172657
885.613	0.0172356
885.692	0.0171075
885.770	0.0170382
885.848	0.0169712
885.926	0.0170071
886.004	0.0168421
886.082	0.0168810
886.160	0.0167477
886.238	0.0166318
886.317	0.0166087
886.395	0.0166741
886.473	0.0165688
886.551	0.0165695
886.629	0.0165755
886.707	0.0166533
886.785	0.0166555
886.863	0.0165643
886.942	0.0166478
887.020	0.0167376
887.098	0.0168575
887.176	0.0169466
887.254	0.0169107
887.332	0.0169327
887.410	0.0170122
887.488	0.0172676
887.567	0.0170810
887.645	0.0169985
887.723	0.0172069
887.801	0.0171575
887.879	0.0172716
887.957	0.0173506
888.035	0.0173310
888.113	0.0175008
888.192	0.0174404
888.270	0.0172517
888.348	0.0173209
888.426	0.0173557
888.504	0.0173277
888.582	0.0172573
888.660	0.0173753
888.738	0.0171138
888.817	0.0170264
888.895	0.0171569
888.973	0.0170003
889.051	0.0170397
889.129	0.0169500
889.207	0.0167975
889.285	0.0167962
889.363	0.0167455
889.442	0.0165913
889.520	0.0166412
889.598	0.0167387
889.676	0.0168274
889.754	0.0165438
889.832	0.0167662
889.910	0.0167751
889.988	0.0166753
890.067	0.0167424
890.145	0.0168613
890.223	0.0169271
890.301	0.0169967
890.379	0.0170586
890.457	0.0171253
890.535	0.0171193
890.613	0.0170270
890.692	0.0172103
890.770	0.0171700
890.848	0.0170302
890.926	0.0170907
891.004	0.0170783
891.082	0.0170107
891.160	0.0172865
891.238	0.0170566
891.317	0.0170179
891.395	0.0168468
891.473	0.0169032
891.551	0.0169272
891.629	0.0169563
891.707	0.0167728
891.785	0.0168773
891.863	0.0167096
891.942	0.0168882
892.020	0.0168327
892.098	0.0166603
892.176	0.0167462
892.254	0.0167991
892.332	0.0168188
892.410	0.0167989
892.488	0.0168555
892.567	0.0169680
892.645	0.0169251
892.723	0.0171117
892.801	0.0170551
892.879	0.0171754
892.957	0.0171056
893.035	0.0169828
893.113	0.0171331
893.192	0.0172710
893.270	0.0171921
893.348	0.0172185
893.426	0.0173532
893.504	0.0172151
893.582	0.0171805
893.660	0.0172039
893.738	0.0170663
893.817	0.0169951
893.895	0.0170792
893.973	0.0172340
894.051	0.0170442
894.129	0.0171301
894.207	0.0170893
894.285	0.0167474
894.363	0.0169083
894.442	0.0169769
894.520	0.0170007
894.598	0.0168916
894.676	0.0169122
894.754	0.0168433
894.832	0.0167923
894.910	0.0167047
894.988	0.0167757
895.067	0.0168073
895.145	0.0168528
895.223	0.0168389
895.301	0.0168269
895.379	0.0168092
895.457	0.0168809
895.535	0.0170430
895.613	0.0169050
895.692	0.0169202
895.770	0.0172134
895.848	0.0170035
895.926	0.0169734
896.004	0.0171664
896.082	0.0171492
896.160	0.0170696
896.238	0.0170582
896.317	0.0170258
896.395	0.0169636
896.473	0.0170293
896.551	0.0169467
896.629	0.0169386
896.707	0.0169151
896.785	0.0168617
896.863	0.0167813
896.942	0.0169695
897.020	0.0170125
897.098	0.0168675
897.176	0.0168472
897.254	0.0169851
897.332	0.0169852
897.410	0.0168148
897.488	0.0171385
897.567	0.0171162
897.645	0.0170896
897.723	0.0170645
897.801	0.0170972
897.879	0.0170596
897.957	0.0170609
898.035	0.0169253
898.113	0.0169971
898.192	0.0170055
898.270	0.0171094
898.348	0.0170629
898.426	0.0168985
898.504	0.0167785
898.582	0.0168416
898.660	0.0168323
898.738	0.0168685
898.817	0.0169404
898.895	0.0169707
898.973	0.0169442
899.051	0.0169363
899.129	0.0169962
899.207	0.0171365
899.285	0.0172047
899.363	0.0171191
899.442	0.0170661
899.520	0.0170308
899.598	0.0171841
899.676	0.0171764
899.754	0.0171880
899.832	0.0171780
899.910	0.0170623
899.988	0.0172250
900.067	0.0172637
900.145	0.0171658
900.223	0.0170877
900.301	0.0172968
900.379	0.0170994
900.457	0.0169600
900.535	0.0169825
900.613	0.0170811
900.692	0.0168785
900.770	0.0169814
900.848	0.0170155
900.926	0.0169685
901.004	0.0167680
901.082	0.0165491
901.160	0.0166422
901.238	0.0167221
901.317	0.0167786
901.395	0.0166059
901.473	0.0167037
901.551	0.0166760
901.629	0.0168607
901.707	0.0167888
901.785	0.0167153
901.863	0.0169264
901.942	0.0168758
902.020	0.0167544
902.098	0.0170300
902.176	0.0168851
902.254	0.0170024
902.332	0.0169602
902.410	0.0169923
902.488	0.0169733
902.567	0.0171404
902.645	0.0171195
902.723	0.0171732
902.801	0.0171581
902.879	0.0171601
902.957	0.0170081
903.035	0.0170296
903.113	0.0171357
903.192	0.0172085
903.270	0.0172394
903.348	0.0172478
903.426	0.0172434
903.504	0.0171784
903.582	0.0171778
903.660	0.0172881
903.738	0.0172765
903.817	0.0172872
903.895	0.0172773
903.973	0.0172265
904.051	0.0172659
904.129	0.0172511
904.207	0.0172800
904.285	0.0171752
904.363	0.0170379
904.442	0.0171265
904.520	0.0169864
904.598	0.0168820
904.676	0.0170278
904.754	0.0168092
904.832	0.0168559
904.910	0.0169402
904.988	0.0167795
905.067	0.0166260
905.145	0.0166021
905.223	0.0166161
905.301	0.0167428
905.379	0.0168074
905.457	0.0167677
905.535	0.0166328
905.613	0.0166474
905.692	0.0167539
905.770	0.0168298
905.848	0.0167164
905.926	0.0167683
906.004	0.0167056
906.082	0.0169121
906.160	0.0168688
906.238	0.0170839
906.317	0.0169666
906.395	0.0171355
906.473	0.0169368
906.551	0.0171720
906.629	0.0171832
906.707	0.0171567
906.785	0.0172539
906.863	0.0170973
906.942	0.0172215
907.020	0.0171856
907.098	0.0172509
907.176	0.0170604
907.254	0.0171902
907.332	0.0170808
907.410	0.0172899
907.488	0.0171336
907.567	0.0171709
907.645	0.0172276
907.723	0.0172953
907.801	0.0172005
907.879	0.0171478
907.957	0.0171559
908.035	0.0172027
908.113	0.0171971
908.192	0.0172228
908.270	0.0171904
908.348	0.0172553
908.426	0.0172738
908.504	0.0172364
908.582	0.0169530
908.660	0.0170739
908.738	0.0169817
908.817	0.0168928
908.895	0.0169026
908.973	0.0169271
909.051	0.0168819
909.129	0.0167741
909.207	0.0166460
909.285	0.0166762
909.363	0.0167120
909.442	0.0167031
909.520	0.0167725
909.598	0.0168496
909.676	0.0168714
909.754	0.0168345
909.832	0.0168018
909.910	0.0169263
909.988	0.0169273
910.067	0.0169508
910.145	0.0169739
910.223	0.0169722
910.301	0.0170326
910.379	0.0170122
910.457	0.0168955
910.535	0.0168938
910.613	0.0169822
910.692	0.0170191
910.770	0.0169830
910.848	0.0170318
910.926	0.0169653
911.004	0.0169038
911.082	0.0169305
911.160	0.0170562
911.238	0.0169667
911.317	0.0170414
911.395	0.0171298
911.473	0.0169995
911.551	0.0167757
911.629	0.0170502
911.707	0.0170026
911.785	0.0170306
911.863	0.0170371
911.942	0.0169633
912.020	0.0171600
912.098	0.0171151
912.176	0.0171635
912.254	0.0169849
912.332	0.0171716
912.410	0.0172029
912.488	0.0171497
912.567	0.0169872
912.645	0.0170193
912.723	0.0170952
912.801	0.0171865
912.879	0.0171021
912.957	0.0171796
913.035	0.0170785
913.113	0.0170541
913.192	0.0169852
913.270	0.0170725
913.348	0.0169333
913.426	0.0169704
913.504	0.0168892
913.582	0.0170303
913.660	0.0170170
913.738	0.0168256
913.817	0.0168886
913.895	0.0169666
913.973	0.0169545
914.051	0.0170151
914.129	0.0170191
914.207	0.0170086
914.285	0.0169260
914.363	0.0170309
914.442	0.0170213
914.520	0.0170786
914.598	0.0170161
914.676	0.0169769
914.754	0.0170200
914.832	0.0170284
914.910	0.0169067
914.988	0.0171564
915.067	0.0170453
915.145	0.0169724
915.223	0.0169351
915.301	0.0169717
915.379	0.0170335
915.457	0.0170419
915.535	0.0169153
915.613	0.0170423
915.692	0.0170882
915.770	0.0170742
915.848	0.0170332
915.926	0.0171375
916.004	0.0170668
916.082	0.0170346
916.160	0.0169864
916.238	0.0170139
916.317	0.0171391
916.395	0.0171987
916.473	0.0171489
916.551	0.0172337
916.629	0.0170736
916.707	0.0171317
916.785	0.0171561
916.863	0.0170403
916.942	0.0171462
917.020	0.0170224
917.098	0.0169603
917.176	0.0170766
917.254	0.0169777
917.332	0.0169074
917.410	0.0169164
917.488	0.0169701
917.567	0.0170869
917.645	0.0169044
917.723	0.0170826
917.801	0.0169873
917.879	0.0170361
917.957	0.0169421
918.035	0.0170489
918.113	0.0168479
918.192	0.0169158
918.270	0.0171278
918.348	0.0170295
918.426	0.0170069
918.504	0.0169961
918.582	0.0169458
918.660	0.0169880
918.738	0.0170046
918.817	0.0169579
918.895	0.0169723
918.973	0.0171021
919.051	0.0168791
919.129	0.0170757
919.207	0.0170231
919.285	0.0171577
919.363	0.0170028
919.442	0.0169549
919.520	0.0169682
919.598	0.0171474
919.676	0.0170114
919.754	0.0171276
919.832	0.0171081
919.910	0.0170675
