05/24/2022	20:06:58	Ver.	4.1	UNKNOWN
Optical Delay	599.988409	Delta X		0.078125	Sweeps	1	Scan Rate	0/0
Coordinates	Axis 1	NaN	Axis 2	NaN	Axis 3	NaN	Axis 4	NaN	Axis 5	NaN	Axis 6	0.000000
TX Power	0.000000	RX Power	0.000000

599.988	0.0173388
600.067	0.0173078
600.145	0.0172985
600.223	0.0173054
600.301	0.0174081
600.379	0.0172868
600.457	0.0172874
600.535	0.0173499
600.613	0.0172676
600.692	0.0173354
600.770	0.0174164
600.848	0.0172968
600.926	0.0172140
601.004	0.0173501
601.082	0.0173931
601.160	0.0172437
601.238	0.0172993
601.317	0.0173486
601.395	0.0172686
601.473	0.0173888
601.551	0.0173731
601.629	0.0173665
601.707	0.0173924
601.785	0.0174574
601.863	0.0172633
601.942	0.0173550
602.020	0.0172647
602.098	0.0172239
602.176	0.0173576
602.254	0.0173840
602.332	0.0172230
602.410	0.0172443
602.488	0.0173199
602.567	0.0172714
602.645	0.0172601
602.723	0.0173711
602.801	0.0175311
602.879	0.0174296
602.957	0.0172696
603.035	0.0173013
603.113	0.0173124
603.192	0.0173315
603.270	0.0174043
603.348	0.0172475
603.426	0.0172060
603.504	0.0172750
603.582	0.0172615
603.660	0.0174169
603.738	0.0174292
603.817	0.0173331
603.895	0.0173161
603.973	0.0173034
604.051	0.0173698
604.129	0.0173487
604.207	0.0173013
604.285	0.0173096
604.363	0.0173138
604.442	0.0173434
604.520	0.0172736
604.598	0.0172245
604.676	0.0173254
604.754	0.0173997
604.832	0.0173782
604.910	0.0173003
604.988	0.0171014
605.067	0.0173695
605.145	0.0175863
605.223	0.0173396
605.301	0.0172813
605.379	0.0173803
605.457	0.0174742
605.535	0.0173589
605.613	0.0172900
605.692	0.0173548
605.770	0.0174152
605.848	0.0173799
605.926	0.0171647
606.004	0.0173777
606.082	0.0174612
606.160	0.0173219
606.238	0.0172358
606.317	0.0172812
606.395	0.0173403
606.473	0.0174065
606.551	0.0172667
606.629	0.0173206
606.707	0.0174012
606.785	0.0173493
606.863	0.0172961
606.942	0.0175073
607.020	0.0173474
607.098	0.0172935
607.176	0.0174758
607.254	0.0175313
607.332	0.0172677
607.410	0.0173645
607.488	0.0174071
607.567	0.0173510
607.645	0.0173009
607.723	0.0173466
607.801	0.0173911
607.879	0.0172500
607.957	0.0174963
608.035	0.0173004
608.113	0.0171796
608.192	0.0172427
608.270	0.0173017
608.348	0.0172930
608.426	0.0172144
608.504	0.0173600
608.582	0.0172221
608.660	0.0173272
608.738	0.0174186
608.817	0.0173560
608.895	0.0173631
608.973	0.0172092
609.051	0.0172602
609.129	0.0174711
609.207	0.0173965
609.285	0.0174109
609.363	0.0173769
609.442	0.0173121
609.520	0.0173614
609.598	0.0173363
609.676	0.0171941
609.754	0.0173507
609.832	0.0172380
609.910	0.0173168
609.988	0.0171868
610.067	0.0172015
610.145	0.0172762
610.223	0.0172950
610.301	0.0172353
610.379	0.0172861
610.457	0.0173101
610.535	0.0173705
610.613	0.0173268
610.692	0.0173055
610.770	0.0173486
610.848	0.0171882
610.926	0.0172076
611.004	0.0172513
611.082	0.0173209
611.160	0.0174117
611.238	0.0173342
611.317	0.0174096
611.395	0.0173474
611.473	0.0172762
611.551	0.0172851
611.629	0.0173662
611.707	0.0173152
611.785	0.0173778
611.863	0.0173803
611.942	0.0172662
612.020	0.0172027
612.098	0.0174132
612.176	0.0173980
612.254	0.0174481
612.332	0.0172931
612.410	0.0173201
612.488	0.0171853
612.567	0.0172988
612.645	0.0173161
612.723	0.0172261
612.801	0.0173608
612.879	0.0172515
612.957	0.0172762
613.035	0.0173248
613.113	0.0173099
613.192	0.0172499
613.270	0.0173532
613.348	0.0173894
613.426	0.0172682
613.504	0.0173482
613.582	0.0173085
613.660	0.0173125
613.738	0.0172879
613.817	0.0173608
613.895	0.0175101
613.973	0.0173991
614.051	0.0172936
614.129	0.0173051
614.207	0.0173606
614.285	0.0173711
614.363	0.0173596
614.442	0.0172585
614.520	0.0173321
614.598	0.0172864
614.676	0.0173141
614.754	0.0173409
614.832	0.0172665
614.910	0.0172740
614.988	0.0172249
615.067	0.0173746
615.145	0.0174436
615.223	0.0172409
615.301	0.0172600
615.379	0.0173375
615.457	0.0173715
615.535	0.0173544
615.613	0.0173337
615.692	0.0173894
615.770	0.0173617
615.848	0.0173040
615.926	0.0173259
616.004	0.0172098
616.082	0.0173064
616.160	0.0172073
616.238	0.0172253
616.317	0.0173597
616.395	0.0173406
616.473	0.0173383
616.551	0.0172626
616.629	0.0171642
616.707	0.0172748
616.785	0.0173573
616.863	0.0174373
616.942	0.0172538
617.020	0.0173377
617.098	0.0173444
617.176	0.0172993
617.254	0.0172826
617.332	0.0173598
617.410	0.0172705
617.488	0.0173425
617.567	0.0172942
617.645	0.0173347
617.723	0.0174770
617.801	0.0172824
617.879	0.0172883
617.957	0.0174648
618.035	0.0172190
618.113	0.0174290
618.192	0.0173866
618.270	0.0173859
618.348	0.0172797
618.426	0.0172921
618.504	0.0173145
618.582	0.0172417
618.660	0.0173867
618.738	0.0173727
618.817	0.0174673
618.895	0.0173186
618.973	0.0173314
619.051	0.0173064
619.129	0.0173406
619.207	0.0173175
619.285	0.0173144
619.363	0.0173165
619.442	0.0173536
619.520	0.0174322
619.598	0.0173029
619.676	0.0172774
619.754	0.0173338
619.832	0.0173583
619.910	0.0173154
619.988	0.0173218
620.067	0.0172895
620.145	0.0172916
620.223	0.0173128
620.301	0.0173335
620.379	0.0172755
620.457	0.0173912
620.535	0.0174004
620.613	0.0173933
620.692	0.0171271
620.770	0.0172974
620.848	0.0173930
620.926	0.0174639
621.004	0.0172520
621.082	0.0171980
621.160	0.0173100
621.238	0.0173508
621.317	0.0172240
621.395	0.0172456
621.473	0.0173513
621.551	0.0173830
621.629	0.0173557
621.707	0.0173746
621.785	0.0173138
621.863	0.0171419
621.942	0.0172993
622.020	0.0173660
622.098	0.0173608
622.176	0.0171573
622.254	0.0174193
622.332	0.0175105
622.410	0.0173679
622.488	0.0171935
622.567	0.0172852
622.645	0.0172958
622.723	0.0172693
622.801	0.0172547
622.879	0.0173394
622.957	0.0172662
623.035	0.0172169
623.113	0.0172535
623.192	0.0174173
623.270	0.0172768
623.348	0.0173192
623.426	0.0172700
623.504	0.0172713
623.582	0.0173724
623.660	0.0173960
623.738	0.0173499
623.817	0.0172820
623.895	0.0173255
623.973	0.0171934
624.051	0.0172667
624.129	0.0171327
624.207	0.0173527
624.285	0.0173892
624.363	0.0173095
624.442	0.0174206
624.520	0.0173688
624.598	0.0172969
624.676	0.0173584
624.754	0.0172547
624.832	0.0174305
624.910	0.0173036
624.988	0.0174592
625.067	0.0173576
625.145	0.0173837
625.223	0.0172740
625.301	0.0174700
625.379	0.0173165
625.457	0.0171729
625.535	0.0173415
625.613	0.0173654
625.692	0.0172726
625.770	0.0173266
625.848	0.0173052
625.926	0.0172302
626.004	0.0172874
626.082	0.0173449
626.160	0.0172743
626.238	0.0172101
626.317	0.0173071
626.395	0.0174155
626.473	0.0173061
626.551	0.0172746
626.629	0.0173114
626.707	0.0174197
626.785	0.0173521
626.863	0.0172939
626.942	0.0172214
627.020	0.0173438
627.098	0.0172791
627.176	0.0173570
627.254	0.0173325
627.332	0.0172948
627.410	0.0171233
627.488	0.0172604
627.567	0.0172677
627.645	0.0173432
627.723	0.0174464
627.801	0.0172400
627.879	0.0172599
627.957	0.0172274
628.035	0.0173791
628.113	0.0173826
628.192	0.0173838
628.270	0.0171726
628.348	0.0173344
628.426	0.0172579
628.504	0.0172388
628.582	0.0173592
628.660	0.0174319
628.738	0.0172229
628.817	0.0173653
628.895	0.0173311
628.973	0.0174195
629.051	0.0173527
629.129	0.0172782
629.207	0.0174760
629.285	0.0172785
629.363	0.0172713
629.442	0.0173862
629.520	0.0174024
629.598	0.0173157
629.676	0.0172169
629.754	0.0172447
629.832	0.0173251
629.910	0.0173345
629.988	0.0172640
630.067	0.0172966
630.145	0.0171978
630.223	0.0172893
630.301	0.0172544
630.379	0.0174207
630.457	0.0173517
630.535	0.0173785
630.613	0.0174140
630.692	0.0172985
630.770	0.0173306
630.848	0.0172047
630.926	0.0172348
631.004	0.0171594
631.082	0.0172929
631.160	0.0173787
631.238	0.0172321
631.317	0.0173579
631.395	0.0173702
631.473	0.0173132
631.551	0.0173480
631.629	0.0173312
631.707	0.0173220
631.785	0.0174065
631.863	0.0174258
631.942	0.0173533
632.020	0.0173525
632.098	0.0172884
632.176	0.0172585
632.254	0.0173363
632.332	0.0174059
632.410	0.0173402
632.488	0.0174463
632.567	0.0173091
632.645	0.0173859
632.723	0.0174238
632.801	0.0173782
632.879	0.0172469
632.957	0.0174052
633.035	0.0173907
633.113	0.0174063
633.192	0.0173784
633.270	0.0174519
633.348	0.0173994
633.426	0.0173051
633.504	0.0172653
633.582	0.0173739
633.660	0.0173355
633.738	0.0172973
633.817	0.0172714
633.895	0.0175358
633.973	0.0173135
634.051	0.0172663
634.129	0.0173282
634.207	0.0173025
634.285	0.0173302
634.363	0.0173145
634.442	0.0172419
634.520	0.0174518
634.598	0.0173531
634.676	0.0173542
634.754	0.0173196
634.832	0.0173878
634.910	0.0172205
634.988	0.0173589
635.067	0.0174305
635.145	0.0174074
635.223	0.0173512
635.301	0.0173125
635.379	0.0173888
635.457	0.0173147
635.535	0.0173136
635.613	0.0174493
635.692	0.0174315
635.770	0.0173618
635.848	0.0173757
635.926	0.0173141
636.004	0.0173158
636.082	0.0173866
636.160	0.0174793
636.238	0.0173125
636.317	0.0173051
636.395	0.0174727
636.473	0.0172628
636.551	0.0173363
636.629	0.0173639
636.707	0.0174404
636.785	0.0173511
636.863	0.0172374
636.942	0.0174528
637.020	0.0172751
637.098	0.0173129
637.176	0.0173708
637.254	0.0174640
637.332	0.0174465
637.410	0.0173465
637.488	0.0173220
637.567	0.0172978
637.645	0.0173959
637.723	0.0173947
637.801	0.0172874
637.879	0.0173614
637.957	0.0173723
638.035	0.0172439
638.113	0.0171970
638.192	0.0174221
638.270	0.0174171
638.348	0.0172942
638.426	0.0172228
638.504	0.0173685
638.582	0.0172218
638.660	0.0171865
638.738	0.0173720
638.817	0.0173603
638.895	0.0173517
638.973	0.0173421
639.051	0.0173273
639.129	0.0174644
639.207	0.0173434
639.285	0.0172457
639.363	0.0174052
639.442	0.0174292
639.520	0.0173733
639.598	0.0172513
639.676	0.0171303
639.754	0.0172351
639.832	0.0172974
639.910	0.0174023
639.988	0.0173482
640.067	0.0173328
640.145	0.0172381
640.223	0.0172208
640.301	0.0172786
640.379	0.0173769
640.457	0.0172701
640.535	0.0173782
640.613	0.0171834
640.692	0.0172832
640.770	0.0172338
640.848	0.0173320
640.926	0.0174446
641.004	0.0173429
641.082	0.0173253
641.160	0.0174221
641.238	0.0173306
641.317	0.0173650
641.395	0.0173289
641.473	0.0173346
641.551	0.0173210
641.629	0.0174088
641.707	0.0173293
641.785	0.0173642
641.863	0.0174420
641.942	0.0174468
642.020	0.0173373
642.098	0.0173553
642.176	0.0171797
642.254	0.0172884
642.332	0.0173200
642.410	0.0173208
642.488	0.0173140
642.567	0.0172983
642.645	0.0173016
642.723	0.0172446
642.801	0.0174151
642.879	0.0172800
642.957	0.0172847
643.035	0.0174776
643.113	0.0174660
643.192	0.0173267
643.270	0.0173251
643.348	0.0173959
643.426	0.0173122
643.504	0.0173132
643.582	0.0173202
643.660	0.0173618
643.738	0.0173777
643.817	0.0173442
643.895	0.0173415
643.973	0.0174010
644.051	0.0174434
644.129	0.0173248
644.207	0.0173958
644.285	0.0173228
644.363	0.0172521
644.442	0.0173830
644.520	0.0172813
644.598	0.0172348
644.676	0.0174157
644.754	0.0173830
644.832	0.0174045
644.910	0.0172650
644.988	0.0173634
645.067	0.0173840
645.145	0.0174043
645.223	0.0172608
645.301	0.0173056
645.379	0.0173866
645.457	0.0172744
645.535	0.0174531
645.613	0.0171987
645.692	0.0174039
645.770	0.0174052
645.848	0.0172386
645.926	0.0173083
646.004	0.0174576
646.082	0.0174497
646.160	0.0174465
646.238	0.0174216
646.317	0.0173157
646.395	0.0172838
646.473	0.0173456
646.551	0.0171967
646.629	0.0172838
646.707	0.0174265
646.785	0.0173369
646.863	0.0173730
646.942	0.0173278
647.020	0.0173528
647.098	0.0173090
647.176	0.0173913
647.254	0.0173627
647.332	0.0172497
647.410	0.0173455
647.488	0.0174948
647.567	0.0173624
647.645	0.0172855
647.723	0.0173624
647.801	0.0173740
647.879	0.0174558
647.957	0.0173335
648.035	0.0173226
648.113	0.0173995
648.192	0.0173717
648.270	0.0174889
648.348	0.0174153
648.426	0.0172603
648.504	0.0173232
648.582	0.0174474
648.660	0.0174380
648.738	0.0174636
648.817	0.0172678
648.895	0.0173460
648.973	0.0174120
649.051	0.0173895
649.129	0.0172783
649.207	0.0172796
649.285	0.0173276
649.363	0.0174319
649.442	0.0172356
649.520	0.0173132
649.598	0.0173112
649.676	0.0172782
649.754	0.0173832
649.832	0.0173974
649.910	0.0172914
649.988	0.0174612
650.067	0.0174162
650.145	0.0173753
650.223	0.0173180
650.301	0.0173844
650.379	0.0172607
650.457	0.0173013
650.535	0.0173313
650.613	0.0174371
650.692	0.0174294
650.770	0.0173367
650.848	0.0173864
650.926	0.0174220
651.004	0.0173920
651.082	0.0172900
651.160	0.0173167
651.238	0.0174259
651.317	0.0173889
651.395	0.0174225
651.473	0.0174387
651.551	0.0172623
651.629	0.0172221
651.707	0.0171903
651.785	0.0175694
651.863	0.0174870
651.942	0.0173216
652.020	0.0174463
652.098	0.0173317
652.176	0.0174077
652.254	0.0173685
652.332	0.0173148
652.410	0.0173698
652.488	0.0173959
652.567	0.0172735
652.645	0.0173250
652.723	0.0174037
652.801	0.0174471
652.879	0.0173814
652.957	0.0172793
653.035	0.0174518
653.113	0.0174525
653.192	0.0174285
653.270	0.0174018
653.348	0.0173261
653.426	0.0174033
653.504	0.0174247
653.582	0.0173891
653.660	0.0172842
653.738	0.0174236
653.817	0.0173816
653.895	0.0173691
653.973	0.0172819
654.051	0.0173618
654.129	0.0173913
654.207	0.0172468
654.285	0.0173267
654.363	0.0174332
654.442	0.0174623
654.520	0.0173646
654.598	0.0174957
654.676	0.0174754
654.754	0.0172796
654.832	0.0172599
654.910	0.0173363
654.988	0.0174097
655.067	0.0173763
655.145	0.0172716
655.223	0.0172727
655.301	0.0173692
655.379	0.0173201
655.457	0.0174210
655.535	0.0173013
655.613	0.0173746
655.692	0.0172266
655.770	0.0174342
655.848	0.0173902
655.926	0.0174273
656.004	0.0173762
656.082	0.0174007
656.160	0.0173045
656.238	0.0172543
656.317	0.0173483
656.395	0.0173898
656.473	0.0172736
656.551	0.0174036
656.629	0.0174263
656.707	0.0173453
656.785	0.0172521
656.863	0.0172338
656.942	0.0173156
657.020	0.0174120
657.098	0.0173137
657.176	0.0173363
657.254	0.0172773
657.332	0.0173303
657.410	0.0173307
657.488	0.0174578
657.567	0.0173312
657.645	0.0173015
657.723	0.0172879
657.801	0.0172821
657.879	0.0171918
657.957	0.0173715
658.035	0.0172462
658.113	0.0172494
658.192	0.0173021
658.270	0.0174438
658.348	0.0172669
658.426	0.0174821
658.504	0.0173260
658.582	0.0173241
658.660	0.0173754
658.738	0.0173752
658.817	0.0170959
658.895	0.0174174
658.973	0.0173345
659.051	0.0174470
659.129	0.0174075
659.207	0.0173048
659.285	0.0173038
659.363	0.0172616
659.442	0.0172486
659.520	0.0173235
659.598	0.0172813
659.676	0.0172963
659.754	0.0173719
659.832	0.0173831
659.910	0.0172762
659.988	0.0173265
660.067	0.0173406
660.145	0.0173956
660.223	0.0173820
660.301	0.0171244
660.379	0.0171803
660.457	0.0172165
660.535	0.0172843
660.613	0.0173282
660.692	0.0172733
660.770	0.0174381
660.848	0.0174153
660.926	0.0172819
661.004	0.0172228
661.082	0.0173369
661.160	0.0172838
661.238	0.0175207
661.317	0.0174119
661.395	0.0173109
661.473	0.0172995
661.551	0.0172952
661.629	0.0173918
661.707	0.0173232
661.785	0.0174217
661.863	0.0172894
661.942	0.0173769
662.020	0.0174317
662.098	0.0172397
662.176	0.0172991
662.254	0.0172132
662.332	0.0173653
662.410	0.0174593
662.488	0.0171751
662.567	0.0173117
662.645	0.0172703
662.723	0.0173854
662.801	0.0173315
662.879	0.0172552
662.957	0.0173598
663.035	0.0172755
663.113	0.0172491
663.192	0.0174112
663.270	0.0173304
663.348	0.0173038
663.426	0.0171854
663.504	0.0172997
663.582	0.0174158
663.660	0.0172865
663.738	0.0172189
663.817	0.0173208
663.895	0.0173715
663.973	0.0172726
664.051	0.0172310
664.129	0.0173350
664.207	0.0171837
664.285	0.0172380
664.363	0.0173372
664.442	0.0172363
664.520	0.0173220
664.598	0.0173152
664.676	0.0173828
664.754	0.0173721
664.832	0.0173719
664.910	0.0172813
664.988	0.0172621
665.067	0.0174001
665.145	0.0172762
665.223	0.0173783
665.301	0.0172367
665.379	0.0173565
665.457	0.0172931
665.535	0.0173428
665.613	0.0173291
665.692	0.0172994
665.770	0.0172765
665.848	0.0173743
665.926	0.0174459
666.004	0.0174459
666.082	0.0173276
666.160	0.0174106
666.238	0.0173347
666.317	0.0173722
666.395	0.0173766
666.473	0.0173215
666.551	0.0173005
666.629	0.0174076
666.707	0.0172177
666.785	0.0173155
666.863	0.0173285
666.942	0.0173933
667.020	0.0174354
667.098	0.0174420
667.176	0.0174304
667.254	0.0173589
667.332	0.0174842
667.410	0.0172324
667.488	0.0174628
667.567	0.0174511
667.645	0.0172212
667.723	0.0174008
667.801	0.0174790
667.879	0.0174414
667.957	0.0173357
668.035	0.0174574
668.113	0.0173611
668.192	0.0174377
668.270	0.0172364
668.348	0.0173917
668.426	0.0176431
668.504	0.0175634
668.582	0.0173524
668.660	0.0174075
668.738	0.0173782
668.817	0.0173405
668.895	0.0174596
668.973	0.0174309
669.051	0.0174050
669.129	0.0174800
669.207	0.0174489
669.285	0.0173842
669.363	0.0174306
669.442	0.0174785
669.520	0.0175301
669.598	0.0175874
669.676	0.0175345
669.754	0.0175577
669.832	0.0174165
669.910	0.0174541
669.988	0.0175061
670.067	0.0174676
670.145	0.0174538
670.223	0.0174488
670.301	0.0174831
670.379	0.0174602
670.457	0.0173765
670.535	0.0174786
670.613	0.0174177
670.692	0.0174077
670.770	0.0174959
670.848	0.0174616
670.926	0.0174281
671.004	0.0174812
671.082	0.0174609
671.160	0.0176395
671.238	0.0173997
671.317	0.0174433
671.395	0.0173493
671.473	0.0174037
671.551	0.0173750
671.629	0.0173544
671.707	0.0173682
671.785	0.0175153
671.863	0.0174814
671.942	0.0174049
672.020	0.0173814
672.098	0.0175020
672.176	0.0175828
672.254	0.0175105
672.332	0.0174480
672.410	0.0173785
672.488	0.0172366
672.567	0.0174533
672.645	0.0175029
672.723	0.0174957
672.801	0.0172845
672.879	0.0174293
672.957	0.0174725
673.035	0.0173461
673.113	0.0173451
673.192	0.0174815
673.270	0.0174070
673.348	0.0174137
673.426	0.0173377
673.504	0.0173938
673.582	0.0173790
673.660	0.0173819
673.738	0.0173913
673.817	0.0173370
673.895	0.0172538
673.973	0.0173050
674.051	0.0172463
674.129	0.0173403
674.207	0.0173856
674.285	0.0173180
674.363	0.0174304
674.442	0.0171987
674.520	0.0172854
674.598	0.0172028
674.676	0.0172797
674.754	0.0173331
674.832	0.0174440
674.910	0.0171692
674.988	0.0172050
675.067	0.0173013
675.145	0.0172370
675.223	0.0172252
675.301	0.0173391
675.379	0.0172306
675.457	0.0170995
675.535	0.0171070
675.613	0.0172082
675.692	0.0173574
675.770	0.0172639
675.848	0.0171270
675.926	0.0173402
676.004	0.0173338
676.082	0.0171901
676.160	0.0172100
676.238	0.0172803
676.317	0.0171474
676.395	0.0171851
676.473	0.0173012
676.551	0.0172787
676.629	0.0172813
676.707	0.0172874
676.785	0.0172247
676.863	0.0172752
676.942	0.0172926
677.020	0.0172113
677.098	0.0172971
677.176	0.0172864
677.254	0.0172726
677.332	0.0172414
677.410	0.0172478
677.488	0.0172230
677.567	0.0172076
677.645	0.0172524
677.723	0.0173358
677.801	0.0171440
677.879	0.0172240
677.957	0.0172525
678.035	0.0172340
678.113	0.0171748
678.192	0.0173479
678.270	0.0171078
678.348	0.0172452
678.426	0.0172142
678.504	0.0172386
678.582	0.0172494
678.660	0.0171950
678.738	0.0171359
678.817	0.0171581
678.895	0.0172810
678.973	0.0172729
679.051	0.0173495
679.129	0.0171914
679.207	0.0174706
679.285	0.0172350
679.363	0.0172759
679.442	0.0173463
679.520	0.0172584
679.598	0.0173320
679.676	0.0173827
679.754	0.0173881
679.832	0.0173307
679.910	0.0173078
679.988	0.0173619
680.067	0.0172112
680.145	0.0173142
680.223	0.0174638
680.301	0.0174264
680.379	0.0174144
680.457	0.0173808
680.535	0.0173765
680.613	0.0173920
680.692	0.0172416
680.770	0.0173611
680.848	0.0174625
680.926	0.0172900
681.004	0.0172385
681.082	0.0174644
681.160	0.0173759
681.238	0.0173650
681.317	0.0173512
681.395	0.0173582
681.473	0.0173380
681.551	0.0174488
681.629	0.0174545
681.707	0.0174738
681.785	0.0173951
681.863	0.0172975
681.942	0.0174755
682.020	0.0174728
682.098	0.0174474
682.176	0.0174215
682.254	0.0173166
682.332	0.0174641
682.410	0.0174321
682.488	0.0172204
682.567	0.0173635
682.645	0.0172372
682.723	0.0174904
682.801	0.0175426
682.879	0.0174874
682.957	0.0173013
683.035	0.0174067
683.113	0.0174953
683.192	0.0175488
683.270	0.0175285
683.348	0.0174648
683.426	0.0173016
683.504	0.0173708
683.582	0.0172493
683.660	0.0172102
683.738	0.0171165
683.817	0.0170262
683.895	0.0169193
683.973	0.0170503
684.051	0.0171581
684.129	0.0174081
684.207	0.0174923
684.285	0.0177934
684.363	0.0181149
684.442	0.0182827
684.520	0.0183079
684.598	0.0182962
684.676	0.0181631
684.754	0.0180355
684.832	0.0177725
684.910	0.0172385
684.988	0.0167083
685.067	0.0160757
685.145	0.0155407
685.223	0.0149696
685.301	0.0144324
685.379	0.0141161
685.457	0.0141480
685.535	0.0145208
685.613	0.0149768
685.692	0.0157261
685.770	0.0168842
685.848	0.0179378
685.926	0.0194117
686.004	0.0209406
686.082	0.0219861
686.160	0.0229236
686.238	0.0237891
686.317	0.0239618
686.395	0.0237948
686.473	0.0230803
686.551	0.0222232
686.629	0.0207887
686.707	0.0191208
686.785	0.0174508
686.863	0.0154140
686.942	0.0135721
687.020	0.0121727
687.098	0.0107800
687.176	0.00971886
687.254	0.00907211
687.332	0.00871407
687.410	0.00886780
687.488	0.00923424
687.567	0.0101981
687.645	0.0115926
687.723	0.0133652
687.801	0.0153463
687.879	0.0176613
687.957	0.0197524
688.035	0.0219287
688.113	0.0240410
688.192	0.0253922
688.270	0.0267043
688.348	0.0274048
688.426	0.0275806
688.504	0.0273123
688.582	0.0264698
688.660	0.0248115
688.738	0.0232317
688.817	0.0213792
688.895	0.0192976
688.973	0.0171707
689.051	0.0151765
689.129	0.0133501
689.207	0.0119493
689.285	0.0108852
689.363	0.0101936
689.442	0.00987747
689.520	0.00955879
689.598	0.00961090
689.676	0.0103317
689.754	0.0111216
689.832	0.0118614
689.910	0.0127059
689.988	0.0136736
690.067	0.0148058
690.145	0.0160065
690.223	0.0170256
690.301	0.0179996
690.379	0.0190676
690.457	0.0198094
690.535	0.0205981
690.613	0.0211169
690.692	0.0215860
690.770	0.0220799
690.848	0.0221983
690.926	0.0221951
691.004	0.0221851
691.082	0.0219657
691.160	0.0213980
691.238	0.0209202
691.317	0.0203463
691.395	0.0196828
691.473	0.0189420
691.551	0.0183386
691.629	0.0176913
691.707	0.0169801
691.785	0.0162336
691.863	0.0156254
691.942	0.0150155
692.020	0.0146104
692.098	0.0142437
692.176	0.0137880
692.254	0.0133599
692.332	0.0132380
692.410	0.0133063
692.488	0.0132858
692.567	0.0132887
692.645	0.0136107
692.723	0.0139086
692.801	0.0142657
692.879	0.0148376
692.957	0.0153369
693.035	0.0159870
693.113	0.0166086
693.192	0.0173840
693.270	0.0180355
693.348	0.0186872
693.426	0.0193849
693.504	0.0198688
693.582	0.0206384
693.660	0.0209363
693.738	0.0213293
693.817	0.0214886
693.895	0.0216562
693.973	0.0217137
694.051	0.0216642
694.129	0.0213227
694.207	0.0211442
694.285	0.0209004
694.363	0.0204089
694.442	0.0200388
694.520	0.0196023
694.598	0.0191084
694.676	0.0185366
694.754	0.0181052
694.832	0.0175046
694.910	0.0169058
694.988	0.0161962
695.067	0.0158225
695.145	0.0151208
695.223	0.0143909
695.301	0.0141006
695.379	0.0135583
695.457	0.0132668
695.535	0.0129797
695.613	0.0128828
695.692	0.0129940
695.770	0.0130899
695.848	0.0133546
695.926	0.0136042
696.004	0.0139502
696.082	0.0143770
696.160	0.0150495
696.238	0.0156179
696.317	0.0159470
696.395	0.0166589
696.473	0.0172245
696.551	0.0176592
696.629	0.0181445
696.707	0.0185834
696.785	0.0190726
696.863	0.0193266
696.942	0.0194843
697.020	0.0198981
697.098	0.0199511
697.176	0.0201638
697.254	0.0202438
697.332	0.0202386
697.410	0.0202534
697.488	0.0200886
697.567	0.0201965
697.645	0.0198999
697.723	0.0196036
697.801	0.0193684
697.879	0.0192108
697.957	0.0187773
698.035	0.0183977
698.113	0.0181689
698.192	0.0177856
698.270	0.0175263
698.348	0.0172320
698.426	0.0169447
698.504	0.0167245
698.582	0.0167052
698.660	0.0166517
698.738	0.0166107
698.817	0.0167461
698.895	0.0167492
698.973	0.0169120
699.051	0.0170876
699.129	0.0170305
699.207	0.0170898
699.285	0.0172185
699.363	0.0172080
699.442	0.0171896
699.520	0.0169999
699.598	0.0167810
699.676	0.0166987
699.754	0.0164766
699.832	0.0162386
699.910	0.0161291
699.988	0.0159025
700.067	0.0156899
700.145	0.0155756
700.223	0.0153721
700.301	0.0154035
700.379	0.0156425
700.457	0.0155680
700.535	0.0156693
700.613	0.0158864
700.692	0.0161815
700.770	0.0163632
700.848	0.0166879
700.926	0.0170708
701.004	0.0171995
701.082	0.0175241
701.160	0.0178281
701.238	0.0181161
701.317	0.0183137
701.395	0.0185169
701.473	0.0187510
701.551	0.0187021
701.629	0.0185906
701.707	0.0187814
701.785	0.0186594
701.863	0.0184513
701.942	0.0184179
702.020	0.0181991
702.098	0.0180125
702.176	0.0178419
702.254	0.0175746
702.332	0.0173544
702.410	0.0172407
702.488	0.0171561
702.567	0.0170038
702.645	0.0169817
702.723	0.0170660
702.801	0.0169137
702.879	0.0170298
702.957	0.0171162
703.035	0.0172935
703.113	0.0174835
703.192	0.0176138
703.270	0.0177435
703.348	0.0180944
703.426	0.0182189
703.504	0.0184499
703.582	0.0186100
703.660	0.0188522
703.738	0.0190721
703.817	0.0191303
703.895	0.0191045
703.973	0.0191770
704.051	0.0189030
704.129	0.0187257
704.207	0.0184332
704.285	0.0180695
704.363	0.0176736
704.442	0.0171046
704.520	0.0165879
704.598	0.0161719
704.676	0.0158621
704.754	0.0154355
704.832	0.0152734
704.910	0.0148772
704.988	0.0147105
705.067	0.0148381
705.145	0.0148730
705.223	0.0149547
705.301	0.0151227
705.379	0.0153326
705.457	0.0157082
705.535	0.0160828
705.613	0.0161532
705.692	0.0164673
705.770	0.0168258
705.848	0.0170322
705.926	0.0172361
706.004	0.0175630
706.082	0.0177579
706.160	0.0177238
706.238	0.0179989
706.317	0.0179215
706.395	0.0180212
706.473	0.0180605
706.551	0.0181704
706.629	0.0182369
706.707	0.0181010
706.785	0.0181876
706.863	0.0180614
706.942	0.0180296
707.020	0.0180730
707.098	0.0180382
707.176	0.0181703
707.254	0.0180700
707.332	0.0180578
707.410	0.0183299
707.488	0.0181557
707.567	0.0182420
707.645	0.0182384
707.723	0.0181557
707.801	0.0181947
707.879	0.0181038
707.957	0.0181561
708.035	0.0180238
708.113	0.0180077
708.192	0.0180405
708.270	0.0179068
708.348	0.0178941
708.426	0.0178174
708.504	0.0181017
708.582	0.0179972
708.660	0.0179513
708.738	0.0181428
708.817	0.0179420
708.895	0.0177753
708.973	0.0178133
709.051	0.0177389
709.129	0.0175024
709.207	0.0172287
709.285	0.0169578
709.363	0.0165992
709.442	0.0162840
709.520	0.0160256
709.598	0.0158355
709.676	0.0157140
709.754	0.0154803
709.832	0.0153263
709.910	0.0153483
709.988	0.0153242
710.067	0.0154658
710.145	0.0157035
710.223	0.0158997
710.301	0.0161136
710.379	0.0163532
710.457	0.0164806
710.535	0.0168204
710.613	0.0170606
710.692	0.0173522
710.770	0.0173413
710.848	0.0174790
710.926	0.0177488
711.004	0.0178217
711.082	0.0176819
711.160	0.0176520
711.238	0.0177813
711.317	0.0176808
711.395	0.0177878
711.473	0.0176820
711.551	0.0176424
711.629	0.0177378
711.707	0.0177459
711.785	0.0178443
711.863	0.0179540
711.942	0.0180381
712.020	0.0180559
712.098	0.0181525
712.176	0.0181458
712.254	0.0181960
712.332	0.0182979
712.410	0.0182737
712.488	0.0182806
712.567	0.0182371
712.645	0.0181425
712.723	0.0178390
712.801	0.0177869
712.879	0.0177177
712.957	0.0176359
713.035	0.0174255
713.113	0.0174371
713.192	0.0171655
713.270	0.0172642
713.348	0.0171257
713.426	0.0171033
713.504	0.0170586
713.582	0.0171862
713.660	0.0172204
713.738	0.0172398
713.817	0.0171879
713.895	0.0172389
713.973	0.0174269
714.051	0.0170430
714.129	0.0170850
714.207	0.0168174
714.285	0.0168922
714.363	0.0166843
714.442	0.0165950
714.520	0.0165184
714.598	0.0162944
714.676	0.0162094
714.754	0.0161454
714.832	0.0161511
714.910	0.0161565
714.988	0.0161949
715.067	0.0163402
715.145	0.0165376
715.223	0.0165960
715.301	0.0168713
715.379	0.0170515
715.457	0.0172333
715.535	0.0176190
715.613	0.0178613
715.692	0.0178326
715.770	0.0180097
715.848	0.0181422
715.926	0.0180713
716.004	0.0180338
716.082	0.0179839
716.160	0.0180259
716.238	0.0177126
716.317	0.0177506
716.395	0.0174325
716.473	0.0173353
716.551	0.0171984
716.629	0.0172347
716.707	0.0171398
716.785	0.0170779
716.863	0.0169562
716.942	0.0170003
717.020	0.0171803
717.098	0.0172243
717.176	0.0172877
717.254	0.0173436
717.332	0.0174342
717.410	0.0175375
717.488	0.0176100
717.567	0.0177491
717.645	0.0178030
717.723	0.0179096
717.801	0.0180339
717.879	0.0181075
717.957	0.0181088
718.035	0.0182177
718.113	0.0182572
718.192	0.0183047
718.270	0.0182536
718.348	0.0180123
718.426	0.0180196
718.504	0.0179036
718.582	0.0176376
718.660	0.0175835
718.738	0.0172829
718.817	0.0170560
718.895	0.0168369
718.973	0.0167010
719.051	0.0165079
719.129	0.0163803
719.207	0.0164470
719.285	0.0163982
719.363	0.0164473
719.442	0.0164797
719.520	0.0165020
719.598	0.0166443
719.676	0.0166485
719.754	0.0167236
719.832	0.0168110
719.910	0.0168730
719.988	0.0169955
720.067	0.0169370
720.145	0.0171815
720.223	0.0171806
720.301	0.0172802
720.379	0.0173049
720.457	0.0173534
720.535	0.0172287
720.613	0.0174263
720.692	0.0173933
720.770	0.0173168
720.848	0.0174184
720.926	0.0175035
721.004	0.0175740
721.082	0.0177843
721.160	0.0177684
721.238	0.0178505
721.317	0.0178429
721.395	0.0179234
721.473	0.0179770
721.551	0.0178598
721.629	0.0179761
721.707	0.0179631
721.785	0.0179115
721.863	0.0177691
721.942	0.0175039
722.020	0.0174058
722.098	0.0173450
722.176	0.0172384
722.254	0.0171532
722.332	0.0171034
722.410	0.0170464
722.488	0.0170826
722.567	0.0171321
722.645	0.0172741
722.723	0.0174147
722.801	0.0174953
722.879	0.0175624
722.957	0.0177584
723.035	0.0177726
723.113	0.0176578
723.192	0.0178191
723.270	0.0177789
723.348	0.0177492
723.426	0.0176862
723.504	0.0175596
723.582	0.0175393
723.660	0.0173108
723.738	0.0170678
723.817	0.0170046
723.895	0.0169643
723.973	0.0168275
724.051	0.0167562
724.129	0.0167103
724.207	0.0167042
724.285	0.0168198
724.363	0.0168678
724.442	0.0169040
724.520	0.0168868
724.598	0.0171204
724.676	0.0170717
724.754	0.0171626
724.832	0.0173170
724.910	0.0175031
724.988	0.0175117
725.067	0.0174921
725.145	0.0174307
725.223	0.0174014
725.301	0.0173324
725.379	0.0173927
725.457	0.0173205
725.535	0.0172975
725.613	0.0173692
725.692	0.0173722
725.770	0.0175323
725.848	0.0174950
725.926	0.0175656
726.004	0.0175847
726.082	0.0176775
726.160	0.0177553
726.238	0.0177528
726.317	0.0178015
726.395	0.0178311
726.473	0.0176948
726.551	0.0177950
726.629	0.0177805
726.707	0.0176474
726.785	0.0175282
726.863	0.0175764
726.942	0.0173108
727.020	0.0172358
727.098	0.0170719
727.176	0.0168385
727.254	0.0168141
727.332	0.0167949
727.410	0.0166372
727.488	0.0166207
727.567	0.0167245
727.645	0.0167149
727.723	0.0167630
727.801	0.0168616
727.879	0.0168731
727.957	0.0170090
728.035	0.0171631
728.113	0.0171954
728.192	0.0173120
728.270	0.0173898
728.348	0.0175402
728.426	0.0176867
728.504	0.0176521
728.582	0.0177539
728.660	0.0177080
728.738	0.0176782
728.817	0.0175787
728.895	0.0176225
728.973	0.0176564
729.051	0.0175065
729.129	0.0174262
729.207	0.0173754
729.285	0.0174847
729.363	0.0174252
729.442	0.0174413
729.520	0.0174369
729.598	0.0173042
729.676	0.0173926
729.754	0.0174330
729.832	0.0173805
729.910	0.0173692
729.988	0.0174413
730.067	0.0175381
730.145	0.0174904
730.223	0.0175092
730.301	0.0174413
730.379	0.0176176
730.457	0.0173296
730.535	0.0174921
730.613	0.0174216
730.692	0.0172892
730.770	0.0172563
730.848	0.0171767
730.926	0.0170879
731.004	0.0169347
731.082	0.0169151
731.160	0.0168759
731.238	0.0168308
731.317	0.0168736
731.395	0.0168779
731.473	0.0167855
731.551	0.0168448
731.629	0.0167481
731.707	0.0168406
731.785	0.0168906
731.863	0.0170084
731.942	0.0171029
732.020	0.0173362
732.098	0.0174254
732.176	0.0175334
732.254	0.0175581
732.332	0.0177374
732.410	0.0178628
732.488	0.0177819
732.567	0.0177934
732.645	0.0178028
732.723	0.0178059
732.801	0.0178195
732.879	0.0178849
732.957	0.0177264
733.035	0.0177199
733.113	0.0176558
733.192	0.0174140
733.270	0.0175376
733.348	0.0175243
733.426	0.0173213
733.504	0.0175269
733.582	0.0173920
733.660	0.0174890
733.738	0.0173901
733.817	0.0172628
733.895	0.0173857
733.973	0.0173225
734.051	0.0172961
734.129	0.0172511
734.207	0.0173513
734.285	0.0174130
734.363	0.0174586
734.442	0.0173582
734.520	0.0173325
734.598	0.0172896
734.676	0.0173654
734.754	0.0173027
734.832	0.0171484
734.910	0.0170584
734.988	0.0171773
735.067	0.0171049
735.145	0.0171043
735.223	0.0172631
735.301	0.0171609
735.379	0.0171500
735.457	0.0173188
735.535	0.0174738
735.613	0.0175060
735.692	0.0173672
735.770	0.0174776
735.848	0.0176742
735.926	0.0176363
736.004	0.0175490
736.082	0.0175466
736.160	0.0174992
736.238	0.0175593
736.317	0.0175059
736.395	0.0174205
736.473	0.0170810
736.551	0.0171529
736.629	0.0173685
736.707	0.0172292
736.785	0.0172523
736.863	0.0170123
736.942	0.0170960
737.020	0.0171680
737.098	0.0171814
737.176	0.0170811
737.254	0.0171294
737.332	0.0172379
737.410	0.0171288
737.488	0.0171749
737.567	0.0172567
737.645	0.0171320
737.723	0.0170966
737.801	0.0171738
737.879	0.0172019
737.957	0.0171101
738.035	0.0172536
738.113	0.0172150
738.192	0.0171978
738.270	0.0173463
738.348	0.0173725
738.426	0.0172106
738.504	0.0173042
738.582	0.0173042
738.660	0.0174413
738.738	0.0173214
738.817	0.0173279
738.895	0.0174136
738.973	0.0173378
739.051	0.0173837
739.129	0.0175085
739.207	0.0174531
739.285	0.0175106
739.363	0.0174274
739.442	0.0174332
739.520	0.0174893
739.598	0.0175186
739.676	0.0174306
739.754	0.0174803
739.832	0.0173982
739.910	0.0174712
739.988	0.0174244
740.067	0.0174738
740.145	0.0173063
740.223	0.0174487
740.301	0.0176051
740.379	0.0175024
740.457	0.0175986
740.535	0.0174645
740.613	0.0176441
740.692	0.0174848
740.770	0.0176311
740.848	0.0176453
740.926	0.0175661
741.004	0.0176000
741.082	0.0175272
741.160	0.0174859
741.238	0.0173630
741.317	0.0173283
741.395	0.0173150
741.473	0.0170841
741.551	0.0170780
741.629	0.0170984
741.707	0.0168497
741.785	0.0168712
741.863	0.0168193
741.942	0.0167365
742.020	0.0166258
742.098	0.0165884
742.176	0.0164925
742.254	0.0168288
742.332	0.0166120
742.410	0.0167219
742.488	0.0168513
742.567	0.0168700
742.645	0.0170483
742.723	0.0171868
742.801	0.0173117
742.879	0.0174138
742.957	0.0176432
743.035	0.0175398
743.113	0.0175976
743.192	0.0177637
743.270	0.0178421
743.348	0.0178159
743.426	0.0178730
743.504	0.0177105
743.582	0.0176807
743.660	0.0176154
743.738	0.0174236
743.817	0.0173994
743.895	0.0172813
743.973	0.0171689
744.051	0.0171028
744.129	0.0168795
744.207	0.0170134
744.285	0.0168438
744.363	0.0169154
744.442	0.0170428
744.520	0.0170061
744.598	0.0170792
744.676	0.0172251
744.754	0.0172968
744.832	0.0174326
744.910	0.0174008
744.988	0.0174327
745.067	0.0174835
745.145	0.0177060
745.223	0.0178069
745.301	0.0176065
745.379	0.0176958
745.457	0.0177484
745.535	0.0177090
745.613	0.0176318
745.692	0.0177406
745.770	0.0177250
745.848	0.0178469
745.926	0.0177490
746.004	0.0176859
746.082	0.0178812
746.160	0.0178243
746.238	0.0177668
746.317	0.0177281
746.395	0.0177465
746.473	0.0176420
746.551	0.0177615
746.629	0.0178584
746.707	0.0177017
746.785	0.0175612
746.863	0.0174736
746.942	0.0172599
747.020	0.0172121
747.098	0.0172076
747.176	0.0171326
747.254	0.0169254
747.332	0.0168916
747.410	0.0169894
747.488	0.0168446
747.567	0.0169167
747.645	0.0170779
747.723	0.0170377
747.801	0.0170074
747.879	0.0170745
747.957	0.0170460
748.035	0.0171797
748.113	0.0174387
748.192	0.0173345
748.270	0.0173402
748.348	0.0174925
748.426	0.0175374
748.504	0.0175539
748.582	0.0174492
748.660	0.0174889
748.738	0.0175964
748.817	0.0176399
748.895	0.0174857
748.973	0.0175841
749.051	0.0175571
749.129	0.0173181
749.207	0.0172629
749.285	0.0173553
749.363	0.0173050
749.442	0.0174275
749.520	0.0174398
749.598	0.0174715
749.676	0.0173338
749.754	0.0173862
749.832	0.0172258
749.910	0.0172100
749.988	0.0171987
750.067	0.0172652
750.145	0.0172350
750.223	0.0172333
750.301	0.0171368
750.379	0.0172111
750.457	0.0172477
750.535	0.0173626
750.613	0.0171927
750.692	0.0172618
750.770	0.0173631
750.848	0.0171790
750.926	0.0171400
751.004	0.0171889
751.082	0.0172251
751.160	0.0172713
751.238	0.0173023
751.317	0.0175102
751.395	0.0175568
751.473	0.0174500
751.551	0.0176157
751.629	0.0175976
751.707	0.0175446
751.785	0.0175931
751.863	0.0176205
751.942	0.0175735
752.020	0.0175710
752.098	0.0175176
752.176	0.0172813
752.254	0.0173479
752.332	0.0173312
752.410	0.0172817
752.488	0.0172778
752.567	0.0173133
752.645	0.0172652
752.723	0.0173492
752.801	0.0172954
752.879	0.0174332
752.957	0.0172860
753.035	0.0172974
753.113	0.0175271
753.192	0.0173839
753.270	0.0175899
753.348	0.0174655
753.426	0.0174957
753.504	0.0175826
753.582	0.0177009
753.660	0.0176145
753.738	0.0176362
753.817	0.0176248
753.895	0.0176564
753.973	0.0176701
754.051	0.0176409
754.129	0.0174807
754.207	0.0175412
754.285	0.0172857
754.363	0.0173298
754.442	0.0171970
754.520	0.0171527
754.598	0.0170586
754.676	0.0169463
754.754	0.0168899
754.832	0.0168485
754.910	0.0168402
754.988	0.0169772
755.067	0.0167924
755.145	0.0167150
755.223	0.0168167
755.301	0.0168325
755.379	0.0171665
755.457	0.0170669
755.535	0.0171227
755.613	0.0170935
755.692	0.0172990
755.770	0.0172997
755.848	0.0173589
755.926	0.0174148
756.004	0.0173800
756.082	0.0173911
756.160	0.0174696
756.238	0.0174671
756.317	0.0175270
756.395	0.0175567
756.473	0.0175298
756.551	0.0176563
756.629	0.0177734
756.707	0.0176642
756.785	0.0177090
756.863	0.0177703
756.942	0.0177572
757.020	0.0176493
757.098	0.0177145
757.176	0.0177129
757.254	0.0176157
757.332	0.0174406
757.410	0.0176099
757.488	0.0175452
757.567	0.0174155
757.645	0.0174119
757.723	0.0173239
757.801	0.0171012
757.879	0.0170969
757.957	0.0171584
758.035	0.0169476
758.113	0.0171318
758.192	0.0171278
758.270	0.0171584
758.348	0.0170637
758.426	0.0170029
758.504	0.0170829
758.582	0.0171359
758.660	0.0172491
758.738	0.0173203
758.817	0.0173997
758.895	0.0175538
758.973	0.0174607
759.051	0.0174542
759.129	0.0177558
759.207	0.0175548
759.285	0.0176642
759.363	0.0177200
759.442	0.0175864
759.520	0.0175513
759.598	0.0174996
759.676	0.0176097
759.754	0.0174792
759.832	0.0174334
759.910	0.0174803
759.988	0.0174957
760.067	0.0174109
760.145	0.0173415
760.223	0.0172914
760.301	0.0173222
760.379	0.0173599
760.457	0.0173994
760.535	0.0173866
760.613	0.0174265
760.692	0.0173914
760.770	0.0174532
760.848	0.0174471
760.926	0.0174264
761.004	0.0174287
761.082	0.0174462
761.160	0.0173148
761.238	0.0174694
761.317	0.0175060
761.395	0.0174409
761.473	0.0175455
761.551	0.0173245
761.629	0.0172419
761.707	0.0171925
761.785	0.0171724
761.863	0.0171652
761.942	0.0171803
762.020	0.0171354
762.098	0.0171106
762.176	0.0170599
762.254	0.0171847
762.332	0.0169511
762.410	0.0169077
762.488	0.0169814
762.567	0.0169261
762.645	0.0169944
762.723	0.0170566
762.801	0.0169624
762.879	0.0171343
762.957	0.0169450
763.035	0.0170365
763.113	0.0169983
763.192	0.0170208
763.270	0.0170599
763.348	0.0171310
763.426	0.0171880
763.504	0.0172352
763.582	0.0172683
763.660	0.0172764
763.738	0.0172853
763.817	0.0175913
763.895	0.0175188
763.973	0.0176382
764.051	0.0177314
764.129	0.0176168
764.207	0.0176406
764.285	0.0177721
764.363	0.0177036
764.442	0.0176947
764.520	0.0176722
764.598	0.0175173
764.676	0.0174978
764.754	0.0174248
764.832	0.0174703
764.910	0.0174423
764.988	0.0174167
765.067	0.0172555
765.145	0.0172426
765.223	0.0172184
765.301	0.0172198
765.379	0.0171603
765.457	0.0172202
765.535	0.0172010
765.613	0.0171377
765.692	0.0172569
765.770	0.0173354
765.848	0.0173228
765.926	0.0172290
766.004	0.0174602
766.082	0.0173582
766.160	0.0175862
766.238	0.0174493
766.317	0.0175468
766.395	0.0175024
766.473	0.0175648
766.551	0.0177531
766.629	0.0175443
766.707	0.0176254
766.785	0.0176643
766.863	0.0175461
766.942	0.0174815
767.020	0.0175598
767.098	0.0175538
767.176	0.0176169
767.254	0.0175482
767.332	0.0175777
767.410	0.0176967
767.488	0.0175831
767.567	0.0174546
767.645	0.0175584
767.723	0.0175002
767.801	0.0173063
767.879	0.0173454
767.957	0.0173577
768.035	0.0171841
768.113	0.0171687
768.192	0.0171279
768.270	0.0170316
768.348	0.0169151
768.426	0.0170483
768.504	0.0170208
768.582	0.0169154
768.660	0.0169423
768.738	0.0170614
768.817	0.0170686
768.895	0.0171409
768.973	0.0172012
769.051	0.0171522
769.129	0.0172721
769.207	0.0172968
769.285	0.0172894
769.363	0.0174242
769.442	0.0173421
769.520	0.0172618
769.598	0.0174053
769.676	0.0173546
769.754	0.0173450
769.832	0.0174258
769.910	0.0174801
769.988	0.0173521
770.067	0.0174336
770.145	0.0173696
770.223	0.0171799
770.301	0.0173725
770.379	0.0173230
770.457	0.0172213
770.535	0.0172228
770.613	0.0172126
770.692	0.0172023
770.770	0.0172656
770.848	0.0173180
770.926	0.0172994
771.004	0.0173813
771.082	0.0173009
771.160	0.0174763
771.238	0.0177167
771.317	0.0174503
771.395	0.0175417
771.473	0.0175287
771.551	0.0176234
771.629	0.0176569
771.707	0.0176311
771.785	0.0176419
771.863	0.0175548
771.942	0.0176360
772.020	0.0174760
772.098	0.0174791
772.176	0.0174293
772.254	0.0175136
772.332	0.0175592
772.410	0.0174186
772.488	0.0173440
772.567	0.0172987
772.645	0.0174134
772.723	0.0172569
772.801	0.0173079
772.879	0.0172064
772.957	0.0171101
773.035	0.0173248
773.113	0.0172609
773.192	0.0173056
773.270	0.0173769
773.348	0.0173588
773.426	0.0174477
773.504	0.0173160
773.582	0.0174489
773.660	0.0175330
773.738	0.0175632
773.817	0.0175159
773.895	0.0176028
773.973	0.0175272
774.051	0.0175205
774.129	0.0172337
774.207	0.0173832
774.285	0.0173611
774.363	0.0173604
774.442	0.0172476
774.520	0.0171564
774.598	0.0171967
774.676	0.0172357
774.754	0.0172153
774.832	0.0170969
774.910	0.0169647
774.988	0.0169691
775.067	0.0168643
775.145	0.0168855
775.223	0.0169415
775.301	0.0167696
775.379	0.0169087
775.457	0.0169994
775.535	0.0167910
775.613	0.0169334
775.692	0.0168378
775.770	0.0169873
775.848	0.0170856
775.926	0.0171986
776.004	0.0171667
776.082	0.0171712
776.160	0.0174033
776.238	0.0172443
776.317	0.0173200
776.395	0.0174490
776.473	0.0175161
776.551	0.0176665
776.629	0.0177071
776.707	0.0177955
776.785	0.0177077
776.863	0.0176826
776.942	0.0177702
777.020	0.0178422
777.098	0.0176382
777.176	0.0177013
777.254	0.0177834
777.332	0.0176639
777.410	0.0176437
777.488	0.0176123
777.567	0.0175836
777.645	0.0174928
777.723	0.0174406
777.801	0.0174617
777.879	0.0173684
777.957	0.0173148
778.035	0.0174279
778.113	0.0175316
778.192	0.0172759
778.270	0.0173473
778.348	0.0172874
778.426	0.0172987
778.504	0.0173851
778.582	0.0174316
778.660	0.0173006
778.738	0.0174448
778.817	0.0175694
778.895	0.0175301
778.973	0.0174108
779.051	0.0175735
779.129	0.0174383
779.207	0.0172331
779.285	0.0172006
779.363	0.0171830
779.442	0.0173146
779.520	0.0171272
779.598	0.0171159
779.676	0.0169622
779.754	0.0170228
779.832	0.0170319
779.910	0.0168452
779.988	0.0168620
780.067	0.0169378
780.145	0.0169305
780.223	0.0170434
780.301	0.0169778
780.379	0.0170377
780.457	0.0171880
780.535	0.0171471
780.613	0.0172449
780.692	0.0172445
780.770	0.0172294
780.848	0.0173783
780.926	0.0174844
781.004	0.0174399
781.082	0.0175000
781.160	0.0174535
781.238	0.0175866
781.317	0.0174775
781.395	0.0174780
781.473	0.0175150
781.551	0.0175501
781.629	0.0175315
781.707	0.0174593
781.785	0.0175338
781.863	0.0175672
781.942	0.0175566
782.020	0.0176403
782.098	0.0177224
782.176	0.0176043
782.254	0.0176572
782.332	0.0177499
782.410	0.0176953
782.488	0.0176765
782.567	0.0176021
782.645	0.0176178
782.723	0.0174168
782.801	0.0173389
782.879	0.0173343
782.957	0.0172823
783.035	0.0170557
783.113	0.0169978
783.192	0.0169467
783.270	0.0169164
783.348	0.0170088
783.426	0.0168794
783.504	0.0170129
783.582	0.0169209
783.660	0.0168787
783.738	0.0171207
783.817	0.0172591
783.895	0.0172839
783.973	0.0173698
784.051	0.0175005
784.129	0.0175870
784.207	0.0177022
784.285	0.0177306
784.363	0.0179712
784.442	0.0177419
784.520	0.0177185
784.598	0.0176791
784.676	0.0177516
784.754	0.0176563
784.832	0.0176202
784.910	0.0175003
784.988	0.0174140
785.067	0.0172300
785.145	0.0172043
785.223	0.0172652
785.301	0.0170356
785.379	0.0170455
785.457	0.0169031
785.535	0.0168759
785.613	0.0168691
785.692	0.0169532
785.770	0.0168965
785.848	0.0170499
785.926	0.0172275
786.004	0.0171960
786.082	0.0172216
786.160	0.0173377
786.238	0.0173689
786.317	0.0174863
786.395	0.0174325
786.473	0.0174913
786.551	0.0175783
786.629	0.0174709
786.707	0.0174762
786.785	0.0174613
786.863	0.0174695
786.942	0.0173391
787.020	0.0172822
787.098	0.0172729
787.176	0.0174392
787.254	0.0172261
787.332	0.0173209
787.410	0.0174429
787.488	0.0173808
787.567	0.0174785
787.645	0.0173735
787.723	0.0173454
787.801	0.0175366
787.879	0.0174715
787.957	0.0174071
788.035	0.0174108
788.113	0.0171989
788.192	0.0174628
788.270	0.0173136
788.348	0.0173656
788.426	0.0175312
788.504	0.0173698
788.582	0.0172904
788.660	0.0173891
788.738	0.0173541
788.817	0.0173496
788.895	0.0172170
788.973	0.0173061
789.051	0.0172934
789.129	0.0171769
789.207	0.0172456
789.285	0.0172861
789.363	0.0172414
789.442	0.0171595
789.520	0.0171533
789.598	0.0171872
789.676	0.0171379
789.754	0.0171017
789.832	0.0171958
789.910	0.0171915
789.988	0.0172864
790.067	0.0173132
790.145	0.0174096
790.223	0.0173624
790.301	0.0174193
790.379	0.0174152
790.457	0.0175201
790.535	0.0175313
790.613	0.0176392
790.692	0.0177068
790.770	0.0176899
790.848	0.0177870
790.926	0.0176535
791.004	0.0178008
791.082	0.0177872
791.160	0.0177859
791.238	0.0177265
791.317	0.0176458
791.395	0.0176199
791.473	0.0177968
791.551	0.0175666
791.629	0.0176993
791.707	0.0176003
791.785	0.0174834
791.863	0.0173599
791.942	0.0173721
792.020	0.0170479
792.098	0.0171339
792.176	0.0171798
792.254	0.0169682
792.332	0.0170343
792.410	0.0169368
792.488	0.0169102
792.567	0.0167831
792.645	0.0166943
792.723	0.0168858
792.801	0.0167493
792.879	0.0168184
792.957	0.0167773
793.035	0.0168674
793.113	0.0168341
793.192	0.0170363
793.270	0.0170324
793.348	0.0169592
793.426	0.0172433
793.504	0.0172699
793.582	0.0173307
793.660	0.0173880
793.738	0.0173145
793.817	0.0174472
793.895	0.0174512
793.973	0.0175090
794.051	0.0175354
794.129	0.0175607
794.207	0.0176121
794.285	0.0175648
794.363	0.0176388
794.442	0.0177922
794.520	0.0176607
794.598	0.0175690
794.676	0.0178021
794.754	0.0176128
794.832	0.0177207
794.910	0.0176622
794.988	0.0175938
795.067	0.0176625
795.145	0.0176510
795.223	0.0175713
795.301	0.0174256
795.379	0.0172503
795.457	0.0172075
795.535	0.0172172
795.613	0.0172626
795.692	0.0171204
795.770	0.0170964
795.848	0.0169634
795.926	0.0172715
796.004	0.0170734
796.082	0.0171666
796.160	0.0171238
796.238	0.0170850
796.317	0.0172027
796.395	0.0172385
796.473	0.0172073
796.551	0.0174093
796.629	0.0174132
796.707	0.0174452
796.785	0.0175059
796.863	0.0175432
796.942	0.0176036
797.020	0.0176092
797.098	0.0176317
797.176	0.0175123
797.254	0.0175936
797.332	0.0176077
797.410	0.0174208
797.488	0.0175114
797.567	0.0173293
797.645	0.0173705
797.723	0.0172062
797.801	0.0173759
797.879	0.0173284
797.957	0.0172186
798.035	0.0172243
798.113	0.0171616
798.192	0.0172574
798.270	0.0172158
798.348	0.0170464
798.426	0.0171682
798.504	0.0171416
798.582	0.0172861
798.660	0.0172268
798.738	0.0173715
798.817	0.0175794
798.895	0.0175715
798.973	0.0175234
799.051	0.0175356
799.129	0.0175607
799.207	0.0175421
799.285	0.0176194
799.363	0.0176180
799.442	0.0174741
799.520	0.0175708
799.598	0.0174344
799.676	0.0174056
799.754	0.0172605
799.832	0.0172504
799.910	0.0171678
799.988	0.0170113
800.067	0.0168091
800.145	0.0167736
800.223	0.0168721
800.301	0.0167750
800.379	0.0166311
800.457	0.0166512
800.535	0.0167441
800.613	0.0168264
800.692	0.0168816
800.770	0.0167512
800.848	0.0169244
800.926	0.0168284
801.004	0.0171136
801.082	0.0170432
801.160	0.0171716
801.238	0.0171660
801.317	0.0172223
801.395	0.0172128
801.473	0.0173417
801.551	0.0174750
801.629	0.0175058
801.707	0.0177457
801.785	0.0176377
801.863	0.0175443
801.942	0.0176624
802.020	0.0175724
802.098	0.0176505
802.176	0.0176512
802.254	0.0176359
802.332	0.0175694
802.410	0.0174893
802.488	0.0175312
802.567	0.0173808
802.645	0.0175153
802.723	0.0175424
802.801	0.0173123
802.879	0.0172752
802.957	0.0173615
803.035	0.0172869
803.113	0.0172181
803.192	0.0170829
803.270	0.0172834
803.348	0.0169783
803.426	0.0171149
803.504	0.0170727
803.582	0.0172095
803.660	0.0169830
803.738	0.0170074
803.817	0.0171275
803.895	0.0171423
803.973	0.0171348
804.051	0.0172636
804.129	0.0172437
804.207	0.0173136
804.285	0.0172886
804.363	0.0172656
804.442	0.0174702
804.520	0.0175321
804.598	0.0176436
804.676	0.0175227
804.754	0.0176160
804.832	0.0176395
804.910	0.0177095
804.988	0.0179494
805.067	0.0177319
805.145	0.0178153
805.223	0.0177658
805.301	0.0177954
805.379	0.0178410
805.457	0.0179401
805.535	0.0178216
805.613	0.0177097
805.692	0.0175887
805.770	0.0174912
805.848	0.0174249
805.926	0.0174358
806.004	0.0172603
806.082	0.0168644
806.160	0.0167692
806.238	0.0169646
806.317	0.0167773
806.395	0.0168035
806.473	0.0166717
806.551	0.0167553
806.629	0.0168157
806.707	0.0168964
806.785	0.0168025
806.863	0.0168078
806.942	0.0167913
807.020	0.0169107
807.098	0.0170110
807.176	0.0170892
807.254	0.0170584
807.332	0.0171289
807.410	0.0172625
807.488	0.0171388
807.567	0.0171027
807.645	0.0171520
807.723	0.0171855
807.801	0.0168452
807.879	0.0170298
807.957	0.0171279
808.035	0.0170216
808.113	0.0170078
808.192	0.0168837
808.270	0.0169451
808.348	0.0170699
808.426	0.0171339
808.504	0.0170453
808.582	0.0169733
808.660	0.0171449
808.738	0.0173164
808.817	0.0174789
808.895	0.0174599
808.973	0.0173833
809.051	0.0176073
809.129	0.0174602
809.207	0.0176877
809.285	0.0178836
809.363	0.0177918
809.442	0.0177149
809.520	0.0177643
809.598	0.0177496
809.676	0.0178481
809.754	0.0178930
809.832	0.0177079
809.910	0.0177650
809.988	0.0178244
810.067	0.0177465
810.145	0.0178048
810.223	0.0177433
810.301	0.0177111
810.379	0.0178286
810.457	0.0176478
810.535	0.0175172
810.613	0.0174715
810.692	0.0173154
810.770	0.0173985
810.848	0.0173727
810.926	0.0172265
811.004	0.0172540
811.082	0.0171789
811.160	0.0172003
811.238	0.0169617
811.317	0.0171018
811.395	0.0170660
811.473	0.0170769
811.551	0.0171371
811.629	0.0170375
811.707	0.0169016
811.785	0.0169539
811.863	0.0170436
811.942	0.0170017
812.020	0.0170065
812.098	0.0170931
812.176	0.0171561
812.254	0.0171686
812.332	0.0171793
812.410	0.0170469
812.488	0.0170502
812.567	0.0172517
812.645	0.0171737
812.723	0.0171085
812.801	0.0169600
812.879	0.0169986
812.957	0.0169985
813.035	0.0170532
813.113	0.0168407
813.192	0.0168747
813.270	0.0169420
813.348	0.0168879
813.426	0.0169434
813.504	0.0168646
813.582	0.0170013
813.660	0.0169138
813.738	0.0170551
813.817	0.0170006
813.895	0.0172147
813.973	0.0173637
814.051	0.0172635
814.129	0.0175447
814.207	0.0175829
814.285	0.0176860
814.363	0.0176786
814.442	0.0177309
814.520	0.0176849
814.598	0.0178503
814.676	0.0179115
814.754	0.0177867
814.832	0.0178508
814.910	0.0180154
814.988	0.0179221
815.067	0.0178809
815.145	0.0177505
815.223	0.0176263
815.301	0.0178651
815.379	0.0176450
815.457	0.0175999
815.535	0.0175161
815.613	0.0175560
815.692	0.0174301
815.770	0.0174150
815.848	0.0174079
815.926	0.0173637
816.004	0.0171882
816.082	0.0172106
816.160	0.0172655
816.238	0.0172852
816.317	0.0171373
816.395	0.0170197
816.473	0.0171175
816.551	0.0170174
816.629	0.0170543
816.707	0.0171712
816.785	0.0171342
816.863	0.0170602
816.942	0.0171778
817.020	0.0170565
817.098	0.0170943
817.176	0.0171619
817.254	0.0170969
817.332	0.0171809
817.410	0.0170436
817.488	0.0170854
817.567	0.0172339
817.645	0.0173140
817.723	0.0172416
817.801	0.0171236
817.879	0.0170744
817.957	0.0170594
818.035	0.0172437
818.113	0.0173866
818.192	0.0173015
818.270	0.0171785
818.348	0.0171607
818.426	0.0173090
818.504	0.0174006
818.582	0.0172141
818.660	0.0172033
818.738	0.0172080
818.817	0.0171407
818.895	0.0171946
818.973	0.0173128
819.051	0.0173830
819.129	0.0173423
819.207	0.0172903
819.285	0.0173163
819.363	0.0173651
819.442	0.0174635
819.520	0.0174067
819.598	0.0175809
819.676	0.0176038
819.754	0.0176855
819.832	0.0175701
819.910	0.0176952
819.988	0.0176702
820.067	0.0178165
820.145	0.0177429
820.223	0.0177384
820.301	0.0176741
820.379	0.0176285
820.457	0.0177615
820.535	0.0176926
820.613	0.0177863
820.692	0.0178384
820.770	0.0178333
820.848	0.0178610
820.926	0.0177276
821.004	0.0177554
821.082	0.0175966
821.160	0.0177592
821.238	0.0176135
821.317	0.0176128
821.395	0.0174834
821.473	0.0176517
821.551	0.0175291
821.629	0.0175072
821.707	0.0175217
821.785	0.0173906
821.863	0.0172987
821.942	0.0174173
822.020	0.0173443
822.098	0.0170922
822.176	0.0170238
822.254	0.0169962
822.332	0.0169604
822.410	0.0168484
822.488	0.0166299
822.567	0.0165409
822.645	0.0166006
822.723	0.0164610
822.801	0.0165587
822.879	0.0164236
822.957	0.0164938
823.035	0.0163313
823.113	0.0163020
823.192	0.0164559
823.270	0.0163761
823.348	0.0164454
823.426	0.0165337
823.504	0.0166326
823.582	0.0167771
823.660	0.0168226
823.738	0.0168266
823.817	0.0170868
823.895	0.0171381
823.973	0.0172338
824.051	0.0172292
824.129	0.0173182
824.207	0.0173773
824.285	0.0176184
824.363	0.0177048
824.442	0.0177461
824.520	0.0176719
824.598	0.0177061
824.676	0.0178990
824.754	0.0179857
824.832	0.0179700
824.910	0.0178234
824.988	0.0180196
825.067	0.0179247
825.145	0.0179465
825.223	0.0181012
825.301	0.0179951
825.379	0.0180685
825.457	0.0181028
825.535	0.0180035
825.613	0.0180833
825.692	0.0179229
825.770	0.0177908
825.848	0.0179256
825.926	0.0177465
826.004	0.0178470
826.082	0.0177924
826.160	0.0177543
826.238	0.0177967
826.317	0.0177225
826.395	0.0176544
826.473	0.0175234
826.551	0.0176353
826.629	0.0175787
826.707	0.0174284
826.785	0.0174201
826.863	0.0173473
826.942	0.0171175
827.020	0.0170821
827.098	0.0170148
827.176	0.0169067
827.254	0.0168264
827.332	0.0168533
827.410	0.0167444
827.488	0.0167292
827.567	0.0165242
827.645	0.0164558
827.723	0.0163708
827.801	0.0164754
827.879	0.0164286
827.957	0.0164424
828.035	0.0165269
828.113	0.0164136
828.192	0.0164440
828.270	0.0163927
828.348	0.0164999
828.426	0.0165966
828.504	0.0167456
828.582	0.0169370
828.660	0.0169672
828.738	0.0171684
828.817	0.0172710
828.895	0.0172238
828.973	0.0173210
829.051	0.0175165
829.129	0.0174647
829.207	0.0175427
829.285	0.0176572
829.363	0.0177751
829.442	0.0175981
829.520	0.0176488
829.598	0.0177651
829.676	0.0178249
829.754	0.0177284
829.832	0.0177925
829.910	0.0176476
829.988	0.0176054
830.067	0.0177148
830.145	0.0177827
830.223	0.0176202
830.301	0.0176620
830.379	0.0177719
830.457	0.0176492
830.535	0.0175342
830.613	0.0177365
830.692	0.0176894
830.770	0.0176890
830.848	0.0177560
830.926	0.0177538
831.004	0.0176068
831.082	0.0174999
831.160	0.0174410
831.238	0.0175938
831.317	0.0175571
831.395	0.0175367
831.473	0.0175031
831.551	0.0173555
831.629	0.0174024
831.707	0.0173049
831.785	0.0173498
831.863	0.0173316
831.942	0.0172866
832.020	0.0172540
832.098	0.0171840
832.176	0.0172109
832.254	0.0170733
832.332	0.0171184
832.410	0.0170730
832.488	0.0169450
832.567	0.0172042
832.645	0.0170665
832.723	0.0170576
832.801	0.0171280
832.879	0.0172304
832.957	0.0173075
833.035	0.0171490
833.113	0.0173016
833.192	0.0174239
833.270	0.0173762
833.348	0.0172395
833.426	0.0174844
833.504	0.0175626
833.582	0.0174886
833.660	0.0174118
833.738	0.0175218
833.817	0.0175007
833.895	0.0174663
833.973	0.0174013
834.051	0.0174663
834.129	0.0175286
834.207	0.0174084
834.285	0.0173721
834.363	0.0172688
834.442	0.0174081
834.520	0.0173306
834.598	0.0173253
834.676	0.0171526
834.754	0.0172206
834.832	0.0172168
834.910	0.0172153
834.988	0.0172333
835.067	0.0171781
835.145	0.0170969
835.223	0.0170616
835.301	0.0170183
835.379	0.0169746
835.457	0.0168710
835.535	0.0169640
835.613	0.0169746
835.692	0.0168403
835.770	0.0168306
835.848	0.0169220
835.926	0.0168976
836.004	0.0168682
836.082	0.0169930
836.160	0.0169260
836.238	0.0171764
836.317	0.0171567
836.395	0.0171236
836.473	0.0173440
836.551	0.0173583
836.629	0.0174359
836.707	0.0175005
836.785	0.0177464
836.863	0.0178587
836.942	0.0177130
837.020	0.0176629
837.098	0.0178292
837.176	0.0179556
837.254	0.0179056
837.332	0.0178951
837.410	0.0178688
837.488	0.0179006
837.567	0.0179287
837.645	0.0177143
837.723	0.0176194
837.801	0.0177374
837.879	0.0176701
837.957	0.0174837
838.035	0.0175295
838.113	0.0176159
838.192	0.0173087
838.270	0.0174677
838.348	0.0174300
838.426	0.0173808
838.504	0.0172939
838.582	0.0172956
838.660	0.0172003
838.738	0.0171510
838.817	0.0172110
838.895	0.0173299
838.973	0.0172989
839.051	0.0172831
839.129	0.0173721
839.207	0.0172659
839.285	0.0173592
839.363	0.0173655
839.442	0.0173367
839.520	0.0172446
839.598	0.0173799
839.676	0.0173667
839.754	0.0172649
839.832	0.0171476
839.910	0.0171197
839.988	0.0172050
840.067	0.0171651
840.145	0.0170271
840.223	0.0168783
840.301	0.0170222
840.379	0.0168800
840.457	0.0169608
840.535	0.0168651
840.613	0.0168582
840.692	0.0169409
840.770	0.0168650
840.848	0.0169038
840.926	0.0169598
841.004	0.0169958
841.082	0.0170056
841.160	0.0170210
841.238	0.0171538
841.317	0.0172626
841.395	0.0171983
841.473	0.0173302
841.551	0.0174178
841.629	0.0175765
841.707	0.0175510
841.785	0.0175845
841.863	0.0173919
841.942	0.0175736
842.020	0.0175340
842.098	0.0174606
842.176	0.0174984
842.254	0.0176496
842.332	0.0176296
842.410	0.0174870
842.488	0.0175067
842.567	0.0175716
842.645	0.0175494
842.723	0.0174900
842.801	0.0174224
842.879	0.0174105
842.957	0.0174461
843.035	0.0175156
843.113	0.0173946
843.192	0.0173615
843.270	0.0174558
843.348	0.0173728
843.426	0.0173887
843.504	0.0173560
843.582	0.0173727
843.660	0.0173229
843.738	0.0173223
843.817	0.0173010
843.895	0.0173531
843.973	0.0173829
844.051	0.0174046
844.129	0.0173425
844.207	0.0173576
844.285	0.0173880
844.363	0.0174413
844.442	0.0173956
844.520	0.0175052
844.598	0.0175756
844.676	0.0175275
844.754	0.0173801
844.832	0.0174493
844.910	0.0175651
844.988	0.0176392
845.067	0.0176276
845.145	0.0175022
845.223	0.0176325
845.301	0.0177276
845.379	0.0176979
845.457	0.0175318
845.535	0.0175709
845.613	0.0176399
845.692	0.0174767
845.770	0.0175543
845.848	0.0174882
845.926	0.0175390
846.004	0.0174007
846.082	0.0174729
846.160	0.0174701
846.238	0.0173499
846.317	0.0172138
846.395	0.0172182
846.473	0.0172593
846.551	0.0172114
846.629	0.0170530
846.707	0.0170395
846.785	0.0171133
846.863	0.0169893
846.942	0.0171272
847.020	0.0170454
847.098	0.0169686
847.176	0.0168826
847.254	0.0169802
847.332	0.0170119
847.410	0.0170085
847.488	0.0170165
847.567	0.0170483
847.645	0.0168806
847.723	0.0169857
847.801	0.0169971
847.879	0.0168465
847.957	0.0169590
848.035	0.0171011
848.113	0.0171001
848.192	0.0170895
848.270	0.0172211
848.348	0.0173473
848.426	0.0172654
848.504	0.0173302
848.582	0.0174678
848.660	0.0173518
848.738	0.0173724
848.817	0.0175185
848.895	0.0175272
848.973	0.0175298
849.051	0.0175423
849.129	0.0174126
849.207	0.0176023
849.285	0.0176704
849.363	0.0175400
849.442	0.0177414
849.520	0.0177473
849.598	0.0177083
849.676	0.0176520
849.754	0.0177802
849.832	0.0177805
849.910	0.0177243
849.988	0.0178391
850.067	0.0177499
850.145	0.0178651
850.223	0.0179502
850.301	0.0177644
850.379	0.0179502
850.457	0.0178288
850.535	0.0176765
850.613	0.0177821
850.692	0.0177633
850.770	0.0177303
850.848	0.0176536
850.926	0.0176237
851.004	0.0175669
851.082	0.0176122
851.160	0.0175031
851.238	0.0175874
851.317	0.0175866
851.395	0.0174323
851.473	0.0174352
851.551	0.0174564
851.629	0.0174798
851.707	0.0173190
851.785	0.0174603
851.863	0.0175060
851.942	0.0173779
852.020	0.0175162
852.098	0.0174319
852.176	0.0174271
852.254	0.0173551
852.332	0.0173208
852.410	0.0172050
852.488	0.0172434
852.567	0.0171671
852.645	0.0170803
852.723	0.0171516
852.801	0.0169548
852.879	0.0167775
852.957	0.0168881
853.035	0.0170512
853.113	0.0169641
853.192	0.0167381
853.270	0.0167201
853.348	0.0168417
853.426	0.0167645
853.504	0.0167863
853.582	0.0167974
853.660	0.0167923
853.738	0.0167952
853.817	0.0167238
853.895	0.0168960
853.973	0.0167619
854.051	0.0169186
854.129	0.0170101
854.207	0.0168797
854.285	0.0170814
854.363	0.0171201
854.442	0.0171683
854.520	0.0172913
854.598	0.0172727
854.676	0.0172702
854.754	0.0173334
854.832	0.0175159
854.910	0.0173032
854.988	0.0175536
855.067	0.0176109
855.145	0.0175887
855.223	0.0176631
855.301	0.0175269
855.379	0.0175494
855.457	0.0176095
855.535	0.0176431
855.613	0.0175997
855.692	0.0176994
855.770	0.0178040
855.848	0.0177232
855.926	0.0178599
856.004	0.0177050
856.082	0.0177280
856.160	0.0178629
856.238	0.0180495
856.317	0.0178620
856.395	0.0179786
856.473	0.0179647
856.551	0.0179970
856.629	0.0180215
856.707	0.0180224
856.785	0.0178278
856.863	0.0179435
856.942	0.0179137
857.020	0.0179587
857.098	0.0177877
857.176	0.0176981
857.254	0.0176871
857.332	0.0175219
857.410	0.0174966
857.488	0.0173857
857.567	0.0174958
857.645	0.0173681
857.723	0.0173030
857.801	0.0172253
857.879	0.0172572
857.957	0.0170716
858.035	0.0170742
858.113	0.0171972
858.192	0.0170723
858.270	0.0169519
858.348	0.0170147
858.426	0.0169013
858.504	0.0170255
858.582	0.0169394
858.660	0.0169749
858.738	0.0169070
858.817	0.0170538
858.895	0.0168712
858.973	0.0169653
859.051	0.0169997
859.129	0.0168911
859.207	0.0170197
859.285	0.0169340
859.363	0.0171288
859.442	0.0169777
859.520	0.0170250
859.598	0.0169735
859.676	0.0170145
859.754	0.0171038
859.832	0.0170641
859.910	0.0170756
859.988	0.0171362
860.067	0.0170368
860.145	0.0169875
860.223	0.0171130
860.301	0.0171926
860.379	0.0172523
860.457	0.0173067
860.535	0.0171845
860.613	0.0173196
860.692	0.0173077
860.770	0.0172610
860.848	0.0171771
860.926	0.0172420
861.004	0.0173619
861.082	0.0173977
861.160	0.0174337
861.238	0.0174720
861.317	0.0174853
861.395	0.0175417
861.473	0.0174881
861.551	0.0176300
861.629	0.0176977
861.707	0.0177145
861.785	0.0176794
861.863	0.0177426
861.942	0.0177275
862.020	0.0178790
862.098	0.0177638
862.176	0.0178231
862.254	0.0177390
862.332	0.0178486
862.410	0.0177614
862.488	0.0176386
862.567	0.0176215
862.645	0.0174528
862.723	0.0175210
862.801	0.0176178
862.879	0.0174874
862.957	0.0174718
863.035	0.0173752
863.113	0.0172548
863.192	0.0173258
863.270	0.0174493
863.348	0.0173885
863.426	0.0173078
863.504	0.0172219
863.582	0.0173999
863.660	0.0174792
863.738	0.0173073
863.817	0.0173703
863.895	0.0173628
863.973	0.0174583
864.051	0.0174660
864.129	0.0173531
864.207	0.0173070
864.285	0.0174317
864.363	0.0173161
864.442	0.0172329
864.520	0.0173239
864.598	0.0171950
864.676	0.0172237
864.754	0.0172395
864.832	0.0171101
864.910	0.0173167
864.988	0.0171411
865.067	0.0172807
865.145	0.0172535
865.223	0.0172731
865.301	0.0171198
865.379	0.0172903
865.457	0.0172863
865.535	0.0172659
865.613	0.0172533
865.692	0.0172548
865.770	0.0173379
865.848	0.0173073
865.926	0.0172163
866.004	0.0172237
866.082	0.0171007
866.160	0.0170881
866.238	0.0170296
866.317	0.0172179
866.395	0.0172601
866.473	0.0171417
866.551	0.0172543
866.629	0.0171605
866.707	0.0171963
866.785	0.0173579
866.863	0.0173271
866.942	0.0173267
867.020	0.0173071
867.098	0.0172654
867.176	0.0174109
867.254	0.0174611
867.332	0.0172691
867.410	0.0173293
867.488	0.0173215
867.567	0.0174632
867.645	0.0175824
867.723	0.0174702
867.801	0.0174759
867.879	0.0173802
867.957	0.0174128
868.035	0.0174712
868.113	0.0174149
868.192	0.0174303
868.270	0.0174327
868.348	0.0173312
868.426	0.0174318
868.504	0.0173340
868.582	0.0174889
868.660	0.0173932
868.738	0.0173465
868.817	0.0174089
868.895	0.0175198
868.973	0.0174277
869.051	0.0173651
869.129	0.0174365
869.207	0.0174932
869.285	0.0175282
869.363	0.0175378
869.442	0.0174924
869.520	0.0173892
869.598	0.0175412
869.676	0.0174449
869.754	0.0174719
869.832	0.0174602
869.910	0.0174405
869.988	0.0174406
870.067	0.0174372
870.145	0.0173579
870.223	0.0173582
870.301	0.0173823
870.379	0.0173528
870.457	0.0174073
870.535	0.0173026
870.613	0.0175031
870.692	0.0172932
870.770	0.0173593
870.848	0.0172952
870.926	0.0172253
871.004	0.0172275
871.082	0.0173035
871.160	0.0172395
871.238	0.0171170
871.317	0.0171801
871.395	0.0171743
871.473	0.0171078
871.551	0.0172072
871.629	0.0171133
871.707	0.0169830
871.785	0.0171664
871.863	0.0172036
871.942	0.0171983
872.020	0.0171534
872.098	0.0170731
872.176	0.0171689
872.254	0.0171140
872.332	0.0172143
872.410	0.0171267
872.488	0.0172419
872.567	0.0172552
872.645	0.0170490
872.723	0.0171804
872.801	0.0172667
872.879	0.0172578
872.957	0.0172285
873.035	0.0172327
873.113	0.0172568
873.192	0.0174197
873.270	0.0173313
873.348	0.0173306
873.426	0.0173356
873.504	0.0173727
873.582	0.0173474
873.660	0.0174712
873.738	0.0174716
873.817	0.0173857
873.895	0.0173585
873.973	0.0173940
874.051	0.0173341
874.129	0.0173915
874.207	0.0173505
874.285	0.0173208
874.363	0.0174865
874.442	0.0173913
874.520	0.0172787
874.598	0.0173901
874.676	0.0175831
874.754	0.0175626
874.832	0.0174922
874.910	0.0174947
874.988	0.0174775
875.067	0.0175671
875.145	0.0174663
875.223	0.0174454
875.301	0.0174911
875.379	0.0174042
875.457	0.0173803
875.535	0.0174795
875.613	0.0173221
875.692	0.0173566
875.770	0.0172279
875.848	0.0173310
875.926	0.0172240
876.004	0.0172353
876.082	0.0172370
876.160	0.0172506
876.238	0.0171919
876.317	0.0171537
876.395	0.0173339
876.473	0.0171483
876.551	0.0170621
876.629	0.0171352
876.707	0.0170847
876.785	0.0170097
876.863	0.0167315
876.942	0.0167695
877.020	0.0168964
877.098	0.0170491
877.176	0.0170408
877.254	0.0169477
877.332	0.0171033
877.410	0.0173801
877.488	0.0174237
877.567	0.0174580
877.645	0.0175614
877.723	0.0179628
877.801	0.0178466
877.879	0.0178951
877.957	0.0179305
878.035	0.0177909
878.113	0.0180080
878.192	0.0178443
878.270	0.0176544
878.348	0.0175497
878.426	0.0173129
878.504	0.0170874
878.582	0.0169824
878.660	0.0168904
878.738	0.0166675
878.817	0.0167001
878.895	0.0168058
878.973	0.0165662
879.051	0.0166132
879.129	0.0167004
879.207	0.0168940
879.285	0.0170589
879.363	0.0172791
879.442	0.0173341
879.520	0.0173781
879.598	0.0175679
879.676	0.0178963
879.754	0.0179348
879.832	0.0179931
879.910	0.0180630
879.988	0.0181792
880.067	0.0180437
880.145	0.0179965
880.223	0.0181287
880.301	0.0179384
880.379	0.0177122
880.457	0.0175392
880.535	0.0173874
880.613	0.0172125
880.692	0.0171088
880.770	0.0170274
880.848	0.0169367
880.926	0.0166874
881.004	0.0168324
881.082	0.0169302
881.160	0.0167301
881.238	0.0166649
881.317	0.0167790
881.395	0.0167466
881.473	0.0168251
881.551	0.0170554
881.629	0.0170013
881.707	0.0170992
881.785	0.0170766
881.863	0.0171223
881.942	0.0170802
882.020	0.0172882
882.098	0.0174526
882.176	0.0174798
882.254	0.0177401
882.332	0.0177612
882.410	0.0178866
882.488	0.0179002
882.567	0.0181132
882.645	0.0181186
882.723	0.0180962
882.801	0.0180771
882.879	0.0180701
882.957	0.0180023
883.035	0.0179121
883.113	0.0178015
883.192	0.0176548
883.270	0.0175906
883.348	0.0173709
883.426	0.0172175
883.504	0.0171722
883.582	0.0170580
883.660	0.0169331
883.738	0.0167859
883.817	0.0166934
883.895	0.0166277
883.973	0.0166827
884.051	0.0166039
884.129	0.0167155
884.207	0.0167665
884.285	0.0168060
884.363	0.0169382
884.442	0.0167247
884.520	0.0170507
884.598	0.0173906
884.676	0.0174155
884.754	0.0174933
884.832	0.0175316
884.910	0.0176254
884.988	0.0177614
885.067	0.0178104
885.145	0.0180421
885.223	0.0180365
885.301	0.0179443
885.379	0.0179723
885.457	0.0179309
885.535	0.0178488
885.613	0.0177184
885.692	0.0176796
885.770	0.0175411
885.848	0.0174883
885.926	0.0174776
886.004	0.0172894
886.082	0.0172533
886.160	0.0172104
886.238	0.0170596
886.317	0.0169666
886.395	0.0170170
886.473	0.0169038
886.551	0.0169616
886.629	0.0169042
886.707	0.0167174
886.785	0.0168445
886.863	0.0168889
886.942	0.0167199
887.020	0.0166725
887.098	0.0167524
887.176	0.0168549
887.254	0.0169774
887.332	0.0171970
887.410	0.0170856
887.488	0.0172440
887.567	0.0172283
887.645	0.0173003
887.723	0.0174184
887.801	0.0175618
887.879	0.0176640
887.957	0.0177174
888.035	0.0176247
888.113	0.0175591
888.192	0.0176288
888.270	0.0178336
888.348	0.0177711
888.426	0.0177751
888.504	0.0176958
888.582	0.0176597
888.660	0.0177616
888.738	0.0178010
888.817	0.0175864
888.895	0.0176218
888.973	0.0175938
889.051	0.0175325
889.129	0.0172018
889.207	0.0173020
889.285	0.0172093
889.363	0.0170872
889.442	0.0169901
889.520	0.0169548
889.598	0.0168659
889.676	0.0168653
889.754	0.0168868
889.832	0.0167277
889.910	0.0169069
889.988	0.0168637
890.067	0.0170670
890.145	0.0169758
890.223	0.0170269
890.301	0.0170524
890.379	0.0170996
890.457	0.0172852
890.535	0.0172208
890.613	0.0173055
890.692	0.0174956
890.770	0.0175070
890.848	0.0175432
890.926	0.0175717
891.004	0.0175684
891.082	0.0174761
891.160	0.0174153
891.238	0.0175852
891.317	0.0175497
891.395	0.0174319
891.473	0.0175253
891.551	0.0175156
891.629	0.0173986
891.707	0.0173291
891.785	0.0172430
891.863	0.0173004
891.942	0.0172720
892.020	0.0171127
892.098	0.0171584
892.176	0.0171278
892.254	0.0170043
892.332	0.0171056
892.410	0.0171152
892.488	0.0170270
892.567	0.0170257
892.645	0.0170438
892.723	0.0171399
892.801	0.0171811
892.879	0.0172689
892.957	0.0173470
893.035	0.0174877
893.113	0.0174068
893.192	0.0175317
893.270	0.0174782
893.348	0.0174769
893.426	0.0174789
893.504	0.0175446
893.582	0.0177312
893.660	0.0175093
893.738	0.0174502
893.817	0.0172908
893.895	0.0173434
893.973	0.0174129
894.051	0.0173567
894.129	0.0172684
894.207	0.0172212
894.285	0.0172748
894.363	0.0173818
894.442	0.0172007
894.520	0.0171530
894.598	0.0171357
894.676	0.0172396
894.754	0.0171571
894.832	0.0171375
894.910	0.0171759
894.988	0.0171099
895.067	0.0172453
895.145	0.0171494
895.223	0.0170862
895.301	0.0171813
895.379	0.0172826
895.457	0.0173213
895.535	0.0173787
895.613	0.0174770
895.692	0.0173177
895.770	0.0173766
895.848	0.0174024
895.926	0.0175568
896.004	0.0174166
896.082	0.0174370
896.160	0.0174040
896.238	0.0173806
896.317	0.0173879
896.395	0.0175270
896.473	0.0173328
896.551	0.0174364
896.629	0.0173407
896.707	0.0173428
896.785	0.0171724
896.863	0.0171342
896.942	0.0173263
897.020	0.0170951
897.098	0.0172467
897.176	0.0173527
897.254	0.0172393
897.332	0.0172382
897.410	0.0172401
897.488	0.0172485
897.567	0.0172761
897.645	0.0172372
897.723	0.0173500
897.801	0.0174017
897.879	0.0172065
897.957	0.0173986
898.035	0.0174356
898.113	0.0174083
898.192	0.0172635
898.270	0.0172275
898.348	0.0174815
898.426	0.0173776
898.504	0.0173276
898.582	0.0171961
898.660	0.0172367
898.738	0.0172472
898.817	0.0172691
898.895	0.0171727
898.973	0.0173149
899.051	0.0171861
899.129	0.0172571
899.207	0.0172872
899.285	0.0172835
899.363	0.0173330
899.442	0.0175031
899.520	0.0172032
899.598	0.0172668
899.676	0.0172497
899.754	0.0174019
899.832	0.0174764
899.910	0.0175536
899.988	0.0173062
900.067	0.0174254
900.145	0.0176014
900.223	0.0175128
900.301	0.0173315
900.379	0.0174574
900.457	0.0175476
900.535	0.0176015
900.613	0.0175105
900.692	0.0175312
900.770	0.0173199
900.848	0.0172832
900.926	0.0172889
901.004	0.0173295
901.082	0.0172291
901.160	0.0170398
901.238	0.0171474
901.317	0.0170338
901.395	0.0171234
901.473	0.0170599
901.551	0.0169074
901.629	0.0169465
901.707	0.0170675
901.785	0.0170643
901.863	0.0171226
901.942	0.0171328
902.020	0.0171936
902.098	0.0172951
902.176	0.0171978
902.254	0.0172264
902.332	0.0173154
902.410	0.0172494
902.488	0.0173903
902.567	0.0173842
902.645	0.0172672
902.723	0.0172338
902.801	0.0173539
902.879	0.0173162
902.957	0.0173969
903.035	0.0175322
903.113	0.0173029
903.192	0.0174115
903.270	0.0174187
903.348	0.0174986
903.426	0.0175556
903.504	0.0176119
903.582	0.0175911
903.660	0.0175438
903.738	0.0176410
903.817	0.0177097
903.895	0.0177210
903.973	0.0176117
904.051	0.0175834
904.129	0.0175550
904.207	0.0175011
904.285	0.0175281
904.363	0.0174702
904.442	0.0175838
904.520	0.0173457
904.598	0.0174304
904.676	0.0172183
904.754	0.0171996
904.832	0.0172886
904.910	0.0172362
904.988	0.0171602
905.067	0.0171120
905.145	0.0170405
905.223	0.0170250
905.301	0.0170671
905.379	0.0170877
905.457	0.0169670
905.535	0.0168182
905.613	0.0169129
905.692	0.0170933
905.770	0.0171201
905.848	0.0170399
905.926	0.0170601
906.004	0.0170679
906.082	0.0171043
906.160	0.0171633
906.238	0.0171998
906.317	0.0172196
906.395	0.0171577
906.473	0.0173021
906.551	0.0173388
906.629	0.0173857
906.707	0.0173867
906.785	0.0174961
906.863	0.0173929
906.942	0.0175129
907.020	0.0175620
907.098	0.0176093
907.176	0.0174034
907.254	0.0174868
907.332	0.0175655
907.410	0.0176958
907.488	0.0176077
907.567	0.0174049
907.645	0.0175554
907.723	0.0175730
907.801	0.0173499
907.879	0.0174321
907.957	0.0174937
908.035	0.0176006
908.113	0.0174493
908.192	0.0172927
908.270	0.0173666
908.348	0.0174329
908.426	0.0175076
908.504	0.0173774
908.582	0.0174032
908.660	0.0174308
908.738	0.0173000
908.817	0.0172889
908.895	0.0172087
908.973	0.0173174
909.051	0.0173821
909.129	0.0171951
909.207	0.0172564
909.285	0.0170438
909.363	0.0170440
909.442	0.0170826
909.520	0.0169994
909.598	0.0171866
909.676	0.0169881
909.754	0.0170432
909.832	0.0170306
909.910	0.0170790
909.988	0.0171616
910.067	0.0170732
910.145	0.0169733
910.223	0.0171555
910.301	0.0170898
910.379	0.0171186
910.457	0.0172363
910.535	0.0172043
910.613	0.0172493
910.692	0.0172534
910.770	0.0173106
910.848	0.0173740
910.926	0.0174832
911.004	0.0174561
911.082	0.0174385
911.160	0.0173830
911.238	0.0174012
911.317	0.0174300
911.395	0.0174783
911.473	0.0175351
911.551	0.0173200
911.629	0.0172777
911.707	0.0173909
911.785	0.0174797
911.863	0.0174940
911.942	0.0174120
912.020	0.0175079
912.098	0.0174821
912.176	0.0174833
912.254	0.0174300
912.332	0.0173569
912.410	0.0175744
912.488	0.0174057
912.567	0.0173222
912.645	0.0174660
912.723	0.0172910
912.801	0.0174060
912.879	0.0174433
912.957	0.0173440
913.035	0.0174707
913.113	0.0172395
913.192	0.0174389
913.270	0.0173726
913.348	0.0172105
913.426	0.0173895
913.504	0.0173017
913.582	0.0172897
913.660	0.0172710
913.738	0.0174487
913.817	0.0173144
913.895	0.0172659
913.973	0.0172300
914.051	0.0172885
914.129	0.0173349
914.207	0.0173444
914.285	0.0172750
914.363	0.0172029
914.442	0.0172994
914.520	0.0173618
914.598	0.0172966
914.676	0.0174075
914.754	0.0174512
914.832	0.0173597
914.910	0.0172400
914.988	0.0173291
915.067	0.0173151
915.145	0.0172674
915.223	0.0171662
915.301	0.0174316
915.379	0.0173572
915.457	0.0173337
915.535	0.0172984
915.613	0.0173569
915.692	0.0173902
915.770	0.0175244
915.848	0.0174939
915.926	0.0174912
916.004	0.0174583
916.082	0.0173292
916.160	0.0174621
916.238	0.0175596
916.317	0.0174643
916.395	0.0175282
916.473	0.0174464
916.551	0.0174466
916.629	0.0174133
916.707	0.0174368
916.785	0.0173425
916.863	0.0174672
916.942	0.0174492
917.020	0.0173286
917.098	0.0172353
917.176	0.0173494
917.254	0.0173473
917.332	0.0172690
917.410	0.0172090
917.488	0.0171627
917.567	0.0171800
917.645	0.0172501
917.723	0.0171761
917.801	0.0173527
917.879	0.0173916
917.957	0.0172614
918.035	0.0173792
918.113	0.0173392
918.192	0.0172581
918.270	0.0174510
918.348	0.0175027
918.426	0.0172546
918.504	0.0173650
918.582	0.0174036
918.660	0.0173503
918.738	0.0173992
918.817	0.0175256
918.895	0.0173375
918.973	0.0173752
919.051	0.0172866
919.129	0.0172036
919.207	0.0172701
919.285	0.0171858
919.363	0.0172290
919.442	0.0172385
919.520	0.0172980
919.598	0.0172386
919.676	0.0172923
919.754	0.0173774
919.832	0.0172971
919.910	0.0173455
