05/24/2022	20:08:23	Ver.	4.1	UNKNOWN
Optical Delay	599.988409	Delta X		0.078125	Sweeps	1	Scan Rate	0/0
Coordinates	Axis 1	NaN	Axis 2	NaN	Axis 3	NaN	Axis 4	NaN	Axis 5	NaN	Axis 6	0.000000
TX Power	0.000000	RX Power	0.000000

599.988	0.0166968
600.067	0.0165500
600.145	0.0166725
600.223	0.0167008
600.301	0.0167142
600.379	0.0167258
600.457	0.0166583
600.535	0.0167803
600.613	0.0167094
600.692	0.0167116
600.770	0.0166700
600.848	0.0166309
600.926	0.0166815
601.004	0.0167300
601.082	0.0166571
601.160	0.0166286
601.238	0.0164992
601.317	0.0166995
601.395	0.0166480
601.473	0.0166428
601.551	0.0167643
601.629	0.0167535
601.707	0.0167327
601.785	0.0166413
601.863	0.0167942
601.942	0.0167089
602.020	0.0165823
602.098	0.0167283
602.176	0.0168325
602.254	0.0167290
602.332	0.0166892
602.410	0.0166204
602.488	0.0164559
602.567	0.0168661
602.645	0.0167451
602.723	0.0167424
602.801	0.0167889
602.879	0.0168079
602.957	0.0166947
603.035	0.0166748
603.113	0.0167354
603.192	0.0167796
603.270	0.0166589
603.348	0.0167641
603.426	0.0167247
603.504	0.0166706
603.582	0.0168284
603.660	0.0167305
603.738	0.0167846
603.817	0.0167543
603.895	0.0167304
603.973	0.0167108
604.051	0.0168185
604.129	0.0166596
604.207	0.0166283
604.285	0.0166839
604.363	0.0167938
604.442	0.0166354
604.520	0.0165863
604.598	0.0165871
604.676	0.0167106
604.754	0.0166264
604.832	0.0167168
604.910	0.0166326
604.988	0.0168269
605.067	0.0168113
605.145	0.0166847
605.223	0.0167545
605.301	0.0167323
605.379	0.0166779
605.457	0.0165607
605.535	0.0168057
605.613	0.0167507
605.692	0.0167699
605.770	0.0168062
605.848	0.0168047
605.926	0.0167875
606.004	0.0167107
606.082	0.0166964
606.160	0.0166749
606.238	0.0167322
606.317	0.0168015
606.395	0.0167893
606.473	0.0167568
606.551	0.0167803
606.629	0.0165793
606.707	0.0166985
606.785	0.0166376
606.863	0.0166463
606.942	0.0167233
607.020	0.0166944
607.098	0.0167893
607.176	0.0168076
607.254	0.0166983
607.332	0.0167620
607.410	0.0166692
607.488	0.0168791
607.567	0.0169409
607.645	0.0167976
607.723	0.0168275
607.801	0.0168242
607.879	0.0167786
607.957	0.0166233
608.035	0.0167719
608.113	0.0167172
608.192	0.0166331
608.270	0.0167700
608.348	0.0166189
608.426	0.0167101
608.504	0.0168449
608.582	0.0166846
608.660	0.0167180
608.738	0.0164684
608.817	0.0166808
608.895	0.0167217
608.973	0.0166836
609.051	0.0165726
609.129	0.0165871
609.207	0.0167081
609.285	0.0166570
609.363	0.0165584
609.442	0.0165846
609.520	0.0166747
609.598	0.0167083
609.676	0.0167451
609.754	0.0167367
609.832	0.0166921
609.910	0.0167525
609.988	0.0167452
610.067	0.0167767
610.145	0.0167795
610.223	0.0167494
610.301	0.0168499
610.379	0.0167429
610.457	0.0168132
610.535	0.0168196
610.613	0.0169286
610.692	0.0167667
610.770	0.0166342
610.848	0.0166931
610.926	0.0167434
611.004	0.0167166
611.082	0.0167967
611.160	0.0166473
611.238	0.0166235
611.317	0.0166358
611.395	0.0167001
611.473	0.0165593
611.551	0.0166227
611.629	0.0166349
611.707	0.0166547
611.785	0.0166422
611.863	0.0165651
611.942	0.0166654
612.020	0.0165335
612.098	0.0167406
612.176	0.0167867
612.254	0.0165828
612.332	0.0165963
612.410	0.0167262
612.488	0.0166380
612.567	0.0166794
612.645	0.0167429
612.723	0.0169518
612.801	0.0166398
612.879	0.0167207
612.957	0.0166440
613.035	0.0168315
613.113	0.0167408
613.192	0.0167857
613.270	0.0167444
613.348	0.0167730
613.426	0.0167544
613.504	0.0167471
613.582	0.0166670
613.660	0.0167710
613.738	0.0168962
613.817	0.0167356
613.895	0.0167697
613.973	0.0166971
614.051	0.0167477
614.129	0.0168098
614.207	0.0167202
614.285	0.0166090
614.363	0.0167040
614.442	0.0166782
614.520	0.0166895
614.598	0.0167484
614.676	0.0166692
614.754	0.0167509
614.832	0.0167842
614.910	0.0165719
614.988	0.0167719
615.067	0.0167615
615.145	0.0166823
615.223	0.0167823
615.301	0.0167841
615.379	0.0166417
615.457	0.0166756
615.535	0.0167263
615.613	0.0166898
615.692	0.0167995
615.770	0.0168670
615.848	0.0168011
615.926	0.0167998
616.004	0.0166192
616.082	0.0167365
616.160	0.0166358
616.238	0.0166624
616.317	0.0167543
616.395	0.0167304
616.473	0.0167124
616.551	0.0167599
616.629	0.0166232
616.707	0.0168177
616.785	0.0167587
616.863	0.0165827
616.942	0.0167692
617.020	0.0167573
617.098	0.0168412
617.176	0.0166791
617.254	0.0166726
617.332	0.0167462
617.410	0.0167751
617.488	0.0166321
617.567	0.0167292
617.645	0.0167396
617.723	0.0167868
617.801	0.0167976
617.879	0.0166197
617.957	0.0165391
618.035	0.0166917
618.113	0.0168275
618.192	0.0167011
618.270	0.0166609
618.348	0.0167262
618.426	0.0166880
618.504	0.0167095
618.582	0.0167611
618.660	0.0167291
618.738	0.0167080
618.817	0.0167885
618.895	0.0167247
618.973	0.0168124
619.051	0.0166181
619.129	0.0168848
619.207	0.0168385
619.285	0.0167601
619.363	0.0167407
619.442	0.0167477
619.520	0.0166915
619.598	0.0167687
619.676	0.0166751
619.754	0.0168083
619.832	0.0168122
619.910	0.0167916
619.988	0.0167406
620.067	0.0168224
620.145	0.0167175
620.223	0.0167202
620.301	0.0166669
620.379	0.0167487
620.457	0.0167973
620.535	0.0167298
620.613	0.0167360
620.692	0.0167290
620.770	0.0165503
620.848	0.0168209
620.926	0.0167975
621.004	0.0166216
621.082	0.0165944
621.160	0.0167346
621.238	0.0167106
621.317	0.0166984
621.395	0.0167603
621.473	0.0167057
621.551	0.0167387
621.629	0.0167008
621.707	0.0167399
621.785	0.0167446
621.863	0.0168450
621.942	0.0166127
622.020	0.0166819
622.098	0.0166831
622.176	0.0167275
622.254	0.0167772
622.332	0.0166949
622.410	0.0166806
622.488	0.0167198
622.567	0.0166709
622.645	0.0167439
622.723	0.0167655
622.801	0.0166431
622.879	0.0165376
622.957	0.0166695
623.035	0.0166859
623.113	0.0168556
623.192	0.0167866
623.270	0.0166577
623.348	0.0166954
623.426	0.0168481
623.504	0.0166944
623.582	0.0164845
623.660	0.0166281
623.738	0.0167360
623.817	0.0166140
623.895	0.0166116
623.973	0.0166900
624.051	0.0166232
624.129	0.0167959
624.207	0.0167712
624.285	0.0167365
624.363	0.0167500
624.442	0.0166872
624.520	0.0165578
624.598	0.0165791
624.676	0.0166213
624.754	0.0166546
624.832	0.0167161
624.910	0.0167507
624.988	0.0167423
625.067	0.0166436
625.145	0.0167219
625.223	0.0166363
625.301	0.0166750
625.379	0.0167265
625.457	0.0167148
625.535	0.0166341
625.613	0.0167363
625.692	0.0166518
625.770	0.0167307
625.848	0.0167541
625.926	0.0167765
626.004	0.0167756
626.082	0.0167155
626.160	0.0166055
626.238	0.0166255
626.317	0.0166240
626.395	0.0167427
626.473	0.0168328
626.551	0.0166820
626.629	0.0168163
626.707	0.0168032
626.785	0.0167167
626.863	0.0166885
626.942	0.0167091
627.020	0.0166753
627.098	0.0166715
627.176	0.0166920
627.254	0.0166942
627.332	0.0165987
627.410	0.0166628
627.488	0.0165607
627.567	0.0166550
627.645	0.0167297
627.723	0.0167970
627.801	0.0168327
627.879	0.0167803
627.957	0.0167894
628.035	0.0166606
628.113	0.0165328
628.192	0.0167503
628.270	0.0167247
628.348	0.0167625
628.426	0.0167495
628.504	0.0166582
628.582	0.0169533
628.660	0.0167370
628.738	0.0166887
628.817	0.0167433
628.895	0.0166792
628.973	0.0165739
629.051	0.0167981
629.129	0.0168924
629.207	0.0165444
629.285	0.0167467
629.363	0.0166727
629.442	0.0165524
629.520	0.0167960
629.598	0.0167037
629.676	0.0166282
629.754	0.0166173
629.832	0.0167078
629.910	0.0166740
629.988	0.0166541
630.067	0.0167862
630.145	0.0168011
630.223	0.0166537
630.301	0.0167165
630.379	0.0168292
630.457	0.0167155
630.535	0.0166462
630.613	0.0167140
630.692	0.0167586
630.770	0.0167702
630.848	0.0167709
630.926	0.0167872
631.004	0.0167635
631.082	0.0166065
631.160	0.0167013
631.238	0.0166388
631.317	0.0167409
631.395	0.0167316
631.473	0.0167294
631.551	0.0166876
631.629	0.0165858
631.707	0.0167030
631.785	0.0166133
631.863	0.0168324
631.942	0.0167194
632.020	0.0168091
632.098	0.0166763
632.176	0.0166895
632.254	0.0165826
632.332	0.0168083
632.410	0.0166879
632.488	0.0166805
632.567	0.0166598
632.645	0.0166935
632.723	0.0166121
632.801	0.0166927
632.879	0.0166958
632.957	0.0168147
633.035	0.0167206
633.113	0.0167701
633.192	0.0165044
633.270	0.0167613
633.348	0.0167666
633.426	0.0165702
633.504	0.0166613
633.582	0.0167275
633.660	0.0168462
633.738	0.0166338
633.817	0.0166940
633.895	0.0167378
633.973	0.0167416
634.051	0.0166637
634.129	0.0166827
634.207	0.0167470
634.285	0.0166367
634.363	0.0167150
634.442	0.0167751
634.520	0.0167197
634.598	0.0166484
634.676	0.0167603
634.754	0.0167579
634.832	0.0166924
634.910	0.0166885
634.988	0.0167218
635.067	0.0167721
635.145	0.0167825
635.223	0.0167235
635.301	0.0167641
635.379	0.0167679
635.457	0.0166805
635.535	0.0167929
635.613	0.0167983
635.692	0.0166132
635.770	0.0166185
635.848	0.0167405
635.926	0.0167323
636.004	0.0167604
636.082	0.0167309
636.160	0.0167236
636.238	0.0168355
636.317	0.0168037
636.395	0.0166663
636.473	0.0166972
636.551	0.0166928
636.629	0.0167612
636.707	0.0166608
636.785	0.0167620
636.863	0.0167273
636.942	0.0166934
637.020	0.0167403
637.098	0.0167688
637.176	0.0167538
637.254	0.0167848
637.332	0.0166544
637.410	0.0166825
637.488	0.0167641
637.567	0.0167349
637.645	0.0167136
637.723	0.0168012
637.801	0.0166530
637.879	0.0166967
637.957	0.0167308
638.035	0.0167963
638.113	0.0167051
638.192	0.0167337
638.270	0.0166137
638.348	0.0167793
638.426	0.0168077
638.504	0.0166546
638.582	0.0166580
638.660	0.0166742
638.738	0.0167323
638.817	0.0165737
638.895	0.0166601
638.973	0.0167058
639.051	0.0165731
639.129	0.0167883
639.207	0.0167999
639.285	0.0167054
639.363	0.0166345
639.442	0.0167278
639.520	0.0168282
639.598	0.0167301
639.676	0.0167049
639.754	0.0167724
639.832	0.0168208
639.910	0.0165576
639.988	0.0167075
640.067	0.0166939
640.145	0.0167834
640.223	0.0166952
640.301	0.0167245
640.379	0.0167998
640.457	0.0167833
640.535	0.0167041
640.613	0.0167878
640.692	0.0167867
640.770	0.0166786
640.848	0.0167435
640.926	0.0167573
641.004	0.0167126
641.082	0.0167751
641.160	0.0167382
641.238	0.0167664
641.317	0.0167458
641.395	0.0167307
641.473	0.0167879
641.551	0.0167495
641.629	0.0167834
641.707	0.0167231
641.785	0.0167677
641.863	0.0167694
641.942	0.0166888
642.020	0.0166741
642.098	0.0166680
642.176	0.0167305
642.254	0.0167372
642.332	0.0166605
642.410	0.0167460
642.488	0.0168453
642.567	0.0167486
642.645	0.0167854
642.723	0.0167901
642.801	0.0167644
642.879	0.0167359
642.957	0.0166557
643.035	0.0167342
643.113	0.0167363
643.192	0.0168061
643.270	0.0167014
643.348	0.0168159
643.426	0.0168563
643.504	0.0167175
643.582	0.0166861
643.660	0.0167038
643.738	0.0167597
643.817	0.0166849
643.895	0.0167543
643.973	0.0169080
644.051	0.0167321
644.129	0.0167568
644.207	0.0168040
644.285	0.0167948
644.363	0.0165852
644.442	0.0167757
644.520	0.0168119
644.598	0.0168051
644.676	0.0167731
644.754	0.0167312
644.832	0.0168710
644.910	0.0168649
644.988	0.0167033
645.067	0.0166874
645.145	0.0167442
645.223	0.0167162
645.301	0.0166559
645.379	0.0167960
645.457	0.0166132
645.535	0.0167352
645.613	0.0166650
645.692	0.0166460
645.770	0.0168324
645.848	0.0166952
645.926	0.0167072
646.004	0.0166922
646.082	0.0166900
646.160	0.0168128
646.238	0.0167400
646.317	0.0165392
646.395	0.0166605
646.473	0.0168618
646.551	0.0167618
646.629	0.0167407
646.707	0.0166058
646.785	0.0166393
646.863	0.0166786
646.942	0.0167233
647.020	0.0166811
647.098	0.0166825
647.176	0.0166072
647.254	0.0167831
647.332	0.0166628
647.410	0.0167666
647.488	0.0167547
647.567	0.0165922
647.645	0.0166707
647.723	0.0168130
647.801	0.0166427
647.879	0.0166914
647.957	0.0166775
648.035	0.0165955
648.113	0.0166349
648.192	0.0166528
648.270	0.0167605
648.348	0.0168842
648.426	0.0166192
648.504	0.0166239
648.582	0.0167854
648.660	0.0167210
648.738	0.0167255
648.817	0.0166280
648.895	0.0167127
648.973	0.0165233
649.051	0.0166361
649.129	0.0165997
649.207	0.0167179
649.285	0.0167688
649.363	0.0167352
649.442	0.0166209
649.520	0.0166799
649.598	0.0165511
649.676	0.0166142
649.754	0.0168398
649.832	0.0166485
649.910	0.0166278
649.988	0.0167140
650.067	0.0166100
650.145	0.0166769
650.223	0.0167554
650.301	0.0166476
650.379	0.0166986
650.457	0.0168132
650.535	0.0167437
650.613	0.0165991
650.692	0.0166338
650.770	0.0165639
650.848	0.0166780
650.926	0.0165913
651.004	0.0167422
651.082	0.0167493
651.160	0.0166565
651.238	0.0168169
651.317	0.0167004
651.395	0.0166904
651.473	0.0165978
651.551	0.0166702
651.629	0.0167216
651.707	0.0166786
651.785	0.0167042
651.863	0.0167593
651.942	0.0168353
652.020	0.0166916
652.098	0.0167661
652.176	0.0166482
652.254	0.0166611
652.332	0.0167474
652.410	0.0167489
652.488	0.0167577
652.567	0.0166792
652.645	0.0166451
652.723	0.0167373
652.801	0.0166766
652.879	0.0166272
652.957	0.0168004
653.035	0.0166446
653.113	0.0167630
653.192	0.0167140
653.270	0.0166393
653.348	0.0165998
653.426	0.0165242
653.504	0.0167667
653.582	0.0166904
653.660	0.0166962
653.738	0.0167824
653.817	0.0168803
653.895	0.0166573
653.973	0.0166901
654.051	0.0166370
654.129	0.0167503
654.207	0.0167184
654.285	0.0166903
654.363	0.0167632
654.442	0.0166715
654.520	0.0167473
654.598	0.0168272
654.676	0.0167825
654.754	0.0167371
654.832	0.0165915
654.910	0.0167530
654.988	0.0167678
655.067	0.0167732
655.145	0.0167964
655.223	0.0167365
655.301	0.0165866
655.379	0.0168168
655.457	0.0168119
655.535	0.0166257
655.613	0.0165438
655.692	0.0168044
655.770	0.0167004
655.848	0.0167308
655.926	0.0168278
656.004	0.0167211
656.082	0.0167595
656.160	0.0167609
656.238	0.0166394
656.317	0.0166856
656.395	0.0167661
656.473	0.0165876
656.551	0.0167132
656.629	0.0167860
656.707	0.0168027
656.785	0.0166219
656.863	0.0168060
656.942	0.0166580
657.020	0.0165854
657.098	0.0166136
657.176	0.0166244
657.254	0.0168061
657.332	0.0167959
657.410	0.0166981
657.488	0.0166650
657.567	0.0166727
657.645	0.0168176
657.723	0.0167042
657.801	0.0167498
657.879	0.0167697
657.957	0.0167400
658.035	0.0167304
658.113	0.0167479
658.192	0.0166358
658.270	0.0166221
658.348	0.0166645
658.426	0.0167292
658.504	0.0167649
658.582	0.0166606
658.660	0.0166319
658.738	0.0168108
658.817	0.0165749
658.895	0.0165701
658.973	0.0167049
659.051	0.0166354
659.129	0.0168002
659.207	0.0165884
659.285	0.0167358
659.363	0.0166846
659.442	0.0166868
659.520	0.0166924
659.598	0.0167121
659.676	0.0166737
659.754	0.0166119
659.832	0.0165829
659.910	0.0166052
659.988	0.0166511
660.067	0.0166323
660.145	0.0166107
660.223	0.0166471
660.301	0.0167017
660.379	0.0166560
660.457	0.0167772
660.535	0.0167020
660.613	0.0166917
660.692	0.0166190
660.770	0.0166088
660.848	0.0167657
660.926	0.0166833
661.004	0.0167538
661.082	0.0167108
661.160	0.0166991
661.238	0.0166519
661.317	0.0167907
661.395	0.0167492
661.473	0.0168029
661.551	0.0167023
661.629	0.0165766
661.707	0.0166370
661.785	0.0166950
661.863	0.0167310
661.942	0.0167632
662.020	0.0166972
662.098	0.0167446
662.176	0.0167033
662.254	0.0167612
662.332	0.0167706
662.410	0.0165702
662.488	0.0164735
662.567	0.0166850
662.645	0.0166992
662.723	0.0166827
662.801	0.0165244
662.879	0.0166108
662.957	0.0166756
663.035	0.0167437
663.113	0.0167991
663.192	0.0166927
663.270	0.0166485
663.348	0.0166904
663.426	0.0166676
663.504	0.0167281
663.582	0.0166884
663.660	0.0168085
663.738	0.0168488
663.817	0.0167632
663.895	0.0167191
663.973	0.0167447
664.051	0.0168058
664.129	0.0166624
664.207	0.0168381
664.285	0.0166609
664.363	0.0166135
664.442	0.0166720
664.520	0.0167877
664.598	0.0168022
664.676	0.0166480
664.754	0.0168578
664.832	0.0168396
664.910	0.0167972
664.988	0.0167181
665.067	0.0168552
665.145	0.0168237
665.223	0.0168921
665.301	0.0167761
665.379	0.0168064
665.457	0.0167467
665.535	0.0166565
665.613	0.0167367
665.692	0.0168018
665.770	0.0167976
665.848	0.0167231
665.926	0.0166898
666.004	0.0168417
666.082	0.0169543
666.160	0.0168803
666.238	0.0167651
666.317	0.0168821
666.395	0.0167938
666.473	0.0168253
666.551	0.0168058
666.629	0.0166694
666.707	0.0168171
666.785	0.0168240
666.863	0.0168284
666.942	0.0167348
667.020	0.0167493
667.098	0.0168067
667.176	0.0167448
667.254	0.0168805
667.332	0.0168429
667.410	0.0167553
667.488	0.0168111
667.567	0.0167659
667.645	0.0167576
667.723	0.0168705
667.801	0.0167207
667.879	0.0166528
667.957	0.0168110
668.035	0.0167155
668.113	0.0167638
668.192	0.0166712
668.270	0.0167126
668.348	0.0167886
668.426	0.0168162
668.504	0.0167517
668.582	0.0168476
668.660	0.0168204
668.738	0.0166600
668.817	0.0166683
668.895	0.0166440
668.973	0.0167984
669.051	0.0168461
669.129	0.0167348
669.207	0.0167790
669.285	0.0167561
669.363	0.0167946
669.442	0.0167625
669.520	0.0167299
669.598	0.0169263
669.676	0.0169284
669.754	0.0167125
669.832	0.0166925
669.910	0.0168340
669.988	0.0167429
670.067	0.0167217
670.145	0.0166158
670.223	0.0166720
670.301	0.0166948
670.379	0.0167618
670.457	0.0166875
670.535	0.0167987
670.613	0.0166895
670.692	0.0167323
670.770	0.0168676
670.848	0.0166742
670.926	0.0167007
671.004	0.0166900
671.082	0.0167136
671.160	0.0168062
671.238	0.0167756
671.317	0.0166286
671.395	0.0167074
671.473	0.0167641
671.551	0.0167625
671.629	0.0166541
671.707	0.0166361
671.785	0.0165892
671.863	0.0166781
671.942	0.0166919
672.020	0.0167391
672.098	0.0167408
672.176	0.0166313
672.254	0.0166786
672.332	0.0166323
672.410	0.0165414
672.488	0.0166083
672.567	0.0166654
672.645	0.0166774
672.723	0.0166194
672.801	0.0167007
672.879	0.0167624
672.957	0.0166225
673.035	0.0166434
673.113	0.0165670
673.192	0.0165781
673.270	0.0166454
673.348	0.0166776
673.426	0.0167010
673.504	0.0165744
673.582	0.0166982
673.660	0.0166879
673.738	0.0165598
673.817	0.0165802
673.895	0.0166121
673.973	0.0166103
674.051	0.0167162
674.129	0.0166045
674.207	0.0166372
674.285	0.0166175
674.363	0.0165588
674.442	0.0166128
674.520	0.0166877
674.598	0.0166595
674.676	0.0167088
674.754	0.0167019
674.832	0.0167484
674.910	0.0167525
674.988	0.0167342
675.067	0.0166996
675.145	0.0167328
675.223	0.0166720
675.301	0.0167379
675.379	0.0166225
675.457	0.0167213
675.535	0.0166615
675.613	0.0167309
675.692	0.0167126
675.770	0.0167060
675.848	0.0167341
675.926	0.0167184
676.004	0.0166525
676.082	0.0166490
676.160	0.0168404
676.238	0.0167287
676.317	0.0166277
676.395	0.0166142
676.473	0.0166508
676.551	0.0166676
676.629	0.0166747
676.707	0.0166283
676.785	0.0169238
676.863	0.0166333
676.942	0.0165450
677.020	0.0166720
677.098	0.0166165
677.176	0.0167152
677.254	0.0166639
677.332	0.0168132
677.410	0.0167350
677.488	0.0167287
677.567	0.0166634
677.645	0.0167754
677.723	0.0168984
677.801	0.0168876
677.879	0.0167803
677.957	0.0167574
678.035	0.0166451
678.113	0.0168194
678.192	0.0167741
678.270	0.0167487
678.348	0.0166496
678.426	0.0166874
678.504	0.0167751
678.582	0.0168332
678.660	0.0166330
678.738	0.0167078
678.817	0.0167654
678.895	0.0167677
678.973	0.0166751
679.051	0.0165833
679.129	0.0167139
679.207	0.0166930
679.285	0.0166319
679.363	0.0167568
679.442	0.0165444
679.520	0.0167294
679.598	0.0169042
679.676	0.0166170
679.754	0.0166135
679.832	0.0167558
679.910	0.0166891
679.988	0.0166916
680.067	0.0167603
680.145	0.0166785
680.223	0.0167300
680.301	0.0167571
680.379	0.0167278
680.457	0.0165637
680.535	0.0167024
680.613	0.0168049
680.692	0.0166688
680.770	0.0167697
680.848	0.0167726
680.926	0.0168657
681.004	0.0167461
681.082	0.0167847
681.160	0.0167710
681.238	0.0168288
681.317	0.0167348
681.395	0.0168137
681.473	0.0168520
681.551	0.0168354
681.629	0.0168248
681.707	0.0167203
681.785	0.0167722
681.863	0.0167063
681.942	0.0166751
682.020	0.0165152
682.098	0.0166003
682.176	0.0165752
682.254	0.0167130
682.332	0.0168925
682.410	0.0166985
682.488	0.0171024
682.567	0.0172427
682.645	0.0174667
682.723	0.0174320
682.801	0.0175997
682.879	0.0175811
682.957	0.0175968
683.035	0.0175159
683.113	0.0170994
683.192	0.0169034
683.270	0.0164713
683.348	0.0158953
683.426	0.0153498
683.504	0.0149209
683.582	0.0144910
683.660	0.0140376
683.738	0.0138341
683.817	0.0139131
683.895	0.0143666
683.973	0.0147871
684.051	0.0154543
684.129	0.0162762
684.207	0.0172397
684.285	0.0181831
684.363	0.0190948
684.442	0.0199843
684.520	0.0205791
684.598	0.0210199
684.676	0.0213058
684.754	0.0212083
684.832	0.0208031
684.910	0.0204690
684.988	0.0196609
685.067	0.0187086
685.145	0.0178648
685.223	0.0166461
685.301	0.0154957
685.379	0.0143403
685.457	0.0131659
685.535	0.0122202
685.613	0.0114360
685.692	0.0106464
685.770	0.0101469
685.848	0.00974503
685.926	0.00989563
686.004	0.0103593
686.082	0.0108424
686.160	0.0119396
686.238	0.0130855
686.317	0.0146740
686.395	0.0165736
686.473	0.0183878
686.551	0.0206665
686.629	0.0230024
686.707	0.0251844
686.785	0.0271072
686.863	0.0285501
686.942	0.0300694
687.020	0.0305578
687.098	0.0304565
687.176	0.0299149
687.254	0.0283765
687.332	0.0263094
687.410	0.0238023
687.488	0.0207214
687.567	0.0175313
687.645	0.0141756
687.723	0.0109292
687.801	0.00810524
687.879	0.00561974
687.957	0.00363708
688.035	0.00209213
688.113	0.00118393
688.192	0.000579834
688.270	0.000625992
688.348	0.00101158
688.426	0.00182831
688.504	0.00283730
688.582	0.00421883
688.660	0.00612595
688.738	0.00815132
688.817	0.0105555
688.895	0.0131166
688.973	0.0160253
689.051	0.0190000
689.129	0.0221376
689.207	0.0251146
689.285	0.0280722
689.363	0.0306658
689.442	0.0328215
689.520	0.0344162
689.598	0.0350629
689.676	0.0352270
689.754	0.0349934
689.832	0.0336507
689.910	0.0320340
689.988	0.0299525
690.067	0.0273192
690.145	0.0245249
690.223	0.0214526
690.301	0.0186664
690.379	0.0158395
690.457	0.0133663
690.535	0.0109814
690.613	0.00922966
690.692	0.00768730
690.770	0.00621422
690.848	0.00533859
690.926	0.00460869
691.004	0.00431816
691.082	0.00409912
691.160	0.00448189
691.238	0.00495682
691.317	0.00552177
691.395	0.00633278
691.473	0.00749466
691.551	0.00876007
691.629	0.0101974
691.707	0.0119203
691.785	0.0137951
691.863	0.0155650
691.942	0.0174490
692.020	0.0191357
692.098	0.0207049
692.176	0.0221449
692.254	0.0234389
692.332	0.0243447
692.410	0.0249113
692.488	0.0252241
692.567	0.0251794
692.645	0.0250365
692.723	0.0244459
692.801	0.0237053
692.879	0.0227966
692.957	0.0218042
693.035	0.0207854
693.113	0.0195249
693.192	0.0185022
693.270	0.0175418
693.348	0.0165360
693.426	0.0156551
693.504	0.0151527
693.582	0.0143928
693.660	0.0140952
693.738	0.0138047
693.817	0.0135318
693.895	0.0137093
693.973	0.0138330
694.051	0.0139301
694.129	0.0141083
694.207	0.0144967
694.285	0.0149699
694.363	0.0150790
694.442	0.0154757
694.520	0.0156925
694.598	0.0161208
694.676	0.0163382
694.754	0.0167701
694.832	0.0169601
694.910	0.0171839
694.988	0.0172876
695.067	0.0174822
695.145	0.0175905
695.223	0.0176869
695.301	0.0178229
695.379	0.0178824
695.457	0.0178938
695.535	0.0179559
695.613	0.0176865
695.692	0.0178381
695.770	0.0175895
695.848	0.0175221
695.926	0.0173808
696.004	0.0171107
696.082	0.0168831
696.160	0.0165292
696.238	0.0162977
696.317	0.0160138
696.395	0.0156292
696.473	0.0153604
696.551	0.0150928
696.629	0.0148429
696.707	0.0144229
696.785	0.0144325
696.863	0.0141667
696.942	0.0140704
697.020	0.0139231
697.098	0.0139641
697.176	0.0144675
697.254	0.0148514
697.332	0.0153261
697.410	0.0159052
697.488	0.0165802
697.567	0.0172469
697.645	0.0180656
697.723	0.0187070
697.801	0.0192548
697.879	0.0201740
697.957	0.0205247
698.035	0.0208199
698.113	0.0210260
698.192	0.0208828
698.270	0.0209024
698.348	0.0205998
698.426	0.0200533
698.504	0.0194754
698.582	0.0188659
698.660	0.0181369
698.738	0.0172189
698.817	0.0163838
698.895	0.0156161
698.973	0.0149785
699.051	0.0144327
699.129	0.0140093
699.207	0.0137170
699.285	0.0135336
699.363	0.0134933
699.442	0.0134161
699.520	0.0137891
699.598	0.0139835
699.676	0.0145071
699.754	0.0149163
699.832	0.0154463
699.910	0.0161525
699.988	0.0167519
700.067	0.0171996
700.145	0.0176668
700.223	0.0181278
700.301	0.0184683
700.379	0.0186822
700.457	0.0185837
700.535	0.0184637
700.613	0.0182336
700.692	0.0179309
700.770	0.0175293
700.848	0.0171099
700.926	0.0166181
701.004	0.0161491
701.082	0.0157101
701.160	0.0154226
701.238	0.0151135
701.317	0.0148463
701.395	0.0146875
701.473	0.0147385
701.551	0.0149788
701.629	0.0152628
701.707	0.0156191
701.785	0.0160715
701.863	0.0165004
701.942	0.0169321
702.020	0.0174421
702.098	0.0178245
702.176	0.0183032
702.254	0.0187326
702.332	0.0187193
702.410	0.0189913
702.488	0.0190224
702.567	0.0189539
702.645	0.0187093
702.723	0.0185909
702.801	0.0183530
702.879	0.0181586
702.957	0.0177699
703.035	0.0176759
703.113	0.0173257
703.192	0.0172524
703.270	0.0168047
703.348	0.0165804
703.426	0.0164288
703.504	0.0162020
703.582	0.0160114
703.660	0.0158186
703.738	0.0155151
703.817	0.0153644
703.895	0.0152799
703.973	0.0152137
704.051	0.0151380
704.129	0.0151642
704.207	0.0152644
704.285	0.0153648
704.363	0.0154236
704.442	0.0156340
704.520	0.0158362
704.598	0.0160736
704.676	0.0161814
704.754	0.0164742
704.832	0.0167151
704.910	0.0169057
704.988	0.0170747
705.067	0.0171706
705.145	0.0172131
705.223	0.0173821
705.301	0.0172076
705.379	0.0172074
705.457	0.0172807
705.535	0.0172899
705.613	0.0171667
705.692	0.0172497
705.770	0.0173486
705.848	0.0172765
705.926	0.0172035
706.004	0.0170657
706.082	0.0170195
706.160	0.0168145
706.238	0.0167046
706.317	0.0165513
706.395	0.0162784
706.473	0.0160068
706.551	0.0158855
706.629	0.0157167
706.707	0.0157008
706.785	0.0156979
706.863	0.0159759
706.942	0.0161062
707.020	0.0165798
707.098	0.0168644
707.176	0.0173179
707.254	0.0177483
707.332	0.0181280
707.410	0.0182694
707.488	0.0185229
707.567	0.0185582
707.645	0.0186750
707.723	0.0185826
707.801	0.0181130
707.879	0.0177831
707.957	0.0174111
708.035	0.0170544
708.113	0.0167175
708.192	0.0162332
708.270	0.0159980
708.348	0.0157797
708.426	0.0156926
708.504	0.0155184
708.582	0.0152965
708.660	0.0154542
708.738	0.0156133
708.817	0.0157740
708.895	0.0157529
708.973	0.0159908
709.051	0.0160049
709.129	0.0161071
709.207	0.0162794
709.285	0.0163234
709.363	0.0164478
709.442	0.0165266
709.520	0.0165434
709.598	0.0164262
709.676	0.0167092
709.754	0.0168231
709.832	0.0168419
709.910	0.0169606
709.988	0.0170840
710.067	0.0171855
710.145	0.0170856
710.223	0.0172060
710.301	0.0172607
710.379	0.0172838
710.457	0.0170760
710.535	0.0171119
710.613	0.0169717
710.692	0.0167721
710.770	0.0166336
710.848	0.0164085
710.926	0.0163876
711.004	0.0162131
711.082	0.0160085
711.160	0.0159785
711.238	0.0160203
711.317	0.0160627
711.395	0.0158604
711.473	0.0161575
711.551	0.0162712
711.629	0.0164245
711.707	0.0164870
711.785	0.0165437
711.863	0.0166451
711.942	0.0167773
712.020	0.0168473
712.098	0.0170670
712.176	0.0171587
712.254	0.0172401
712.332	0.0172588
712.410	0.0173145
712.488	0.0173708
712.567	0.0174190
712.645	0.0174288
712.723	0.0172942
712.801	0.0170966
712.879	0.0170790
712.957	0.0171883
713.035	0.0170512
713.113	0.0169090
713.192	0.0169098
713.270	0.0168596
713.348	0.0167879
713.426	0.0166446
713.504	0.0166302
713.582	0.0165323
713.660	0.0164060
713.738	0.0164248
713.817	0.0163374
713.895	0.0161892
713.973	0.0162108
714.051	0.0161024
714.129	0.0162939
714.207	0.0163751
714.285	0.0163313
714.363	0.0165794
714.442	0.0168709
714.520	0.0169302
714.598	0.0169676
714.676	0.0170116
714.754	0.0171896
714.832	0.0172459
714.910	0.0173932
714.988	0.0172305
715.067	0.0173222
715.145	0.0172594
715.223	0.0173404
715.301	0.0169157
715.379	0.0170318
715.457	0.0167051
715.535	0.0166380
715.613	0.0163546
715.692	0.0160448
715.770	0.0157381
715.848	0.0157072
715.926	0.0155402
716.004	0.0156341
716.082	0.0155477
716.160	0.0155511
716.238	0.0156620
716.317	0.0157443
716.395	0.0158560
716.473	0.0160937
716.551	0.0161366
716.629	0.0162877
716.707	0.0165728
716.785	0.0167552
716.863	0.0168851
716.942	0.0169193
717.020	0.0170739
717.098	0.0170364
717.176	0.0171087
717.254	0.0170920
717.332	0.0170370
717.410	0.0170998
717.488	0.0172415
717.567	0.0172392
717.645	0.0173695
717.723	0.0171808
717.801	0.0173652
717.879	0.0175507
717.957	0.0176157
718.035	0.0174861
718.113	0.0175836
718.192	0.0175212
718.270	0.0176295
718.348	0.0174287
718.426	0.0172033
718.504	0.0171405
718.582	0.0170243
718.660	0.0168104
718.738	0.0168276
718.817	0.0167291
718.895	0.0165033
718.973	0.0163979
719.051	0.0162538
719.129	0.0162093
719.207	0.0162799
719.285	0.0162464
719.363	0.0162563
719.442	0.0162733
719.520	0.0164645
719.598	0.0164667
719.676	0.0166788
719.754	0.0168867
719.832	0.0170137
719.910	0.0171114
719.988	0.0171676
720.067	0.0172607
720.145	0.0173305
720.223	0.0171695
720.301	0.0170542
720.379	0.0170061
720.457	0.0167943
720.535	0.0166689
720.613	0.0164272
720.692	0.0163806
720.770	0.0161636
720.848	0.0159301
720.926	0.0158478
721.004	0.0157426
721.082	0.0156747
721.160	0.0156166
721.238	0.0156499
721.317	0.0158223
721.395	0.0158284
721.473	0.0157700
721.551	0.0159371
721.629	0.0160283
721.707	0.0161162
721.785	0.0161344
721.863	0.0164601
721.942	0.0165524
722.020	0.0168029
722.098	0.0169373
722.176	0.0170958
722.254	0.0172510
722.332	0.0173748
722.410	0.0176723
722.488	0.0177001
722.567	0.0178120
722.645	0.0177402
722.723	0.0179144
722.801	0.0179196
722.879	0.0177766
722.957	0.0177219
723.035	0.0176370
723.113	0.0175062
723.192	0.0173998
723.270	0.0173045
723.348	0.0170787
723.426	0.0168999
723.504	0.0167771
723.582	0.0166835
723.660	0.0165753
723.738	0.0165361
723.817	0.0163449
723.895	0.0162434
723.973	0.0160626
724.051	0.0162657
724.129	0.0164128
724.207	0.0164266
724.285	0.0163161
724.363	0.0164872
724.442	0.0165456
724.520	0.0166917
724.598	0.0166891
724.676	0.0168527
724.754	0.0169810
724.832	0.0170150
724.910	0.0168971
724.988	0.0171415
725.067	0.0171783
725.145	0.0170770
725.223	0.0168730
725.301	0.0167345
725.379	0.0166406
725.457	0.0165218
725.535	0.0164682
725.613	0.0164818
725.692	0.0164497
725.770	0.0160667
725.848	0.0160894
725.926	0.0161808
726.004	0.0161697
726.082	0.0161282
726.160	0.0162019
726.238	0.0162019
726.317	0.0163474
726.395	0.0162915
726.473	0.0163610
726.551	0.0163611
726.629	0.0163628
726.707	0.0163779
726.785	0.0163271
726.863	0.0164723
726.942	0.0164230
727.020	0.0165804
727.098	0.0165617
727.176	0.0165012
727.254	0.0165876
727.332	0.0168779
727.410	0.0170172
727.488	0.0169923
727.567	0.0170654
727.645	0.0171313
727.723	0.0172969
727.801	0.0172120
727.879	0.0173917
727.957	0.0173586
728.035	0.0172163
728.113	0.0171995
728.192	0.0172576
728.270	0.0172146
728.348	0.0170985
728.426	0.0170576
728.504	0.0168530
728.582	0.0169135
728.660	0.0169429
728.738	0.0168984
728.817	0.0168313
728.895	0.0168959
728.973	0.0168274
729.051	0.0167232
729.129	0.0166864
729.207	0.0166777
729.285	0.0167355
729.363	0.0166350
729.442	0.0166807
729.520	0.0167957
729.598	0.0166830
729.676	0.0166237
729.754	0.0165765
729.832	0.0164420
729.910	0.0164565
729.988	0.0165606
730.067	0.0165192
730.145	0.0164635
730.223	0.0166386
730.301	0.0167006
730.379	0.0166664
730.457	0.0165721
730.535	0.0166849
730.613	0.0167412
730.692	0.0167023
730.770	0.0166878
730.848	0.0167834
730.926	0.0168169
731.004	0.0167287
731.082	0.0167531
731.160	0.0167803
731.238	0.0167244
731.317	0.0168031
731.395	0.0166734
731.473	0.0165285
731.551	0.0164298
731.629	0.0163300
731.707	0.0163704
731.785	0.0160916
731.863	0.0160346
731.942	0.0161947
732.020	0.0161891
732.098	0.0160710
732.176	0.0159761
732.254	0.0160100
732.332	0.0159963
732.410	0.0161450
732.488	0.0161801
732.567	0.0162793
732.645	0.0164034
732.723	0.0165419
732.801	0.0167020
732.879	0.0168501
732.957	0.0167719
733.035	0.0169899
733.113	0.0171059
733.192	0.0171596
733.270	0.0172014
733.348	0.0171033
733.426	0.0171774
733.504	0.0173452
733.582	0.0173725
733.660	0.0172639
733.738	0.0173067
733.817	0.0172289
733.895	0.0172080
733.973	0.0172079
734.051	0.0171869
734.129	0.0171784
734.207	0.0170880
734.285	0.0170004
734.363	0.0169985
734.442	0.0169539
734.520	0.0169199
734.598	0.0168961
734.676	0.0169353
734.754	0.0167234
734.832	0.0167083
734.910	0.0167621
734.988	0.0167503
735.067	0.0167276
735.145	0.0167258
735.223	0.0168855
735.301	0.0166407
735.379	0.0167689
735.457	0.0167925
735.535	0.0166879
735.613	0.0166754
735.692	0.0164989
735.770	0.0163791
735.848	0.0161901
735.926	0.0160626
736.004	0.0160352
736.082	0.0159752
736.160	0.0158949
736.238	0.0158897
736.317	0.0157774
736.395	0.0159142
736.473	0.0158334
736.551	0.0159163
736.629	0.0158860
736.707	0.0159987
736.785	0.0161634
736.863	0.0162472
736.942	0.0163303
737.020	0.0164768
737.098	0.0164288
737.176	0.0166434
737.254	0.0168027
737.332	0.0167857
737.410	0.0167936
737.488	0.0169888
737.567	0.0168458
737.645	0.0168987
737.723	0.0169268
737.801	0.0171121
737.879	0.0170759
737.957	0.0171180
738.035	0.0170082
738.113	0.0171468
738.192	0.0172098
738.270	0.0169759
738.348	0.0170382
738.426	0.0171523
738.504	0.0170656
738.582	0.0170486
738.660	0.0167756
738.738	0.0167841
738.817	0.0167134
738.895	0.0167950
738.973	0.0167374
739.051	0.0165733
739.129	0.0166387
739.207	0.0165911
739.285	0.0165267
739.363	0.0165849
739.442	0.0167782
739.520	0.0166775
739.598	0.0167168
739.676	0.0168716
739.754	0.0169310
739.832	0.0170973
739.910	0.0171859
739.988	0.0170364
740.067	0.0170437
740.145	0.0170741
740.223	0.0171748
740.301	0.0171355
740.379	0.0169288
740.457	0.0168315
740.535	0.0169093
740.613	0.0168704
740.692	0.0166727
740.770	0.0165244
740.848	0.0164522
740.926	0.0164447
741.004	0.0163484
741.082	0.0162026
741.160	0.0162460
741.238	0.0161121
741.317	0.0161746
741.395	0.0162543
741.473	0.0162753
741.551	0.0162419
741.629	0.0162833
741.707	0.0162985
741.785	0.0164651
741.863	0.0163815
741.942	0.0161560
742.020	0.0163423
742.098	0.0164218
742.176	0.0164448
742.254	0.0163299
742.332	0.0163223
742.410	0.0162359
742.488	0.0163126
742.567	0.0163703
742.645	0.0162743
742.723	0.0163017
742.801	0.0166292
742.879	0.0167042
742.957	0.0167799
743.035	0.0168613
743.113	0.0169116
743.192	0.0169894
743.270	0.0169511
743.348	0.0172275
743.426	0.0173461
743.504	0.0172054
743.582	0.0172631
743.660	0.0172580
743.738	0.0172596
743.817	0.0172137
743.895	0.0171238
743.973	0.0170733
744.051	0.0171421
744.129	0.0170309
744.207	0.0169785
744.285	0.0168324
744.363	0.0170012
744.442	0.0168900
744.520	0.0169322
744.598	0.0169434
744.676	0.0167741
744.754	0.0169843
744.832	0.0169574
744.910	0.0167784
744.988	0.0169889
745.067	0.0169201
745.145	0.0170276
745.223	0.0170292
745.301	0.0168193
745.379	0.0168974
745.457	0.0168199
745.535	0.0166915
745.613	0.0168198
745.692	0.0169398
745.770	0.0167900
745.848	0.0166965
745.926	0.0166987
746.004	0.0165107
746.082	0.0167437
746.160	0.0167529
746.238	0.0165956
746.317	0.0166115
746.395	0.0165935
746.473	0.0165668
746.551	0.0164156
746.629	0.0164222
746.707	0.0164695
746.785	0.0163084
746.863	0.0162744
746.942	0.0162766
747.020	0.0162139
747.098	0.0163039
747.176	0.0163931
747.254	0.0163844
747.332	0.0163587
747.410	0.0164475
747.488	0.0164371
747.567	0.0164690
747.645	0.0165823
747.723	0.0165180
747.801	0.0165572
747.879	0.0165579
747.957	0.0166560
748.035	0.0166437
748.113	0.0167058
748.192	0.0166587
748.270	0.0165594
748.348	0.0165304
748.426	0.0166499
748.504	0.0166320
748.582	0.0164706
748.660	0.0166143
748.738	0.0166636
748.817	0.0164087
748.895	0.0165030
748.973	0.0165019
749.051	0.0165025
749.129	0.0165480
749.207	0.0164889
749.285	0.0166300
749.363	0.0166499
749.442	0.0168661
749.520	0.0167870
749.598	0.0168584
749.676	0.0168327
749.754	0.0169869
749.832	0.0170059
749.910	0.0170195
749.988	0.0171210
750.067	0.0171476
750.145	0.0171556
750.223	0.0172180
750.301	0.0171004
750.379	0.0170956
750.457	0.0171435
750.535	0.0170924
750.613	0.0169862
750.692	0.0170856
750.770	0.0169744
750.848	0.0169188
750.926	0.0168697
751.004	0.0168252
751.082	0.0168182
751.160	0.0167728
751.238	0.0168942
751.317	0.0168460
751.395	0.0167812
751.473	0.0166887
751.551	0.0166415
751.629	0.0164867
751.707	0.0165560
751.785	0.0165002
751.863	0.0163965
751.942	0.0163155
752.020	0.0163120
752.098	0.0163199
752.176	0.0161884
752.254	0.0162938
752.332	0.0163379
752.410	0.0163882
752.488	0.0163031
752.567	0.0164510
752.645	0.0165730
752.723	0.0165747
752.801	0.0166154
752.879	0.0166369
752.957	0.0167392
753.035	0.0167959
753.113	0.0168575
753.192	0.0168771
753.270	0.0169385
753.348	0.0169383
753.426	0.0169719
753.504	0.0169087
753.582	0.0168671
753.660	0.0168881
753.738	0.0166614
753.817	0.0168076
753.895	0.0167537
753.973	0.0168600
754.051	0.0168452
754.129	0.0166339
754.207	0.0167175
754.285	0.0166285
754.363	0.0166422
754.442	0.0166945
754.520	0.0165820
754.598	0.0168390
754.676	0.0167117
754.754	0.0167094
754.832	0.0169125
754.910	0.0166855
754.988	0.0168176
755.067	0.0168620
755.145	0.0168709
755.223	0.0169062
755.301	0.0167608
755.379	0.0169373
755.457	0.0170336
755.535	0.0170248
755.613	0.0167502
755.692	0.0168117
755.770	0.0168728
755.848	0.0169067
755.926	0.0167134
756.004	0.0167790
756.082	0.0166964
756.160	0.0165189
756.238	0.0165434
756.317	0.0165312
756.395	0.0164512
756.473	0.0165997
756.551	0.0162923
756.629	0.0162315
756.707	0.0162836
756.785	0.0163779
756.863	0.0164040
756.942	0.0163866
757.020	0.0164358
757.098	0.0164880
757.176	0.0165106
757.254	0.0165242
757.332	0.0165995
757.410	0.0166448
757.488	0.0168190
757.567	0.0168164
757.645	0.0167880
757.723	0.0170050
757.801	0.0171748
757.879	0.0170409
757.957	0.0173433
758.035	0.0173260
758.113	0.0173647
758.192	0.0172496
758.270	0.0171667
758.348	0.0173138
758.426	0.0172927
758.504	0.0171677
758.582	0.0171405
758.660	0.0171824
758.738	0.0169962
758.817	0.0170443
758.895	0.0170298
758.973	0.0170358
759.051	0.0168118
759.129	0.0166032
759.207	0.0167103
759.285	0.0166589
759.363	0.0166271
759.442	0.0165265
759.520	0.0164481
759.598	0.0162266
759.676	0.0162832
759.754	0.0163261
759.832	0.0162057
759.910	0.0162634
759.988	0.0163041
760.067	0.0162672
760.145	0.0163161
760.223	0.0163844
760.301	0.0164203
760.379	0.0163988
760.457	0.0164188
760.535	0.0165008
760.613	0.0166042
760.692	0.0167120
760.770	0.0166267
760.848	0.0166590
760.926	0.0165985
761.004	0.0167316
761.082	0.0167290
761.160	0.0165874
761.238	0.0166085
761.317	0.0166146
761.395	0.0164937
761.473	0.0164260
761.551	0.0164244
761.629	0.0164429
761.707	0.0164143
761.785	0.0163308
761.863	0.0162174
761.942	0.0163692
762.020	0.0164450
762.098	0.0163831
762.176	0.0164629
762.254	0.0164773
762.332	0.0165256
762.410	0.0168253
762.488	0.0168703
762.567	0.0168122
762.645	0.0168884
762.723	0.0169949
762.801	0.0169914
762.879	0.0172239
762.957	0.0171812
763.035	0.0172971
763.113	0.0171974
763.192	0.0171229
763.270	0.0170923
763.348	0.0171157
763.426	0.0171037
763.504	0.0169820
763.582	0.0169762
763.660	0.0170161
763.738	0.0170201
763.817	0.0168905
763.895	0.0168932
763.973	0.0170045
764.051	0.0168294
764.129	0.0168109
764.207	0.0166685
764.285	0.0166239
764.363	0.0166851
764.442	0.0165834
764.520	0.0164262
764.598	0.0166774
764.676	0.0165871
764.754	0.0165797
764.832	0.0165630
764.910	0.0165489
764.988	0.0165483
765.067	0.0166497
765.145	0.0167738
765.223	0.0167709
765.301	0.0168061
765.379	0.0167577
765.457	0.0169167
765.535	0.0170567
765.613	0.0169849
765.692	0.0170744
765.770	0.0171497
765.848	0.0171522
765.926	0.0170348
766.004	0.0171158
766.082	0.0171119
766.160	0.0168667
766.238	0.0167648
766.317	0.0166244
766.395	0.0164655
766.473	0.0165190
766.551	0.0164707
766.629	0.0163296
766.707	0.0161784
766.785	0.0160744
766.863	0.0161215
766.942	0.0160995
767.020	0.0159888
767.098	0.0159404
767.176	0.0159552
767.254	0.0160194
767.332	0.0160959
767.410	0.0161047
767.488	0.0162411
767.567	0.0161650
767.645	0.0163190
767.723	0.0163201
767.801	0.0165366
767.879	0.0166541
767.957	0.0165401
768.035	0.0166777
768.113	0.0168636
768.192	0.0168739
768.270	0.0170159
768.348	0.0169981
768.426	0.0170554
768.504	0.0172539
768.582	0.0172679
768.660	0.0171074
768.738	0.0171199
768.817	0.0172752
768.895	0.0173291
768.973	0.0171735
769.051	0.0170917
769.129	0.0170902
769.207	0.0170538
769.285	0.0171324
769.363	0.0171004
769.442	0.0169312
769.520	0.0167822
769.598	0.0169112
769.676	0.0167723
769.754	0.0167953
769.832	0.0168218
769.910	0.0167432
769.988	0.0167691
770.067	0.0165943
770.145	0.0166408
770.223	0.0166418
770.301	0.0168153
770.379	0.0166726
770.457	0.0166486
770.535	0.0166471
770.613	0.0167523
770.692	0.0168770
770.770	0.0167278
770.848	0.0167825
770.926	0.0167081
771.004	0.0166546
771.082	0.0167202
771.160	0.0166742
771.238	0.0166359
771.317	0.0166522
771.395	0.0167767
771.473	0.0165128
771.551	0.0164325
771.629	0.0166116
771.707	0.0164912
771.785	0.0165308
771.863	0.0164407
771.942	0.0163449
772.020	0.0163301
772.098	0.0162388
772.176	0.0163385
772.254	0.0162183
772.332	0.0162546
772.410	0.0164751
772.488	0.0164169
772.567	0.0164408
772.645	0.0165055
772.723	0.0166013
772.801	0.0165697
772.879	0.0167200
772.957	0.0167601
773.035	0.0166334
773.113	0.0167252
773.192	0.0166907
773.270	0.0167452
773.348	0.0167566
773.426	0.0168298
773.504	0.0168151
773.582	0.0167990
773.660	0.0168398
773.738	0.0168064
773.817	0.0168132
773.895	0.0168775
773.973	0.0167621
774.051	0.0168436
774.129	0.0168754
774.207	0.0167429
774.285	0.0168480
774.363	0.0167882
774.442	0.0167377
774.520	0.0166957
774.598	0.0168417
774.676	0.0167546
774.754	0.0169283
774.832	0.0168359
774.910	0.0166697
774.988	0.0168955
775.067	0.0169332
775.145	0.0167942
775.223	0.0168871
775.301	0.0169082
775.379	0.0169073
775.457	0.0169110
775.535	0.0168984
775.613	0.0169614
775.692	0.0168060
775.770	0.0168222
775.848	0.0168786
775.926	0.0168573
776.004	0.0167425
776.082	0.0167466
776.160	0.0167371
776.238	0.0166726
776.317	0.0166515
776.395	0.0164600
776.473	0.0166830
776.551	0.0165701
776.629	0.0165258
776.707	0.0165199
776.785	0.0163761
776.863	0.0164010
776.942	0.0163987
777.020	0.0164037
777.098	0.0162677
777.176	0.0163905
777.254	0.0164429
777.332	0.0164237
777.410	0.0164160
777.488	0.0163680
777.567	0.0164561
777.645	0.0164774
777.723	0.0164951
777.801	0.0165171
777.879	0.0165453
777.957	0.0165984
778.035	0.0165533
778.113	0.0165996
778.192	0.0166078
778.270	0.0168134
778.348	0.0166967
778.426	0.0166741
778.504	0.0167728
778.582	0.0168973
778.660	0.0167267
778.738	0.0167743
778.817	0.0167831
778.895	0.0167159
778.973	0.0167184
779.051	0.0168568
779.129	0.0168269
779.207	0.0168472
779.285	0.0167707
779.363	0.0168192
779.442	0.0168789
779.520	0.0168163
779.598	0.0168389
779.676	0.0168423
779.754	0.0167510
779.832	0.0167121
779.910	0.0168239
779.988	0.0166418
780.067	0.0166415
780.145	0.0167460
780.223	0.0167825
780.301	0.0167613
780.379	0.0168285
780.457	0.0167647
780.535	0.0167888
780.613	0.0168079
780.692	0.0168903
780.770	0.0168817
780.848	0.0168263
780.926	0.0168993
781.004	0.0169894
781.082	0.0169249
781.160	0.0169931
781.238	0.0168809
781.317	0.0167811
781.395	0.0167274
781.473	0.0166858
781.551	0.0165735
781.629	0.0165260
781.707	0.0163331
781.785	0.0162817
781.863	0.0163849
781.942	0.0163293
782.020	0.0160509
782.098	0.0161442
782.176	0.0162592
782.254	0.0160757
782.332	0.0160807
782.410	0.0163143
782.488	0.0164022
782.567	0.0163109
782.645	0.0164529
782.723	0.0166642
782.801	0.0168359
782.879	0.0170487
782.957	0.0170852
783.035	0.0172655
783.113	0.0173850
783.192	0.0174963
783.270	0.0176514
783.348	0.0176225
783.426	0.0176106
783.504	0.0176533
783.582	0.0174901
783.660	0.0173415
783.738	0.0172375
783.817	0.0169189
783.895	0.0169917
783.973	0.0167798
784.051	0.0165337
784.129	0.0163422
784.207	0.0161467
784.285	0.0160893
784.363	0.0159624
784.442	0.0158148
784.520	0.0158358
784.598	0.0156534
784.676	0.0157998
784.754	0.0158155
784.832	0.0157805
784.910	0.0158183
784.988	0.0157207
785.067	0.0159801
785.145	0.0161864
785.223	0.0161652
785.301	0.0163229
785.379	0.0164841
785.457	0.0166502
785.535	0.0169530
785.613	0.0168674
785.692	0.0170876
785.770	0.0172615
785.848	0.0173636
785.926	0.0174764
786.004	0.0174443
786.082	0.0174777
786.160	0.0175961
786.238	0.0174783
786.317	0.0174317
786.395	0.0173591
786.473	0.0172399
786.551	0.0171220
786.629	0.0171858
786.707	0.0169707
786.785	0.0167879
786.863	0.0168219
786.942	0.0167731
787.020	0.0166966
787.098	0.0166798
787.176	0.0165891
787.254	0.0165440
787.332	0.0164596
787.410	0.0163605
787.488	0.0164277
787.567	0.0165478
787.645	0.0164042
787.723	0.0164382
787.801	0.0163665
787.879	0.0162872
787.957	0.0161735
788.035	0.0162137
788.113	0.0162115
788.192	0.0162872
788.270	0.0162830
788.348	0.0161513
788.426	0.0163751
788.504	0.0163538
788.582	0.0164682
788.660	0.0164274
788.738	0.0163742
788.817	0.0165354
788.895	0.0165861
788.973	0.0166394
789.051	0.0166469
789.129	0.0168266
789.207	0.0167659
789.285	0.0168022
789.363	0.0169398
789.442	0.0171157
789.520	0.0171543
789.598	0.0171429
789.676	0.0172294
789.754	0.0172371
789.832	0.0174656
789.910	0.0173796
789.988	0.0173817
790.067	0.0174442
790.145	0.0174404
790.223	0.0172372
790.301	0.0172786
790.379	0.0172787
790.457	0.0171483
790.535	0.0170582
790.613	0.0169643
790.692	0.0168217
790.770	0.0166576
790.848	0.0166457
790.926	0.0165819
791.004	0.0163522
791.082	0.0163004
791.160	0.0161822
791.238	0.0162766
791.317	0.0160702
791.395	0.0160806
791.473	0.0159732
791.551	0.0160263
791.629	0.0160369
791.707	0.0160816
791.785	0.0161087
791.863	0.0160696
791.942	0.0160318
792.020	0.0160919
792.098	0.0162362
792.176	0.0161461
792.254	0.0162575
792.332	0.0162920
792.410	0.0163697
792.488	0.0163599
792.567	0.0164675
792.645	0.0165891
792.723	0.0166230
792.801	0.0165643
792.879	0.0166100
792.957	0.0166199
793.035	0.0167122
793.113	0.0168570
793.192	0.0168136
793.270	0.0169623
793.348	0.0169911
793.426	0.0170224
793.504	0.0171495
793.582	0.0171033
793.660	0.0170085
793.738	0.0170808
793.817	0.0170752
793.895	0.0170128
793.973	0.0170405
794.051	0.0171789
794.129	0.0172294
794.207	0.0171990
794.285	0.0171998
794.363	0.0170906
794.442	0.0170306
794.520	0.0170836
794.598	0.0167724
794.676	0.0168517
794.754	0.0168752
794.832	0.0169986
794.910	0.0168480
794.988	0.0167696
795.067	0.0168996
795.145	0.0168176
795.223	0.0166766
795.301	0.0168837
795.379	0.0165925
795.457	0.0166880
795.535	0.0168444
795.613	0.0168420
795.692	0.0168410
795.770	0.0169657
795.848	0.0168766
795.926	0.0167418
796.004	0.0167842
796.082	0.0167183
796.160	0.0168503
796.238	0.0168253
796.317	0.0169212
796.395	0.0166328
796.473	0.0166666
796.551	0.0167165
796.629	0.0166741
796.707	0.0164584
796.785	0.0164303
796.863	0.0164599
796.942	0.0163959
797.020	0.0163265
797.098	0.0164034
797.176	0.0163053
797.254	0.0163271
797.332	0.0161503
797.410	0.0162656
797.488	0.0163348
797.567	0.0163986
797.645	0.0164809
797.723	0.0165186
797.801	0.0163708
797.879	0.0164700
797.957	0.0165924
798.035	0.0164537
798.113	0.0165054
798.192	0.0166257
798.270	0.0165858
798.348	0.0166913
798.426	0.0167285
798.504	0.0165870
798.582	0.0166663
798.660	0.0167080
798.738	0.0166187
798.817	0.0166211
798.895	0.0168232
798.973	0.0168406
799.051	0.0167229
799.129	0.0167128
799.207	0.0167925
799.285	0.0167919
799.363	0.0166517
799.442	0.0168791
799.520	0.0168295
799.598	0.0167849
799.676	0.0167995
799.754	0.0168775
799.832	0.0167870
799.910	0.0168366
799.988	0.0167117
800.067	0.0166743
800.145	0.0166624
800.223	0.0167603
800.301	0.0167554
800.379	0.0165735
800.457	0.0167078
800.535	0.0169097
800.613	0.0167507
800.692	0.0168462
800.770	0.0166917
800.848	0.0168750
800.926	0.0169400
801.004	0.0169054
801.082	0.0167053
801.160	0.0167946
801.238	0.0168725
801.317	0.0168324
801.395	0.0169823
801.473	0.0168804
801.551	0.0169056
801.629	0.0170677
801.707	0.0168797
801.785	0.0170107
801.863	0.0169775
801.942	0.0169700
802.020	0.0168719
802.098	0.0170172
802.176	0.0170530
802.254	0.0168074
802.332	0.0168076
802.410	0.0168164
802.488	0.0167654
802.567	0.0168124
802.645	0.0166761
802.723	0.0166286
802.801	0.0167600
802.879	0.0166895
802.957	0.0164616
803.035	0.0165258
803.113	0.0165301
803.192	0.0165137
803.270	0.0163593
803.348	0.0163736
803.426	0.0164091
803.504	0.0163586
803.582	0.0162169
803.660	0.0164182
803.738	0.0163779
803.817	0.0163783
803.895	0.0164447
803.973	0.0164172
804.051	0.0163380
804.129	0.0162961
804.207	0.0163301
804.285	0.0164872
804.363	0.0164949
804.442	0.0165099
804.520	0.0165000
804.598	0.0166349
804.676	0.0166631
804.754	0.0167481
804.832	0.0167825
804.910	0.0167611
804.988	0.0169308
805.067	0.0169640
805.145	0.0170213
805.223	0.0169988
805.301	0.0169751
805.379	0.0170417
805.457	0.0170329
805.535	0.0169544
805.613	0.0169835
805.692	0.0171275
805.770	0.0168491
805.848	0.0169968
805.926	0.0168656
806.004	0.0168903
806.082	0.0168497
806.160	0.0168030
806.238	0.0167341
806.317	0.0166275
806.395	0.0166975
806.473	0.0165416
806.551	0.0165920
806.629	0.0164677
806.707	0.0163169
806.785	0.0164381
806.863	0.0164472
806.942	0.0164338
807.020	0.0163425
807.098	0.0162585
807.176	0.0165101
807.254	0.0165440
807.332	0.0164199
807.410	0.0165401
807.488	0.0166762
807.567	0.0166734
807.645	0.0167353
807.723	0.0167886
807.801	0.0167233
807.879	0.0166537
807.957	0.0167073
808.035	0.0167781
808.113	0.0167325
808.192	0.0166793
808.270	0.0165730
808.348	0.0167264
808.426	0.0165894
808.504	0.0165434
808.582	0.0166056
808.660	0.0163902
808.738	0.0165205
808.817	0.0166702
808.895	0.0165017
808.973	0.0165876
809.051	0.0166420
809.129	0.0165755
809.207	0.0165095
809.285	0.0165466
809.363	0.0166575
809.442	0.0166298
809.520	0.0164792
809.598	0.0166745
809.676	0.0169376
809.754	0.0167612
809.832	0.0168427
809.910	0.0168314
809.988	0.0170428
810.067	0.0168999
810.145	0.0170627
810.223	0.0170264
810.301	0.0170773
810.379	0.0169620
810.457	0.0170869
810.535	0.0170640
810.613	0.0171519
810.692	0.0170287
810.770	0.0170992
810.848	0.0170378
810.926	0.0171011
811.004	0.0172133
811.082	0.0169276
811.160	0.0168950
811.238	0.0169213
811.317	0.0168592
811.395	0.0168823
811.473	0.0168777
811.551	0.0168443
811.629	0.0168893
811.707	0.0167564
811.785	0.0166721
811.863	0.0165154
811.942	0.0165836
812.020	0.0164117
812.098	0.0163902
812.176	0.0162453
812.254	0.0163974
812.332	0.0163817
812.410	0.0163358
812.488	0.0162987
812.567	0.0163528
812.645	0.0164024
812.723	0.0162682
812.801	0.0164057
812.879	0.0164016
812.957	0.0163833
813.035	0.0163344
813.113	0.0162960
813.192	0.0162423
813.270	0.0163590
813.348	0.0162034
813.426	0.0161948
813.504	0.0162807
813.582	0.0163169
813.660	0.0163754
813.738	0.0163941
813.817	0.0164506
813.895	0.0165450
813.973	0.0165836
814.051	0.0167023
814.129	0.0168529
814.207	0.0166544
814.285	0.0167404
814.363	0.0168973
814.442	0.0166420
814.520	0.0168890
814.598	0.0168620
814.676	0.0169295
814.754	0.0170473
814.832	0.0170340
814.910	0.0170462
814.988	0.0171648
815.067	0.0171504
815.145	0.0170118
815.223	0.0171992
815.301	0.0172418
815.379	0.0170724
815.457	0.0170874
815.535	0.0171558
815.613	0.0172189
815.692	0.0171981
815.770	0.0172324
815.848	0.0171159
815.926	0.0173630
816.004	0.0171602
816.082	0.0172628
816.160	0.0172935
816.238	0.0172369
816.317	0.0173152
816.395	0.0173996
816.473	0.0173511
816.551	0.0172080
816.629	0.0171603
816.707	0.0172948
816.785	0.0173526
816.863	0.0172137
816.942	0.0170425
817.020	0.0169546
817.098	0.0169640
817.176	0.0167599
817.254	0.0168129
817.332	0.0165802
817.410	0.0166129
817.488	0.0164856
817.567	0.0163174
817.645	0.0161464
817.723	0.0162868
817.801	0.0160609
817.879	0.0158614
817.957	0.0161468
818.035	0.0159717
818.113	0.0159846
818.192	0.0158502
818.270	0.0159560
818.348	0.0159409
818.426	0.0160690
818.504	0.0161945
818.582	0.0162991
818.660	0.0162469
818.738	0.0165217
818.817	0.0164599
818.895	0.0163675
818.973	0.0164791
819.051	0.0166082
819.129	0.0167004
819.207	0.0165883
819.285	0.0166831
819.363	0.0168645
819.442	0.0168938
819.520	0.0169568
819.598	0.0169230
819.676	0.0167691
819.754	0.0168766
819.832	0.0170450
819.910	0.0169597
819.988	0.0171323
820.067	0.0170335
820.145	0.0169788
820.223	0.0169883
820.301	0.0168578
820.379	0.0170042
820.457	0.0172092
820.535	0.0171234
820.613	0.0171613
820.692	0.0170660
820.770	0.0170041
820.848	0.0169719
820.926	0.0170853
821.004	0.0171433
821.082	0.0170627
821.160	0.0170524
821.238	0.0171176
821.317	0.0171033
821.395	0.0170938
821.473	0.0170448
821.551	0.0170370
821.629	0.0170615
821.707	0.0169456
821.785	0.0169894
821.863	0.0170355
821.942	0.0169804
822.020	0.0169981
822.098	0.0168594
822.176	0.0168674
822.254	0.0167612
822.332	0.0168185
822.410	0.0168000
822.488	0.0165893
822.567	0.0165536
822.645	0.0165742
822.723	0.0166428
822.801	0.0166434
822.879	0.0165356
822.957	0.0165173
823.035	0.0164084
823.113	0.0163344
823.192	0.0163166
823.270	0.0163351
823.348	0.0161644
823.426	0.0163651
823.504	0.0163632
823.582	0.0162728
823.660	0.0160988
823.738	0.0161099
823.817	0.0163345
823.895	0.0162326
823.973	0.0161856
824.051	0.0163168
824.129	0.0163032
824.207	0.0163680
824.285	0.0161772
824.363	0.0162544
824.442	0.0164047
824.520	0.0165196
824.598	0.0164585
824.676	0.0166322
824.754	0.0166563
824.832	0.0165927
824.910	0.0166138
824.988	0.0167213
825.067	0.0168622
825.145	0.0168812
825.223	0.0170325
825.301	0.0169885
825.379	0.0171574
825.457	0.0172524
825.535	0.0173365
825.613	0.0172115
825.692	0.0173617
825.770	0.0171670
825.848	0.0172179
825.926	0.0172066
826.004	0.0172916
826.082	0.0172234
826.160	0.0172347
826.238	0.0171986
826.317	0.0171983
826.395	0.0172260
826.473	0.0171302
826.551	0.0170984
826.629	0.0170531
826.707	0.0169249
826.785	0.0169002
826.863	0.0167168
826.942	0.0167529
827.020	0.0168372
827.098	0.0167916
827.176	0.0167840
827.254	0.0167427
827.332	0.0165616
827.410	0.0166565
827.488	0.0167184
827.567	0.0166897
827.645	0.0166279
827.723	0.0165820
827.801	0.0165414
827.879	0.0166199
827.957	0.0166756
828.035	0.0166331
828.113	0.0166242
828.192	0.0167014
828.270	0.0166536
828.348	0.0167218
828.426	0.0166370
828.504	0.0165263
828.582	0.0166644
828.660	0.0165500
828.738	0.0165244
828.817	0.0167031
828.895	0.0165839
828.973	0.0164265
829.051	0.0165040
829.129	0.0164761
829.207	0.0165611
829.285	0.0165646
829.363	0.0163789
829.442	0.0163518
829.520	0.0164114
829.598	0.0164973
829.676	0.0165782
829.754	0.0164548
829.832	0.0165541
829.910	0.0165188
829.988	0.0166096
830.067	0.0164996
830.145	0.0165614
830.223	0.0166241
830.301	0.0166657
830.379	0.0166386
830.457	0.0165757
830.535	0.0166256
830.613	0.0165026
830.692	0.0167118
830.770	0.0166719
830.848	0.0166016
830.926	0.0167946
831.004	0.0166428
831.082	0.0166641
831.160	0.0168122
831.238	0.0166755
831.317	0.0167742
831.395	0.0168429
831.473	0.0168272
831.551	0.0169007
831.629	0.0168333
831.707	0.0169498
831.785	0.0168255
831.863	0.0168665
831.942	0.0170270
832.020	0.0169226
832.098	0.0168732
832.176	0.0168970
832.254	0.0168625
832.332	0.0168208
832.410	0.0168624
832.488	0.0170190
832.567	0.0169069
832.645	0.0169337
832.723	0.0167942
832.801	0.0168299
832.879	0.0170113
832.957	0.0170113
833.035	0.0168475
833.113	0.0169706
833.192	0.0168321
833.270	0.0169628
833.348	0.0169693
833.426	0.0168966
833.504	0.0169932
833.582	0.0169372
833.660	0.0168359
833.738	0.0167862
833.817	0.0168787
833.895	0.0168520
833.973	0.0168188
834.051	0.0168398
834.129	0.0168387
834.207	0.0167195
834.285	0.0166692
834.363	0.0166556
834.442	0.0166603
834.520	0.0166835
834.598	0.0165631
834.676	0.0166317
834.754	0.0165728
834.832	0.0166895
834.910	0.0166537
834.988	0.0167208
835.067	0.0165886
835.145	0.0166350
835.223	0.0167221
835.301	0.0166829
835.379	0.0164768
835.457	0.0166148
835.535	0.0167348
835.613	0.0166616
835.692	0.0167628
835.770	0.0167201
835.848	0.0168344
835.926	0.0167509
836.004	0.0167715
836.082	0.0167773
836.160	0.0166634
836.238	0.0167439
836.317	0.0166345
836.395	0.0166016
836.473	0.0164787
836.551	0.0164912
836.629	0.0165430
836.707	0.0164243
836.785	0.0162654
836.863	0.0164654
836.942	0.0164755
837.020	0.0163490
837.098	0.0164629
837.176	0.0164391
837.254	0.0162486
837.332	0.0163022
837.410	0.0163256
837.488	0.0161868
837.567	0.0163465
837.645	0.0163746
837.723	0.0163535
837.801	0.0165072
837.879	0.0164635
837.957	0.0164865
838.035	0.0166559
838.113	0.0166486
838.192	0.0166742
838.270	0.0168552
838.348	0.0169254
838.426	0.0169229
838.504	0.0170558
838.582	0.0169611
838.660	0.0171429
838.738	0.0170094
838.817	0.0169875
838.895	0.0171893
838.973	0.0170757
839.051	0.0171442
839.129	0.0171479
839.207	0.0170371
839.285	0.0171803
839.363	0.0171714
839.442	0.0171610
839.520	0.0173467
839.598	0.0170657
839.676	0.0171786
839.754	0.0173805
839.832	0.0171799
839.910	0.0171459
839.988	0.0172334
840.067	0.0171465
840.145	0.0171146
840.223	0.0171595
840.301	0.0171236
840.379	0.0171345
840.457	0.0170379
840.535	0.0169752
840.613	0.0169168
840.692	0.0168105
840.770	0.0169048
840.848	0.0168935
840.926	0.0167833
841.004	0.0166817
841.082	0.0166742
841.160	0.0166257
841.238	0.0168123
841.317	0.0166184
841.395	0.0166688
841.473	0.0165268
841.551	0.0164270
841.629	0.0164823
841.707	0.0164200
841.785	0.0163088
841.863	0.0162793
841.942	0.0163746
842.020	0.0164059
842.098	0.0162832
842.176	0.0162930
842.254	0.0163943
842.332	0.0162819
842.410	0.0162048
842.488	0.0160827
842.567	0.0162660
842.645	0.0162425
842.723	0.0162897
842.801	0.0162514
842.879	0.0164017
842.957	0.0163708
843.035	0.0162242
843.113	0.0162323
843.192	0.0163583
843.270	0.0162757
843.348	0.0163711
843.426	0.0164738
843.504	0.0166051
843.582	0.0165250
843.660	0.0165642
843.738	0.0168191
843.817	0.0167673
843.895	0.0167532
843.973	0.0169317
844.051	0.0168583
844.129	0.0170747
844.207	0.0168324
844.285	0.0170215
844.363	0.0171661
844.442	0.0170248
844.520	0.0170742
844.598	0.0170951
844.676	0.0170619
844.754	0.0170055
844.832	0.0170553
844.910	0.0170078
844.988	0.0169723
845.067	0.0169953
845.145	0.0169676
845.223	0.0170104
845.301	0.0170011
845.379	0.0170128
845.457	0.0168843
845.535	0.0169762
845.613	0.0170244
845.692	0.0170665
845.770	0.0171461
845.848	0.0171461
845.926	0.0170919
846.004	0.0171988
846.082	0.0170197
846.160	0.0172486
846.238	0.0172084
846.317	0.0172620
846.395	0.0171366
846.473	0.0170979
846.551	0.0171585
846.629	0.0172548
846.707	0.0171289
846.785	0.0171221
846.863	0.0170766
846.942	0.0170151
847.020	0.0170362
847.098	0.0169473
847.176	0.0167651
847.254	0.0169697
847.332	0.0168793
847.410	0.0166924
847.488	0.0165945
847.567	0.0166375
847.645	0.0167243
847.723	0.0165862
847.801	0.0164849
847.879	0.0165655
847.957	0.0164376
848.035	0.0165706
848.113	0.0163637
848.192	0.0162880
848.270	0.0164208
848.348	0.0163564
848.426	0.0163628
848.504	0.0163090
848.582	0.0162252
848.660	0.0163934
848.738	0.0162408
848.817	0.0162231
848.895	0.0162640
848.973	0.0162560
849.051	0.0162368
849.129	0.0162335
849.207	0.0162466
849.285	0.0162321
849.363	0.0162501
849.442	0.0164302
849.520	0.0164489
849.598	0.0165539
849.676	0.0166277
849.754	0.0164926
849.832	0.0164976
849.910	0.0165992
849.988	0.0165965
850.067	0.0166302
850.145	0.0168711
850.223	0.0166669
850.301	0.0167800
850.379	0.0168379
850.457	0.0169182
850.535	0.0170629
850.613	0.0169458
850.692	0.0169726
850.770	0.0170831
850.848	0.0170512
850.926	0.0169958
851.004	0.0171466
851.082	0.0171211
851.160	0.0171419
851.238	0.0172814
851.317	0.0171642
851.395	0.0170137
851.473	0.0171063
851.551	0.0172175
851.629	0.0170765
851.707	0.0169794
851.785	0.0170680
851.863	0.0169775
851.942	0.0169814
852.020	0.0169567
852.098	0.0169359
852.176	0.0168495
852.254	0.0167242
852.332	0.0167499
852.410	0.0168990
852.488	0.0168559
852.567	0.0167502
852.645	0.0168324
852.723	0.0167721
852.801	0.0167862
852.879	0.0167948
852.957	0.0167428
853.035	0.0167495
853.113	0.0166946
853.192	0.0167313
853.270	0.0167422
853.348	0.0167651
853.426	0.0166218
853.504	0.0167548
853.582	0.0166880
853.660	0.0165990
853.738	0.0166001
853.817	0.0164870
853.895	0.0165243
853.973	0.0165102
854.051	0.0165051
854.129	0.0164255
854.207	0.0164941
854.285	0.0164378
854.363	0.0166274
854.442	0.0165081
854.520	0.0165741
854.598	0.0165247
854.676	0.0165730
854.754	0.0166396
854.832	0.0165487
854.910	0.0165365
854.988	0.0166534
855.067	0.0164861
855.145	0.0166011
855.223	0.0165749
855.301	0.0166335
855.379	0.0165805
855.457	0.0166629
855.535	0.0166962
855.613	0.0167287
855.692	0.0166144
855.770	0.0166275
855.848	0.0167719
855.926	0.0166271
856.004	0.0167728
856.082	0.0166636
856.160	0.0167509
856.238	0.0166546
856.317	0.0166479
856.395	0.0166344
856.473	0.0165879
856.551	0.0166380
856.629	0.0165608
856.707	0.0166235
856.785	0.0166193
856.863	0.0166652
856.942	0.0165240
857.020	0.0167420
857.098	0.0167711
857.176	0.0166685
857.254	0.0167973
857.332	0.0167386
857.410	0.0167780
857.488	0.0168666
857.567	0.0167022
857.645	0.0167561
857.723	0.0168563
857.801	0.0169427
857.879	0.0168003
857.957	0.0169043
858.035	0.0170081
858.113	0.0170520
858.192	0.0170945
858.270	0.0169755
858.348	0.0172200
858.426	0.0171089
858.504	0.0172520
858.582	0.0171700
858.660	0.0170842
858.738	0.0170123
858.817	0.0169521
858.895	0.0169016
858.973	0.0168844
859.051	0.0168755
859.129	0.0168581
859.207	0.0168333
859.285	0.0167269
859.363	0.0166071
859.442	0.0165977
859.520	0.0166467
859.598	0.0166818
859.676	0.0166134
859.754	0.0167612
859.832	0.0167307
859.910	0.0167219
859.988	0.0167360
860.067	0.0167376
860.145	0.0167600
860.223	0.0168336
860.301	0.0168452
860.379	0.0167188
860.457	0.0167465
860.535	0.0166682
860.613	0.0167853
860.692	0.0168135
860.770	0.0168135
860.848	0.0167361
860.926	0.0166753
861.004	0.0167473
861.082	0.0167459
861.160	0.0165772
861.238	0.0164314
861.317	0.0164507
861.395	0.0164559
861.473	0.0163953
861.551	0.0163445
861.629	0.0164810
861.707	0.0164005
861.785	0.0163660
861.863	0.0162439
861.942	0.0163960
862.020	0.0164069
862.098	0.0164035
862.176	0.0165992
862.254	0.0164764
862.332	0.0165193
862.410	0.0166581
862.488	0.0166052
862.567	0.0166521
862.645	0.0166511
862.723	0.0169466
862.801	0.0168610
862.879	0.0168318
862.957	0.0168072
863.035	0.0168439
863.113	0.0170535
863.192	0.0168758
863.270	0.0168172
863.348	0.0168284
863.426	0.0170049
863.504	0.0169370
863.582	0.0168938
863.660	0.0167926
863.738	0.0168669
863.817	0.0169205
863.895	0.0169302
863.973	0.0168352
864.051	0.0169411
864.129	0.0169923
864.207	0.0168535
864.285	0.0169298
864.363	0.0169096
864.442	0.0169276
864.520	0.0169543
864.598	0.0170158
864.676	0.0167550
864.754	0.0168342
864.832	0.0169130
864.910	0.0169354
864.988	0.0169902
865.067	0.0167976
865.145	0.0167990
865.223	0.0168607
865.301	0.0170226
865.379	0.0169520
865.457	0.0169592
865.535	0.0168894
865.613	0.0169336
865.692	0.0171912
865.770	0.0170130
865.848	0.0168898
865.926	0.0168713
866.004	0.0169084
866.082	0.0168221
866.160	0.0166590
866.238	0.0167230
866.317	0.0165937
866.395	0.0164692
866.473	0.0165555
866.551	0.0165060
866.629	0.0165032
866.707	0.0165784
866.785	0.0164421
866.863	0.0162859
866.942	0.0163074
867.020	0.0163896
867.098	0.0162617
867.176	0.0162841
867.254	0.0165094
867.332	0.0164180
867.410	0.0163378
867.488	0.0164828
867.567	0.0163870
867.645	0.0164059
867.723	0.0164500
867.801	0.0165157
867.879	0.0165096
867.957	0.0167270
868.035	0.0166320
868.113	0.0165924
868.192	0.0166901
868.270	0.0166512
868.348	0.0167915
868.426	0.0167188
868.504	0.0167255
868.582	0.0167741
868.660	0.0168231
868.738	0.0167628
868.817	0.0167863
868.895	0.0168108
868.973	0.0167305
869.051	0.0168165
869.129	0.0167850
869.207	0.0167591
869.285	0.0168981
869.363	0.0167508
869.442	0.0168977
869.520	0.0168898
869.598	0.0168881
869.676	0.0168279
869.754	0.0167539
869.832	0.0169885
869.910	0.0169402
869.988	0.0170335
870.067	0.0169859
870.145	0.0170399
870.223	0.0169292
870.301	0.0167062
870.379	0.0168520
870.457	0.0168835
870.535	0.0167696
870.613	0.0168017
870.692	0.0167105
870.770	0.0168019
870.848	0.0167084
870.926	0.0167030
871.004	0.0166531
871.082	0.0168259
871.160	0.0165585
871.238	0.0166830
871.317	0.0169510
871.395	0.0166825
871.473	0.0166793
871.551	0.0168414
871.629	0.0167976
871.707	0.0167948
871.785	0.0167431
871.863	0.0168851
871.942	0.0167473
872.020	0.0167445
872.098	0.0168446
872.176	0.0166395
872.254	0.0165095
872.332	0.0166470
872.410	0.0166228
872.488	0.0165834
872.567	0.0165311
872.645	0.0166375
872.723	0.0165691
872.801	0.0164732
872.879	0.0165272
872.957	0.0164285
873.035	0.0165289
873.113	0.0163969
873.192	0.0163738
873.270	0.0165099
873.348	0.0165552
873.426	0.0163772
873.504	0.0164520
873.582	0.0164989
873.660	0.0165944
873.738	0.0164939
873.817	0.0166544
873.895	0.0167164
873.973	0.0166586
874.051	0.0166068
874.129	0.0166001
874.207	0.0165759
874.285	0.0165614
874.363	0.0166824
874.442	0.0166653
874.520	0.0166595
874.598	0.0166719
874.676	0.0166705
874.754	0.0165540
874.832	0.0167107
874.910	0.0167593
874.988	0.0167015
875.067	0.0165740
875.145	0.0166364
875.223	0.0165344
875.301	0.0165604
875.379	0.0164656
875.457	0.0164326
875.535	0.0165555
875.613	0.0166054
875.692	0.0167014
875.770	0.0168022
875.848	0.0169117
875.926	0.0170833
876.004	0.0171201
876.082	0.0170663
876.160	0.0172991
876.238	0.0173186
876.317	0.0173796
876.395	0.0172462
876.473	0.0173305
876.551	0.0172019
876.629	0.0170322
876.707	0.0169859
876.785	0.0168616
876.863	0.0167390
876.942	0.0165611
877.020	0.0162673
877.098	0.0163422
877.176	0.0161762
877.254	0.0161676
877.332	0.0160181
877.410	0.0159325
877.488	0.0159240
877.567	0.0159879
877.645	0.0158624
877.723	0.0162016
877.801	0.0161939
877.879	0.0164311
877.957	0.0164781
878.035	0.0165813
878.113	0.0168885
878.192	0.0170976
878.270	0.0171735
878.348	0.0175180
878.426	0.0175617
878.504	0.0178192
878.582	0.0178275
878.660	0.0177872
878.738	0.0178277
878.817	0.0178528
878.895	0.0176224
878.973	0.0174483
879.051	0.0171542
879.129	0.0170260
879.207	0.0167655
879.285	0.0163950
879.363	0.0160927
879.442	0.0157824
879.520	0.0155993
879.598	0.0155999
879.676	0.0154720
879.754	0.0153897
879.832	0.0154196
879.910	0.0154571
879.988	0.0156467
880.067	0.0156696
880.145	0.0159850
880.223	0.0162128
880.301	0.0163387
880.379	0.0165419
880.457	0.0165980
880.535	0.0168373
880.613	0.0169770
880.692	0.0172722
880.770	0.0174055
880.848	0.0174806
880.926	0.0175385
881.004	0.0178442
881.082	0.0179993
881.160	0.0180540
881.238	0.0180634
881.317	0.0179791
881.395	0.0179319
881.473	0.0178494
881.551	0.0177055
881.629	0.0173251
881.707	0.0171629
881.785	0.0169674
881.863	0.0166171
881.942	0.0162333
882.020	0.0162798
882.098	0.0159635
882.176	0.0156828
882.254	0.0156963
882.332	0.0155785
882.410	0.0155326
882.488	0.0155484
882.567	0.0155251
882.645	0.0156353
882.723	0.0157285
882.801	0.0159084
882.879	0.0159158
882.957	0.0159666
883.035	0.0161380
883.113	0.0162803
883.192	0.0165221
883.270	0.0166432
883.348	0.0168840
883.426	0.0170046
883.504	0.0171346
883.582	0.0172881
883.660	0.0174874
883.738	0.0174670
883.817	0.0175381
883.895	0.0177827
883.973	0.0176626
884.051	0.0176967
884.129	0.0175481
884.207	0.0174403
884.285	0.0174134
884.363	0.0171534
884.442	0.0170326
884.520	0.0168069
884.598	0.0167651
884.676	0.0165103
884.754	0.0164299
884.832	0.0163021
884.910	0.0161742
884.988	0.0161118
885.067	0.0161337
885.145	0.0161561
885.223	0.0161514
885.301	0.0161892
885.379	0.0162913
885.457	0.0163658
885.535	0.0163535
885.613	0.0164770
885.692	0.0164936
885.770	0.0166750
885.848	0.0166429
885.926	0.0167474
886.004	0.0168265
886.082	0.0167761
886.160	0.0169806
886.238	0.0167799
886.317	0.0169118
886.395	0.0167720
886.473	0.0169161
886.551	0.0168922
886.629	0.0169308
886.707	0.0168359
886.785	0.0168046
886.863	0.0168333
886.942	0.0168154
887.020	0.0166686
887.098	0.0166798
887.176	0.0166019
887.254	0.0165082
887.332	0.0166492
887.410	0.0164664
887.488	0.0164983
887.567	0.0165439
887.645	0.0165540
887.723	0.0165347
887.801	0.0165313
887.879	0.0165482
887.957	0.0166248
888.035	0.0164628
888.113	0.0166091
888.192	0.0164645
888.270	0.0165804
888.348	0.0164546
888.426	0.0163895
888.504	0.0164841
888.582	0.0164841
888.660	0.0164980
888.738	0.0165845
888.817	0.0165317
888.895	0.0166368
888.973	0.0167184
889.051	0.0167050
889.129	0.0169804
889.207	0.0171032
889.285	0.0169671
889.363	0.0171153
889.442	0.0171942
889.520	0.0172507
889.598	0.0172788
889.676	0.0172301
889.754	0.0171446
889.832	0.0171430
889.910	0.0170447
889.988	0.0169813
890.067	0.0167561
890.145	0.0167216
890.223	0.0166904
890.301	0.0164383
890.379	0.0164053
890.457	0.0162184
890.535	0.0163615
890.613	0.0162521
890.692	0.0161604
890.770	0.0162052
890.848	0.0162607
890.926	0.0163235
891.004	0.0162755
891.082	0.0164883
891.160	0.0163870
891.238	0.0164078
891.317	0.0164594
891.395	0.0165978
891.473	0.0166650
891.551	0.0166916
891.629	0.0167916
891.707	0.0168031
891.785	0.0167654
891.863	0.0168539
891.942	0.0168937
892.020	0.0167833
892.098	0.0169281
892.176	0.0168508
892.254	0.0168236
892.332	0.0168655
892.410	0.0167706
892.488	0.0168284
892.567	0.0167979
892.645	0.0167953
892.723	0.0167282
892.801	0.0167081
892.879	0.0165616
892.957	0.0164012
893.035	0.0167424
893.113	0.0166829
893.192	0.0166118
893.270	0.0166044
893.348	0.0166259
893.426	0.0165604
893.504	0.0167307
893.582	0.0168573
893.660	0.0168401
893.738	0.0167986
893.817	0.0169567
893.895	0.0170515
893.973	0.0169169
894.051	0.0170609
894.129	0.0170185
894.207	0.0169907
894.285	0.0168980
894.363	0.0167441
894.442	0.0167652
894.520	0.0166755
894.598	0.0166595
894.676	0.0166439
894.754	0.0166563
894.832	0.0165968
894.910	0.0165411
894.988	0.0167075
895.067	0.0165575
895.145	0.0165084
895.223	0.0166215
895.301	0.0165173
895.379	0.0166037
895.457	0.0167474
895.535	0.0165359
895.613	0.0166080
895.692	0.0166393
895.770	0.0166372
895.848	0.0167262
895.926	0.0166343
896.004	0.0166152
896.082	0.0166114
896.160	0.0166362
896.238	0.0167194
896.317	0.0167582
896.395	0.0166836
896.473	0.0166293
896.551	0.0167166
896.629	0.0167203
896.707	0.0167323
896.785	0.0166816
896.863	0.0169604
896.942	0.0167606
897.020	0.0168279
897.098	0.0168764
897.176	0.0168317
897.254	0.0167083
897.332	0.0165681
897.410	0.0165029
897.488	0.0167336
897.567	0.0166020
897.645	0.0163971
897.723	0.0164587
897.801	0.0165272
897.879	0.0164469
897.957	0.0162917
898.035	0.0164315
898.113	0.0164246
898.192	0.0163097
898.270	0.0163860
898.348	0.0164037
898.426	0.0165469
898.504	0.0164467
898.582	0.0165651
898.660	0.0166679
898.738	0.0166300
898.817	0.0168280
898.895	0.0169161
898.973	0.0169426
899.051	0.0169989
899.129	0.0171544
899.207	0.0171013
899.285	0.0170330
899.363	0.0170900
899.442	0.0169867
899.520	0.0170884
899.598	0.0169958
899.676	0.0168659
899.754	0.0168192
899.832	0.0168469
899.910	0.0167931
899.988	0.0169337
900.067	0.0165596
900.145	0.0166149
900.223	0.0166059
900.301	0.0164861
900.379	0.0165485
900.457	0.0165061
900.535	0.0163686
900.613	0.0165077
900.692	0.0164253
900.770	0.0164316
900.848	0.0163589
900.926	0.0162901
901.004	0.0163862
901.082	0.0163632
901.160	0.0163875
901.238	0.0163962
901.317	0.0164585
901.395	0.0166514
901.473	0.0165192
901.551	0.0164936
901.629	0.0166970
901.707	0.0167808
901.785	0.0166933
901.863	0.0169614
901.942	0.0168485
902.020	0.0170284
902.098	0.0169228
902.176	0.0170230
902.254	0.0170870
902.332	0.0171045
902.410	0.0169889
902.488	0.0170994
902.567	0.0169738
902.645	0.0169286
902.723	0.0168945
902.801	0.0167859
902.879	0.0169485
902.957	0.0168660
903.035	0.0167286
903.113	0.0166341
903.192	0.0168098
903.270	0.0167130
903.348	0.0165747
903.426	0.0165114
903.504	0.0165724
903.582	0.0165540
903.660	0.0165693
903.738	0.0165122
903.817	0.0165024
903.895	0.0165778
903.973	0.0164520
904.051	0.0164098
904.129	0.0164626
904.207	0.0165888
904.285	0.0164526
904.363	0.0164505
904.442	0.0165476
904.520	0.0164865
904.598	0.0165280
904.676	0.0165897
904.754	0.0167530
904.832	0.0166638
904.910	0.0167451
904.988	0.0165681
905.067	0.0167341
905.145	0.0166722
905.223	0.0167579
905.301	0.0167843
905.379	0.0168420
905.457	0.0168178
905.535	0.0169406
905.613	0.0169274
905.692	0.0168153
905.770	0.0168654
905.848	0.0167932
905.926	0.0167252
906.004	0.0166655
906.082	0.0167197
906.160	0.0167007
906.238	0.0165985
906.317	0.0165263
906.395	0.0167072
906.473	0.0168072
906.551	0.0167113
906.629	0.0166275
906.707	0.0166570
906.785	0.0166762
906.863	0.0168237
906.942	0.0164688
907.020	0.0166751
907.098	0.0166182
907.176	0.0166341
907.254	0.0166854
907.332	0.0166107
907.410	0.0166756
907.488	0.0165740
907.567	0.0165184
907.645	0.0166219
907.723	0.0166558
907.801	0.0166926
907.879	0.0165904
907.957	0.0166847
908.035	0.0167479
908.113	0.0165718
908.192	0.0165689
908.270	0.0165532
908.348	0.0167347
908.426	0.0167778
908.504	0.0167484
908.582	0.0166887
908.660	0.0167703
908.738	0.0167553
908.817	0.0167061
908.895	0.0166212
908.973	0.0166566
909.051	0.0166560
909.129	0.0167157
909.207	0.0166118
909.285	0.0166708
909.363	0.0166870
909.442	0.0167638
909.520	0.0167644
909.598	0.0166460
909.676	0.0167513
909.754	0.0168385
909.832	0.0168159
909.910	0.0167272
909.988	0.0167194
910.067	0.0168814
910.145	0.0168758
910.223	0.0168054
910.301	0.0168142
910.379	0.0169028
910.457	0.0170109
910.535	0.0167567
910.613	0.0167212
910.692	0.0167479
910.770	0.0167546
910.848	0.0166071
910.926	0.0166821
911.004	0.0167388
911.082	0.0166384
911.160	0.0166244
911.238	0.0166970
911.317	0.0166102
911.395	0.0166567
911.473	0.0166840
911.551	0.0166300
911.629	0.0166504
911.707	0.0165677
911.785	0.0166528
911.863	0.0166901
911.942	0.0166008
912.020	0.0165151
912.098	0.0167879
912.176	0.0166322
912.254	0.0165157
912.332	0.0165878
912.410	0.0165708
912.488	0.0165240
912.567	0.0167508
912.645	0.0166716
912.723	0.0167361
912.801	0.0167492
912.879	0.0167268
912.957	0.0166225
913.035	0.0167618
913.113	0.0168518
913.192	0.0167551
913.270	0.0170012
913.348	0.0169423
913.426	0.0169691
913.504	0.0169247
913.582	0.0168908
913.660	0.0169131
913.738	0.0168686
913.817	0.0168810
913.895	0.0169022
913.973	0.0169355
914.051	0.0169393
914.129	0.0168541
914.207	0.0169262
914.285	0.0168418
914.363	0.0168719
914.442	0.0166727
914.520	0.0167716
914.598	0.0167874
914.676	0.0168588
914.754	0.0166656
914.832	0.0166284
914.910	0.0165825
914.988	0.0166032
915.067	0.0166107
915.145	0.0165055
915.223	0.0165514
915.301	0.0164491
915.379	0.0164324
915.457	0.0165288
915.535	0.0164337
915.613	0.0165173
915.692	0.0163519
915.770	0.0163904
915.848	0.0164137
915.926	0.0165532
916.004	0.0164957
916.082	0.0164962
916.160	0.0165659
916.238	0.0166516
916.317	0.0165812
916.395	0.0167917
916.473	0.0167777
916.551	0.0168649
916.629	0.0168477
916.707	0.0169728
916.785	0.0169309
916.863	0.0169501
916.942	0.0168242
917.020	0.0169080
917.098	0.0169256
917.176	0.0168793
917.254	0.0168593
917.332	0.0169066
917.410	0.0167842
917.488	0.0167991
917.567	0.0168493
917.645	0.0168418
917.723	0.0167522
917.801	0.0168527
917.879	0.0167127
917.957	0.0166501
918.035	0.0168704
918.113	0.0166655
918.192	0.0165921
918.270	0.0166596
918.348	0.0166783
918.426	0.0165216
918.504	0.0165089
918.582	0.0167435
918.660	0.0167160
918.738	0.0166154
918.817	0.0167085
918.895	0.0165901
918.973	0.0166568
919.051	0.0167924
919.129	0.0166496
919.207	0.0166477
919.285	0.0166721
919.363	0.0167313
919.442	0.0167683
919.520	0.0169321
919.598	0.0167279
919.676	0.0168259
919.754	0.0168520
919.832	0.0167647
919.910	0.0166380
