05/24/2022	20:09:18	Ver.	4.1	UNKNOWN
Optical Delay	599.988409	Delta X		0.078125	Sweeps	1	Scan Rate	0/0
Coordinates	Axis 1	NaN	Axis 2	NaN	Axis 3	NaN	Axis 4	NaN	Axis 5	NaN	Axis 6	0.000000
TX Power	0.000000	RX Power	0.000000

599.988	0.0170181
600.067	0.0169343
600.145	0.0170068
600.223	0.0169979
600.301	0.0169582
600.379	0.0169965
600.457	0.0169019
600.535	0.0171346
600.613	0.0170308
600.692	0.0171346
600.770	0.0169722
600.848	0.0171352
600.926	0.0169891
601.004	0.0170329
601.082	0.0169695
601.160	0.0170550
601.238	0.0171543
601.317	0.0170784
601.395	0.0169054
601.473	0.0169694
601.551	0.0171469
601.629	0.0169655
601.707	0.0169994
601.785	0.0170093
601.863	0.0171070
601.942	0.0169755
602.020	0.0168617
602.098	0.0170771
602.176	0.0169974
602.254	0.0170123
602.332	0.0170147
602.410	0.0170280
602.488	0.0171505
602.567	0.0170188
602.645	0.0170556
602.723	0.0168478
602.801	0.0170266
602.879	0.0169118
602.957	0.0170064
603.035	0.0169237
603.113	0.0171358
603.192	0.0170682
603.270	0.0171222
603.348	0.0170166
603.426	0.0169825
603.504	0.0169365
603.582	0.0170862
603.660	0.0169736
603.738	0.0169681
603.817	0.0169438
603.895	0.0170106
603.973	0.0169535
604.051	0.0170141
604.129	0.0171964
604.207	0.0170284
604.285	0.0170184
604.363	0.0171023
604.442	0.0171919
604.520	0.0170998
604.598	0.0170396
604.676	0.0171068
604.754	0.0170326
604.832	0.0171172
604.910	0.0170599
604.988	0.0170013
605.067	0.0170454
605.145	0.0170588
605.223	0.0169643
605.301	0.0170387
605.379	0.0169400
605.457	0.0170886
605.535	0.0169862
605.613	0.0170049
605.692	0.0169016
605.770	0.0170876
605.848	0.0170314
605.926	0.0170341
606.004	0.0170322
606.082	0.0170321
606.160	0.0170381
606.238	0.0169920
606.317	0.0169302
606.395	0.0169438
606.473	0.0171452
606.551	0.0170998
606.629	0.0170220
606.707	0.0171305
606.785	0.0170776
606.863	0.0170634
606.942	0.0170720
607.020	0.0172237
607.098	0.0171012
607.176	0.0169485
607.254	0.0170955
607.332	0.0171059
607.410	0.0169878
607.488	0.0169999
607.567	0.0170139
607.645	0.0170496
607.723	0.0169958
607.801	0.0170158
607.879	0.0169155
607.957	0.0169459
608.035	0.0168919
608.113	0.0169648
608.192	0.0170133
608.270	0.0169164
608.348	0.0169511
608.426	0.0169409
608.504	0.0169740
608.582	0.0169076
608.660	0.0169114
608.738	0.0169254
608.817	0.0170152
608.895	0.0169873
608.973	0.0170356
609.051	0.0169039
609.129	0.0170338
609.207	0.0171332
609.285	0.0172310
609.363	0.0171178
609.442	0.0171165
609.520	0.0171856
609.598	0.0170891
609.676	0.0171131
609.754	0.0172092
609.832	0.0172266
609.910	0.0171645
609.988	0.0170502
610.067	0.0170689
610.145	0.0171875
610.223	0.0171048
610.301	0.0169222
610.379	0.0169551
610.457	0.0169022
610.535	0.0169343
610.613	0.0169236
610.692	0.0168848
610.770	0.0170227
610.848	0.0169007
610.926	0.0169605
611.004	0.0168237
611.082	0.0169696
611.160	0.0167595
611.238	0.0168287
611.317	0.0169349
611.395	0.0170798
611.473	0.0170132
611.551	0.0169540
611.629	0.0170204
611.707	0.0170232
611.785	0.0170188
611.863	0.0170226
611.942	0.0170876
612.020	0.0170548
612.098	0.0170296
612.176	0.0170827
612.254	0.0171651
612.332	0.0170766
612.410	0.0170502
612.488	0.0169833
612.567	0.0170815
612.645	0.0171944
612.723	0.0169859
612.801	0.0170969
612.879	0.0169770
612.957	0.0169204
613.035	0.0169550
613.113	0.0171082
613.192	0.0170310
613.270	0.0170330
613.348	0.0171674
613.426	0.0170670
613.504	0.0169321
613.582	0.0169976
613.660	0.0170154
613.738	0.0169276
613.817	0.0168800
613.895	0.0168990
613.973	0.0168449
614.051	0.0169708
614.129	0.0170055
614.207	0.0171202
614.285	0.0170010
614.363	0.0168838
614.442	0.0168615
614.520	0.0168072
614.598	0.0169435
614.676	0.0169727
614.754	0.0169938
614.832	0.0170565
614.910	0.0170482
614.988	0.0168950
615.067	0.0169210
615.145	0.0169550
615.223	0.0170290
615.301	0.0170572
615.379	0.0170873
615.457	0.0170640
615.535	0.0169317
615.613	0.0169118
615.692	0.0170493
615.770	0.0170827
615.848	0.0169690
615.926	0.0171148
616.004	0.0171169
616.082	0.0170750
616.160	0.0169157
616.238	0.0169817
616.317	0.0169665
616.395	0.0171042
616.473	0.0169962
616.551	0.0170322
616.629	0.0171654
616.707	0.0169968
616.785	0.0170970
616.863	0.0168578
616.942	0.0171146
617.020	0.0171505
617.098	0.0170443
617.176	0.0171100
617.254	0.0170181
617.332	0.0170102
617.410	0.0171719
617.488	0.0170637
617.567	0.0168462
617.645	0.0169941
617.723	0.0169708
617.801	0.0169878
617.879	0.0169906
617.957	0.0170241
618.035	0.0170882
618.113	0.0170033
618.192	0.0170513
618.270	0.0170566
618.348	0.0169733
618.426	0.0170522
618.504	0.0170231
618.582	0.0170330
618.660	0.0170998
618.738	0.0170294
618.817	0.0170338
618.895	0.0170941
618.973	0.0170876
619.051	0.0169894
619.129	0.0170965
619.207	0.0169647
619.285	0.0170234
619.363	0.0169379
619.442	0.0170905
619.520	0.0169933
619.598	0.0171699
619.676	0.0171799
619.754	0.0168271
619.832	0.0169806
619.910	0.0170529
619.988	0.0168929
620.067	0.0171841
620.145	0.0170180
620.223	0.0168477
620.301	0.0170456
620.379	0.0170644
620.457	0.0168806
620.535	0.0170204
620.613	0.0170917
620.692	0.0170835
620.770	0.0171278
620.848	0.0168933
620.926	0.0169482
621.004	0.0170457
621.082	0.0169923
621.160	0.0171223
621.238	0.0170237
621.317	0.0170314
621.395	0.0169871
621.473	0.0169964
621.551	0.0170930
621.629	0.0170615
621.707	0.0170554
621.785	0.0169688
621.863	0.0170181
621.942	0.0171279
622.020	0.0170408
622.098	0.0169530
622.176	0.0169505
622.254	0.0170360
622.332	0.0170229
622.410	0.0170339
622.488	0.0170718
622.567	0.0168967
622.645	0.0169907
622.723	0.0169768
622.801	0.0170951
622.879	0.0171698
622.957	0.0171392
623.035	0.0170453
623.113	0.0170404
623.192	0.0169875
623.270	0.0169370
623.348	0.0171570
623.426	0.0171294
623.504	0.0170089
623.582	0.0169147
623.660	0.0170068
623.738	0.0172527
623.817	0.0170047
623.895	0.0168752
623.973	0.0169634
624.051	0.0171095
624.129	0.0168759
624.207	0.0170118
624.285	0.0169778
624.363	0.0170798
624.442	0.0171149
624.520	0.0170503
624.598	0.0169849
624.676	0.0169188
624.754	0.0168810
624.832	0.0170171
624.910	0.0169968
624.988	0.0171044
625.067	0.0170741
625.145	0.0169720
625.223	0.0170570
625.301	0.0169826
625.379	0.0169551
625.457	0.0170229
625.535	0.0169762
625.613	0.0171179
625.692	0.0170779
625.770	0.0169573
625.848	0.0169192
625.926	0.0170984
626.004	0.0169942
626.082	0.0170819
626.160	0.0171284
626.238	0.0169462
626.317	0.0168582
626.395	0.0170647
626.473	0.0170239
626.551	0.0170560
626.629	0.0169958
626.707	0.0169402
626.785	0.0169588
626.863	0.0168801
626.942	0.0169602
627.020	0.0170311
627.098	0.0169218
627.176	0.0171989
627.254	0.0170972
627.332	0.0169889
627.410	0.0169576
627.488	0.0170813
627.567	0.0170099
627.645	0.0169906
627.723	0.0170426
627.801	0.0171783
627.879	0.0170355
627.957	0.0170534
628.035	0.0168781
628.113	0.0170995
628.192	0.0170174
628.270	0.0169897
628.348	0.0169711
628.426	0.0170798
628.504	0.0171346
628.582	0.0169811
628.660	0.0169902
628.738	0.0170776
628.817	0.0167734
628.895	0.0169781
628.973	0.0170269
629.051	0.0169878
629.129	0.0170867
629.207	0.0170652
629.285	0.0171782
629.363	0.0170755
629.442	0.0170294
629.520	0.0171470
629.598	0.0169682
629.676	0.0169293
629.754	0.0171357
629.832	0.0170776
629.910	0.0169526
629.988	0.0169059
630.067	0.0169692
630.145	0.0167818
630.223	0.0169435
630.301	0.0168993
630.379	0.0171217
630.457	0.0172488
630.535	0.0171050
630.613	0.0169887
630.692	0.0170554
630.770	0.0170864
630.848	0.0170303
630.926	0.0169875
631.004	0.0169983
631.082	0.0170673
631.160	0.0169396
631.238	0.0168992
631.317	0.0170313
631.395	0.0171241
631.473	0.0170746
631.551	0.0170721
631.629	0.0170178
631.707	0.0169363
631.785	0.0170216
631.863	0.0169722
631.942	0.0171280
632.020	0.0170707
632.098	0.0169344
632.176	0.0171200
632.254	0.0170534
632.332	0.0169164
632.410	0.0170647
632.488	0.0171059
632.567	0.0170605
632.645	0.0171546
632.723	0.0170644
632.801	0.0170104
632.879	0.0171246
632.957	0.0170255
633.035	0.0170591
633.113	0.0170316
633.192	0.0170263
633.270	0.0170673
633.348	0.0169728
633.426	0.0169051
633.504	0.0171369
633.582	0.0169337
633.660	0.0171138
633.738	0.0170130
633.817	0.0170165
633.895	0.0171162
633.973	0.0171530
634.051	0.0171383
634.129	0.0171484
634.207	0.0170866
634.285	0.0169977
634.363	0.0169080
634.442	0.0170341
634.520	0.0168534
634.598	0.0170793
634.676	0.0171330
634.754	0.0170688
634.832	0.0169012
634.910	0.0171391
634.988	0.0171382
635.067	0.0170210
635.145	0.0170257
635.223	0.0170490
635.301	0.0170844
635.379	0.0169807
635.457	0.0169357
635.535	0.0172025
635.613	0.0170734
635.692	0.0170021
635.770	0.0170099
635.848	0.0170138
635.926	0.0169792
636.004	0.0170930
636.082	0.0170854
636.160	0.0171001
636.238	0.0170487
636.317	0.0170267
636.395	0.0170394
636.473	0.0172040
636.551	0.0171602
636.629	0.0170478
636.707	0.0169852
636.785	0.0170867
636.863	0.0170624
636.942	0.0170540
637.020	0.0169429
637.098	0.0170399
637.176	0.0170896
637.254	0.0170574
637.332	0.0169843
637.410	0.0170033
637.488	0.0170511
637.567	0.0170203
637.645	0.0171133
637.723	0.0170638
637.801	0.0170294
637.879	0.0171043
637.957	0.0171435
638.035	0.0171562
638.113	0.0169143
638.192	0.0170996
638.270	0.0171600
638.348	0.0169865
638.426	0.0168997
638.504	0.0171934
638.582	0.0170892
638.660	0.0170403
638.738	0.0170737
638.817	0.0171442
638.895	0.0169300
638.973	0.0171333
639.051	0.0170937
639.129	0.0170421
639.207	0.0171279
639.285	0.0170810
639.363	0.0170332
639.442	0.0170437
639.520	0.0169959
639.598	0.0169972
639.676	0.0169209
639.754	0.0169395
639.832	0.0169810
639.910	0.0170699
639.988	0.0170149
640.067	0.0170959
640.145	0.0170933
640.223	0.0170066
640.301	0.0170650
640.379	0.0170294
640.457	0.0170514
640.535	0.0169517
640.613	0.0169736
640.692	0.0171835
640.770	0.0171503
640.848	0.0169942
640.926	0.0170203
641.004	0.0170649
641.082	0.0170614
641.160	0.0169199
641.238	0.0170432
641.317	0.0170163
641.395	0.0170677
641.473	0.0170045
641.551	0.0170354
641.629	0.0171380
641.707	0.0169925
641.785	0.0169417
641.863	0.0171247
641.942	0.0171360
642.020	0.0169351
642.098	0.0170265
642.176	0.0170435
642.254	0.0170798
642.332	0.0170694
642.410	0.0170244
642.488	0.0170321
642.567	0.0169881
642.645	0.0170677
642.723	0.0170419
642.801	0.0170129
642.879	0.0170455
642.957	0.0170996
643.035	0.0170879
643.113	0.0171354
643.192	0.0169542
643.270	0.0170512
643.348	0.0171682
643.426	0.0171246
643.504	0.0170731
643.582	0.0170894
643.660	0.0170444
643.738	0.0170603
643.817	0.0171306
643.895	0.0169600
643.973	0.0169950
644.051	0.0170630
644.129	0.0170119
644.207	0.0170896
644.285	0.0170534
644.363	0.0170310
644.442	0.0169551
644.520	0.0169865
644.598	0.0169564
644.676	0.0170521
644.754	0.0170788
644.832	0.0170047
644.910	0.0169193
644.988	0.0168647
645.067	0.0169931
645.145	0.0169635
645.223	0.0169669
645.301	0.0170229
645.379	0.0169863
645.457	0.0170023
645.535	0.0170481
645.613	0.0171017
645.692	0.0169392
645.770	0.0169939
645.848	0.0170972
645.926	0.0169870
646.004	0.0170925
646.082	0.0170187
646.160	0.0169838
646.238	0.0171634
646.317	0.0169767
646.395	0.0170530
646.473	0.0171539
646.551	0.0170054
646.629	0.0169915
646.707	0.0169830
646.785	0.0170323
646.863	0.0169732
646.942	0.0169431
647.020	0.0169724
647.098	0.0170288
647.176	0.0170853
647.254	0.0170974
647.332	0.0168435
647.410	0.0169679
647.488	0.0170643
647.567	0.0170487
647.645	0.0170910
647.723	0.0170602
647.801	0.0169299
647.879	0.0168464
647.957	0.0170139
648.035	0.0168739
648.113	0.0171528
648.192	0.0171507
648.270	0.0170664
648.348	0.0168586
648.426	0.0169009
648.504	0.0170410
648.582	0.0170625
648.660	0.0170683
648.738	0.0170242
648.817	0.0169581
648.895	0.0170611
648.973	0.0171199
649.051	0.0170440
649.129	0.0171193
649.207	0.0170113
649.285	0.0170414
649.363	0.0170898
649.442	0.0170128
649.520	0.0170966
649.598	0.0169942
649.676	0.0170818
649.754	0.0170790
649.832	0.0171002
649.910	0.0170641
649.988	0.0170663
650.067	0.0169888
650.145	0.0170112
650.223	0.0171394
650.301	0.0169184
650.379	0.0168999
650.457	0.0170132
650.535	0.0170187
650.613	0.0170715
650.692	0.0170750
650.770	0.0171962
650.848	0.0169264
650.926	0.0170588
651.004	0.0169907
651.082	0.0169009
651.160	0.0171144
651.238	0.0170497
651.317	0.0170119
651.395	0.0169920
651.473	0.0170252
651.551	0.0170014
651.629	0.0172276
651.707	0.0170889
651.785	0.0170297
651.863	0.0170824
651.942	0.0172610
652.020	0.0170745
652.098	0.0170356
652.176	0.0169823
652.254	0.0170459
652.332	0.0170284
652.410	0.0169247
652.488	0.0170030
652.567	0.0169688
652.645	0.0169981
652.723	0.0170520
652.801	0.0171355
652.879	0.0171820
652.957	0.0169894
653.035	0.0169958
653.113	0.0170013
653.192	0.0169783
653.270	0.0169776
653.348	0.0171632
653.426	0.0170040
653.504	0.0170821
653.582	0.0171377
653.660	0.0170737
653.738	0.0170196
653.817	0.0170332
653.895	0.0170496
653.973	0.0170264
654.051	0.0169852
654.129	0.0170251
654.207	0.0171081
654.285	0.0170763
654.363	0.0170458
654.442	0.0170585
654.520	0.0169990
654.598	0.0170164
654.676	0.0168957
654.754	0.0170757
654.832	0.0170097
654.910	0.0171252
654.988	0.0170261
655.067	0.0171066
655.145	0.0171389
655.223	0.0170870
655.301	0.0170188
655.379	0.0169008
655.457	0.0169624
655.535	0.0169878
655.613	0.0170066
655.692	0.0170447
655.770	0.0170678
655.848	0.0169582
655.926	0.0169372
656.004	0.0169676
656.082	0.0170579
656.160	0.0169997
656.238	0.0169450
656.317	0.0170551
656.395	0.0170780
656.473	0.0170112
656.551	0.0169331
656.629	0.0170615
656.707	0.0170434
656.785	0.0170404
656.863	0.0170058
656.942	0.0170937
657.020	0.0171491
657.098	0.0170135
657.176	0.0170635
657.254	0.0169753
657.332	0.0169443
657.410	0.0170940
657.488	0.0169691
657.567	0.0168671
657.645	0.0169981
657.723	0.0170959
657.801	0.0171503
657.879	0.0171008
657.957	0.0170206
658.035	0.0168689
658.113	0.0168890
658.192	0.0171127
658.270	0.0170135
658.348	0.0169912
658.426	0.0170229
658.504	0.0170546
658.582	0.0169272
658.660	0.0170596
658.738	0.0170907
658.817	0.0171073
658.895	0.0171099
658.973	0.0169939
659.051	0.0170178
659.129	0.0170851
659.207	0.0170034
659.285	0.0170153
659.363	0.0169366
659.442	0.0170213
659.520	0.0170244
659.598	0.0168954
659.676	0.0169891
659.754	0.0170802
659.832	0.0170092
659.910	0.0170981
659.988	0.0169199
660.067	0.0170266
660.145	0.0172580
660.223	0.0171706
660.301	0.0170403
660.379	0.0170626
660.457	0.0170267
660.535	0.0169693
660.613	0.0170425
660.692	0.0170560
660.770	0.0169241
660.848	0.0171230
660.926	0.0170456
661.004	0.0168996
661.082	0.0171458
661.160	0.0171502
661.238	0.0170003
661.317	0.0170518
661.395	0.0170351
661.473	0.0171477
661.551	0.0170284
661.629	0.0170033
661.707	0.0170834
661.785	0.0169963
661.863	0.0170493
661.942	0.0169207
662.020	0.0170578
662.098	0.0170163
662.176	0.0172652
662.254	0.0170884
662.332	0.0170945
662.410	0.0170676
662.488	0.0170020
662.567	0.0169761
662.645	0.0170103
662.723	0.0170465
662.801	0.0171313
662.879	0.0171282
662.957	0.0170808
663.035	0.0171134
663.113	0.0170683
663.192	0.0171827
663.270	0.0170730
663.348	0.0170208
663.426	0.0171555
663.504	0.0170982
663.582	0.0171553
663.660	0.0171124
663.738	0.0169904
663.817	0.0170732
663.895	0.0171712
663.973	0.0171004
664.051	0.0171065
664.129	0.0171587
664.207	0.0169958
664.285	0.0170387
664.363	0.0169771
664.442	0.0170760
664.520	0.0170225
664.598	0.0171581
664.676	0.0170935
664.754	0.0171140
664.832	0.0170792
664.910	0.0170875
664.988	0.0170570
665.067	0.0169856
665.145	0.0172208
665.223	0.0172004
665.301	0.0169377
665.379	0.0170105
665.457	0.0170032
665.535	0.0170776
665.613	0.0170904
665.692	0.0171464
665.770	0.0172072
665.848	0.0170906
665.926	0.0171062
666.004	0.0170621
666.082	0.0171951
666.160	0.0170383
666.238	0.0168744
666.317	0.0170786
666.395	0.0172972
666.473	0.0171301
666.551	0.0171223
666.629	0.0170890
666.707	0.0170903
666.785	0.0171488
666.863	0.0170861
666.942	0.0170396
667.020	0.0171116
667.098	0.0170160
667.176	0.0169169
667.254	0.0171385
667.332	0.0170088
667.410	0.0170027
667.488	0.0170530
667.567	0.0170394
667.645	0.0171677
667.723	0.0170953
667.801	0.0170712
667.879	0.0170895
667.957	0.0170516
668.035	0.0168683
668.113	0.0170789
668.192	0.0170776
668.270	0.0169325
668.348	0.0170202
668.426	0.0169341
668.504	0.0169614
668.582	0.0171363
668.660	0.0171700
668.738	0.0170948
668.817	0.0170290
668.895	0.0170665
668.973	0.0170370
669.051	0.0170773
669.129	0.0171823
669.207	0.0170341
669.285	0.0170134
669.363	0.0170117
669.442	0.0167912
669.520	0.0169913
669.598	0.0170975
669.676	0.0170956
669.754	0.0170142
669.832	0.0170232
669.910	0.0171802
669.988	0.0169328
670.067	0.0168858
670.145	0.0171074
670.223	0.0170719
670.301	0.0169304
670.379	0.0170410
670.457	0.0170139
670.535	0.0170200
670.613	0.0170712
670.692	0.0169340
670.770	0.0169962
670.848	0.0168823
670.926	0.0168861
671.004	0.0169492
671.082	0.0170441
671.160	0.0169345
671.238	0.0169785
671.317	0.0168525
671.395	0.0169708
671.473	0.0169229
671.551	0.0169714
671.629	0.0169653
671.707	0.0168781
671.785	0.0170198
671.863	0.0170106
671.942	0.0169295
672.020	0.0169259
672.098	0.0169510
672.176	0.0169190
672.254	0.0169160
672.332	0.0169234
672.410	0.0170558
672.488	0.0169501
672.567	0.0168687
672.645	0.0169520
672.723	0.0170750
672.801	0.0169714
672.879	0.0170039
672.957	0.0169743
673.035	0.0169067
673.113	0.0169991
673.192	0.0168859
673.270	0.0168816
673.348	0.0170770
673.426	0.0169716
673.504	0.0169514
673.582	0.0169920
673.660	0.0169908
673.738	0.0168500
673.817	0.0169690
673.895	0.0171065
673.973	0.0169625
674.051	0.0169329
674.129	0.0171435
674.207	0.0171046
674.285	0.0169181
674.363	0.0170936
674.442	0.0170345
674.520	0.0169797
674.598	0.0170089
674.676	0.0171696
674.754	0.0171098
674.832	0.0169781
674.910	0.0171481
674.988	0.0170445
675.067	0.0169935
675.145	0.0170442
675.223	0.0170308
675.301	0.0170282
675.379	0.0170010
675.457	0.0170547
675.535	0.0170263
675.613	0.0169312
675.692	0.0168542
675.770	0.0168738
675.848	0.0169010
675.926	0.0169136
676.004	0.0170241
676.082	0.0170531
676.160	0.0169215
676.238	0.0170417
676.317	0.0169602
676.395	0.0169905
676.473	0.0170267
676.551	0.0169537
676.629	0.0170663
676.707	0.0170436
676.785	0.0171511
676.863	0.0168931
676.942	0.0168877
677.020	0.0171378
677.098	0.0170819
677.176	0.0169357
677.254	0.0170528
677.332	0.0170449
677.410	0.0171082
677.488	0.0169016
677.567	0.0170368
677.645	0.0169341
677.723	0.0171007
677.801	0.0170663
677.879	0.0169510
677.957	0.0171307
678.035	0.0169391
678.113	0.0170611
678.192	0.0170869
678.270	0.0168178
678.348	0.0169992
678.426	0.0168506
678.504	0.0169654
678.582	0.0170938
678.660	0.0168694
678.738	0.0167290
678.817	0.0167689
678.895	0.0170123
678.973	0.0168307
679.051	0.0168687
679.129	0.0170052
679.207	0.0169874
679.285	0.0169054
679.363	0.0169024
679.442	0.0170311
679.520	0.0168939
679.598	0.0170090
679.676	0.0169592
679.754	0.0169809
679.832	0.0169498
679.910	0.0170369
679.988	0.0171831
680.067	0.0171288
680.145	0.0170842
680.223	0.0171013
680.301	0.0172099
680.379	0.0172697
680.457	0.0172375
680.535	0.0171252
680.613	0.0172618
680.692	0.0172169
680.770	0.0171383
680.848	0.0171724
680.926	0.0170884
681.004	0.0171121
681.082	0.0171138
681.160	0.0171752
681.238	0.0172083
681.317	0.0170509
681.395	0.0173272
681.473	0.0173852
681.551	0.0173433
681.629	0.0174418
681.707	0.0174129
681.785	0.0174451
681.863	0.0175230
681.942	0.0175014
682.020	0.0173391
682.098	0.0172174
682.176	0.0170110
682.254	0.0168917
682.332	0.0167101
682.410	0.0163466
682.488	0.0158608
682.567	0.0155314
682.645	0.0150221
682.723	0.0146712
682.801	0.0144424
682.879	0.0142035
682.957	0.0142096
683.035	0.0146144
683.113	0.0147905
683.192	0.0154275
683.270	0.0161966
683.348	0.0169314
683.426	0.0181351
683.504	0.0191776
683.582	0.0201731
683.660	0.0211190
683.738	0.0216800
683.817	0.0220615
683.895	0.0222710
683.973	0.0218665
684.051	0.0214205
684.129	0.0207424
684.207	0.0199261
684.285	0.0188152
684.363	0.0176027
684.442	0.0166228
684.520	0.0157590
684.598	0.0148643
684.676	0.0140430
684.754	0.0134859
684.832	0.0130305
684.910	0.0126136
684.988	0.0122305
685.067	0.0119050
685.145	0.0116831
685.223	0.0116129
685.301	0.0116692
685.379	0.0119348
685.457	0.0125375
685.535	0.0134596
685.613	0.0145634
685.692	0.0159438
685.770	0.0177764
685.848	0.0194234
685.926	0.0215704
686.004	0.0235885
686.082	0.0253958
686.160	0.0269785
686.238	0.0280145
686.317	0.0284445
686.395	0.0285467
686.473	0.0279312
686.551	0.0266460
686.629	0.0247835
686.707	0.0225264
686.785	0.0198865
686.863	0.0170010
686.942	0.0140668
687.020	0.0113913
687.098	0.00883179
687.176	0.00656380
687.254	0.00491074
687.332	0.00370384
687.410	0.00297707
687.488	0.00263687
687.567	0.00274261
687.645	0.00324921
687.723	0.00389725
687.801	0.00512871
687.879	0.00642929
687.957	0.00795876
688.035	0.00985397
688.113	0.0120705
688.192	0.0144271
688.270	0.0172093
688.348	0.0199454
688.426	0.0229418
688.504	0.0261125
688.582	0.0290551
688.660	0.0318994
688.738	0.0344547
688.817	0.0364697
688.895	0.0377359
688.973	0.0385694
689.051	0.0385692
689.129	0.0377103
689.207	0.0361439
689.285	0.0337815
689.363	0.0309712
689.442	0.0276282
689.520	0.0237635
689.598	0.0198246
689.676	0.0158826
689.754	0.0121037
689.832	0.00847382
689.910	0.00536919
689.988	0.00264542
690.067	0.000302353
690.145	-0.00133644
690.223	-0.00249489
690.301	-0.00301666
690.379	-0.00310806
690.457	-0.00277321
690.535	-0.00205467
690.613	-0.000913773
690.692	0.000580750
690.770	0.00241470
690.848	0.00444405
690.926	0.00660912
691.004	0.00916702
691.082	0.0116544
691.160	0.0144874
691.238	0.0175147
691.317	0.0203143
691.395	0.0233437
691.473	0.0261452
691.551	0.0287008
691.629	0.0309223
691.707	0.0328096
691.785	0.0340865
691.863	0.0350895
691.942	0.0352187
692.020	0.0349849
692.098	0.0340710
692.176	0.0328798
692.254	0.0310004
692.332	0.0290517
692.410	0.0266190
692.488	0.0243185
692.567	0.0217220
692.645	0.0195794
692.723	0.0174594
692.801	0.0155170
692.879	0.0137910
692.957	0.0124519
693.035	0.0113290
693.113	0.0104092
693.192	0.00951073
693.270	0.00894768
693.348	0.00843765
693.426	0.00818695
693.504	0.00788834
693.582	0.00780235
693.660	0.00785004
693.738	0.00801598
693.817	0.00842049
693.895	0.00906288
693.973	0.00986160
694.051	0.0108263
694.129	0.0119206
694.207	0.0129087
694.285	0.0143527
694.363	0.0156979
694.442	0.0171053
694.520	0.0182907
694.598	0.0193462
694.676	0.0201115
694.754	0.0206457
694.832	0.0211615
694.910	0.0213512
694.988	0.0212263
695.067	0.0207793
695.145	0.0203713
695.223	0.0201891
695.301	0.0195934
695.379	0.0191520
695.457	0.0185836
695.535	0.0184668
695.613	0.0181327
695.692	0.0177693
695.770	0.0174613
695.848	0.0172990
695.926	0.0172247
696.004	0.0171740
696.082	0.0171212
696.160	0.0169345
696.238	0.0169621
696.317	0.0169711
696.395	0.0169736
696.473	0.0170895
696.551	0.0169250
696.629	0.0169926
696.707	0.0171471
696.785	0.0171552
696.863	0.0172893
696.942	0.0175971
697.020	0.0179070
697.098	0.0182328
697.176	0.0185329
697.254	0.0189926
697.332	0.0191345
697.410	0.0194556
697.488	0.0194037
697.567	0.0195090
697.645	0.0194897
697.723	0.0190838
697.801	0.0185786
697.879	0.0179494
697.957	0.0174130
698.035	0.0166404
698.113	0.0158476
698.192	0.0151287
698.270	0.0144701
698.348	0.0140515
698.426	0.0134787
698.504	0.0133049
698.582	0.0132642
698.660	0.0132684
698.738	0.0135166
698.817	0.0138366
698.895	0.0142352
698.973	0.0148811
699.051	0.0154042
699.129	0.0158753
699.207	0.0163870
699.285	0.0167041
699.363	0.0173366
699.442	0.0175729
699.520	0.0176307
699.598	0.0179176
699.676	0.0180778
699.754	0.0181017
699.832	0.0180419
699.910	0.0178812
699.988	0.0177934
700.067	0.0178219
700.145	0.0176384
700.223	0.0174467
700.301	0.0172762
700.379	0.0171664
700.457	0.0172500
700.535	0.0172850
700.613	0.0172872
700.692	0.0172905
700.770	0.0172816
700.848	0.0175745
700.926	0.0176157
701.004	0.0177946
701.082	0.0179022
701.160	0.0180334
701.238	0.0181281
701.317	0.0183069
701.395	0.0183659
701.473	0.0183113
701.551	0.0182439
701.629	0.0182431
701.707	0.0181100
701.785	0.0178915
701.863	0.0178036
701.942	0.0176976
702.020	0.0174603
702.098	0.0173712
702.176	0.0173432
702.254	0.0172222
702.332	0.0173543
702.410	0.0174252
702.488	0.0175370
702.567	0.0174005
702.645	0.0174816
702.723	0.0174361
702.801	0.0174718
702.879	0.0172990
702.957	0.0168289
703.035	0.0166254
703.113	0.0164565
703.192	0.0161499
703.270	0.0158904
703.348	0.0154788
703.426	0.0154617
703.504	0.0153739
703.582	0.0153091
703.660	0.0153384
703.738	0.0154140
703.817	0.0157304
703.895	0.0159972
703.973	0.0160236
704.051	0.0163728
704.129	0.0164945
704.207	0.0163963
704.285	0.0163531
704.363	0.0165730
704.442	0.0164280
704.520	0.0163882
704.598	0.0163488
704.676	0.0161539
704.754	0.0160374
704.832	0.0163187
704.910	0.0163965
704.988	0.0166393
705.067	0.0169024
705.145	0.0171160
705.223	0.0174693
705.301	0.0178171
705.379	0.0179278
705.457	0.0181814
705.535	0.0182732
705.613	0.0181597
705.692	0.0180112
705.770	0.0178451
705.848	0.0176491
705.926	0.0175299
706.004	0.0172152
706.082	0.0169383
706.160	0.0169107
706.238	0.0168208
706.317	0.0170134
706.395	0.0170654
706.473	0.0171946
706.551	0.0177073
706.629	0.0181583
706.707	0.0184621
706.785	0.0187046
706.863	0.0190251
706.942	0.0193102
707.020	0.0194793
707.098	0.0194688
707.176	0.0190909
707.254	0.0190156
707.332	0.0187182
707.410	0.0182203
707.488	0.0177100
707.567	0.0173866
707.645	0.0167891
707.723	0.0163091
707.801	0.0160023
707.879	0.0155843
707.957	0.0152877
708.035	0.0151469
708.113	0.0149115
708.192	0.0148476
708.270	0.0148325
708.348	0.0149293
708.426	0.0149553
708.504	0.0150027
708.582	0.0152635
708.660	0.0153510
708.738	0.0154528
708.817	0.0156478
708.895	0.0158479
708.973	0.0161143
709.051	0.0162492
709.129	0.0163451
709.207	0.0165690
709.285	0.0167966
709.363	0.0168902
709.442	0.0171053
709.520	0.0172990
709.598	0.0173257
709.676	0.0174775
709.754	0.0174428
709.832	0.0176093
709.910	0.0173266
709.988	0.0172388
710.067	0.0173108
710.145	0.0172027
710.223	0.0169829
710.301	0.0167281
710.379	0.0166419
710.457	0.0167071
710.535	0.0166023
710.613	0.0165924
710.692	0.0167440
710.770	0.0168474
710.848	0.0167963
710.926	0.0169563
711.004	0.0172663
711.082	0.0172954
711.160	0.0175578
711.238	0.0177806
711.317	0.0178723
711.395	0.0180448
711.473	0.0182184
711.551	0.0183147
711.629	0.0183972
711.707	0.0184696
711.785	0.0184160
711.863	0.0184686
711.942	0.0183632
712.020	0.0183493
712.098	0.0179741
712.176	0.0178455
712.254	0.0177805
712.332	0.0172973
712.410	0.0172908
712.488	0.0171634
712.567	0.0168234
712.645	0.0167776
712.723	0.0167834
712.801	0.0165252
712.879	0.0164439
712.957	0.0163796
713.035	0.0163608
713.113	0.0162467
713.192	0.0161852
713.270	0.0163984
713.348	0.0162399
713.426	0.0161508
713.504	0.0163255
713.582	0.0161993
713.660	0.0163348
713.738	0.0163762
713.817	0.0164907
713.895	0.0163483
713.973	0.0164695
714.051	0.0165422
714.129	0.0165175
714.207	0.0165402
714.285	0.0166553
714.363	0.0165952
714.442	0.0165747
714.520	0.0166204
714.598	0.0167573
714.676	0.0166034
714.754	0.0166129
714.832	0.0166869
714.910	0.0166654
714.988	0.0164749
715.067	0.0164783
715.145	0.0164699
715.223	0.0163045
715.301	0.0162510
715.379	0.0162941
715.457	0.0165575
715.535	0.0166320
715.613	0.0167637
715.692	0.0169488
715.770	0.0169852
715.848	0.0172892
715.926	0.0173327
716.004	0.0175423
716.082	0.0176797
716.160	0.0178515
716.238	0.0178629
716.317	0.0178636
716.395	0.0180095
716.473	0.0179288
716.551	0.0179891
716.629	0.0179814
716.707	0.0179586
716.785	0.0179139
716.863	0.0177839
716.942	0.0179421
717.020	0.0176978
717.098	0.0177861
717.176	0.0176524
717.254	0.0176371
717.332	0.0176754
717.410	0.0176173
717.488	0.0176031
717.567	0.0174229
717.645	0.0175099
717.723	0.0174821
717.801	0.0172785
717.879	0.0171655
717.957	0.0171148
718.035	0.0170561
718.113	0.0168079
718.192	0.0167601
718.270	0.0165055
718.348	0.0164619
718.426	0.0162389
718.504	0.0162006
718.582	0.0160361
718.660	0.0161326
718.738	0.0161745
718.817	0.0162302
718.895	0.0164728
718.973	0.0165664
719.051	0.0165999
719.129	0.0167738
719.207	0.0167734
719.285	0.0169554
719.363	0.0170268
719.442	0.0170788
719.520	0.0171560
719.598	0.0171178
719.676	0.0169748
719.754	0.0170351
719.832	0.0169144
719.910	0.0169046
719.988	0.0168097
720.067	0.0165874
720.145	0.0167683
720.223	0.0167166
720.301	0.0166094
720.379	0.0166917
720.457	0.0166634
720.535	0.0166422
720.613	0.0165514
720.692	0.0165498
720.770	0.0165730
720.848	0.0163848
720.926	0.0164669
721.004	0.0166649
721.082	0.0166250
721.160	0.0166814
721.238	0.0168281
721.317	0.0168468
721.395	0.0170135
721.473	0.0170609
721.551	0.0173246
721.629	0.0176288
721.707	0.0178274
721.785	0.0178352
721.863	0.0179958
721.942	0.0179882
722.020	0.0179670
722.098	0.0179536
722.176	0.0178510
722.254	0.0179076
722.332	0.0181063
722.410	0.0177191
722.488	0.0176539
722.567	0.0176636
722.645	0.0175706
722.723	0.0175520
722.801	0.0175463
722.879	0.0173430
722.957	0.0172238
723.035	0.0172124
723.113	0.0171723
723.192	0.0170492
723.270	0.0170281
723.348	0.0170118
723.426	0.0169773
723.504	0.0168582
723.582	0.0167941
723.660	0.0169658
723.738	0.0168396
723.817	0.0168277
723.895	0.0168557
723.973	0.0168681
724.051	0.0169315
724.129	0.0170692
724.207	0.0170679
724.285	0.0168914
724.363	0.0169382
724.442	0.0168263
724.520	0.0168211
724.598	0.0166384
724.676	0.0166410
724.754	0.0165154
724.832	0.0163258
724.910	0.0163940
724.988	0.0162914
725.067	0.0163903
725.145	0.0164375
725.223	0.0164632
725.301	0.0166087
725.379	0.0166253
725.457	0.0168705
725.535	0.0168662
725.613	0.0170272
725.692	0.0171301
725.770	0.0170918
725.848	0.0170587
725.926	0.0170724
726.004	0.0171460
726.082	0.0168732
726.160	0.0168893
726.238	0.0169133
726.317	0.0166891
726.395	0.0165888
726.473	0.0167103
726.551	0.0165363
726.629	0.0166183
726.707	0.0166690
726.785	0.0167963
726.863	0.0167663
726.942	0.0169004
727.020	0.0172049
727.098	0.0172526
727.176	0.0173306
727.254	0.0175327
727.332	0.0175144
727.410	0.0177340
727.488	0.0177212
727.567	0.0178854
727.645	0.0178690
727.723	0.0179008
727.801	0.0179348
727.879	0.0179382
727.957	0.0178616
728.035	0.0177422
728.113	0.0178282
728.192	0.0177698
728.270	0.0176070
728.348	0.0176251
728.426	0.0175101
728.504	0.0172325
728.582	0.0172664
728.660	0.0171408
728.738	0.0170587
728.817	0.0168867
728.895	0.0167209
728.973	0.0165784
729.051	0.0164456
729.129	0.0163080
729.207	0.0162141
729.285	0.0161852
729.363	0.0162479
729.442	0.0161083
729.520	0.0162473
729.598	0.0162477
729.676	0.0162786
729.754	0.0163851
729.832	0.0166581
729.910	0.0167187
729.988	0.0168329
730.067	0.0169674
730.145	0.0171116
730.223	0.0171997
730.301	0.0173002
730.379	0.0175163
730.457	0.0174218
730.535	0.0175636
730.613	0.0176176
730.692	0.0173961
730.770	0.0173977
730.848	0.0172537
730.926	0.0170292
731.004	0.0169552
731.082	0.0169767
731.160	0.0168750
731.238	0.0165601
731.317	0.0163057
731.395	0.0163430
731.473	0.0163189
731.551	0.0162876
731.629	0.0162354
731.707	0.0162398
731.785	0.0163776
731.863	0.0163221
731.942	0.0164658
732.020	0.0166492
732.098	0.0167756
732.176	0.0168306
732.254	0.0169341
732.332	0.0171279
732.410	0.0173380
732.488	0.0173327
732.567	0.0175552
732.645	0.0176585
732.723	0.0177339
732.801	0.0177465
732.879	0.0179818
732.957	0.0180363
733.035	0.0179296
733.113	0.0179806
733.192	0.0180481
733.270	0.0179994
733.348	0.0180003
733.426	0.0178618
733.504	0.0178019
733.582	0.0177388
733.660	0.0176575
733.738	0.0174602
733.817	0.0172990
733.895	0.0171458
733.973	0.0169199
734.051	0.0167787
734.129	0.0165003
734.207	0.0164421
734.285	0.0162815
734.363	0.0162922
734.442	0.0160436
734.520	0.0163242
734.598	0.0162345
734.676	0.0162399
734.754	0.0162013
734.832	0.0162862
734.910	0.0163337
734.988	0.0164994
735.067	0.0166941
735.145	0.0166272
735.223	0.0166220
735.301	0.0167326
735.379	0.0168180
735.457	0.0168715
735.535	0.0168678
735.613	0.0170278
735.692	0.0168796
735.770	0.0168671
735.848	0.0169485
735.926	0.0169376
736.004	0.0170908
736.082	0.0168051
736.160	0.0168887
736.238	0.0168561
736.317	0.0168499
736.395	0.0170348
736.473	0.0170821
736.551	0.0170233
736.629	0.0170351
736.707	0.0170293
736.785	0.0170090
736.863	0.0169590
736.942	0.0170567
737.020	0.0170958
737.098	0.0170291
737.176	0.0168507
737.254	0.0170098
737.332	0.0170856
737.410	0.0170123
737.488	0.0170454
737.567	0.0169769
737.645	0.0170822
737.723	0.0170630
737.801	0.0170119
737.879	0.0171623
737.957	0.0173179
738.035	0.0172150
738.113	0.0173170
738.192	0.0172133
738.270	0.0173132
738.348	0.0174480
738.426	0.0174237
738.504	0.0174776
738.582	0.0175191
738.660	0.0176126
738.738	0.0175722
738.817	0.0175948
738.895	0.0175153
738.973	0.0174599
739.051	0.0174030
739.129	0.0172785
739.207	0.0171851
739.285	0.0172446
739.363	0.0170771
739.442	0.0169305
739.520	0.0167399
739.598	0.0166139
739.676	0.0166217
739.754	0.0165469
739.832	0.0165501
739.910	0.0164474
739.988	0.0163889
740.067	0.0165401
740.145	0.0165057
740.223	0.0163903
740.301	0.0165527
740.379	0.0166141
740.457	0.0166180
740.535	0.0167682
740.613	0.0169424
740.692	0.0170719
740.770	0.0170289
740.848	0.0171776
740.926	0.0173070
741.004	0.0172318
741.082	0.0173795
741.160	0.0173026
741.238	0.0174030
741.317	0.0173809
741.395	0.0173257
741.473	0.0172373
741.551	0.0172233
741.629	0.0170923
741.707	0.0170507
741.785	0.0169595
741.863	0.0168481
741.942	0.0167691
742.020	0.0166959
742.098	0.0166927
742.176	0.0167321
742.254	0.0166132
742.332	0.0166617
742.410	0.0166502
742.488	0.0166461
742.567	0.0168046
742.645	0.0169080
742.723	0.0169994
742.801	0.0169381
742.879	0.0171300
742.957	0.0172628
743.035	0.0173310
743.113	0.0174100
743.192	0.0172097
743.270	0.0173431
743.348	0.0176089
743.426	0.0176633
743.504	0.0176869
743.582	0.0176457
743.660	0.0174858
743.738	0.0174991
743.817	0.0176649
743.895	0.0175287
743.973	0.0174786
744.051	0.0174767
744.129	0.0173518
744.207	0.0172316
744.285	0.0171352
744.363	0.0170068
744.442	0.0169768
744.520	0.0167616
744.598	0.0167138
744.676	0.0166782
744.754	0.0166496
744.832	0.0165053
744.910	0.0166228
744.988	0.0166171
745.067	0.0164982
745.145	0.0166268
745.223	0.0166473
745.301	0.0166245
745.379	0.0167992
745.457	0.0168864
745.535	0.0169683
745.613	0.0170402
745.692	0.0170773
745.770	0.0171181
745.848	0.0172452
745.926	0.0172550
746.004	0.0171611
746.082	0.0173279
746.160	0.0173558
746.238	0.0171399
746.317	0.0172595
746.395	0.0172634
746.473	0.0173098
746.551	0.0171847
746.629	0.0171030
746.707	0.0169763
746.785	0.0169298
746.863	0.0169975
746.942	0.0169211
747.020	0.0169106
747.098	0.0168010
747.176	0.0166380
747.254	0.0166303
747.332	0.0168299
747.410	0.0167478
747.488	0.0165968
747.567	0.0166718
747.645	0.0165587
747.723	0.0166019
747.801	0.0166533
747.879	0.0166215
747.957	0.0168104
748.035	0.0167980
748.113	0.0167370
748.192	0.0170315
748.270	0.0169431
748.348	0.0171303
748.426	0.0171053
748.504	0.0171897
748.582	0.0172974
748.660	0.0173505
748.738	0.0173162
748.817	0.0176039
748.895	0.0176135
748.973	0.0175191
749.051	0.0175352
749.129	0.0175345
749.207	0.0174814
749.285	0.0176038
749.363	0.0174607
749.442	0.0173983
749.520	0.0174004
749.598	0.0171792
749.676	0.0170631
749.754	0.0171941
749.832	0.0169644
749.910	0.0168295
749.988	0.0167119
750.067	0.0167383
750.145	0.0167114
750.223	0.0165447
750.301	0.0164237
750.379	0.0166676
750.457	0.0166550
750.535	0.0166455
750.613	0.0165324
750.692	0.0168021
750.770	0.0168417
750.848	0.0169833
750.926	0.0170835
751.004	0.0171145
751.082	0.0172297
751.160	0.0172412
751.238	0.0174093
751.317	0.0173698
751.395	0.0174171
751.473	0.0172546
751.551	0.0172967
751.629	0.0173962
751.707	0.0173076
751.785	0.0171076
751.863	0.0172784
751.942	0.0172205
752.020	0.0171522
752.098	0.0170884
752.176	0.0171146
752.254	0.0171607
752.332	0.0172698
752.410	0.0171258
752.488	0.0172204
752.567	0.0173470
752.645	0.0170871
752.723	0.0171252
752.801	0.0172881
752.879	0.0170882
752.957	0.0170978
753.035	0.0170434
753.113	0.0169743
753.192	0.0169291
753.270	0.0169151
753.348	0.0169022
753.426	0.0169331
753.504	0.0168993
753.582	0.0167605
753.660	0.0167941
753.738	0.0169054
753.817	0.0167001
753.895	0.0168520
753.973	0.0168833
754.051	0.0168205
754.129	0.0168496
754.207	0.0168216
754.285	0.0170074
754.363	0.0169703
754.442	0.0169388
754.520	0.0170129
754.598	0.0169305
754.676	0.0170839
754.754	0.0170473
754.832	0.0169628
754.910	0.0170103
754.988	0.0168312
755.067	0.0168160
755.145	0.0167715
755.223	0.0164831
755.301	0.0164716
755.379	0.0166342
755.457	0.0165508
755.535	0.0166370
755.613	0.0164723
755.692	0.0165153
755.770	0.0166843
755.848	0.0167175
755.926	0.0168562
756.004	0.0170556
756.082	0.0171631
756.160	0.0170063
756.238	0.0172919
756.317	0.0174245
756.395	0.0174984
756.473	0.0177539
756.551	0.0176783
756.629	0.0175853
756.707	0.0174535
756.785	0.0175272
756.863	0.0176652
756.942	0.0176575
757.020	0.0176002
757.098	0.0176482
757.176	0.0175742
757.254	0.0175298
757.332	0.0175851
757.410	0.0173399
757.488	0.0174603
757.567	0.0175872
757.645	0.0174393
757.723	0.0172195
757.801	0.0171102
757.879	0.0171140
757.957	0.0171818
758.035	0.0171214
758.113	0.0168407
758.192	0.0168083
758.270	0.0168396
758.348	0.0166923
758.426	0.0165046
758.504	0.0164997
758.582	0.0165853
758.660	0.0165483
758.738	0.0164688
758.817	0.0163993
758.895	0.0165339
758.973	0.0167134
759.051	0.0165858
759.129	0.0167213
759.207	0.0168368
759.285	0.0167637
759.363	0.0168219
759.442	0.0168069
759.520	0.0169281
759.598	0.0168838
759.676	0.0170238
759.754	0.0169857
759.832	0.0169276
759.910	0.0167918
759.988	0.0168123
760.067	0.0167599
760.145	0.0167630
760.223	0.0167893
760.301	0.0167879
760.379	0.0167213
760.457	0.0167749
760.535	0.0167547
760.613	0.0165824
760.692	0.0166600
760.770	0.0168574
760.848	0.0168461
760.926	0.0168219
761.004	0.0168916
761.082	0.0169557
761.160	0.0170110
761.238	0.0169621
761.317	0.0170572
761.395	0.0172055
761.473	0.0171469
761.551	0.0172892
761.629	0.0172671
761.707	0.0173988
761.785	0.0175051
761.863	0.0174035
761.942	0.0174541
762.020	0.0173664
762.098	0.0174201
762.176	0.0174075
762.254	0.0173982
762.332	0.0175305
762.410	0.0174071
762.488	0.0172659
762.567	0.0173447
762.645	0.0172136
762.723	0.0173847
762.801	0.0173325
762.879	0.0173891
762.957	0.0171908
763.035	0.0171828
763.113	0.0170042
763.192	0.0170754
763.270	0.0170943
763.348	0.0170429
763.426	0.0169102
763.504	0.0169090
763.582	0.0167725
763.660	0.0170210
763.738	0.0170756
763.817	0.0167842
763.895	0.0168225
763.973	0.0168896
764.051	0.0170745
764.129	0.0170546
764.207	0.0170815
764.285	0.0168167
764.363	0.0169167
764.442	0.0171613
764.520	0.0171537
764.598	0.0169611
764.676	0.0169263
764.754	0.0170614
764.832	0.0170320
764.910	0.0169237
764.988	0.0169662
765.067	0.0169304
765.145	0.0169913
765.223	0.0168329
765.301	0.0169827
765.379	0.0170509
765.457	0.0170332
765.535	0.0169459
765.613	0.0169351
765.692	0.0168491
765.770	0.0169386
765.848	0.0167371
765.926	0.0166970
766.004	0.0165205
766.082	0.0164613
766.160	0.0163194
766.238	0.0163589
766.317	0.0163764
766.395	0.0164717
766.473	0.0163622
766.551	0.0164135
766.629	0.0164345
766.707	0.0166152
766.785	0.0166172
766.863	0.0167972
766.942	0.0167981
767.020	0.0170837
767.098	0.0171259
767.176	0.0172016
767.254	0.0172642
767.332	0.0174334
767.410	0.0174838
767.488	0.0175226
767.567	0.0175331
767.645	0.0173528
767.723	0.0176167
767.801	0.0175600
767.879	0.0177352
767.957	0.0174883
768.035	0.0174772
768.113	0.0174387
768.192	0.0173772
768.270	0.0173457
768.348	0.0173860
768.426	0.0172984
768.504	0.0173067
768.582	0.0171568
768.660	0.0171828
768.738	0.0171925
768.817	0.0171217
768.895	0.0171400
768.973	0.0171183
769.051	0.0171084
769.129	0.0169845
769.207	0.0169490
769.285	0.0169351
769.363	0.0170301
769.442	0.0170175
769.520	0.0169319
769.598	0.0169011
769.676	0.0168719
769.754	0.0167992
769.832	0.0167981
769.910	0.0168393
769.988	0.0168535
770.067	0.0167617
770.145	0.0167552
770.223	0.0168002
770.301	0.0167842
770.379	0.0167786
770.457	0.0167211
770.535	0.0168445
770.613	0.0170336
770.692	0.0169883
770.770	0.0167766
770.848	0.0169978
770.926	0.0169983
771.004	0.0169592
771.082	0.0170319
771.160	0.0170184
771.238	0.0170346
771.317	0.0170942
771.395	0.0169707
771.473	0.0169298
771.551	0.0169050
771.629	0.0169930
771.707	0.0170703
771.785	0.0170947
771.863	0.0171842
771.942	0.0171235
772.020	0.0171297
772.098	0.0171757
772.176	0.0171361
772.254	0.0171878
772.332	0.0171484
772.410	0.0170782
772.488	0.0170119
772.567	0.0170271
772.645	0.0169624
772.723	0.0169306
772.801	0.0169557
772.879	0.0169493
772.957	0.0169176
773.035	0.0170094
773.113	0.0170356
773.192	0.0169339
773.270	0.0169716
773.348	0.0172084
773.426	0.0170704
773.504	0.0172164
773.582	0.0171400
773.660	0.0170849
773.738	0.0171847
773.817	0.0172024
773.895	0.0173080
773.973	0.0173450
774.051	0.0173679
774.129	0.0171511
774.207	0.0169550
774.285	0.0170846
774.363	0.0169743
774.442	0.0172050
774.520	0.0170650
774.598	0.0170555
774.676	0.0170072
774.754	0.0169238
774.832	0.0169332
774.910	0.0170326
774.988	0.0169601
775.067	0.0168039
775.145	0.0169138
775.223	0.0169935
775.301	0.0168296
775.379	0.0168536
775.457	0.0168079
775.535	0.0168545
775.613	0.0167255
775.692	0.0167946
775.770	0.0167950
775.848	0.0168174
775.926	0.0168156
776.004	0.0168484
776.082	0.0166589
776.160	0.0168528
776.238	0.0168581
776.317	0.0168510
776.395	0.0169644
776.473	0.0169001
776.551	0.0169689
776.629	0.0169306
776.707	0.0169966
776.785	0.0170503
776.863	0.0169810
776.942	0.0171998
777.020	0.0170573
777.098	0.0169048
777.176	0.0171925
777.254	0.0170484
777.332	0.0170625
777.410	0.0170694
777.488	0.0171180
777.567	0.0170987
777.645	0.0169153
777.723	0.0169845
777.801	0.0169623
777.879	0.0170206
777.957	0.0170116
778.035	0.0170363
778.113	0.0168556
778.192	0.0169910
778.270	0.0170152
778.348	0.0168791
778.426	0.0169756
778.504	0.0168616
778.582	0.0168736
778.660	0.0169729
778.738	0.0170353
778.817	0.0171700
778.895	0.0169506
778.973	0.0169785
779.051	0.0170325
779.129	0.0170397
779.207	0.0170725
779.285	0.0171310
779.363	0.0171943
779.442	0.0171037
779.520	0.0171679
779.598	0.0171834
779.676	0.0171136
779.754	0.0171529
779.832	0.0171729
779.910	0.0172845
779.988	0.0172851
780.067	0.0173891
780.145	0.0172614
780.223	0.0172386
780.301	0.0173038
780.379	0.0170266
780.457	0.0169824
780.535	0.0170798
780.613	0.0170831
780.692	0.0168755
780.770	0.0167336
780.848	0.0167004
780.926	0.0165081
781.004	0.0166461
781.082	0.0165571
781.160	0.0166836
781.238	0.0164803
781.317	0.0164715
781.395	0.0166282
781.473	0.0167568
781.551	0.0166190
781.629	0.0167664
781.707	0.0168811
781.785	0.0170055
781.863	0.0169225
781.942	0.0169771
782.020	0.0171582
782.098	0.0173125
782.176	0.0174323
782.254	0.0174316
782.332	0.0175603
782.410	0.0176835
782.488	0.0176165
782.567	0.0177750
782.645	0.0177706
782.723	0.0176959
782.801	0.0177417
782.879	0.0177270
782.957	0.0175065
783.035	0.0173161
783.113	0.0171391
783.192	0.0171071
783.270	0.0169065
783.348	0.0167434
783.426	0.0166732
783.504	0.0164959
783.582	0.0162296
783.660	0.0161849
783.738	0.0161015
783.817	0.0159712
783.895	0.0160826
783.973	0.0159368
784.051	0.0160587
784.129	0.0161176
784.207	0.0160381
784.285	0.0161524
784.363	0.0161939
784.442	0.0163248
784.520	0.0165108
784.598	0.0168230
784.676	0.0168500
784.754	0.0170564
784.832	0.0174086
784.910	0.0176081
784.988	0.0177383
785.067	0.0178327
785.145	0.0180116
785.223	0.0182623
785.301	0.0181097
785.379	0.0180730
785.457	0.0179400
785.535	0.0180676
785.613	0.0179460
785.692	0.0177332
785.770	0.0177916
785.848	0.0175205
785.926	0.0174110
786.004	0.0172583
786.082	0.0171011
786.160	0.0169993
786.238	0.0168942
786.317	0.0167790
786.395	0.0166924
786.473	0.0165488
786.551	0.0165318
786.629	0.0164621
786.707	0.0164091
786.785	0.0163063
786.863	0.0162468
786.942	0.0161762
787.020	0.0161668
787.098	0.0160755
787.176	0.0162783
787.254	0.0161768
787.332	0.0160876
787.410	0.0161941
787.488	0.0162989
787.567	0.0163936
787.645	0.0166084
787.723	0.0167230
787.801	0.0167794
787.879	0.0168854
787.957	0.0170821
788.035	0.0173056
788.113	0.0173554
788.192	0.0174417
788.270	0.0175588
788.348	0.0176178
788.426	0.0175578
788.504	0.0176723
788.582	0.0177670
788.660	0.0178667
788.738	0.0176513
788.817	0.0177220
788.895	0.0180327
788.973	0.0179333
789.051	0.0178106
789.129	0.0178016
789.207	0.0179788
789.285	0.0178562
789.363	0.0177212
789.442	0.0177861
789.520	0.0176856
789.598	0.0175532
789.676	0.0173721
789.754	0.0171217
789.832	0.0171247
789.910	0.0167835
789.988	0.0167419
790.067	0.0164907
790.145	0.0163214
790.223	0.0162264
790.301	0.0160848
790.379	0.0159566
790.457	0.0159781
790.535	0.0157750
790.613	0.0157492
790.692	0.0158302
790.770	0.0159377
790.848	0.0158052
790.926	0.0158737
791.004	0.0160668
791.082	0.0159292
791.160	0.0161828
791.238	0.0161665
791.317	0.0162589
791.395	0.0163532
791.473	0.0164899
791.551	0.0166651
791.629	0.0168053
791.707	0.0169502
791.785	0.0170623
791.863	0.0170969
791.942	0.0171691
792.020	0.0173014
792.098	0.0175085
792.176	0.0173382
792.254	0.0173950
792.332	0.0178098
792.410	0.0178027
792.488	0.0177805
792.567	0.0177885
792.645	0.0178168
792.723	0.0177419
792.801	0.0177888
792.879	0.0177982
792.957	0.0176460
793.035	0.0177290
793.113	0.0176579
793.192	0.0176590
793.270	0.0176360
793.348	0.0177164
793.426	0.0175600
793.504	0.0172948
793.582	0.0173757
793.660	0.0173705
793.738	0.0173698
793.817	0.0171133
793.895	0.0173397
793.973	0.0171833
794.051	0.0170247
794.129	0.0172446
794.207	0.0170647
794.285	0.0169839
794.363	0.0167936
794.442	0.0170179
794.520	0.0167876
794.598	0.0168660
794.676	0.0168743
794.754	0.0167939
794.832	0.0166870
794.910	0.0167102
794.988	0.0166723
795.067	0.0167638
795.145	0.0165478
795.223	0.0166740
795.301	0.0167196
795.379	0.0165465
795.457	0.0165858
795.535	0.0166755
795.613	0.0166438
795.692	0.0166676
795.770	0.0165600
795.848	0.0166112
795.926	0.0167815
796.004	0.0167319
796.082	0.0166198
796.160	0.0168371
796.238	0.0167688
796.317	0.0167593
796.395	0.0167053
796.473	0.0168372
796.551	0.0168672
796.629	0.0169409
796.707	0.0170242
796.785	0.0168497
796.863	0.0168998
796.942	0.0170920
797.020	0.0169084
797.098	0.0169096
797.176	0.0171259
797.254	0.0169903
797.332	0.0170660
797.410	0.0170847
797.488	0.0171217
797.567	0.0169556
797.645	0.0170081
797.723	0.0172150
797.801	0.0171079
797.879	0.0171959
797.957	0.0172548
798.035	0.0171259
798.113	0.0171014
798.192	0.0172816
798.270	0.0171488
798.348	0.0172400
798.426	0.0173586
798.504	0.0172530
798.582	0.0173566
798.660	0.0171555
798.738	0.0172133
798.817	0.0172248
798.895	0.0170995
798.973	0.0170232
799.051	0.0171488
799.129	0.0170902
799.207	0.0169521
799.285	0.0170441
799.363	0.0169938
799.442	0.0169579
799.520	0.0168362
799.598	0.0167821
799.676	0.0167960
799.754	0.0166911
799.832	0.0166943
799.910	0.0168054
799.988	0.0168428
800.067	0.0167910
800.145	0.0167207
800.223	0.0167449
800.301	0.0169668
800.379	0.0168823
800.457	0.0169234
800.535	0.0169171
800.613	0.0169663
800.692	0.0169952
800.770	0.0169868
800.848	0.0169830
800.926	0.0170650
801.004	0.0172188
801.082	0.0170244
801.160	0.0171119
801.238	0.0170261
801.317	0.0170943
801.395	0.0171062
801.473	0.0170184
801.551	0.0170883
801.629	0.0170061
801.707	0.0169600
801.785	0.0169268
801.863	0.0169643
801.942	0.0169302
802.020	0.0169656
802.098	0.0169426
802.176	0.0169234
802.254	0.0169372
802.332	0.0168987
802.410	0.0168062
802.488	0.0168456
802.567	0.0169852
802.645	0.0169917
802.723	0.0170471
802.801	0.0169840
802.879	0.0168648
802.957	0.0171334
803.035	0.0170633
803.113	0.0170550
803.192	0.0170763
803.270	0.0171112
803.348	0.0171043
803.426	0.0171182
803.504	0.0170377
803.582	0.0169923
803.660	0.0172569
803.738	0.0170277
803.817	0.0170542
803.895	0.0170367
803.973	0.0170609
804.051	0.0171116
804.129	0.0172369
804.207	0.0171909
804.285	0.0171461
804.363	0.0171991
804.442	0.0173057
804.520	0.0172363
804.598	0.0170750
804.676	0.0171221
804.754	0.0170994
804.832	0.0171752
804.910	0.0170211
804.988	0.0169580
805.067	0.0168307
805.145	0.0169695
805.223	0.0168331
805.301	0.0167146
805.379	0.0166228
805.457	0.0165553
805.535	0.0165925
805.613	0.0164400
805.692	0.0164439
805.770	0.0162550
805.848	0.0161932
805.926	0.0163627
806.004	0.0162556
806.082	0.0161626
806.160	0.0162441
806.238	0.0162057
806.317	0.0165052
806.395	0.0164656
806.473	0.0164988
806.551	0.0166235
806.629	0.0167767
806.707	0.0167446
806.785	0.0169546
806.863	0.0171758
806.942	0.0171729
807.020	0.0173437
807.098	0.0172437
807.176	0.0174274
807.254	0.0173344
807.332	0.0175075
807.410	0.0175129
807.488	0.0173920
807.567	0.0175399
807.645	0.0175124
807.723	0.0175090
807.801	0.0173933
807.879	0.0174968
807.957	0.0175429
808.035	0.0173674
808.113	0.0172496
808.192	0.0172426
808.270	0.0173671
808.348	0.0172968
808.426	0.0171274
808.504	0.0170291
808.582	0.0168564
808.660	0.0170681
808.738	0.0170164
808.817	0.0170729
808.895	0.0170826
808.973	0.0170359
809.051	0.0170572
809.129	0.0169849
809.207	0.0170229
809.285	0.0170820
809.363	0.0171556
809.442	0.0171945
809.520	0.0171449
809.598	0.0171481
809.676	0.0171944
809.754	0.0173333
809.832	0.0172038
809.910	0.0170853
809.988	0.0171753
810.067	0.0171781
810.145	0.0169068
810.223	0.0169443
810.301	0.0167982
810.379	0.0167338
810.457	0.0167206
810.535	0.0167265
810.613	0.0166935
810.692	0.0165619
810.770	0.0164377
810.848	0.0164703
810.926	0.0164240
811.004	0.0163755
811.082	0.0163452
811.160	0.0164349
811.238	0.0162683
811.317	0.0164011
811.395	0.0163838
811.473	0.0164264
811.551	0.0165010
811.629	0.0166570
811.707	0.0166248
811.785	0.0166186
811.863	0.0166713
811.942	0.0167516
812.020	0.0169408
812.098	0.0168771
812.176	0.0170289
812.254	0.0169776
812.332	0.0171455
812.410	0.0171793
812.488	0.0170837
812.567	0.0172055
812.645	0.0172853
812.723	0.0173461
812.801	0.0173922
812.879	0.0174657
812.957	0.0173940
813.035	0.0174133
813.113	0.0172240
813.192	0.0173412
813.270	0.0171909
813.348	0.0174372
813.426	0.0173698
813.504	0.0173780
813.582	0.0173360
813.660	0.0174528
813.738	0.0174979
813.817	0.0172662
813.895	0.0172724
813.973	0.0172763
814.051	0.0174823
814.129	0.0174411
814.207	0.0173730
814.285	0.0173023
814.363	0.0173758
814.442	0.0173315
814.520	0.0173296
814.598	0.0171449
814.676	0.0172314
814.754	0.0171850
814.832	0.0171220
814.910	0.0169972
814.988	0.0170090
815.067	0.0170036
815.145	0.0169350
815.223	0.0170051
815.301	0.0168557
815.379	0.0169943
815.457	0.0169385
815.535	0.0168994
815.613	0.0167606
815.692	0.0168105
815.770	0.0168733
815.848	0.0168444
815.926	0.0168473
816.004	0.0167911
816.082	0.0168285
816.160	0.0166801
816.238	0.0166686
816.317	0.0166624
816.395	0.0166824
816.473	0.0165643
816.551	0.0165472
816.629	0.0165549
816.707	0.0165865
816.785	0.0164742
816.863	0.0165646
816.942	0.0166453
817.020	0.0165505
817.098	0.0166558
817.176	0.0164862
817.254	0.0166406
817.332	0.0167626
817.410	0.0166977
817.488	0.0167844
817.567	0.0168392
817.645	0.0169419
817.723	0.0170897
817.801	0.0170849
817.879	0.0171638
817.957	0.0174016
818.035	0.0174426
818.113	0.0174486
818.192	0.0174789
818.270	0.0176463
818.348	0.0177027
818.426	0.0176448
818.504	0.0176501
818.582	0.0178143
818.660	0.0179342
818.738	0.0179390
818.817	0.0178057
818.895	0.0178977
818.973	0.0178303
819.051	0.0178490
819.129	0.0178398
819.207	0.0177205
819.285	0.0176952
819.363	0.0175982
819.442	0.0175549
819.520	0.0172975
819.598	0.0172845
819.676	0.0172204
819.754	0.0170818
819.832	0.0169852
819.910	0.0169106
819.988	0.0168238
820.067	0.0167282
820.145	0.0165520
820.223	0.0165376
820.301	0.0164194
820.379	0.0162590
820.457	0.0163670
820.535	0.0162347
820.613	0.0163046
820.692	0.0164124
820.770	0.0163421
820.848	0.0164275
820.926	0.0164007
821.004	0.0164159
821.082	0.0164799
821.160	0.0165592
821.238	0.0165718
821.317	0.0165540
821.395	0.0167424
821.473	0.0168581
821.551	0.0167888
821.629	0.0168038
821.707	0.0169710
821.785	0.0169691
821.863	0.0169964
821.942	0.0170119
822.020	0.0170495
822.098	0.0171125
822.176	0.0168677
822.254	0.0168506
822.332	0.0169450
822.410	0.0168573
822.488	0.0168076
822.567	0.0168787
822.645	0.0168190
822.723	0.0168521
822.801	0.0168092
822.879	0.0169009
822.957	0.0168532
823.035	0.0169572
823.113	0.0168324
823.192	0.0170503
823.270	0.0171189
823.348	0.0170592
823.426	0.0169936
823.504	0.0171479
823.582	0.0171577
823.660	0.0171811
823.738	0.0172017
823.817	0.0172350
823.895	0.0174153
823.973	0.0174802
824.051	0.0172701
824.129	0.0174676
824.207	0.0177131
824.285	0.0174621
824.363	0.0175677
824.442	0.0177106
824.520	0.0176462
824.598	0.0175841
824.676	0.0175817
824.754	0.0174637
824.832	0.0174804
824.910	0.0174083
824.988	0.0174526
825.067	0.0174184
825.145	0.0172361
825.223	0.0172012
825.301	0.0172585
825.379	0.0170922
825.457	0.0171028
825.535	0.0170788
825.613	0.0169588
825.692	0.0168415
825.770	0.0168130
825.848	0.0168575
825.926	0.0168262
826.004	0.0167712
826.082	0.0166129
826.160	0.0165863
826.238	0.0165351
826.317	0.0165352
826.395	0.0165234
826.473	0.0165520
826.551	0.0164898
826.629	0.0165681
826.707	0.0164237
826.785	0.0165106
826.863	0.0164917
826.942	0.0164919
827.020	0.0167055
827.098	0.0165939
827.176	0.0166724
827.254	0.0167272
827.332	0.0166648
827.410	0.0169132
827.488	0.0168449
827.567	0.0168866
827.645	0.0167810
827.723	0.0168462
827.801	0.0169430
827.879	0.0167563
827.957	0.0169107
828.035	0.0169984
828.113	0.0168586
828.192	0.0168806
828.270	0.0169358
828.348	0.0169715
828.426	0.0169893
828.504	0.0167377
828.582	0.0168434
828.660	0.0168591
828.738	0.0170146
828.817	0.0170152
828.895	0.0168707
828.973	0.0170538
829.051	0.0169030
829.129	0.0168739
829.207	0.0169739
829.285	0.0170260
829.363	0.0170045
829.442	0.0170521
829.520	0.0170593
829.598	0.0170760
829.676	0.0170592
829.754	0.0170908
829.832	0.0171202
829.910	0.0172363
829.988	0.0171243
830.067	0.0172028
830.145	0.0172764
830.223	0.0172774
830.301	0.0174203
830.379	0.0172464
830.457	0.0175897
830.535	0.0173503
830.613	0.0173181
830.692	0.0174027
830.770	0.0175092
830.848	0.0175031
830.926	0.0173374
831.004	0.0173354
831.082	0.0173785
831.160	0.0173846
831.238	0.0172440
831.317	0.0172274
831.395	0.0171575
831.473	0.0171363
831.551	0.0170911
831.629	0.0170728
831.707	0.0170790
831.785	0.0172221
831.863	0.0171140
831.942	0.0170413
832.020	0.0170209
832.098	0.0169531
832.176	0.0169707
832.254	0.0169760
832.332	0.0169743
832.410	0.0169456
832.488	0.0170267
832.567	0.0169166
832.645	0.0167540
832.723	0.0167030
832.801	0.0168491
832.879	0.0169832
832.957	0.0169656
833.035	0.0168647
833.113	0.0168488
833.192	0.0167677
833.270	0.0168049
833.348	0.0167290
833.426	0.0166808
833.504	0.0167381
833.582	0.0167964
833.660	0.0168236
833.738	0.0167986
833.817	0.0167200
833.895	0.0168014
833.973	0.0166853
834.051	0.0168889
834.129	0.0168134
834.207	0.0168143
834.285	0.0169916
834.363	0.0170042
834.442	0.0167629
834.520	0.0169642
834.598	0.0169912
834.676	0.0170992
834.754	0.0169424
834.832	0.0170623
834.910	0.0171921
834.988	0.0171043
835.067	0.0170498
835.145	0.0170900
835.223	0.0170603
835.301	0.0172046
835.379	0.0172071
835.457	0.0171857
835.535	0.0171870
835.613	0.0172755
835.692	0.0172180
835.770	0.0171210
835.848	0.0172072
835.926	0.0172186
836.004	0.0170827
836.082	0.0170975
836.160	0.0170939
836.238	0.0170963
836.317	0.0168994
836.395	0.0170073
836.473	0.0169535
836.551	0.0169497
836.629	0.0168469
836.707	0.0168153
836.785	0.0167885
836.863	0.0168227
836.942	0.0167441
837.020	0.0168584
837.098	0.0167200
837.176	0.0168945
837.254	0.0168993
837.332	0.0169708
837.410	0.0168331
837.488	0.0169086
837.567	0.0170980
837.645	0.0171951
837.723	0.0172993
837.801	0.0173227
837.879	0.0173042
837.957	0.0174136
838.035	0.0173468
838.113	0.0173672
838.192	0.0173130
838.270	0.0173753
838.348	0.0173318
838.426	0.0174438
838.504	0.0173901
838.582	0.0173772
838.660	0.0171432
838.738	0.0172907
838.817	0.0173681
838.895	0.0172057
838.973	0.0172549
839.051	0.0171200
839.129	0.0172092
839.207	0.0171630
839.285	0.0172595
839.363	0.0170436
839.442	0.0170235
839.520	0.0171563
839.598	0.0171608
839.676	0.0170486
839.754	0.0168789
839.832	0.0169684
839.910	0.0170723
839.988	0.0170043
840.067	0.0170438
840.145	0.0168283
840.223	0.0168689
840.301	0.0168366
840.379	0.0166828
840.457	0.0167251
840.535	0.0167239
840.613	0.0166686
840.692	0.0165873
840.770	0.0166843
840.848	0.0165415
840.926	0.0165169
841.004	0.0165929
841.082	0.0163576
841.160	0.0166261
841.238	0.0164687
841.317	0.0165848
841.395	0.0166442
841.473	0.0167434
841.551	0.0167248
841.629	0.0169485
841.707	0.0167657
841.785	0.0168772
841.863	0.0168802
841.942	0.0169136
842.020	0.0169636
842.098	0.0170695
842.176	0.0170867
842.254	0.0170309
842.332	0.0170879
842.410	0.0170486
842.488	0.0170340
842.567	0.0171792
842.645	0.0171980
842.723	0.0172805
842.801	0.0170705
842.879	0.0170047
842.957	0.0171866
843.035	0.0172195
843.113	0.0174252
843.192	0.0173705
843.270	0.0174464
843.348	0.0174548
843.426	0.0176006
843.504	0.0176671
843.582	0.0176300
843.660	0.0176663
843.738	0.0176324
843.817	0.0175461
843.895	0.0174657
843.973	0.0174974
844.051	0.0174055
844.129	0.0174070
844.207	0.0174106
844.285	0.0173537
844.363	0.0172131
844.442	0.0173195
844.520	0.0171907
844.598	0.0171451
844.676	0.0171769
844.754	0.0170492
844.832	0.0170195
844.910	0.0170715
844.988	0.0170162
845.067	0.0169840
845.145	0.0170181
845.223	0.0170181
845.301	0.0171201
845.379	0.0170837
845.457	0.0168604
845.535	0.0169366
845.613	0.0169804
845.692	0.0169137
845.770	0.0168977
845.848	0.0169155
845.926	0.0168232
846.004	0.0167419
846.082	0.0167717
846.160	0.0168225
846.238	0.0167986
846.317	0.0167031
846.395	0.0169064
846.473	0.0167627
846.551	0.0165693
846.629	0.0166037
846.707	0.0166670
846.785	0.0167117
846.863	0.0167987
846.942	0.0167677
847.020	0.0166785
847.098	0.0166572
847.176	0.0166668
847.254	0.0167330
847.332	0.0168757
847.410	0.0168732
847.488	0.0167265
847.567	0.0167531
847.645	0.0169864
847.723	0.0169738
847.801	0.0170647
847.879	0.0169804
847.957	0.0169745
848.035	0.0168835
848.113	0.0171988
848.192	0.0170563
848.270	0.0170773
848.348	0.0171621
848.426	0.0169965
848.504	0.0170716
848.582	0.0172818
848.660	0.0170366
848.738	0.0171362
848.817	0.0172601
848.895	0.0171756
848.973	0.0170214
849.051	0.0172599
849.129	0.0173834
849.207	0.0173849
849.285	0.0174980
849.363	0.0175596
849.442	0.0174960
849.520	0.0174352
849.598	0.0173908
849.676	0.0175639
849.754	0.0175751
849.832	0.0174796
849.910	0.0175660
849.988	0.0175018
850.067	0.0174814
850.145	0.0174438
850.223	0.0172379
850.301	0.0173404
850.379	0.0173412
850.457	0.0172509
850.535	0.0171474
850.613	0.0170878
850.692	0.0169708
850.770	0.0169785
850.848	0.0169398
850.926	0.0169481
851.004	0.0168570
851.082	0.0169352
851.160	0.0167535
851.238	0.0166229
851.317	0.0168365
851.395	0.0165673
851.473	0.0164702
851.551	0.0165819
851.629	0.0164864
851.707	0.0165791
851.785	0.0165924
851.863	0.0166206
851.942	0.0166180
852.020	0.0167865
852.098	0.0165753
852.176	0.0167339
852.254	0.0167828
852.332	0.0167586
852.410	0.0169891
852.488	0.0169720
852.567	0.0169536
852.645	0.0170587
852.723	0.0169985
852.801	0.0169676
852.879	0.0169540
852.957	0.0171070
853.035	0.0171280
853.113	0.0170532
853.192	0.0170907
853.270	0.0170410
853.348	0.0169541
853.426	0.0169912
853.504	0.0170157
853.582	0.0170110
853.660	0.0169593
853.738	0.0168311
853.817	0.0170277
853.895	0.0169509
853.973	0.0169254
854.051	0.0168847
854.129	0.0168549
854.207	0.0169385
854.285	0.0168585
854.363	0.0168910
854.442	0.0169180
854.520	0.0170044
854.598	0.0170679
854.676	0.0170002
854.754	0.0169962
854.832	0.0171400
854.910	0.0173080
854.988	0.0173095
855.067	0.0172296
855.145	0.0174522
855.223	0.0172932
855.301	0.0173470
855.379	0.0174454
855.457	0.0172281
855.535	0.0173093
855.613	0.0171356
855.692	0.0171690
855.770	0.0171708
855.848	0.0172868
855.926	0.0172641
856.004	0.0170783
856.082	0.0171130
856.160	0.0170152
856.238	0.0169705
856.317	0.0170592
856.395	0.0171251
856.473	0.0169925
856.551	0.0170509
856.629	0.0171260
856.707	0.0170972
856.785	0.0170290
856.863	0.0170880
856.942	0.0170066
857.020	0.0170808
857.098	0.0171114
857.176	0.0171289
857.254	0.0171538
857.332	0.0171291
857.410	0.0171955
857.488	0.0170619
857.567	0.0170795
857.645	0.0170709
857.723	0.0169882
857.801	0.0170129
857.879	0.0171479
857.957	0.0171207
858.035	0.0170145
858.113	0.0170602
858.192	0.0170732
858.270	0.0170387
858.348	0.0169695
858.426	0.0169881
858.504	0.0168023
858.582	0.0168429
858.660	0.0168227
858.738	0.0168153
858.817	0.0167388
858.895	0.0168874
858.973	0.0167915
859.051	0.0166785
859.129	0.0167836
859.207	0.0169276
859.285	0.0167422
859.363	0.0167088
859.442	0.0168283
859.520	0.0169323
859.598	0.0167828
859.676	0.0169129
859.754	0.0168282
859.832	0.0169368
859.910	0.0169232
859.988	0.0169862
860.067	0.0168225
860.145	0.0170993
860.223	0.0169261
860.301	0.0168955
860.379	0.0169752
860.457	0.0169847
860.535	0.0169610
860.613	0.0168970
860.692	0.0168435
860.770	0.0169829
860.848	0.0169617
860.926	0.0169679
861.004	0.0168775
861.082	0.0169613
861.160	0.0167938
861.238	0.0168656
861.317	0.0170206
861.395	0.0170108
861.473	0.0170652
861.551	0.0169892
861.629	0.0171593
861.707	0.0171445
861.785	0.0173096
861.863	0.0173021
861.942	0.0172453
862.020	0.0173008
862.098	0.0172809
862.176	0.0171902
862.254	0.0171600
862.332	0.0174403
862.410	0.0173234
862.488	0.0172897
862.567	0.0172791
862.645	0.0171348
862.723	0.0172335
862.801	0.0171877
862.879	0.0172203
862.957	0.0171121
863.035	0.0170146
863.113	0.0170717
863.192	0.0170807
863.270	0.0170741
863.348	0.0171045
863.426	0.0171262
863.504	0.0170586
863.582	0.0170161
863.660	0.0169426
863.738	0.0168848
863.817	0.0170585
863.895	0.0170145
863.973	0.0167947
864.051	0.0170554
864.129	0.0170198
864.207	0.0168869
864.285	0.0168883
864.363	0.0169018
864.442	0.0168860
864.520	0.0170356
864.598	0.0170137
864.676	0.0171330
864.754	0.0169754
864.832	0.0170810
864.910	0.0169693
864.988	0.0170872
865.067	0.0169749
865.145	0.0169741
865.223	0.0170633
865.301	0.0171329
865.379	0.0170658
865.457	0.0170169
865.535	0.0169042
865.613	0.0170480
865.692	0.0169421
865.770	0.0169922
865.848	0.0169310
865.926	0.0167623
866.004	0.0169192
866.082	0.0169556
866.160	0.0168114
866.238	0.0167149
866.317	0.0168803
866.395	0.0169531
866.473	0.0169357
866.551	0.0167546
866.629	0.0167717
866.707	0.0168081
866.785	0.0166685
866.863	0.0168443
866.942	0.0169313
867.020	0.0168959
867.098	0.0169872
867.176	0.0169786
867.254	0.0169249
867.332	0.0169917
867.410	0.0168826
867.488	0.0170764
867.567	0.0170535
867.645	0.0170917
867.723	0.0171278
867.801	0.0171910
867.879	0.0171983
867.957	0.0171648
868.035	0.0170784
868.113	0.0172912
868.192	0.0173257
868.270	0.0172310
868.348	0.0172435
868.426	0.0171348
868.504	0.0171460
868.582	0.0171233
868.660	0.0172187
868.738	0.0172066
868.817	0.0171177
868.895	0.0171030
868.973	0.0171438
869.051	0.0171023
869.129	0.0171117
869.207	0.0170547
869.285	0.0172853
869.363	0.0171461
869.442	0.0170950
869.520	0.0170084
869.598	0.0171113
869.676	0.0170155
869.754	0.0168881
869.832	0.0169467
869.910	0.0169745
869.988	0.0170318
870.067	0.0169656
870.145	0.0170233
870.223	0.0169134
870.301	0.0168236
870.379	0.0169077
870.457	0.0169658
870.535	0.0168534
870.613	0.0169025
870.692	0.0168958
870.770	0.0170172
870.848	0.0169244
870.926	0.0168684
871.004	0.0170724
871.082	0.0170680
871.160	0.0169385
871.238	0.0169940
871.317	0.0169481
871.395	0.0169539
871.473	0.0170026
871.551	0.0171186
871.629	0.0169913
871.707	0.0169388
871.785	0.0169731
871.863	0.0168792
871.942	0.0170258
872.020	0.0169939
872.098	0.0170660
872.176	0.0169825
872.254	0.0169230
872.332	0.0168413
872.410	0.0170190
872.488	0.0168696
872.567	0.0170082
872.645	0.0170089
872.723	0.0168004
872.801	0.0169503
872.879	0.0169736
872.957	0.0169624
873.035	0.0169175
873.113	0.0168789
873.192	0.0168674
873.270	0.0169583
873.348	0.0169221
873.426	0.0169847
873.504	0.0169515
873.582	0.0168623
873.660	0.0168417
873.738	0.0168658
873.817	0.0171142
873.895	0.0168619
873.973	0.0167393
874.051	0.0168826
874.129	0.0166905
874.207	0.0166878
874.285	0.0167295
874.363	0.0167216
874.442	0.0168358
874.520	0.0167289
874.598	0.0166961
874.676	0.0168177
874.754	0.0168825
874.832	0.0168177
874.910	0.0169684
874.988	0.0170788
875.067	0.0172032
875.145	0.0171973
875.223	0.0171893
875.301	0.0173489
875.379	0.0174816
875.457	0.0175172
875.535	0.0174968
875.613	0.0175565
875.692	0.0174580
875.770	0.0173289
875.848	0.0171989
875.926	0.0172078
876.004	0.0170876
876.082	0.0168922
876.160	0.0168723
876.238	0.0168304
876.317	0.0167766
876.395	0.0165062
876.473	0.0165786
876.551	0.0165347
876.629	0.0164372
876.707	0.0166159
876.785	0.0165649
876.863	0.0164597
876.942	0.0163911
877.020	0.0165222
877.098	0.0166495
877.176	0.0166450
877.254	0.0166752
877.332	0.0170081
877.410	0.0172535
877.488	0.0173046
877.567	0.0174240
877.645	0.0176283
877.723	0.0179687
877.801	0.0179285
877.879	0.0180807
877.957	0.0182015
878.035	0.0181590
878.113	0.0180241
878.192	0.0178432
878.270	0.0176663
878.348	0.0174223
878.426	0.0172825
878.504	0.0170591
878.582	0.0167050
878.660	0.0163879
878.738	0.0160638
878.817	0.0159140
878.895	0.0157262
878.973	0.0158353
879.051	0.0157995
879.129	0.0157825
879.207	0.0158356
879.285	0.0159850
879.363	0.0160751
879.442	0.0162329
879.520	0.0165987
879.598	0.0166031
879.676	0.0168762
879.754	0.0172513
879.832	0.0174780
879.910	0.0175330
879.988	0.0177126
880.067	0.0179585
880.145	0.0180926
880.223	0.0183028
880.301	0.0183338
880.379	0.0184090
880.457	0.0184444
880.535	0.0184455
880.613	0.0183842
880.692	0.0182734
880.770	0.0183015
880.848	0.0180541
880.926	0.0178850
881.004	0.0174994
881.082	0.0172791
881.160	0.0169320
881.238	0.0165562
881.317	0.0163902
881.395	0.0160018
881.473	0.0157761
881.551	0.0155380
881.629	0.0153898
881.707	0.0153460
881.785	0.0153538
881.863	0.0152826
881.942	0.0153554
882.020	0.0155405
882.098	0.0156454
882.176	0.0157747
882.254	0.0160621
882.332	0.0162049
882.410	0.0164075
882.488	0.0167281
882.567	0.0169199
882.645	0.0171542
882.723	0.0173752
882.801	0.0175352
882.879	0.0177196
882.957	0.0179462
883.035	0.0182702
883.113	0.0182057
883.192	0.0182211
883.270	0.0184051
883.348	0.0185267
883.426	0.0184130
883.504	0.0182675
883.582	0.0182413
883.660	0.0179338
883.738	0.0178592
883.817	0.0174441
883.895	0.0172751
883.973	0.0170778
884.051	0.0167464
884.129	0.0165257
884.207	0.0163492
884.285	0.0162617
884.363	0.0161399
884.442	0.0160416
884.520	0.0160496
884.598	0.0162051
884.676	0.0161493
884.754	0.0163101
884.832	0.0163227
884.910	0.0165894
884.988	0.0164746
885.067	0.0166483
885.145	0.0168222
885.223	0.0168703
885.301	0.0168907
885.379	0.0169668
885.457	0.0170148
885.535	0.0171458
885.613	0.0171378
885.692	0.0171079
885.770	0.0171674
885.848	0.0172285
885.926	0.0173038
886.004	0.0173950
886.082	0.0174258
886.160	0.0173400
886.238	0.0171938
886.317	0.0173956
886.395	0.0171001
886.473	0.0171021
886.551	0.0170437
886.629	0.0167405
886.707	0.0169254
886.785	0.0167042
886.863	0.0166624
886.942	0.0166351
887.020	0.0165727
887.098	0.0166698
887.176	0.0166716
887.254	0.0167907
887.332	0.0166377
887.410	0.0167304
887.488	0.0168665
887.567	0.0168129
887.645	0.0168543
887.723	0.0171750
887.801	0.0169115
887.879	0.0169466
887.957	0.0169305
888.035	0.0171819
888.113	0.0171030
888.192	0.0170075
888.270	0.0170617
888.348	0.0170061
888.426	0.0171857
888.504	0.0172183
888.582	0.0172380
888.660	0.0172569
888.738	0.0172349
888.817	0.0174429
888.895	0.0173199
888.973	0.0173228
889.051	0.0173127
889.129	0.0172005
889.207	0.0172913
889.285	0.0169762
889.363	0.0170074
889.442	0.0170553
889.520	0.0167984
889.598	0.0168033
889.676	0.0164958
889.754	0.0164790
889.832	0.0163496
889.910	0.0163750
889.988	0.0164368
890.067	0.0165482
890.145	0.0163798
890.223	0.0164777
890.301	0.0165791
890.379	0.0167325
890.457	0.0168668
890.535	0.0169434
890.613	0.0171099
890.692	0.0172124
890.770	0.0171465
890.848	0.0172647
890.926	0.0172786
891.004	0.0172097
891.082	0.0172218
891.160	0.0174238
891.238	0.0174448
891.317	0.0173194
891.395	0.0172920
891.473	0.0172877
891.551	0.0172682
891.629	0.0171628
891.707	0.0172642
891.785	0.0171072
891.863	0.0170916
891.942	0.0170396
892.020	0.0170716
892.098	0.0169506
892.176	0.0169075
892.254	0.0168977
892.332	0.0168817
892.410	0.0169865
892.488	0.0169467
892.567	0.0167919
892.645	0.0167912
892.723	0.0169467
892.801	0.0168402
892.879	0.0167964
892.957	0.0170821
893.035	0.0171623
893.113	0.0170872
893.192	0.0170023
893.270	0.0171262
893.348	0.0171493
893.426	0.0172217
893.504	0.0171780
893.582	0.0170587
893.660	0.0171146
893.738	0.0171928
893.817	0.0170665
893.895	0.0169612
893.973	0.0169779
894.051	0.0169717
894.129	0.0169431
894.207	0.0170576
894.285	0.0169362
894.363	0.0169240
894.442	0.0168212
894.520	0.0169315
894.598	0.0169962
894.676	0.0168389
894.754	0.0169542
894.832	0.0168723
894.910	0.0168506
894.988	0.0170319
895.067	0.0169157
895.145	0.0169997
895.223	0.0170815
895.301	0.0170247
895.379	0.0172159
895.457	0.0170644
895.535	0.0171544
895.613	0.0171353
895.692	0.0172428
895.770	0.0171915
895.848	0.0172855
895.926	0.0172369
896.004	0.0173492
896.082	0.0172074
896.160	0.0171963
896.238	0.0170149
896.317	0.0169908
896.395	0.0170621
896.473	0.0170027
896.551	0.0169244
896.629	0.0168771
896.707	0.0169682
896.785	0.0169782
896.863	0.0169974
896.942	0.0169942
897.020	0.0169337
897.098	0.0167511
897.176	0.0168138
897.254	0.0169377
897.332	0.0168465
897.410	0.0168200
897.488	0.0167868
897.567	0.0167641
897.645	0.0167724
897.723	0.0167343
897.801	0.0166912
897.879	0.0167186
897.957	0.0167349
898.035	0.0167597
898.113	0.0169466
898.192	0.0169455
898.270	0.0171046
898.348	0.0170468
898.426	0.0171477
898.504	0.0172919
898.582	0.0172645
898.660	0.0173274
898.738	0.0174120
898.817	0.0174126
898.895	0.0173492
898.973	0.0174619
899.051	0.0172394
899.129	0.0173207
899.207	0.0171747
899.285	0.0171033
899.363	0.0170274
899.442	0.0169899
899.520	0.0169424
899.598	0.0167743
899.676	0.0168943
899.754	0.0168070
899.832	0.0166750
899.910	0.0167143
899.988	0.0167159
900.067	0.0165207
900.145	0.0167288
900.223	0.0167677
900.301	0.0168259
900.379	0.0167471
900.457	0.0168826
900.535	0.0169450
900.613	0.0168581
900.692	0.0168773
900.770	0.0170044
900.848	0.0169628
900.926	0.0171239
901.004	0.0172738
901.082	0.0171150
901.160	0.0172029
901.238	0.0172596
901.317	0.0173129
901.395	0.0173544
901.473	0.0173709
901.551	0.0174173
901.629	0.0173428
901.707	0.0173566
901.785	0.0173933
901.863	0.0173258
901.942	0.0173775
902.020	0.0173149
902.098	0.0171976
902.176	0.0171964
902.254	0.0171868
902.332	0.0171179
902.410	0.0170109
902.488	0.0168941
902.567	0.0169886
902.645	0.0168172
902.723	0.0168899
902.801	0.0168328
902.879	0.0168521
902.957	0.0167785
903.035	0.0168571
903.113	0.0168260
903.192	0.0168257
903.270	0.0167959
903.348	0.0168228
903.426	0.0168616
903.504	0.0168340
903.582	0.0168483
903.660	0.0168529
903.738	0.0167773
903.817	0.0168124
903.895	0.0169946
903.973	0.0170202
904.051	0.0169490
904.129	0.0169884
904.207	0.0170322
904.285	0.0170964
904.363	0.0170803
904.442	0.0171322
904.520	0.0171250
904.598	0.0172276
904.676	0.0170385
904.754	0.0171227
904.832	0.0172190
904.910	0.0172176
904.988	0.0172991
905.067	0.0172562
905.145	0.0170638
905.223	0.0171104
905.301	0.0172124
905.379	0.0170049
905.457	0.0172410
905.535	0.0170406
905.613	0.0169973
905.692	0.0171064
905.770	0.0170745
905.848	0.0169455
905.926	0.0171067
906.004	0.0169504
906.082	0.0170525
906.160	0.0169394
906.238	0.0170861
906.317	0.0171958
906.395	0.0172122
906.473	0.0170942
906.551	0.0171604
906.629	0.0171169
906.707	0.0170833
906.785	0.0170603
906.863	0.0171098
906.942	0.0169101
907.020	0.0168871
907.098	0.0168230
907.176	0.0170422
907.254	0.0169785
907.332	0.0169718
907.410	0.0170299
907.488	0.0171043
907.567	0.0169624
907.645	0.0170234
907.723	0.0169951
907.801	0.0169546
907.879	0.0169894
907.957	0.0167912
908.035	0.0170714
908.113	0.0169166
908.192	0.0169993
908.270	0.0169902
908.348	0.0168726
908.426	0.0167999
908.504	0.0170009
908.582	0.0170567
908.660	0.0169614
908.738	0.0169650
908.817	0.0170592
908.895	0.0171281
908.973	0.0171306
909.051	0.0170338
909.129	0.0171973
909.207	0.0171342
909.285	0.0172748
909.363	0.0172650
909.442	0.0173867
909.520	0.0173654
909.598	0.0172304
909.676	0.0172880
909.754	0.0173531
909.832	0.0172327
909.910	0.0173050
909.988	0.0171508
910.067	0.0171780
910.145	0.0171914
910.223	0.0170786
910.301	0.0170753
910.379	0.0169683
910.457	0.0169640
910.535	0.0168784
910.613	0.0170474
910.692	0.0168285
910.770	0.0169975
910.848	0.0169118
910.926	0.0169797
911.004	0.0169878
911.082	0.0170250
911.160	0.0170166
911.238	0.0170090
911.317	0.0170164
911.395	0.0170384
911.473	0.0170063
911.551	0.0169559
911.629	0.0169560
911.707	0.0168729
911.785	0.0169696
911.863	0.0170209
911.942	0.0168452
912.020	0.0169798
912.098	0.0168975
912.176	0.0169263
912.254	0.0169236
912.332	0.0171516
912.410	0.0170792
912.488	0.0170013
912.567	0.0169066
912.645	0.0169131
912.723	0.0169656
912.801	0.0172359
912.879	0.0171185
912.957	0.0173383
913.035	0.0172532
913.113	0.0171984
913.192	0.0172576
913.270	0.0172416
913.348	0.0173639
913.426	0.0173473
913.504	0.0171587
913.582	0.0170822
913.660	0.0171876
913.738	0.0170370
913.817	0.0170317
913.895	0.0169975
913.973	0.0169182
914.051	0.0167970
914.129	0.0167977
914.207	0.0167546
914.285	0.0167622
914.363	0.0167490
914.442	0.0167743
914.520	0.0167625
914.598	0.0166692
914.676	0.0168147
914.754	0.0168179
914.832	0.0169347
914.910	0.0168565
914.988	0.0170245
915.067	0.0170954
915.145	0.0169304
915.223	0.0170207
915.301	0.0172092
915.379	0.0170564
915.457	0.0171681
915.535	0.0173093
915.613	0.0172340
915.692	0.0172088
915.770	0.0170262
915.848	0.0172427
915.926	0.0172888
916.004	0.0172289
916.082	0.0171719
916.160	0.0172455
916.238	0.0172445
916.317	0.0173550
916.395	0.0172106
916.473	0.0169037
916.551	0.0171255
916.629	0.0169696
916.707	0.0168567
916.785	0.0168864
916.863	0.0170964
916.942	0.0168298
917.020	0.0169753
917.098	0.0169826
917.176	0.0169678
917.254	0.0168533
917.332	0.0168420
917.410	0.0168966
917.488	0.0168592
917.567	0.0169162
917.645	0.0169614
917.723	0.0168896
917.801	0.0169785
917.879	0.0169151
917.957	0.0170036
918.035	0.0169619
918.113	0.0170747
918.192	0.0169523
918.270	0.0171318
918.348	0.0169687
918.426	0.0170670
918.504	0.0171394
918.582	0.0171423
918.660	0.0172335
918.738	0.0170985
918.817	0.0173302
918.895	0.0172908
918.973	0.0172885
919.051	0.0173057
919.129	0.0172728
919.207	0.0173404
919.285	0.0172160
919.363	0.0172437
919.442	0.0170949
919.520	0.0172342
919.598	0.0170824
919.676	0.0170290
919.754	0.0170920
919.832	0.0171008
919.910	0.0168260
