05/24/2022	20:09:53	Ver.	4.1	UNKNOWN
Optical Delay	599.988409	Delta X		0.078125	Sweeps	1	Scan Rate	0/0
Coordinates	Axis 1	NaN	Axis 2	NaN	Axis 3	NaN	Axis 4	NaN	Axis 5	NaN	Axis 6	0.000000
TX Power	0.000000	RX Power	0.000000

599.988	0.0174918
600.067	0.0175131
600.145	0.0173608
600.223	0.0173611
600.301	0.0175204
600.379	0.0175167
600.457	0.0174811
600.535	0.0176099
600.613	0.0173810
600.692	0.0174400
600.770	0.0174364
600.848	0.0174621
600.926	0.0174335
601.004	0.0175724
601.082	0.0174464
601.160	0.0174899
601.238	0.0174081
601.317	0.0174518
601.395	0.0174902
601.473	0.0174531
601.551	0.0174158
601.629	0.0174928
601.707	0.0175290
601.785	0.0173138
601.863	0.0174157
601.942	0.0175006
602.020	0.0174710
602.098	0.0175584
602.176	0.0175806
602.254	0.0174535
602.332	0.0174812
602.410	0.0175519
602.488	0.0175105
602.567	0.0173981
602.645	0.0175404
602.723	0.0173656
602.801	0.0174399
602.879	0.0174009
602.957	0.0174937
603.035	0.0175802
603.113	0.0174277
603.192	0.0175786
603.270	0.0175268
603.348	0.0175142
603.426	0.0175153
603.504	0.0174596
603.582	0.0174550
603.660	0.0175760
603.738	0.0175105
603.817	0.0175281
603.895	0.0175739
603.973	0.0174956
604.051	0.0175742
604.129	0.0174998
604.207	0.0174134
604.285	0.0175352
604.363	0.0174789
604.442	0.0175621
604.520	0.0174323
604.598	0.0173325
604.676	0.0173627
604.754	0.0173010
604.832	0.0174450
604.910	0.0174474
604.988	0.0174784
605.067	0.0175585
605.145	0.0173508
605.223	0.0174141
605.301	0.0174380
605.379	0.0174787
605.457	0.0174097
605.535	0.0174372
605.613	0.0174128
605.692	0.0174176
605.770	0.0173875
605.848	0.0176582
605.926	0.0173853
606.004	0.0174854
606.082	0.0174864
606.160	0.0174831
606.238	0.0173711
606.317	0.0175314
606.395	0.0175689
606.473	0.0175459
606.551	0.0175330
606.629	0.0174182
606.707	0.0175093
606.785	0.0175295
606.863	0.0176678
606.942	0.0173730
607.020	0.0175401
607.098	0.0173785
607.176	0.0174474
607.254	0.0175227
607.332	0.0174717
607.410	0.0175979
607.488	0.0174140
607.567	0.0173766
607.645	0.0173490
607.723	0.0175562
607.801	0.0174771
607.879	0.0173007
607.957	0.0174721
608.035	0.0174856
608.113	0.0174326
608.192	0.0175650
608.270	0.0174533
608.348	0.0173253
608.426	0.0174529
608.504	0.0175353
608.582	0.0174270
608.660	0.0175220
608.738	0.0175028
608.817	0.0174489
608.895	0.0175522
608.973	0.0175617
609.051	0.0175257
609.129	0.0174734
609.207	0.0175325
609.285	0.0175828
609.363	0.0174832
609.442	0.0174637
609.520	0.0175454
609.598	0.0177016
609.676	0.0176218
609.754	0.0175264
609.832	0.0174348
609.910	0.0174792
609.988	0.0173970
610.067	0.0174924
610.145	0.0174432
610.223	0.0173547
610.301	0.0172987
610.379	0.0173869
610.457	0.0174314
610.535	0.0174173
610.613	0.0173132
610.692	0.0174182
610.770	0.0172541
610.848	0.0172966
610.926	0.0173582
611.004	0.0174742
611.082	0.0174306
611.160	0.0173178
611.238	0.0175320
611.317	0.0174547
611.395	0.0175720
611.473	0.0175375
611.551	0.0172610
611.629	0.0174559
611.707	0.0176145
611.785	0.0177150
611.863	0.0175225
611.942	0.0175198
612.020	0.0177018
612.098	0.0175298
612.176	0.0175953
612.254	0.0175953
612.332	0.0176173
612.410	0.0176894
612.488	0.0175636
612.567	0.0176159
612.645	0.0174943
612.723	0.0174345
612.801	0.0174397
612.879	0.0174997
612.957	0.0173428
613.035	0.0173690
613.113	0.0175742
613.192	0.0176036
613.270	0.0173938
613.348	0.0175108
613.426	0.0173840
613.504	0.0173782
613.582	0.0175896
613.660	0.0174117
613.738	0.0173975
613.817	0.0174796
613.895	0.0173842
613.973	0.0174385
614.051	0.0173943
614.129	0.0174154
614.207	0.0174352
614.285	0.0174459
614.363	0.0173658
614.442	0.0173766
614.520	0.0175479
614.598	0.0174348
614.676	0.0173677
614.754	0.0175634
614.832	0.0175829
614.910	0.0173743
614.988	0.0173994
615.067	0.0175127
615.145	0.0174818
615.223	0.0174473
615.301	0.0174999
615.379	0.0175636
615.457	0.0174390
615.535	0.0175224
615.613	0.0174607
615.692	0.0175934
615.770	0.0175556
615.848	0.0174518
615.926	0.0174241
616.004	0.0174712
616.082	0.0174346
616.160	0.0175099
616.238	0.0175331
616.317	0.0174991
616.395	0.0175133
616.473	0.0174268
616.551	0.0173800
616.629	0.0174179
616.707	0.0174786
616.785	0.0174088
616.863	0.0175227
616.942	0.0175178
617.020	0.0174641
617.098	0.0174806
617.176	0.0175510
617.254	0.0174581
617.332	0.0175508
617.410	0.0175113
617.488	0.0174133
617.567	0.0175136
617.645	0.0173875
617.723	0.0174889
617.801	0.0175048
617.879	0.0175437
617.957	0.0175352
618.035	0.0174818
618.113	0.0175321
618.192	0.0175102
618.270	0.0174843
618.348	0.0175481
618.426	0.0175087
618.504	0.0176397
618.582	0.0174433
618.660	0.0174541
618.738	0.0175793
618.817	0.0174516
618.895	0.0174117
618.973	0.0174761
619.051	0.0174490
619.129	0.0174535
619.207	0.0174593
619.285	0.0175332
619.363	0.0174846
619.442	0.0172733
619.520	0.0175278
619.598	0.0175409
619.676	0.0174885
619.754	0.0174139
619.832	0.0174806
619.910	0.0175765
619.988	0.0175544
620.067	0.0175340
620.145	0.0175497
620.223	0.0174841
620.301	0.0174606
620.379	0.0174078
620.457	0.0176054
620.535	0.0175068
620.613	0.0175549
620.692	0.0176439
620.770	0.0174358
620.848	0.0173402
620.926	0.0175012
621.004	0.0176424
621.082	0.0175726
621.160	0.0175681
621.238	0.0175170
621.317	0.0176128
621.395	0.0174229
621.473	0.0174330
621.551	0.0175678
621.629	0.0175006
621.707	0.0174373
621.785	0.0174039
621.863	0.0174718
621.942	0.0176407
622.020	0.0174866
622.098	0.0175505
622.176	0.0175191
622.254	0.0174300
622.332	0.0174992
622.410	0.0175866
622.488	0.0174612
622.567	0.0175237
622.645	0.0174453
622.723	0.0175961
622.801	0.0174276
622.879	0.0175710
622.957	0.0176930
623.035	0.0174683
623.113	0.0173830
623.192	0.0176398
623.270	0.0175099
623.348	0.0175761
623.426	0.0175210
623.504	0.0174173
623.582	0.0175523
623.660	0.0174261
623.738	0.0174403
623.817	0.0175301
623.895	0.0174417
623.973	0.0175957
624.051	0.0174735
624.129	0.0175208
624.207	0.0174180
624.285	0.0174784
624.363	0.0176154
624.442	0.0174593
624.520	0.0174442
624.598	0.0174731
624.676	0.0174544
624.754	0.0175596
624.832	0.0174810
624.910	0.0175276
624.988	0.0175479
625.067	0.0174805
625.145	0.0176865
625.223	0.0176073
625.301	0.0175618
625.379	0.0175176
625.457	0.0174867
625.535	0.0175247
625.613	0.0175637
625.692	0.0176089
625.770	0.0176248
625.848	0.0175626
625.926	0.0174804
626.004	0.0174803
626.082	0.0175108
626.160	0.0176412
626.238	0.0175987
626.317	0.0174963
626.395	0.0174666
626.473	0.0175517
626.551	0.0174681
626.629	0.0174300
626.707	0.0176040
626.785	0.0175307
626.863	0.0174921
626.942	0.0175645
627.020	0.0175123
627.098	0.0175827
627.176	0.0177319
627.254	0.0173291
627.332	0.0174364
627.410	0.0176647
627.488	0.0174872
627.567	0.0175451
627.645	0.0175864
627.723	0.0175354
627.801	0.0174725
627.879	0.0174957
627.957	0.0174686
628.035	0.0175189
628.113	0.0174059
628.192	0.0175357
628.270	0.0173815
628.348	0.0174659
628.426	0.0177082
628.504	0.0175145
628.582	0.0174660
628.660	0.0173179
628.738	0.0172758
628.817	0.0175913
628.895	0.0175639
628.973	0.0174860
629.051	0.0175265
629.129	0.0175278
629.207	0.0175678
629.285	0.0174902
629.363	0.0174422
629.442	0.0173870
629.520	0.0175014
629.598	0.0174590
629.676	0.0174940
629.754	0.0175746
629.832	0.0175025
629.910	0.0176124
629.988	0.0174847
630.067	0.0175362
630.145	0.0175147
630.223	0.0174017
630.301	0.0174911
630.379	0.0175121
630.457	0.0175320
630.535	0.0175533
630.613	0.0175043
630.692	0.0176645
630.770	0.0175365
630.848	0.0176598
630.926	0.0175163
631.004	0.0175354
631.082	0.0174312
631.160	0.0174481
631.238	0.0174773
631.317	0.0175285
631.395	0.0175099
631.473	0.0174703
631.551	0.0175515
631.629	0.0174548
631.707	0.0175137
631.785	0.0174083
631.863	0.0175940
631.942	0.0175336
632.020	0.0175053
632.098	0.0174776
632.176	0.0174675
632.254	0.0175675
632.332	0.0176761
632.410	0.0176321
632.488	0.0176128
632.567	0.0174216
632.645	0.0174509
632.723	0.0175188
632.801	0.0175716
632.879	0.0174474
632.957	0.0174876
633.035	0.0174371
633.113	0.0173811
633.192	0.0174856
633.270	0.0175131
633.348	0.0175867
633.426	0.0175233
633.504	0.0176445
633.582	0.0173777
633.660	0.0174133
633.738	0.0175592
633.817	0.0175460
633.895	0.0174213
633.973	0.0174807
634.051	0.0174459
634.129	0.0174086
634.207	0.0175396
634.285	0.0174164
634.363	0.0175303
634.442	0.0175858
634.520	0.0174582
634.598	0.0174506
634.676	0.0175414
634.754	0.0175177
634.832	0.0175009
634.910	0.0175062
634.988	0.0176442
635.067	0.0175134
635.145	0.0175206
635.223	0.0175009
635.301	0.0174757
635.379	0.0173169
635.457	0.0174402
635.535	0.0174828
635.613	0.0175620
635.692	0.0175373
635.770	0.0173751
635.848	0.0174544
635.926	0.0176356
636.004	0.0174768
636.082	0.0174483
636.160	0.0175065
636.238	0.0175258
636.317	0.0174573
636.395	0.0175267
636.473	0.0175307
636.551	0.0174992
636.629	0.0174307
636.707	0.0174248
636.785	0.0175432
636.863	0.0174680
636.942	0.0174817
637.020	0.0174656
637.098	0.0176067
637.176	0.0176678
637.254	0.0175372
637.332	0.0175275
637.410	0.0175080
637.488	0.0174555
637.567	0.0174738
637.645	0.0173975
637.723	0.0173112
637.801	0.0172608
637.879	0.0174102
637.957	0.0175569
638.035	0.0175563
638.113	0.0175678
638.192	0.0175388
638.270	0.0176057
638.348	0.0174445
638.426	0.0174839
638.504	0.0174713
638.582	0.0175300
638.660	0.0174012
638.738	0.0174100
638.817	0.0173344
638.895	0.0175861
638.973	0.0175227
639.051	0.0175565
639.129	0.0174889
639.207	0.0174126
639.285	0.0176290
639.363	0.0175197
639.442	0.0175217
639.520	0.0175482
639.598	0.0174440
639.676	0.0175687
639.754	0.0174725
639.832	0.0174397
639.910	0.0174158
639.988	0.0173772
640.067	0.0175817
640.145	0.0175233
640.223	0.0176161
640.301	0.0173685
640.379	0.0174085
640.457	0.0175118
640.535	0.0175091
640.613	0.0174915
640.692	0.0173479
640.770	0.0174748
640.848	0.0174251
640.926	0.0174258
641.004	0.0175293
641.082	0.0174734
641.160	0.0175550
641.238	0.0174454
641.317	0.0175162
641.395	0.0175379
641.473	0.0175667
641.551	0.0175661
641.629	0.0175535
641.707	0.0174789
641.785	0.0175014
641.863	0.0174284
641.942	0.0174401
642.020	0.0175307
642.098	0.0176109
642.176	0.0174963
642.254	0.0175793
642.332	0.0175754
642.410	0.0175529
642.488	0.0175724
642.567	0.0176033
642.645	0.0174065
642.723	0.0173609
642.801	0.0174744
642.879	0.0175066
642.957	0.0174793
643.035	0.0174177
643.113	0.0174313
643.192	0.0174935
643.270	0.0174274
643.348	0.0174278
643.426	0.0174633
643.504	0.0175471
643.582	0.0175421
643.660	0.0176152
643.738	0.0174462
643.817	0.0175572
643.895	0.0175437
643.973	0.0174128
644.051	0.0175611
644.129	0.0174303
644.207	0.0175064
644.285	0.0173647
644.363	0.0174722
644.442	0.0175974
644.520	0.0175695
644.598	0.0175497
644.676	0.0173494
644.754	0.0175563
644.832	0.0175875
644.910	0.0174337
644.988	0.0173792
645.067	0.0174355
645.145	0.0174386
645.223	0.0175123
645.301	0.0174954
645.379	0.0174136
645.457	0.0174259
645.535	0.0174550
645.613	0.0174102
645.692	0.0175121
645.770	0.0175343
645.848	0.0175242
645.926	0.0174859
646.004	0.0175013
646.082	0.0175189
646.160	0.0176089
646.238	0.0174920
646.317	0.0173035
646.395	0.0174596
646.473	0.0174316
646.551	0.0174539
646.629	0.0175104
646.707	0.0174802
646.785	0.0173629
646.863	0.0174946
646.942	0.0174570
647.020	0.0174614
647.098	0.0175679
647.176	0.0175404
647.254	0.0175337
647.332	0.0175664
647.410	0.0176274
647.488	0.0175870
647.567	0.0175850
647.645	0.0173660
647.723	0.0174506
647.801	0.0175237
647.879	0.0175153
647.957	0.0174907
648.035	0.0174542
648.113	0.0175063
648.192	0.0174397
648.270	0.0175739
648.348	0.0175101
648.426	0.0174844
648.504	0.0174696
648.582	0.0174600
648.660	0.0175538
648.738	0.0174799
648.817	0.0174751
648.895	0.0175403
648.973	0.0174448
649.051	0.0174296
649.129	0.0174908
649.207	0.0175023
649.285	0.0175202
649.363	0.0174335
649.442	0.0175945
649.520	0.0175385
649.598	0.0174854
649.676	0.0174596
649.754	0.0173814
649.832	0.0175814
649.910	0.0175851
649.988	0.0174889
650.067	0.0176293
650.145	0.0175203
650.223	0.0175755
650.301	0.0174971
650.379	0.0176711
650.457	0.0175206
650.535	0.0174546
650.613	0.0175079
650.692	0.0174720
650.770	0.0174988
650.848	0.0176161
650.926	0.0175887
651.004	0.0175790
651.082	0.0175784
651.160	0.0174752
651.238	0.0175882
651.317	0.0174169
651.395	0.0173800
651.473	0.0174036
651.551	0.0175434
651.629	0.0176308
651.707	0.0174944
651.785	0.0175130
651.863	0.0175488
651.942	0.0175210
652.020	0.0175117
652.098	0.0174743
652.176	0.0174959
652.254	0.0175680
652.332	0.0176499
652.410	0.0174787
652.488	0.0175213
652.567	0.0174445
652.645	0.0174934
652.723	0.0175496
652.801	0.0175584
652.879	0.0174879
652.957	0.0174540
653.035	0.0175671
653.113	0.0175000
653.192	0.0174879
653.270	0.0175883
653.348	0.0173712
653.426	0.0174329
653.504	0.0175558
653.582	0.0175670
653.660	0.0174458
653.738	0.0175153
653.817	0.0174131
653.895	0.0175592
653.973	0.0175172
654.051	0.0175509
654.129	0.0174828
654.207	0.0173833
654.285	0.0174480
654.363	0.0174022
654.442	0.0174184
654.520	0.0175589
654.598	0.0175631
654.676	0.0174611
654.754	0.0174583
654.832	0.0173795
654.910	0.0174444
654.988	0.0175996
655.067	0.0174855
655.145	0.0173161
655.223	0.0174564
655.301	0.0174727
655.379	0.0174904
655.457	0.0175786
655.535	0.0175471
655.613	0.0174574
655.692	0.0176287
655.770	0.0173238
655.848	0.0173885
655.926	0.0175159
656.004	0.0175156
656.082	0.0173730
656.160	0.0174062
656.238	0.0175349
656.317	0.0175127
656.395	0.0174624
656.473	0.0173574
656.551	0.0174753
656.629	0.0175317
656.707	0.0175092
656.785	0.0174415
656.863	0.0175291
656.942	0.0175581
657.020	0.0174210
657.098	0.0174220
657.176	0.0174720
657.254	0.0174147
657.332	0.0175079
657.410	0.0175323
657.488	0.0172781
657.567	0.0174978
657.645	0.0174257
657.723	0.0174806
657.801	0.0175171
657.879	0.0173287
657.957	0.0174750
658.035	0.0174157
658.113	0.0174309
658.192	0.0175801
658.270	0.0174978
658.348	0.0174622
658.426	0.0174238
658.504	0.0174443
658.582	0.0175240
658.660	0.0175150
658.738	0.0175418
658.817	0.0175352
658.895	0.0175019
658.973	0.0174472
659.051	0.0175137
659.129	0.0174953
659.207	0.0175185
659.285	0.0175288
659.363	0.0174845
659.442	0.0175504
659.520	0.0176124
659.598	0.0174459
659.676	0.0173991
659.754	0.0174120
659.832	0.0175275
659.910	0.0175468
659.988	0.0176341
660.067	0.0175556
660.145	0.0174567
660.223	0.0176025
660.301	0.0176854
660.379	0.0174457
660.457	0.0175251
660.535	0.0174794
660.613	0.0174863
660.692	0.0175883
660.770	0.0176170
660.848	0.0176514
660.926	0.0175755
661.004	0.0177042
661.082	0.0174975
661.160	0.0175489
661.238	0.0176099
661.317	0.0176202
661.395	0.0175375
661.473	0.0174793
661.551	0.0174136
661.629	0.0174847
661.707	0.0175399
661.785	0.0175101
661.863	0.0175219
661.942	0.0176818
662.020	0.0174580
662.098	0.0175710
662.176	0.0174873
662.254	0.0175313
662.332	0.0176542
662.410	0.0175490
662.488	0.0174742
662.567	0.0175108
662.645	0.0175440
662.723	0.0175279
662.801	0.0174799
662.879	0.0175865
662.957	0.0176225
663.035	0.0175865
663.113	0.0175786
663.192	0.0176031
663.270	0.0175627
663.348	0.0176524
663.426	0.0177251
663.504	0.0176125
663.582	0.0174615
663.660	0.0176680
663.738	0.0175439
663.817	0.0175877
663.895	0.0175372
663.973	0.0175047
664.051	0.0174035
664.129	0.0175433
664.207	0.0174775
664.285	0.0174116
664.363	0.0174602
664.442	0.0175437
664.520	0.0175774
664.598	0.0176349
664.676	0.0175644
664.754	0.0175796
664.832	0.0174906
664.910	0.0175010
664.988	0.0176974
665.067	0.0174925
665.145	0.0176186
665.223	0.0176707
665.301	0.0176086
665.379	0.0175557
665.457	0.0176243
665.535	0.0176035
665.613	0.0174948
665.692	0.0173988
665.770	0.0174625
665.848	0.0174766
665.926	0.0174909
666.004	0.0175655
666.082	0.0176769
666.160	0.0174596
666.238	0.0175240
666.317	0.0175219
666.395	0.0173876
666.473	0.0175727
666.551	0.0175645
666.629	0.0175417
666.707	0.0176537
666.785	0.0175781
666.863	0.0177122
666.942	0.0175507
667.020	0.0174796
667.098	0.0174467
667.176	0.0175188
667.254	0.0175556
667.332	0.0175481
667.410	0.0175680
667.488	0.0175788
667.567	0.0174102
667.645	0.0176119
667.723	0.0175777
667.801	0.0175449
667.879	0.0174107
667.957	0.0175131
668.035	0.0175349
668.113	0.0174773
668.192	0.0175033
668.270	0.0174559
668.348	0.0174914
668.426	0.0174975
668.504	0.0175317
668.582	0.0175121
668.660	0.0176567
668.738	0.0175013
668.817	0.0174674
668.895	0.0173636
668.973	0.0174129
669.051	0.0174065
669.129	0.0175942
669.207	0.0175488
669.285	0.0174319
669.363	0.0174166
669.442	0.0175027
669.520	0.0174851
669.598	0.0174410
669.676	0.0174671
669.754	0.0174874
669.832	0.0174572
669.910	0.0175513
669.988	0.0175016
670.067	0.0173407
670.145	0.0175640
670.223	0.0174712
670.301	0.0174990
670.379	0.0174052
670.457	0.0175337
670.535	0.0175169
670.613	0.0173283
670.692	0.0174438
670.770	0.0173410
670.848	0.0175768
670.926	0.0175207
671.004	0.0172659
671.082	0.0174127
671.160	0.0174388
671.238	0.0174731
671.317	0.0174924
671.395	0.0175462
671.473	0.0173750
671.551	0.0174938
671.629	0.0174326
671.707	0.0175376
671.785	0.0174921
671.863	0.0174567
671.942	0.0175291
672.020	0.0175475
672.098	0.0174599
672.176	0.0173745
672.254	0.0174387
672.332	0.0174616
672.410	0.0174748
672.488	0.0174724
672.567	0.0176019
672.645	0.0174891
672.723	0.0172456
672.801	0.0175249
672.879	0.0176954
672.957	0.0174509
673.035	0.0173824
673.113	0.0174754
673.192	0.0175440
673.270	0.0174159
673.348	0.0175368
673.426	0.0175343
673.504	0.0173572
673.582	0.0175524
673.660	0.0175238
673.738	0.0174383
673.817	0.0174573
673.895	0.0173934
673.973	0.0175371
674.051	0.0174498
674.129	0.0174673
674.207	0.0174499
674.285	0.0175082
674.363	0.0175751
674.442	0.0175361
674.520	0.0174052
674.598	0.0175203
674.676	0.0175159
674.754	0.0175526
674.832	0.0173462
674.910	0.0174835
674.988	0.0175779
675.067	0.0174093
675.145	0.0174823
675.223	0.0175037
675.301	0.0173667
675.379	0.0175410
675.457	0.0174136
675.535	0.0174642
675.613	0.0174123
675.692	0.0173032
675.770	0.0173561
675.848	0.0174209
675.926	0.0174457
676.004	0.0174593
676.082	0.0173943
676.160	0.0173402
676.238	0.0173480
676.317	0.0175239
676.395	0.0174624
676.473	0.0174901
676.551	0.0175017
676.629	0.0176077
676.707	0.0174841
676.785	0.0175141
676.863	0.0174142
676.942	0.0175876
677.020	0.0174960
677.098	0.0173384
677.176	0.0174648
677.254	0.0173973
677.332	0.0174526
677.410	0.0173747
677.488	0.0173873
677.567	0.0174734
677.645	0.0175947
677.723	0.0175057
677.801	0.0173269
677.879	0.0173448
677.957	0.0173492
678.035	0.0172295
678.113	0.0172808
678.192	0.0173359
678.270	0.0173999
678.348	0.0173092
678.426	0.0173956
678.504	0.0173405
678.582	0.0174251
678.660	0.0175945
678.738	0.0175083
678.817	0.0174954
678.895	0.0174523
678.973	0.0174720
679.051	0.0176192
679.129	0.0176253
679.207	0.0175330
679.285	0.0176965
679.363	0.0176445
679.442	0.0177753
679.520	0.0177613
679.598	0.0177213
679.676	0.0177229
679.754	0.0178655
679.832	0.0178236
679.910	0.0178490
679.988	0.0178001
680.067	0.0176851
680.145	0.0177220
680.223	0.0176466
680.301	0.0176012
680.379	0.0174366
680.457	0.0174440
680.535	0.0174200
680.613	0.0174733
680.692	0.0174359
680.770	0.0173213
680.848	0.0173595
680.926	0.0173268
681.004	0.0174343
681.082	0.0173257
681.160	0.0172506
681.238	0.0171749
681.317	0.0171736
681.395	0.0169781
681.473	0.0168706
681.551	0.0169431
681.629	0.0166615
681.707	0.0164608
681.785	0.0163229
681.863	0.0162653
681.942	0.0161778
682.020	0.0160779
682.098	0.0160495
682.176	0.0161197
682.254	0.0163634
682.332	0.0165894
682.410	0.0169821
682.488	0.0173250
682.567	0.0180050
682.645	0.0184470
682.723	0.0191231
682.801	0.0198405
682.879	0.0205283
682.957	0.0211694
683.035	0.0215107
683.113	0.0219767
683.192	0.0222212
683.270	0.0221483
683.348	0.0217802
683.426	0.0211935
683.504	0.0206138
683.582	0.0195421
683.660	0.0184393
683.738	0.0173146
683.817	0.0161810
683.895	0.0150625
683.973	0.0141276
684.051	0.0134067
684.129	0.0126157
684.207	0.0121989
684.285	0.0119694
684.363	0.0119215
684.442	0.0116429
684.520	0.0119275
684.598	0.0122272
684.676	0.0126667
684.754	0.0131186
684.832	0.0134690
684.910	0.0142819
684.988	0.0150011
685.067	0.0160105
685.145	0.0171768
685.223	0.0183669
685.301	0.0196887
685.379	0.0212352
685.457	0.0227500
685.535	0.0242429
685.613	0.0254764
685.692	0.0263856
685.770	0.0271368
685.848	0.0274720
685.926	0.0271515
686.004	0.0265492
686.082	0.0255119
686.160	0.0240672
686.238	0.0222605
686.317	0.0201777
686.395	0.0180721
686.473	0.0158870
686.551	0.0137587
686.629	0.0119503
686.707	0.0103175
686.785	0.00897591
686.863	0.00817406
686.942	0.00722031
687.020	0.00695892
687.098	0.00672096
687.176	0.00685303
687.254	0.00736008
687.332	0.00800232
687.410	0.00891190
687.488	0.00987114
687.567	0.0113648
687.645	0.0130335
687.723	0.0148591
687.801	0.0169226
687.879	0.0188958
687.957	0.0211758
688.035	0.0235415
688.113	0.0258012
688.192	0.0278801
688.270	0.0299937
688.348	0.0314785
688.426	0.0327070
688.504	0.0334075
688.582	0.0336360
688.660	0.0334462
688.738	0.0326677
688.817	0.0312796
688.895	0.0293183
688.973	0.0271619
689.051	0.0244211
689.129	0.0215203
689.207	0.0184347
689.285	0.0151413
689.363	0.0118266
689.442	0.00879852
689.520	0.00580711
689.598	0.00334885
689.676	0.00117531
689.754	-0.000393372
689.832	-0.00139610
689.910	-0.00227737
689.988	-0.00232750
690.067	-0.00198311
690.145	-0.00131691
690.223	-0.000184860
690.301	0.00139450
690.379	0.00349182
690.457	0.00598335
690.535	0.00881927
690.613	0.0118644
690.692	0.0151196
690.770	0.0182890
690.848	0.0219926
690.926	0.0256011
691.004	0.0290818
691.082	0.0320412
691.160	0.0349026
691.238	0.0371661
691.317	0.0390060
691.395	0.0402638
691.473	0.0405779
691.551	0.0403481
691.629	0.0392162
691.707	0.0374765
691.785	0.0352379
691.863	0.0326526
691.942	0.0295611
692.020	0.0261967
692.098	0.0227939
692.176	0.0195567
692.254	0.0165508
692.332	0.0135931
692.410	0.0110674
692.488	0.00875969
692.567	0.00707741
692.645	0.00562637
692.723	0.00480003
692.801	0.00422218
692.879	0.00385635
692.957	0.00375099
693.035	0.00378586
693.113	0.00390038
693.192	0.00422607
693.270	0.00449310
693.348	0.00504967
693.426	0.00582748
693.504	0.00639717
693.582	0.00745834
693.660	0.00880760
693.738	0.0101820
693.817	0.0118159
693.895	0.0136942
693.973	0.0158886
694.051	0.0178575
694.129	0.0198827
694.207	0.0219090
694.285	0.0235598
694.363	0.0252313
694.442	0.0264949
694.520	0.0273434
694.598	0.0279543
694.676	0.0282178
694.754	0.0279079
694.832	0.0275461
694.910	0.0269452
694.988	0.0260047
695.067	0.0247710
695.145	0.0236362
695.223	0.0225969
695.301	0.0216119
695.379	0.0202235
695.457	0.0192355
695.535	0.0181800
695.613	0.0174130
695.692	0.0167694
695.770	0.0164117
695.848	0.0160754
695.926	0.0158153
696.004	0.0154960
696.082	0.0153857
696.160	0.0154552
696.238	0.0152695
696.317	0.0153183
696.395	0.0152903
696.473	0.0153426
696.551	0.0152991
696.629	0.0155363
696.707	0.0156068
696.785	0.0159753
696.863	0.0163029
696.942	0.0166249
697.020	0.0171256
697.098	0.0174395
697.176	0.0176425
697.254	0.0180350
697.332	0.0182367
697.410	0.0183245
697.488	0.0181434
697.567	0.0181408
697.645	0.0175325
697.723	0.0171877
697.801	0.0165883
697.879	0.0158662
697.957	0.0153089
698.035	0.0146980
698.113	0.0140274
698.192	0.0135193
698.270	0.0134621
698.348	0.0133929
698.426	0.0133607
698.504	0.0137325
698.582	0.0144592
698.660	0.0148920
698.738	0.0156006
698.817	0.0164666
698.895	0.0175102
698.973	0.0183736
699.051	0.0190117
699.129	0.0197420
699.207	0.0203988
699.285	0.0207776
699.363	0.0210118
699.442	0.0210099
699.520	0.0207847
699.598	0.0206100
699.676	0.0202538
699.754	0.0199146
699.832	0.0195574
699.910	0.0193172
699.988	0.0188166
700.067	0.0187639
700.145	0.0185516
700.223	0.0184520
700.301	0.0183684
700.379	0.0183469
700.457	0.0184850
700.535	0.0186927
700.613	0.0186134
700.692	0.0187226
700.770	0.0187117
700.848	0.0185779
700.926	0.0184460
701.004	0.0181116
701.082	0.0179960
701.160	0.0175423
701.238	0.0173416
701.317	0.0171006
701.395	0.0164989
701.473	0.0164200
701.551	0.0162621
701.629	0.0162187
701.707	0.0164883
701.785	0.0164837
701.863	0.0166225
701.942	0.0169823
702.020	0.0171902
702.098	0.0173825
702.176	0.0175844
702.254	0.0177560
702.332	0.0179607
702.410	0.0178727
702.488	0.0178555
702.567	0.0174604
702.645	0.0172572
702.723	0.0169897
702.801	0.0164621
702.879	0.0159540
702.957	0.0155506
703.035	0.0152817
703.113	0.0151057
703.192	0.0150502
703.270	0.0150263
703.348	0.0152652
703.426	0.0154822
703.504	0.0156950
703.582	0.0161564
703.660	0.0164960
703.738	0.0169349
703.817	0.0173206
703.895	0.0175246
703.973	0.0177118
704.051	0.0179664
704.129	0.0179567
704.207	0.0180634
704.285	0.0182325
704.363	0.0181415
704.442	0.0181901
704.520	0.0183598
704.598	0.0181898
704.676	0.0179957
704.754	0.0183271
704.832	0.0184393
704.910	0.0185048
704.988	0.0185155
705.067	0.0185275
705.145	0.0185869
705.223	0.0184905
705.301	0.0185074
705.379	0.0184725
705.457	0.0184248
705.535	0.0184409
705.613	0.0182117
705.692	0.0184391
705.770	0.0184149
705.848	0.0182838
705.926	0.0183223
706.004	0.0185059
706.082	0.0185735
706.160	0.0186118
706.238	0.0184457
706.317	0.0185954
706.395	0.0188522
706.473	0.0187780
706.551	0.0188760
706.629	0.0186088
706.707	0.0186494
706.785	0.0184448
706.863	0.0183767
706.942	0.0179939
707.020	0.0177558
707.098	0.0175474
707.176	0.0170856
707.254	0.0167253
707.332	0.0164671
707.410	0.0161541
707.488	0.0157388
707.567	0.0155453
707.645	0.0150610
707.723	0.0149027
707.801	0.0146662
707.879	0.0147227
707.957	0.0145247
708.035	0.0145560
708.113	0.0148279
708.192	0.0149541
708.270	0.0152236
708.348	0.0155024
708.426	0.0156603
708.504	0.0161113
708.582	0.0165932
708.660	0.0167119
708.738	0.0171744
708.817	0.0175578
708.895	0.0176330
708.973	0.0180512
709.051	0.0182841
709.129	0.0184752
709.207	0.0185359
709.285	0.0187843
709.363	0.0186167
709.442	0.0187270
709.520	0.0186958
709.598	0.0184450
709.676	0.0182901
709.754	0.0183002
709.832	0.0183089
709.910	0.0180954
709.988	0.0180541
710.067	0.0180087
710.145	0.0179614
710.223	0.0178886
710.301	0.0180108
710.379	0.0180574
710.457	0.0179368
710.535	0.0180228
710.613	0.0181068
710.692	0.0181620
710.770	0.0183556
710.848	0.0185003
710.926	0.0184499
711.004	0.0185213
711.082	0.0186967
711.160	0.0188744
711.238	0.0187568
711.317	0.0188570
711.395	0.0187082
711.473	0.0187260
711.551	0.0186389
711.629	0.0184521
711.707	0.0182587
711.785	0.0179437
711.863	0.0178229
711.942	0.0177203
712.020	0.0174810
712.098	0.0172318
712.176	0.0169806
712.254	0.0170154
712.332	0.0165771
712.410	0.0164335
712.488	0.0162086
712.567	0.0159101
712.645	0.0158176
712.723	0.0156893
712.801	0.0156423
712.879	0.0156725
712.957	0.0156541
713.035	0.0155261
713.113	0.0158568
713.192	0.0158790
713.270	0.0160656
713.348	0.0162711
713.426	0.0165584
713.504	0.0167413
713.582	0.0169863
713.660	0.0172000
713.738	0.0172506
713.817	0.0174670
713.895	0.0176793
713.973	0.0177837
714.051	0.0178978
714.129	0.0179324
714.207	0.0180678
714.285	0.0180524
714.363	0.0179878
714.442	0.0180137
714.520	0.0179324
714.598	0.0179790
714.676	0.0178696
714.754	0.0178365
714.832	0.0179062
714.910	0.0179691
714.988	0.0179406
715.067	0.0179675
715.145	0.0179570
715.223	0.0180137
715.301	0.0180602
715.379	0.0181213
715.457	0.0179649
715.535	0.0178993
715.613	0.0181415
715.692	0.0179386
715.770	0.0179473
715.848	0.0179262
715.926	0.0177455
716.004	0.0177014
716.082	0.0177387
716.160	0.0178862
716.238	0.0178257
716.317	0.0176074
716.395	0.0178046
716.473	0.0178135
716.551	0.0178193
716.629	0.0178779
716.707	0.0178340
716.785	0.0178869
716.863	0.0179855
716.942	0.0180270
717.020	0.0178853
717.098	0.0178472
717.176	0.0177342
717.254	0.0177864
717.332	0.0178116
717.410	0.0175794
717.488	0.0173488
717.567	0.0170612
717.645	0.0169296
717.723	0.0167932
717.801	0.0165615
717.879	0.0164869
717.957	0.0164601
718.035	0.0164100
718.113	0.0164959
718.192	0.0166881
718.270	0.0169279
718.348	0.0170108
718.426	0.0171994
718.504	0.0174785
718.582	0.0178980
718.660	0.0179532
718.738	0.0180968
718.817	0.0182474
718.895	0.0181964
718.973	0.0182369
719.051	0.0183046
719.129	0.0179700
719.207	0.0177702
719.285	0.0177068
719.363	0.0174693
719.442	0.0173250
719.520	0.0172188
719.598	0.0170967
719.676	0.0170563
719.754	0.0170107
719.832	0.0167734
719.910	0.0168443
719.988	0.0166969
720.067	0.0166679
720.145	0.0165543
720.223	0.0165437
720.301	0.0165472
720.379	0.0166029
720.457	0.0166567
720.535	0.0167149
720.613	0.0165721
720.692	0.0168996
720.770	0.0170827
720.848	0.0171268
720.926	0.0174127
721.004	0.0177878
721.082	0.0179695
721.160	0.0181525
721.238	0.0185011
721.317	0.0186727
721.395	0.0186797
721.473	0.0188357
721.551	0.0187887
721.629	0.0188224
721.707	0.0187868
721.785	0.0188148
721.863	0.0186137
721.942	0.0185821
722.020	0.0182186
722.098	0.0181436
722.176	0.0180109
722.254	0.0178751
722.332	0.0177381
722.410	0.0176385
722.488	0.0177030
722.567	0.0174966
722.645	0.0174971
722.723	0.0175867
722.801	0.0173907
722.879	0.0174302
722.957	0.0174318
723.035	0.0173576
723.113	0.0173776
723.192	0.0173896
723.270	0.0174028
723.348	0.0174162
723.426	0.0173854
723.504	0.0174030
723.582	0.0173563
723.660	0.0172584
723.738	0.0171925
723.817	0.0171705
723.895	0.0170660
723.973	0.0170521
724.051	0.0168890
724.129	0.0170134
724.207	0.0169014
724.285	0.0169119
724.363	0.0169608
724.442	0.0171180
724.520	0.0171110
724.598	0.0170333
724.676	0.0171803
724.754	0.0173528
724.832	0.0172990
724.910	0.0173911
724.988	0.0174838
725.067	0.0173374
725.145	0.0173048
725.223	0.0173431
725.301	0.0174046
725.379	0.0173358
725.457	0.0173026
725.535	0.0174288
725.613	0.0173709
725.692	0.0172941
725.770	0.0172604
725.848	0.0172520
725.926	0.0173871
726.004	0.0173769
726.082	0.0173456
726.160	0.0173285
726.238	0.0174830
726.317	0.0175531
726.395	0.0176353
726.473	0.0175996
726.551	0.0177195
726.629	0.0179578
726.707	0.0179078
726.785	0.0179004
726.863	0.0180582
726.942	0.0180525
727.020	0.0181799
727.098	0.0181280
727.176	0.0180580
727.254	0.0182111
727.332	0.0182605
727.410	0.0180589
727.488	0.0180498
727.567	0.0180035
727.645	0.0180198
727.723	0.0178300
727.801	0.0176414
727.879	0.0175831
727.957	0.0176003
728.035	0.0174991
728.113	0.0174368
728.192	0.0171981
728.270	0.0171609
728.348	0.0170606
728.426	0.0170670
728.504	0.0168772
728.582	0.0168414
728.660	0.0169253
728.738	0.0167554
728.817	0.0166472
728.895	0.0168401
728.973	0.0169917
729.051	0.0170972
729.129	0.0171858
729.207	0.0173419
729.285	0.0173880
729.363	0.0176899
729.442	0.0177815
729.520	0.0177336
729.598	0.0178843
729.676	0.0179385
729.754	0.0179307
729.832	0.0180267
729.910	0.0180891
729.988	0.0178657
730.067	0.0178882
730.145	0.0176577
730.223	0.0173550
730.301	0.0173668
730.379	0.0172530
730.457	0.0169806
730.535	0.0168472
730.613	0.0167510
730.692	0.0165746
730.770	0.0167014
730.848	0.0166463
730.926	0.0166807
731.004	0.0166998
731.082	0.0168224
731.160	0.0168745
731.238	0.0169820
731.317	0.0171864
731.395	0.0174272
731.473	0.0173947
731.551	0.0175352
731.629	0.0177092
731.707	0.0179010
731.785	0.0179427
731.863	0.0180116
731.942	0.0182001
732.020	0.0181384
732.098	0.0181702
732.176	0.0182229
732.254	0.0180402
732.332	0.0178407
732.410	0.0179875
732.488	0.0180125
732.567	0.0178279
732.645	0.0177415
732.723	0.0177817
732.801	0.0176759
732.879	0.0175039
732.957	0.0174480
733.035	0.0174394
733.113	0.0174169
733.192	0.0172131
733.270	0.0172840
733.348	0.0171515
733.426	0.0171429
733.504	0.0170934
733.582	0.0172427
733.660	0.0171438
733.738	0.0170304
733.817	0.0173016
733.895	0.0173174
733.973	0.0173347
734.051	0.0173508
734.129	0.0173927
734.207	0.0173650
734.285	0.0173162
734.363	0.0174708
734.442	0.0174323
734.520	0.0174858
734.598	0.0175326
734.676	0.0176414
734.754	0.0175423
734.832	0.0175891
734.910	0.0176057
734.988	0.0177591
735.067	0.0176135
735.145	0.0176324
735.223	0.0177149
735.301	0.0176491
735.379	0.0175561
735.457	0.0175121
735.535	0.0174435
735.613	0.0173593
735.692	0.0173776
735.770	0.0174174
735.848	0.0175692
735.926	0.0173359
736.004	0.0173842
736.082	0.0172211
736.160	0.0172156
736.238	0.0172009
736.317	0.0172268
736.395	0.0172146
736.473	0.0171847
736.551	0.0172477
736.629	0.0172615
736.707	0.0173047
736.785	0.0174628
736.863	0.0174245
736.942	0.0173021
737.020	0.0174953
737.098	0.0176633
737.176	0.0175244
737.254	0.0175747
737.332	0.0175610
737.410	0.0175922
737.488	0.0177633
737.567	0.0176794
737.645	0.0177261
737.723	0.0177190
737.801	0.0175928
737.879	0.0177454
737.957	0.0176978
738.035	0.0177417
738.113	0.0177066
738.192	0.0178113
738.270	0.0176907
738.348	0.0176484
738.426	0.0176058
738.504	0.0176084
738.582	0.0174974
738.660	0.0175664
738.738	0.0174731
738.817	0.0174344
738.895	0.0173752
738.973	0.0173055
739.051	0.0171225
739.129	0.0171584
739.207	0.0171696
739.285	0.0173727
739.363	0.0172504
739.442	0.0171667
739.520	0.0172296
739.598	0.0172710
739.676	0.0174302
739.754	0.0174591
739.832	0.0176740
739.910	0.0177746
739.988	0.0178577
740.067	0.0177569
740.145	0.0178387
740.223	0.0180044
740.301	0.0178893
740.379	0.0178691
740.457	0.0180814
740.535	0.0180119
740.613	0.0178507
740.692	0.0177043
740.770	0.0176531
740.848	0.0176226
740.926	0.0174854
741.004	0.0174913
741.082	0.0172766
741.160	0.0172005
741.238	0.0172501
741.317	0.0171078
741.395	0.0171629
741.473	0.0170287
741.551	0.0171668
741.629	0.0171902
741.707	0.0172308
741.785	0.0172105
741.863	0.0173537
741.942	0.0175663
742.020	0.0174275
742.098	0.0175659
742.176	0.0176368
742.254	0.0176449
742.332	0.0178277
742.410	0.0177100
742.488	0.0177466
742.567	0.0177468
742.645	0.0175723
742.723	0.0176028
742.801	0.0176711
742.879	0.0176057
742.957	0.0176778
743.035	0.0176311
743.113	0.0173998
743.192	0.0173669
743.270	0.0174407
743.348	0.0173874
743.426	0.0172971
743.504	0.0172932
743.582	0.0174047
743.660	0.0172863
743.738	0.0172759
743.817	0.0172893
743.895	0.0172896
743.973	0.0172126
744.051	0.0173529
744.129	0.0173146
744.207	0.0172779
744.285	0.0173667
744.363	0.0174701
744.442	0.0175372
744.520	0.0175056
744.598	0.0176273
744.676	0.0176875
744.754	0.0177888
744.832	0.0178070
744.910	0.0178923
744.988	0.0180389
745.067	0.0179675
745.145	0.0179786
745.223	0.0179995
745.301	0.0179768
745.379	0.0179274
745.457	0.0179578
745.535	0.0178849
745.613	0.0176830
745.692	0.0176511
745.770	0.0176987
745.848	0.0174364
745.926	0.0174828
746.004	0.0173878
746.082	0.0174886
746.160	0.0175640
746.238	0.0173524
746.317	0.0172993
746.395	0.0173522
746.473	0.0174442
746.551	0.0173115
746.629	0.0173000
746.707	0.0173856
746.785	0.0174094
746.863	0.0174348
746.942	0.0173074
747.020	0.0173770
747.098	0.0172585
747.176	0.0173351
747.254	0.0172495
747.332	0.0172292
747.410	0.0172347
747.488	0.0172284
747.567	0.0171333
747.645	0.0171465
747.723	0.0171420
747.801	0.0171932
747.879	0.0171903
747.957	0.0172724
748.035	0.0172268
748.113	0.0173988
748.192	0.0174638
748.270	0.0173743
748.348	0.0174716
748.426	0.0176044
748.504	0.0174689
748.582	0.0175959
748.660	0.0175677
748.738	0.0176087
748.817	0.0175174
748.895	0.0175846
748.973	0.0174799
749.051	0.0174308
749.129	0.0175144
749.207	0.0174942
749.285	0.0175340
749.363	0.0174738
749.442	0.0174901
749.520	0.0175539
749.598	0.0174545
749.676	0.0176176
749.754	0.0176310
749.832	0.0175745
749.910	0.0176092
749.988	0.0176731
750.067	0.0176331
750.145	0.0175037
750.223	0.0175687
750.301	0.0176640
750.379	0.0176873
750.457	0.0177554
750.535	0.0176205
750.613	0.0177390
750.692	0.0176928
750.770	0.0178308
750.848	0.0176890
750.926	0.0176938
751.004	0.0177494
751.082	0.0177835
751.160	0.0177322
751.238	0.0175768
751.317	0.0178959
751.395	0.0177810
751.473	0.0177015
751.551	0.0177555
751.629	0.0176777
751.707	0.0176592
751.785	0.0177132
751.863	0.0178019
751.942	0.0176597
752.020	0.0174557
752.098	0.0174740
752.176	0.0174714
752.254	0.0174610
752.332	0.0173032
752.410	0.0173553
752.488	0.0173927
752.567	0.0173399
752.645	0.0172407
752.723	0.0172015
752.801	0.0171995
752.879	0.0170240
752.957	0.0169869
753.035	0.0170657
753.113	0.0171060
753.192	0.0170513
753.270	0.0168816
753.348	0.0170615
753.426	0.0169030
753.504	0.0168914
753.582	0.0170023
753.660	0.0169959
753.738	0.0171676
753.817	0.0171864
753.895	0.0171778
753.973	0.0172650
754.051	0.0173907
754.129	0.0174419
754.207	0.0173837
754.285	0.0174858
754.363	0.0176640
754.442	0.0176367
754.520	0.0175935
754.598	0.0175855
754.676	0.0175049
754.754	0.0175388
754.832	0.0174715
754.910	0.0175730
754.988	0.0174230
755.067	0.0174098
755.145	0.0176163
755.223	0.0176660
755.301	0.0175916
755.379	0.0177333
755.457	0.0177503
755.535	0.0177644
755.613	0.0178007
755.692	0.0179635
755.770	0.0178724
755.848	0.0179771
755.926	0.0179483
756.004	0.0178459
756.082	0.0179131
756.160	0.0178409
756.238	0.0180051
756.317	0.0179659
756.395	0.0178452
756.473	0.0178094
756.551	0.0179097
756.629	0.0178675
756.707	0.0177001
756.785	0.0177142
756.863	0.0177370
756.942	0.0177784
757.020	0.0178608
757.098	0.0176452
757.176	0.0177689
757.254	0.0177024
757.332	0.0175766
757.410	0.0174325
757.488	0.0175094
757.567	0.0173430
757.645	0.0172031
757.723	0.0171450
757.801	0.0168996
757.879	0.0169760
757.957	0.0169241
758.035	0.0167743
758.113	0.0165814
758.192	0.0166721
758.270	0.0167038
758.348	0.0166477
758.426	0.0168188
758.504	0.0168970
758.582	0.0167953
758.660	0.0170646
758.738	0.0170648
758.817	0.0173022
758.895	0.0174561
758.973	0.0174913
759.051	0.0174402
759.129	0.0177023
759.207	0.0178531
759.285	0.0178044
759.363	0.0179133
759.442	0.0178027
759.520	0.0178493
759.598	0.0178141
759.676	0.0178973
759.754	0.0176980
759.832	0.0175566
759.910	0.0174539
759.988	0.0173781
760.067	0.0174345
760.145	0.0173621
760.223	0.0172530
760.301	0.0172617
760.379	0.0172931
760.457	0.0173055
760.535	0.0172720
760.613	0.0173602
760.692	0.0174207
760.770	0.0174278
760.848	0.0176447
760.926	0.0175843
761.004	0.0176524
761.082	0.0176487
761.160	0.0176919
761.238	0.0178552
761.317	0.0178474
761.395	0.0176697
761.473	0.0177760
761.551	0.0177704
761.629	0.0178554
761.707	0.0177150
761.785	0.0178092
761.863	0.0176945
761.942	0.0177943
762.020	0.0176363
762.098	0.0176942
762.176	0.0176334
762.254	0.0177493
762.332	0.0177699
762.410	0.0176640
762.488	0.0176518
762.567	0.0176341
762.645	0.0174024
762.723	0.0174993
762.801	0.0174905
762.879	0.0172383
762.957	0.0173203
763.035	0.0171716
763.113	0.0169601
763.192	0.0170145
763.270	0.0170847
763.348	0.0171460
763.426	0.0171673
763.504	0.0171326
763.582	0.0171298
763.660	0.0172958
763.738	0.0173798
763.817	0.0174066
763.895	0.0175185
763.973	0.0175534
764.051	0.0175502
764.129	0.0176871
764.207	0.0177408
764.285	0.0177016
764.363	0.0177010
764.442	0.0175423
764.520	0.0178194
764.598	0.0177683
764.676	0.0177106
764.754	0.0176797
764.832	0.0176276
764.910	0.0176127
764.988	0.0176759
765.067	0.0175773
765.145	0.0176518
765.223	0.0173959
765.301	0.0174059
765.379	0.0173582
765.457	0.0172691
765.535	0.0171640
765.613	0.0171275
765.692	0.0171239
765.770	0.0169814
765.848	0.0170908
765.926	0.0171726
766.004	0.0170872
766.082	0.0170761
766.160	0.0171914
766.238	0.0173086
766.317	0.0173044
766.395	0.0173241
766.473	0.0172573
766.551	0.0175110
766.629	0.0175666
766.707	0.0175234
766.785	0.0177672
766.863	0.0176762
766.942	0.0178057
767.020	0.0178101
767.098	0.0179827
767.176	0.0178791
767.254	0.0179327
767.332	0.0180782
767.410	0.0179266
767.488	0.0179382
767.567	0.0179965
767.645	0.0178098
767.723	0.0178514
767.801	0.0177399
767.879	0.0175578
767.957	0.0177319
768.035	0.0174515
768.113	0.0173480
768.192	0.0173705
768.270	0.0174866
768.348	0.0171780
768.426	0.0172546
768.504	0.0172186
768.582	0.0172717
768.660	0.0172034
768.738	0.0171561
768.817	0.0172326
768.895	0.0171682
768.973	0.0171739
769.051	0.0171949
769.129	0.0172644
769.207	0.0172438
769.285	0.0174166
769.363	0.0173002
769.442	0.0173929
769.520	0.0173385
769.598	0.0174332
769.676	0.0173385
769.754	0.0174570
769.832	0.0173901
769.910	0.0174726
769.988	0.0175473
770.067	0.0174474
770.145	0.0174332
770.223	0.0175677
770.301	0.0176320
770.379	0.0175732
770.457	0.0175932
770.535	0.0177554
770.613	0.0176063
770.692	0.0176586
770.770	0.0175392
770.848	0.0176702
770.926	0.0175433
771.004	0.0175646
771.082	0.0175405
771.160	0.0175333
771.238	0.0177306
771.317	0.0176002
771.395	0.0174211
771.473	0.0175841
771.551	0.0174503
771.629	0.0173972
771.707	0.0174429
771.785	0.0176376
771.863	0.0175487
771.942	0.0175707
772.020	0.0176169
772.098	0.0174205
772.176	0.0175688
772.254	0.0175945
772.332	0.0174014
772.410	0.0174757
772.488	0.0174561
772.567	0.0173066
772.645	0.0173658
772.723	0.0171941
772.801	0.0173296
772.879	0.0172987
772.957	0.0173039
773.035	0.0172852
773.113	0.0175942
773.192	0.0174337
773.270	0.0174641
773.348	0.0175333
773.426	0.0175275
773.504	0.0176220
773.582	0.0176517
773.660	0.0175461
773.738	0.0175877
773.817	0.0176468
773.895	0.0175332
773.973	0.0177189
774.051	0.0175842
774.129	0.0175353
774.207	0.0175082
774.285	0.0175713
774.363	0.0174181
774.442	0.0174624
774.520	0.0173788
774.598	0.0175923
774.676	0.0173860
774.754	0.0172971
774.832	0.0171046
774.910	0.0172214
774.988	0.0172620
775.067	0.0172211
775.145	0.0173779
775.223	0.0173446
775.301	0.0172961
775.379	0.0171906
775.457	0.0171930
775.535	0.0172099
775.613	0.0173744
775.692	0.0171927
775.770	0.0173235
775.848	0.0173670
775.926	0.0174114
776.004	0.0173874
776.082	0.0174532
776.160	0.0175809
776.238	0.0174542
776.317	0.0174635
776.395	0.0177004
776.473	0.0176534
776.551	0.0175660
776.629	0.0174782
776.707	0.0176476
776.785	0.0175219
776.863	0.0174677
776.942	0.0175426
777.020	0.0174454
777.098	0.0175376
777.176	0.0174267
777.254	0.0173911
777.332	0.0173773
777.410	0.0173043
777.488	0.0173476
777.567	0.0172449
777.645	0.0170933
777.723	0.0172204
777.801	0.0173351
777.879	0.0174027
777.957	0.0172661
778.035	0.0173560
778.113	0.0174275
778.192	0.0174512
778.270	0.0174518
778.348	0.0173849
778.426	0.0174776
778.504	0.0175271
778.582	0.0174616
778.660	0.0175111
778.738	0.0175467
778.817	0.0175842
778.895	0.0176262
778.973	0.0176264
779.051	0.0176949
779.129	0.0177630
779.207	0.0178623
779.285	0.0176933
779.363	0.0176630
779.442	0.0176131
779.520	0.0178142
779.598	0.0178336
779.676	0.0178719
779.754	0.0177971
779.832	0.0177189
779.910	0.0177701
779.988	0.0175188
780.067	0.0176085
780.145	0.0175214
780.223	0.0174620
780.301	0.0172932
780.379	0.0171525
780.457	0.0170935
780.535	0.0171200
780.613	0.0170721
780.692	0.0168600
780.770	0.0170824
780.848	0.0169628
780.926	0.0169804
781.004	0.0170601
781.082	0.0170131
781.160	0.0171201
781.238	0.0173599
781.317	0.0172709
781.395	0.0173856
781.473	0.0175401
781.551	0.0176708
781.629	0.0177637
781.707	0.0178741
781.785	0.0180277
781.863	0.0181353
781.942	0.0180492
782.020	0.0180894
782.098	0.0181133
782.176	0.0181436
782.254	0.0181423
782.332	0.0181090
782.410	0.0179829
782.488	0.0181036
782.567	0.0178536
782.645	0.0177955
782.723	0.0175003
782.801	0.0174950
782.879	0.0174023
782.957	0.0172885
783.035	0.0170699
783.113	0.0168739
783.192	0.0168398
783.270	0.0166264
783.348	0.0165331
783.426	0.0165339
783.504	0.0164982
783.582	0.0163975
783.660	0.0165465
783.738	0.0165865
783.817	0.0164465
783.895	0.0165533
783.973	0.0166520
784.051	0.0169049
784.129	0.0170468
784.207	0.0172279
784.285	0.0175453
784.363	0.0175775
784.442	0.0180367
784.520	0.0181954
784.598	0.0184052
784.676	0.0186154
784.754	0.0186404
784.832	0.0188578
784.910	0.0187820
784.988	0.0187715
785.067	0.0187637
785.145	0.0185606
785.223	0.0184904
785.301	0.0182957
785.379	0.0182038
785.457	0.0180930
785.535	0.0179200
785.613	0.0177190
785.692	0.0174753
785.770	0.0171805
785.848	0.0171131
785.926	0.0170351
786.004	0.0168348
786.082	0.0167436
786.160	0.0166970
786.238	0.0166316
786.317	0.0164598
786.395	0.0165295
786.473	0.0164999
786.551	0.0163645
786.629	0.0164050
786.707	0.0165222
786.785	0.0164945
786.863	0.0167770
786.942	0.0169547
787.020	0.0171584
787.098	0.0172691
787.176	0.0172979
787.254	0.0174664
787.332	0.0176996
787.410	0.0178931
787.488	0.0180537
787.567	0.0182891
787.645	0.0183671
787.723	0.0185105
787.801	0.0185260
787.879	0.0184332
787.957	0.0185864
788.035	0.0185722
788.113	0.0186090
788.192	0.0183401
788.270	0.0184853
788.348	0.0182510
788.426	0.0181283
788.504	0.0179604
788.582	0.0179154
788.660	0.0178158
788.738	0.0177724
788.817	0.0177876
788.895	0.0175970
788.973	0.0175601
789.051	0.0173236
789.129	0.0171399
789.207	0.0172079
789.285	0.0170791
789.363	0.0169963
789.442	0.0167400
789.520	0.0168166
789.598	0.0165520
789.676	0.0164581
789.754	0.0165053
789.832	0.0162911
789.910	0.0164017
789.988	0.0163303
790.067	0.0163596
790.145	0.0163496
790.223	0.0165892
790.301	0.0165469
790.379	0.0166393
790.457	0.0166914
790.535	0.0167912
790.613	0.0168513
790.692	0.0168931
790.770	0.0171393
790.848	0.0171320
790.926	0.0172965
791.004	0.0174068
791.082	0.0175593
791.160	0.0176335
791.238	0.0178503
791.317	0.0178991
791.395	0.0181293
791.473	0.0179552
791.551	0.0183771
791.629	0.0182169
791.707	0.0182386
791.785	0.0182574
791.863	0.0184566
791.942	0.0183892
792.020	0.0184913
792.098	0.0184411
792.176	0.0185352
792.254	0.0184728
792.332	0.0184065
792.410	0.0184637
792.488	0.0183847
792.567	0.0182545
792.645	0.0183370
792.723	0.0181441
792.801	0.0181082
792.879	0.0178679
792.957	0.0176942
793.035	0.0177087
793.113	0.0177016
793.192	0.0174621
793.270	0.0173650
793.348	0.0173150
793.426	0.0172755
793.504	0.0170549
793.582	0.0169304
793.660	0.0169975
793.738	0.0169238
793.817	0.0168405
793.895	0.0168646
793.973	0.0167933
794.051	0.0167991
794.129	0.0166675
794.207	0.0166644
794.285	0.0166476
794.363	0.0167368
794.442	0.0167345
794.520	0.0168781
794.598	0.0169206
794.676	0.0168603
794.754	0.0170230
794.832	0.0171230
794.910	0.0171833
794.988	0.0173061
795.067	0.0173695
795.145	0.0174921
795.223	0.0173306
795.301	0.0175293
795.379	0.0177483
795.457	0.0177308
795.535	0.0176906
795.613	0.0175938
795.692	0.0177760
795.770	0.0177487
795.848	0.0177304
795.926	0.0175801
796.004	0.0176180
796.082	0.0175805
796.160	0.0176004
796.238	0.0176749
796.317	0.0176048
796.395	0.0175615
796.473	0.0175159
796.551	0.0175569
796.629	0.0174671
796.707	0.0175018
796.785	0.0175301
796.863	0.0175406
796.942	0.0175847
797.020	0.0176022
797.098	0.0176962
797.176	0.0175964
797.254	0.0175353
797.332	0.0176581
797.410	0.0177220
797.488	0.0176949
797.567	0.0177620
797.645	0.0177684
797.723	0.0177142
797.801	0.0177650
797.879	0.0177962
797.957	0.0176978
798.035	0.0176907
798.113	0.0177167
798.192	0.0175567
798.270	0.0175949
798.348	0.0175021
798.426	0.0174053
798.504	0.0173371
798.582	0.0172270
798.660	0.0171566
798.738	0.0171743
798.817	0.0169173
798.895	0.0170547
798.973	0.0169080
799.051	0.0169968
799.129	0.0169268
799.207	0.0168228
799.285	0.0169066
799.363	0.0169176
799.442	0.0170036
799.520	0.0170296
799.598	0.0170031
799.676	0.0173037
799.754	0.0172691
799.832	0.0173066
799.910	0.0172460
799.988	0.0174567
800.067	0.0175535
800.145	0.0176835
800.223	0.0177180
800.301	0.0178621
800.379	0.0179524
800.457	0.0179254
800.535	0.0178864
800.613	0.0178659
800.692	0.0179925
800.770	0.0180591
800.848	0.0179706
800.926	0.0178865
801.004	0.0178419
801.082	0.0178030
801.160	0.0176321
801.238	0.0176292
801.317	0.0176087
801.395	0.0175112
801.473	0.0174174
801.551	0.0174011
801.629	0.0174580
801.707	0.0173748
801.785	0.0173297
801.863	0.0173492
801.942	0.0173654
802.020	0.0173600
802.098	0.0171387
802.176	0.0172874
802.254	0.0172485
802.332	0.0173313
802.410	0.0172177
802.488	0.0173739
802.567	0.0174664
802.645	0.0173478
802.723	0.0174702
802.801	0.0173553
802.879	0.0174954
802.957	0.0174518
803.035	0.0174869
803.113	0.0175239
803.192	0.0174266
803.270	0.0176107
803.348	0.0176214
803.426	0.0175765
803.504	0.0175776
803.582	0.0174760
803.660	0.0174573
803.738	0.0174371
803.817	0.0176010
803.895	0.0172808
803.973	0.0171536
804.051	0.0172286
804.129	0.0172630
804.207	0.0172538
804.285	0.0172933
804.363	0.0173138
804.442	0.0171322
804.520	0.0172858
804.598	0.0171648
804.676	0.0171120
804.754	0.0172497
804.832	0.0171827
804.910	0.0173363
804.988	0.0171611
805.067	0.0172970
805.145	0.0172409
805.223	0.0172598
805.301	0.0173853
805.379	0.0173118
805.457	0.0174081
805.535	0.0171459
805.613	0.0173010
805.692	0.0174438
805.770	0.0173846
805.848	0.0173219
805.926	0.0174378
806.004	0.0173370
806.082	0.0174181
806.160	0.0176005
806.238	0.0175951
806.317	0.0176199
806.395	0.0177234
806.473	0.0178879
806.551	0.0179266
806.629	0.0177881
806.707	0.0178358
806.785	0.0178915
806.863	0.0180672
806.942	0.0179968
807.020	0.0179673
807.098	0.0179163
807.176	0.0179748
807.254	0.0179941
807.332	0.0179586
807.410	0.0179375
807.488	0.0179803
807.567	0.0179237
807.645	0.0179389
807.723	0.0178293
807.801	0.0178343
807.879	0.0176167
807.957	0.0176718
808.035	0.0174508
808.113	0.0174746
808.192	0.0173042
808.270	0.0171736
808.348	0.0171489
808.426	0.0172330
808.504	0.0171391
808.582	0.0171640
808.660	0.0169828
808.738	0.0169762
808.817	0.0169261
808.895	0.0169999
808.973	0.0169466
809.051	0.0170219
809.129	0.0170675
809.207	0.0170615
809.285	0.0171444
809.363	0.0172295
809.442	0.0171487
809.520	0.0172847
809.598	0.0172693
809.676	0.0171982
809.754	0.0173732
809.832	0.0175351
809.910	0.0174762
809.988	0.0173357
810.067	0.0172705
810.145	0.0173739
810.223	0.0175624
810.301	0.0174246
810.379	0.0173794
810.457	0.0174527
810.535	0.0174482
810.613	0.0175549
810.692	0.0176083
810.770	0.0174216
810.848	0.0173235
810.926	0.0175829
811.004	0.0176041
811.082	0.0173627
811.160	0.0174863
811.238	0.0175129
811.317	0.0174349
811.395	0.0173102
811.473	0.0174744
811.551	0.0174511
811.629	0.0173578
811.707	0.0174913
811.785	0.0173721
811.863	0.0175768
811.942	0.0175752
812.020	0.0176017
812.098	0.0177201
812.176	0.0177394
812.254	0.0179374
812.332	0.0178310
812.410	0.0178876
812.488	0.0179277
812.567	0.0179637
812.645	0.0180058
812.723	0.0179666
812.801	0.0178471
812.879	0.0178498
812.957	0.0178442
813.035	0.0178239
813.113	0.0177491
813.192	0.0177148
813.270	0.0175955
813.348	0.0176543
813.426	0.0175472
813.504	0.0174112
813.582	0.0173041
813.660	0.0172474
813.738	0.0171991
813.817	0.0170961
813.895	0.0169070
813.973	0.0169321
814.051	0.0168596
814.129	0.0169418
814.207	0.0168607
814.285	0.0168202
814.363	0.0168956
814.442	0.0168845
814.520	0.0169022
814.598	0.0169505
814.676	0.0169115
814.754	0.0170795
814.832	0.0173531
814.910	0.0174354
814.988	0.0174717
815.067	0.0175949
815.145	0.0175047
815.223	0.0177029
815.301	0.0177688
815.379	0.0177556
815.457	0.0178438
815.535	0.0180143
815.613	0.0177937
815.692	0.0178609
815.770	0.0179096
815.848	0.0179807
815.926	0.0178946
816.004	0.0179031
816.082	0.0176725
816.160	0.0177546
816.238	0.0176342
816.317	0.0175893
816.395	0.0175105
816.473	0.0175936
816.551	0.0172543
816.629	0.0173254
816.707	0.0173510
816.785	0.0173764
816.863	0.0173282
816.942	0.0171990
817.020	0.0172649
817.098	0.0172997
817.176	0.0173756
817.254	0.0174095
817.332	0.0174650
817.410	0.0174626
817.488	0.0175463
817.567	0.0177545
817.645	0.0176527
817.723	0.0178708
817.801	0.0178725
817.879	0.0179961
817.957	0.0180269
818.035	0.0180569
818.113	0.0181474
818.192	0.0179459
818.270	0.0180485
818.348	0.0180264
818.426	0.0178934
818.504	0.0178922
818.582	0.0179250
818.660	0.0178490
818.738	0.0176923
818.817	0.0175196
818.895	0.0173714
818.973	0.0172502
819.051	0.0171497
819.129	0.0169923
819.207	0.0167719
819.285	0.0166823
819.363	0.0166655
819.442	0.0165369
819.520	0.0166783
819.598	0.0165073
819.676	0.0165655
819.754	0.0164086
819.832	0.0165802
819.910	0.0168030
819.988	0.0168272
820.067	0.0168223
820.145	0.0170316
820.223	0.0170497
820.301	0.0173170
820.379	0.0173289
820.457	0.0172805
820.535	0.0174921
820.613	0.0176218
820.692	0.0177277
820.770	0.0178574
820.848	0.0179543
820.926	0.0180202
821.004	0.0180189
821.082	0.0180936
821.160	0.0181963
821.238	0.0179861
821.317	0.0181750
821.395	0.0181198
821.473	0.0182459
821.551	0.0180390
821.629	0.0179173
821.707	0.0177428
821.785	0.0176518
821.863	0.0177103
821.942	0.0177573
822.020	0.0174050
822.098	0.0175759
822.176	0.0176002
822.254	0.0173711
822.332	0.0173306
822.410	0.0174361
822.488	0.0172425
822.567	0.0171336
822.645	0.0172671
822.723	0.0173170
822.801	0.0172521
822.879	0.0173939
822.957	0.0173624
823.035	0.0174254
823.113	0.0173706
823.192	0.0175793
823.270	0.0175336
823.348	0.0175205
823.426	0.0176168
823.504	0.0176505
823.582	0.0176920
823.660	0.0175888
823.738	0.0178934
823.817	0.0178822
823.895	0.0178678
823.973	0.0179203
824.051	0.0177591
824.129	0.0177360
824.207	0.0176781
824.285	0.0176374
824.363	0.0176201
824.442	0.0175294
824.520	0.0175504
824.598	0.0174017
824.676	0.0174213
824.754	0.0174142
824.832	0.0173257
824.910	0.0173760
824.988	0.0173177
825.067	0.0172014
825.145	0.0171751
825.223	0.0172125
825.301	0.0171514
825.379	0.0170897
825.457	0.0171832
825.535	0.0171268
825.613	0.0171471
825.692	0.0172127
825.770	0.0171629
825.848	0.0172292
825.926	0.0172523
826.004	0.0172957
826.082	0.0173497
826.160	0.0172996
826.238	0.0172701
826.317	0.0173241
826.395	0.0173173
826.473	0.0173845
826.551	0.0173023
826.629	0.0172188
826.707	0.0172487
826.785	0.0173463
826.863	0.0174213
826.942	0.0174413
827.020	0.0171549
827.098	0.0173550
827.176	0.0175018
827.254	0.0173706
827.332	0.0174503
827.410	0.0175320
827.488	0.0173241
827.567	0.0174165
827.645	0.0174953
827.723	0.0175210
827.801	0.0175335
827.879	0.0175787
827.957	0.0174879
828.035	0.0175330
828.113	0.0174982
828.192	0.0176640
828.270	0.0176620
828.348	0.0177013
828.426	0.0176263
828.504	0.0175203
828.582	0.0176721
828.660	0.0177215
828.738	0.0177699
828.817	0.0175829
828.895	0.0176376
828.973	0.0177826
829.051	0.0176069
829.129	0.0178070
829.207	0.0175603
829.285	0.0176431
829.363	0.0175717
829.442	0.0176086
829.520	0.0176045
829.598	0.0177007
829.676	0.0175881
829.754	0.0174959
829.832	0.0175529
829.910	0.0176321
829.988	0.0175421
830.067	0.0176525
830.145	0.0176086
830.223	0.0177168
830.301	0.0177706
830.379	0.0177044
830.457	0.0176083
830.535	0.0176778
830.613	0.0176668
830.692	0.0175854
830.770	0.0175134
830.848	0.0174811
830.926	0.0175201
831.004	0.0172742
831.082	0.0173389
831.160	0.0173427
831.238	0.0172845
831.317	0.0172792
831.395	0.0173486
831.473	0.0172148
831.551	0.0171248
831.629	0.0170366
831.707	0.0170646
831.785	0.0170735
831.863	0.0170646
831.942	0.0169693
832.020	0.0171287
832.098	0.0170524
832.176	0.0171362
832.254	0.0171177
832.332	0.0171257
832.410	0.0172762
832.488	0.0170320
832.567	0.0172426
832.645	0.0172477
832.723	0.0173634
832.801	0.0173886
832.879	0.0174523
832.957	0.0173955
833.035	0.0174204
833.113	0.0175041
833.192	0.0176082
833.270	0.0177753
833.348	0.0176019
833.426	0.0177776
833.504	0.0178525
833.582	0.0177570
833.660	0.0178231
833.738	0.0179153
833.817	0.0178896
833.895	0.0178916
833.973	0.0177988
834.051	0.0180273
834.129	0.0177358
834.207	0.0177937
834.285	0.0177900
834.363	0.0178030
834.442	0.0179022
834.520	0.0178407
834.598	0.0178279
834.676	0.0176397
834.754	0.0177193
834.832	0.0178231
834.910	0.0176556
834.988	0.0177399
835.067	0.0175986
835.145	0.0176656
835.223	0.0176975
835.301	0.0176545
835.379	0.0175793
835.457	0.0176434
835.535	0.0175587
835.613	0.0174964
835.692	0.0174843
835.770	0.0176317
835.848	0.0174984
835.926	0.0173580
836.004	0.0173801
836.082	0.0173524
836.160	0.0173216
836.238	0.0173979
836.317	0.0173841
836.395	0.0173281
836.473	0.0171661
836.551	0.0172267
836.629	0.0172494
836.707	0.0171835
836.785	0.0171817
836.863	0.0171273
836.942	0.0170707
837.020	0.0171060
837.098	0.0173141
837.176	0.0173093
837.254	0.0173392
837.332	0.0172665
837.410	0.0173415
837.488	0.0173907
837.567	0.0175380
837.645	0.0174831
837.723	0.0174368
837.801	0.0174486
837.879	0.0176094
837.957	0.0174728
838.035	0.0175042
838.113	0.0176073
838.192	0.0176949
838.270	0.0176244
838.348	0.0176787
838.426	0.0177229
838.504	0.0175624
838.582	0.0176176
838.660	0.0174056
838.738	0.0175205
838.817	0.0175767
838.895	0.0175517
838.973	0.0175574
839.051	0.0175453
839.129	0.0174482
839.207	0.0175275
839.285	0.0175122
839.363	0.0175008
839.442	0.0174278
839.520	0.0175510
839.598	0.0174088
839.676	0.0172318
839.754	0.0174654
839.832	0.0174789
839.910	0.0174218
839.988	0.0174551
840.067	0.0173911
840.145	0.0173025
840.223	0.0173544
840.301	0.0174051
840.379	0.0174056
840.457	0.0174284
840.535	0.0173939
840.613	0.0174871
840.692	0.0175770
840.770	0.0175616
840.848	0.0173875
840.926	0.0175999
841.004	0.0175717
841.082	0.0176250
841.160	0.0175351
841.238	0.0176420
841.317	0.0176581
841.395	0.0175747
841.473	0.0177655
841.551	0.0177744
841.629	0.0177587
841.707	0.0177924
841.785	0.0178116
841.863	0.0177937
841.942	0.0176988
842.020	0.0178565
842.098	0.0177845
842.176	0.0177141
842.254	0.0177155
842.332	0.0177853
842.410	0.0176885
842.488	0.0176021
842.567	0.0175922
842.645	0.0176715
842.723	0.0177294
842.801	0.0176785
842.879	0.0176419
842.957	0.0176919
843.035	0.0176125
843.113	0.0174657
843.192	0.0174761
843.270	0.0174990
843.348	0.0174453
843.426	0.0175191
843.504	0.0174199
843.582	0.0173394
843.660	0.0172975
843.738	0.0173320
843.817	0.0171600
843.895	0.0171938
843.973	0.0171127
844.051	0.0172884
844.129	0.0171505
844.207	0.0171518
844.285	0.0171637
844.363	0.0172476
844.442	0.0170555
844.520	0.0170203
844.598	0.0173045
844.676	0.0172526
844.754	0.0172540
844.832	0.0172471
844.910	0.0172975
844.988	0.0175761
845.067	0.0174995
845.145	0.0173391
845.223	0.0175703
845.301	0.0175136
845.379	0.0174606
845.457	0.0174916
845.535	0.0176460
845.613	0.0175410
845.692	0.0172920
845.770	0.0174603
845.848	0.0175949
845.926	0.0174284
846.004	0.0174889
846.082	0.0175360
846.160	0.0174242
846.238	0.0174917
846.317	0.0174092
846.395	0.0176377
846.473	0.0175246
846.551	0.0175648
846.629	0.0176135
846.707	0.0175361
846.785	0.0175855
846.863	0.0176785
846.942	0.0176898
847.020	0.0174858
847.098	0.0176476
847.176	0.0176037
847.254	0.0176174
847.332	0.0175896
847.410	0.0176398
847.488	0.0178238
847.567	0.0177937
847.645	0.0176384
847.723	0.0177064
847.801	0.0178141
847.879	0.0177103
847.957	0.0177222
848.035	0.0178314
848.113	0.0177702
848.192	0.0177006
848.270	0.0178612
848.348	0.0176788
848.426	0.0178226
848.504	0.0177653
848.582	0.0177894
848.660	0.0177808
848.738	0.0176800
848.817	0.0176938
848.895	0.0174590
848.973	0.0176081
849.051	0.0175108
849.129	0.0174287
849.207	0.0174849
849.285	0.0173438
849.363	0.0173680
849.442	0.0173306
849.520	0.0172175
849.598	0.0174056
849.676	0.0172430
849.754	0.0172482
849.832	0.0172103
849.910	0.0171064
849.988	0.0170598
850.067	0.0171613
850.145	0.0171164
850.223	0.0169873
850.301	0.0172002
850.379	0.0171519
850.457	0.0171339
850.535	0.0171499
850.613	0.0172677
850.692	0.0172121
850.770	0.0172899
850.848	0.0172304
850.926	0.0172943
851.004	0.0173894
851.082	0.0174158
851.160	0.0173585
851.238	0.0172623
851.317	0.0173845
851.395	0.0175059
851.473	0.0175484
851.551	0.0175081
851.629	0.0174741
851.707	0.0175459
851.785	0.0174760
851.863	0.0175506
851.942	0.0177374
852.020	0.0176153
852.098	0.0175867
852.176	0.0176751
852.254	0.0176012
852.332	0.0176420
852.410	0.0176807
852.488	0.0177068
852.567	0.0177633
852.645	0.0177702
852.723	0.0177297
852.801	0.0176958
852.879	0.0177456
852.957	0.0176883
853.035	0.0177360
853.113	0.0176201
853.192	0.0177911
853.270	0.0176855
853.348	0.0177017
853.426	0.0177425
853.504	0.0176247
853.582	0.0175661
853.660	0.0176019
853.738	0.0176692
853.817	0.0175203
853.895	0.0175257
853.973	0.0176169
854.051	0.0175481
854.129	0.0175943
854.207	0.0175475
854.285	0.0176231
854.363	0.0175653
854.442	0.0175166
854.520	0.0176746
854.598	0.0174825
854.676	0.0175051
854.754	0.0175269
854.832	0.0175706
854.910	0.0175494
854.988	0.0174376
855.067	0.0175536
855.145	0.0174330
855.223	0.0175703
855.301	0.0174493
855.379	0.0174108
855.457	0.0174467
855.535	0.0173357
855.613	0.0173576
855.692	0.0173731
855.770	0.0172586
855.848	0.0172707
855.926	0.0172624
856.004	0.0172350
856.082	0.0171590
856.160	0.0172451
856.238	0.0172227
856.317	0.0173330
856.395	0.0174029
856.473	0.0173305
856.551	0.0173876
856.629	0.0173549
856.707	0.0174881
856.785	0.0175452
856.863	0.0173475
856.942	0.0174438
857.020	0.0174899
857.098	0.0176193
857.176	0.0174193
857.254	0.0174051
857.332	0.0174012
857.410	0.0174105
857.488	0.0173792
857.567	0.0173259
857.645	0.0173888
857.723	0.0173378
857.801	0.0172649
857.879	0.0172633
857.957	0.0173110
858.035	0.0174454
858.113	0.0172888
858.192	0.0173261
858.270	0.0173470
858.348	0.0174064
858.426	0.0173786
858.504	0.0174813
858.582	0.0174525
858.660	0.0175816
858.738	0.0174812
858.817	0.0174181
858.895	0.0175021
858.973	0.0176546
859.051	0.0174307
859.129	0.0174878
859.207	0.0173721
859.285	0.0175114
859.363	0.0176417
859.442	0.0175756
859.520	0.0175259
859.598	0.0175618
859.676	0.0173756
859.754	0.0173154
859.832	0.0175359
859.910	0.0175486
859.988	0.0176147
860.067	0.0174314
860.145	0.0175089
860.223	0.0176134
860.301	0.0174873
860.379	0.0175279
860.457	0.0174928
860.535	0.0173883
860.613	0.0173250
860.692	0.0174898
860.770	0.0175792
860.848	0.0175466
860.926	0.0173353
861.004	0.0173665
861.082	0.0175225
861.160	0.0175281
861.238	0.0173658
861.317	0.0175096
861.395	0.0174311
861.473	0.0176839
861.551	0.0174301
861.629	0.0175093
861.707	0.0174908
861.785	0.0176309
861.863	0.0175735
861.942	0.0175204
862.020	0.0176055
862.098	0.0176526
862.176	0.0176457
862.254	0.0176261
862.332	0.0176308
862.410	0.0175149
862.488	0.0175011
862.567	0.0174783
862.645	0.0175883
862.723	0.0175118
862.801	0.0173022
862.879	0.0173304
862.957	0.0175209
863.035	0.0173974
863.113	0.0173230
863.192	0.0173948
863.270	0.0173569
863.348	0.0173697
863.426	0.0173168
863.504	0.0173589
863.582	0.0174428
863.660	0.0174041
863.738	0.0174127
863.817	0.0173817
863.895	0.0174049
863.973	0.0175298
864.051	0.0174800
864.129	0.0172736
864.207	0.0173367
864.285	0.0174290
864.363	0.0175027
864.442	0.0175299
864.520	0.0175748
864.598	0.0175800
864.676	0.0174776
864.754	0.0175318
864.832	0.0174262
864.910	0.0174810
864.988	0.0175157
865.067	0.0174151
865.145	0.0174487
865.223	0.0174837
865.301	0.0174793
865.379	0.0174192
865.457	0.0172626
865.535	0.0173752
865.613	0.0174294
865.692	0.0173404
865.770	0.0173072
865.848	0.0172294
865.926	0.0173373
866.004	0.0172963
866.082	0.0172803
866.160	0.0173009
866.238	0.0173957
866.317	0.0172564
866.395	0.0172704
866.473	0.0171777
866.551	0.0174575
866.629	0.0174753
866.707	0.0174636
866.785	0.0174590
866.863	0.0173476
866.942	0.0175966
867.020	0.0175850
867.098	0.0175691
867.176	0.0175764
867.254	0.0176692
867.332	0.0176336
867.410	0.0175514
867.488	0.0176084
867.567	0.0177638
867.645	0.0177657
867.723	0.0175847
867.801	0.0176308
867.879	0.0176091
867.957	0.0176952
868.035	0.0177072
868.113	0.0176199
868.192	0.0176257
868.270	0.0176408
868.348	0.0177046
868.426	0.0177168
868.504	0.0176188
868.582	0.0177189
868.660	0.0175842
868.738	0.0175537
868.817	0.0174271
868.895	0.0175612
868.973	0.0174338
869.051	0.0173639
869.129	0.0173751
869.207	0.0173837
869.285	0.0172499
869.363	0.0171851
869.442	0.0172056
869.520	0.0172077
869.598	0.0172408
869.676	0.0170779
869.754	0.0171572
869.832	0.0170248
869.910	0.0172807
869.988	0.0173801
870.067	0.0174066
870.145	0.0173544
870.223	0.0172670
870.301	0.0173705
870.379	0.0175053
870.457	0.0175038
870.535	0.0175309
870.613	0.0174538
870.692	0.0174003
870.770	0.0174229
870.848	0.0175263
870.926	0.0176205
871.004	0.0175438
871.082	0.0175250
871.160	0.0176227
871.238	0.0176821
871.317	0.0176357
871.395	0.0176997
871.473	0.0178925
871.551	0.0174979
871.629	0.0174482
871.707	0.0176212
871.785	0.0176273
871.863	0.0174406
871.942	0.0175000
872.020	0.0173557
872.098	0.0174646
872.176	0.0175639
872.254	0.0174927
872.332	0.0173011
872.410	0.0173175
872.488	0.0174504
872.567	0.0174865
872.645	0.0173008
872.723	0.0173457
872.801	0.0173742
872.879	0.0173788
872.957	0.0174051
873.035	0.0173244
873.113	0.0173449
873.192	0.0172558
873.270	0.0173039
873.348	0.0172871
873.426	0.0173223
873.504	0.0172314
873.582	0.0172551
873.660	0.0173391
873.738	0.0171603
873.817	0.0171499
873.895	0.0171803
873.973	0.0173753
874.051	0.0172255
874.129	0.0172195
874.207	0.0172716
874.285	0.0173906
874.363	0.0174925
874.442	0.0175005
874.520	0.0176036
874.598	0.0176441
874.676	0.0178505
874.754	0.0179563
874.832	0.0179099
874.910	0.0178761
874.988	0.0178455
875.067	0.0178519
875.145	0.0178203
875.223	0.0176215
875.301	0.0176037
875.379	0.0175050
875.457	0.0173357
875.535	0.0173825
875.613	0.0172880
875.692	0.0172392
875.770	0.0171926
875.848	0.0170876
875.926	0.0170731
876.004	0.0170434
876.082	0.0172662
876.160	0.0172927
876.238	0.0171460
876.317	0.0172727
876.395	0.0173099
876.473	0.0175441
876.551	0.0175684
876.629	0.0173632
876.707	0.0174728
876.785	0.0175956
876.863	0.0176958
876.942	0.0176608
877.020	0.0177175
877.098	0.0177848
877.176	0.0178459
877.254	0.0179347
877.332	0.0180237
877.410	0.0180450
877.488	0.0180544
877.567	0.0179904
877.645	0.0180499
877.723	0.0180373
877.801	0.0178438
877.879	0.0178015
877.957	0.0175666
878.035	0.0174242
878.113	0.0171083
878.192	0.0169913
878.270	0.0168686
878.348	0.0166763
878.426	0.0164807
878.504	0.0164991
878.582	0.0164277
878.660	0.0164806
878.738	0.0165969
878.817	0.0166748
878.895	0.0167805
878.973	0.0168631
879.051	0.0171243
879.129	0.0174972
879.207	0.0176471
879.285	0.0177377
879.363	0.0180643
879.442	0.0181133
879.520	0.0179675
879.598	0.0182143
879.676	0.0183727
879.754	0.0184741
879.832	0.0186330
879.910	0.0185244
879.988	0.0185450
880.067	0.0186619
880.145	0.0185123
880.223	0.0185206
880.301	0.0182337
880.379	0.0180563
880.457	0.0178982
880.535	0.0175185
880.613	0.0175489
880.692	0.0172452
880.770	0.0169644
880.848	0.0169038
880.926	0.0166273
881.004	0.0161568
881.082	0.0161739
881.160	0.0160867
881.238	0.0160183
881.317	0.0160580
881.395	0.0160516
881.473	0.0159937
881.551	0.0160658
881.629	0.0161086
881.707	0.0162469
881.785	0.0165228
881.863	0.0166478
881.942	0.0169730
882.020	0.0172096
882.098	0.0174793
882.176	0.0176365
882.254	0.0179128
882.332	0.0180801
882.410	0.0183547
882.488	0.0184998
882.567	0.0186417
882.645	0.0187818
882.723	0.0189043
882.801	0.0189487
882.879	0.0190048
882.957	0.0189742
883.035	0.0190048
883.113	0.0187746
883.192	0.0187170
883.270	0.0184898
883.348	0.0182780
883.426	0.0180209
883.504	0.0177931
883.582	0.0174815
883.660	0.0173262
883.738	0.0169788
883.817	0.0167793
883.895	0.0165820
883.973	0.0165774
884.051	0.0165382
884.129	0.0163992
884.207	0.0164990
884.285	0.0165627
884.363	0.0166839
884.442	0.0166677
884.520	0.0168903
884.598	0.0169006
884.676	0.0168776
884.754	0.0170950
884.832	0.0171185
884.910	0.0172701
884.988	0.0171046
885.067	0.0172192
885.145	0.0173094
885.223	0.0173063
885.301	0.0173037
885.379	0.0173583
885.457	0.0172758
885.535	0.0173746
885.613	0.0175624
885.692	0.0174458
885.770	0.0175668
885.848	0.0175325
885.926	0.0175897
886.004	0.0177110
886.082	0.0177199
886.160	0.0176819
886.238	0.0177188
886.317	0.0176977
886.395	0.0177324
886.473	0.0176372
886.551	0.0176455
886.629	0.0174648
886.707	0.0175821
886.785	0.0175830
886.863	0.0174851
886.942	0.0174528
887.020	0.0176294
887.098	0.0175885
887.176	0.0175535
887.254	0.0174816
887.332	0.0175504
887.410	0.0176228
887.488	0.0175420
887.567	0.0176237
887.645	0.0176096
887.723	0.0176007
887.801	0.0176910
887.879	0.0175198
887.957	0.0175486
888.035	0.0175093
888.113	0.0174508
888.192	0.0174362
888.270	0.0172838
888.348	0.0173598
888.426	0.0173856
888.504	0.0174116
888.582	0.0171131
888.660	0.0172131
888.738	0.0172576
888.817	0.0171666
888.895	0.0172045
888.973	0.0171223
889.051	0.0172983
889.129	0.0172918
889.207	0.0171212
889.285	0.0170901
889.363	0.0171478
889.442	0.0170446
889.520	0.0171024
889.598	0.0171667
889.676	0.0170801
889.754	0.0170817
889.832	0.0171128
889.910	0.0172268
889.988	0.0173273
890.067	0.0175922
890.145	0.0176292
890.223	0.0176892
890.301	0.0177775
890.379	0.0177693
890.457	0.0180289
890.535	0.0180320
890.613	0.0180397
890.692	0.0180237
890.770	0.0181996
890.848	0.0181239
890.926	0.0180115
891.004	0.0180457
891.082	0.0180421
891.160	0.0178074
891.238	0.0175760
891.317	0.0177065
891.395	0.0175683
891.473	0.0172899
891.551	0.0173289
891.629	0.0171928
891.707	0.0171491
891.785	0.0171662
891.863	0.0173261
891.942	0.0172613
892.020	0.0172562
892.098	0.0172155
892.176	0.0172707
892.254	0.0172191
892.332	0.0173864
892.410	0.0173628
892.488	0.0174545
892.567	0.0174251
892.645	0.0174092
892.723	0.0176197
892.801	0.0173656
892.879	0.0175356
892.957	0.0174599
893.035	0.0174593
893.113	0.0174691
893.192	0.0173772
893.270	0.0175068
893.348	0.0173162
893.426	0.0175032
893.504	0.0174758
893.582	0.0173505
893.660	0.0173851
893.738	0.0174422
893.817	0.0174219
893.895	0.0174526
893.973	0.0174088
894.051	0.0175517
894.129	0.0175759
894.207	0.0173938
894.285	0.0174838
894.363	0.0172944
894.442	0.0174200
894.520	0.0174939
894.598	0.0174739
894.676	0.0173318
894.754	0.0175029
894.832	0.0175313
894.910	0.0173828
894.988	0.0174795
895.067	0.0175683
895.145	0.0176504
895.223	0.0176107
895.301	0.0176429
895.379	0.0177291
895.457	0.0177390
895.535	0.0177594
895.613	0.0177694
895.692	0.0177098
895.770	0.0178073
895.848	0.0177460
895.926	0.0176303
896.004	0.0176057
896.082	0.0175540
896.160	0.0174522
896.238	0.0173896
896.317	0.0173360
896.395	0.0173016
896.473	0.0171818
896.551	0.0172496
896.629	0.0172678
896.707	0.0172180
896.785	0.0171668
896.863	0.0171388
896.942	0.0171741
897.020	0.0173295
897.098	0.0173437
897.176	0.0173795
897.254	0.0173360
897.332	0.0173792
897.410	0.0172858
897.488	0.0171814
897.567	0.0173367
897.645	0.0174444
897.723	0.0173624
897.801	0.0173899
897.879	0.0175071
897.957	0.0173505
898.035	0.0174912
898.113	0.0175771
898.192	0.0175527
898.270	0.0177229
898.348	0.0177074
898.426	0.0176169
898.504	0.0177324
898.582	0.0176193
898.660	0.0176582
898.738	0.0176725
898.817	0.0176543
898.895	0.0176266
898.973	0.0175081
899.051	0.0174044
899.129	0.0173677
899.207	0.0172662
899.285	0.0172781
899.363	0.0173039
899.442	0.0171761
899.520	0.0170918
899.598	0.0171394
899.676	0.0171020
899.754	0.0171248
899.832	0.0172033
899.910	0.0172834
899.988	0.0173964
900.067	0.0173795
900.145	0.0173962
900.223	0.0176529
900.301	0.0177319
900.379	0.0176453
900.457	0.0176920
900.535	0.0176640
900.613	0.0178352
900.692	0.0178526
900.770	0.0179525
900.848	0.0177563
900.926	0.0177634
901.004	0.0178781
901.082	0.0178389
901.160	0.0178907
901.238	0.0178107
901.317	0.0176859
901.395	0.0177684
901.473	0.0176416
901.551	0.0177145
901.629	0.0175503
901.707	0.0175402
901.785	0.0174762
901.863	0.0173151
901.942	0.0172983
902.020	0.0173838
902.098	0.0171196
902.176	0.0170888
902.254	0.0171018
902.332	0.0170280
902.410	0.0171314
902.488	0.0169830
902.567	0.0170275
902.645	0.0171322
902.723	0.0169946
902.801	0.0172196
902.879	0.0173173
902.957	0.0174086
903.035	0.0175389
903.113	0.0175110
903.192	0.0176521
903.270	0.0178402
903.348	0.0177432
903.426	0.0176922
903.504	0.0177014
903.582	0.0176323
903.660	0.0177429
903.738	0.0177906
903.817	0.0176067
903.895	0.0177068
903.973	0.0177512
904.051	0.0176560
904.129	0.0177328
904.207	0.0177074
904.285	0.0177443
904.363	0.0177091
904.442	0.0175362
904.520	0.0176973
904.598	0.0175941
904.676	0.0175215
904.754	0.0174555
904.832	0.0176086
904.910	0.0174086
904.988	0.0174032
905.067	0.0175214
905.145	0.0173901
905.223	0.0174161
905.301	0.0174444
905.379	0.0174612
905.457	0.0174201
905.535	0.0173095
905.613	0.0174223
905.692	0.0173165
905.770	0.0174564
905.848	0.0174486
905.926	0.0172574
906.004	0.0176397
906.082	0.0174741
906.160	0.0173998
906.238	0.0174020
906.317	0.0172922
906.395	0.0173280
906.473	0.0174033
906.551	0.0172194
906.629	0.0173503
906.707	0.0172976
906.785	0.0172977
906.863	0.0173838
906.942	0.0173460
907.020	0.0171117
907.098	0.0172430
907.176	0.0172321
907.254	0.0172108
907.332	0.0173738
907.410	0.0174341
907.488	0.0173418
907.567	0.0173653
907.645	0.0173541
907.723	0.0174974
907.801	0.0175396
907.879	0.0173917
907.957	0.0176476
908.035	0.0175249
908.113	0.0175610
908.192	0.0175584
908.270	0.0175826
908.348	0.0175419
908.426	0.0175797
908.504	0.0175236
908.582	0.0177699
908.660	0.0176264
908.738	0.0176237
908.817	0.0176300
908.895	0.0177310
908.973	0.0176473
909.051	0.0178630
909.129	0.0177056
909.207	0.0177300
909.285	0.0177058
909.363	0.0178349
909.442	0.0178041
909.520	0.0177058
909.598	0.0177244
909.676	0.0176748
909.754	0.0175754
909.832	0.0175096
909.910	0.0175778
909.988	0.0175722
910.067	0.0174871
910.145	0.0174308
910.223	0.0173974
910.301	0.0174572
910.379	0.0173787
910.457	0.0173906
910.535	0.0172491
910.613	0.0172027
910.692	0.0172495
910.770	0.0171855
910.848	0.0172025
910.926	0.0169994
911.004	0.0172263
911.082	0.0171490
911.160	0.0172176
911.238	0.0170303
911.317	0.0170183
911.395	0.0170696
911.473	0.0170163
911.551	0.0172979
911.629	0.0171004
911.707	0.0172311
911.785	0.0172290
911.863	0.0172181
911.942	0.0173283
912.020	0.0173780
912.098	0.0175420
912.176	0.0175651
912.254	0.0175616
912.332	0.0177071
912.410	0.0175729
912.488	0.0177036
912.567	0.0178068
912.645	0.0178452
912.723	0.0178683
912.801	0.0179740
912.879	0.0179486
912.957	0.0178469
913.035	0.0178502
913.113	0.0178898
913.192	0.0177828
913.270	0.0177665
913.348	0.0176215
913.426	0.0176012
913.504	0.0176758
913.582	0.0175063
913.660	0.0173772
913.738	0.0173708
913.817	0.0172164
913.895	0.0173222
913.973	0.0173801
914.051	0.0173763
914.129	0.0174039
914.207	0.0173694
914.285	0.0172708
914.363	0.0172859
914.442	0.0173747
914.520	0.0176102
914.598	0.0174270
914.676	0.0173817
914.754	0.0174129
914.832	0.0174352
914.910	0.0174172
914.988	0.0174072
915.067	0.0173537
915.145	0.0174215
915.223	0.0174178
915.301	0.0174962
915.379	0.0175520
915.457	0.0175323
915.535	0.0173634
915.613	0.0174648
915.692	0.0174669
915.770	0.0174454
915.848	0.0173997
915.926	0.0174719
916.004	0.0175233
916.082	0.0172932
916.160	0.0174580
916.238	0.0175004
916.317	0.0174155
916.395	0.0174052
916.473	0.0174735
916.551	0.0175207
916.629	0.0175073
916.707	0.0175202
916.785	0.0174094
916.863	0.0174665
916.942	0.0175128
917.020	0.0174405
917.098	0.0175774
917.176	0.0175005
917.254	0.0174393
917.332	0.0176299
917.410	0.0176614
917.488	0.0177232
917.567	0.0176539
917.645	0.0176679
917.723	0.0176292
917.801	0.0176790
917.879	0.0177773
917.957	0.0178323
918.035	0.0177088
918.113	0.0176852
918.192	0.0179090
918.270	0.0178310
918.348	0.0177354
918.426	0.0179450
918.504	0.0178329
918.582	0.0177001
918.660	0.0178326
918.738	0.0176170
918.817	0.0175867
918.895	0.0175714
918.973	0.0175686
919.051	0.0175140
919.129	0.0174896
919.207	0.0172566
919.285	0.0173052
919.363	0.0172720
919.442	0.0173457
919.520	0.0173524
919.598	0.0171073
919.676	0.0171527
919.754	0.0171286
919.832	0.0172674
919.910	0.0173181
