05/24/2022	20:11:33	Ver.	4.1	UNKNOWN
Optical Delay	599.988409	Delta X		0.078125	Sweeps	1	Scan Rate	0/0
Coordinates	Axis 1	NaN	Axis 2	NaN	Axis 3	NaN	Axis 4	NaN	Axis 5	NaN	Axis 6	0.000000
TX Power	0.000000	RX Power	0.000000

599.988	0.0170781
600.067	0.0169949
600.145	0.0170435
600.223	0.0171259
600.301	0.0172686
600.379	0.0170872
600.457	0.0169905
600.535	0.0170314
600.613	0.0171181
600.692	0.0170640
600.770	0.0170871
600.848	0.0169999
600.926	0.0171336
601.004	0.0170860
601.082	0.0169250
601.160	0.0170262
601.238	0.0170576
601.317	0.0171166
601.395	0.0170106
601.473	0.0170951
601.551	0.0170261
601.629	0.0170938
601.707	0.0169896
601.785	0.0171183
601.863	0.0170901
601.942	0.0170721
602.020	0.0170629
602.098	0.0170594
602.176	0.0171284
602.254	0.0170783
602.332	0.0169440
602.410	0.0171030
602.488	0.0171372
602.567	0.0171187
602.645	0.0171120
602.723	0.0171067
602.801	0.0172070
602.879	0.0171423
602.957	0.0171558
603.035	0.0169891
603.113	0.0170280
603.192	0.0171755
603.270	0.0171262
603.348	0.0171590
603.426	0.0170415
603.504	0.0169913
603.582	0.0170888
603.660	0.0171453
603.738	0.0171715
603.817	0.0171054
603.895	0.0171349
603.973	0.0171172
604.051	0.0171591
604.129	0.0170776
604.207	0.0170636
604.285	0.0169814
604.363	0.0172633
604.442	0.0170706
604.520	0.0170094
604.598	0.0171408
604.676	0.0172016
604.754	0.0170760
604.832	0.0168941
604.910	0.0171734
604.988	0.0171523
605.067	0.0170458
605.145	0.0170224
605.223	0.0170050
605.301	0.0172270
605.379	0.0170680
605.457	0.0171482
605.535	0.0171555
605.613	0.0171828
605.692	0.0169822
605.770	0.0169890
605.848	0.0170737
605.926	0.0171396
606.004	0.0170492
606.082	0.0171764
606.160	0.0171180
606.238	0.0171381
606.317	0.0170255
606.395	0.0172337
606.473	0.0170085
606.551	0.0170280
606.629	0.0171442
606.707	0.0170670
606.785	0.0169056
606.863	0.0170981
606.942	0.0169957
607.020	0.0171325
607.098	0.0169076
607.176	0.0170606
607.254	0.0170647
607.332	0.0170417
607.410	0.0170755
607.488	0.0170682
607.567	0.0169912
607.645	0.0170052
607.723	0.0171841
607.801	0.0171892
607.879	0.0171365
607.957	0.0171207
608.035	0.0171881
608.113	0.0170825
608.192	0.0170969
608.270	0.0171417
608.348	0.0171738
608.426	0.0172641
608.504	0.0170955
608.582	0.0170210
608.660	0.0171928
608.738	0.0172144
608.817	0.0171186
608.895	0.0172380
608.973	0.0171632
609.051	0.0170770
609.129	0.0170570
609.207	0.0170985
609.285	0.0171656
609.363	0.0170402
609.442	0.0171023
609.520	0.0170700
609.598	0.0171159
609.676	0.0169925
609.754	0.0170766
609.832	0.0170765
609.910	0.0170136
609.988	0.0170384
610.067	0.0170498
610.145	0.0169115
610.223	0.0169446
610.301	0.0170424
610.379	0.0170056
610.457	0.0170795
610.535	0.0170698
610.613	0.0169759
610.692	0.0168596
610.770	0.0172041
610.848	0.0171081
610.926	0.0170453
611.004	0.0171147
611.082	0.0170331
611.160	0.0169843
611.238	0.0170574
611.317	0.0170961
611.395	0.0172842
611.473	0.0172422
611.551	0.0170614
611.629	0.0170885
611.707	0.0172337
611.785	0.0170886
611.863	0.0173151
611.942	0.0171022
612.020	0.0171313
612.098	0.0169832
612.176	0.0171572
612.254	0.0170131
612.332	0.0172576
612.410	0.0171185
612.488	0.0171333
612.567	0.0170567
612.645	0.0170663
612.723	0.0170886
612.801	0.0171580
612.879	0.0169952
612.957	0.0170402
613.035	0.0170322
613.113	0.0168771
613.192	0.0170426
613.270	0.0170122
613.348	0.0170784
613.426	0.0170210
613.504	0.0169460
613.582	0.0171099
613.660	0.0170589
613.738	0.0170926
613.817	0.0172631
613.895	0.0170309
613.973	0.0170669
614.051	0.0170680
614.129	0.0169994
614.207	0.0169328
614.285	0.0170887
614.363	0.0169804
614.442	0.0171530
614.520	0.0169684
614.598	0.0170429
614.676	0.0171011
614.754	0.0170401
614.832	0.0170354
614.910	0.0170753
614.988	0.0170589
615.067	0.0170403
615.145	0.0171836
615.223	0.0170861
615.301	0.0170759
615.379	0.0170976
615.457	0.0171091
615.535	0.0171571
615.613	0.0169154
615.692	0.0171008
615.770	0.0170712
615.848	0.0170351
615.926	0.0169541
616.004	0.0170674
616.082	0.0170924
616.160	0.0170167
616.238	0.0171149
616.317	0.0169300
616.395	0.0171120
616.473	0.0170107
616.551	0.0170435
616.629	0.0170499
616.707	0.0170718
616.785	0.0170747
616.863	0.0170844
616.942	0.0169930
617.020	0.0170901
617.098	0.0170567
617.176	0.0170003
617.254	0.0170930
617.332	0.0170219
617.410	0.0170515
617.488	0.0170287
617.567	0.0170544
617.645	0.0170061
617.723	0.0172082
617.801	0.0171151
617.879	0.0170816
617.957	0.0169630
618.035	0.0171357
618.113	0.0170535
618.192	0.0170649
618.270	0.0170985
618.348	0.0170157
618.426	0.0170799
618.504	0.0170563
618.582	0.0169646
618.660	0.0170596
618.738	0.0170279
618.817	0.0169526
618.895	0.0170918
618.973	0.0170088
619.051	0.0171030
619.129	0.0171471
619.207	0.0171157
619.285	0.0170876
619.363	0.0172041
619.442	0.0170551
619.520	0.0171198
619.598	0.0170778
619.676	0.0171038
619.754	0.0171669
619.832	0.0170959
619.910	0.0171144
619.988	0.0172031
620.067	0.0169604
620.145	0.0170381
620.223	0.0169926
620.301	0.0171299
620.379	0.0170568
620.457	0.0169815
620.535	0.0171111
620.613	0.0171481
620.692	0.0170010
620.770	0.0170306
620.848	0.0170629
620.926	0.0170916
621.004	0.0170588
621.082	0.0170206
621.160	0.0170232
621.238	0.0170560
621.317	0.0170116
621.395	0.0170599
621.473	0.0171431
621.551	0.0171075
621.629	0.0170316
621.707	0.0171348
621.785	0.0169693
621.863	0.0169676
621.942	0.0171336
622.020	0.0170731
622.098	0.0170576
622.176	0.0170275
622.254	0.0169150
622.332	0.0171021
622.410	0.0170477
622.488	0.0171790
622.567	0.0170799
622.645	0.0170133
622.723	0.0171047
622.801	0.0170935
622.879	0.0170329
622.957	0.0170415
623.035	0.0169958
623.113	0.0170839
623.192	0.0169141
623.270	0.0170990
623.348	0.0171245
623.426	0.0170537
623.504	0.0169608
623.582	0.0171048
623.660	0.0171188
623.738	0.0171735
623.817	0.0171722
623.895	0.0171061
623.973	0.0169507
624.051	0.0171449
624.129	0.0171883
624.207	0.0169921
624.285	0.0169691
624.363	0.0170745
624.442	0.0171982
624.520	0.0170190
624.598	0.0170052
624.676	0.0171172
624.754	0.0170478
624.832	0.0171411
624.910	0.0171534
624.988	0.0171935
625.067	0.0170320
625.145	0.0170683
625.223	0.0171138
625.301	0.0170633
625.379	0.0171255
625.457	0.0170100
625.535	0.0170506
625.613	0.0171781
625.692	0.0172243
625.770	0.0170846
625.848	0.0171394
625.926	0.0170902
626.004	0.0170896
626.082	0.0170521
626.160	0.0170766
626.238	0.0170248
626.317	0.0171512
626.395	0.0170467
626.473	0.0168967
626.551	0.0171864
626.629	0.0170929
626.707	0.0169891
626.785	0.0171487
626.863	0.0170645
626.942	0.0170208
627.020	0.0170851
627.098	0.0170335
627.176	0.0170476
627.254	0.0170570
627.332	0.0169356
627.410	0.0169234
627.488	0.0171540
627.567	0.0171086
627.645	0.0170643
627.723	0.0169770
627.801	0.0171008
627.879	0.0172444
627.957	0.0170889
628.035	0.0170213
628.113	0.0170032
628.192	0.0170650
628.270	0.0169284
628.348	0.0169923
628.426	0.0170570
628.504	0.0171147
628.582	0.0169603
628.660	0.0170347
628.738	0.0170747
628.817	0.0170302
628.895	0.0170381
628.973	0.0169846
629.051	0.0171861
629.129	0.0169623
629.207	0.0170633
629.285	0.0170087
629.363	0.0170197
629.442	0.0170355
629.520	0.0172081
629.598	0.0170699
629.676	0.0169968
629.754	0.0171357
629.832	0.0170346
629.910	0.0172106
629.988	0.0170561
630.067	0.0170936
630.145	0.0170190
630.223	0.0169804
630.301	0.0171624
630.379	0.0170963
630.457	0.0169997
630.535	0.0170089
630.613	0.0169668
630.692	0.0170840
630.770	0.0169888
630.848	0.0170737
630.926	0.0171837
631.004	0.0170760
631.082	0.0169260
631.160	0.0171162
631.238	0.0171314
631.317	0.0170429
631.395	0.0170647
631.473	0.0170349
631.551	0.0171659
631.629	0.0170511
631.707	0.0170575
631.785	0.0170560
631.863	0.0170713
631.942	0.0170404
632.020	0.0170044
632.098	0.0170901
632.176	0.0170097
632.254	0.0171172
632.332	0.0170247
632.410	0.0170767
632.488	0.0170339
632.567	0.0171761
632.645	0.0169458
632.723	0.0169083
632.801	0.0169866
632.879	0.0170674
632.957	0.0169934
633.035	0.0171178
633.113	0.0171165
633.192	0.0168340
633.270	0.0170589
633.348	0.0169807
633.426	0.0169478
633.504	0.0171310
633.582	0.0170898
633.660	0.0170210
633.738	0.0169991
633.817	0.0170569
633.895	0.0170993
633.973	0.0170439
634.051	0.0170142
634.129	0.0169893
634.207	0.0171243
634.285	0.0172078
634.363	0.0171030
634.442	0.0171438
634.520	0.0169329
634.598	0.0170782
634.676	0.0170732
634.754	0.0171590
634.832	0.0170167
634.910	0.0170188
634.988	0.0170307
635.067	0.0171840
635.145	0.0171713
635.223	0.0170539
635.301	0.0170475
635.379	0.0170695
635.457	0.0170801
635.535	0.0170269
635.613	0.0170781
635.692	0.0171066
635.770	0.0171082
635.848	0.0170689
635.926	0.0170045
636.004	0.0171002
636.082	0.0169645
636.160	0.0170412
636.238	0.0170474
636.317	0.0170412
636.395	0.0170679
636.473	0.0170753
636.551	0.0171663
636.629	0.0172083
636.707	0.0170522
636.785	0.0170155
636.863	0.0170890
636.942	0.0169595
637.020	0.0170837
637.098	0.0171185
637.176	0.0171471
637.254	0.0170692
637.332	0.0170628
637.410	0.0169546
637.488	0.0170755
637.567	0.0172719
637.645	0.0171275
637.723	0.0168846
637.801	0.0170815
637.879	0.0169893
637.957	0.0170560
638.035	0.0172064
638.113	0.0171608
638.192	0.0171149
638.270	0.0171088
638.348	0.0171813
638.426	0.0171096
638.504	0.0171114
638.582	0.0171138
638.660	0.0170489
638.738	0.0170186
638.817	0.0170387
638.895	0.0170957
638.973	0.0171095
639.051	0.0170747
639.129	0.0170909
639.207	0.0171513
639.285	0.0169632
639.363	0.0171858
639.442	0.0170622
639.520	0.0171655
639.598	0.0169758
639.676	0.0170857
639.754	0.0168635
639.832	0.0170367
639.910	0.0169490
639.988	0.0171114
640.067	0.0170620
640.145	0.0170387
640.223	0.0169142
640.301	0.0169235
640.379	0.0171075
640.457	0.0170705
640.535	0.0169081
640.613	0.0171940
640.692	0.0171256
640.770	0.0170983
640.848	0.0170030
640.926	0.0170098
641.004	0.0169467
641.082	0.0170289
641.160	0.0170840
641.238	0.0170313
641.317	0.0170155
641.395	0.0172339
641.473	0.0171019
641.551	0.0171591
641.629	0.0170986
641.707	0.0172096
641.785	0.0171456
641.863	0.0172321
641.942	0.0171940
642.020	0.0170820
642.098	0.0170518
642.176	0.0172326
642.254	0.0172136
642.332	0.0170934
642.410	0.0170933
642.488	0.0171430
642.567	0.0171384
642.645	0.0170155
642.723	0.0169317
642.801	0.0170316
642.879	0.0171090
642.957	0.0169930
643.035	0.0170013
643.113	0.0170699
643.192	0.0170845
643.270	0.0171514
643.348	0.0171212
643.426	0.0171966
643.504	0.0169798
643.582	0.0170619
643.660	0.0170055
643.738	0.0170753
643.817	0.0171484
643.895	0.0170574
643.973	0.0171277
644.051	0.0170202
644.129	0.0169107
644.207	0.0171526
644.285	0.0171218
644.363	0.0170387
644.442	0.0170531
644.520	0.0172387
644.598	0.0170259
644.676	0.0169630
644.754	0.0170631
644.832	0.0171490
644.910	0.0170344
644.988	0.0170433
645.067	0.0170614
645.145	0.0171396
645.223	0.0172098
645.301	0.0170499
645.379	0.0170084
645.457	0.0170921
645.535	0.0168776
645.613	0.0170338
645.692	0.0171900
645.770	0.0171064
645.848	0.0170458
645.926	0.0172199
646.004	0.0171439
646.082	0.0171456
646.160	0.0170995
646.238	0.0170580
646.317	0.0170498
646.395	0.0171710
646.473	0.0171540
646.551	0.0170613
646.629	0.0171142
646.707	0.0170837
646.785	0.0171025
646.863	0.0170779
646.942	0.0170258
647.020	0.0170158
647.098	0.0171374
647.176	0.0171950
647.254	0.0170910
647.332	0.0171198
647.410	0.0168731
647.488	0.0169823
647.567	0.0171024
647.645	0.0171458
647.723	0.0170107
647.801	0.0172517
647.879	0.0171736
647.957	0.0171568
648.035	0.0170648
648.113	0.0169530
648.192	0.0169440
648.270	0.0171210
648.348	0.0170573
648.426	0.0170701
648.504	0.0169878
648.582	0.0169545
648.660	0.0171247
648.738	0.0170525
648.817	0.0169978
648.895	0.0170934
648.973	0.0171272
649.051	0.0169910
649.129	0.0170551
649.207	0.0170300
649.285	0.0170676
649.363	0.0170943
649.442	0.0171215
649.520	0.0170573
649.598	0.0169321
649.676	0.0171270
649.754	0.0170975
649.832	0.0170568
649.910	0.0170130
649.988	0.0170683
650.067	0.0171185
650.145	0.0169568
650.223	0.0170657
650.301	0.0171745
650.379	0.0170725
650.457	0.0171432
650.535	0.0170760
650.613	0.0171374
650.692	0.0170491
650.770	0.0169223
650.848	0.0170402
650.926	0.0170135
651.004	0.0170672
651.082	0.0170482
651.160	0.0169434
651.238	0.0169939
651.317	0.0169963
651.395	0.0169933
651.473	0.0169933
651.551	0.0170787
651.629	0.0169857
651.707	0.0171371
651.785	0.0169309
651.863	0.0169258
651.942	0.0170429
652.020	0.0171556
652.098	0.0170171
652.176	0.0170882
652.254	0.0169820
652.332	0.0170367
652.410	0.0171215
652.488	0.0170480
652.567	0.0170284
652.645	0.0169762
652.723	0.0169778
652.801	0.0168970
652.879	0.0170213
652.957	0.0168923
653.035	0.0168630
653.113	0.0169233
653.192	0.0171693
653.270	0.0170542
653.348	0.0169187
653.426	0.0170542
653.504	0.0169595
653.582	0.0169328
653.660	0.0171199
653.738	0.0172304
653.817	0.0168510
653.895	0.0170509
653.973	0.0171171
654.051	0.0169733
654.129	0.0169963
654.207	0.0170039
654.285	0.0169950
654.363	0.0170642
654.442	0.0169851
654.520	0.0170438
654.598	0.0170882
654.676	0.0169528
654.754	0.0169291
654.832	0.0170369
654.910	0.0170138
654.988	0.0170889
655.067	0.0169669
655.145	0.0170083
655.223	0.0170585
655.301	0.0169102
655.379	0.0170777
655.457	0.0171802
655.535	0.0170721
655.613	0.0170159
655.692	0.0169752
655.770	0.0170139
655.848	0.0171461
655.926	0.0170280
656.004	0.0169847
656.082	0.0169477
656.160	0.0171661
656.238	0.0170516
656.317	0.0170082
656.395	0.0170358
656.473	0.0171317
656.551	0.0171617
656.629	0.0170927
656.707	0.0170604
656.785	0.0170399
656.863	0.0170502
656.942	0.0170097
657.020	0.0169563
657.098	0.0170518
657.176	0.0169498
657.254	0.0170457
657.332	0.0171523
657.410	0.0169783
657.488	0.0169459
657.567	0.0171017
657.645	0.0169654
657.723	0.0170077
657.801	0.0170378
657.879	0.0170482
657.957	0.0169289
658.035	0.0170969
658.113	0.0169992
658.192	0.0171925
658.270	0.0170476
658.348	0.0170181
658.426	0.0172193
658.504	0.0170671
658.582	0.0171706
658.660	0.0171581
658.738	0.0170815
658.817	0.0170508
658.895	0.0171137
658.973	0.0172115
659.051	0.0171387
659.129	0.0169577
659.207	0.0170592
659.285	0.0171358
659.363	0.0170207
659.442	0.0171067
659.520	0.0171567
659.598	0.0172530
659.676	0.0171508
659.754	0.0172367
659.832	0.0170869
659.910	0.0170373
659.988	0.0170313
660.067	0.0170673
660.145	0.0172223
660.223	0.0170536
660.301	0.0170567
660.379	0.0171335
660.457	0.0171821
660.535	0.0170842
660.613	0.0170656
660.692	0.0170419
660.770	0.0170627
660.848	0.0170493
660.926	0.0171680
661.004	0.0171733
661.082	0.0171030
661.160	0.0169472
661.238	0.0171086
661.317	0.0170659
661.395	0.0171291
661.473	0.0170919
661.551	0.0171602
661.629	0.0169990
661.707	0.0172068
661.785	0.0172720
661.863	0.0170908
661.942	0.0171505
662.020	0.0169923
662.098	0.0170922
662.176	0.0169614
662.254	0.0171140
662.332	0.0170050
662.410	0.0169942
662.488	0.0170364
662.567	0.0170534
662.645	0.0170345
662.723	0.0170972
662.801	0.0171297
662.879	0.0170156
662.957	0.0170902
663.035	0.0170873
663.113	0.0171247
663.192	0.0171126
663.270	0.0171689
663.348	0.0170983
663.426	0.0170905
663.504	0.0171244
663.582	0.0170498
663.660	0.0171615
663.738	0.0171456
663.817	0.0170633
663.895	0.0170335
663.973	0.0171496
664.051	0.0170721
664.129	0.0169572
664.207	0.0170291
664.285	0.0171850
664.363	0.0171934
664.442	0.0170819
664.520	0.0170953
664.598	0.0170167
664.676	0.0169611
664.754	0.0171858
664.832	0.0171103
664.910	0.0170513
664.988	0.0170724
665.067	0.0170319
665.145	0.0170881
665.223	0.0171701
665.301	0.0170558
665.379	0.0170590
665.457	0.0170224
665.535	0.0171307
665.613	0.0170413
665.692	0.0169985
665.770	0.0171208
665.848	0.0170791
665.926	0.0170644
666.004	0.0170470
666.082	0.0170434
666.160	0.0171035
666.238	0.0171028
666.317	0.0170471
666.395	0.0171027
666.473	0.0170525
666.551	0.0171201
666.629	0.0170601
666.707	0.0169497
666.785	0.0168670
666.863	0.0170266
666.942	0.0169742
667.020	0.0171085
667.098	0.0169921
667.176	0.0168221
667.254	0.0171588
667.332	0.0170339
667.410	0.0170767
667.488	0.0170961
667.567	0.0172041
667.645	0.0169794
667.723	0.0170107
667.801	0.0169563
667.879	0.0169151
667.957	0.0170149
668.035	0.0170667
668.113	0.0171678
668.192	0.0170326
668.270	0.0170536
668.348	0.0170283
668.426	0.0170388
668.504	0.0170880
668.582	0.0170444
668.660	0.0171164
668.738	0.0170864
668.817	0.0169732
668.895	0.0170799
668.973	0.0170382
669.051	0.0170857
669.129	0.0169742
669.207	0.0171021
669.285	0.0171796
669.363	0.0169415
669.442	0.0169946
669.520	0.0171022
669.598	0.0169512
669.676	0.0169443
669.754	0.0170765
669.832	0.0171098
669.910	0.0170224
669.988	0.0170699
670.067	0.0170444
670.145	0.0170918
670.223	0.0170377
670.301	0.0170858
670.379	0.0171679
670.457	0.0171265
670.535	0.0170074
670.613	0.0170428
670.692	0.0170797
670.770	0.0170541
670.848	0.0170903
670.926	0.0170734
671.004	0.0170745
671.082	0.0170995
671.160	0.0170145
671.238	0.0171400
671.317	0.0169201
671.395	0.0170388
671.473	0.0169836
671.551	0.0169650
671.629	0.0170072
671.707	0.0171575
671.785	0.0171152
671.863	0.0168954
671.942	0.0170988
672.020	0.0170467
672.098	0.0170898
672.176	0.0171259
672.254	0.0171961
672.332	0.0170735
672.410	0.0169464
672.488	0.0172230
672.567	0.0172099
672.645	0.0170312
672.723	0.0169815
672.801	0.0170518
672.879	0.0169508
672.957	0.0170033
673.035	0.0171449
673.113	0.0170284
673.192	0.0170632
673.270	0.0169218
673.348	0.0172112
673.426	0.0171603
673.504	0.0170065
673.582	0.0169848
673.660	0.0170365
673.738	0.0170345
673.817	0.0171725
673.895	0.0170354
673.973	0.0170282
674.051	0.0170370
674.129	0.0170679
674.207	0.0169839
674.285	0.0171187
674.363	0.0169535
674.442	0.0170214
674.520	0.0169115
674.598	0.0168238
674.676	0.0169093
674.754	0.0169654
674.832	0.0170525
674.910	0.0169829
674.988	0.0170335
675.067	0.0170619
675.145	0.0170035
675.223	0.0167757
675.301	0.0170501
675.379	0.0170585
675.457	0.0169015
675.535	0.0169855
675.613	0.0171024
675.692	0.0171494
675.770	0.0169682
675.848	0.0169063
675.926	0.0171243
676.004	0.0172608
676.082	0.0172389
676.160	0.0171457
676.238	0.0172356
676.317	0.0171662
676.395	0.0170673
676.473	0.0172254
676.551	0.0172193
676.629	0.0172423
676.707	0.0171588
676.785	0.0172143
676.863	0.0171920
676.942	0.0172764
677.020	0.0171143
677.098	0.0172063
677.176	0.0171814
677.254	0.0171399
677.332	0.0171768
677.410	0.0170610
677.488	0.0170392
677.567	0.0168237
677.645	0.0170163
677.723	0.0168008
677.801	0.0167069
677.879	0.0167755
677.957	0.0168269
678.035	0.0166448
678.113	0.0165208
678.192	0.0166248
678.270	0.0163507
678.348	0.0164644
678.426	0.0165160
678.504	0.0164825
678.582	0.0165524
678.660	0.0165385
678.738	0.0164920
678.817	0.0166107
678.895	0.0169105
678.973	0.0169318
679.051	0.0169229
679.129	0.0171158
679.207	0.0174385
679.285	0.0174688
679.363	0.0174697
679.442	0.0175211
679.520	0.0176857
679.598	0.0177309
679.676	0.0180059
679.754	0.0179758
679.832	0.0179677
679.910	0.0180640
679.988	0.0180508
680.067	0.0180951
680.145	0.0181227
680.223	0.0181204
680.301	0.0180226
680.379	0.0178610
680.457	0.0176026
680.535	0.0174944
680.613	0.0172359
680.692	0.0169968
680.770	0.0167174
680.848	0.0166967
680.926	0.0164994
681.004	0.0162847
681.082	0.0162189
681.160	0.0161160
681.238	0.0162203
681.317	0.0160670
681.395	0.0160580
681.473	0.0159560
681.551	0.0161310
681.629	0.0161221
681.707	0.0164471
681.785	0.0166359
681.863	0.0167947
681.942	0.0171155
682.020	0.0173172
682.098	0.0173857
682.176	0.0173795
682.254	0.0175015
682.332	0.0174965
682.410	0.0171372
682.488	0.0167595
682.567	0.0165533
682.645	0.0162714
682.723	0.0159334
682.801	0.0156898
682.879	0.0154906
682.957	0.0154662
683.035	0.0153906
683.113	0.0156558
683.192	0.0157368
683.270	0.0160326
683.348	0.0161227
683.426	0.0163784
683.504	0.0163871
683.582	0.0165878
683.660	0.0166056
683.738	0.0167964
683.817	0.0169469
683.895	0.0172371
683.973	0.0174588
684.051	0.0177638
684.129	0.0181835
684.207	0.0186484
684.285	0.0191534
684.363	0.0197708
684.442	0.0203136
684.520	0.0209164
684.598	0.0218304
684.676	0.0225376
684.754	0.0229984
684.832	0.0235325
684.910	0.0238330
684.988	0.0238673
685.067	0.0237012
685.145	0.0232081
685.223	0.0224478
685.301	0.0213965
685.379	0.0198766
685.457	0.0183659
685.535	0.0165108
685.613	0.0146345
685.692	0.0127337
685.770	0.0107675
685.848	0.00908836
685.926	0.00766518
686.004	0.00662956
686.082	0.00590782
686.160	0.00547211
686.238	0.00544670
686.317	0.00573029
686.395	0.00652565
686.473	0.00734474
686.551	0.00841911
686.629	0.00961662
686.707	0.0108160
686.785	0.0121899
686.863	0.0134431
686.942	0.0147269
687.020	0.0163077
687.098	0.0176177
687.176	0.0190708
687.254	0.0205440
687.332	0.0220258
687.410	0.0234470
687.488	0.0249293
687.567	0.0262707
687.645	0.0273727
687.723	0.0285152
687.801	0.0292151
687.879	0.0298354
687.957	0.0302979
688.035	0.0305115
688.113	0.0303159
688.192	0.0298187
688.270	0.0293443
688.348	0.0284369
688.426	0.0271629
688.504	0.0258405
688.582	0.0244287
688.660	0.0223817
688.738	0.0200894
688.817	0.0176090
688.895	0.0149194
688.973	0.0123221
689.051	0.00947998
689.129	0.00697388
689.207	0.00443436
689.285	0.00234070
689.363	0.000389633
689.442	-0.000975647
689.520	-0.00188217
689.598	-0.00211609
689.676	-0.00202827
689.754	-0.00108688
689.832	0.000193863
689.910	0.00176697
689.988	0.00411545
690.067	0.00667389
690.145	0.00936096
690.223	0.0123122
690.301	0.0149760
690.379	0.0177319
690.457	0.0204210
690.535	0.0228837
690.613	0.0251205
690.692	0.0270008
690.770	0.0286427
690.848	0.0298263
690.926	0.0308064
691.004	0.0314229
691.082	0.0320804
691.160	0.0319392
691.238	0.0319460
691.317	0.0316825
691.395	0.0311343
691.473	0.0304005
691.551	0.0297153
691.629	0.0287526
691.707	0.0277180
691.785	0.0264813
691.863	0.0251073
691.942	0.0236643
692.020	0.0218653
692.098	0.0200932
692.176	0.0181800
692.254	0.0160424
692.332	0.0137663
692.410	0.0115290
692.488	0.00936852
692.567	0.00701515
692.645	0.00510750
692.723	0.00348671
692.801	0.00180840
692.879	0.000720367
692.957	-0.0000299835
693.035	-0.000478516
693.113	-0.000506516
693.192	-0.000175705
693.270	0.000499573
693.348	0.00142952
693.426	0.00302109
693.504	0.00479630
693.582	0.00694359
693.660	0.00951294
693.738	0.0121117
693.817	0.0148282
693.895	0.0177163
693.973	0.0206672
694.051	0.0233054
694.129	0.0258954
694.207	0.0281018
694.285	0.0298825
694.363	0.0312706
694.442	0.0323526
694.520	0.0329452
694.598	0.0327470
694.676	0.0322241
694.754	0.0314088
694.832	0.0301553
694.910	0.0286849
694.988	0.0271626
695.067	0.0254993
695.145	0.0239165
695.223	0.0225782
695.301	0.0211314
695.379	0.0200168
695.457	0.0189929
695.535	0.0181083
695.613	0.0172841
695.692	0.0166971
695.770	0.0157957
695.848	0.0151746
695.926	0.0144945
696.004	0.0138280
696.082	0.0129930
696.160	0.0121572
696.238	0.0112534
696.317	0.0104037
696.395	0.00974648
696.473	0.00886742
696.551	0.00829994
696.629	0.00799286
696.707	0.00775299
696.785	0.00785347
696.863	0.00810371
696.942	0.00858162
697.020	0.00935371
697.098	0.0102531
697.176	0.0113045
697.254	0.0123102
697.332	0.0134689
697.410	0.0146414
697.488	0.0157742
697.567	0.0168900
697.645	0.0176342
697.723	0.0184664
697.801	0.0190162
697.879	0.0194959
697.957	0.0198361
698.035	0.0200990
698.113	0.0203608
698.192	0.0202951
698.270	0.0204802
698.348	0.0205742
698.426	0.0203649
698.504	0.0205226
698.582	0.0205885
698.660	0.0206006
698.738	0.0207154
698.817	0.0208895
698.895	0.0209863
698.973	0.0212070
699.051	0.0214755
699.129	0.0215553
699.207	0.0216784
699.285	0.0215265
699.363	0.0216099
699.442	0.0213869
699.520	0.0212614
699.598	0.0208479
699.676	0.0203922
699.754	0.0198306
699.832	0.0192335
699.910	0.0184731
699.988	0.0176519
700.067	0.0167697
700.145	0.0158683
700.223	0.0148676
700.301	0.0142329
700.379	0.0135485
700.457	0.0129591
700.535	0.0124680
700.613	0.0120743
700.692	0.0120745
700.770	0.0122368
700.848	0.0122579
700.926	0.0124544
701.004	0.0127913
701.082	0.0132434
701.160	0.0136636
701.238	0.0140353
701.317	0.0144266
701.395	0.0145424
701.473	0.0147698
701.551	0.0151433
701.629	0.0155267
701.707	0.0157323
701.785	0.0160249
701.863	0.0162583
701.942	0.0163633
702.020	0.0168069
702.098	0.0170124
702.176	0.0171365
702.254	0.0175960
702.332	0.0178307
702.410	0.0181104
702.488	0.0183499
702.567	0.0186140
702.645	0.0189021
702.723	0.0191464
702.801	0.0190465
702.879	0.0191203
702.957	0.0191099
703.035	0.0190385
703.113	0.0189087
703.192	0.0188663
703.270	0.0187332
703.348	0.0185624
703.426	0.0183142
703.504	0.0182085
703.582	0.0181668
703.660	0.0180431
703.738	0.0179658
703.817	0.0180825
703.895	0.0182183
703.973	0.0182219
704.051	0.0182468
704.129	0.0183375
704.207	0.0182332
704.285	0.0184566
704.363	0.0181279
704.442	0.0179161
704.520	0.0177529
704.598	0.0174989
704.676	0.0170359
704.754	0.0167493
704.832	0.0164179
704.910	0.0160397
704.988	0.0155927
705.067	0.0153040
705.145	0.0151492
705.223	0.0150060
705.301	0.0150148
705.379	0.0152142
705.457	0.0151643
705.535	0.0153920
705.613	0.0154894
705.692	0.0159575
705.770	0.0161243
705.848	0.0164196
705.926	0.0166073
706.004	0.0169379
706.082	0.0170904
706.160	0.0173957
706.238	0.0175926
706.317	0.0176808
706.395	0.0177151
706.473	0.0176498
706.551	0.0175895
706.629	0.0176638
706.707	0.0174935
706.785	0.0175122
706.863	0.0173072
706.942	0.0173007
707.020	0.0171767
707.098	0.0171894
707.176	0.0172296
707.254	0.0169298
707.332	0.0165636
707.410	0.0164183
707.488	0.0163610
707.567	0.0160334
707.645	0.0160552
707.723	0.0159478
707.801	0.0159936
707.879	0.0158835
707.957	0.0161193
708.035	0.0162482
708.113	0.0165455
708.192	0.0168076
708.270	0.0170849
708.348	0.0172890
708.426	0.0174894
708.504	0.0177199
708.582	0.0178338
708.660	0.0181422
708.738	0.0180832
708.817	0.0181258
708.895	0.0180673
708.973	0.0181413
709.051	0.0181206
709.129	0.0180961
709.207	0.0179011
709.285	0.0177432
709.363	0.0177590
709.442	0.0175352
709.520	0.0173022
709.598	0.0171103
709.676	0.0168630
709.754	0.0167517
709.832	0.0164722
709.910	0.0163949
709.988	0.0161900
710.067	0.0161630
710.145	0.0161512
710.223	0.0162675
710.301	0.0162821
710.379	0.0163509
710.457	0.0166252
710.535	0.0168082
710.613	0.0170634
710.692	0.0173357
710.770	0.0175957
710.848	0.0177986
710.926	0.0178508
711.004	0.0179506
711.082	0.0180403
711.160	0.0179906
711.238	0.0180728
711.317	0.0180957
711.395	0.0179155
711.473	0.0176459
711.551	0.0175188
711.629	0.0173035
711.707	0.0170989
711.785	0.0169379
711.863	0.0167668
711.942	0.0165608
712.020	0.0163811
712.098	0.0162348
712.176	0.0161330
712.254	0.0162030
712.332	0.0160124
712.410	0.0162070
712.488	0.0161982
712.567	0.0164160
712.645	0.0165127
712.723	0.0164467
712.801	0.0165874
712.879	0.0165965
712.957	0.0166041
713.035	0.0167643
713.113	0.0168520
713.192	0.0168980
713.270	0.0170157
713.348	0.0170236
713.426	0.0169790
713.504	0.0170377
713.582	0.0171360
713.660	0.0170668
713.738	0.0170723
713.817	0.0170301
713.895	0.0170974
713.973	0.0170552
714.051	0.0171499
714.129	0.0171316
714.207	0.0169872
714.285	0.0169743
714.363	0.0170763
714.442	0.0169772
714.520	0.0170433
714.598	0.0169978
714.676	0.0171329
714.754	0.0170585
714.832	0.0170744
714.910	0.0170790
714.988	0.0171557
715.067	0.0169112
715.145	0.0169726
715.223	0.0170462
715.301	0.0169419
715.379	0.0169256
715.457	0.0169683
715.535	0.0168430
715.613	0.0169321
715.692	0.0168244
715.770	0.0169857
715.848	0.0170023
715.926	0.0171561
716.004	0.0173447
716.082	0.0174075
716.160	0.0176199
716.238	0.0176163
716.317	0.0177870
716.395	0.0179192
716.473	0.0178836
716.551	0.0179807
716.629	0.0178850
716.707	0.0179408
716.785	0.0177107
716.863	0.0175298
716.942	0.0172047
717.020	0.0171124
717.098	0.0168015
717.176	0.0166804
717.254	0.0164887
717.332	0.0163252
717.410	0.0162566
717.488	0.0163974
717.567	0.0163853
717.645	0.0167549
717.723	0.0169126
717.801	0.0171103
717.879	0.0174812
717.957	0.0179199
718.035	0.0183478
718.113	0.0185699
718.192	0.0186646
718.270	0.0187419
718.348	0.0186848
718.426	0.0185172
718.504	0.0183695
718.582	0.0179550
718.660	0.0174764
718.738	0.0170622
718.817	0.0167559
718.895	0.0162460
718.973	0.0157569
719.051	0.0154055
719.129	0.0150542
719.207	0.0148833
719.285	0.0148675
719.363	0.0146857
719.442	0.0146938
719.520	0.0146652
719.598	0.0148745
719.676	0.0150871
719.754	0.0153249
719.832	0.0157227
719.910	0.0159496
719.988	0.0162292
720.067	0.0165703
720.145	0.0167854
720.223	0.0171312
720.301	0.0175179
720.379	0.0176110
720.457	0.0177827
720.535	0.0178217
720.613	0.0180462
720.692	0.0180450
720.770	0.0179742
720.848	0.0179337
720.926	0.0177935
721.004	0.0178126
721.082	0.0176582
721.160	0.0175462
721.238	0.0175445
721.317	0.0174823
721.395	0.0173492
721.473	0.0173354
721.551	0.0175164
721.629	0.0173090
721.707	0.0174504
721.785	0.0174271
721.863	0.0173913
721.942	0.0175066
722.020	0.0174998
722.098	0.0175423
722.176	0.0176791
722.254	0.0178062
722.332	0.0178143
722.410	0.0179041
722.488	0.0179161
722.567	0.0180589
722.645	0.0180764
722.723	0.0180573
722.801	0.0178671
722.879	0.0178255
722.957	0.0176913
723.035	0.0175360
723.113	0.0173885
723.192	0.0173165
723.270	0.0171727
723.348	0.0168858
723.426	0.0167517
723.504	0.0167905
723.582	0.0164767
723.660	0.0163554
723.738	0.0164601
723.817	0.0163339
723.895	0.0162483
723.973	0.0162614
724.051	0.0161754
724.129	0.0162612
724.207	0.0161435
724.285	0.0160895
724.363	0.0159219
724.442	0.0160245
724.520	0.0160391
724.598	0.0157964
724.676	0.0157907
724.754	0.0158617
724.832	0.0160690
724.910	0.0162252
724.988	0.0162576
725.067	0.0163802
725.145	0.0166076
725.223	0.0168141
725.301	0.0168597
725.379	0.0170344
725.457	0.0171254
725.535	0.0172728
725.613	0.0173022
725.692	0.0173103
725.770	0.0173562
725.848	0.0173415
725.926	0.0174405
726.004	0.0171661
726.082	0.0172742
726.160	0.0171953
726.238	0.0170953
726.317	0.0169930
726.395	0.0169700
726.473	0.0170080
726.551	0.0170879
726.629	0.0171989
726.707	0.0172643
726.785	0.0172188
726.863	0.0175298
726.942	0.0176160
727.020	0.0176980
727.098	0.0177692
727.176	0.0177907
727.254	0.0177670
727.332	0.0179687
727.410	0.0181017
727.488	0.0179633
727.567	0.0178532
727.645	0.0177377
727.723	0.0176489
727.801	0.0175095
727.879	0.0175437
727.957	0.0173640
728.035	0.0171788
728.113	0.0171870
728.192	0.0171059
728.270	0.0169293
728.348	0.0168165
728.426	0.0168830
728.504	0.0169080
728.582	0.0168552
728.660	0.0168243
728.738	0.0169661
728.817	0.0170052
728.895	0.0171436
728.973	0.0171046
729.051	0.0172010
729.129	0.0173105
729.207	0.0172080
729.285	0.0171635
729.363	0.0170792
729.442	0.0170043
729.520	0.0169456
729.598	0.0165765
729.676	0.0164758
729.754	0.0164375
729.832	0.0163210
729.910	0.0162833
729.988	0.0161980
730.067	0.0161925
730.145	0.0160586
730.223	0.0161510
730.301	0.0162205
730.379	0.0162946
730.457	0.0165215
730.535	0.0167381
730.613	0.0167635
730.692	0.0168982
730.770	0.0169648
730.848	0.0173287
730.926	0.0174429
731.004	0.0174471
731.082	0.0173887
731.160	0.0173700
731.238	0.0172924
731.317	0.0170100
731.395	0.0169949
731.473	0.0167366
731.551	0.0166138
731.629	0.0166480
731.707	0.0164593
731.785	0.0164789
731.863	0.0164152
731.942	0.0164938
732.020	0.0165193
732.098	0.0166763
732.176	0.0166937
732.254	0.0168745
732.332	0.0171403
732.410	0.0171776
732.488	0.0173376
732.567	0.0174746
732.645	0.0177489
732.723	0.0178171
732.801	0.0176882
732.879	0.0177195
732.957	0.0177456
733.035	0.0177762
733.113	0.0176722
733.192	0.0175994
733.270	0.0174655
733.348	0.0174986
733.426	0.0173147
733.504	0.0173294
733.582	0.0173555
733.660	0.0173644
733.738	0.0175198
733.817	0.0175232
733.895	0.0174935
733.973	0.0174616
734.051	0.0175122
734.129	0.0176382
734.207	0.0177149
734.285	0.0175220
734.363	0.0175221
734.442	0.0172550
734.520	0.0170331
734.598	0.0168989
734.676	0.0167805
734.754	0.0167487
734.832	0.0165776
734.910	0.0163170
734.988	0.0162533
735.067	0.0162779
735.145	0.0163795
735.223	0.0161813
735.301	0.0162045
735.379	0.0161770
735.457	0.0163879
735.535	0.0163764
735.613	0.0164021
735.692	0.0165737
735.770	0.0166774
735.848	0.0167465
735.926	0.0167403
736.004	0.0166761
736.082	0.0167841
736.160	0.0170126
736.238	0.0168747
736.317	0.0168768
736.395	0.0170193
736.473	0.0169054
736.551	0.0168965
736.629	0.0171270
736.707	0.0169807
736.785	0.0168184
736.863	0.0169132
736.942	0.0169397
737.020	0.0169874
737.098	0.0170171
737.176	0.0170831
737.254	0.0170220
737.332	0.0170148
737.410	0.0170429
737.488	0.0171979
737.567	0.0173399
737.645	0.0174563
737.723	0.0172720
737.801	0.0174335
737.879	0.0176162
737.957	0.0174927
738.035	0.0175594
738.113	0.0174673
738.192	0.0175922
738.270	0.0173540
738.348	0.0175097
738.426	0.0172614
738.504	0.0172054
738.582	0.0172279
738.660	0.0170262
738.738	0.0169733
738.817	0.0168990
738.895	0.0169207
738.973	0.0169343
739.051	0.0168983
739.129	0.0170524
739.207	0.0171239
739.285	0.0170731
739.363	0.0170654
739.442	0.0171051
739.520	0.0171133
739.598	0.0172237
739.676	0.0171087
739.754	0.0171841
739.832	0.0174114
739.910	0.0173256
739.988	0.0171003
740.067	0.0171766
740.145	0.0170895
740.223	0.0169918
740.301	0.0169720
740.379	0.0167419
740.457	0.0166974
740.535	0.0166654
740.613	0.0165508
740.692	0.0165353
740.770	0.0164055
740.848	0.0166043
740.926	0.0164768
741.004	0.0165916
741.082	0.0168153
741.160	0.0167587
741.238	0.0168832
741.317	0.0169729
741.395	0.0168929
741.473	0.0172213
741.551	0.0172060
741.629	0.0172681
741.707	0.0172414
741.785	0.0172662
741.863	0.0172878
741.942	0.0172433
742.020	0.0170458
742.098	0.0172348
742.176	0.0171984
742.254	0.0169225
742.332	0.0168787
742.410	0.0169045
742.488	0.0167422
742.567	0.0167986
742.645	0.0167363
742.723	0.0167522
742.801	0.0168974
742.879	0.0170232
742.957	0.0169054
743.035	0.0169547
743.113	0.0171171
743.192	0.0171875
743.270	0.0171499
743.348	0.0173129
743.426	0.0172640
743.504	0.0172356
743.582	0.0174521
743.660	0.0175721
743.738	0.0176798
743.817	0.0176358
743.895	0.0175951
743.973	0.0174973
744.051	0.0176716
744.129	0.0175836
744.207	0.0175082
744.285	0.0174387
744.363	0.0175007
744.442	0.0173940
744.520	0.0174809
744.598	0.0173329
744.676	0.0171928
744.754	0.0172046
744.832	0.0171323
744.910	0.0170695
744.988	0.0170296
745.067	0.0168410
745.145	0.0168587
745.223	0.0170192
745.301	0.0167148
745.379	0.0166845
745.457	0.0166036
745.535	0.0165866
745.613	0.0165910
745.692	0.0164214
745.770	0.0163849
745.848	0.0164952
745.926	0.0165627
746.004	0.0165855
746.082	0.0166116
746.160	0.0165863
746.238	0.0167832
746.317	0.0168827
746.395	0.0169838
746.473	0.0170963
746.551	0.0171432
746.629	0.0171678
746.707	0.0172600
746.785	0.0173483
746.863	0.0173047
746.942	0.0171786
747.020	0.0172271
747.098	0.0173412
747.176	0.0172349
747.254	0.0170952
747.332	0.0170831
747.410	0.0170062
747.488	0.0169910
747.567	0.0170362
747.645	0.0170696
747.723	0.0170721
747.801	0.0169407
747.879	0.0171328
747.957	0.0172089
748.035	0.0172806
748.113	0.0173804
748.192	0.0173416
748.270	0.0174393
748.348	0.0175356
748.426	0.0177090
748.504	0.0177492
748.582	0.0176506
748.660	0.0177594
748.738	0.0175143
748.817	0.0174902
748.895	0.0176175
748.973	0.0176313
749.051	0.0174994
749.129	0.0173985
749.207	0.0173817
749.285	0.0173236
749.363	0.0172291
749.442	0.0171177
749.520	0.0169870
749.598	0.0170067
749.676	0.0169408
749.754	0.0168928
749.832	0.0169051
749.910	0.0168409
749.988	0.0167218
750.067	0.0167658
750.145	0.0165811
750.223	0.0166277
750.301	0.0166056
750.379	0.0166577
750.457	0.0167480
750.535	0.0165163
750.613	0.0165071
750.692	0.0166919
750.770	0.0167649
750.848	0.0166034
750.926	0.0167428
751.004	0.0168874
751.082	0.0166875
751.160	0.0168172
751.238	0.0169395
751.317	0.0167583
751.395	0.0168943
751.473	0.0170038
751.551	0.0169986
751.629	0.0169242
751.707	0.0171594
751.785	0.0170195
751.863	0.0171219
751.942	0.0173007
752.020	0.0171341
752.098	0.0172493
752.176	0.0173746
752.254	0.0173939
752.332	0.0172186
752.410	0.0173553
752.488	0.0174263
752.567	0.0174167
752.645	0.0174028
752.723	0.0174529
752.801	0.0173201
752.879	0.0173895
752.957	0.0174746
753.035	0.0172434
753.113	0.0174240
753.192	0.0172921
753.270	0.0172474
753.348	0.0172642
753.426	0.0172253
753.504	0.0172160
753.582	0.0171694
753.660	0.0173021
753.738	0.0174432
753.817	0.0173754
753.895	0.0172781
753.973	0.0172501
754.051	0.0172673
754.129	0.0173106
754.207	0.0172240
754.285	0.0172098
754.363	0.0173026
754.442	0.0172719
754.520	0.0171546
754.598	0.0171318
754.676	0.0170167
754.754	0.0170251
754.832	0.0168308
754.910	0.0166307
754.988	0.0166955
755.067	0.0167934
755.145	0.0167010
755.223	0.0166809
755.301	0.0165890
755.379	0.0164665
755.457	0.0164204
755.535	0.0163943
755.613	0.0165192
755.692	0.0166897
755.770	0.0165290
755.848	0.0167886
755.926	0.0169604
756.004	0.0169759
756.082	0.0169762
756.160	0.0169125
756.238	0.0169640
756.317	0.0171540
756.395	0.0171546
756.473	0.0170876
756.551	0.0170750
756.629	0.0170197
756.707	0.0170931
756.785	0.0170225
756.863	0.0170692
756.942	0.0171355
757.020	0.0169595
757.098	0.0168479
757.176	0.0169913
757.254	0.0168554
757.332	0.0169388
757.410	0.0169674
757.488	0.0170393
757.567	0.0171345
757.645	0.0170912
757.723	0.0172388
757.801	0.0172419
757.879	0.0172692
757.957	0.0173906
758.035	0.0173296
758.113	0.0172237
758.192	0.0173814
758.270	0.0174047
758.348	0.0173986
758.426	0.0174062
758.504	0.0173699
758.582	0.0172692
758.660	0.0174152
758.738	0.0172147
758.817	0.0171873
758.895	0.0171693
758.973	0.0171706
759.051	0.0172271
759.129	0.0171709
759.207	0.0170210
759.285	0.0170890
759.363	0.0171049
759.442	0.0172366
759.520	0.0170448
759.598	0.0170430
759.676	0.0170872
759.754	0.0171139
759.832	0.0168972
759.910	0.0170045
759.988	0.0169131
760.067	0.0169936
760.145	0.0168398
760.223	0.0167542
760.301	0.0168666
760.379	0.0167155
760.457	0.0167044
760.535	0.0166637
760.613	0.0164005
760.692	0.0166488
760.770	0.0166328
760.848	0.0165145
760.926	0.0165682
761.004	0.0165108
761.082	0.0166731
761.160	0.0168436
761.238	0.0166827
761.317	0.0169479
761.395	0.0168018
761.473	0.0167381
761.551	0.0167823
761.629	0.0169495
761.707	0.0168569
761.785	0.0169823
761.863	0.0168315
761.942	0.0167255
762.020	0.0169106
762.098	0.0169477
762.176	0.0168871
762.254	0.0170108
762.332	0.0169814
762.410	0.0169616
762.488	0.0170076
762.567	0.0171230
762.645	0.0171638
762.723	0.0171666
762.801	0.0170573
762.879	0.0172883
762.957	0.0171722
763.035	0.0172299
763.113	0.0173491
763.192	0.0173522
763.270	0.0173776
763.348	0.0172350
763.426	0.0172402
763.504	0.0172639
763.582	0.0173436
763.660	0.0172691
763.738	0.0173637
763.817	0.0171722
763.895	0.0171246
763.973	0.0171313
764.051	0.0172327
764.129	0.0171661
764.207	0.0172009
764.285	0.0171442
764.363	0.0170834
764.442	0.0171999
764.520	0.0171173
764.598	0.0172092
764.676	0.0169699
764.754	0.0169234
764.832	0.0169482
764.910	0.0167924
764.988	0.0167998
765.067	0.0166463
765.145	0.0167973
765.223	0.0166710
765.301	0.0166438
765.379	0.0167055
765.457	0.0165559
765.535	0.0166984
765.613	0.0167300
765.692	0.0166163
765.770	0.0167924
765.848	0.0167840
765.926	0.0168357
766.004	0.0169547
766.082	0.0169779
766.160	0.0169092
766.238	0.0171346
766.317	0.0171559
766.395	0.0170964
766.473	0.0172720
766.551	0.0172264
766.629	0.0172626
766.707	0.0172567
766.785	0.0173537
766.863	0.0174884
766.942	0.0174812
767.020	0.0172841
767.098	0.0174267
767.176	0.0173449
767.254	0.0173603
767.332	0.0174659
767.410	0.0173684
767.488	0.0174680
767.567	0.0172236
767.645	0.0172843
767.723	0.0172845
767.801	0.0173179
767.879	0.0173557
767.957	0.0169904
768.035	0.0170855
768.113	0.0170526
768.192	0.0170303
768.270	0.0171011
768.348	0.0168187
768.426	0.0168632
768.504	0.0167777
768.582	0.0168198
768.660	0.0168808
768.738	0.0166898
768.817	0.0168092
768.895	0.0165873
768.973	0.0166055
769.051	0.0167332
769.129	0.0167831
769.207	0.0168054
769.285	0.0167944
769.363	0.0169344
769.442	0.0167179
769.520	0.0168605
769.598	0.0167953
769.676	0.0168715
769.754	0.0170623
769.832	0.0169742
769.910	0.0170775
769.988	0.0169913
770.067	0.0171198
770.145	0.0171291
770.223	0.0171383
770.301	0.0173499
770.379	0.0171692
770.457	0.0172935
770.535	0.0173997
770.613	0.0173351
770.692	0.0172637
770.770	0.0172894
770.848	0.0171980
770.926	0.0171042
771.004	0.0172581
771.082	0.0172840
771.160	0.0171371
771.238	0.0170184
771.317	0.0170744
771.395	0.0171189
771.473	0.0171217
771.551	0.0170372
771.629	0.0169930
771.707	0.0170618
771.785	0.0170845
771.863	0.0169266
771.942	0.0170601
772.020	0.0172740
772.098	0.0170490
772.176	0.0171501
772.254	0.0171931
772.332	0.0172516
772.410	0.0172545
772.488	0.0172234
772.567	0.0171755
772.645	0.0171759
772.723	0.0171904
772.801	0.0171576
772.879	0.0169773
772.957	0.0172411
773.035	0.0172387
773.113	0.0172401
773.192	0.0170560
773.270	0.0170734
773.348	0.0171761
773.426	0.0171800
773.504	0.0170849
773.582	0.0171497
773.660	0.0169794
773.738	0.0169270
773.817	0.0170092
773.895	0.0170200
773.973	0.0168948
774.051	0.0169167
774.129	0.0169962
774.207	0.0169141
774.285	0.0167211
774.363	0.0167574
774.442	0.0168684
774.520	0.0167860
774.598	0.0168012
774.676	0.0166208
774.754	0.0166672
774.832	0.0168214
774.910	0.0167385
774.988	0.0167838
775.067	0.0167674
775.145	0.0168537
775.223	0.0167686
775.301	0.0168122
775.379	0.0168082
775.457	0.0169540
775.535	0.0170173
775.613	0.0171178
775.692	0.0170002
775.770	0.0170598
775.848	0.0170103
775.926	0.0170943
776.004	0.0170409
776.082	0.0168616
776.160	0.0170025
776.238	0.0170521
776.317	0.0170503
776.395	0.0169640
776.473	0.0169641
776.551	0.0171533
776.629	0.0170978
776.707	0.0170885
776.785	0.0171353
776.863	0.0171169
776.942	0.0171217
777.020	0.0171988
777.098	0.0171988
777.176	0.0173049
777.254	0.0171002
777.332	0.0173604
777.410	0.0172760
777.488	0.0173476
777.567	0.0173016
777.645	0.0173224
777.723	0.0174483
777.801	0.0174361
777.879	0.0172079
777.957	0.0172823
778.035	0.0172489
778.113	0.0173431
778.192	0.0173689
778.270	0.0173555
778.348	0.0172038
778.426	0.0170105
778.504	0.0172018
778.582	0.0173332
778.660	0.0172060
778.738	0.0170627
778.817	0.0171117
778.895	0.0171021
778.973	0.0170280
779.051	0.0170283
779.129	0.0170728
779.207	0.0169083
779.285	0.0169675
779.363	0.0168813
779.442	0.0168395
779.520	0.0168380
779.598	0.0167995
779.676	0.0167741
779.754	0.0167315
779.832	0.0167673
779.910	0.0166951
779.988	0.0167461
780.067	0.0166917
780.145	0.0166825
780.223	0.0167329
780.301	0.0169019
780.379	0.0168986
780.457	0.0169311
780.535	0.0170255
780.613	0.0172474
780.692	0.0171262
780.770	0.0172971
780.848	0.0172768
780.926	0.0173901
781.004	0.0175127
781.082	0.0175892
781.160	0.0173847
781.238	0.0174118
781.317	0.0175096
781.395	0.0174060
781.473	0.0173234
781.551	0.0174719
781.629	0.0172459
781.707	0.0170705
781.785	0.0170122
781.863	0.0170329
781.942	0.0167432
782.020	0.0167590
782.098	0.0164876
782.176	0.0164034
782.254	0.0164391
782.332	0.0163082
782.410	0.0161478
782.488	0.0161063
782.567	0.0161170
782.645	0.0159917
782.723	0.0159425
782.801	0.0160330
782.879	0.0160862
782.957	0.0161330
783.035	0.0162104
783.113	0.0162301
783.192	0.0163088
783.270	0.0164237
783.348	0.0166730
783.426	0.0168405
783.504	0.0169385
783.582	0.0171082
783.660	0.0173619
783.738	0.0175870
783.817	0.0177264
783.895	0.0180054
783.973	0.0181161
784.051	0.0181145
784.129	0.0183283
784.207	0.0185390
784.285	0.0183787
784.363	0.0183678
784.442	0.0184357
784.520	0.0183846
784.598	0.0185704
784.676	0.0183806
784.754	0.0183697
784.832	0.0184026
784.910	0.0179407
784.988	0.0180537
785.067	0.0178685
785.145	0.0176369
785.223	0.0174427
785.301	0.0171526
785.379	0.0168697
785.457	0.0166772
785.535	0.0165364
785.613	0.0161268
785.692	0.0160342
785.770	0.0158739
785.848	0.0154635
785.926	0.0155267
786.004	0.0153432
786.082	0.0152158
786.160	0.0153020
786.238	0.0153637
786.317	0.0153559
786.395	0.0156609
786.473	0.0157009
786.551	0.0157244
786.629	0.0160233
786.707	0.0163035
786.785	0.0164510
786.863	0.0166695
786.942	0.0170071
787.020	0.0171295
787.098	0.0172951
787.176	0.0176158
787.254	0.0177087
787.332	0.0177557
787.410	0.0179926
787.488	0.0179830
787.567	0.0181365
787.645	0.0182079
787.723	0.0182625
787.801	0.0183346
787.879	0.0181731
787.957	0.0182101
788.035	0.0181630
788.113	0.0179078
788.192	0.0178709
788.270	0.0179115
788.348	0.0175826
788.426	0.0174551
788.504	0.0172571
788.582	0.0168619
788.660	0.0167709
788.738	0.0167538
788.817	0.0163158
788.895	0.0162582
788.973	0.0159343
789.051	0.0160159
789.129	0.0159320
789.207	0.0156865
789.285	0.0158359
789.363	0.0159241
789.442	0.0158785
789.520	0.0159976
789.598	0.0160749
789.676	0.0159310
789.754	0.0160787
789.832	0.0163070
789.910	0.0163162
789.988	0.0163838
790.067	0.0167482
790.145	0.0166814
790.223	0.0168275
790.301	0.0170522
790.379	0.0171449
790.457	0.0173743
790.535	0.0173962
790.613	0.0174383
790.692	0.0176533
790.770	0.0178001
790.848	0.0177284
790.926	0.0177475
791.004	0.0178724
791.082	0.0179017
791.160	0.0178588
791.238	0.0177897
791.317	0.0177422
791.395	0.0179070
791.473	0.0177564
791.551	0.0178559
791.629	0.0178954
791.707	0.0177522
791.785	0.0177841
791.863	0.0177171
791.942	0.0176013
792.020	0.0176295
792.098	0.0176743
792.176	0.0174281
792.254	0.0171959
792.332	0.0173105
792.410	0.0171506
792.488	0.0171413
792.567	0.0168935
792.645	0.0168374
792.723	0.0167367
792.801	0.0167680
792.879	0.0164331
792.957	0.0164536
793.035	0.0165594
793.113	0.0166345
793.192	0.0165289
793.270	0.0164848
793.348	0.0165118
793.426	0.0165504
793.504	0.0166556
793.582	0.0165125
793.660	0.0163575
793.738	0.0163851
793.817	0.0165769
793.895	0.0165694
793.973	0.0165656
794.051	0.0164371
794.129	0.0164684
794.207	0.0164798
794.285	0.0164297
794.363	0.0163784
794.442	0.0164587
794.520	0.0165644
794.598	0.0164381
794.676	0.0166369
794.754	0.0167299
794.832	0.0167645
794.910	0.0167998
794.988	0.0169025
795.067	0.0171095
795.145	0.0171268
795.223	0.0171926
795.301	0.0171589
795.379	0.0174122
795.457	0.0175112
795.535	0.0174413
795.613	0.0175940
795.692	0.0177028
795.770	0.0177633
795.848	0.0177711
795.926	0.0176278
796.004	0.0176166
796.082	0.0176427
796.160	0.0177292
796.238	0.0175470
796.317	0.0174553
796.395	0.0173455
796.473	0.0174150
796.551	0.0171637
796.629	0.0172832
796.707	0.0170855
796.785	0.0170267
796.863	0.0171367
796.942	0.0170694
797.020	0.0170159
797.098	0.0170396
797.176	0.0173644
797.254	0.0173020
797.332	0.0171479
797.410	0.0171507
797.488	0.0172208
797.567	0.0172858
797.645	0.0171416
797.723	0.0170159
797.801	0.0171136
797.879	0.0171161
797.957	0.0170500
798.035	0.0169856
798.113	0.0167775
798.192	0.0167677
798.270	0.0166872
798.348	0.0167177
798.426	0.0164688
798.504	0.0166909
798.582	0.0166501
798.660	0.0166058
798.738	0.0165308
798.817	0.0166849
798.895	0.0167386
798.973	0.0167956
799.051	0.0167352
799.129	0.0168476
799.207	0.0169833
799.285	0.0170387
799.363	0.0170884
799.442	0.0172187
799.520	0.0171391
799.598	0.0172350
799.676	0.0172334
799.754	0.0174949
799.832	0.0174138
799.910	0.0173586
799.988	0.0173937
800.067	0.0174639
800.145	0.0174973
800.223	0.0175211
800.301	0.0176299
800.379	0.0174336
800.457	0.0174593
800.535	0.0173724
800.613	0.0174232
800.692	0.0173493
800.770	0.0173013
800.848	0.0172347
800.926	0.0170628
801.004	0.0171764
801.082	0.0170076
801.160	0.0169700
801.238	0.0170007
801.317	0.0169543
801.395	0.0167931
801.473	0.0167599
801.551	0.0165629
801.629	0.0166273
801.707	0.0165278
801.785	0.0165404
801.863	0.0164709
801.942	0.0165330
802.020	0.0165597
802.098	0.0165995
802.176	0.0167168
802.254	0.0167754
802.332	0.0168651
802.410	0.0169390
802.488	0.0168386
802.567	0.0168946
802.645	0.0169523
802.723	0.0170800
802.801	0.0171751
802.879	0.0172440
802.957	0.0172369
803.035	0.0173849
803.113	0.0172210
803.192	0.0171521
803.270	0.0171241
803.348	0.0172687
803.426	0.0171264
803.504	0.0171928
803.582	0.0169716
803.660	0.0169493
803.738	0.0168937
803.817	0.0169085
803.895	0.0169640
803.973	0.0169095
804.051	0.0169313
804.129	0.0169845
804.207	0.0169437
804.285	0.0169196
804.363	0.0170494
804.442	0.0169852
804.520	0.0170728
804.598	0.0171492
804.676	0.0171345
804.754	0.0172165
804.832	0.0170539
804.910	0.0172024
804.988	0.0171641
805.067	0.0171635
805.145	0.0171562
805.223	0.0170547
805.301	0.0171809
805.379	0.0172368
805.457	0.0171378
805.535	0.0169279
805.613	0.0171151
805.692	0.0170778
805.770	0.0170973
805.848	0.0169991
805.926	0.0169065
806.004	0.0169967
806.082	0.0170825
806.160	0.0169963
806.238	0.0169099
806.317	0.0170879
806.395	0.0169111
806.473	0.0170110
806.551	0.0170855
806.629	0.0170724
806.707	0.0171790
806.785	0.0171291
806.863	0.0171484
806.942	0.0172527
807.020	0.0172874
807.098	0.0171923
807.176	0.0172667
807.254	0.0172146
807.332	0.0172455
807.410	0.0173235
807.488	0.0171810
807.567	0.0172488
807.645	0.0172533
807.723	0.0171487
807.801	0.0170836
807.879	0.0170261
807.957	0.0169368
808.035	0.0169849
808.113	0.0170178
808.192	0.0169951
808.270	0.0168929
808.348	0.0170311
808.426	0.0168607
808.504	0.0168576
808.582	0.0168733
808.660	0.0169966
808.738	0.0170528
808.817	0.0171576
808.895	0.0172166
808.973	0.0171862
809.051	0.0172231
809.129	0.0172099
809.207	0.0172573
809.285	0.0172697
809.363	0.0172156
809.442	0.0171558
809.520	0.0172716
809.598	0.0172591
809.676	0.0171243
809.754	0.0169912
809.832	0.0169587
809.910	0.0170272
809.988	0.0170455
810.067	0.0168049
810.145	0.0167670
810.223	0.0166679
810.301	0.0166225
810.379	0.0167545
810.457	0.0166931
810.535	0.0167067
810.613	0.0167294
810.692	0.0166059
810.770	0.0166226
810.848	0.0167522
810.926	0.0168197
811.004	0.0168376
811.082	0.0168138
811.160	0.0168842
811.238	0.0169144
811.317	0.0169408
811.395	0.0169785
811.473	0.0170237
811.551	0.0170470
811.629	0.0171526
811.707	0.0171803
811.785	0.0171777
811.863	0.0172702
811.942	0.0172987
812.020	0.0176002
812.098	0.0173740
812.176	0.0175067
812.254	0.0175924
812.332	0.0175457
812.410	0.0176424
812.488	0.0175675
812.567	0.0174937
812.645	0.0175853
812.723	0.0175410
812.801	0.0175977
812.879	0.0175870
812.957	0.0174464
813.035	0.0174925
813.113	0.0174709
813.192	0.0174122
813.270	0.0173863
813.348	0.0172674
813.426	0.0171924
813.504	0.0171003
813.582	0.0170880
813.660	0.0169917
813.738	0.0170115
813.817	0.0169263
813.895	0.0169122
813.973	0.0168800
814.051	0.0168727
814.129	0.0169650
814.207	0.0168540
814.285	0.0169152
814.363	0.0169108
814.442	0.0169099
814.520	0.0169841
814.598	0.0171119
814.676	0.0171530
814.754	0.0170934
814.832	0.0170742
814.910	0.0170634
814.988	0.0170975
815.067	0.0170764
815.145	0.0170274
815.223	0.0169431
815.301	0.0169080
815.379	0.0170177
815.457	0.0169016
815.535	0.0168384
815.613	0.0166895
815.692	0.0166312
815.770	0.0166003
815.848	0.0167457
815.926	0.0167104
816.004	0.0165254
816.082	0.0165993
816.160	0.0165976
816.238	0.0167167
816.317	0.0166445
816.395	0.0167429
816.473	0.0166720
816.551	0.0168236
816.629	0.0169645
816.707	0.0170747
816.785	0.0171563
816.863	0.0172245
816.942	0.0172610
817.020	0.0172290
817.098	0.0173514
817.176	0.0173873
817.254	0.0174070
817.332	0.0173653
817.410	0.0176049
817.488	0.0175552
817.567	0.0174743
817.645	0.0174256
817.723	0.0176541
817.801	0.0175729
817.879	0.0173806
817.957	0.0175235
818.035	0.0174486
818.113	0.0175171
818.192	0.0174133
818.270	0.0175063
818.348	0.0174960
818.426	0.0175019
818.504	0.0172272
818.582	0.0172668
818.660	0.0174207
818.738	0.0172881
818.817	0.0170758
818.895	0.0170448
818.973	0.0169900
819.051	0.0169143
819.129	0.0169418
819.207	0.0169868
819.285	0.0168477
819.363	0.0167496
819.442	0.0166980
819.520	0.0167352
819.598	0.0168960
819.676	0.0169406
819.754	0.0168200
819.832	0.0168183
819.910	0.0168962
819.988	0.0169696
820.067	0.0170015
820.145	0.0171387
820.223	0.0170724
820.301	0.0172214
820.379	0.0172075
820.457	0.0172374
820.535	0.0174391
820.613	0.0174014
820.692	0.0173809
820.770	0.0173163
820.848	0.0172926
820.926	0.0172233
821.004	0.0173141
821.082	0.0171898
821.160	0.0171732
821.238	0.0171073
821.317	0.0171411
821.395	0.0169411
821.473	0.0170143
821.551	0.0170895
821.629	0.0168644
821.707	0.0169765
821.785	0.0168511
821.863	0.0167870
821.942	0.0168613
822.020	0.0167225
822.098	0.0166855
822.176	0.0166531
822.254	0.0167335
822.332	0.0167905
822.410	0.0166830
822.488	0.0165094
822.567	0.0166824
822.645	0.0168463
822.723	0.0168283
822.801	0.0168065
822.879	0.0169391
822.957	0.0171513
823.035	0.0171180
823.113	0.0172038
823.192	0.0173162
823.270	0.0172744
823.348	0.0173745
823.426	0.0174634
823.504	0.0175025
823.582	0.0174553
823.660	0.0174081
823.738	0.0174931
823.817	0.0176093
823.895	0.0174745
823.973	0.0175737
824.051	0.0175214
824.129	0.0174339
824.207	0.0175123
824.285	0.0175283
824.363	0.0173111
824.442	0.0174439
824.520	0.0174715
824.598	0.0172995
824.676	0.0172616
824.754	0.0173475
824.832	0.0174529
824.910	0.0172878
824.988	0.0172411
825.067	0.0172414
825.145	0.0171913
825.223	0.0173253
825.301	0.0171906
825.379	0.0170786
825.457	0.0170718
825.535	0.0169263
825.613	0.0170672
825.692	0.0170148
825.770	0.0169360
825.848	0.0167390
825.926	0.0168246
826.004	0.0167445
826.082	0.0166915
826.160	0.0167273
826.238	0.0167258
826.317	0.0166416
826.395	0.0167257
826.473	0.0168300
826.551	0.0167176
826.629	0.0166611
826.707	0.0166906
826.785	0.0168735
826.863	0.0167680
826.942	0.0168019
827.020	0.0168862
827.098	0.0169035
827.176	0.0168980
827.254	0.0169859
827.332	0.0170646
827.410	0.0169755
827.488	0.0168700
827.567	0.0169675
827.645	0.0169636
827.723	0.0169618
827.801	0.0169518
827.879	0.0169991
827.957	0.0167798
828.035	0.0168205
828.113	0.0168845
828.192	0.0169854
828.270	0.0168931
828.348	0.0167776
828.426	0.0168084
828.504	0.0167868
828.582	0.0168224
828.660	0.0167545
828.738	0.0170604
828.817	0.0170254
828.895	0.0170570
828.973	0.0171143
829.051	0.0171333
829.129	0.0170985
829.207	0.0171955
829.285	0.0173125
829.363	0.0174215
829.442	0.0175100
829.520	0.0174194
829.598	0.0174360
829.676	0.0174211
829.754	0.0174094
829.832	0.0175855
829.910	0.0175027
829.988	0.0173734
830.067	0.0174502
830.145	0.0175539
830.223	0.0174965
830.301	0.0175040
830.379	0.0173556
830.457	0.0171942
830.535	0.0172980
830.613	0.0171467
830.692	0.0171831
830.770	0.0171571
830.848	0.0170937
830.926	0.0169292
831.004	0.0167934
831.082	0.0168983
831.160	0.0167676
831.238	0.0167420
831.317	0.0166834
831.395	0.0165238
831.473	0.0167867
831.551	0.0166142
831.629	0.0166566
831.707	0.0166909
831.785	0.0167257
831.863	0.0166611
831.942	0.0166872
832.020	0.0166702
832.098	0.0167733
832.176	0.0168314
832.254	0.0167640
832.332	0.0168569
832.410	0.0170018
832.488	0.0170266
832.567	0.0169109
832.645	0.0169227
832.723	0.0171387
832.801	0.0172715
832.879	0.0172417
832.957	0.0171232
833.035	0.0171486
833.113	0.0172257
833.192	0.0173807
833.270	0.0173698
833.348	0.0173543
833.426	0.0173576
833.504	0.0173538
833.582	0.0173632
833.660	0.0172633
833.738	0.0173150
833.817	0.0172287
833.895	0.0173714
833.973	0.0172548
834.051	0.0170275
834.129	0.0172392
834.207	0.0173383
834.285	0.0171244
834.363	0.0171449
834.442	0.0171207
834.520	0.0171323
834.598	0.0170422
834.676	0.0170489
834.754	0.0170612
834.832	0.0168747
834.910	0.0169854
834.988	0.0167886
835.067	0.0170019
835.145	0.0168410
835.223	0.0167690
835.301	0.0168159
835.379	0.0167838
835.457	0.0167864
835.535	0.0167620
835.613	0.0166678
835.692	0.0167530
835.770	0.0168845
835.848	0.0167530
835.926	0.0169421
836.004	0.0168090
836.082	0.0168382
836.160	0.0168767
836.238	0.0168773
836.317	0.0169306
836.395	0.0169010
836.473	0.0168845
836.551	0.0169775
836.629	0.0170836
836.707	0.0171716
836.785	0.0171708
836.863	0.0170895
836.942	0.0173303
837.020	0.0172706
837.098	0.0173870
837.176	0.0173416
837.254	0.0173181
837.332	0.0174480
837.410	0.0174011
837.488	0.0174223
837.567	0.0175804
837.645	0.0174904
837.723	0.0173808
837.801	0.0175636
837.879	0.0176187
837.957	0.0176640
838.035	0.0175917
838.113	0.0173320
838.192	0.0173608
838.270	0.0173518
838.348	0.0173362
838.426	0.0173116
838.504	0.0174432
838.582	0.0173743
838.660	0.0172553
838.738	0.0171597
838.817	0.0171539
838.895	0.0171638
838.973	0.0170801
839.051	0.0168145
839.129	0.0169929
839.207	0.0168794
839.285	0.0168301
839.363	0.0168358
839.442	0.0166628
839.520	0.0168250
839.598	0.0167746
839.676	0.0167562
839.754	0.0168253
839.832	0.0166710
839.910	0.0167181
839.988	0.0166565
840.067	0.0166566
840.145	0.0167300
840.223	0.0168217
840.301	0.0168081
840.379	0.0167341
840.457	0.0166825
840.535	0.0169772
840.613	0.0168394
840.692	0.0168684
840.770	0.0169275
840.848	0.0169384
840.926	0.0169773
841.004	0.0169923
841.082	0.0169330
841.160	0.0169218
841.238	0.0170702
841.317	0.0171428
841.395	0.0170866
841.473	0.0170934
841.551	0.0172197
841.629	0.0171441
841.707	0.0170928
841.785	0.0173148
841.863	0.0171857
841.942	0.0172157
842.020	0.0171758
842.098	0.0172306
842.176	0.0171967
842.254	0.0171401
842.332	0.0171044
842.410	0.0171114
842.488	0.0171433
842.567	0.0171918
842.645	0.0171786
842.723	0.0171497
842.801	0.0173917
842.879	0.0171798
842.957	0.0171240
843.035	0.0171807
843.113	0.0171658
843.192	0.0172571
843.270	0.0172818
843.348	0.0171883
843.426	0.0170246
843.504	0.0172334
843.582	0.0171017
843.660	0.0170940
843.738	0.0170631
843.817	0.0171646
843.895	0.0171648
843.973	0.0171146
844.051	0.0170180
844.129	0.0169791
844.207	0.0169607
844.285	0.0170075
844.363	0.0171101
844.442	0.0170208
844.520	0.0172206
844.598	0.0172501
844.676	0.0172386
844.754	0.0172130
844.832	0.0171819
844.910	0.0172268
844.988	0.0172058
845.067	0.0172923
845.145	0.0172607
845.223	0.0172546
845.301	0.0172772
845.379	0.0171894
845.457	0.0171990
845.535	0.0170312
845.613	0.0170744
845.692	0.0169919
845.770	0.0170547
845.848	0.0170347
845.926	0.0170301
846.004	0.0168041
846.082	0.0168745
846.160	0.0170279
846.238	0.0167996
846.317	0.0165784
846.395	0.0167343
846.473	0.0169073
846.551	0.0167297
846.629	0.0166907
846.707	0.0167509
846.785	0.0165598
846.863	0.0168172
846.942	0.0169270
847.020	0.0168085
847.098	0.0167426
847.176	0.0168430
847.254	0.0168338
847.332	0.0168797
847.410	0.0169231
847.488	0.0170244
847.567	0.0169514
847.645	0.0170190
847.723	0.0170908
847.801	0.0171439
847.879	0.0171039
847.957	0.0172038
848.035	0.0170990
848.113	0.0171099
848.192	0.0170805
848.270	0.0172204
848.348	0.0172258
848.426	0.0172282
848.504	0.0172553
848.582	0.0172286
848.660	0.0172526
848.738	0.0172109
848.817	0.0173068
848.895	0.0172360
848.973	0.0171800
849.051	0.0171932
849.129	0.0170653
849.207	0.0171080
849.285	0.0171754
849.363	0.0170834
849.442	0.0173061
849.520	0.0172747
849.598	0.0171939
849.676	0.0171757
849.754	0.0172518
849.832	0.0173344
849.910	0.0171764
849.988	0.0172197
850.067	0.0172148
850.145	0.0171494
850.223	0.0171084
850.301	0.0170686
850.379	0.0169253
850.457	0.0170693
850.535	0.0170968
850.613	0.0171442
850.692	0.0171286
850.770	0.0170411
850.848	0.0171278
850.926	0.0170796
851.004	0.0171423
851.082	0.0171095
851.160	0.0170710
851.238	0.0170677
851.317	0.0169579
851.395	0.0168763
851.473	0.0168613
851.551	0.0170022
851.629	0.0168454
851.707	0.0167355
851.785	0.0167341
851.863	0.0168154
851.942	0.0168288
852.020	0.0166077
852.098	0.0167471
852.176	0.0168724
852.254	0.0167182
852.332	0.0169177
852.410	0.0168846
852.488	0.0169116
852.567	0.0169357
852.645	0.0170188
852.723	0.0169660
852.801	0.0169924
852.879	0.0170495
852.957	0.0170921
853.035	0.0170103
853.113	0.0171877
853.192	0.0172018
853.270	0.0171612
853.348	0.0171816
853.426	0.0170808
853.504	0.0170055
853.582	0.0171130
853.660	0.0172064
853.738	0.0169335
853.817	0.0170340
853.895	0.0170636
853.973	0.0170760
854.051	0.0171262
854.129	0.0170537
854.207	0.0169862
854.285	0.0169830
854.363	0.0170705
854.442	0.0171430
854.520	0.0170503
854.598	0.0170697
854.676	0.0170370
854.754	0.0170509
854.832	0.0171436
854.910	0.0169927
854.988	0.0168349
855.067	0.0169459
855.145	0.0169421
855.223	0.0169587
855.301	0.0171147
855.379	0.0171565
855.457	0.0171461
855.535	0.0169426
855.613	0.0170221
855.692	0.0170741
855.770	0.0170048
855.848	0.0170518
855.926	0.0171283
856.004	0.0172628
856.082	0.0171077
856.160	0.0171532
856.238	0.0170271
856.317	0.0170782
856.395	0.0171104
856.473	0.0171838
856.551	0.0170602
856.629	0.0170058
856.707	0.0169967
856.785	0.0168964
856.863	0.0170364
856.942	0.0169316
857.020	0.0170053
857.098	0.0169756
857.176	0.0169355
857.254	0.0169641
857.332	0.0169370
857.410	0.0169737
857.488	0.0170709
857.567	0.0169389
857.645	0.0171375
857.723	0.0169418
857.801	0.0172833
857.879	0.0171989
857.957	0.0170543
858.035	0.0170457
858.113	0.0169981
858.192	0.0171419
858.270	0.0171294
858.348	0.0170747
858.426	0.0169576
858.504	0.0170516
858.582	0.0169597
858.660	0.0169683
858.738	0.0168628
858.817	0.0169345
858.895	0.0169991
858.973	0.0169981
859.051	0.0168464
859.129	0.0169130
859.207	0.0167492
859.285	0.0168297
859.363	0.0170695
859.442	0.0170119
859.520	0.0168961
859.598	0.0170065
859.676	0.0170430
859.754	0.0169339
859.832	0.0170549
859.910	0.0168523
859.988	0.0170519
860.067	0.0169648
860.145	0.0169567
860.223	0.0169891
860.301	0.0172013
860.379	0.0172215
860.457	0.0171047
860.535	0.0170730
860.613	0.0170546
860.692	0.0172401
860.770	0.0173134
860.848	0.0172461
860.926	0.0171043
861.004	0.0171687
861.082	0.0172432
861.160	0.0171684
861.238	0.0170646
861.317	0.0170629
861.395	0.0170885
861.473	0.0169858
861.551	0.0171231
861.629	0.0170072
861.707	0.0169453
861.785	0.0169958
861.863	0.0169346
861.942	0.0168880
862.020	0.0170244
862.098	0.0168355
862.176	0.0169064
862.254	0.0167872
862.332	0.0170344
862.410	0.0169999
862.488	0.0168632
862.567	0.0167773
862.645	0.0169653
862.723	0.0170823
862.801	0.0169237
862.879	0.0170330
862.957	0.0170567
863.035	0.0169689
863.113	0.0170564
863.192	0.0170654
863.270	0.0170518
863.348	0.0170955
863.426	0.0171391
863.504	0.0171052
863.582	0.0170550
863.660	0.0170245
863.738	0.0171029
863.817	0.0171449
863.895	0.0170184
863.973	0.0171342
864.051	0.0170654
864.129	0.0170754
864.207	0.0170630
864.285	0.0170491
864.363	0.0170262
864.442	0.0170773
864.520	0.0171291
864.598	0.0169774
864.676	0.0170786
864.754	0.0170818
864.832	0.0169994
864.910	0.0170251
864.988	0.0169834
865.067	0.0168915
865.145	0.0169906
865.223	0.0168529
865.301	0.0168233
865.379	0.0170684
865.457	0.0170259
865.535	0.0169868
865.613	0.0168788
865.692	0.0166909
865.770	0.0168242
865.848	0.0168694
865.926	0.0168887
866.004	0.0169439
866.082	0.0169280
866.160	0.0169634
866.238	0.0170371
866.317	0.0168990
866.395	0.0167274
866.473	0.0169807
866.551	0.0170123
866.629	0.0169507
866.707	0.0168359
866.785	0.0169778
866.863	0.0170490
866.942	0.0170782
867.020	0.0169714
867.098	0.0171227
867.176	0.0171068
867.254	0.0171386
867.332	0.0172639
867.410	0.0171101
867.488	0.0170514
867.567	0.0173457
867.645	0.0171736
867.723	0.0171794
867.801	0.0173100
867.879	0.0173809
867.957	0.0171605
868.035	0.0171594
868.113	0.0171931
868.192	0.0170212
868.270	0.0171075
868.348	0.0170919
868.426	0.0169561
868.504	0.0169352
868.582	0.0168970
868.660	0.0168344
868.738	0.0169078
868.817	0.0168259
868.895	0.0167313
868.973	0.0168080
869.051	0.0167549
869.129	0.0168559
869.207	0.0168149
869.285	0.0167338
869.363	0.0167060
869.442	0.0168465
869.520	0.0168070
869.598	0.0169421
869.676	0.0170151
869.754	0.0168808
869.832	0.0169196
869.910	0.0169730
869.988	0.0169878
870.067	0.0170958
870.145	0.0170617
870.223	0.0171502
870.301	0.0172529
870.379	0.0170763
870.457	0.0171243
870.535	0.0172725
870.613	0.0171523
870.692	0.0172129
870.770	0.0172169
870.848	0.0172243
870.926	0.0172346
871.004	0.0172320
871.082	0.0171608
871.160	0.0169441
871.238	0.0170629
871.317	0.0170257
871.395	0.0169186
871.473	0.0170948
871.551	0.0170821
871.629	0.0171085
871.707	0.0170523
871.785	0.0170039
871.863	0.0170712
871.942	0.0170393
872.020	0.0169548
872.098	0.0168925
872.176	0.0171049
872.254	0.0170534
872.332	0.0170364
872.410	0.0169753
872.488	0.0168964
872.567	0.0169785
872.645	0.0169348
872.723	0.0167881
872.801	0.0168354
872.879	0.0168353
872.957	0.0168093
873.035	0.0167806
873.113	0.0166977
873.192	0.0168251
873.270	0.0169397
873.348	0.0169045
873.426	0.0168794
873.504	0.0169563
873.582	0.0170495
873.660	0.0169897
873.738	0.0169234
873.817	0.0172793
873.895	0.0171785
873.973	0.0172071
874.051	0.0171819
874.129	0.0170476
874.207	0.0170815
874.285	0.0170692
874.363	0.0170362
874.442	0.0170397
874.520	0.0169018
874.598	0.0169749
874.676	0.0168358
874.754	0.0169913
874.832	0.0169601
874.910	0.0168776
874.988	0.0170274
875.067	0.0168980
875.145	0.0170125
875.223	0.0171227
875.301	0.0170917
875.379	0.0171457
875.457	0.0170583
875.535	0.0171006
875.613	0.0170731
875.692	0.0171323
875.770	0.0170488
875.848	0.0171778
875.926	0.0171870
876.004	0.0172250
876.082	0.0172827
876.160	0.0172967
876.238	0.0172855
876.317	0.0174017
876.395	0.0174686
876.473	0.0174435
876.551	0.0175229
876.629	0.0174686
876.707	0.0175790
876.785	0.0175963
876.863	0.0175011
876.942	0.0173933
877.020	0.0174130
877.098	0.0172279
877.176	0.0169948
877.254	0.0170487
877.332	0.0166600
877.410	0.0164046
877.488	0.0163503
877.567	0.0163609
877.645	0.0160571
877.723	0.0161517
877.801	0.0159331
877.879	0.0160327
877.957	0.0161469
878.035	0.0162384
878.113	0.0164320
878.192	0.0164721
878.270	0.0165987
878.348	0.0167387
878.426	0.0171129
878.504	0.0172640
878.582	0.0173009
878.660	0.0174501
878.738	0.0175957
878.817	0.0177394
878.895	0.0178661
878.973	0.0178901
879.051	0.0178348
879.129	0.0178234
879.207	0.0179433
879.285	0.0178154
879.363	0.0178661
879.442	0.0178716
879.520	0.0175266
879.598	0.0175993
879.676	0.0176781
879.754	0.0175034
879.832	0.0172963
879.910	0.0173073
879.988	0.0169962
880.067	0.0170441
880.145	0.0170687
880.223	0.0168488
880.301	0.0168318
880.379	0.0166987
880.457	0.0166699
880.535	0.0165027
880.613	0.0164476
880.692	0.0163624
880.770	0.0161479
880.848	0.0162243
880.926	0.0159993
881.004	0.0159054
881.082	0.0157623
881.160	0.0158989
881.238	0.0160004
881.317	0.0160242
881.395	0.0161573
881.473	0.0162820
881.551	0.0164218
881.629	0.0167392
881.707	0.0169187
881.785	0.0171139
881.863	0.0175500
881.942	0.0175565
882.020	0.0177541
882.098	0.0179115
882.176	0.0182092
882.254	0.0181583
882.332	0.0181743
882.410	0.0181176
882.488	0.0181156
882.567	0.0178906
882.645	0.0177819
882.723	0.0176986
882.801	0.0176548
882.879	0.0173640
882.957	0.0172010
883.035	0.0172018
883.113	0.0170090
883.192	0.0167972
883.270	0.0169161
883.348	0.0166542
883.426	0.0166608
883.504	0.0166761
883.582	0.0164274
883.660	0.0165488
883.738	0.0166177
883.817	0.0164272
883.895	0.0166479
883.973	0.0165397
884.051	0.0165076
884.129	0.0166517
884.207	0.0164846
884.285	0.0164559
884.363	0.0164832
884.442	0.0164873
884.520	0.0164865
884.598	0.0164697
884.676	0.0165190
884.754	0.0164025
884.832	0.0164493
884.910	0.0165196
884.988	0.0165473
885.067	0.0165562
885.145	0.0165607
885.223	0.0166322
885.301	0.0166125
885.379	0.0169040
885.457	0.0171172
885.535	0.0172213
885.613	0.0172946
885.692	0.0175256
885.770	0.0176610
885.848	0.0177692
885.926	0.0181077
886.004	0.0181170
886.082	0.0181887
886.160	0.0181850
886.238	0.0180312
886.317	0.0179619
886.395	0.0178218
886.473	0.0176162
886.551	0.0176342
886.629	0.0173553
886.707	0.0171890
886.785	0.0170885
886.863	0.0169474
886.942	0.0168690
887.020	0.0168577
887.098	0.0168636
887.176	0.0167550
887.254	0.0169030
887.332	0.0169270
887.410	0.0169431
887.488	0.0169338
887.567	0.0169131
887.645	0.0170575
887.723	0.0169506
887.801	0.0170335
887.879	0.0170398
887.957	0.0169521
888.035	0.0169370
888.113	0.0166653
888.192	0.0166035
888.270	0.0165942
888.348	0.0165349
888.426	0.0164295
888.504	0.0163593
888.582	0.0162828
888.660	0.0162363
888.738	0.0162387
888.817	0.0162810
888.895	0.0164114
888.973	0.0164942
889.051	0.0163899
889.129	0.0168127
889.207	0.0169315
889.285	0.0170195
889.363	0.0168996
889.442	0.0171006
889.520	0.0170751
889.598	0.0170701
889.676	0.0172469
889.754	0.0173316
889.832	0.0174492
889.910	0.0173060
889.988	0.0173106
890.067	0.0174843
890.145	0.0174369
890.223	0.0173521
890.301	0.0175304
890.379	0.0174647
890.457	0.0175433
890.535	0.0175149
890.613	0.0174800
890.692	0.0175151
890.770	0.0173827
890.848	0.0175725
890.926	0.0174948
891.004	0.0175414
891.082	0.0175400
891.160	0.0174014
891.238	0.0171921
891.317	0.0171541
891.395	0.0171597
891.473	0.0170331
891.551	0.0168287
891.629	0.0167967
891.707	0.0168443
891.785	0.0168757
891.863	0.0167001
891.942	0.0166010
892.020	0.0165620
892.098	0.0165249
892.176	0.0165648
892.254	0.0166300
892.332	0.0166278
892.410	0.0165849
892.488	0.0166767
892.567	0.0168433
892.645	0.0167940
892.723	0.0168695
892.801	0.0168483
892.879	0.0169556
892.957	0.0169529
893.035	0.0170396
893.113	0.0171403
893.192	0.0169337
893.270	0.0170973
893.348	0.0170345
893.426	0.0170372
893.504	0.0171207
893.582	0.0171579
893.660	0.0171083
893.738	0.0172047
893.817	0.0171954
893.895	0.0172659
893.973	0.0174390
894.051	0.0172968
894.129	0.0173563
894.207	0.0174186
894.285	0.0173913
894.363	0.0174451
894.442	0.0173586
894.520	0.0173242
894.598	0.0173591
894.676	0.0171877
894.754	0.0173038
894.832	0.0172785
894.910	0.0170936
894.988	0.0171398
895.067	0.0169642
895.145	0.0170019
895.223	0.0171000
895.301	0.0170957
895.379	0.0171715
895.457	0.0170309
895.535	0.0170190
895.613	0.0170225
895.692	0.0170180
895.770	0.0171722
895.848	0.0171349
895.926	0.0170078
896.004	0.0171078
896.082	0.0171046
896.160	0.0168678
896.238	0.0169263
896.317	0.0169558
896.395	0.0168152
896.473	0.0168111
896.551	0.0165884
896.629	0.0165800
896.707	0.0167217
896.785	0.0166551
896.863	0.0165009
896.942	0.0165630
897.020	0.0167487
897.098	0.0165842
897.176	0.0166023
897.254	0.0166280
897.332	0.0167816
897.410	0.0169300
897.488	0.0169262
897.567	0.0169215
897.645	0.0171110
897.723	0.0171664
897.801	0.0172524
897.879	0.0173125
897.957	0.0172635
898.035	0.0173818
898.113	0.0173489
898.192	0.0174960
898.270	0.0174667
898.348	0.0175418
898.426	0.0174371
898.504	0.0172889
898.582	0.0171832
898.660	0.0173062
898.738	0.0171643
898.817	0.0170084
898.895	0.0170095
898.973	0.0170995
899.051	0.0169380
899.129	0.0168273
899.207	0.0170039
899.285	0.0169848
899.363	0.0169582
899.442	0.0168252
899.520	0.0169217
899.598	0.0169219
899.676	0.0169241
899.754	0.0169324
899.832	0.0170460
899.910	0.0171931
899.988	0.0170700
900.067	0.0171180
900.145	0.0173788
900.223	0.0171968
900.301	0.0173874
900.379	0.0173980
900.457	0.0173404
900.535	0.0173646
900.613	0.0171440
900.692	0.0171606
900.770	0.0171082
900.848	0.0171846
900.926	0.0171014
901.004	0.0169977
901.082	0.0169115
901.160	0.0169675
901.238	0.0167988
901.317	0.0167816
901.395	0.0166575
901.473	0.0166828
901.551	0.0167325
901.629	0.0166996
901.707	0.0167472
901.785	0.0166756
901.863	0.0169067
901.942	0.0169303
902.020	0.0168475
902.098	0.0168125
902.176	0.0168969
902.254	0.0170460
902.332	0.0170833
902.410	0.0171052
902.488	0.0171764
902.567	0.0172716
902.645	0.0173622
902.723	0.0171140
902.801	0.0172533
902.879	0.0172288
902.957	0.0173186
903.035	0.0174156
903.113	0.0173807
903.192	0.0172466
903.270	0.0172445
903.348	0.0171893
903.426	0.0171543
903.504	0.0171132
903.582	0.0172324
903.660	0.0172373
903.738	0.0171629
903.817	0.0172981
903.895	0.0171104
903.973	0.0170912
904.051	0.0171493
904.129	0.0171286
904.207	0.0171416
904.285	0.0171317
904.363	0.0171245
904.442	0.0170777
904.520	0.0169682
904.598	0.0170180
904.676	0.0169114
904.754	0.0169092
904.832	0.0167240
904.910	0.0169494
904.988	0.0168890
905.067	0.0167129
905.145	0.0168611
905.223	0.0168429
905.301	0.0168970
905.379	0.0168871
905.457	0.0168958
905.535	0.0169555
905.613	0.0169630
905.692	0.0171262
905.770	0.0170915
905.848	0.0171346
905.926	0.0171246
906.004	0.0171685
906.082	0.0172186
906.160	0.0171752
906.238	0.0170868
906.317	0.0170959
906.395	0.0172147
906.473	0.0171619
906.551	0.0172540
906.629	0.0171219
906.707	0.0170751
906.785	0.0170762
906.863	0.0171132
906.942	0.0170487
907.020	0.0171082
907.098	0.0170767
907.176	0.0169946
907.254	0.0169485
907.332	0.0170172
907.410	0.0169349
907.488	0.0169136
907.567	0.0170051
907.645	0.0169563
907.723	0.0168934
907.801	0.0169759
907.879	0.0171085
907.957	0.0170879
908.035	0.0170749
908.113	0.0170974
908.192	0.0171063
908.270	0.0170733
908.348	0.0171216
908.426	0.0172128
908.504	0.0172230
908.582	0.0172308
908.660	0.0172881
908.738	0.0172149
908.817	0.0172214
908.895	0.0171194
908.973	0.0171846
909.051	0.0172157
909.129	0.0170596
909.207	0.0172610
909.285	0.0173196
909.363	0.0171578
909.442	0.0171862
909.520	0.0171890
909.598	0.0171341
909.676	0.0172390
909.754	0.0171206
909.832	0.0171977
909.910	0.0171087
909.988	0.0170646
910.067	0.0170041
910.145	0.0169657
910.223	0.0167942
910.301	0.0168132
910.379	0.0167764
910.457	0.0168384
910.535	0.0166858
910.613	0.0166197
910.692	0.0165859
910.770	0.0165780
910.848	0.0166257
910.926	0.0167899
911.004	0.0166839
911.082	0.0168745
911.160	0.0168675
911.238	0.0169380
911.317	0.0169971
911.395	0.0170685
911.473	0.0170974
911.551	0.0172216
911.629	0.0172571
911.707	0.0173354
911.785	0.0174422
911.863	0.0174125
911.942	0.0173977
912.020	0.0176214
912.098	0.0175205
912.176	0.0173276
912.254	0.0174821
912.332	0.0173598
912.410	0.0172614
912.488	0.0173058
912.567	0.0173017
912.645	0.0172910
912.723	0.0171532
912.801	0.0170475
912.879	0.0171046
912.957	0.0170531
913.035	0.0167835
913.113	0.0169456
913.192	0.0167746
913.270	0.0167290
913.348	0.0169165
913.426	0.0168567
913.504	0.0166176
913.582	0.0167584
913.660	0.0168649
913.738	0.0166843
913.817	0.0167876
913.895	0.0167580
913.973	0.0167200
914.051	0.0167300
914.129	0.0166930
914.207	0.0168649
914.285	0.0169162
914.363	0.0168336
914.442	0.0169865
914.520	0.0169894
914.598	0.0171682
914.676	0.0172118
914.754	0.0172596
914.832	0.0171276
914.910	0.0172913
914.988	0.0172442
915.067	0.0172024
915.145	0.0171115
915.223	0.0172568
915.301	0.0172250
915.379	0.0172162
915.457	0.0171446
915.535	0.0173006
915.613	0.0174048
915.692	0.0171778
915.770	0.0171194
915.848	0.0171775
915.926	0.0171992
916.004	0.0173782
916.082	0.0173119
916.160	0.0173314
916.238	0.0172707
916.317	0.0173414
916.395	0.0171254
916.473	0.0173715
916.551	0.0172636
916.629	0.0171469
916.707	0.0171816
916.785	0.0172942
916.863	0.0171861
916.942	0.0171758
917.020	0.0172313
917.098	0.0173575
917.176	0.0172800
917.254	0.0172751
917.332	0.0172920
917.410	0.0172875
917.488	0.0171439
917.567	0.0173070
917.645	0.0173425
917.723	0.0170567
917.801	0.0172087
917.879	0.0171276
917.957	0.0170593
918.035	0.0169299
918.113	0.0170291
918.192	0.0168835
918.270	0.0169142
918.348	0.0168971
918.426	0.0169366
918.504	0.0168137
918.582	0.0167113
918.660	0.0167788
918.738	0.0167271
918.817	0.0167999
918.895	0.0168324
918.973	0.0168938
919.051	0.0168633
919.129	0.0169102
919.207	0.0169905
919.285	0.0169059
919.363	0.0169965
919.442	0.0169250
919.520	0.0169627
919.598	0.0169698
919.676	0.0170939
919.754	0.0170852
919.832	0.0170807
919.910	0.0170237
