05/24/2022	20:11:53	Ver.	4.1	UNKNOWN
Optical Delay	599.988409	Delta X		0.078125	Sweeps	1	Scan Rate	0/0
Coordinates	Axis 1	NaN	Axis 2	NaN	Axis 3	NaN	Axis 4	NaN	Axis 5	NaN	Axis 6	0.000000
TX Power	0.000000	RX Power	0.000000

599.988	0.0167403
600.067	0.0167008
600.145	0.0168751
600.223	0.0168513
600.301	0.0166323
600.379	0.0167671
600.457	0.0168991
600.535	0.0167633
600.613	0.0166691
600.692	0.0167370
600.770	0.0167287
600.848	0.0167911
600.926	0.0167720
601.004	0.0167496
601.082	0.0167972
601.160	0.0165909
601.238	0.0166982
601.317	0.0167278
601.395	0.0168829
601.473	0.0167935
601.551	0.0167771
601.629	0.0166485
601.707	0.0168578
601.785	0.0168226
601.863	0.0167729
601.942	0.0167217
602.020	0.0168427
602.098	0.0169070
602.176	0.0167480
602.254	0.0165905
602.332	0.0168195
602.410	0.0166369
602.488	0.0167298
602.567	0.0168166
602.645	0.0167743
602.723	0.0168155
602.801	0.0168513
602.879	0.0168489
602.957	0.0168408
603.035	0.0165978
603.113	0.0167100
603.192	0.0168770
603.270	0.0168011
603.348	0.0166705
603.426	0.0167327
603.504	0.0167632
603.582	0.0167256
603.660	0.0168188
603.738	0.0167857
603.817	0.0167237
603.895	0.0167517
603.973	0.0167548
604.051	0.0168405
604.129	0.0168513
604.207	0.0168298
604.285	0.0167331
604.363	0.0167850
604.442	0.0167555
604.520	0.0166763
604.598	0.0169133
604.676	0.0166424
604.754	0.0167790
604.832	0.0168245
604.910	0.0167303
604.988	0.0168147
605.067	0.0168691
605.145	0.0167740
605.223	0.0168351
605.301	0.0166695
605.379	0.0167880
605.457	0.0168066
605.535	0.0167172
605.613	0.0166749
605.692	0.0165878
605.770	0.0167245
605.848	0.0168152
605.926	0.0166549
606.004	0.0165839
606.082	0.0167502
606.160	0.0166296
606.238	0.0165667
606.317	0.0167723
606.395	0.0166764
606.473	0.0166861
606.551	0.0167192
606.629	0.0166568
606.707	0.0166900
606.785	0.0167956
606.863	0.0167603
606.942	0.0166162
607.020	0.0166802
607.098	0.0167752
607.176	0.0167983
607.254	0.0168137
607.332	0.0167509
607.410	0.0167231
607.488	0.0167689
607.567	0.0166846
607.645	0.0168423
607.723	0.0168283
607.801	0.0168169
607.879	0.0167776
607.957	0.0167204
608.035	0.0167657
608.113	0.0168202
608.192	0.0168613
608.270	0.0168296
608.348	0.0169179
608.426	0.0167236
608.504	0.0168236
608.582	0.0167142
608.660	0.0167921
608.738	0.0167346
608.817	0.0169003
608.895	0.0167485
608.973	0.0164812
609.051	0.0166461
609.129	0.0168375
609.207	0.0166782
609.285	0.0167060
609.363	0.0168761
609.442	0.0167312
609.520	0.0166280
609.598	0.0167609
609.676	0.0165881
609.754	0.0166193
609.832	0.0167694
609.910	0.0165564
609.988	0.0166273
610.067	0.0166699
610.145	0.0167044
610.223	0.0167255
610.301	0.0166500
610.379	0.0166192
610.457	0.0166486
610.535	0.0168943
610.613	0.0168297
610.692	0.0167162
610.770	0.0169905
610.848	0.0168628
610.926	0.0166564
611.004	0.0168308
611.082	0.0169930
611.160	0.0166924
611.238	0.0167638
611.317	0.0168452
611.395	0.0166908
611.473	0.0168288
611.551	0.0168729
611.629	0.0168506
611.707	0.0168686
611.785	0.0166991
611.863	0.0168333
611.942	0.0168319
612.020	0.0167706
612.098	0.0167890
612.176	0.0167902
612.254	0.0166965
612.332	0.0167681
612.410	0.0166800
612.488	0.0168071
612.567	0.0167920
612.645	0.0168257
612.723	0.0164734
612.801	0.0166329
612.879	0.0167839
612.957	0.0167851
613.035	0.0167217
613.113	0.0166063
613.192	0.0165371
613.270	0.0166395
613.348	0.0166212
613.426	0.0166089
613.504	0.0167119
613.582	0.0165607
613.660	0.0166148
613.738	0.0166454
613.817	0.0167820
613.895	0.0166529
613.973	0.0166119
614.051	0.0165377
614.129	0.0167929
614.207	0.0166799
614.285	0.0166918
614.363	0.0166877
614.442	0.0166833
614.520	0.0168810
614.598	0.0168007
614.676	0.0166234
614.754	0.0167245
614.832	0.0169062
614.910	0.0169489
614.988	0.0166750
615.067	0.0166573
615.145	0.0168834
615.223	0.0167065
615.301	0.0167618
615.379	0.0167564
615.457	0.0167445
615.535	0.0167949
615.613	0.0168104
615.692	0.0167370
615.770	0.0166319
615.848	0.0167704
615.926	0.0167499
616.004	0.0167625
616.082	0.0167094
616.160	0.0166821
616.238	0.0167975
616.317	0.0165526
616.395	0.0166655
616.473	0.0167573
616.551	0.0167651
616.629	0.0166194
616.707	0.0166568
616.785	0.0167146
616.863	0.0166194
616.942	0.0165206
617.020	0.0166238
617.098	0.0167939
617.176	0.0166689
617.254	0.0167509
617.332	0.0167797
617.410	0.0166291
617.488	0.0166487
617.567	0.0167567
617.645	0.0167150
617.723	0.0167155
617.801	0.0167625
617.879	0.0167342
617.957	0.0166141
618.035	0.0167162
618.113	0.0167160
618.192	0.0167645
618.270	0.0167807
618.348	0.0168050
618.426	0.0167671
618.504	0.0167105
618.582	0.0167215
618.660	0.0167422
618.738	0.0166946
618.817	0.0166739
618.895	0.0167300
618.973	0.0167381
619.051	0.0167055
619.129	0.0168034
619.207	0.0166618
619.285	0.0167297
619.363	0.0167924
619.442	0.0167563
619.520	0.0167450
619.598	0.0166947
619.676	0.0167397
619.754	0.0167847
619.832	0.0167262
619.910	0.0166798
619.988	0.0166800
620.067	0.0167808
620.145	0.0166823
620.223	0.0166422
620.301	0.0165894
620.379	0.0167529
620.457	0.0167300
620.535	0.0166459
620.613	0.0166243
620.692	0.0167063
620.770	0.0167278
620.848	0.0167020
620.926	0.0166034
621.004	0.0165238
621.082	0.0166667
621.160	0.0166804
621.238	0.0166730
621.317	0.0168504
621.395	0.0168787
621.473	0.0167640
621.551	0.0166618
621.629	0.0165819
621.707	0.0167162
621.785	0.0167400
621.863	0.0166324
621.942	0.0166465
622.020	0.0166959
622.098	0.0167397
622.176	0.0167190
622.254	0.0166607
622.332	0.0167085
622.410	0.0166828
622.488	0.0166392
622.567	0.0167178
622.645	0.0167846
622.723	0.0167253
622.801	0.0166517
622.879	0.0168323
622.957	0.0165901
623.035	0.0166969
623.113	0.0166959
623.192	0.0166317
623.270	0.0165871
623.348	0.0168257
623.426	0.0167452
623.504	0.0168118
623.582	0.0166395
623.660	0.0167920
623.738	0.0168258
623.817	0.0166841
623.895	0.0168491
623.973	0.0167800
624.051	0.0167331
624.129	0.0167116
624.207	0.0167506
624.285	0.0167700
624.363	0.0167718
624.442	0.0168931
624.520	0.0167976
624.598	0.0167128
624.676	0.0167680
624.754	0.0168021
624.832	0.0166930
624.910	0.0166575
624.988	0.0166860
625.067	0.0167209
625.145	0.0166653
625.223	0.0167496
625.301	0.0167228
625.379	0.0166233
625.457	0.0166837
625.535	0.0167136
625.613	0.0166864
625.692	0.0167377
625.770	0.0166803
625.848	0.0167120
625.926	0.0166546
626.004	0.0167771
626.082	0.0167693
626.160	0.0167945
626.238	0.0165736
626.317	0.0166936
626.395	0.0168242
626.473	0.0166972
626.551	0.0166668
626.629	0.0167299
626.707	0.0167014
626.785	0.0166762
626.863	0.0165567
626.942	0.0167942
627.020	0.0168097
627.098	0.0166606
627.176	0.0166658
627.254	0.0166260
627.332	0.0167361
627.410	0.0166608
627.488	0.0167499
627.567	0.0167473
627.645	0.0167702
627.723	0.0166936
627.801	0.0167728
627.879	0.0166546
627.957	0.0166201
628.035	0.0166405
628.113	0.0166823
628.192	0.0166941
628.270	0.0166779
628.348	0.0166793
628.426	0.0166579
628.504	0.0166808
628.582	0.0167883
628.660	0.0167618
628.738	0.0166984
628.817	0.0166202
628.895	0.0167169
628.973	0.0165915
629.051	0.0168330
629.129	0.0166765
629.207	0.0166310
629.285	0.0167904
629.363	0.0168280
629.442	0.0168036
629.520	0.0167193
629.598	0.0167230
629.676	0.0166353
629.754	0.0165501
629.832	0.0166015
629.910	0.0165422
629.988	0.0166744
630.067	0.0168227
630.145	0.0168387
630.223	0.0166535
630.301	0.0167532
630.379	0.0166953
630.457	0.0167592
630.535	0.0166488
630.613	0.0166280
630.692	0.0166746
630.770	0.0166669
630.848	0.0166245
630.926	0.0166566
631.004	0.0166346
631.082	0.0166984
631.160	0.0165991
631.238	0.0167879
631.317	0.0166977
631.395	0.0167697
631.473	0.0167165
631.551	0.0167496
631.629	0.0166306
631.707	0.0167461
631.785	0.0166808
631.863	0.0166850
631.942	0.0166672
632.020	0.0166999
632.098	0.0166747
632.176	0.0167346
632.254	0.0167352
632.332	0.0168138
632.410	0.0165948
632.488	0.0166573
632.567	0.0167716
632.645	0.0166856
632.723	0.0166061
632.801	0.0167699
632.879	0.0167559
632.957	0.0167031
633.035	0.0167104
633.113	0.0166806
633.192	0.0167830
633.270	0.0167065
633.348	0.0166711
633.426	0.0167497
633.504	0.0166413
633.582	0.0167123
633.660	0.0168461
633.738	0.0167754
633.817	0.0167100
633.895	0.0166088
633.973	0.0167946
634.051	0.0167344
634.129	0.0168345
634.207	0.0166653
634.285	0.0167361
634.363	0.0166675
634.442	0.0167168
634.520	0.0166477
634.598	0.0168126
634.676	0.0167276
634.754	0.0167982
634.832	0.0166842
634.910	0.0166880
634.988	0.0169023
635.067	0.0168589
635.145	0.0167692
635.223	0.0167239
635.301	0.0167135
635.379	0.0167249
635.457	0.0167330
635.535	0.0168687
635.613	0.0168397
635.692	0.0166980
635.770	0.0168101
635.848	0.0167992
635.926	0.0168204
636.004	0.0168053
636.082	0.0167289
636.160	0.0166725
636.238	0.0167509
636.317	0.0167096
636.395	0.0167552
636.473	0.0167175
636.551	0.0166772
636.629	0.0168409
636.707	0.0166083
636.785	0.0166892
636.863	0.0167739
636.942	0.0167691
637.020	0.0167023
637.098	0.0165860
637.176	0.0167417
637.254	0.0167567
637.332	0.0167716
637.410	0.0167996
637.488	0.0166309
637.567	0.0166676
637.645	0.0167522
637.723	0.0166624
637.801	0.0168283
637.879	0.0168248
637.957	0.0168044
638.035	0.0167191
638.113	0.0168288
638.192	0.0167432
638.270	0.0165949
638.348	0.0166659
638.426	0.0167883
638.504	0.0167332
638.582	0.0166322
638.660	0.0168058
638.738	0.0167722
638.817	0.0167699
638.895	0.0167001
638.973	0.0168435
639.051	0.0167881
639.129	0.0167094
639.207	0.0168932
639.285	0.0166592
639.363	0.0166393
639.442	0.0166786
639.520	0.0167968
639.598	0.0167156
639.676	0.0168024
639.754	0.0167600
639.832	0.0167632
639.910	0.0168284
639.988	0.0165909
640.067	0.0164808
640.145	0.0165940
640.223	0.0167866
640.301	0.0168128
640.379	0.0166251
640.457	0.0168111
640.535	0.0166718
640.613	0.0168353
640.692	0.0167818
640.770	0.0166850
640.848	0.0166471
640.926	0.0166405
641.004	0.0168127
641.082	0.0166486
641.160	0.0166423
641.238	0.0167503
641.317	0.0166277
641.395	0.0167110
641.473	0.0167273
641.551	0.0167427
641.629	0.0168576
641.707	0.0168407
641.785	0.0166972
641.863	0.0167709
641.942	0.0167533
642.020	0.0166462
642.098	0.0167491
642.176	0.0167788
642.254	0.0167119
642.332	0.0167100
642.410	0.0167188
642.488	0.0166914
642.567	0.0167693
642.645	0.0167072
642.723	0.0167734
642.801	0.0167928
642.879	0.0167284
642.957	0.0169111
643.035	0.0167590
643.113	0.0167070
643.192	0.0167463
643.270	0.0166954
643.348	0.0167984
643.426	0.0167477
643.504	0.0167615
643.582	0.0168218
643.660	0.0168271
643.738	0.0166472
643.817	0.0167004
643.895	0.0168625
643.973	0.0168533
644.051	0.0167664
644.129	0.0166990
644.207	0.0167068
644.285	0.0166744
644.363	0.0168636
644.442	0.0166722
644.520	0.0167015
644.598	0.0166650
644.676	0.0166850
644.754	0.0168518
644.832	0.0167214
644.910	0.0167420
644.988	0.0167426
645.067	0.0167393
645.145	0.0167464
645.223	0.0168155
645.301	0.0167558
645.379	0.0168198
645.457	0.0167286
645.535	0.0167863
645.613	0.0168081
645.692	0.0167510
645.770	0.0166856
645.848	0.0167677
645.926	0.0167931
646.004	0.0168105
646.082	0.0167825
646.160	0.0167751
646.238	0.0167398
646.317	0.0167428
646.395	0.0168253
646.473	0.0167195
646.551	0.0167446
646.629	0.0167553
646.707	0.0168363
646.785	0.0168170
646.863	0.0167313
646.942	0.0167850
647.020	0.0167155
647.098	0.0167896
647.176	0.0167299
647.254	0.0168376
647.332	0.0168352
647.410	0.0168208
647.488	0.0168156
647.567	0.0167641
647.645	0.0168029
647.723	0.0167519
647.801	0.0168077
647.879	0.0167339
647.957	0.0167060
648.035	0.0169774
648.113	0.0168876
648.192	0.0167439
648.270	0.0167107
648.348	0.0168027
648.426	0.0167651
648.504	0.0165670
648.582	0.0167964
648.660	0.0167588
648.738	0.0167115
648.817	0.0166145
648.895	0.0166608
648.973	0.0166695
649.051	0.0167071
649.129	0.0166725
649.207	0.0166980
649.285	0.0166135
649.363	0.0167020
649.442	0.0168079
649.520	0.0167007
649.598	0.0166506
649.676	0.0167418
649.754	0.0166867
649.832	0.0167645
649.910	0.0166608
649.988	0.0166872
650.067	0.0166699
650.145	0.0167280
650.223	0.0168501
650.301	0.0166817
650.379	0.0166817
650.457	0.0165958
650.535	0.0168359
650.613	0.0166364
650.692	0.0167613
650.770	0.0166379
650.848	0.0166738
650.926	0.0166978
651.004	0.0167425
651.082	0.0165500
651.160	0.0166559
651.238	0.0166489
651.317	0.0166187
651.395	0.0166853
651.473	0.0166044
651.551	0.0167998
651.629	0.0166164
651.707	0.0166248
651.785	0.0166144
651.863	0.0167656
651.942	0.0166903
652.020	0.0167379
652.098	0.0167923
652.176	0.0165868
652.254	0.0166582
652.332	0.0166568
652.410	0.0166260
652.488	0.0168086
652.567	0.0167693
652.645	0.0166277
652.723	0.0167702
652.801	0.0166660
652.879	0.0167087
652.957	0.0165980
653.035	0.0166182
653.113	0.0166454
653.192	0.0167183
653.270	0.0167241
653.348	0.0166506
653.426	0.0167155
653.504	0.0167187
653.582	0.0167938
653.660	0.0166415
653.738	0.0167128
653.817	0.0166697
653.895	0.0165322
653.973	0.0167477
654.051	0.0166683
654.129	0.0167168
654.207	0.0167063
654.285	0.0167004
654.363	0.0166911
654.442	0.0166442
654.520	0.0165982
654.598	0.0166521
654.676	0.0167427
654.754	0.0168395
654.832	0.0167725
654.910	0.0167001
654.988	0.0166475
655.067	0.0167046
655.145	0.0166600
655.223	0.0167353
655.301	0.0167481
655.379	0.0167110
655.457	0.0166925
655.535	0.0167655
655.613	0.0167975
655.692	0.0166932
655.770	0.0166339
655.848	0.0167290
655.926	0.0166809
656.004	0.0167468
656.082	0.0167702
656.160	0.0167001
656.238	0.0167127
656.317	0.0167986
656.395	0.0167924
656.473	0.0168697
656.551	0.0167142
656.629	0.0167154
656.707	0.0167573
656.785	0.0166665
656.863	0.0167309
656.942	0.0168138
657.020	0.0166443
657.098	0.0168208
657.176	0.0168333
657.254	0.0167836
657.332	0.0167081
657.410	0.0166402
657.488	0.0168243
657.567	0.0168358
657.645	0.0167297
657.723	0.0168768
657.801	0.0168649
657.879	0.0169360
657.957	0.0166974
658.035	0.0168069
658.113	0.0167780
658.192	0.0168749
658.270	0.0167532
658.348	0.0167374
658.426	0.0167422
658.504	0.0168491
658.582	0.0167848
658.660	0.0168359
658.738	0.0167667
658.817	0.0166677
658.895	0.0167959
658.973	0.0167645
659.051	0.0166627
659.129	0.0168290
659.207	0.0168127
659.285	0.0168700
659.363	0.0167286
659.442	0.0167556
659.520	0.0168321
659.598	0.0168410
659.676	0.0168070
659.754	0.0168409
659.832	0.0166159
659.910	0.0167557
659.988	0.0167822
660.067	0.0167175
660.145	0.0168220
660.223	0.0168436
660.301	0.0168365
660.379	0.0168001
660.457	0.0167738
660.535	0.0168671
660.613	0.0169363
660.692	0.0167785
660.770	0.0167777
660.848	0.0166934
660.926	0.0167010
661.004	0.0166471
661.082	0.0167536
661.160	0.0168145
661.238	0.0167178
661.317	0.0167577
661.395	0.0167661
661.473	0.0167952
661.551	0.0167988
661.629	0.0165975
661.707	0.0167839
661.785	0.0167167
661.863	0.0167760
661.942	0.0167554
662.020	0.0167054
662.098	0.0168694
662.176	0.0168106
662.254	0.0167995
662.332	0.0167814
662.410	0.0167516
662.488	0.0168333
662.567	0.0168172
662.645	0.0167538
662.723	0.0167583
662.801	0.0167200
662.879	0.0166907
662.957	0.0166190
663.035	0.0165994
663.113	0.0167643
663.192	0.0168002
663.270	0.0166868
663.348	0.0168361
663.426	0.0166804
663.504	0.0167568
663.582	0.0167894
663.660	0.0167325
663.738	0.0167055
663.817	0.0167107
663.895	0.0168246
663.973	0.0166435
664.051	0.0166536
664.129	0.0168320
664.207	0.0167424
664.285	0.0166749
664.363	0.0166158
664.442	0.0167563
664.520	0.0167307
664.598	0.0166674
664.676	0.0167809
664.754	0.0167979
664.832	0.0166470
664.910	0.0167427
664.988	0.0167247
665.067	0.0166000
665.145	0.0167422
665.223	0.0169258
665.301	0.0166795
665.379	0.0166286
665.457	0.0168287
665.535	0.0168367
665.613	0.0166840
665.692	0.0166798
665.770	0.0167661
665.848	0.0167183
665.926	0.0166570
666.004	0.0165530
666.082	0.0166807
666.160	0.0167375
666.238	0.0166452
666.317	0.0167375
666.395	0.0167206
666.473	0.0167166
666.551	0.0166650
666.629	0.0167345
666.707	0.0168163
666.785	0.0167970
666.863	0.0167195
666.942	0.0168455
667.020	0.0167628
667.098	0.0166216
667.176	0.0167818
667.254	0.0167119
667.332	0.0166831
667.410	0.0168678
667.488	0.0167597
667.567	0.0167516
667.645	0.0167678
667.723	0.0167786
667.801	0.0168054
667.879	0.0168486
667.957	0.0166451
668.035	0.0167229
668.113	0.0168979
668.192	0.0167654
668.270	0.0167727
668.348	0.0166977
668.426	0.0167200
668.504	0.0168046
668.582	0.0166972
668.660	0.0166724
668.738	0.0167723
668.817	0.0167486
668.895	0.0167770
668.973	0.0168203
669.051	0.0166936
669.129	0.0167388
669.207	0.0167396
669.285	0.0167288
669.363	0.0166698
669.442	0.0168187
669.520	0.0167004
669.598	0.0168246
669.676	0.0167650
669.754	0.0167133
669.832	0.0166660
669.910	0.0168016
669.988	0.0168394
670.067	0.0168745
670.145	0.0166997
670.223	0.0166854
670.301	0.0166566
670.379	0.0167047
670.457	0.0166980
670.535	0.0167365
670.613	0.0167174
670.692	0.0167135
670.770	0.0168189
670.848	0.0166792
670.926	0.0166029
671.004	0.0167603
671.082	0.0167942
671.160	0.0166245
671.238	0.0166863
671.317	0.0168053
671.395	0.0168430
671.473	0.0168015
671.551	0.0166913
671.629	0.0167027
671.707	0.0168162
671.785	0.0166104
671.863	0.0167455
671.942	0.0166872
672.020	0.0166592
672.098	0.0167938
672.176	0.0168159
672.254	0.0167253
672.332	0.0166790
672.410	0.0166178
672.488	0.0168222
672.567	0.0167435
672.645	0.0167846
672.723	0.0167185
672.801	0.0166910
672.879	0.0167228
672.957	0.0167676
673.035	0.0168565
673.113	0.0168299
673.192	0.0167117
673.270	0.0165826
673.348	0.0167072
673.426	0.0167311
673.504	0.0167105
673.582	0.0167581
673.660	0.0166795
673.738	0.0166196
673.817	0.0165597
673.895	0.0167215
673.973	0.0165779
674.051	0.0167313
674.129	0.0167001
674.207	0.0167924
674.285	0.0167230
674.363	0.0166142
674.442	0.0166021
674.520	0.0167943
674.598	0.0166872
674.676	0.0167057
674.754	0.0167242
674.832	0.0167500
674.910	0.0167667
674.988	0.0167782
675.067	0.0167084
675.145	0.0168949
675.223	0.0168893
675.301	0.0168813
675.379	0.0167512
675.457	0.0167236
675.535	0.0168423
675.613	0.0167785
675.692	0.0169205
675.770	0.0170105
675.848	0.0169222
675.926	0.0168286
676.004	0.0168336
676.082	0.0168684
676.160	0.0168797
676.238	0.0169338
676.317	0.0168771
676.395	0.0166437
676.473	0.0167892
676.551	0.0166093
676.629	0.0166817
676.707	0.0166155
676.785	0.0164265
676.863	0.0165038
676.942	0.0162852
677.020	0.0162174
677.098	0.0162762
677.176	0.0161940
677.254	0.0160596
677.332	0.0160405
677.410	0.0160050
677.488	0.0161402
677.567	0.0161436
677.645	0.0162314
677.723	0.0163264
677.801	0.0164183
677.879	0.0165942
677.957	0.0166131
678.035	0.0166592
678.113	0.0168565
678.192	0.0170409
678.270	0.0171426
678.348	0.0172105
678.426	0.0172554
678.504	0.0172850
678.582	0.0174805
678.660	0.0176580
678.738	0.0176378
678.817	0.0175793
678.895	0.0177370
678.973	0.0177393
679.051	0.0176877
679.129	0.0176918
679.207	0.0177186
679.285	0.0175932
679.363	0.0173358
679.442	0.0171758
679.520	0.0171621
679.598	0.0170564
679.676	0.0169412
679.754	0.0168193
679.832	0.0167728
679.910	0.0166956
679.988	0.0165805
680.067	0.0164243
680.145	0.0163435
680.223	0.0163512
680.301	0.0160339
680.379	0.0158572
680.457	0.0155791
680.535	0.0153904
680.613	0.0153115
680.692	0.0151140
680.770	0.0150389
680.848	0.0150703
680.926	0.0152478
681.004	0.0155722
681.082	0.0157971
681.160	0.0162675
681.238	0.0165611
681.317	0.0168012
681.395	0.0170152
681.473	0.0170557
681.551	0.0170119
681.629	0.0171981
681.707	0.0169368
681.785	0.0167989
681.863	0.0166841
681.942	0.0167940
682.020	0.0167272
682.098	0.0166969
682.176	0.0166849
682.254	0.0168725
682.332	0.0169612
682.410	0.0170703
682.488	0.0170606
682.567	0.0173067
682.645	0.0175759
682.723	0.0175100
682.801	0.0175768
682.879	0.0175060
682.957	0.0175529
683.035	0.0173933
683.113	0.0172591
683.192	0.0172245
683.270	0.0167978
683.348	0.0164497
683.426	0.0163124
683.504	0.0162416
683.582	0.0161614
683.660	0.0162017
683.738	0.0164214
683.817	0.0167339
683.895	0.0173259
683.973	0.0179662
684.051	0.0187831
684.129	0.0196420
684.207	0.0206751
684.285	0.0214672
684.363	0.0220248
684.442	0.0224686
684.520	0.0225622
684.598	0.0223837
684.676	0.0215080
684.754	0.0205672
684.832	0.0192501
684.910	0.0179652
684.988	0.0163293
685.067	0.0144398
685.145	0.0126521
685.223	0.0112856
685.301	0.00988419
685.379	0.00864204
685.457	0.00766930
685.535	0.00677528
685.613	0.00659157
685.692	0.00677139
685.770	0.00700539
685.848	0.00734184
685.926	0.00821663
686.004	0.00916260
686.082	0.0103358
686.160	0.0116492
686.238	0.0127755
686.317	0.0142628
686.395	0.0155255
686.473	0.0169991
686.551	0.0183702
686.629	0.0200502
686.707	0.0214577
686.785	0.0227200
686.863	0.0240299
686.942	0.0252883
687.020	0.0264912
687.098	0.0270965
687.176	0.0280337
687.254	0.0285360
687.332	0.0287350
687.410	0.0287473
687.488	0.0283527
687.567	0.0277068
687.645	0.0269748
687.723	0.0260346
687.801	0.0249065
687.879	0.0236553
687.957	0.0222787
688.035	0.0211072
688.113	0.0197174
688.192	0.0183297
688.270	0.0168960
688.348	0.0152060
688.426	0.0136507
688.504	0.0119280
688.582	0.0100735
688.660	0.00824478
688.738	0.00639145
688.817	0.00449326
688.895	0.00286026
688.973	0.00143356
689.051	0.0000907135
689.129	-0.000894241
689.207	-0.00114540
689.285	-0.00118446
689.363	-0.000576706
689.442	0.000587311
689.520	0.00242722
689.598	0.00444794
689.676	0.00733292
689.754	0.0103056
689.832	0.0136058
689.910	0.0169566
689.988	0.0203362
690.067	0.0235747
690.145	0.0262907
690.223	0.0286147
690.301	0.0303471
690.379	0.0318642
690.457	0.0327274
690.535	0.0328228
690.613	0.0326427
690.692	0.0321069
690.770	0.0314512
690.848	0.0306019
690.926	0.0294922
691.004	0.0285163
691.082	0.0278974
691.160	0.0270518
691.238	0.0261147
691.317	0.0254461
691.395	0.0244821
691.473	0.0235009
691.551	0.0225553
691.629	0.0213735
691.707	0.0197560
691.785	0.0179952
691.863	0.0160967
691.942	0.0138728
692.020	0.0116109
692.098	0.00921608
692.176	0.00677193
692.254	0.00453148
692.332	0.00250595
692.410	0.000843430
692.488	-0.000347977
692.567	-0.00121140
692.645	-0.00160278
692.723	-0.00160469
692.801	-0.000998611
692.879	0.0000782013
692.957	0.00129494
693.035	0.00280548
693.113	0.00461990
693.192	0.00689835
693.270	0.00925156
693.348	0.0114915
693.426	0.0140408
693.504	0.0166962
693.582	0.0191923
693.660	0.0217794
693.738	0.0239569
693.817	0.0262769
693.895	0.0280496
693.973	0.0296353
694.051	0.0307351
694.129	0.0315445
694.207	0.0319795
694.285	0.0319238
694.363	0.0313283
694.442	0.0307852
694.520	0.0298350
694.598	0.0286871
694.676	0.0274435
694.754	0.0262162
694.832	0.0251669
694.910	0.0241077
694.988	0.0227670
695.067	0.0218057
695.145	0.0208606
695.223	0.0198643
695.301	0.0187683
695.379	0.0176600
695.457	0.0163442
695.535	0.0150973
695.613	0.0136233
695.692	0.0122449
695.770	0.0107430
695.848	0.00919769
695.926	0.00793503
696.004	0.00694305
696.082	0.00596001
696.160	0.00534164
696.238	0.00495667
696.317	0.00472603
696.395	0.00500542
696.473	0.00526024
696.551	0.00610519
696.629	0.00695648
696.707	0.00805016
696.785	0.00924522
696.863	0.0106031
696.942	0.0120103
697.020	0.0135020
697.098	0.0148052
697.176	0.0160001
697.254	0.0172961
697.332	0.0183925
697.410	0.0192877
697.488	0.0199603
697.567	0.0206830
697.645	0.0211060
697.723	0.0215064
697.801	0.0220802
697.879	0.0220651
697.957	0.0219412
698.035	0.0220994
698.113	0.0219563
698.192	0.0217276
698.270	0.0216446
698.348	0.0213914
698.426	0.0211289
698.504	0.0211400
698.582	0.0209731
698.660	0.0210061
698.738	0.0209183
698.817	0.0209911
698.895	0.0210449
698.973	0.0210289
699.051	0.0209378
699.129	0.0209696
699.207	0.0207687
699.285	0.0204317
699.363	0.0199015
699.442	0.0194482
699.520	0.0186966
699.598	0.0180109
699.676	0.0171735
699.754	0.0161584
699.832	0.0150418
699.910	0.0140229
699.988	0.0128226
700.067	0.0119904
700.145	0.0112909
700.223	0.0103201
700.301	0.0100047
700.379	0.00990204
700.457	0.00983917
700.535	0.0100333
700.613	0.0103903
700.692	0.0109217
700.770	0.0115293
700.848	0.0121667
700.926	0.0130788
701.004	0.0139364
701.082	0.0148096
701.160	0.0155517
701.238	0.0162588
701.317	0.0167258
701.395	0.0172171
701.473	0.0176972
701.551	0.0178882
701.629	0.0180579
701.707	0.0179583
701.785	0.0180605
701.863	0.0180833
701.942	0.0181912
702.020	0.0179150
702.098	0.0179904
702.176	0.0180284
702.254	0.0180903
702.332	0.0182329
702.410	0.0182487
702.488	0.0184081
702.567	0.0185470
702.645	0.0186598
702.723	0.0186321
702.801	0.0188234
702.879	0.0188311
702.957	0.0189377
703.035	0.0190524
703.113	0.0190306
703.192	0.0189239
703.270	0.0187997
703.348	0.0185793
703.426	0.0184389
703.504	0.0182635
703.582	0.0180412
703.660	0.0177210
703.738	0.0175832
703.817	0.0173420
703.895	0.0169379
703.973	0.0167535
704.051	0.0165806
704.129	0.0162885
704.207	0.0160245
704.285	0.0156590
704.363	0.0154630
704.442	0.0153036
704.520	0.0153614
704.598	0.0151077
704.676	0.0149311
704.754	0.0149139
704.832	0.0150217
704.910	0.0150687
704.988	0.0152637
705.067	0.0151671
705.145	0.0153273
705.223	0.0155412
705.301	0.0155704
705.379	0.0158057
705.457	0.0158517
705.535	0.0159587
705.613	0.0161353
705.692	0.0164280
705.770	0.0165687
705.848	0.0168883
705.926	0.0172995
706.004	0.0173862
706.082	0.0176961
706.160	0.0179444
706.238	0.0179663
706.317	0.0180523
706.395	0.0178889
706.473	0.0178103
706.551	0.0177455
706.629	0.0176740
706.707	0.0173188
706.785	0.0171110
706.863	0.0167865
706.942	0.0165565
707.020	0.0163839
707.098	0.0160892
707.176	0.0159806
707.254	0.0158321
707.332	0.0159495
707.410	0.0159158
707.488	0.0159984
707.567	0.0161419
707.645	0.0164372
707.723	0.0163989
707.801	0.0166325
707.879	0.0166822
707.957	0.0167804
708.035	0.0170483
708.113	0.0169958
708.192	0.0168958
708.270	0.0168525
708.348	0.0168728
708.426	0.0168130
708.504	0.0169359
708.582	0.0169424
708.660	0.0168822
708.738	0.0168874
708.817	0.0168929
708.895	0.0167719
708.973	0.0168065
709.051	0.0168835
709.129	0.0168505
709.207	0.0168714
709.285	0.0167847
709.363	0.0167099
709.442	0.0166112
709.520	0.0164044
709.598	0.0161961
709.676	0.0162408
709.754	0.0160749
709.832	0.0160608
709.910	0.0162948
709.988	0.0162704
710.067	0.0164661
710.145	0.0167653
710.223	0.0170189
710.301	0.0172748
710.379	0.0174258
710.457	0.0178750
710.535	0.0181137
710.613	0.0181213
710.692	0.0183149
710.770	0.0182512
710.848	0.0183443
710.926	0.0182285
711.004	0.0179581
711.082	0.0178844
711.160	0.0174718
711.238	0.0171892
711.317	0.0167471
711.395	0.0163316
711.473	0.0159943
711.551	0.0158179
711.629	0.0155347
711.707	0.0153893
711.785	0.0152951
711.863	0.0153200
711.942	0.0154875
712.020	0.0157693
712.098	0.0157794
712.176	0.0159512
712.254	0.0163097
712.332	0.0164761
712.410	0.0164975
712.488	0.0164635
712.567	0.0164334
712.645	0.0164832
712.723	0.0165520
712.801	0.0164190
712.879	0.0163401
712.957	0.0161007
713.035	0.0162780
713.113	0.0161859
713.192	0.0160630
713.270	0.0160481
713.348	0.0161382
713.426	0.0161269
713.504	0.0163709
713.582	0.0164758
713.660	0.0165691
713.738	0.0165322
713.817	0.0167819
713.895	0.0169820
713.973	0.0171004
714.051	0.0172556
714.129	0.0170933
714.207	0.0172229
714.285	0.0171957
714.363	0.0171095
714.442	0.0170917
714.520	0.0171590
714.598	0.0168542
714.676	0.0168424
714.754	0.0168665
714.832	0.0166379
714.910	0.0167149
714.988	0.0167723
715.067	0.0168835
715.145	0.0168999
715.223	0.0167258
715.301	0.0168846
715.379	0.0170076
715.457	0.0171494
715.535	0.0171875
715.613	0.0171454
715.692	0.0173770
715.770	0.0176128
715.848	0.0174651
715.926	0.0174514
716.004	0.0175443
716.082	0.0175940
716.160	0.0173481
716.238	0.0172751
716.317	0.0171143
716.395	0.0168902
716.473	0.0167109
716.551	0.0164731
716.629	0.0162235
716.707	0.0161460
716.785	0.0159373
716.863	0.0159505
716.942	0.0159912
717.020	0.0160210
717.098	0.0162383
717.176	0.0165693
717.254	0.0168072
717.332	0.0170956
717.410	0.0172926
717.488	0.0177901
717.567	0.0180355
717.645	0.0181493
717.723	0.0185437
717.801	0.0185364
717.879	0.0183961
717.957	0.0182439
718.035	0.0181005
718.113	0.0177831
718.192	0.0173827
718.270	0.0170779
718.348	0.0164034
718.426	0.0160600
718.504	0.0155003
718.582	0.0150989
718.660	0.0148749
718.738	0.0145284
718.817	0.0140701
718.895	0.0141614
718.973	0.0141700
719.051	0.0141376
719.129	0.0142318
719.207	0.0145525
719.285	0.0146983
719.363	0.0149735
719.442	0.0153462
719.520	0.0158176
719.598	0.0160567
719.676	0.0163483
719.754	0.0168954
719.832	0.0172324
719.910	0.0175494
719.988	0.0178159
720.067	0.0178950
720.145	0.0179800
720.223	0.0180659
720.301	0.0178284
720.379	0.0177890
720.457	0.0176910
720.535	0.0175510
720.613	0.0174097
720.692	0.0172147
720.770	0.0171167
720.848	0.0168929
720.926	0.0167445
721.004	0.0168189
721.082	0.0167267
721.160	0.0169633
721.238	0.0170702
721.317	0.0172305
721.395	0.0173442
721.473	0.0173985
721.551	0.0175565
721.629	0.0176675
721.707	0.0179804
721.785	0.0180293
721.863	0.0181917
721.942	0.0181140
722.020	0.0180959
722.098	0.0180932
722.176	0.0180346
722.254	0.0178991
722.332	0.0177542
722.410	0.0175410
722.488	0.0173986
722.567	0.0173193
722.645	0.0171088
722.723	0.0168996
722.801	0.0167059
722.879	0.0165318
722.957	0.0165033
723.035	0.0163470
723.113	0.0161718
723.192	0.0161024
723.270	0.0161372
723.348	0.0160743
723.426	0.0159588
723.504	0.0157809
723.582	0.0158028
723.660	0.0157137
723.738	0.0155205
723.817	0.0155530
723.895	0.0153503
723.973	0.0153630
724.051	0.0152480
724.129	0.0152229
724.207	0.0151366
724.285	0.0151891
724.363	0.0152971
724.442	0.0155825
724.520	0.0156569
724.598	0.0158702
724.676	0.0161164
724.754	0.0164811
724.832	0.0165845
724.910	0.0169468
724.988	0.0171819
725.067	0.0174874
725.145	0.0174232
725.223	0.0175503
725.301	0.0175389
725.379	0.0175826
725.457	0.0174919
725.535	0.0172708
725.613	0.0172513
725.692	0.0170045
725.770	0.0167688
725.848	0.0167692
725.926	0.0166952
726.004	0.0166029
726.082	0.0165553
726.160	0.0164770
726.238	0.0165437
726.317	0.0166443
726.395	0.0168501
726.473	0.0169640
726.551	0.0171255
726.629	0.0174703
726.707	0.0174226
726.785	0.0175853
726.863	0.0175884
726.942	0.0177460
727.020	0.0179498
727.098	0.0178166
727.176	0.0176682
727.254	0.0177348
727.332	0.0175246
727.410	0.0174030
727.488	0.0175107
727.567	0.0172270
727.645	0.0171911
727.723	0.0169868
727.801	0.0168629
727.879	0.0167406
727.957	0.0166821
728.035	0.0165791
728.113	0.0165187
728.192	0.0163836
728.270	0.0162763
728.348	0.0162984
728.426	0.0164738
728.504	0.0164764
728.582	0.0164014
728.660	0.0163078
728.738	0.0165752
728.817	0.0165299
728.895	0.0165156
728.973	0.0164120
729.051	0.0163910
729.129	0.0162846
729.207	0.0162773
729.285	0.0162366
729.363	0.0161555
729.442	0.0161095
729.520	0.0161972
729.598	0.0161031
729.676	0.0160345
729.754	0.0161755
729.832	0.0161926
729.910	0.0162892
729.988	0.0163065
730.067	0.0162882
730.145	0.0164534
730.223	0.0165660
730.301	0.0166003
730.379	0.0166911
730.457	0.0167850
730.535	0.0167326
730.613	0.0167886
730.692	0.0167800
730.770	0.0167274
730.848	0.0166148
730.926	0.0167554
731.004	0.0165432
731.082	0.0164937
731.160	0.0162363
731.238	0.0162743
731.317	0.0162542
731.395	0.0161528
731.473	0.0161229
731.551	0.0161550
731.629	0.0163506
731.707	0.0164519
731.785	0.0165248
731.863	0.0167200
731.942	0.0169184
732.020	0.0168884
732.098	0.0170366
732.176	0.0172286
732.254	0.0174367
732.332	0.0175872
732.410	0.0177120
732.488	0.0177993
732.567	0.0177162
732.645	0.0175920
732.723	0.0177618
732.801	0.0176157
732.879	0.0174058
732.957	0.0174775
733.035	0.0173222
733.113	0.0173178
733.192	0.0170701
733.270	0.0170904
733.348	0.0168685
733.426	0.0168129
733.504	0.0167422
733.582	0.0166096
733.660	0.0167480
733.738	0.0165913
733.817	0.0166325
733.895	0.0164658
733.973	0.0165638
734.051	0.0164767
734.129	0.0162261
734.207	0.0161187
734.285	0.0162843
734.363	0.0162555
734.442	0.0162558
734.520	0.0163268
734.598	0.0161827
734.676	0.0162459
734.754	0.0162295
734.832	0.0161334
734.910	0.0161650
734.988	0.0163601
735.067	0.0163832
735.145	0.0163677
735.223	0.0164024
735.301	0.0166459
735.379	0.0165259
735.457	0.0164801
735.535	0.0167495
735.613	0.0166912
735.692	0.0167230
735.770	0.0166586
735.848	0.0167010
735.926	0.0167436
736.004	0.0166982
736.082	0.0166719
736.160	0.0165871
736.238	0.0165414
736.317	0.0165890
736.395	0.0166332
736.473	0.0166215
736.551	0.0165406
736.629	0.0166050
736.707	0.0165937
736.785	0.0165816
736.863	0.0165935
736.942	0.0167271
737.020	0.0168713
737.098	0.0169825
737.176	0.0170972
737.254	0.0171239
737.332	0.0172795
737.410	0.0173781
737.488	0.0174434
737.567	0.0175806
737.645	0.0174158
737.723	0.0174438
737.801	0.0172697
737.879	0.0173299
737.957	0.0172764
738.035	0.0171001
738.113	0.0169616
738.192	0.0168548
738.270	0.0166396
738.348	0.0165941
738.426	0.0163812
738.504	0.0162521
738.582	0.0162393
738.660	0.0162084
738.738	0.0162633
738.817	0.0161269
738.895	0.0162335
738.973	0.0164333
739.051	0.0165010
739.129	0.0164650
739.207	0.0164553
739.285	0.0165867
739.363	0.0166405
739.442	0.0166934
739.520	0.0168097
739.598	0.0165589
739.676	0.0166264
739.754	0.0166793
739.832	0.0166040
739.910	0.0166421
739.988	0.0165004
740.067	0.0165572
740.145	0.0165411
740.223	0.0165266
740.301	0.0163237
740.379	0.0165776
740.457	0.0165678
740.535	0.0165893
740.613	0.0166652
740.692	0.0167149
740.770	0.0166828
740.848	0.0167577
740.926	0.0168663
741.004	0.0169196
741.082	0.0170058
741.160	0.0170811
741.238	0.0169398
741.317	0.0171190
741.395	0.0171016
741.473	0.0169507
741.551	0.0169518
741.629	0.0169306
741.707	0.0168930
741.785	0.0167841
741.863	0.0166553
741.942	0.0165241
742.020	0.0165266
742.098	0.0164942
742.176	0.0163760
742.254	0.0164594
742.332	0.0165393
742.410	0.0163902
742.488	0.0164343
742.567	0.0166291
742.645	0.0167237
742.723	0.0166837
742.801	0.0167532
742.879	0.0168447
742.957	0.0169221
743.035	0.0169439
743.113	0.0172113
743.192	0.0171267
743.270	0.0172781
743.348	0.0172221
743.426	0.0171941
743.504	0.0171558
743.582	0.0171410
743.660	0.0171124
743.738	0.0171017
743.817	0.0170930
743.895	0.0170026
743.973	0.0169048
744.051	0.0168226
744.129	0.0168673
744.207	0.0167023
744.285	0.0165031
744.363	0.0163868
744.442	0.0164857
744.520	0.0163965
744.598	0.0163432
744.676	0.0164137
744.754	0.0162968
744.832	0.0162151
744.910	0.0163251
744.988	0.0163968
745.067	0.0163181
745.145	0.0164169
745.223	0.0166679
745.301	0.0166393
745.379	0.0167938
745.457	0.0168890
745.535	0.0166771
745.613	0.0167091
745.692	0.0168840
745.770	0.0168053
745.848	0.0167471
745.926	0.0168145
746.004	0.0169016
746.082	0.0168884
746.160	0.0168086
746.238	0.0167496
746.317	0.0169406
746.395	0.0167501
746.473	0.0168723
746.551	0.0167551
746.629	0.0166949
746.707	0.0170384
746.785	0.0168945
746.863	0.0168077
746.942	0.0169468
747.020	0.0170865
747.098	0.0168890
747.176	0.0169680
747.254	0.0171151
747.332	0.0169257
747.410	0.0171160
747.488	0.0171736
747.567	0.0171397
747.645	0.0170243
747.723	0.0170031
747.801	0.0170782
747.879	0.0171369
747.957	0.0171130
748.035	0.0172385
748.113	0.0171786
748.192	0.0171924
748.270	0.0170714
748.348	0.0171145
748.426	0.0171220
748.504	0.0171457
748.582	0.0171314
748.660	0.0171701
748.738	0.0169547
748.817	0.0169511
748.895	0.0167333
748.973	0.0167564
749.051	0.0165015
749.129	0.0163850
749.207	0.0163020
749.285	0.0163519
749.363	0.0161455
749.442	0.0159927
749.520	0.0159839
749.598	0.0158488
749.676	0.0158419
749.754	0.0160227
749.832	0.0160506
749.910	0.0160594
749.988	0.0162675
750.067	0.0161566
750.145	0.0163836
750.223	0.0165520
750.301	0.0165773
750.379	0.0166885
750.457	0.0168273
750.535	0.0167640
750.613	0.0168069
750.692	0.0167292
750.770	0.0167121
750.848	0.0168072
750.926	0.0167088
751.004	0.0166635
751.082	0.0166182
751.160	0.0166018
751.238	0.0166964
751.317	0.0166445
751.395	0.0167461
751.473	0.0166830
751.551	0.0167845
751.629	0.0169498
751.707	0.0168389
751.785	0.0169869
751.863	0.0169746
751.942	0.0171237
752.020	0.0171436
752.098	0.0172620
752.176	0.0171677
752.254	0.0172069
752.332	0.0172115
752.410	0.0172878
752.488	0.0172373
752.567	0.0170756
752.645	0.0172230
752.723	0.0172426
752.801	0.0169892
752.879	0.0170850
752.957	0.0171038
753.035	0.0171278
753.113	0.0168910
753.192	0.0168959
753.270	0.0170080
753.348	0.0170398
753.426	0.0169304
753.504	0.0167879
753.582	0.0168502
753.660	0.0167506
753.738	0.0168135
753.817	0.0166752
753.895	0.0166422
753.973	0.0166553
754.051	0.0164201
754.129	0.0163867
754.207	0.0163877
754.285	0.0163607
754.363	0.0161938
754.442	0.0160201
754.520	0.0160364
754.598	0.0160889
754.676	0.0161742
754.754	0.0160249
754.832	0.0161017
754.910	0.0161646
754.988	0.0162816
755.067	0.0162495
755.145	0.0163332
755.223	0.0164920
755.301	0.0164250
755.379	0.0165243
755.457	0.0166165
755.535	0.0168851
755.613	0.0168486
755.692	0.0168758
755.770	0.0170193
755.848	0.0168964
755.926	0.0170370
756.004	0.0169765
756.082	0.0167229
756.160	0.0168933
756.238	0.0168143
756.317	0.0166280
756.395	0.0167045
756.473	0.0167456
756.551	0.0167195
756.629	0.0164423
756.707	0.0165907
756.785	0.0166866
756.863	0.0165985
756.942	0.0166462
757.020	0.0166252
757.098	0.0167473
757.176	0.0166969
757.254	0.0168866
757.332	0.0171020
757.410	0.0170354
757.488	0.0169888
757.567	0.0171014
757.645	0.0170521
757.723	0.0171161
757.801	0.0171967
757.879	0.0172273
757.957	0.0171596
758.035	0.0170210
758.113	0.0170045
758.192	0.0170033
758.270	0.0170103
758.348	0.0167690
758.426	0.0167994
758.504	0.0168285
758.582	0.0167004
758.660	0.0167846
758.738	0.0165201
758.817	0.0165991
758.895	0.0164368
758.973	0.0164872
759.051	0.0164899
759.129	0.0164617
759.207	0.0165071
759.285	0.0165336
759.363	0.0164001
759.442	0.0164813
759.520	0.0167847
759.598	0.0164333
759.676	0.0163883
759.754	0.0165075
759.832	0.0164639
759.910	0.0164559
759.988	0.0164710
760.067	0.0163655
760.145	0.0164135
760.223	0.0162820
760.301	0.0162792
760.379	0.0162809
760.457	0.0163268
760.535	0.0164160
760.613	0.0163445
760.692	0.0163043
760.770	0.0163031
760.848	0.0164343
760.926	0.0165477
761.004	0.0165878
761.082	0.0166898
761.160	0.0167527
761.238	0.0167110
761.317	0.0167165
761.395	0.0167959
761.473	0.0167218
761.551	0.0168669
761.629	0.0168514
761.707	0.0168034
761.785	0.0166929
761.863	0.0166921
761.942	0.0166743
762.020	0.0166453
762.098	0.0166943
762.176	0.0166940
762.254	0.0167184
762.332	0.0167294
762.410	0.0168410
762.488	0.0169056
762.567	0.0168906
762.645	0.0168406
762.723	0.0169624
762.801	0.0170314
762.879	0.0170979
762.957	0.0170296
763.035	0.0171486
763.113	0.0171983
763.192	0.0171660
763.270	0.0171691
763.348	0.0170251
763.426	0.0170128
763.504	0.0169256
763.582	0.0170020
763.660	0.0167038
763.738	0.0166675
763.817	0.0166705
763.895	0.0167116
763.973	0.0166710
764.051	0.0165218
764.129	0.0163186
764.207	0.0163775
764.285	0.0164433
764.363	0.0162285
764.442	0.0163159
764.520	0.0163577
764.598	0.0162815
764.676	0.0164726
764.754	0.0164917
764.832	0.0164457
764.910	0.0165521
764.988	0.0164339
765.067	0.0164954
765.145	0.0165455
765.223	0.0166901
765.301	0.0166164
765.379	0.0168056
765.457	0.0168289
765.535	0.0167227
765.613	0.0168950
765.692	0.0168818
765.770	0.0167262
765.848	0.0169096
765.926	0.0170136
766.004	0.0169198
766.082	0.0170447
766.160	0.0169798
766.238	0.0170136
766.317	0.0170516
766.395	0.0170264
766.473	0.0170992
766.551	0.0171182
766.629	0.0170039
766.707	0.0169292
766.785	0.0170576
766.863	0.0169146
766.942	0.0168108
767.020	0.0169517
767.098	0.0167384
767.176	0.0167521
767.254	0.0167870
767.332	0.0166653
767.410	0.0166563
767.488	0.0167384
767.567	0.0166743
767.645	0.0165954
767.723	0.0165967
767.801	0.0165530
767.879	0.0165344
767.957	0.0166479
768.035	0.0165165
768.113	0.0166509
768.192	0.0166335
768.270	0.0165991
768.348	0.0164160
768.426	0.0163805
768.504	0.0163960
768.582	0.0162572
768.660	0.0163879
768.738	0.0163019
768.817	0.0161256
768.895	0.0162120
768.973	0.0162492
769.051	0.0163770
769.129	0.0163882
769.207	0.0163867
769.285	0.0164562
769.363	0.0164828
769.442	0.0165924
769.520	0.0165553
769.598	0.0168329
769.676	0.0170304
769.754	0.0169085
769.832	0.0169285
769.910	0.0170083
769.988	0.0170546
770.067	0.0171285
770.145	0.0171764
770.223	0.0171394
770.301	0.0172192
770.379	0.0172124
770.457	0.0172230
770.535	0.0171461
770.613	0.0170190
770.692	0.0169161
770.770	0.0170174
770.848	0.0169918
770.926	0.0169517
771.004	0.0169092
771.082	0.0169210
771.160	0.0166785
771.238	0.0168136
771.317	0.0167254
771.395	0.0167966
771.473	0.0167770
771.551	0.0168302
771.629	0.0167339
771.707	0.0166850
771.785	0.0167950
771.863	0.0168610
771.942	0.0167740
772.020	0.0169112
772.098	0.0168238
772.176	0.0168389
772.254	0.0168125
772.332	0.0167806
772.410	0.0169152
772.488	0.0168565
772.567	0.0169256
772.645	0.0166674
772.723	0.0167793
772.801	0.0167470
772.879	0.0167831
772.957	0.0168277
773.035	0.0168197
773.113	0.0167463
773.192	0.0167513
773.270	0.0168375
773.348	0.0167525
773.426	0.0165802
773.504	0.0165802
773.582	0.0166296
773.660	0.0165656
773.738	0.0165229
773.817	0.0165082
773.895	0.0164935
773.973	0.0164659
774.051	0.0164463
774.129	0.0164420
774.207	0.0162991
774.285	0.0164202
774.363	0.0163992
774.442	0.0162799
774.520	0.0164247
774.598	0.0163106
774.676	0.0164958
774.754	0.0164190
774.832	0.0162494
774.910	0.0165271
774.988	0.0166077
775.067	0.0164806
775.145	0.0166348
775.223	0.0165076
775.301	0.0166243
775.379	0.0167706
775.457	0.0167815
775.535	0.0166901
775.613	0.0168362
775.692	0.0168350
775.770	0.0168700
775.848	0.0169171
775.926	0.0168344
776.004	0.0169270
776.082	0.0169065
776.160	0.0170592
776.238	0.0167327
776.317	0.0168274
776.395	0.0167099
776.473	0.0168749
776.551	0.0170005
776.629	0.0168647
776.707	0.0168320
776.785	0.0169415
776.863	0.0169971
776.942	0.0171149
777.020	0.0168821
777.098	0.0170858
777.176	0.0169916
777.254	0.0170510
777.332	0.0170422
777.410	0.0169475
777.488	0.0169332
777.567	0.0169634
777.645	0.0169376
777.723	0.0170079
777.801	0.0169164
777.879	0.0169428
777.957	0.0168027
778.035	0.0167950
778.113	0.0168794
778.192	0.0169189
778.270	0.0168604
778.348	0.0168292
778.426	0.0168111
778.504	0.0166832
778.582	0.0168256
778.660	0.0168282
778.738	0.0167317
778.817	0.0166490
778.895	0.0166148
778.973	0.0166371
779.051	0.0166259
779.129	0.0164599
779.207	0.0163065
779.285	0.0164744
779.363	0.0162870
779.442	0.0163356
779.520	0.0165096
779.598	0.0162739
779.676	0.0163300
779.754	0.0164771
779.832	0.0164282
779.910	0.0165238
779.988	0.0166832
780.067	0.0166206
780.145	0.0165364
780.223	0.0168352
780.301	0.0167879
780.379	0.0169362
780.457	0.0169512
780.535	0.0170168
780.613	0.0171048
780.692	0.0171499
780.770	0.0171062
780.848	0.0170341
780.926	0.0169465
781.004	0.0169384
781.082	0.0168243
781.160	0.0167216
781.238	0.0165954
781.317	0.0165337
781.395	0.0165232
781.473	0.0164169
781.551	0.0163229
781.629	0.0160589
781.707	0.0161254
781.785	0.0159952
781.863	0.0159172
781.942	0.0158153
782.020	0.0158131
782.098	0.0158823
782.176	0.0157121
782.254	0.0158358
782.332	0.0158134
782.410	0.0160144
782.488	0.0160786
782.567	0.0160310
782.645	0.0162346
782.723	0.0164348
782.801	0.0166411
782.879	0.0166177
782.957	0.0167702
783.035	0.0169593
783.113	0.0172279
783.192	0.0172892
783.270	0.0173403
783.348	0.0175255
783.426	0.0176408
783.504	0.0177497
783.582	0.0179969
783.660	0.0180278
783.738	0.0180663
783.817	0.0180634
783.895	0.0181410
783.973	0.0181042
784.051	0.0179667
784.129	0.0181309
784.207	0.0178278
784.285	0.0178015
784.363	0.0176836
784.442	0.0176376
784.520	0.0173073
784.598	0.0170835
784.676	0.0170016
784.754	0.0168758
784.832	0.0166360
784.910	0.0162518
784.988	0.0160146
785.067	0.0160197
785.145	0.0157706
785.223	0.0155352
785.301	0.0154057
785.379	0.0153105
785.457	0.0152381
785.535	0.0149317
785.613	0.0149231
785.692	0.0150732
785.770	0.0149864
785.848	0.0153011
785.926	0.0154003
786.004	0.0154482
786.082	0.0155812
786.160	0.0158878
786.238	0.0160394
786.317	0.0162161
786.395	0.0164735
786.473	0.0167043
786.551	0.0170322
786.629	0.0171378
786.707	0.0174026
786.785	0.0174055
786.863	0.0174988
786.942	0.0175781
787.020	0.0176313
787.098	0.0179179
787.176	0.0179175
787.254	0.0179256
787.332	0.0177979
787.410	0.0177931
787.488	0.0180113
787.567	0.0178609
787.645	0.0177003
787.723	0.0174274
787.801	0.0175475
787.879	0.0174395
787.957	0.0172841
788.035	0.0170519
788.113	0.0169569
788.192	0.0166035
788.270	0.0164386
788.348	0.0162499
788.426	0.0161877
788.504	0.0160562
788.582	0.0159282
788.660	0.0157465
788.738	0.0157229
788.817	0.0156102
788.895	0.0155445
788.973	0.0155978
789.051	0.0155346
789.129	0.0153756
789.207	0.0153856
789.285	0.0154601
789.363	0.0156318
789.442	0.0156665
789.520	0.0157009
789.598	0.0157849
789.676	0.0159816
789.754	0.0159439
789.832	0.0161523
789.910	0.0163721
789.988	0.0167973
790.067	0.0169038
790.145	0.0171458
790.223	0.0173264
790.301	0.0172614
790.379	0.0175672
790.457	0.0177315
790.535	0.0178786
790.613	0.0179474
790.692	0.0178799
790.770	0.0179478
790.848	0.0180341
790.926	0.0179454
791.004	0.0178880
791.082	0.0178833
791.160	0.0179093
791.238	0.0177859
791.317	0.0177425
791.395	0.0177892
791.473	0.0176895
791.551	0.0174805
791.629	0.0174071
791.707	0.0174017
791.785	0.0172584
791.863	0.0171848
791.942	0.0170143
792.020	0.0168407
792.098	0.0167496
792.176	0.0166631
792.254	0.0164687
792.332	0.0163087
792.410	0.0162542
792.488	0.0162791
792.567	0.0160410
792.645	0.0160348
792.723	0.0159664
792.801	0.0159635
792.879	0.0158904
792.957	0.0159300
793.035	0.0159863
793.113	0.0160614
793.192	0.0159132
793.270	0.0159187
793.348	0.0159589
793.426	0.0160534
793.504	0.0159457
793.582	0.0159830
793.660	0.0161314
793.738	0.0160417
793.817	0.0162341
793.895	0.0160529
793.973	0.0161378
794.051	0.0162135
794.129	0.0163760
794.207	0.0164981
794.285	0.0165410
794.363	0.0165655
794.442	0.0167822
794.520	0.0167859
794.598	0.0167787
794.676	0.0168336
794.754	0.0168756
794.832	0.0170287
794.910	0.0170476
794.988	0.0170921
795.067	0.0172857
795.145	0.0173483
795.223	0.0172072
795.301	0.0172891
795.379	0.0174345
795.457	0.0173493
795.535	0.0172565
795.613	0.0173502
795.692	0.0173592
795.770	0.0172528
795.848	0.0172317
795.926	0.0171215
796.004	0.0171898
796.082	0.0169476
796.160	0.0169088
796.238	0.0169938
796.317	0.0168516
796.395	0.0168596
796.473	0.0167400
796.551	0.0167751
796.629	0.0168115
796.707	0.0167823
796.785	0.0168472
796.863	0.0168864
796.942	0.0168672
797.020	0.0167703
797.098	0.0167484
797.176	0.0168108
797.254	0.0168994
797.332	0.0167197
797.410	0.0167694
797.488	0.0164938
797.567	0.0163892
797.645	0.0162172
797.723	0.0162318
797.801	0.0162410
797.879	0.0162886
797.957	0.0161069
798.035	0.0161729
798.113	0.0162177
798.192	0.0162232
798.270	0.0161651
798.348	0.0162267
798.426	0.0163435
798.504	0.0163754
798.582	0.0163850
798.660	0.0164203
798.738	0.0164611
798.817	0.0165973
798.895	0.0167882
798.973	0.0167559
799.051	0.0167756
799.129	0.0169040
799.207	0.0170625
799.285	0.0171557
799.363	0.0172798
799.442	0.0172686
799.520	0.0172665
799.598	0.0172548
799.676	0.0172368
799.754	0.0172642
799.832	0.0172788
799.910	0.0171848
799.988	0.0171698
800.067	0.0170557
800.145	0.0169709
800.223	0.0170284
800.301	0.0168934
800.379	0.0169678
800.457	0.0168073
800.535	0.0166823
800.613	0.0167764
800.692	0.0166696
800.770	0.0167054
800.848	0.0166073
800.926	0.0165443
801.004	0.0165859
801.082	0.0164737
801.160	0.0163371
801.238	0.0163866
801.317	0.0164172
801.395	0.0162778
801.473	0.0164085
801.551	0.0163842
801.629	0.0164725
801.707	0.0164529
801.785	0.0164824
801.863	0.0165797
801.942	0.0164942
802.020	0.0165086
802.098	0.0165958
802.176	0.0167128
802.254	0.0167509
802.332	0.0167299
802.410	0.0167228
802.488	0.0167587
802.567	0.0167991
802.645	0.0167526
802.723	0.0167722
802.801	0.0166311
802.879	0.0167200
802.957	0.0167767
803.035	0.0166934
803.113	0.0165968
803.192	0.0166692
803.270	0.0166964
803.348	0.0166061
803.426	0.0166833
803.504	0.0168636
803.582	0.0168516
803.660	0.0167616
803.738	0.0168092
803.817	0.0168173
803.895	0.0169039
803.973	0.0170319
804.051	0.0169471
804.129	0.0169858
804.207	0.0169591
804.285	0.0168141
804.363	0.0169193
804.442	0.0168359
804.520	0.0167567
804.598	0.0168775
804.676	0.0168005
804.754	0.0169769
804.832	0.0168110
804.910	0.0168349
804.988	0.0167670
805.067	0.0168385
805.145	0.0167397
805.223	0.0167949
805.301	0.0170390
805.379	0.0167450
805.457	0.0168259
805.535	0.0167121
805.613	0.0167345
805.692	0.0166279
805.770	0.0166187
805.848	0.0166348
805.926	0.0166399
806.004	0.0166035
806.082	0.0165870
806.160	0.0166817
806.238	0.0168535
806.317	0.0168251
806.395	0.0166352
806.473	0.0167681
806.551	0.0168968
806.629	0.0167693
806.707	0.0169279
806.785	0.0169026
806.863	0.0168167
806.942	0.0167535
807.020	0.0167169
807.098	0.0169615
807.176	0.0169735
807.254	0.0166183
807.332	0.0167819
807.410	0.0167795
807.488	0.0165879
807.567	0.0168098
807.645	0.0166233
807.723	0.0167584
807.801	0.0166533
807.879	0.0167331
807.957	0.0166012
808.035	0.0166090
808.113	0.0167156
808.192	0.0166119
808.270	0.0165823
808.348	0.0168501
808.426	0.0166949
808.504	0.0166092
808.582	0.0166894
808.660	0.0168795
808.738	0.0169424
808.817	0.0168439
808.895	0.0168900
808.973	0.0168906
809.051	0.0168668
809.129	0.0167813
809.207	0.0168344
809.285	0.0166513
809.363	0.0165995
809.442	0.0166355
809.520	0.0166589
809.598	0.0165422
809.676	0.0163822
809.754	0.0164114
809.832	0.0163804
809.910	0.0161875
809.988	0.0162945
810.067	0.0162067
810.145	0.0162341
810.223	0.0162537
810.301	0.0162477
810.379	0.0164214
810.457	0.0163729
810.535	0.0164384
810.613	0.0165166
810.692	0.0166695
810.770	0.0166465
810.848	0.0166780
810.926	0.0168350
811.004	0.0168808
811.082	0.0169334
811.160	0.0169268
811.238	0.0171278
811.317	0.0170108
811.395	0.0171783
811.473	0.0171835
811.551	0.0171040
811.629	0.0171204
811.707	0.0172535
811.785	0.0171164
811.863	0.0170160
811.942	0.0172119
812.020	0.0171523
812.098	0.0172530
812.176	0.0172347
812.254	0.0171890
812.332	0.0173186
812.410	0.0171330
812.488	0.0170905
812.567	0.0170810
812.645	0.0170465
812.723	0.0169980
812.801	0.0168404
812.879	0.0169522
812.957	0.0167919
813.035	0.0167538
813.113	0.0167706
813.192	0.0167444
813.270	0.0165858
813.348	0.0165598
813.426	0.0165383
813.504	0.0163469
813.582	0.0163258
813.660	0.0166250
813.738	0.0165817
813.817	0.0164655
813.895	0.0165139
813.973	0.0165444
814.051	0.0166692
814.129	0.0166628
814.207	0.0165936
814.285	0.0166618
814.363	0.0166944
814.442	0.0167737
814.520	0.0168144
814.598	0.0167019
814.676	0.0164342
814.754	0.0165456
814.832	0.0165646
814.910	0.0166388
814.988	0.0165170
815.067	0.0164048
815.145	0.0162460
815.223	0.0162148
815.301	0.0164030
815.379	0.0162634
815.457	0.0163066
815.535	0.0162756
815.613	0.0163207
815.692	0.0165228
815.770	0.0166078
815.848	0.0165720
815.926	0.0166586
816.004	0.0167645
816.082	0.0167241
816.160	0.0169420
816.238	0.0168995
816.317	0.0170027
816.395	0.0169315
816.473	0.0169828
816.551	0.0171055
816.629	0.0170789
816.707	0.0172262
816.785	0.0171659
816.863	0.0171687
816.942	0.0170771
817.020	0.0171184
817.098	0.0171278
817.176	0.0171281
817.254	0.0172695
817.332	0.0171459
817.410	0.0171435
817.488	0.0171396
817.567	0.0171864
817.645	0.0171053
817.723	0.0171352
817.801	0.0171304
817.879	0.0170908
817.957	0.0170056
818.035	0.0171261
818.113	0.0170473
818.192	0.0169208
818.270	0.0168612
818.348	0.0167717
818.426	0.0167358
818.504	0.0165471
818.582	0.0166229
818.660	0.0165381
818.738	0.0165243
818.817	0.0164906
818.895	0.0164371
818.973	0.0163824
819.051	0.0164181
819.129	0.0163909
819.207	0.0164439
819.285	0.0163880
819.363	0.0165198
819.442	0.0164861
819.520	0.0163851
819.598	0.0165530
819.676	0.0166231
819.754	0.0165650
819.832	0.0167643
819.910	0.0167663
819.988	0.0169094
820.067	0.0170073
820.145	0.0169074
820.223	0.0169308
820.301	0.0171048
820.379	0.0171097
820.457	0.0169411
820.535	0.0170565
820.613	0.0169225
820.692	0.0170186
820.770	0.0168462
820.848	0.0168798
820.926	0.0167923
821.004	0.0166209
821.082	0.0167046
821.160	0.0164783
821.238	0.0165484
821.317	0.0165970
821.395	0.0164663
821.473	0.0162905
821.551	0.0165095
821.629	0.0163892
821.707	0.0162503
821.785	0.0163607
821.863	0.0163725
821.942	0.0164293
822.020	0.0165257
822.098	0.0166379
822.176	0.0166268
822.254	0.0166869
822.332	0.0168653
822.410	0.0167647
822.488	0.0165894
822.567	0.0168501
822.645	0.0169390
822.723	0.0169460
822.801	0.0170136
822.879	0.0171313
822.957	0.0170074
823.035	0.0170138
823.113	0.0170238
823.192	0.0170535
823.270	0.0170333
823.348	0.0170296
823.426	0.0171580
823.504	0.0170796
823.582	0.0171191
823.660	0.0171017
823.738	0.0170361
823.817	0.0171353
823.895	0.0171202
823.973	0.0171585
824.051	0.0170917
824.129	0.0170550
824.207	0.0170219
824.285	0.0170565
824.363	0.0169634
824.442	0.0168154
824.520	0.0168795
824.598	0.0167786
824.676	0.0167848
824.754	0.0167857
824.832	0.0166781
824.910	0.0165980
824.988	0.0165580
825.067	0.0165446
825.145	0.0163959
825.223	0.0164047
825.301	0.0163866
825.379	0.0164350
825.457	0.0164070
825.535	0.0162724
825.613	0.0162344
825.692	0.0164442
825.770	0.0162982
825.848	0.0162962
825.926	0.0164098
826.004	0.0163148
826.082	0.0164098
826.160	0.0163248
826.238	0.0162479
826.317	0.0165443
826.395	0.0165945
826.473	0.0164740
826.551	0.0166180
826.629	0.0166927
826.707	0.0166504
826.785	0.0166245
826.863	0.0166753
826.942	0.0167712
827.020	0.0167141
827.098	0.0167605
827.176	0.0166716
827.254	0.0167207
827.332	0.0168591
827.410	0.0168129
827.488	0.0165971
827.567	0.0166142
827.645	0.0165601
827.723	0.0167041
827.801	0.0166728
827.879	0.0166599
827.957	0.0165768
828.035	0.0165588
828.113	0.0166538
828.192	0.0166673
828.270	0.0167889
828.348	0.0168466
828.426	0.0168977
828.504	0.0169070
828.582	0.0170157
828.660	0.0169673
828.738	0.0170448
828.817	0.0170831
828.895	0.0170671
828.973	0.0170955
829.051	0.0170821
829.129	0.0171059
829.207	0.0171766
829.285	0.0171610
829.363	0.0172382
829.442	0.0172147
829.520	0.0171638
829.598	0.0171235
829.676	0.0171394
829.754	0.0170972
829.832	0.0169905
829.910	0.0169596
829.988	0.0166529
830.067	0.0168238
830.145	0.0168309
830.223	0.0165933
830.301	0.0165999
830.379	0.0165543
830.457	0.0164825
830.535	0.0165104
830.613	0.0162631
830.692	0.0164159
830.770	0.0162865
830.848	0.0162688
830.926	0.0163510
831.004	0.0161671
831.082	0.0161861
831.160	0.0162629
831.238	0.0162685
831.317	0.0162054
831.395	0.0162309
831.473	0.0162054
831.551	0.0162215
831.629	0.0163169
831.707	0.0163451
831.785	0.0164367
831.863	0.0165207
831.942	0.0164732
832.020	0.0166386
832.098	0.0168635
832.176	0.0167476
832.254	0.0168132
832.332	0.0167661
832.410	0.0169926
832.488	0.0170459
832.567	0.0172540
832.645	0.0173190
832.723	0.0171617
832.801	0.0172071
832.879	0.0171014
832.957	0.0172835
833.035	0.0173649
833.113	0.0171893
833.192	0.0171370
833.270	0.0170779
833.348	0.0171191
833.426	0.0171642
833.504	0.0170477
833.582	0.0168967
833.660	0.0169252
833.738	0.0169601
833.817	0.0168513
833.895	0.0168502
833.973	0.0168031
834.051	0.0166238
834.129	0.0166756
834.207	0.0167232
834.285	0.0166305
834.363	0.0165822
834.442	0.0165831
834.520	0.0165252
834.598	0.0163599
834.676	0.0165871
834.754	0.0165736
834.832	0.0164146
834.910	0.0163570
834.988	0.0164077
835.067	0.0163437
835.145	0.0163879
835.223	0.0162807
835.301	0.0164281
835.379	0.0164527
835.457	0.0163923
835.535	0.0164735
835.613	0.0164504
835.692	0.0164346
835.770	0.0165964
835.848	0.0166287
835.926	0.0166734
836.004	0.0166746
836.082	0.0165958
836.160	0.0167752
836.238	0.0169285
836.317	0.0170545
836.395	0.0168874
836.473	0.0169231
836.551	0.0170706
836.629	0.0170602
836.707	0.0170660
836.785	0.0172865
836.863	0.0171538
836.942	0.0170770
837.020	0.0171162
837.098	0.0171407
837.176	0.0171251
837.254	0.0169592
837.332	0.0170279
837.410	0.0171715
837.488	0.0171034
837.567	0.0170724
837.645	0.0169605
837.723	0.0170184
837.801	0.0169567
837.879	0.0169068
837.957	0.0168864
838.035	0.0167278
838.113	0.0167471
838.192	0.0168288
838.270	0.0168887
838.348	0.0168360
838.426	0.0167584
838.504	0.0167967
838.582	0.0167921
838.660	0.0165504
838.738	0.0166012
838.817	0.0165729
838.895	0.0164957
838.973	0.0166171
839.051	0.0165455
839.129	0.0165359
839.207	0.0164925
839.285	0.0165057
839.363	0.0164014
839.442	0.0163098
839.520	0.0164814
839.598	0.0163119
839.676	0.0164885
839.754	0.0163422
839.832	0.0163610
839.910	0.0163162
839.988	0.0164539
840.067	0.0165119
840.145	0.0164920
840.223	0.0165983
840.301	0.0166294
840.379	0.0167516
840.457	0.0168382
840.535	0.0167474
840.613	0.0167328
840.692	0.0169956
840.770	0.0169720
840.848	0.0168777
840.926	0.0170104
841.004	0.0169221
841.082	0.0169054
841.160	0.0170008
841.238	0.0169035
841.317	0.0169937
841.395	0.0169241
841.473	0.0168687
841.551	0.0170318
841.629	0.0170679
841.707	0.0169581
841.785	0.0169548
841.863	0.0168281
841.942	0.0169466
842.020	0.0169061
842.098	0.0167315
842.176	0.0168348
842.254	0.0169187
842.332	0.0168482
842.410	0.0169084
842.488	0.0168201
842.567	0.0168127
842.645	0.0168080
842.723	0.0168246
842.801	0.0167028
842.879	0.0167427
842.957	0.0167010
843.035	0.0166349
843.113	0.0166559
843.192	0.0167608
843.270	0.0166950
843.348	0.0166804
843.426	0.0167550
843.504	0.0166175
843.582	0.0167230
843.660	0.0167205
843.738	0.0168226
843.817	0.0166592
843.895	0.0167219
843.973	0.0168739
844.051	0.0167219
844.129	0.0168626
844.207	0.0168799
844.285	0.0168443
844.363	0.0168946
844.442	0.0168587
844.520	0.0169686
844.598	0.0168857
844.676	0.0167490
844.754	0.0167522
844.832	0.0168413
844.910	0.0167649
844.988	0.0167494
845.067	0.0167973
845.145	0.0166440
845.223	0.0167470
845.301	0.0167245
845.379	0.0166494
845.457	0.0166116
845.535	0.0165303
845.613	0.0164030
845.692	0.0164832
845.770	0.0165949
845.848	0.0164092
845.926	0.0164620
846.004	0.0165601
846.082	0.0165238
846.160	0.0166029
846.238	0.0163653
846.317	0.0163806
846.395	0.0166344
846.473	0.0164732
846.551	0.0164584
846.629	0.0164902
846.707	0.0165955
846.785	0.0165843
846.863	0.0165747
846.942	0.0167213
847.020	0.0166879
847.098	0.0167433
847.176	0.0168057
847.254	0.0168887
847.332	0.0169102
847.410	0.0168843
847.488	0.0168851
847.567	0.0168751
847.645	0.0169067
847.723	0.0169382
847.801	0.0169103
847.879	0.0168894
847.957	0.0169891
848.035	0.0169006
848.113	0.0167847
848.192	0.0168550
848.270	0.0168322
848.348	0.0168507
848.426	0.0168340
848.504	0.0168917
848.582	0.0170084
848.660	0.0169448
848.738	0.0169175
848.817	0.0169793
848.895	0.0169559
848.973	0.0169088
849.051	0.0169100
849.129	0.0168610
849.207	0.0167186
849.285	0.0166422
849.363	0.0169171
849.442	0.0167199
849.520	0.0165926
849.598	0.0167031
849.676	0.0167112
849.754	0.0166988
849.832	0.0167437
849.910	0.0165954
849.988	0.0166569
850.067	0.0165872
850.145	0.0166557
850.223	0.0165474
850.301	0.0167216
850.379	0.0167429
850.457	0.0166588
850.535	0.0167217
850.613	0.0166001
850.692	0.0166044
850.770	0.0167213
850.848	0.0164875
850.926	0.0165966
851.004	0.0165493
851.082	0.0167220
851.160	0.0165188
851.238	0.0166306
851.317	0.0165054
851.395	0.0163782
851.473	0.0165912
851.551	0.0165298
851.629	0.0166047
851.707	0.0164708
851.785	0.0166000
851.863	0.0166001
851.942	0.0166367
852.020	0.0166697
852.098	0.0165458
852.176	0.0165804
852.254	0.0166894
852.332	0.0166348
852.410	0.0167239
852.488	0.0165887
852.567	0.0167178
852.645	0.0167719
852.723	0.0166615
852.801	0.0166811
852.879	0.0167190
852.957	0.0167641
853.035	0.0167245
853.113	0.0165546
853.192	0.0168008
853.270	0.0168072
853.348	0.0168146
853.426	0.0166945
853.504	0.0166441
853.582	0.0165841
853.660	0.0167138
853.738	0.0167594
853.817	0.0165661
853.895	0.0165833
853.973	0.0165629
854.051	0.0168737
854.129	0.0166881
854.207	0.0167509
854.285	0.0167545
854.363	0.0166542
854.442	0.0167463
854.520	0.0167197
854.598	0.0167269
854.676	0.0165951
854.754	0.0167143
854.832	0.0166124
854.910	0.0168200
854.988	0.0166795
855.067	0.0167599
855.145	0.0166975
855.223	0.0166843
855.301	0.0167381
855.379	0.0167912
855.457	0.0167123
855.535	0.0166631
855.613	0.0167944
855.692	0.0167331
855.770	0.0168422
855.848	0.0166904
855.926	0.0166725
856.004	0.0166684
856.082	0.0166704
856.160	0.0166800
856.238	0.0167091
856.317	0.0166964
856.395	0.0167019
856.473	0.0167019
856.551	0.0165574
856.629	0.0165842
856.707	0.0166579
856.785	0.0165823
856.863	0.0167433
856.942	0.0166194
857.020	0.0166004
857.098	0.0166792
857.176	0.0167352
857.254	0.0166481
857.332	0.0167075
857.410	0.0166797
857.488	0.0166410
857.567	0.0168146
857.645	0.0167193
857.723	0.0167896
857.801	0.0167342
857.879	0.0166482
857.957	0.0169011
858.035	0.0168250
858.113	0.0168723
858.192	0.0166892
858.270	0.0166661
858.348	0.0167377
858.426	0.0165595
858.504	0.0166210
858.582	0.0166075
858.660	0.0165269
858.738	0.0165282
858.817	0.0166412
858.895	0.0164633
858.973	0.0163927
859.051	0.0164996
859.129	0.0164401
859.207	0.0165356
859.285	0.0165181
859.363	0.0166286
859.442	0.0165089
859.520	0.0166375
859.598	0.0166412
859.676	0.0165855
859.754	0.0167896
859.832	0.0169189
859.910	0.0168092
859.988	0.0168253
860.067	0.0168324
860.145	0.0168507
860.223	0.0171227
860.301	0.0169289
860.379	0.0169082
860.457	0.0168109
860.535	0.0167931
860.613	0.0167081
860.692	0.0166492
860.770	0.0167889
860.848	0.0167690
860.926	0.0166188
861.004	0.0165976
861.082	0.0166927
861.160	0.0165752
861.238	0.0164455
861.317	0.0166132
861.395	0.0165778
861.473	0.0165712
861.551	0.0165851
861.629	0.0165353
861.707	0.0166091
861.785	0.0165099
861.863	0.0166856
861.942	0.0165319
862.020	0.0166759
862.098	0.0165719
862.176	0.0165106
862.254	0.0167342
862.332	0.0166824
862.410	0.0166846
862.488	0.0167620
862.567	0.0167400
862.645	0.0166936
862.723	0.0165228
862.801	0.0165792
862.879	0.0167931
862.957	0.0168290
863.035	0.0165990
863.113	0.0166097
863.192	0.0165749
863.270	0.0166238
863.348	0.0166051
863.426	0.0166693
863.504	0.0166167
863.582	0.0165605
863.660	0.0166973
863.738	0.0166249
863.817	0.0166943
863.895	0.0166437
863.973	0.0165865
864.051	0.0165928
864.129	0.0166658
864.207	0.0166306
864.285	0.0166911
864.363	0.0166217
864.442	0.0168044
864.520	0.0167343
864.598	0.0167135
864.676	0.0167277
864.754	0.0167104
864.832	0.0167406
864.910	0.0165431
864.988	0.0164667
865.067	0.0166666
865.145	0.0165263
865.223	0.0164452
865.301	0.0163484
865.379	0.0164877
865.457	0.0164583
865.535	0.0164444
865.613	0.0164374
865.692	0.0164829
865.770	0.0165553
865.848	0.0166852
865.926	0.0165808
866.004	0.0166178
866.082	0.0165306
866.160	0.0167022
866.238	0.0167109
866.317	0.0167402
866.395	0.0168009
866.473	0.0168026
866.551	0.0167104
866.629	0.0167615
866.707	0.0167557
866.785	0.0168301
866.863	0.0168628
866.942	0.0167434
867.020	0.0169315
867.098	0.0169398
867.176	0.0169727
867.254	0.0170605
867.332	0.0169780
867.410	0.0170385
867.488	0.0169591
867.567	0.0169552
867.645	0.0168133
867.723	0.0167307
867.801	0.0167909
867.879	0.0167797
867.957	0.0167156
868.035	0.0166411
868.113	0.0166031
868.192	0.0165401
868.270	0.0166683
868.348	0.0165543
868.426	0.0164722
868.504	0.0165250
868.582	0.0165733
868.660	0.0166776
868.738	0.0165727
868.817	0.0165039
868.895	0.0164922
868.973	0.0166473
869.051	0.0166389
869.129	0.0165158
869.207	0.0166699
869.285	0.0164783
869.363	0.0166003
869.442	0.0165457
869.520	0.0165574
869.598	0.0168870
869.676	0.0166960
869.754	0.0167732
869.832	0.0168571
869.910	0.0168164
869.988	0.0167090
870.067	0.0167907
870.145	0.0169382
870.223	0.0169740
870.301	0.0168158
870.379	0.0168851
870.457	0.0167368
870.535	0.0167510
870.613	0.0167424
870.692	0.0167403
870.770	0.0168133
870.848	0.0166524
870.926	0.0166396
871.004	0.0167747
871.082	0.0166645
871.160	0.0167511
871.238	0.0167214
871.317	0.0167188
871.395	0.0167875
871.473	0.0167084
871.551	0.0166918
871.629	0.0168396
871.707	0.0167114
871.785	0.0167443
871.863	0.0167386
871.942	0.0168237
872.020	0.0167523
872.098	0.0164762
872.176	0.0165356
872.254	0.0166417
872.332	0.0164158
872.410	0.0163575
872.488	0.0165457
872.567	0.0163734
872.645	0.0162620
872.723	0.0164575
872.801	0.0165971
872.879	0.0164169
872.957	0.0165676
873.035	0.0166529
873.113	0.0166730
873.192	0.0165066
873.270	0.0166534
873.348	0.0166419
873.426	0.0167639
873.504	0.0166703
873.582	0.0166853
873.660	0.0167155
873.738	0.0168037
873.817	0.0168400
873.895	0.0168240
873.973	0.0167626
874.051	0.0167760
874.129	0.0168233
874.207	0.0169975
874.285	0.0168953
874.363	0.0169141
874.442	0.0168822
874.520	0.0168992
874.598	0.0169210
874.676	0.0167480
874.754	0.0167747
874.832	0.0168721
874.910	0.0168850
874.988	0.0169330
875.067	0.0168219
875.145	0.0167900
875.223	0.0166641
875.301	0.0167777
875.379	0.0167693
875.457	0.0168749
875.535	0.0168553
875.613	0.0167409
875.692	0.0168648
875.770	0.0169592
875.848	0.0169425
875.926	0.0169407
876.004	0.0169952
876.082	0.0170995
876.160	0.0170947
876.238	0.0169955
876.317	0.0171568
876.395	0.0170588
876.473	0.0168793
876.551	0.0166949
876.629	0.0165948
876.707	0.0165381
876.785	0.0161471
876.863	0.0160130
876.942	0.0159119
877.020	0.0157607
877.098	0.0156992
877.176	0.0159138
877.254	0.0157808
877.332	0.0157547
877.410	0.0159149
877.488	0.0158717
877.567	0.0160738
877.645	0.0162348
877.723	0.0162800
877.801	0.0163938
877.879	0.0166658
877.957	0.0168801
878.035	0.0169637
878.113	0.0171816
878.192	0.0174432
878.270	0.0174709
878.348	0.0174851
878.426	0.0174651
878.504	0.0176666
878.582	0.0175968
878.660	0.0177036
878.738	0.0176543
878.817	0.0175096
878.895	0.0176383
878.973	0.0173602
879.051	0.0171501
879.129	0.0172104
879.207	0.0170362
879.285	0.0170186
879.363	0.0167899
879.442	0.0168152
879.520	0.0168236
879.598	0.0165605
879.676	0.0165229
879.754	0.0164577
879.832	0.0163669
879.910	0.0164217
879.988	0.0163811
880.067	0.0161795
880.145	0.0160792
880.223	0.0159344
880.301	0.0160540
880.379	0.0158852
880.457	0.0158624
880.535	0.0157557
880.613	0.0156770
880.692	0.0156554
880.770	0.0155050
880.848	0.0155064
880.926	0.0156368
881.004	0.0156756
881.082	0.0159060
881.160	0.0162319
881.238	0.0163155
881.317	0.0165384
881.395	0.0168914
881.473	0.0171600
881.551	0.0174476
881.629	0.0175953
881.707	0.0178349
881.785	0.0180415
881.863	0.0181876
881.942	0.0182454
882.020	0.0181146
882.098	0.0179778
882.176	0.0179363
882.254	0.0176538
882.332	0.0173678
882.410	0.0172263
882.488	0.0169925
882.567	0.0168439
882.645	0.0167144
882.723	0.0165533
882.801	0.0165710
882.879	0.0164857
882.957	0.0163841
883.035	0.0162713
883.113	0.0163959
883.192	0.0163709
883.270	0.0164338
883.348	0.0164679
883.426	0.0162849
883.504	0.0163080
883.582	0.0163289
883.660	0.0162287
883.738	0.0161336
883.817	0.0161337
883.895	0.0161112
883.973	0.0161194
884.051	0.0161548
884.129	0.0159032
884.207	0.0160293
884.285	0.0158945
884.363	0.0158752
884.442	0.0159461
884.520	0.0159994
884.598	0.0158347
884.676	0.0159779
884.754	0.0162293
884.832	0.0161107
884.910	0.0164321
884.988	0.0166215
885.067	0.0168128
885.145	0.0168869
885.223	0.0171149
885.301	0.0173924
885.379	0.0175678
885.457	0.0176608
885.535	0.0178623
885.613	0.0179671
885.692	0.0178893
885.770	0.0180543
885.848	0.0178973
885.926	0.0177867
886.004	0.0175602
886.082	0.0175082
886.160	0.0173062
886.238	0.0170876
886.317	0.0168249
886.395	0.0167373
886.473	0.0167064
886.551	0.0165338
886.629	0.0164090
886.707	0.0163743
886.785	0.0164767
886.863	0.0165016
886.942	0.0165791
887.020	0.0166207
887.098	0.0166245
887.176	0.0165938
887.254	0.0165890
887.332	0.0165665
887.410	0.0165654
887.488	0.0165230
887.567	0.0162291
887.645	0.0161131
887.723	0.0161717
887.801	0.0161664
887.879	0.0160292
887.957	0.0158833
888.035	0.0160007
888.113	0.0159235
888.192	0.0158341
888.270	0.0159899
888.348	0.0157967
888.426	0.0160336
888.504	0.0162449
888.582	0.0162621
888.660	0.0162727
888.738	0.0164605
888.817	0.0166539
888.895	0.0166730
888.973	0.0167392
889.051	0.0168846
889.129	0.0170158
889.207	0.0170293
889.285	0.0172317
889.363	0.0170422
889.442	0.0171796
889.520	0.0172075
889.598	0.0173884
889.676	0.0172025
889.754	0.0171635
889.832	0.0171817
889.910	0.0172415
889.988	0.0172342
890.067	0.0170448
890.145	0.0169991
890.223	0.0171570
890.301	0.0169733
890.379	0.0170261
890.457	0.0171488
890.535	0.0170901
890.613	0.0170153
890.692	0.0171270
890.770	0.0170215
890.848	0.0171438
890.926	0.0170906
891.004	0.0170264
891.082	0.0168283
891.160	0.0168333
891.238	0.0166859
891.317	0.0167286
891.395	0.0166008
891.473	0.0164397
891.551	0.0164106
891.629	0.0163557
891.707	0.0160957
891.785	0.0161220
891.863	0.0161980
891.942	0.0160939
892.020	0.0160056
892.098	0.0161240
892.176	0.0161340
892.254	0.0160509
892.332	0.0161058
892.410	0.0162535
892.488	0.0164361
892.567	0.0165147
892.645	0.0167567
892.723	0.0167759
892.801	0.0168337
892.879	0.0169389
892.957	0.0170701
893.035	0.0172620
893.113	0.0171484
893.192	0.0170315
893.270	0.0171812
893.348	0.0170519
893.426	0.0170784
893.504	0.0171961
893.582	0.0172158
893.660	0.0171395
893.738	0.0172527
893.817	0.0170408
893.895	0.0168829
893.973	0.0170749
894.051	0.0169173
894.129	0.0169287
894.207	0.0169754
894.285	0.0167886
894.363	0.0169940
894.442	0.0168849
894.520	0.0170244
894.598	0.0168220
894.676	0.0168834
894.754	0.0169505
894.832	0.0168301
894.910	0.0167171
894.988	0.0168699
895.067	0.0168430
895.145	0.0167009
895.223	0.0166732
895.301	0.0164877
895.379	0.0165904
895.457	0.0166889
895.535	0.0166127
895.613	0.0166458
895.692	0.0165705
895.770	0.0165835
895.848	0.0166328
895.926	0.0165802
896.004	0.0164433
896.082	0.0164735
896.160	0.0164085
896.238	0.0163044
896.317	0.0163552
896.395	0.0164563
896.473	0.0164819
896.551	0.0162182
896.629	0.0163998
896.707	0.0163976
896.785	0.0163408
896.863	0.0164893
896.942	0.0165456
897.020	0.0166483
897.098	0.0167635
897.176	0.0167962
897.254	0.0166962
897.332	0.0169421
897.410	0.0169164
897.488	0.0170074
897.567	0.0168803
897.645	0.0168711
897.723	0.0170298
897.801	0.0171898
897.879	0.0172192
897.957	0.0171262
898.035	0.0171405
898.113	0.0170890
898.192	0.0171074
898.270	0.0170479
898.348	0.0168700
898.426	0.0167721
898.504	0.0169524
898.582	0.0167710
898.660	0.0166858
898.738	0.0167953
898.817	0.0167313
898.895	0.0166480
898.973	0.0166344
899.051	0.0165166
899.129	0.0166277
899.207	0.0166551
899.285	0.0168136
899.363	0.0166837
899.442	0.0166697
899.520	0.0168073
899.598	0.0167686
899.676	0.0168343
899.754	0.0169379
899.832	0.0169156
899.910	0.0168363
899.988	0.0168033
900.067	0.0168607
900.145	0.0169868
900.223	0.0167608
900.301	0.0167427
900.379	0.0167625
900.457	0.0166095
900.535	0.0164673
900.613	0.0166654
900.692	0.0165204
900.770	0.0164424
900.848	0.0164198
900.926	0.0163699
901.004	0.0163735
901.082	0.0162125
901.160	0.0163097
901.238	0.0163575
901.317	0.0163311
901.395	0.0163671
901.473	0.0163094
901.551	0.0164951
901.629	0.0164882
901.707	0.0166393
901.785	0.0167627
901.863	0.0167583
901.942	0.0167374
902.020	0.0167864
902.098	0.0168288
902.176	0.0168550
902.254	0.0170351
902.332	0.0170188
902.410	0.0170556
902.488	0.0169462
902.567	0.0170314
902.645	0.0169153
902.723	0.0170256
902.801	0.0169324
902.879	0.0170675
902.957	0.0169402
903.035	0.0169995
903.113	0.0169567
903.192	0.0170850
903.270	0.0171149
903.348	0.0168139
903.426	0.0168780
903.504	0.0168835
903.582	0.0169307
903.660	0.0169133
903.738	0.0169942
903.817	0.0168461
903.895	0.0167968
903.973	0.0168124
904.051	0.0167364
904.129	0.0165562
904.207	0.0165083
904.285	0.0165645
904.363	0.0165738
904.442	0.0164900
904.520	0.0163842
904.598	0.0164483
904.676	0.0163715
904.754	0.0164287
904.832	0.0164336
904.910	0.0165118
904.988	0.0165063
905.067	0.0165280
905.145	0.0166714
905.223	0.0165554
905.301	0.0167123
905.379	0.0168459
905.457	0.0168063
905.535	0.0169196
905.613	0.0168904
905.692	0.0168768
905.770	0.0167926
905.848	0.0169746
905.926	0.0168845
906.004	0.0167105
906.082	0.0167707
906.160	0.0167149
906.238	0.0167369
906.317	0.0166937
906.395	0.0166033
906.473	0.0165507
906.551	0.0167830
906.629	0.0166477
906.707	0.0166083
906.785	0.0165623
906.863	0.0167319
906.942	0.0167456
907.020	0.0165722
907.098	0.0167194
907.176	0.0167140
907.254	0.0166874
907.332	0.0167024
907.410	0.0167366
907.488	0.0168031
907.567	0.0169681
907.645	0.0168326
907.723	0.0168132
907.801	0.0167614
907.879	0.0168678
907.957	0.0169720
908.035	0.0167724
908.113	0.0168310
908.192	0.0164900
908.270	0.0166322
908.348	0.0166883
908.426	0.0167822
908.504	0.0167638
908.582	0.0166909
908.660	0.0167840
908.738	0.0166769
908.817	0.0167837
908.895	0.0169243
908.973	0.0168469
909.051	0.0167365
909.129	0.0168348
909.207	0.0169990
909.285	0.0169604
909.363	0.0168852
909.442	0.0168560
909.520	0.0168181
909.598	0.0167464
909.676	0.0168096
909.754	0.0166595
909.832	0.0165088
909.910	0.0164297
909.988	0.0164614
910.067	0.0164135
910.145	0.0163806
910.223	0.0163851
910.301	0.0162532
910.379	0.0163087
910.457	0.0163096
910.535	0.0165165
910.613	0.0163794
910.692	0.0165749
910.770	0.0165443
910.848	0.0164664
910.926	0.0167060
911.004	0.0166811
911.082	0.0168036
911.160	0.0168396
911.238	0.0168511
911.317	0.0168288
911.395	0.0170480
911.473	0.0170845
911.551	0.0170963
911.629	0.0170959
911.707	0.0172184
911.785	0.0170858
911.863	0.0169718
911.942	0.0170089
912.020	0.0169817
912.098	0.0168102
912.176	0.0168701
912.254	0.0167607
912.332	0.0168108
912.410	0.0166911
912.488	0.0167021
912.567	0.0166732
912.645	0.0165600
912.723	0.0166589
912.801	0.0164792
912.879	0.0167009
912.957	0.0165104
913.035	0.0166507
913.113	0.0164880
913.192	0.0167336
913.270	0.0166420
913.348	0.0166985
913.426	0.0167803
913.504	0.0167908
913.582	0.0167924
913.660	0.0168186
913.738	0.0166790
913.817	0.0165898
913.895	0.0168612
913.973	0.0167875
914.051	0.0166706
914.129	0.0167490
914.207	0.0168583
914.285	0.0168707
914.363	0.0168096
914.442	0.0167155
914.520	0.0166978
914.598	0.0167791
914.676	0.0167718
914.754	0.0167990
914.832	0.0168921
914.910	0.0169287
914.988	0.0168236
915.067	0.0169109
915.145	0.0168517
915.223	0.0168185
915.301	0.0168726
915.379	0.0168902
915.457	0.0168813
915.535	0.0170187
915.613	0.0168072
915.692	0.0169330
915.770	0.0169611
915.848	0.0168874
915.926	0.0168896
916.004	0.0169320
916.082	0.0167744
916.160	0.0169444
916.238	0.0169466
916.317	0.0170306
916.395	0.0169003
916.473	0.0168161
916.551	0.0168814
916.629	0.0169735
916.707	0.0168468
916.785	0.0169343
916.863	0.0169701
916.942	0.0168285
917.020	0.0168762
917.098	0.0170245
917.176	0.0168730
917.254	0.0166531
917.332	0.0167357
917.410	0.0167188
917.488	0.0166225
917.567	0.0166589
917.645	0.0168845
917.723	0.0166759
917.801	0.0166216
917.879	0.0166341
917.957	0.0166897
918.035	0.0167458
918.113	0.0167326
918.192	0.0167918
918.270	0.0166176
918.348	0.0166768
918.426	0.0166878
918.504	0.0165807
918.582	0.0167149
918.660	0.0167538
918.738	0.0166595
918.817	0.0166310
918.895	0.0166284
918.973	0.0167096
919.051	0.0165308
919.129	0.0167949
919.207	0.0167998
919.285	0.0166226
919.363	0.0165310
919.442	0.0166171
919.520	0.0167304
919.598	0.0166818
919.676	0.0166872
919.754	0.0168053
919.832	0.0166884
919.910	0.0167431
