05/24/2022	20:12:48	Ver.	4.1	UNKNOWN
Optical Delay	599.988409	Delta X		0.078125	Sweeps	1	Scan Rate	0/0
Coordinates	Axis 1	NaN	Axis 2	NaN	Axis 3	NaN	Axis 4	NaN	Axis 5	NaN	Axis 6	0.000000
TX Power	0.000000	RX Power	0.000000

599.988	0.0171419
600.067	0.0171500
600.145	0.0170657
600.223	0.0172046
600.301	0.0171968
600.379	0.0170228
600.457	0.0171607
600.535	0.0171882
600.613	0.0171378
600.692	0.0171994
600.770	0.0171732
600.848	0.0170261
600.926	0.0172041
601.004	0.0172190
601.082	0.0172515
601.160	0.0172353
601.238	0.0170483
601.317	0.0169891
601.395	0.0170538
601.473	0.0171626
601.551	0.0171412
601.629	0.0171610
601.707	0.0172443
601.785	0.0171046
601.863	0.0171423
601.942	0.0172018
602.020	0.0171565
602.098	0.0171111
602.176	0.0171803
602.254	0.0171959
602.332	0.0171535
602.410	0.0170914
602.488	0.0172119
602.567	0.0170536
602.645	0.0170045
602.723	0.0171699
602.801	0.0171696
602.879	0.0171781
602.957	0.0171417
603.035	0.0170998
603.113	0.0171658
603.192	0.0171652
603.270	0.0171636
603.348	0.0171706
603.426	0.0170752
603.504	0.0171401
603.582	0.0170193
603.660	0.0171029
603.738	0.0170787
603.817	0.0171088
603.895	0.0171745
603.973	0.0170253
604.051	0.0170930
604.129	0.0170914
604.207	0.0170479
604.285	0.0170567
604.363	0.0170805
604.442	0.0170918
604.520	0.0170438
604.598	0.0171525
604.676	0.0170528
604.754	0.0170251
604.832	0.0171379
604.910	0.0170307
604.988	0.0170258
605.067	0.0170692
605.145	0.0172344
605.223	0.0170930
605.301	0.0169527
605.379	0.0170522
605.457	0.0171225
605.535	0.0171183
605.613	0.0171190
605.692	0.0170789
605.770	0.0170317
605.848	0.0171219
605.926	0.0170335
606.004	0.0170919
606.082	0.0171222
606.160	0.0171835
606.238	0.0171853
606.317	0.0172515
606.395	0.0170885
606.473	0.0171925
606.551	0.0170933
606.629	0.0172153
606.707	0.0171988
606.785	0.0171641
606.863	0.0170692
606.942	0.0170281
607.020	0.0172063
607.098	0.0171508
607.176	0.0171582
607.254	0.0171144
607.332	0.0171201
607.410	0.0170981
607.488	0.0171566
607.567	0.0171605
607.645	0.0168932
607.723	0.0171014
607.801	0.0172310
607.879	0.0170830
607.957	0.0170241
608.035	0.0170016
608.113	0.0170356
608.192	0.0170210
608.270	0.0171994
608.348	0.0170378
608.426	0.0170808
608.504	0.0171204
608.582	0.0172408
608.660	0.0171530
608.738	0.0171801
608.817	0.0170897
608.895	0.0171708
608.973	0.0171194
609.051	0.0172070
609.129	0.0172188
609.207	0.0172561
609.285	0.0172027
609.363	0.0171693
609.442	0.0171294
609.520	0.0170148
609.598	0.0171204
609.676	0.0172576
609.754	0.0172821
609.832	0.0173331
609.910	0.0172432
609.988	0.0172337
610.067	0.0172218
610.145	0.0171272
610.223	0.0171056
610.301	0.0171770
610.379	0.0171313
610.457	0.0170856
610.535	0.0170789
610.613	0.0170586
610.692	0.0171263
610.770	0.0170681
610.848	0.0172501
610.926	0.0172030
611.004	0.0172136
611.082	0.0170520
611.160	0.0171796
611.238	0.0171104
611.317	0.0171504
611.395	0.0171010
611.473	0.0171075
611.551	0.0171361
611.629	0.0171870
611.707	0.0170165
611.785	0.0170679
611.863	0.0171096
611.942	0.0172459
612.020	0.0171436
612.098	0.0170760
612.176	0.0170554
612.254	0.0169825
612.332	0.0170387
612.410	0.0170304
612.488	0.0170910
612.567	0.0170921
612.645	0.0171884
612.723	0.0172239
612.801	0.0170667
612.879	0.0172703
612.957	0.0172445
613.035	0.0173422
613.113	0.0170712
613.192	0.0171557
613.270	0.0173267
613.348	0.0172064
613.426	0.0172377
613.504	0.0171469
613.582	0.0172669
613.660	0.0171396
613.738	0.0171603
613.817	0.0172401
613.895	0.0171835
613.973	0.0172386
614.051	0.0171037
614.129	0.0171468
614.207	0.0173120
614.285	0.0173222
614.363	0.0171287
614.442	0.0171264
614.520	0.0171072
614.598	0.0172620
614.676	0.0171429
614.754	0.0170837
614.832	0.0171522
614.910	0.0171180
614.988	0.0171902
615.067	0.0171031
615.145	0.0171587
615.223	0.0170674
615.301	0.0172185
615.379	0.0170146
615.457	0.0170803
615.535	0.0170676
615.613	0.0171605
615.692	0.0170714
615.770	0.0170918
615.848	0.0170599
615.926	0.0169501
616.004	0.0170376
616.082	0.0171300
616.160	0.0170422
616.238	0.0171911
616.317	0.0171494
616.395	0.0171143
616.473	0.0171078
616.551	0.0170679
616.629	0.0171469
616.707	0.0171997
616.785	0.0171474
616.863	0.0171428
616.942	0.0170924
617.020	0.0170592
617.098	0.0171272
617.176	0.0171728
617.254	0.0170965
617.332	0.0172236
617.410	0.0172099
617.488	0.0172057
617.567	0.0172513
617.645	0.0171967
617.723	0.0172020
617.801	0.0171771
617.879	0.0171982
617.957	0.0171664
618.035	0.0172512
618.113	0.0172439
618.192	0.0172022
618.270	0.0170586
618.348	0.0173004
618.426	0.0172098
618.504	0.0171101
618.582	0.0171351
618.660	0.0171872
618.738	0.0172379
618.817	0.0170625
618.895	0.0171794
618.973	0.0171796
619.051	0.0171471
619.129	0.0171110
619.207	0.0171198
619.285	0.0169343
619.363	0.0171664
619.442	0.0171689
619.520	0.0170367
619.598	0.0170293
619.676	0.0169656
619.754	0.0171054
619.832	0.0170344
619.910	0.0171003
619.988	0.0171842
620.067	0.0169659
620.145	0.0169718
620.223	0.0172031
620.301	0.0170814
620.379	0.0171484
620.457	0.0171107
620.535	0.0170663
620.613	0.0172314
620.692	0.0170726
620.770	0.0171149
620.848	0.0171044
620.926	0.0172648
621.004	0.0170421
621.082	0.0171575
621.160	0.0171925
621.238	0.0171617
621.317	0.0172812
621.395	0.0172095
621.473	0.0169843
621.551	0.0171391
621.629	0.0172188
621.707	0.0170807
621.785	0.0171404
621.863	0.0170650
621.942	0.0171646
622.020	0.0172134
622.098	0.0169550
622.176	0.0171455
622.254	0.0170997
622.332	0.0170783
622.410	0.0171777
622.488	0.0171474
622.567	0.0171983
622.645	0.0170523
622.723	0.0171036
622.801	0.0171879
622.879	0.0171127
622.957	0.0172661
623.035	0.0172465
623.113	0.0172372
623.192	0.0171705
623.270	0.0172473
623.348	0.0170953
623.426	0.0170723
623.504	0.0171526
623.582	0.0170844
623.660	0.0172710
623.738	0.0171027
623.817	0.0170841
623.895	0.0172218
623.973	0.0171341
624.051	0.0170664
624.129	0.0172283
624.207	0.0170263
624.285	0.0171174
624.363	0.0171048
624.442	0.0170945
624.520	0.0172159
624.598	0.0170849
624.676	0.0171398
624.754	0.0171638
624.832	0.0172263
624.910	0.0170387
624.988	0.0172130
625.067	0.0172886
625.145	0.0172179
625.223	0.0170230
625.301	0.0171214
625.379	0.0171199
625.457	0.0171087
625.535	0.0172798
625.613	0.0172016
625.692	0.0170502
625.770	0.0171225
625.848	0.0170779
625.926	0.0171659
626.004	0.0171946
626.082	0.0170283
626.160	0.0170090
626.238	0.0171084
626.317	0.0171774
626.395	0.0172455
626.473	0.0171780
626.551	0.0171736
626.629	0.0171571
626.707	0.0172078
626.785	0.0172254
626.863	0.0170607
626.942	0.0171179
627.020	0.0170789
627.098	0.0171991
627.176	0.0171512
627.254	0.0171677
627.332	0.0172409
627.410	0.0171350
627.488	0.0171854
627.567	0.0171100
627.645	0.0170697
627.723	0.0171446
627.801	0.0170950
627.879	0.0170370
627.957	0.0172464
628.035	0.0173231
628.113	0.0171439
628.192	0.0170872
628.270	0.0170695
628.348	0.0171279
628.426	0.0171242
628.504	0.0172070
628.582	0.0171935
628.660	0.0169821
628.738	0.0171555
628.817	0.0171095
628.895	0.0170169
628.973	0.0169784
629.051	0.0169232
629.129	0.0170419
629.207	0.0171365
629.285	0.0170387
629.363	0.0170550
629.442	0.0171634
629.520	0.0171387
629.598	0.0169472
629.676	0.0170380
629.754	0.0170758
629.832	0.0171358
629.910	0.0171741
629.988	0.0170715
630.067	0.0170499
630.145	0.0170808
630.223	0.0170839
630.301	0.0170815
630.379	0.0171288
630.457	0.0171927
630.535	0.0171818
630.613	0.0170785
630.692	0.0169852
630.770	0.0171031
630.848	0.0171409
630.926	0.0170131
631.004	0.0170456
631.082	0.0171427
631.160	0.0170317
631.238	0.0171481
631.317	0.0170654
631.395	0.0171532
631.473	0.0170979
631.551	0.0171060
631.629	0.0171478
631.707	0.0171578
631.785	0.0172301
631.863	0.0171844
631.942	0.0170467
632.020	0.0171822
632.098	0.0170946
632.176	0.0171590
632.254	0.0172820
632.332	0.0170595
632.410	0.0171326
632.488	0.0173085
632.567	0.0171416
632.645	0.0171913
632.723	0.0172397
632.801	0.0172269
632.879	0.0172887
632.957	0.0171353
633.035	0.0172171
633.113	0.0172092
633.192	0.0172762
633.270	0.0171863
633.348	0.0171941
633.426	0.0170724
633.504	0.0172540
633.582	0.0170242
633.660	0.0170719
633.738	0.0172684
633.817	0.0171352
633.895	0.0171264
633.973	0.0171715
634.051	0.0172073
634.129	0.0172165
634.207	0.0170658
634.285	0.0170924
634.363	0.0171570
634.442	0.0171864
634.520	0.0171632
634.598	0.0170930
634.676	0.0171760
634.754	0.0172675
634.832	0.0171905
634.910	0.0171051
634.988	0.0170431
635.067	0.0171466
635.145	0.0173142
635.223	0.0171768
635.301	0.0170826
635.379	0.0172455
635.457	0.0173907
635.535	0.0171566
635.613	0.0171927
635.692	0.0171529
635.770	0.0171971
635.848	0.0171655
635.926	0.0171523
636.004	0.0171361
636.082	0.0171391
636.160	0.0171382
636.238	0.0172810
636.317	0.0171504
636.395	0.0170902
636.473	0.0170493
636.551	0.0171465
636.629	0.0172027
636.707	0.0170823
636.785	0.0171384
636.863	0.0170948
636.942	0.0170245
637.020	0.0170493
637.098	0.0171170
637.176	0.0170863
637.254	0.0171950
637.332	0.0171540
637.410	0.0172250
637.488	0.0171828
637.567	0.0171684
637.645	0.0171481
637.723	0.0171355
637.801	0.0171201
637.879	0.0171488
637.957	0.0171057
638.035	0.0170514
638.113	0.0172032
638.192	0.0171732
638.270	0.0172055
638.348	0.0171162
638.426	0.0171527
638.504	0.0170760
638.582	0.0171233
638.660	0.0172474
638.738	0.0171698
638.817	0.0170475
638.895	0.0170340
638.973	0.0170839
639.051	0.0170676
639.129	0.0171145
639.207	0.0170727
639.285	0.0171095
639.363	0.0171062
639.442	0.0171748
639.520	0.0171309
639.598	0.0170671
639.676	0.0172966
639.754	0.0171790
639.832	0.0172921
639.910	0.0172453
639.988	0.0171609
640.067	0.0170766
640.145	0.0171777
640.223	0.0171672
640.301	0.0170867
640.379	0.0171092
640.457	0.0170152
640.535	0.0170792
640.613	0.0171986
640.692	0.0171211
640.770	0.0170972
640.848	0.0170805
640.926	0.0170715
641.004	0.0170697
641.082	0.0170557
641.160	0.0171610
641.238	0.0171292
641.317	0.0172367
641.395	0.0173020
641.473	0.0172693
641.551	0.0170858
641.629	0.0170539
641.707	0.0171725
641.785	0.0169930
641.863	0.0172122
641.942	0.0171873
642.020	0.0170570
642.098	0.0169702
642.176	0.0172292
642.254	0.0171873
642.332	0.0171059
642.410	0.0171338
642.488	0.0170894
642.567	0.0172291
642.645	0.0171037
642.723	0.0171864
642.801	0.0171281
642.879	0.0171110
642.957	0.0171071
643.035	0.0170750
643.113	0.0170836
643.192	0.0172108
643.270	0.0171004
643.348	0.0172016
643.426	0.0171227
643.504	0.0171217
643.582	0.0171012
643.660	0.0170231
643.738	0.0170763
643.817	0.0170538
643.895	0.0170018
643.973	0.0171691
644.051	0.0171201
644.129	0.0170753
644.207	0.0171896
644.285	0.0170730
644.363	0.0169748
644.442	0.0170782
644.520	0.0170797
644.598	0.0170970
644.676	0.0171793
644.754	0.0171266
644.832	0.0172606
644.910	0.0171796
644.988	0.0170359
645.067	0.0170345
645.145	0.0171416
645.223	0.0170675
645.301	0.0170891
645.379	0.0170597
645.457	0.0170700
645.535	0.0171335
645.613	0.0170998
645.692	0.0170107
645.770	0.0170319
645.848	0.0171616
645.926	0.0170747
646.004	0.0171603
646.082	0.0170537
646.160	0.0170934
646.238	0.0170591
646.317	0.0171520
646.395	0.0172861
646.473	0.0170435
646.551	0.0170757
646.629	0.0170469
646.707	0.0170644
646.785	0.0171875
646.863	0.0171827
646.942	0.0170977
647.020	0.0171481
647.098	0.0171455
647.176	0.0171918
647.254	0.0170473
647.332	0.0170126
647.410	0.0171514
647.488	0.0171186
647.567	0.0171072
647.645	0.0171235
647.723	0.0170367
647.801	0.0170782
647.879	0.0171912
647.957	0.0170810
648.035	0.0170036
648.113	0.0171566
648.192	0.0171964
648.270	0.0169943
648.348	0.0170934
648.426	0.0170848
648.504	0.0170459
648.582	0.0171015
648.660	0.0171571
648.738	0.0170333
648.817	0.0168526
648.895	0.0170981
648.973	0.0171774
649.051	0.0170820
649.129	0.0171304
649.207	0.0171320
649.285	0.0169118
649.363	0.0170876
649.442	0.0170367
649.520	0.0171278
649.598	0.0171782
649.676	0.0170638
649.754	0.0171227
649.832	0.0171098
649.910	0.0171556
649.988	0.0170673
650.067	0.0171169
650.145	0.0171614
650.223	0.0171490
650.301	0.0171018
650.379	0.0172240
650.457	0.0170879
650.535	0.0171250
650.613	0.0169350
650.692	0.0170752
650.770	0.0170790
650.848	0.0171564
650.926	0.0170702
651.004	0.0171226
651.082	0.0170489
651.160	0.0171901
651.238	0.0171644
651.317	0.0170770
651.395	0.0172527
651.473	0.0171619
651.551	0.0170651
651.629	0.0171734
651.707	0.0171962
651.785	0.0170525
651.863	0.0171542
651.942	0.0172558
652.020	0.0171397
652.098	0.0172224
652.176	0.0170841
652.254	0.0172015
652.332	0.0170877
652.410	0.0172280
652.488	0.0170856
652.567	0.0171817
652.645	0.0170091
652.723	0.0171247
652.801	0.0171976
652.879	0.0172916
652.957	0.0172216
653.035	0.0170950
653.113	0.0172537
653.192	0.0171766
653.270	0.0170042
653.348	0.0172036
653.426	0.0172470
653.504	0.0171474
653.582	0.0172475
653.660	0.0172133
653.738	0.0171992
653.817	0.0170143
653.895	0.0171754
653.973	0.0171041
654.051	0.0171460
654.129	0.0171497
654.207	0.0171613
654.285	0.0171509
654.363	0.0171363
654.442	0.0171519
654.520	0.0171489
654.598	0.0171599
654.676	0.0170843
654.754	0.0172039
654.832	0.0171438
654.910	0.0170531
654.988	0.0171522
655.067	0.0171232
655.145	0.0171247
655.223	0.0171996
655.301	0.0173573
655.379	0.0171443
655.457	0.0170744
655.535	0.0171718
655.613	0.0171504
655.692	0.0170461
655.770	0.0171605
655.848	0.0171477
655.926	0.0171577
656.004	0.0172129
656.082	0.0172411
656.160	0.0172517
656.238	0.0170781
656.317	0.0170358
656.395	0.0170618
656.473	0.0172566
656.551	0.0172143
656.629	0.0171787
656.707	0.0171425
656.785	0.0171148
656.863	0.0171466
656.942	0.0172238
657.020	0.0172248
657.098	0.0170361
657.176	0.0171329
657.254	0.0172314
657.332	0.0170518
657.410	0.0170611
657.488	0.0172026
657.567	0.0170819
657.645	0.0171190
657.723	0.0170742
657.801	0.0171465
657.879	0.0172150
657.957	0.0171211
658.035	0.0171346
658.113	0.0170718
658.192	0.0171766
658.270	0.0172105
658.348	0.0171312
658.426	0.0172022
658.504	0.0171201
658.582	0.0170879
658.660	0.0171266
658.738	0.0170809
658.817	0.0170092
658.895	0.0171944
658.973	0.0172913
659.051	0.0171516
659.129	0.0171236
659.207	0.0169472
659.285	0.0172088
659.363	0.0171175
659.442	0.0170357
659.520	0.0170551
659.598	0.0169763
659.676	0.0170844
659.754	0.0171394
659.832	0.0171600
659.910	0.0171831
659.988	0.0171162
660.067	0.0168785
660.145	0.0170788
660.223	0.0171311
660.301	0.0172208
660.379	0.0170506
660.457	0.0169846
660.535	0.0171000
660.613	0.0169957
660.692	0.0171018
660.770	0.0171531
660.848	0.0170310
660.926	0.0171582
661.004	0.0170663
661.082	0.0171039
661.160	0.0172321
661.238	0.0171717
661.317	0.0170789
661.395	0.0170906
661.473	0.0171227
661.551	0.0171822
661.629	0.0169485
661.707	0.0172054
661.785	0.0170871
661.863	0.0171455
661.942	0.0170333
662.020	0.0169866
662.098	0.0171642
662.176	0.0171787
662.254	0.0170462
662.332	0.0171035
662.410	0.0169942
662.488	0.0170536
662.567	0.0171439
662.645	0.0172163
662.723	0.0171021
662.801	0.0171580
662.879	0.0173309
662.957	0.0171972
663.035	0.0170074
663.113	0.0171297
663.192	0.0171565
663.270	0.0171698
663.348	0.0170821
663.426	0.0171292
663.504	0.0171070
663.582	0.0170663
663.660	0.0171979
663.738	0.0171252
663.817	0.0170764
663.895	0.0171894
663.973	0.0171248
664.051	0.0170530
664.129	0.0170922
664.207	0.0171563
664.285	0.0171027
664.363	0.0171243
664.442	0.0171513
664.520	0.0171820
664.598	0.0171343
664.676	0.0172131
664.754	0.0170832
664.832	0.0170879
664.910	0.0171197
664.988	0.0171538
665.067	0.0171308
665.145	0.0169831
665.223	0.0171536
665.301	0.0171252
665.379	0.0172825
665.457	0.0171436
665.535	0.0170597
665.613	0.0171388
665.692	0.0171903
665.770	0.0171766
665.848	0.0170955
665.926	0.0171053
666.004	0.0171803
666.082	0.0170534
666.160	0.0171206
666.238	0.0172755
666.317	0.0171195
666.395	0.0169867
666.473	0.0172147
666.551	0.0172478
666.629	0.0171638
666.707	0.0172073
666.785	0.0171688
666.863	0.0170625
666.942	0.0171357
667.020	0.0170186
667.098	0.0171841
667.176	0.0171033
667.254	0.0170079
667.332	0.0171813
667.410	0.0172236
667.488	0.0172570
667.567	0.0170872
667.645	0.0171642
667.723	0.0172601
667.801	0.0169690
667.879	0.0170288
667.957	0.0172206
668.035	0.0171651
668.113	0.0172982
668.192	0.0170425
668.270	0.0169764
668.348	0.0172609
668.426	0.0171521
668.504	0.0170251
668.582	0.0170609
668.660	0.0171717
668.738	0.0171546
668.817	0.0171326
668.895	0.0170573
668.973	0.0171218
669.051	0.0170277
669.129	0.0171206
669.207	0.0171368
669.285	0.0170717
669.363	0.0169967
669.442	0.0171216
669.520	0.0170518
669.598	0.0170878
669.676	0.0170427
669.754	0.0170599
669.832	0.0172175
669.910	0.0172108
669.988	0.0171307
670.067	0.0170075
670.145	0.0169730
670.223	0.0170378
670.301	0.0171441
670.379	0.0170256
670.457	0.0171080
670.535	0.0170966
670.613	0.0171460
670.692	0.0170904
670.770	0.0171681
670.848	0.0172418
670.926	0.0173317
671.004	0.0171758
671.082	0.0171389
671.160	0.0171661
671.238	0.0172260
671.317	0.0171833
671.395	0.0171859
671.473	0.0171661
671.551	0.0171716
671.629	0.0172107
671.707	0.0172076
671.785	0.0172297
671.863	0.0172743
671.942	0.0172618
672.020	0.0174343
672.098	0.0174074
672.176	0.0172935
672.254	0.0173249
672.332	0.0172752
672.410	0.0171761
672.488	0.0172476
672.567	0.0173023
672.645	0.0172729
672.723	0.0171661
672.801	0.0170573
672.879	0.0169803
672.957	0.0170006
673.035	0.0168668
673.113	0.0169121
673.192	0.0168369
673.270	0.0168663
673.348	0.0166991
673.426	0.0166340
673.504	0.0166133
673.582	0.0166693
673.660	0.0166084
673.738	0.0166051
673.817	0.0165441
673.895	0.0165927
673.973	0.0167671
674.051	0.0167156
674.129	0.0168070
674.207	0.0171225
674.285	0.0172628
674.363	0.0173183
674.442	0.0173967
674.520	0.0174808
674.598	0.0175819
674.676	0.0177001
674.754	0.0177206
674.832	0.0178998
674.910	0.0180244
674.988	0.0177594
675.067	0.0178654
675.145	0.0181008
675.223	0.0180459
675.301	0.0179791
675.379	0.0179872
675.457	0.0179483
675.535	0.0177042
675.613	0.0176231
675.692	0.0174097
675.770	0.0172606
675.848	0.0171198
675.926	0.0171700
676.004	0.0170715
676.082	0.0169646
676.160	0.0168813
676.238	0.0168580
676.317	0.0170358
676.395	0.0170078
676.473	0.0170107
676.551	0.0169548
676.629	0.0170036
676.707	0.0166821
676.785	0.0164845
676.863	0.0164178
676.942	0.0162897
677.020	0.0162449
677.098	0.0162833
677.176	0.0162605
677.254	0.0161766
677.332	0.0162501
677.410	0.0163101
677.488	0.0164056
677.567	0.0164565
677.645	0.0163464
677.723	0.0162353
677.801	0.0163095
677.879	0.0161025
677.957	0.0160980
678.035	0.0162281
678.113	0.0162378
678.192	0.0166530
678.270	0.0168870
678.348	0.0171788
678.426	0.0174020
678.504	0.0177305
678.582	0.0179316
678.660	0.0181663
678.738	0.0183279
678.817	0.0185519
678.895	0.0187309
678.973	0.0189864
679.051	0.0189216
679.129	0.0190652
679.207	0.0191850
679.285	0.0194093
679.363	0.0194273
679.442	0.0193114
679.520	0.0190310
679.598	0.0190331
679.676	0.0186284
679.754	0.0183627
679.832	0.0179690
679.910	0.0176891
679.988	0.0173825
680.067	0.0171722
680.145	0.0167089
680.223	0.0167665
680.301	0.0163615
680.379	0.0161036
680.457	0.0162112
680.535	0.0159133
680.613	0.0157654
680.692	0.0157980
680.770	0.0155290
680.848	0.0155026
680.926	0.0151595
681.004	0.0151896
681.082	0.0152415
681.160	0.0151365
681.238	0.0152756
681.317	0.0154819
681.395	0.0157125
681.473	0.0158772
681.551	0.0159412
681.629	0.0161884
681.707	0.0161708
681.785	0.0162501
681.863	0.0165999
681.942	0.0168300
682.020	0.0171288
682.098	0.0174021
682.176	0.0179103
682.254	0.0181108
682.332	0.0186094
682.410	0.0191456
682.488	0.0195392
682.567	0.0197428
682.645	0.0201402
682.723	0.0202109
682.801	0.0204077
682.879	0.0202953
682.957	0.0200900
683.035	0.0196468
683.113	0.0192479
683.192	0.0187707
683.270	0.0182085
683.348	0.0177423
683.426	0.0172003
683.504	0.0163805
683.582	0.0157251
683.660	0.0152110
683.738	0.0143584
683.817	0.0137622
683.895	0.0133695
683.973	0.0128667
684.051	0.0125345
684.129	0.0126285
684.207	0.0129672
684.285	0.0132516
684.363	0.0138316
684.442	0.0146883
684.520	0.0154038
684.598	0.0162057
684.676	0.0170284
684.754	0.0177489
684.832	0.0184753
684.910	0.0190449
684.988	0.0196633
685.067	0.0200415
685.145	0.0204995
685.223	0.0209091
685.301	0.0210815
685.379	0.0215479
685.457	0.0217535
685.535	0.0219374
685.613	0.0220695
685.692	0.0222910
685.770	0.0223447
685.848	0.0223246
685.926	0.0223978
686.004	0.0221255
686.082	0.0216193
686.160	0.0210223
686.238	0.0204025
686.317	0.0196429
686.395	0.0186240
686.473	0.0174917
686.551	0.0162593
686.629	0.0149857
686.707	0.0136924
686.785	0.0122382
686.863	0.0109597
686.942	0.00973595
687.020	0.00857765
687.098	0.00751663
687.176	0.00647560
687.254	0.00592804
687.332	0.00571358
687.410	0.00551964
687.488	0.00572418
687.567	0.00622055
687.645	0.00709541
687.723	0.00829193
687.801	0.00973511
687.879	0.0114656
687.957	0.0131618
688.035	0.0150520
688.113	0.0169636
688.192	0.0189779
688.270	0.0209689
688.348	0.0227711
688.426	0.0244884
688.504	0.0260321
688.582	0.0271058
688.660	0.0280831
688.738	0.0287840
688.817	0.0292336
688.895	0.0292879
688.973	0.0294548
689.051	0.0293340
689.129	0.0287191
689.207	0.0281529
689.285	0.0273245
689.363	0.0264332
689.442	0.0253889
689.520	0.0243136
689.598	0.0231567
689.676	0.0220910
689.754	0.0207153
689.832	0.0196816
689.910	0.0186219
689.988	0.0176768
690.067	0.0166779
690.145	0.0155972
690.223	0.0146979
690.301	0.0135953
690.379	0.0124069
690.457	0.0113110
690.535	0.0101823
690.613	0.00898003
690.692	0.00797791
690.770	0.00693100
690.848	0.00606285
690.926	0.00504623
691.004	0.00464722
691.082	0.00398796
691.160	0.00349632
691.238	0.00335518
691.317	0.00345184
691.395	0.00359840
691.473	0.00417282
691.551	0.00486099
691.629	0.00583702
691.707	0.00721565
691.785	0.00881752
691.863	0.0108060
691.942	0.0127525
692.020	0.0152586
692.098	0.0178947
692.176	0.0202248
692.254	0.0228493
692.332	0.0253975
692.410	0.0276044
692.488	0.0294912
692.567	0.0310262
692.645	0.0320005
692.723	0.0326338
692.801	0.0329334
692.879	0.0331198
692.957	0.0326550
693.035	0.0318655
693.113	0.0311845
693.192	0.0302443
693.270	0.0291872
693.348	0.0281453
693.426	0.0270940
693.504	0.0257540
693.582	0.0244341
693.660	0.0235944
693.738	0.0225327
693.817	0.0212586
693.895	0.0202273
693.973	0.0194192
694.051	0.0180785
694.129	0.0167960
694.207	0.0155432
694.285	0.0142531
694.363	0.0126548
694.442	0.0110892
694.520	0.00962845
694.598	0.00819008
694.676	0.00672279
694.754	0.00554932
694.832	0.00452599
694.910	0.00348068
694.988	0.00272842
695.067	0.00232857
695.145	0.00209778
695.223	0.00176903
695.301	0.00190453
695.379	0.00246605
695.457	0.00306854
695.535	0.00392601
695.613	0.00500847
695.692	0.00662682
695.770	0.00846390
695.848	0.0102911
695.926	0.0123451
696.004	0.0146088
696.082	0.0168093
696.160	0.0190553
696.238	0.0209205
696.317	0.0226060
696.395	0.0244027
696.473	0.0257391
696.551	0.0269209
696.629	0.0274934
696.707	0.0281715
696.785	0.0286064
696.863	0.0287827
696.942	0.0287734
697.020	0.0287057
697.098	0.0286746
697.176	0.0285177
697.254	0.0283295
697.332	0.0280944
697.410	0.0277532
697.488	0.0272878
697.567	0.0268242
697.645	0.0264323
697.723	0.0258991
697.801	0.0249042
697.879	0.0239564
697.957	0.0229089
698.035	0.0217771
698.113	0.0201888
698.192	0.0187386
698.270	0.0169901
698.348	0.0153105
698.426	0.0137018
698.504	0.0118235
698.582	0.0103342
698.660	0.00884972
698.738	0.00765358
698.817	0.00665344
698.895	0.00604500
698.973	0.00559105
699.051	0.00530037
699.129	0.00559837
699.207	0.00602249
699.285	0.00642220
699.363	0.00713654
699.442	0.00793076
699.520	0.00898605
699.598	0.0100695
699.676	0.0112857
699.754	0.0123663
699.832	0.0135355
699.910	0.0146613
699.988	0.0157821
700.067	0.0166796
700.145	0.0175430
700.223	0.0184132
700.301	0.0190559
700.379	0.0193798
700.457	0.0197342
700.535	0.0200916
700.613	0.0200459
700.692	0.0200104
700.770	0.0199284
700.848	0.0197327
700.926	0.0196195
701.004	0.0195441
701.082	0.0194510
701.160	0.0196301
701.238	0.0197267
701.317	0.0199203
701.395	0.0202769
701.473	0.0206158
701.551	0.0211236
701.629	0.0215073
701.707	0.0218884
701.785	0.0224709
701.863	0.0224979
701.942	0.0228592
702.020	0.0229081
702.098	0.0229611
702.176	0.0226857
702.254	0.0223207
702.332	0.0217754
702.410	0.0210947
702.488	0.0202938
702.567	0.0192216
702.645	0.0182751
702.723	0.0172379
702.801	0.0162513
702.879	0.0152576
702.957	0.0144068
703.035	0.0135669
703.113	0.0129038
703.192	0.0125343
703.270	0.0121879
703.348	0.0121431
703.426	0.0121359
703.504	0.0121307
703.582	0.0126257
703.660	0.0131067
703.738	0.0133935
703.817	0.0139375
703.895	0.0144842
703.973	0.0149279
704.051	0.0153702
704.129	0.0157307
704.207	0.0162612
704.285	0.0164019
704.363	0.0167159
704.442	0.0170127
704.520	0.0169159
704.598	0.0169930
704.676	0.0169554
704.754	0.0169940
704.832	0.0169656
704.910	0.0168969
704.988	0.0169184
705.067	0.0170877
705.145	0.0171587
705.223	0.0170695
705.301	0.0171133
705.379	0.0173470
705.457	0.0174848
705.535	0.0177103
705.613	0.0179607
705.692	0.0180331
705.770	0.0182580
705.848	0.0184964
705.926	0.0186024
706.004	0.0186392
706.082	0.0184807
706.160	0.0183188
706.238	0.0181811
706.317	0.0178317
706.395	0.0177995
706.473	0.0174507
706.551	0.0172823
706.629	0.0170370
706.707	0.0169034
706.785	0.0168880
706.863	0.0168896
706.942	0.0168143
707.020	0.0167991
707.098	0.0169624
707.176	0.0170929
707.254	0.0171798
707.332	0.0173030
707.410	0.0174384
707.488	0.0174810
707.567	0.0175660
707.645	0.0175723
707.723	0.0174913
707.801	0.0174438
707.879	0.0173888
707.957	0.0173286
708.035	0.0172686
708.113	0.0174491
708.192	0.0174507
708.270	0.0174476
708.348	0.0175747
708.426	0.0176484
708.504	0.0175324
708.582	0.0176225
708.660	0.0176153
708.738	0.0176407
708.817	0.0176660
708.895	0.0173369
708.973	0.0173489
709.051	0.0173356
709.129	0.0172287
709.207	0.0169701
709.285	0.0169530
709.363	0.0168537
709.442	0.0168939
709.520	0.0167209
709.598	0.0167366
709.676	0.0167534
709.754	0.0165656
709.832	0.0167152
709.910	0.0166585
709.988	0.0166694
710.067	0.0166708
710.145	0.0167959
710.223	0.0169170
710.301	0.0168945
710.379	0.0167890
710.457	0.0165630
710.535	0.0163326
710.613	0.0164593
710.692	0.0162259
710.770	0.0161539
710.848	0.0160600
710.926	0.0159302
711.004	0.0158629
711.082	0.0158699
711.160	0.0158548
711.238	0.0160552
711.317	0.0160874
711.395	0.0163828
711.473	0.0164832
711.551	0.0166501
711.629	0.0168103
711.707	0.0170731
711.785	0.0171563
711.863	0.0173398
711.942	0.0176041
712.020	0.0174987
712.098	0.0176453
712.176	0.0177213
712.254	0.0176803
712.332	0.0176124
712.410	0.0176535
712.488	0.0175532
712.567	0.0174850
712.645	0.0176133
712.723	0.0176385
712.801	0.0176359
712.879	0.0176777
712.957	0.0177655
713.035	0.0178328
713.113	0.0178125
713.192	0.0179149
713.270	0.0179956
713.348	0.0179684
713.426	0.0179597
713.504	0.0177387
713.582	0.0178308
713.660	0.0177814
713.738	0.0176471
713.817	0.0176134
713.895	0.0174946
713.973	0.0173885
714.051	0.0171574
714.129	0.0174215
714.207	0.0174242
714.285	0.0171364
714.363	0.0172246
714.442	0.0172214
714.520	0.0172263
714.598	0.0171884
714.676	0.0172836
714.754	0.0173106
714.832	0.0173834
714.910	0.0172414
714.988	0.0171581
715.067	0.0170990
715.145	0.0172458
715.223	0.0171381
715.301	0.0170772
715.379	0.0171044
715.457	0.0169132
715.535	0.0170326
715.613	0.0171108
715.692	0.0171244
715.770	0.0172884
715.848	0.0173100
715.926	0.0175236
716.004	0.0177241
716.082	0.0176795
716.160	0.0177842
716.238	0.0179489
716.317	0.0178493
716.395	0.0177280
716.473	0.0176628
716.551	0.0175039
716.629	0.0172939
716.707	0.0169151
716.785	0.0167220
716.863	0.0164262
716.942	0.0161303
717.020	0.0158042
717.098	0.0156746
717.176	0.0156863
717.254	0.0153086
717.332	0.0151973
717.410	0.0152302
717.488	0.0152378
717.567	0.0153137
717.645	0.0154476
717.723	0.0156394
717.801	0.0157572
717.879	0.0158759
717.957	0.0161681
718.035	0.0164232
718.113	0.0167704
718.192	0.0169569
718.270	0.0171264
718.348	0.0174303
718.426	0.0177170
718.504	0.0179030
718.582	0.0179127
718.660	0.0180856
718.738	0.0181988
718.817	0.0184287
718.895	0.0186130
718.973	0.0183771
719.051	0.0184747
719.129	0.0184379
719.207	0.0185108
719.285	0.0184541
719.363	0.0182220
719.442	0.0183339
719.520	0.0180904
719.598	0.0181501
719.676	0.0180949
719.754	0.0180600
719.832	0.0179628
719.910	0.0179042
719.988	0.0178036
720.067	0.0179625
720.145	0.0178487
720.223	0.0178955
720.301	0.0178561
720.379	0.0176962
720.457	0.0177238
720.535	0.0177017
720.613	0.0174878
720.692	0.0175591
720.770	0.0173853
720.848	0.0173007
720.926	0.0172171
721.004	0.0172887
721.082	0.0171510
721.160	0.0169860
721.238	0.0168590
721.317	0.0168593
721.395	0.0168324
721.473	0.0166443
721.551	0.0165211
721.629	0.0164175
721.707	0.0166024
721.785	0.0162753
721.863	0.0162238
721.942	0.0163735
722.020	0.0163196
722.098	0.0161559
722.176	0.0160352
722.254	0.0160542
722.332	0.0159443
722.410	0.0157896
722.488	0.0159515
722.567	0.0155884
722.645	0.0155865
722.723	0.0156542
722.801	0.0155713
722.879	0.0156519
722.957	0.0155954
723.035	0.0158021
723.113	0.0158529
723.192	0.0159578
723.270	0.0164146
723.348	0.0165838
723.426	0.0167835
723.504	0.0172610
723.582	0.0174926
723.660	0.0178197
723.738	0.0179495
723.817	0.0183291
723.895	0.0183971
723.973	0.0186724
724.051	0.0187413
724.129	0.0185774
724.207	0.0184942
724.285	0.0183955
724.363	0.0183486
724.442	0.0182022
724.520	0.0180590
724.598	0.0179018
724.676	0.0177295
724.754	0.0175970
724.832	0.0174218
724.910	0.0173016
724.988	0.0171816
725.067	0.0169499
725.145	0.0168678
725.223	0.0170024
725.301	0.0168630
725.379	0.0168305
725.457	0.0169769
725.535	0.0170332
725.613	0.0173017
725.692	0.0173210
725.770	0.0174535
725.848	0.0175230
725.926	0.0177471
726.004	0.0177083
726.082	0.0177018
726.160	0.0177473
726.238	0.0178667
726.317	0.0178885
726.395	0.0176957
726.473	0.0176101
726.551	0.0173306
726.629	0.0172356
726.707	0.0170732
726.785	0.0169867
726.863	0.0168213
726.942	0.0165721
727.020	0.0164463
727.098	0.0163982
727.176	0.0162852
727.254	0.0160638
727.332	0.0161047
727.410	0.0161514
727.488	0.0161311
727.567	0.0159589
727.645	0.0161873
727.723	0.0161971
727.801	0.0161939
727.879	0.0164405
727.957	0.0165401
728.035	0.0166804
728.113	0.0166881
728.192	0.0166898
728.270	0.0168415
728.348	0.0169781
728.426	0.0170047
728.504	0.0170547
728.582	0.0171400
728.660	0.0172627
728.738	0.0172108
728.817	0.0172340
728.895	0.0174712
728.973	0.0175135
729.051	0.0173371
729.129	0.0176067
729.207	0.0173898
729.285	0.0175242
729.363	0.0175351
729.442	0.0173874
729.520	0.0173039
729.598	0.0170744
729.676	0.0171592
729.754	0.0169322
729.832	0.0168681
729.910	0.0168752
729.988	0.0167145
730.067	0.0166786
730.145	0.0167371
730.223	0.0167493
730.301	0.0168713
730.379	0.0170692
730.457	0.0168204
730.535	0.0168758
730.613	0.0169627
730.692	0.0170123
730.770	0.0168931
730.848	0.0169504
730.926	0.0169418
731.004	0.0170237
731.082	0.0169842
731.160	0.0171075
731.238	0.0171061
731.317	0.0172993
731.395	0.0171677
731.473	0.0173582
731.551	0.0175466
731.629	0.0175658
731.707	0.0176054
731.785	0.0177180
731.863	0.0176895
731.942	0.0174437
732.020	0.0174569
732.098	0.0173197
732.176	0.0174554
732.254	0.0172296
732.332	0.0170102
732.410	0.0169737
732.488	0.0168810
732.567	0.0167151
732.645	0.0167718
732.723	0.0169070
732.801	0.0167854
732.879	0.0167379
732.957	0.0167805
733.035	0.0169426
733.113	0.0169839
733.192	0.0170482
733.270	0.0173549
733.348	0.0174442
733.426	0.0174997
733.504	0.0174229
733.582	0.0175382
733.660	0.0176694
733.738	0.0175951
733.817	0.0176125
733.895	0.0175334
733.973	0.0175432
734.051	0.0175025
734.129	0.0176129
734.207	0.0175720
734.285	0.0173211
734.363	0.0173422
734.442	0.0174593
734.520	0.0172906
734.598	0.0172501
734.676	0.0172773
734.754	0.0171631
734.832	0.0169750
734.910	0.0169426
734.988	0.0168999
735.067	0.0169006
735.145	0.0167422
735.223	0.0169474
735.301	0.0169453
735.379	0.0169469
735.457	0.0170226
735.535	0.0169765
735.613	0.0170315
735.692	0.0171166
735.770	0.0170220
735.848	0.0171043
735.926	0.0170090
736.004	0.0171941
736.082	0.0171799
736.160	0.0171759
736.238	0.0171865
736.317	0.0171087
736.395	0.0170822
736.473	0.0168927
736.551	0.0168310
736.629	0.0168857
736.707	0.0168594
736.785	0.0169800
736.863	0.0169576
736.942	0.0170256
737.020	0.0169021
737.098	0.0168485
737.176	0.0170404
737.254	0.0167796
737.332	0.0167730
737.410	0.0167976
737.488	0.0167250
737.567	0.0168014
737.645	0.0167467
737.723	0.0167329
737.801	0.0168394
737.879	0.0169542
737.957	0.0169334
738.035	0.0172063
738.113	0.0173520
738.192	0.0172972
738.270	0.0174271
738.348	0.0176687
738.426	0.0175913
738.504	0.0178446
738.582	0.0178248
738.660	0.0177554
738.738	0.0178649
738.817	0.0178139
738.895	0.0179479
738.973	0.0178757
739.051	0.0178348
739.129	0.0179018
739.207	0.0180428
739.285	0.0180534
739.363	0.0179839
739.442	0.0180945
739.520	0.0180817
739.598	0.0180323
739.676	0.0179212
739.754	0.0179356
739.832	0.0181231
739.910	0.0178476
739.988	0.0177483
740.067	0.0175799
740.145	0.0174807
740.223	0.0172845
740.301	0.0171103
740.379	0.0168848
740.457	0.0166780
740.535	0.0166354
740.613	0.0163161
740.692	0.0163164
740.770	0.0162704
740.848	0.0162084
740.926	0.0160931
741.004	0.0160866
741.082	0.0161668
741.160	0.0162480
741.238	0.0163377
741.317	0.0164378
741.395	0.0166286
741.473	0.0165491
741.551	0.0168444
741.629	0.0169830
741.707	0.0170464
741.785	0.0169926
741.863	0.0171778
741.942	0.0174407
742.020	0.0173815
742.098	0.0174339
742.176	0.0174638
742.254	0.0172549
742.332	0.0172281
742.410	0.0174093
742.488	0.0172578
742.567	0.0171015
742.645	0.0171098
742.723	0.0169267
742.801	0.0168490
742.879	0.0168517
742.957	0.0167934
743.035	0.0167548
743.113	0.0167885
743.192	0.0169197
743.270	0.0167496
743.348	0.0169508
743.426	0.0171400
743.504	0.0172331
743.582	0.0173207
743.660	0.0174194
743.738	0.0175887
743.817	0.0175768
743.895	0.0175749
743.973	0.0177986
744.051	0.0177235
744.129	0.0177953
744.207	0.0177253
744.285	0.0177494
744.363	0.0175791
744.442	0.0175381
744.520	0.0175052
744.598	0.0173640
744.676	0.0173138
744.754	0.0171600
744.832	0.0170274
744.910	0.0170524
744.988	0.0169653
745.067	0.0171404
745.145	0.0171811
745.223	0.0171776
745.301	0.0171033
745.379	0.0170300
745.457	0.0170650
745.535	0.0171887
745.613	0.0171241
745.692	0.0172457
745.770	0.0172250
745.848	0.0172507
745.926	0.0172637
746.004	0.0172572
746.082	0.0174442
746.160	0.0174660
746.238	0.0172656
746.317	0.0173666
746.395	0.0172514
746.473	0.0172540
746.551	0.0171316
746.629	0.0172507
746.707	0.0171772
746.785	0.0169747
746.863	0.0169741
746.942	0.0170164
747.020	0.0170098
747.098	0.0167947
747.176	0.0167783
747.254	0.0167065
747.332	0.0166943
747.410	0.0166306
747.488	0.0164813
747.567	0.0166385
747.645	0.0163528
747.723	0.0166343
747.801	0.0164401
747.879	0.0162896
747.957	0.0164571
748.035	0.0164758
748.113	0.0162766
748.192	0.0165036
748.270	0.0162257
748.348	0.0163351
748.426	0.0166186
748.504	0.0166003
748.582	0.0166352
748.660	0.0168239
748.738	0.0169687
748.817	0.0169151
748.895	0.0171322
748.973	0.0171957
749.051	0.0173760
749.129	0.0173878
749.207	0.0176003
749.285	0.0174493
749.363	0.0175713
749.442	0.0176950
749.520	0.0176988
749.598	0.0178387
749.676	0.0177061
749.754	0.0178281
749.832	0.0176955
749.910	0.0176646
749.988	0.0176044
750.067	0.0177410
750.145	0.0177394
750.223	0.0177065
750.301	0.0176456
750.379	0.0176766
750.457	0.0175500
750.535	0.0178049
750.613	0.0176423
750.692	0.0175201
750.770	0.0175767
750.848	0.0175288
750.926	0.0174366
751.004	0.0174255
751.082	0.0173994
751.160	0.0173163
751.238	0.0170716
751.317	0.0170221
751.395	0.0170682
751.473	0.0169808
751.551	0.0170150
751.629	0.0168605
751.707	0.0168262
751.785	0.0168483
751.863	0.0166249
751.942	0.0167710
752.020	0.0166164
752.098	0.0166483
752.176	0.0165363
752.254	0.0166409
752.332	0.0164506
752.410	0.0164947
752.488	0.0165959
752.567	0.0165770
752.645	0.0165651
752.723	0.0166058
752.801	0.0167982
752.879	0.0167020
752.957	0.0166729
753.035	0.0166110
753.113	0.0168493
753.192	0.0168836
753.270	0.0168272
753.348	0.0170131
753.426	0.0168483
753.504	0.0168532
753.582	0.0170090
753.660	0.0170681
753.738	0.0170925
753.817	0.0171539
753.895	0.0171577
753.973	0.0172026
754.051	0.0174210
754.129	0.0175586
754.207	0.0175655
754.285	0.0174326
754.363	0.0174695
754.442	0.0174512
754.520	0.0176847
754.598	0.0174648
754.676	0.0174267
754.754	0.0172956
754.832	0.0171984
754.910	0.0171906
754.988	0.0170448
755.067	0.0170399
755.145	0.0171690
755.223	0.0170959
755.301	0.0169710
755.379	0.0169094
755.457	0.0170782
755.535	0.0171969
755.613	0.0173215
755.692	0.0172775
755.770	0.0172673
755.848	0.0173402
755.926	0.0174461
756.004	0.0173965
756.082	0.0174489
756.160	0.0175163
756.238	0.0174168
756.317	0.0172961
756.395	0.0172160
756.473	0.0170940
756.551	0.0169932
756.629	0.0170390
756.707	0.0170542
756.785	0.0170002
756.863	0.0168065
756.942	0.0167210
757.020	0.0165953
757.098	0.0167126
757.176	0.0166592
757.254	0.0167097
757.332	0.0167773
757.410	0.0168637
757.488	0.0168922
757.567	0.0169922
757.645	0.0171212
757.723	0.0170206
757.801	0.0171110
757.879	0.0172913
757.957	0.0173177
758.035	0.0173930
758.113	0.0172852
758.192	0.0172475
758.270	0.0171459
758.348	0.0172624
758.426	0.0170991
758.504	0.0170755
758.582	0.0170350
758.660	0.0170276
758.738	0.0169476
758.817	0.0169520
758.895	0.0170314
758.973	0.0169786
759.051	0.0169942
759.129	0.0168926
759.207	0.0169691
759.285	0.0169928
759.363	0.0170407
759.442	0.0171101
759.520	0.0170396
759.598	0.0172085
759.676	0.0172087
759.754	0.0172636
759.832	0.0172969
759.910	0.0173050
759.988	0.0173424
760.067	0.0171662
760.145	0.0172136
760.223	0.0171468
760.301	0.0170033
760.379	0.0170910
760.457	0.0169276
760.535	0.0170898
760.613	0.0170563
760.692	0.0169720
760.770	0.0169865
760.848	0.0170632
760.926	0.0171164
761.004	0.0171228
761.082	0.0170206
761.160	0.0170789
761.238	0.0171400
761.317	0.0172412
761.395	0.0172067
761.473	0.0171664
761.551	0.0171246
761.629	0.0171960
761.707	0.0172958
761.785	0.0171561
761.863	0.0170001
761.942	0.0172863
762.020	0.0171436
762.098	0.0170712
762.176	0.0172874
762.254	0.0170864
762.332	0.0170705
762.410	0.0169672
762.488	0.0169561
762.567	0.0168073
762.645	0.0168998
762.723	0.0169415
762.801	0.0168655
762.879	0.0169149
762.957	0.0169868
763.035	0.0168308
763.113	0.0169946
763.192	0.0170777
763.270	0.0169773
763.348	0.0170840
763.426	0.0172375
763.504	0.0172548
763.582	0.0171905
763.660	0.0171893
763.738	0.0172320
763.817	0.0173431
763.895	0.0172578
763.973	0.0173697
764.051	0.0174062
764.129	0.0173882
764.207	0.0174866
764.285	0.0173754
764.363	0.0174549
764.442	0.0174486
764.520	0.0173396
764.598	0.0175024
764.676	0.0174185
764.754	0.0172818
764.832	0.0173877
764.910	0.0173470
764.988	0.0173534
765.067	0.0174007
765.145	0.0173473
765.223	0.0172141
765.301	0.0172357
765.379	0.0171533
765.457	0.0171639
765.535	0.0170721
765.613	0.0170222
765.692	0.0169729
765.770	0.0170242
765.848	0.0170615
765.926	0.0167644
766.004	0.0168767
766.082	0.0169553
766.160	0.0168797
766.238	0.0169415
766.317	0.0168417
766.395	0.0168896
766.473	0.0167854
766.551	0.0166904
766.629	0.0167173
766.707	0.0167045
766.785	0.0165949
766.863	0.0166164
766.942	0.0165982
767.020	0.0166238
767.098	0.0165142
767.176	0.0164710
767.254	0.0166505
767.332	0.0167258
767.410	0.0166055
767.488	0.0168224
767.567	0.0168658
767.645	0.0168752
767.723	0.0170966
767.801	0.0170239
767.879	0.0170490
767.957	0.0172436
768.035	0.0172605
768.113	0.0174482
768.192	0.0175814
768.270	0.0175460
768.348	0.0175091
768.426	0.0176295
768.504	0.0175666
768.582	0.0174698
768.660	0.0175670
768.738	0.0175016
768.817	0.0174241
768.895	0.0174104
768.973	0.0173622
769.051	0.0174155
769.129	0.0173314
769.207	0.0172514
769.285	0.0171312
769.363	0.0171073
769.442	0.0173197
769.520	0.0171251
769.598	0.0170198
769.676	0.0170445
769.754	0.0171231
769.832	0.0170790
769.910	0.0171667
769.988	0.0172392
770.067	0.0171626
770.145	0.0169691
770.223	0.0171236
770.301	0.0172440
770.379	0.0171975
770.457	0.0172395
770.535	0.0173365
770.613	0.0173136
770.692	0.0171895
770.770	0.0172915
770.848	0.0171567
770.926	0.0171210
771.004	0.0171843
771.082	0.0170757
771.160	0.0170663
771.238	0.0170361
771.317	0.0168645
771.395	0.0168546
771.473	0.0170094
771.551	0.0169348
771.629	0.0170089
771.707	0.0169319
771.785	0.0167716
771.863	0.0169683
771.942	0.0168582
772.020	0.0169713
772.098	0.0169827
772.176	0.0169488
772.254	0.0167876
772.332	0.0168868
772.410	0.0168562
772.488	0.0167205
772.567	0.0167595
772.645	0.0168048
772.723	0.0167303
772.801	0.0166395
772.879	0.0165861
772.957	0.0166206
773.035	0.0165320
773.113	0.0166559
773.192	0.0165120
773.270	0.0166696
773.348	0.0166481
773.426	0.0168200
773.504	0.0168822
773.582	0.0168302
773.660	0.0169177
773.738	0.0169490
773.817	0.0169932
773.895	0.0170841
773.973	0.0171352
774.051	0.0172268
774.129	0.0170389
774.207	0.0171055
774.285	0.0173318
774.363	0.0172342
774.442	0.0172538
774.520	0.0172611
774.598	0.0173553
774.676	0.0172328
774.754	0.0174049
774.832	0.0173349
774.910	0.0173856
774.988	0.0174249
775.067	0.0174249
775.145	0.0174729
775.223	0.0174847
775.301	0.0174655
775.379	0.0174310
775.457	0.0174926
775.535	0.0174281
775.613	0.0174519
775.692	0.0175612
775.770	0.0174826
775.848	0.0173673
775.926	0.0175613
776.004	0.0174960
776.082	0.0174105
776.160	0.0173179
776.238	0.0173901
776.317	0.0174252
776.395	0.0173178
776.473	0.0170724
776.551	0.0172024
776.629	0.0173561
776.707	0.0172314
776.785	0.0172473
776.863	0.0171301
776.942	0.0169051
777.020	0.0168909
777.098	0.0169330
777.176	0.0167878
777.254	0.0167602
777.332	0.0166568
777.410	0.0168999
777.488	0.0168002
777.567	0.0167365
777.645	0.0168670
777.723	0.0167193
777.801	0.0167809
777.879	0.0168602
777.957	0.0168642
778.035	0.0168100
778.113	0.0169383
778.192	0.0167712
778.270	0.0169893
778.348	0.0168662
778.426	0.0169149
778.504	0.0168711
778.582	0.0169769
778.660	0.0169440
778.738	0.0170821
778.817	0.0170211
778.895	0.0170863
778.973	0.0170692
779.051	0.0170865
779.129	0.0170493
779.207	0.0170767
779.285	0.0171975
779.363	0.0173390
779.442	0.0171700
779.520	0.0171375
779.598	0.0172331
779.676	0.0171362
779.754	0.0170690
779.832	0.0172119
779.910	0.0170792
779.988	0.0168723
780.067	0.0170484
780.145	0.0169024
780.223	0.0169470
780.301	0.0167789
780.379	0.0167489
780.457	0.0167807
780.535	0.0165920
780.613	0.0167323
780.692	0.0167706
780.770	0.0168133
780.848	0.0168485
780.926	0.0170928
781.004	0.0171062
781.082	0.0169774
781.160	0.0171881
781.238	0.0172612
781.317	0.0172973
781.395	0.0174828
781.473	0.0176081
781.551	0.0177208
781.629	0.0177033
781.707	0.0178358
781.785	0.0179595
781.863	0.0179136
781.942	0.0179556
782.020	0.0180869
782.098	0.0179796
782.176	0.0178699
782.254	0.0180096
782.332	0.0179844
782.410	0.0178824
782.488	0.0177769
782.567	0.0176378
782.645	0.0174475
782.723	0.0173819
782.801	0.0174577
782.879	0.0172279
782.957	0.0170599
783.035	0.0170761
783.113	0.0168472
783.192	0.0167498
783.270	0.0166654
783.348	0.0164423
783.426	0.0164648
783.504	0.0163873
783.582	0.0163182
783.660	0.0161094
783.738	0.0160941
783.817	0.0160143
783.895	0.0157927
783.973	0.0159860
784.051	0.0159925
784.129	0.0160355
784.207	0.0161048
784.285	0.0162215
784.363	0.0162019
784.442	0.0165209
784.520	0.0167172
784.598	0.0168197
784.676	0.0170927
784.754	0.0174398
784.832	0.0174084
784.910	0.0177930
784.988	0.0179652
785.067	0.0180531
785.145	0.0182844
785.223	0.0181570
785.301	0.0182315
785.379	0.0182562
785.457	0.0184668
785.535	0.0183121
785.613	0.0182481
785.692	0.0181268
785.770	0.0180434
785.848	0.0180898
785.926	0.0179352
786.004	0.0178856
786.082	0.0175725
786.160	0.0175503
786.238	0.0174148
786.317	0.0172639
786.395	0.0170844
786.473	0.0168607
786.551	0.0169526
786.629	0.0166174
786.707	0.0165220
786.785	0.0165199
786.863	0.0164903
786.942	0.0162302
787.020	0.0163166
787.098	0.0161844
787.176	0.0161118
787.254	0.0159675
787.332	0.0160440
787.410	0.0158176
787.488	0.0158415
787.567	0.0157522
787.645	0.0158343
787.723	0.0158287
787.801	0.0157952
787.879	0.0158180
787.957	0.0159280
788.035	0.0159099
788.113	0.0161046
788.192	0.0162857
788.270	0.0164983
788.348	0.0166698
788.426	0.0169132
788.504	0.0171554
788.582	0.0173782
788.660	0.0177132
788.738	0.0179107
788.817	0.0179704
788.895	0.0181699
788.973	0.0184172
789.051	0.0187257
789.129	0.0187035
789.207	0.0187041
789.285	0.0187612
789.363	0.0187596
789.442	0.0188222
789.520	0.0186996
789.598	0.0187135
789.676	0.0186026
789.754	0.0184126
789.832	0.0183170
789.910	0.0182932
789.988	0.0182599
790.067	0.0180570
790.145	0.0179289
790.223	0.0177795
790.301	0.0176100
790.379	0.0174424
790.457	0.0172087
790.535	0.0170649
790.613	0.0167612
790.692	0.0166223
790.770	0.0167207
790.848	0.0166038
790.926	0.0165254
791.004	0.0162605
791.082	0.0162380
791.160	0.0160987
791.238	0.0161196
791.317	0.0158746
791.395	0.0157413
791.473	0.0157242
791.551	0.0156591
791.629	0.0155909
791.707	0.0154699
791.785	0.0155153
791.863	0.0155594
791.942	0.0156182
792.020	0.0157317
792.098	0.0159190
792.176	0.0158541
792.254	0.0158939
792.332	0.0162018
792.410	0.0164297
792.488	0.0165588
792.567	0.0166557
792.645	0.0169628
792.723	0.0172282
792.801	0.0173151
792.879	0.0175978
792.957	0.0175195
793.035	0.0174917
793.113	0.0179440
793.192	0.0179423
793.270	0.0180705
793.348	0.0180288
793.426	0.0180998
793.504	0.0179505
793.582	0.0181152
793.660	0.0180641
793.738	0.0181313
793.817	0.0180415
793.895	0.0180024
793.973	0.0180178
794.051	0.0180517
794.129	0.0179749
794.207	0.0177288
794.285	0.0178970
794.363	0.0178291
794.442	0.0177441
794.520	0.0176172
794.598	0.0176138
794.676	0.0175740
794.754	0.0174923
794.832	0.0174770
794.910	0.0173444
794.988	0.0174738
795.067	0.0174055
795.145	0.0173290
795.223	0.0172424
795.301	0.0171547
795.379	0.0171565
795.457	0.0170245
795.535	0.0168329
795.613	0.0166949
795.692	0.0167189
795.770	0.0166028
795.848	0.0165210
795.926	0.0163979
796.004	0.0162542
796.082	0.0164056
796.160	0.0162109
796.238	0.0162319
796.317	0.0160574
796.395	0.0160080
796.473	0.0161700
796.551	0.0162012
796.629	0.0162324
796.707	0.0162913
796.785	0.0164251
796.863	0.0165120
796.942	0.0166087
797.020	0.0166997
797.098	0.0167477
797.176	0.0167987
797.254	0.0168623
797.332	0.0169418
797.410	0.0170737
797.488	0.0169751
797.567	0.0170240
797.645	0.0172800
797.723	0.0173376
797.801	0.0173965
797.879	0.0174508
797.957	0.0175906
798.035	0.0176573
798.113	0.0176513
798.192	0.0176315
798.270	0.0177542
798.348	0.0178629
798.426	0.0178741
798.504	0.0176837
798.582	0.0177001
798.660	0.0177442
798.738	0.0177047
798.817	0.0175437
798.895	0.0175027
798.973	0.0173733
799.051	0.0175373
799.129	0.0173094
799.207	0.0173663
799.285	0.0173122
799.363	0.0171684
799.442	0.0171072
799.520	0.0171534
799.598	0.0170306
799.676	0.0168433
799.754	0.0170880
799.832	0.0169564
799.910	0.0168752
799.988	0.0169047
800.067	0.0168771
800.145	0.0169016
800.223	0.0168723
800.301	0.0168755
800.379	0.0168885
800.457	0.0168765
800.535	0.0168736
800.613	0.0169473
800.692	0.0169292
800.770	0.0168269
800.848	0.0170393
800.926	0.0170412
801.004	0.0168857
801.082	0.0169153
801.160	0.0169455
801.238	0.0168517
801.317	0.0170002
801.395	0.0168512
801.473	0.0168344
801.551	0.0169186
801.629	0.0169151
801.707	0.0168221
801.785	0.0168698
801.863	0.0166222
801.942	0.0167448
802.020	0.0168661
802.098	0.0167738
802.176	0.0167762
802.254	0.0168725
802.332	0.0167604
802.410	0.0168923
802.488	0.0169630
802.567	0.0170595
802.645	0.0170575
802.723	0.0169744
802.801	0.0170392
802.879	0.0171088
802.957	0.0171215
803.035	0.0172111
803.113	0.0172417
803.192	0.0173211
803.270	0.0172847
803.348	0.0172361
803.426	0.0173203
803.504	0.0173082
803.582	0.0173462
803.660	0.0172653
803.738	0.0173105
803.817	0.0172163
803.895	0.0172899
803.973	0.0172330
804.051	0.0173109
804.129	0.0173929
804.207	0.0172607
804.285	0.0172881
804.363	0.0174380
804.442	0.0173832
804.520	0.0173233
804.598	0.0172799
804.676	0.0175641
804.754	0.0175041
804.832	0.0174557
804.910	0.0175725
804.988	0.0175186
805.067	0.0176033
805.145	0.0175629
805.223	0.0173658
805.301	0.0173672
805.379	0.0174229
805.457	0.0171696
805.535	0.0172823
805.613	0.0173013
805.692	0.0172496
805.770	0.0172724
805.848	0.0171292
805.926	0.0170766
806.004	0.0170187
806.082	0.0170007
806.160	0.0169048
806.238	0.0167841
806.317	0.0167194
806.395	0.0167758
806.473	0.0167223
806.551	0.0166138
806.629	0.0166100
806.707	0.0168845
806.785	0.0168790
806.863	0.0168120
806.942	0.0167863
807.020	0.0170190
807.098	0.0170399
807.176	0.0168417
807.254	0.0168894
807.332	0.0169293
807.410	0.0170766
807.488	0.0170263
807.567	0.0170927
807.645	0.0170446
807.723	0.0170941
807.801	0.0169152
807.879	0.0168615
807.957	0.0168525
808.035	0.0170214
808.113	0.0169115
808.192	0.0168137
808.270	0.0167229
808.348	0.0168671
808.426	0.0168549
808.504	0.0167741
808.582	0.0168677
808.660	0.0167725
808.738	0.0168206
808.817	0.0169894
808.895	0.0169786
808.973	0.0169659
809.051	0.0171681
809.129	0.0170743
809.207	0.0170436
809.285	0.0172032
809.363	0.0171844
809.442	0.0173054
809.520	0.0172255
809.598	0.0175299
809.676	0.0175594
809.754	0.0176298
809.832	0.0175041
809.910	0.0174767
809.988	0.0175501
810.067	0.0175413
810.145	0.0176432
810.223	0.0174584
810.301	0.0175676
810.379	0.0176411
810.457	0.0176062
810.535	0.0177240
810.613	0.0176511
810.692	0.0175089
810.770	0.0175950
810.848	0.0177253
810.926	0.0176511
811.004	0.0175520
811.082	0.0174352
811.160	0.0174754
811.238	0.0175549
811.317	0.0174823
811.395	0.0173920
811.473	0.0172688
811.551	0.0172762
811.629	0.0172495
811.707	0.0170989
811.785	0.0170148
811.863	0.0169986
811.942	0.0168759
812.020	0.0168787
812.098	0.0169810
812.176	0.0168711
812.254	0.0167531
812.332	0.0168050
812.410	0.0168867
812.488	0.0168394
812.567	0.0169341
812.645	0.0168333
812.723	0.0169350
812.801	0.0170316
812.879	0.0169375
812.957	0.0170306
813.035	0.0168525
813.113	0.0168587
813.192	0.0168043
813.270	0.0167521
813.348	0.0166320
813.426	0.0165757
813.504	0.0165026
813.582	0.0165711
813.660	0.0164851
813.738	0.0164517
813.817	0.0164841
813.895	0.0164714
813.973	0.0165552
814.051	0.0166177
814.129	0.0166917
814.207	0.0168156
814.285	0.0169617
814.363	0.0170109
814.442	0.0171431
814.520	0.0173450
814.598	0.0173114
814.676	0.0174287
814.754	0.0176010
814.832	0.0178086
814.910	0.0177623
814.988	0.0178343
815.067	0.0179453
815.145	0.0179728
815.223	0.0180666
815.301	0.0178201
815.379	0.0179250
815.457	0.0176625
815.535	0.0177983
815.613	0.0177321
815.692	0.0175695
815.770	0.0173983
815.848	0.0171602
815.926	0.0172780
816.004	0.0172575
816.082	0.0172994
816.160	0.0170678
816.238	0.0170022
816.317	0.0171411
816.395	0.0170564
816.473	0.0170896
816.551	0.0170396
816.629	0.0170918
816.707	0.0169982
816.785	0.0169603
816.863	0.0170067
816.942	0.0169162
817.020	0.0168884
817.098	0.0167979
817.176	0.0168732
817.254	0.0167899
817.332	0.0167873
817.410	0.0167982
817.488	0.0168636
817.567	0.0169379
817.645	0.0167871
817.723	0.0168191
817.801	0.0166740
817.879	0.0168958
817.957	0.0170815
818.035	0.0170053
818.113	0.0170930
818.192	0.0171977
818.270	0.0172289
818.348	0.0173441
818.426	0.0173168
818.504	0.0174757
818.582	0.0174377
818.660	0.0174051
818.738	0.0175546
818.817	0.0175172
818.895	0.0173283
818.973	0.0175225
819.051	0.0173807
819.129	0.0172430
819.207	0.0172852
819.285	0.0172820
819.363	0.0171212
819.442	0.0171370
819.520	0.0169209
819.598	0.0171333
819.676	0.0169154
819.754	0.0169001
819.832	0.0169115
819.910	0.0167448
819.988	0.0169053
820.067	0.0168196
820.145	0.0169523
820.223	0.0169867
820.301	0.0170863
820.379	0.0170776
820.457	0.0169696
820.535	0.0170858
820.613	0.0172246
820.692	0.0173605
820.770	0.0172802
820.848	0.0172240
820.926	0.0172811
821.004	0.0172137
821.082	0.0171942
821.160	0.0172016
821.238	0.0171139
821.317	0.0172891
821.395	0.0171032
821.473	0.0170437
821.551	0.0170280
821.629	0.0170448
821.707	0.0170934
821.785	0.0170405
821.863	0.0170753
821.942	0.0171165
822.020	0.0171169
822.098	0.0171863
822.176	0.0172917
822.254	0.0173756
822.332	0.0171733
822.410	0.0174004
822.488	0.0174294
822.567	0.0174049
822.645	0.0174070
822.723	0.0173500
822.801	0.0173788
822.879	0.0174020
822.957	0.0173144
823.035	0.0172444
823.113	0.0172420
823.192	0.0172838
823.270	0.0171085
823.348	0.0170638
823.426	0.0169707
823.504	0.0168996
823.582	0.0168314
823.660	0.0167805
823.738	0.0167600
823.817	0.0167865
823.895	0.0167184
823.973	0.0166007
824.051	0.0166547
824.129	0.0167465
824.207	0.0168708
824.285	0.0169427
824.363	0.0169203
824.442	0.0170123
824.520	0.0170130
824.598	0.0169389
824.676	0.0172161
824.754	0.0171794
824.832	0.0172621
824.910	0.0171920
824.988	0.0171886
825.067	0.0173679
825.145	0.0173453
825.223	0.0172484
825.301	0.0174184
825.379	0.0171558
825.457	0.0171852
825.535	0.0171758
825.613	0.0170937
825.692	0.0171473
825.770	0.0171676
825.848	0.0171385
825.926	0.0170647
826.004	0.0170178
826.082	0.0171317
826.160	0.0172689
826.238	0.0172473
826.317	0.0172147
826.395	0.0171977
826.473	0.0172779
826.551	0.0172834
826.629	0.0173331
826.707	0.0172562
826.785	0.0175101
826.863	0.0174072
826.942	0.0171466
827.020	0.0170674
827.098	0.0172408
827.176	0.0171796
827.254	0.0171883
827.332	0.0173394
827.410	0.0171426
827.488	0.0170381
827.567	0.0169908
827.645	0.0170180
827.723	0.0170647
827.801	0.0169620
827.879	0.0170223
827.957	0.0169878
828.035	0.0170430
828.113	0.0169608
828.192	0.0171897
828.270	0.0170345
828.348	0.0169802
828.426	0.0170237
828.504	0.0171563
828.582	0.0170292
828.660	0.0169672
828.738	0.0169112
828.817	0.0169525
828.895	0.0169944
828.973	0.0168923
829.051	0.0168361
829.129	0.0168463
829.207	0.0168206
829.285	0.0168936
829.363	0.0168912
829.442	0.0168485
829.520	0.0168226
829.598	0.0168930
829.676	0.0168282
829.754	0.0168585
829.832	0.0169939
829.910	0.0169112
829.988	0.0168528
830.067	0.0171136
830.145	0.0171030
830.223	0.0171217
830.301	0.0172197
830.379	0.0172704
830.457	0.0173509
830.535	0.0174271
830.613	0.0174215
830.692	0.0175440
830.770	0.0174406
830.848	0.0175835
830.926	0.0176045
831.004	0.0176118
831.082	0.0175500
831.160	0.0175846
831.238	0.0175422
831.317	0.0175183
831.395	0.0173790
831.473	0.0174088
831.551	0.0173711
831.629	0.0172803
831.707	0.0173437
831.785	0.0172100
831.863	0.0173855
831.942	0.0172543
832.020	0.0172247
832.098	0.0172495
832.176	0.0172195
832.254	0.0172527
832.332	0.0171539
832.410	0.0169405
832.488	0.0170808
832.567	0.0170581
832.645	0.0169555
832.723	0.0168835
832.801	0.0169033
832.879	0.0168324
832.957	0.0166788
833.035	0.0167384
833.113	0.0166792
833.192	0.0165760
833.270	0.0165863
833.348	0.0166219
833.426	0.0166977
833.504	0.0165846
833.582	0.0166215
833.660	0.0165903
833.738	0.0165208
833.817	0.0166367
833.895	0.0167416
833.973	0.0167333
834.051	0.0167975
834.129	0.0169443
834.207	0.0169306
834.285	0.0169334
834.363	0.0170235
834.442	0.0170497
834.520	0.0172581
834.598	0.0173022
834.676	0.0173565
834.754	0.0174802
834.832	0.0173587
834.910	0.0175159
834.988	0.0176116
835.067	0.0175663
835.145	0.0175779
835.223	0.0177492
835.301	0.0176910
835.379	0.0177184
835.457	0.0175916
835.535	0.0177065
835.613	0.0176837
835.692	0.0176159
835.770	0.0177035
835.848	0.0177924
835.926	0.0176170
836.004	0.0176024
836.082	0.0175097
836.160	0.0175804
836.238	0.0173500
836.317	0.0173325
836.395	0.0173772
836.473	0.0171793
836.551	0.0170509
836.629	0.0172401
836.707	0.0171989
836.785	0.0170464
836.863	0.0169847
836.942	0.0168989
837.020	0.0168008
837.098	0.0168636
837.176	0.0167365
837.254	0.0167019
837.332	0.0168401
837.410	0.0166703
837.488	0.0166689
837.567	0.0166814
837.645	0.0165313
837.723	0.0166151
837.801	0.0166340
837.879	0.0168436
837.957	0.0166499
838.035	0.0166219
838.113	0.0167979
838.192	0.0167596
838.270	0.0168050
838.348	0.0167465
838.426	0.0167316
838.504	0.0169469
838.582	0.0169794
838.660	0.0169772
838.738	0.0171114
838.817	0.0169660
838.895	0.0169462
838.973	0.0171821
839.051	0.0171510
839.129	0.0172131
839.207	0.0172923
839.285	0.0172699
839.363	0.0173215
839.442	0.0173357
839.520	0.0175626
839.598	0.0174869
839.676	0.0173528
839.754	0.0174411
839.832	0.0176861
839.910	0.0175031
839.988	0.0174779
840.067	0.0175703
840.145	0.0173557
840.223	0.0174503
840.301	0.0174770
840.379	0.0174824
840.457	0.0173111
840.535	0.0173518
840.613	0.0173589
840.692	0.0173463
840.770	0.0173417
840.848	0.0172582
840.926	0.0172881
841.004	0.0171751
841.082	0.0171387
841.160	0.0170644
841.238	0.0169784
841.317	0.0170136
841.395	0.0168553
841.473	0.0169482
841.551	0.0168629
841.629	0.0168237
841.707	0.0168182
841.785	0.0169034
841.863	0.0167348
841.942	0.0167290
842.020	0.0168060
842.098	0.0168336
842.176	0.0169498
842.254	0.0169462
842.332	0.0170856
842.410	0.0168861
842.488	0.0169130
842.567	0.0170426
842.645	0.0171277
842.723	0.0170904
842.801	0.0171324
842.879	0.0171363
842.957	0.0171284
843.035	0.0171299
843.113	0.0172439
843.192	0.0172625
843.270	0.0171626
843.348	0.0173459
843.426	0.0173124
843.504	0.0173567
843.582	0.0171704
843.660	0.0172129
843.738	0.0170672
843.817	0.0171650
843.895	0.0170169
843.973	0.0171211
844.051	0.0171246
844.129	0.0170934
844.207	0.0169865
844.285	0.0168919
844.363	0.0169771
844.442	0.0170026
844.520	0.0168709
844.598	0.0169232
844.676	0.0170523
844.754	0.0169891
844.832	0.0169668
844.910	0.0171854
844.988	0.0171452
845.067	0.0169362
845.145	0.0170307
845.223	0.0171232
845.301	0.0172246
845.379	0.0172919
845.457	0.0172527
845.535	0.0171239
845.613	0.0172307
845.692	0.0171957
845.770	0.0172206
845.848	0.0171719
845.926	0.0171858
846.004	0.0172502
846.082	0.0171574
846.160	0.0172733
846.238	0.0171189
846.317	0.0171575
846.395	0.0170977
846.473	0.0170333
846.551	0.0171850
846.629	0.0170840
846.707	0.0170487
846.785	0.0169186
846.863	0.0170353
846.942	0.0170663
847.020	0.0171373
847.098	0.0171938
847.176	0.0170041
847.254	0.0170832
847.332	0.0170223
847.410	0.0170281
847.488	0.0171079
847.567	0.0169884
847.645	0.0168893
847.723	0.0170133
847.801	0.0170604
847.879	0.0170625
847.957	0.0171095
848.035	0.0172471
848.113	0.0171410
848.192	0.0171587
848.270	0.0170348
848.348	0.0171363
848.426	0.0170998
848.504	0.0171724
848.582	0.0172107
848.660	0.0171918
848.738	0.0171822
848.817	0.0172497
848.895	0.0171308
848.973	0.0171577
849.051	0.0172714
849.129	0.0171800
849.207	0.0171292
849.285	0.0171790
849.363	0.0171326
849.442	0.0170985
849.520	0.0170755
849.598	0.0171033
849.676	0.0170695
849.754	0.0169871
849.832	0.0172240
849.910	0.0171410
849.988	0.0168819
850.067	0.0168667
850.145	0.0169794
850.223	0.0170416
850.301	0.0169962
850.379	0.0168084
850.457	0.0170087
850.535	0.0168499
850.613	0.0169471
850.692	0.0168880
850.770	0.0169511
850.848	0.0169435
850.926	0.0168895
851.004	0.0171053
851.082	0.0169933
851.160	0.0170428
851.238	0.0171587
851.317	0.0171776
851.395	0.0171734
851.473	0.0170969
851.551	0.0172392
851.629	0.0173671
851.707	0.0172214
851.785	0.0171464
851.863	0.0171886
851.942	0.0171345
852.020	0.0171709
852.098	0.0172699
852.176	0.0173183
852.254	0.0172885
852.332	0.0174120
852.410	0.0173056
852.488	0.0171809
852.567	0.0171038
852.645	0.0172432
852.723	0.0173803
852.801	0.0171285
852.879	0.0171190
852.957	0.0172031
853.035	0.0171751
853.113	0.0172002
853.192	0.0171984
853.270	0.0171225
853.348	0.0172103
853.426	0.0171252
853.504	0.0172298
853.582	0.0172068
853.660	0.0171526
853.738	0.0170196
853.817	0.0171136
853.895	0.0172458
853.973	0.0170206
854.051	0.0170837
854.129	0.0170972
854.207	0.0170407
854.285	0.0169942
854.363	0.0170460
854.442	0.0170525
854.520	0.0171230
854.598	0.0169678
854.676	0.0170892
854.754	0.0169516
854.832	0.0168549
854.910	0.0169845
854.988	0.0169318
855.067	0.0168785
855.145	0.0169854
855.223	0.0168182
855.301	0.0168654
855.379	0.0168134
855.457	0.0168485
855.535	0.0169322
855.613	0.0169754
855.692	0.0169917
855.770	0.0169684
855.848	0.0171371
855.926	0.0171126
856.004	0.0170643
856.082	0.0170411
856.160	0.0170035
856.238	0.0171678
856.317	0.0170459
856.395	0.0170174
856.473	0.0171432
856.551	0.0170892
856.629	0.0170628
856.707	0.0170982
856.785	0.0172334
856.863	0.0171593
856.942	0.0170435
857.020	0.0171590
857.098	0.0170911
857.176	0.0170403
857.254	0.0171859
857.332	0.0170358
857.410	0.0169784
857.488	0.0170332
857.567	0.0169827
857.645	0.0171362
857.723	0.0170520
857.801	0.0170997
857.879	0.0171896
857.957	0.0170696
858.035	0.0171855
858.113	0.0173112
858.192	0.0171381
858.270	0.0170347
858.348	0.0173247
858.426	0.0172395
858.504	0.0172250
858.582	0.0171108
858.660	0.0173101
858.738	0.0172896
858.817	0.0174130
858.895	0.0173302
858.973	0.0172677
859.051	0.0173419
859.129	0.0172245
859.207	0.0172247
859.285	0.0173102
859.363	0.0172518
859.442	0.0171471
859.520	0.0170495
859.598	0.0171072
859.676	0.0170504
859.754	0.0171069
859.832	0.0170839
859.910	0.0168756
859.988	0.0169754
860.067	0.0170843
860.145	0.0170642
860.223	0.0170572
860.301	0.0171451
860.379	0.0170985
860.457	0.0171178
860.535	0.0170709
860.613	0.0171678
860.692	0.0170994
860.770	0.0169933
860.848	0.0171034
860.926	0.0171549
861.004	0.0170966
861.082	0.0170622
861.160	0.0170171
861.238	0.0170397
861.317	0.0170383
861.395	0.0170390
861.473	0.0170202
861.551	0.0171595
861.629	0.0169773
861.707	0.0170052
861.785	0.0169907
861.863	0.0171097
861.942	0.0168507
862.020	0.0170102
862.098	0.0171149
862.176	0.0171059
862.254	0.0169849
862.332	0.0170569
862.410	0.0171729
862.488	0.0171635
862.567	0.0171600
862.645	0.0171043
862.723	0.0172330
862.801	0.0171214
862.879	0.0170907
862.957	0.0172514
863.035	0.0172283
863.113	0.0171302
863.192	0.0169213
863.270	0.0170342
863.348	0.0170023
863.426	0.0169969
863.504	0.0170467
863.582	0.0169821
863.660	0.0169717
863.738	0.0170741
863.817	0.0171165
863.895	0.0169421
863.973	0.0169144
864.051	0.0171243
864.129	0.0172531
864.207	0.0170764
864.285	0.0171398
864.363	0.0170478
864.442	0.0171899
864.520	0.0172620
864.598	0.0172953
864.676	0.0173225
864.754	0.0173312
864.832	0.0173199
864.910	0.0172863
864.988	0.0173740
865.067	0.0172260
865.145	0.0172057
865.223	0.0172398
865.301	0.0173660
865.379	0.0171841
865.457	0.0171960
865.535	0.0171645
865.613	0.0171650
865.692	0.0170881
865.770	0.0170054
865.848	0.0171048
865.926	0.0170624
866.004	0.0170161
866.082	0.0170781
866.160	0.0170757
866.238	0.0169664
866.317	0.0170094
866.395	0.0169503
866.473	0.0169164
866.551	0.0170577
866.629	0.0170287
866.707	0.0168580
866.785	0.0169535
866.863	0.0170750
866.942	0.0168923
867.020	0.0169312
867.098	0.0170649
867.176	0.0169513
867.254	0.0169451
867.332	0.0170628
867.410	0.0168839
867.488	0.0168908
867.567	0.0168449
867.645	0.0171013
867.723	0.0170045
867.801	0.0170466
867.879	0.0171991
867.957	0.0172124
868.035	0.0173318
868.113	0.0172874
868.192	0.0173670
868.270	0.0174409
868.348	0.0176032
868.426	0.0173543
868.504	0.0174542
868.582	0.0175330
868.660	0.0172738
868.738	0.0174406
868.817	0.0173669
868.895	0.0172960
868.973	0.0173009
869.051	0.0173481
869.129	0.0172929
869.207	0.0171915
869.285	0.0171880
869.363	0.0171165
869.442	0.0169727
869.520	0.0169978
869.598	0.0169453
869.676	0.0169962
869.754	0.0168930
869.832	0.0170662
869.910	0.0168692
869.988	0.0170058
870.067	0.0169748
870.145	0.0168681
870.223	0.0169224
870.301	0.0170041
870.379	0.0171516
870.457	0.0170675
870.535	0.0168884
870.613	0.0169756
870.692	0.0170193
870.770	0.0172459
870.848	0.0170804
870.926	0.0171436
871.004	0.0170550
871.082	0.0171323
871.160	0.0169624
871.238	0.0169374
871.317	0.0172112
871.395	0.0171632
871.473	0.0171441
871.551	0.0171777
871.629	0.0172560
871.707	0.0171873
871.785	0.0170577
871.863	0.0173479
871.942	0.0173245
872.020	0.0173614
872.098	0.0172961
872.176	0.0174571
872.254	0.0175079
872.332	0.0173594
872.410	0.0173626
872.488	0.0174686
872.567	0.0174781
872.645	0.0173638
872.723	0.0172929
872.801	0.0173215
872.879	0.0171642
872.957	0.0173679
873.035	0.0172892
873.113	0.0171388
873.192	0.0170552
873.270	0.0171033
873.348	0.0170924
873.426	0.0169403
873.504	0.0168808
873.582	0.0169768
873.660	0.0168401
873.738	0.0168917
873.817	0.0168971
873.895	0.0168562
873.973	0.0166914
874.051	0.0167826
874.129	0.0168365
874.207	0.0170161
874.285	0.0170721
874.363	0.0170356
874.442	0.0170823
874.520	0.0170917
874.598	0.0171212
874.676	0.0171632
874.754	0.0171182
874.832	0.0171289
874.910	0.0172034
874.988	0.0169859
875.067	0.0169086
875.145	0.0169225
875.223	0.0168984
875.301	0.0169133
875.379	0.0169035
875.457	0.0167248
875.535	0.0168883
875.613	0.0168586
875.692	0.0168743
875.770	0.0168956
875.848	0.0170602
875.926	0.0170107
876.004	0.0171469
876.082	0.0171527
876.160	0.0173378
876.238	0.0173590
876.317	0.0174044
876.395	0.0175114
876.473	0.0174174
876.551	0.0176646
876.629	0.0175500
876.707	0.0175702
876.785	0.0175340
876.863	0.0174283
876.942	0.0173688
877.020	0.0173213
877.098	0.0172813
877.176	0.0172815
877.254	0.0172538
877.332	0.0171924
877.410	0.0169280
877.488	0.0169207
877.567	0.0170099
877.645	0.0171217
877.723	0.0169828
877.801	0.0168123
877.879	0.0169601
877.957	0.0169037
878.035	0.0168452
878.113	0.0168639
878.192	0.0166597
878.270	0.0166716
878.348	0.0166434
878.426	0.0167221
878.504	0.0166428
878.582	0.0165359
878.660	0.0166060
878.738	0.0165282
878.817	0.0164186
878.895	0.0164053
878.973	0.0164458
879.051	0.0165977
879.129	0.0165955
879.207	0.0166093
879.285	0.0169649
879.363	0.0169424
879.442	0.0171006
879.520	0.0173283
879.598	0.0175199
879.676	0.0177844
879.754	0.0180127
879.832	0.0181584
879.910	0.0183019
879.988	0.0182181
880.067	0.0183652
880.145	0.0185717
880.223	0.0185864
880.301	0.0184667
880.379	0.0184281
880.457	0.0181973
880.535	0.0180781
880.613	0.0178838
880.692	0.0177084
880.770	0.0174016
880.848	0.0173022
880.926	0.0171049
881.004	0.0169043
881.082	0.0167431
881.160	0.0166228
881.238	0.0164503
881.317	0.0163966
881.395	0.0162681
881.473	0.0163261
881.551	0.0164149
881.629	0.0164185
881.707	0.0165019
881.785	0.0163517
881.863	0.0165826
881.942	0.0165194
882.020	0.0167229
882.098	0.0166088
882.176	0.0167245
882.254	0.0167329
882.332	0.0167692
882.410	0.0168327
882.488	0.0167560
882.567	0.0166072
882.645	0.0166822
882.723	0.0166342
882.801	0.0164300
882.879	0.0164188
882.957	0.0162936
883.035	0.0166001
883.113	0.0163927
883.192	0.0163992
883.270	0.0165383
883.348	0.0168810
883.426	0.0169312
883.504	0.0172845
883.582	0.0174960
883.660	0.0176833
883.738	0.0179391
883.817	0.0181556
883.895	0.0182436
883.973	0.0182932
884.051	0.0186541
884.129	0.0186978
884.207	0.0185489
884.285	0.0185020
884.363	0.0183850
884.442	0.0182760
884.520	0.0181406
884.598	0.0177225
884.676	0.0176732
884.754	0.0174696
884.832	0.0171733
884.910	0.0169854
884.988	0.0169911
885.067	0.0168542
885.145	0.0167607
885.223	0.0167546
885.301	0.0169517
885.379	0.0168871
885.457	0.0169100
885.535	0.0170060
885.613	0.0170593
885.692	0.0170596
885.770	0.0170599
885.848	0.0169621
885.926	0.0169408
886.004	0.0170831
886.082	0.0170625
886.160	0.0168483
886.238	0.0168072
886.317	0.0166985
886.395	0.0167728
886.473	0.0166670
886.551	0.0163454
886.629	0.0162132
886.707	0.0162160
886.785	0.0160775
886.863	0.0161854
886.942	0.0161984
887.020	0.0161404
887.098	0.0162158
887.176	0.0162903
887.254	0.0167158
887.332	0.0168810
887.410	0.0168973
887.488	0.0169141
887.567	0.0171692
887.645	0.0175021
887.723	0.0176311
887.801	0.0178109
887.879	0.0179191
887.957	0.0181342
888.035	0.0181258
888.113	0.0181024
888.192	0.0179677
888.270	0.0179534
888.348	0.0179829
888.426	0.0178154
888.504	0.0176248
888.582	0.0175144
888.660	0.0175514
888.738	0.0174489
888.817	0.0174649
888.895	0.0171774
888.973	0.0173434
889.051	0.0174319
889.129	0.0173012
889.207	0.0174069
889.285	0.0174224
889.363	0.0172434
889.442	0.0171602
889.520	0.0173138
889.598	0.0172292
889.676	0.0171622
889.754	0.0171323
889.832	0.0169096
889.910	0.0168990
889.988	0.0168346
890.067	0.0167126
890.145	0.0164706
890.223	0.0164858
890.301	0.0162842
890.379	0.0163564
890.457	0.0162752
890.535	0.0162257
890.613	0.0163338
890.692	0.0163762
890.770	0.0163685
890.848	0.0165357
890.926	0.0165366
891.004	0.0166343
891.082	0.0169807
891.160	0.0169736
891.238	0.0170126
891.317	0.0171976
891.395	0.0175755
891.473	0.0174768
891.551	0.0175353
891.629	0.0176308
891.707	0.0176798
891.785	0.0177523
891.863	0.0177180
891.942	0.0179955
892.020	0.0178307
892.098	0.0178076
892.176	0.0176020
892.254	0.0176180
892.332	0.0176779
892.410	0.0176083
892.488	0.0173029
892.567	0.0172805
892.645	0.0170771
892.723	0.0171823
892.801	0.0169493
892.879	0.0168752
892.957	0.0171458
893.035	0.0172501
893.113	0.0172956
893.192	0.0172767
893.270	0.0174487
893.348	0.0175385
893.426	0.0174469
893.504	0.0175968
893.582	0.0175494
893.660	0.0175083
893.738	0.0176166
893.817	0.0174496
893.895	0.0174989
893.973	0.0172236
894.051	0.0171822
894.129	0.0170254
894.207	0.0169884
894.285	0.0167744
894.363	0.0165900
894.442	0.0165302
894.520	0.0166278
894.598	0.0165205
894.676	0.0165113
894.754	0.0164693
894.832	0.0164908
894.910	0.0166927
894.988	0.0166090
895.067	0.0164150
895.145	0.0165664
895.223	0.0168223
895.301	0.0168129
895.379	0.0169473
895.457	0.0170485
895.535	0.0170870
895.613	0.0170169
895.692	0.0171422
895.770	0.0171940
895.848	0.0173282
895.926	0.0173870
896.004	0.0173809
896.082	0.0174212
896.160	0.0174023
896.238	0.0173591
896.317	0.0174357
896.395	0.0172932
896.473	0.0173341
896.551	0.0174020
896.629	0.0173656
896.707	0.0173039
896.785	0.0171850
896.863	0.0171829
896.942	0.0170268
897.020	0.0170692
897.098	0.0171307
897.176	0.0170782
897.254	0.0170515
897.332	0.0171313
897.410	0.0170759
897.488	0.0171962
897.567	0.0171687
897.645	0.0171758
897.723	0.0172204
897.801	0.0172306
897.879	0.0174062
897.957	0.0173586
898.035	0.0173974
898.113	0.0174656
898.192	0.0174670
898.270	0.0172605
898.348	0.0172569
898.426	0.0172147
898.504	0.0171516
898.582	0.0170607
898.660	0.0169205
898.738	0.0169417
898.817	0.0168932
898.895	0.0167907
898.973	0.0168846
899.051	0.0167624
899.129	0.0166506
899.207	0.0167086
899.285	0.0165838
899.363	0.0166998
899.442	0.0166488
899.520	0.0167107
899.598	0.0168408
899.676	0.0166306
899.754	0.0169173
899.832	0.0169005
899.910	0.0169587
899.988	0.0170192
900.067	0.0170348
900.145	0.0170691
900.223	0.0170847
900.301	0.0173660
900.379	0.0172137
900.457	0.0172890
900.535	0.0173467
900.613	0.0173035
900.692	0.0173647
900.770	0.0175605
900.848	0.0173785
900.926	0.0174755
901.004	0.0173797
901.082	0.0174457
901.160	0.0175259
901.238	0.0174367
901.317	0.0175535
901.395	0.0175208
901.473	0.0175484
901.551	0.0174487
901.629	0.0174755
901.707	0.0175459
901.785	0.0175188
901.863	0.0173273
901.942	0.0174290
902.020	0.0172002
902.098	0.0173167
902.176	0.0173510
902.254	0.0171223
902.332	0.0169978
902.410	0.0170940
902.488	0.0170971
902.567	0.0169912
902.645	0.0168610
902.723	0.0169809
902.801	0.0169453
902.879	0.0169930
902.957	0.0168323
903.035	0.0168187
903.113	0.0168785
903.192	0.0170992
903.270	0.0168222
903.348	0.0169758
903.426	0.0170934
903.504	0.0170672
903.582	0.0169807
903.660	0.0169431
903.738	0.0169541
903.817	0.0170104
903.895	0.0169331
903.973	0.0169829
904.051	0.0169079
904.129	0.0170987
904.207	0.0171110
904.285	0.0171066
904.363	0.0170052
904.442	0.0170639
904.520	0.0170837
904.598	0.0172340
904.676	0.0171582
904.754	0.0169976
904.832	0.0171236
904.910	0.0173132
904.988	0.0172627
905.067	0.0170786
905.145	0.0171935
905.223	0.0173021
905.301	0.0172438
905.379	0.0172049
905.457	0.0172995
905.535	0.0174957
905.613	0.0174191
905.692	0.0172830
905.770	0.0175041
905.848	0.0175371
905.926	0.0174969
906.004	0.0174637
906.082	0.0174522
906.160	0.0174448
906.238	0.0174973
906.317	0.0173013
906.395	0.0173032
906.473	0.0173854
906.551	0.0173431
906.629	0.0171977
906.707	0.0171877
906.785	0.0171056
906.863	0.0171123
906.942	0.0170441
907.020	0.0171054
907.098	0.0171446
907.176	0.0170597
907.254	0.0170256
907.332	0.0170055
907.410	0.0170256
907.488	0.0168655
907.567	0.0169255
907.645	0.0170301
907.723	0.0169334
907.801	0.0171613
907.879	0.0171100
907.957	0.0170712
908.035	0.0171745
908.113	0.0169277
908.192	0.0170702
908.270	0.0169191
908.348	0.0170532
908.426	0.0169417
908.504	0.0170676
908.582	0.0169160
908.660	0.0169577
908.738	0.0167942
908.817	0.0167656
908.895	0.0167466
908.973	0.0167248
909.051	0.0166650
909.129	0.0168885
909.207	0.0168442
909.285	0.0169759
909.363	0.0171061
909.442	0.0170408
909.520	0.0170673
909.598	0.0172543
909.676	0.0171922
909.754	0.0174193
909.832	0.0173819
909.910	0.0174407
909.988	0.0175762
910.067	0.0177270
910.145	0.0176201
910.223	0.0176667
910.301	0.0175910
910.379	0.0174178
910.457	0.0174538
910.535	0.0175113
910.613	0.0172922
910.692	0.0172324
910.770	0.0173216
910.848	0.0170255
910.926	0.0171448
911.004	0.0169965
911.082	0.0171171
911.160	0.0171084
911.238	0.0169776
911.317	0.0168661
911.395	0.0170024
911.473	0.0170700
911.551	0.0170420
911.629	0.0170344
911.707	0.0171236
911.785	0.0170973
911.863	0.0171020
911.942	0.0172470
912.020	0.0170061
912.098	0.0171359
912.176	0.0170967
912.254	0.0170609
912.332	0.0169637
912.410	0.0172183
912.488	0.0170244
912.567	0.0170088
912.645	0.0169588
912.723	0.0169202
912.801	0.0169984
912.879	0.0168848
912.957	0.0168662
913.035	0.0169952
913.113	0.0169706
913.192	0.0169884
913.270	0.0169933
913.348	0.0169501
913.426	0.0169802
913.504	0.0170548
913.582	0.0172070
913.660	0.0170714
913.738	0.0171493
913.817	0.0172070
913.895	0.0172456
913.973	0.0172511
914.051	0.0172243
914.129	0.0172877
914.207	0.0173855
914.285	0.0173092
914.363	0.0173920
914.442	0.0174273
914.520	0.0173777
914.598	0.0174054
914.676	0.0174363
914.754	0.0174687
914.832	0.0174827
914.910	0.0172745
914.988	0.0175943
915.067	0.0176182
915.145	0.0174271
915.223	0.0174586
915.301	0.0176563
915.379	0.0174778
915.457	0.0176098
915.535	0.0175397
915.613	0.0175712
915.692	0.0173825
915.770	0.0171431
915.848	0.0172575
915.926	0.0171887
916.004	0.0171274
916.082	0.0170669
916.160	0.0170538
916.238	0.0168822
916.317	0.0168110
916.395	0.0167370
916.473	0.0168222
916.551	0.0167074
916.629	0.0167930
916.707	0.0167527
916.785	0.0167788
916.863	0.0167877
916.942	0.0166960
917.020	0.0168013
917.098	0.0167667
917.176	0.0168448
917.254	0.0168836
917.332	0.0169691
917.410	0.0168715
917.488	0.0168275
917.567	0.0170489
917.645	0.0171934
917.723	0.0170813
917.801	0.0169115
917.879	0.0170560
917.957	0.0169585
918.035	0.0169246
918.113	0.0169369
918.192	0.0169695
918.270	0.0169808
918.348	0.0169806
918.426	0.0169947
918.504	0.0170827
918.582	0.0171358
918.660	0.0171516
918.738	0.0171164
918.817	0.0171380
918.895	0.0174133
918.973	0.0172639
919.051	0.0172112
919.129	0.0173798
919.207	0.0175102
919.285	0.0174489
919.363	0.0174129
919.442	0.0174784
919.520	0.0174388
919.598	0.0175404
919.676	0.0174136
919.754	0.0174660
919.832	0.0175875
919.910	0.0173920
