05/24/2022	20:14:03	Ver.	4.1	UNKNOWN
Optical Delay	599.981738	Delta X		0.078125	Sweeps	1	Scan Rate	0/0
Coordinates	Axis 1	NaN	Axis 2	NaN	Axis 3	NaN	Axis 4	NaN	Axis 5	NaN	Axis 6	0.000000
TX Power	0.000000	RX Power	0.000000

599.982	0.0171682
600.060	0.0173140
600.138	0.0170586
600.216	0.0171130
600.294	0.0172773
600.372	0.0171935
600.450	0.0170538
600.529	0.0171983
600.607	0.0172237
600.685	0.0172755
600.763	0.0172294
600.841	0.0172453
600.919	0.0171698
600.997	0.0170766
601.075	0.0172192
601.154	0.0171125
601.232	0.0171246
601.310	0.0173160
601.388	0.0172293
601.466	0.0172590
601.544	0.0170599
601.622	0.0171426
601.700	0.0172045
601.779	0.0172299
601.857	0.0172219
601.935	0.0171825
602.013	0.0172749
602.091	0.0171371
602.169	0.0171429
602.247	0.0171174
602.325	0.0171769
602.404	0.0171896
602.482	0.0171188
602.560	0.0171244
602.638	0.0171307
602.716	0.0171329
602.794	0.0172184
602.872	0.0170561
602.950	0.0171754
603.029	0.0171844
603.107	0.0171249
603.185	0.0171585
603.263	0.0170994
603.341	0.0171754
603.419	0.0169877
603.497	0.0171723
603.575	0.0172628
603.654	0.0172032
603.732	0.0172019
603.810	0.0170724
603.888	0.0171080
603.966	0.0171278
604.044	0.0170831
604.122	0.0172713
604.200	0.0170983
604.279	0.0171716
604.357	0.0171996
604.435	0.0172247
604.513	0.0171803
604.591	0.0170892
604.669	0.0172255
604.747	0.0171364
604.825	0.0171870
604.904	0.0171275
604.982	0.0170600
605.060	0.0172324
605.138	0.0171344
605.216	0.0171971
605.294	0.0172343
605.372	0.0173266
605.450	0.0171719
605.529	0.0171372
605.607	0.0171046
605.685	0.0171978
605.763	0.0172621
605.841	0.0171898
605.919	0.0171770
605.997	0.0173667
606.075	0.0172352
606.154	0.0170663
606.232	0.0172249
606.310	0.0173441
606.388	0.0170895
606.466	0.0171285
606.544	0.0172023
606.622	0.0171470
606.700	0.0171307
606.779	0.0172071
606.857	0.0170749
606.935	0.0173106
607.013	0.0172267
607.091	0.0170811
607.169	0.0171681
607.247	0.0171189
607.325	0.0171861
607.404	0.0172275
607.482	0.0171622
607.560	0.0172683
607.638	0.0170717
607.716	0.0171165
607.794	0.0172588
607.872	0.0172580
607.950	0.0171689
608.029	0.0170773
608.107	0.0172621
608.185	0.0172219
608.263	0.0172491
608.341	0.0172884
608.419	0.0172019
608.497	0.0171613
608.575	0.0172016
608.654	0.0171993
608.732	0.0172441
608.810	0.0171895
608.888	0.0173654
608.966	0.0171557
609.044	0.0172025
609.122	0.0171859
609.200	0.0172233
609.279	0.0172403
609.357	0.0172310
609.435	0.0172577
609.513	0.0170022
609.591	0.0171640
609.669	0.0171110
609.747	0.0171362
609.825	0.0171783
609.904	0.0171440
609.982	0.0171902
610.060	0.0171331
610.138	0.0170086
610.216	0.0172423
610.294	0.0171090
610.372	0.0171622
610.450	0.0170528
610.529	0.0170633
610.607	0.0170937
610.685	0.0172195
610.763	0.0170360
610.841	0.0172234
610.919	0.0172314
610.997	0.0170909
611.075	0.0171855
611.154	0.0171826
611.232	0.0172992
611.310	0.0172498
611.388	0.0169523
611.466	0.0170416
611.544	0.0172143
611.622	0.0172195
611.700	0.0171299
611.779	0.0172655
611.857	0.0172173
611.935	0.0172418
612.013	0.0172086
612.091	0.0170983
612.169	0.0170450
612.247	0.0170660
612.325	0.0172171
612.404	0.0172166
612.482	0.0171751
612.560	0.0171153
612.638	0.0171517
612.716	0.0172649
612.794	0.0172945
612.872	0.0171236
612.950	0.0171850
613.029	0.0171254
613.107	0.0170942
613.185	0.0171682
613.263	0.0170468
613.341	0.0173167
613.419	0.0172440
613.497	0.0171133
613.575	0.0171524
613.654	0.0171976
613.732	0.0171410
613.810	0.0172049
613.888	0.0171574
613.966	0.0170367
614.044	0.0170592
614.122	0.0172690
614.200	0.0171355
614.279	0.0171945
614.357	0.0172358
614.435	0.0172141
614.513	0.0172702
614.591	0.0172238
614.669	0.0171867
614.747	0.0172223
614.825	0.0169963
614.904	0.0170598
614.982	0.0171786
615.060	0.0172457
615.138	0.0171680
615.216	0.0171415
615.294	0.0171006
615.372	0.0171708
615.450	0.0171278
615.529	0.0172478
615.607	0.0171367
615.685	0.0169985
615.763	0.0171754
615.841	0.0172327
615.919	0.0171245
615.997	0.0172081
616.075	0.0171626
616.154	0.0172384
616.232	0.0173116
616.310	0.0172302
616.388	0.0172492
616.466	0.0171736
616.544	0.0171951
616.622	0.0172020
616.700	0.0172443
616.779	0.0173423
616.857	0.0172257
616.935	0.0172672
617.013	0.0172291
617.091	0.0173009
617.169	0.0172248
617.247	0.0172195
617.325	0.0173098
617.404	0.0173289
617.482	0.0171908
617.560	0.0172493
617.638	0.0171989
617.716	0.0171848
617.794	0.0170705
617.872	0.0171737
617.950	0.0171945
618.029	0.0173374
618.107	0.0170927
618.185	0.0171519
618.263	0.0171578
618.341	0.0170847
618.419	0.0170629
618.497	0.0171878
618.575	0.0171539
618.654	0.0171096
618.732	0.0172667
618.810	0.0169993
618.888	0.0171790
618.966	0.0172010
619.044	0.0169001
619.122	0.0170221
619.200	0.0171037
619.279	0.0170502
619.357	0.0170827
619.435	0.0170261
619.513	0.0171795
619.591	0.0171398
619.669	0.0171957
619.747	0.0171727
619.825	0.0170724
619.904	0.0171507
619.982	0.0172910
620.060	0.0171631
620.138	0.0169714
620.216	0.0172014
620.294	0.0171640
620.372	0.0171528
620.450	0.0171033
620.529	0.0170487
620.607	0.0171220
620.685	0.0171465
620.763	0.0173133
620.841	0.0172614
620.919	0.0172458
620.997	0.0171658
621.075	0.0173715
621.154	0.0172944
621.232	0.0172942
621.310	0.0170404
621.388	0.0171644
621.466	0.0173396
621.544	0.0172222
621.622	0.0171101
621.700	0.0172379
621.779	0.0173352
621.857	0.0170895
621.935	0.0170978
622.013	0.0172159
622.091	0.0171730
622.169	0.0171377
622.247	0.0170825
622.325	0.0171655
622.404	0.0172684
622.482	0.0172387
622.560	0.0170831
622.638	0.0171745
622.716	0.0170138
622.794	0.0170982
622.872	0.0170921
622.950	0.0171454
623.029	0.0171181
623.107	0.0170444
623.185	0.0172047
623.263	0.0171825
623.341	0.0170555
623.419	0.0171131
623.497	0.0171896
623.575	0.0170954
623.654	0.0171667
623.732	0.0172649
623.810	0.0171922
623.888	0.0171108
623.966	0.0170872
624.044	0.0171065
624.122	0.0170496
624.200	0.0170934
624.279	0.0172609
624.357	0.0172082
624.435	0.0171026
624.513	0.0170706
624.591	0.0171767
624.669	0.0171735
624.747	0.0172192
624.825	0.0171306
624.904	0.0171078
624.982	0.0171983
625.060	0.0170982
625.138	0.0170607
625.216	0.0170934
625.294	0.0172383
625.372	0.0171425
625.450	0.0172668
625.529	0.0170914
625.607	0.0171751
625.685	0.0171496
625.763	0.0171833
625.841	0.0170929
625.919	0.0170843
625.997	0.0169932
626.075	0.0172964
626.154	0.0173801
626.232	0.0172393
626.310	0.0171880
626.388	0.0172098
626.466	0.0171930
626.544	0.0172008
626.622	0.0171619
626.700	0.0170389
626.779	0.0171773
626.857	0.0172098
626.935	0.0171716
627.013	0.0172052
627.091	0.0171745
627.169	0.0170644
627.247	0.0170953
627.325	0.0171263
627.404	0.0170254
627.482	0.0170238
627.560	0.0170828
627.638	0.0171869
627.716	0.0171249
627.794	0.0172221
627.872	0.0171608
627.950	0.0170749
628.029	0.0169797
628.107	0.0172590
628.185	0.0172094
628.263	0.0171415
628.341	0.0171929
628.419	0.0171926
628.497	0.0171371
628.575	0.0171142
628.654	0.0170763
628.732	0.0171753
628.810	0.0170029
628.888	0.0171033
628.966	0.0173264
629.044	0.0172465
629.122	0.0171370
629.200	0.0171891
629.279	0.0170441
629.357	0.0171518
629.435	0.0170352
629.513	0.0171548
629.591	0.0171413
629.669	0.0171921
629.747	0.0171623
629.825	0.0170356
629.904	0.0170988
629.982	0.0171829
630.060	0.0172549
630.138	0.0171686
630.216	0.0171579
630.294	0.0170004
630.372	0.0170975
630.450	0.0171440
630.529	0.0171606
630.607	0.0172810
630.685	0.0173511
630.763	0.0171105
630.841	0.0170996
630.919	0.0170922
630.997	0.0170969
631.075	0.0171617
631.154	0.0170877
631.232	0.0172689
631.310	0.0171352
631.388	0.0171674
631.466	0.0170499
631.544	0.0170708
631.622	0.0172373
631.700	0.0171534
631.779	0.0170901
631.857	0.0171876
631.935	0.0172879
632.013	0.0171841
632.091	0.0170963
632.169	0.0171437
632.247	0.0172134
632.325	0.0171715
632.404	0.0172813
632.482	0.0172056
632.560	0.0170811
632.638	0.0172959
632.716	0.0171361
632.794	0.0171125
632.872	0.0171497
632.950	0.0172218
633.029	0.0172362
633.107	0.0171954
633.185	0.0172800
633.263	0.0173189
633.341	0.0170644
633.419	0.0171339
633.497	0.0172073
633.575	0.0171712
633.654	0.0171163
633.732	0.0171412
633.810	0.0171922
633.888	0.0171462
633.966	0.0171877
634.044	0.0170768
634.122	0.0171525
634.200	0.0171524
634.279	0.0170714
634.357	0.0170111
634.435	0.0171543
634.513	0.0171201
634.591	0.0171559
634.669	0.0171329
634.747	0.0171511
634.825	0.0171711
634.904	0.0171238
634.982	0.0170972
635.060	0.0170803
635.138	0.0169594
635.216	0.0172323
635.294	0.0171784
635.372	0.0171555
635.450	0.0171902
635.529	0.0171752
635.607	0.0170928
635.685	0.0171460
635.763	0.0170837
635.841	0.0172292
635.919	0.0170392
635.997	0.0170823
636.075	0.0172295
636.154	0.0170030
636.232	0.0171580
636.310	0.0170991
636.388	0.0170376
636.466	0.0170892
636.544	0.0172086
636.622	0.0171118
636.700	0.0171608
636.779	0.0171579
636.857	0.0170538
636.935	0.0170974
637.013	0.0171453
637.091	0.0171478
637.169	0.0172020
637.247	0.0171009
637.325	0.0171170
637.404	0.0171249
637.482	0.0171148
637.560	0.0170882
637.638	0.0171367
637.716	0.0171657
637.794	0.0170827
637.872	0.0170113
637.950	0.0171314
638.029	0.0171203
638.107	0.0171725
638.185	0.0172419
638.263	0.0172233
638.341	0.0169744
638.419	0.0171827
638.497	0.0172680
638.575	0.0170812
638.654	0.0171148
638.732	0.0172817
638.810	0.0171825
638.888	0.0171043
638.966	0.0171396
639.044	0.0170919
639.122	0.0171592
639.200	0.0173038
639.279	0.0171615
639.357	0.0172147
639.435	0.0172656
639.513	0.0170266
639.591	0.0169889
639.669	0.0172369
639.747	0.0172048
639.825	0.0172369
639.904	0.0171651
639.982	0.0172053
640.060	0.0171919
640.138	0.0172211
640.216	0.0169878
640.294	0.0170900
640.372	0.0172057
640.450	0.0171935
640.529	0.0170874
640.607	0.0171732
640.685	0.0171611
640.763	0.0171246
640.841	0.0171011
640.919	0.0172076
640.997	0.0171031
641.075	0.0170866
641.154	0.0170470
641.232	0.0171268
641.310	0.0171006
641.388	0.0171751
641.466	0.0171629
641.544	0.0171217
641.622	0.0172505
641.700	0.0171765
641.779	0.0170319
641.857	0.0170293
641.935	0.0171303
642.013	0.0170868
642.091	0.0171011
642.169	0.0170840
642.247	0.0171375
642.325	0.0172119
642.404	0.0171603
642.482	0.0171391
642.560	0.0171085
642.638	0.0171255
642.716	0.0171222
642.794	0.0172270
642.872	0.0172095
642.950	0.0170254
643.029	0.0171617
643.107	0.0172253
643.185	0.0171364
643.263	0.0172133
643.341	0.0171886
643.419	0.0171535
643.497	0.0170574
643.575	0.0171404
643.654	0.0171617
643.732	0.0174035
643.810	0.0171967
643.888	0.0170702
643.966	0.0172662
644.044	0.0171392
644.122	0.0170206
644.200	0.0172939
644.279	0.0173125
644.357	0.0172231
644.435	0.0171489
644.513	0.0171341
644.591	0.0172063
644.669	0.0172009
644.747	0.0171185
644.825	0.0171655
644.904	0.0171875
644.982	0.0171915
645.060	0.0171052
645.138	0.0171547
645.216	0.0172543
645.294	0.0172009
645.372	0.0172190
645.450	0.0172294
645.529	0.0171183
645.607	0.0171702
645.685	0.0170864
645.763	0.0172240
645.841	0.0170542
645.919	0.0171659
645.997	0.0171867
646.075	0.0171924
646.154	0.0171124
646.232	0.0172039
646.310	0.0171260
646.388	0.0171246
646.466	0.0172063
646.544	0.0172594
646.622	0.0172385
646.700	0.0171185
646.779	0.0170135
646.857	0.0170651
646.935	0.0172158
647.013	0.0172757
647.091	0.0173014
647.169	0.0170452
647.247	0.0171274
647.325	0.0171831
647.404	0.0172655
647.482	0.0171041
647.560	0.0172514
647.638	0.0172305
647.716	0.0172650
647.794	0.0171806
647.872	0.0172028
647.950	0.0173192
648.029	0.0171464
648.107	0.0171224
648.185	0.0171776
648.263	0.0170741
648.341	0.0171784
648.419	0.0171601
648.497	0.0172325
648.575	0.0173082
648.654	0.0172151
648.732	0.0171164
648.810	0.0171825
648.888	0.0172566
648.966	0.0171437
649.044	0.0171142
649.122	0.0172512
649.200	0.0170986
649.279	0.0172352
649.357	0.0171889
649.435	0.0172686
649.513	0.0170856
649.591	0.0171548
649.669	0.0170690
649.747	0.0171989
649.825	0.0171143
649.904	0.0172669
649.982	0.0172604
650.060	0.0171632
650.138	0.0171267
650.216	0.0172749
650.294	0.0170989
650.372	0.0171731
650.450	0.0171649
650.529	0.0171494
650.607	0.0171031
650.685	0.0173126
650.763	0.0170966
650.841	0.0171777
650.919	0.0170763
650.997	0.0171198
651.075	0.0171473
651.154	0.0172031
651.232	0.0172329
651.310	0.0170423
651.388	0.0170943
651.466	0.0171024
651.544	0.0171807
651.622	0.0171952
651.700	0.0172558
651.779	0.0172556
651.857	0.0172478
651.935	0.0171769
652.013	0.0172279
652.091	0.0172162
652.169	0.0171337
652.247	0.0171630
652.325	0.0171479
652.404	0.0171998
652.482	0.0172140
652.560	0.0170098
652.638	0.0172154
652.716	0.0172947
652.794	0.0172607
652.872	0.0172322
652.950	0.0172089
653.029	0.0171907
653.107	0.0172420
653.185	0.0171637
653.263	0.0171156
653.341	0.0172514
653.419	0.0171357
653.497	0.0170871
653.575	0.0170559
653.654	0.0170903
653.732	0.0171764
653.810	0.0171607
653.888	0.0171014
653.966	0.0171326
654.044	0.0171861
654.122	0.0171376
654.200	0.0171487
654.279	0.0171239
654.357	0.0172473
654.435	0.0170711
654.513	0.0170644
654.591	0.0170879
654.669	0.0171191
654.747	0.0172303
654.825	0.0170384
654.904	0.0172207
654.982	0.0171693
655.060	0.0171111
655.138	0.0173204
655.216	0.0170889
655.294	0.0171254
655.372	0.0171489
655.450	0.0170866
655.529	0.0172191
655.607	0.0171654
655.685	0.0171239
655.763	0.0170465
655.841	0.0172026
655.919	0.0171330
655.997	0.0171201
656.075	0.0172111
656.154	0.0173228
656.232	0.0170618
656.310	0.0170858
656.388	0.0171201
656.466	0.0171729
656.544	0.0171306
656.622	0.0171393
656.700	0.0171467
656.779	0.0172579
656.857	0.0172059
656.935	0.0170966
657.013	0.0172242
657.091	0.0170863
657.169	0.0172292
657.247	0.0171094
657.325	0.0171656
657.404	0.0172095
657.482	0.0171778
657.560	0.0171949
657.638	0.0171206
657.716	0.0170071
657.794	0.0171124
657.872	0.0173084
657.950	0.0172939
658.029	0.0171913
658.107	0.0171369
658.185	0.0172349
658.263	0.0171625
658.341	0.0172195
658.419	0.0169868
658.497	0.0170647
658.575	0.0173799
658.654	0.0173561
658.732	0.0170963
658.810	0.0172378
658.888	0.0172897
658.966	0.0172294
659.044	0.0172043
659.122	0.0170950
659.200	0.0172365
659.279	0.0172549
659.357	0.0172105
659.435	0.0172152
659.513	0.0170511
659.591	0.0172438
659.669	0.0172255
659.747	0.0172557
659.825	0.0170575
659.904	0.0171609
659.982	0.0171684
660.060	0.0172178
660.138	0.0171141
660.216	0.0169160
660.294	0.0171801
660.372	0.0172598
660.450	0.0171896
660.529	0.0172816
660.607	0.0171130
660.685	0.0171748
660.763	0.0171944
660.841	0.0171990
660.919	0.0172829
660.997	0.0171740
661.075	0.0171037
661.154	0.0172297
661.232	0.0172305
661.310	0.0170788
661.388	0.0173151
661.466	0.0171393
661.544	0.0172266
661.622	0.0172346
661.700	0.0172657
661.779	0.0171338
661.857	0.0171709
661.935	0.0171475
662.013	0.0171428
662.091	0.0171075
662.169	0.0172272
662.247	0.0173230
662.325	0.0172426
662.404	0.0171208
662.482	0.0172641
662.560	0.0170508
662.638	0.0170782
662.716	0.0171120
662.794	0.0171516
662.872	0.0171775
662.950	0.0170486
663.029	0.0171936
663.107	0.0171302
663.185	0.0171111
663.263	0.0171872
663.341	0.0172993
663.419	0.0171903
663.497	0.0169830
663.575	0.0172337
663.654	0.0173042
663.732	0.0172043
663.810	0.0172335
663.888	0.0170894
663.966	0.0172306
664.044	0.0171661
664.122	0.0171469
664.200	0.0172628
664.279	0.0171276
664.357	0.0170640
664.435	0.0170960
664.513	0.0171597
664.591	0.0170724
664.669	0.0173071
664.747	0.0171635
664.825	0.0172337
664.904	0.0171320
664.982	0.0171764
665.060	0.0171962
665.138	0.0170602
665.216	0.0170973
665.294	0.0171621
665.372	0.0171666
665.450	0.0171352
665.529	0.0170261
665.607	0.0170996
665.685	0.0172367
665.763	0.0172649
665.841	0.0172844
665.919	0.0172062
665.997	0.0171402
666.075	0.0170814
666.154	0.0170499
666.232	0.0171488
666.310	0.0171616
666.388	0.0171813
666.466	0.0171521
666.544	0.0171396
666.622	0.0171651
666.700	0.0170799
666.779	0.0170768
666.857	0.0170937
666.935	0.0170526
667.013	0.0171062
667.091	0.0170471
667.169	0.0171574
667.247	0.0170613
667.325	0.0170306
667.404	0.0171219
667.482	0.0170345
667.560	0.0171117
667.638	0.0172105
667.716	0.0172275
667.794	0.0171841
667.872	0.0171677
667.950	0.0171394
668.029	0.0171758
668.107	0.0172489
668.185	0.0173179
668.263	0.0171626
668.341	0.0173051
668.419	0.0171803
668.497	0.0171497
668.575	0.0173082
668.654	0.0172982
668.732	0.0173573
668.810	0.0173277
668.888	0.0172907
668.966	0.0173465
669.044	0.0173383
669.122	0.0172550
669.200	0.0171767
669.279	0.0171539
669.357	0.0172661
669.435	0.0171207
669.513	0.0171397
669.591	0.0171054
669.669	0.0169649
669.747	0.0170222
669.825	0.0168557
669.904	0.0167918
669.982	0.0169526
670.060	0.0169226
670.138	0.0169151
670.216	0.0168288
670.294	0.0167147
670.372	0.0166631
670.450	0.0165683
670.529	0.0165940
670.607	0.0166999
670.685	0.0165760
670.763	0.0167110
670.841	0.0166780
670.919	0.0170366
670.997	0.0171038
671.075	0.0171574
671.154	0.0172366
671.232	0.0173819
671.310	0.0174358
671.388	0.0175400
671.466	0.0176598
671.544	0.0176424
671.622	0.0175785
671.700	0.0177357
671.779	0.0178880
671.857	0.0177927
671.935	0.0179172
672.013	0.0178892
672.091	0.0178940
672.169	0.0178516
672.247	0.0178468
672.325	0.0177936
672.404	0.0178078
672.482	0.0175024
672.560	0.0174101
672.638	0.0172424
672.716	0.0170546
672.794	0.0170193
672.872	0.0169700
672.950	0.0168797
673.029	0.0170764
673.107	0.0170263
673.185	0.0172139
673.263	0.0170014
673.341	0.0170524
673.419	0.0169321
673.497	0.0166815
673.575	0.0166496
673.654	0.0165179
673.732	0.0163992
673.810	0.0164300
673.888	0.0162644
673.966	0.0162219
674.044	0.0164716
674.122	0.0166469
674.200	0.0166888
674.279	0.0165984
674.357	0.0164639
674.435	0.0165855
674.513	0.0164885
674.591	0.0163636
674.669	0.0163789
674.747	0.0163186
674.825	0.0164536
674.904	0.0162749
674.982	0.0165795
675.060	0.0167770
675.138	0.0168624
675.216	0.0172051
675.294	0.0174456
675.372	0.0177171
675.450	0.0180308
675.529	0.0179984
675.607	0.0182358
675.685	0.0182298
675.763	0.0182877
675.841	0.0183807
675.919	0.0184411
675.997	0.0185462
676.075	0.0185430
676.154	0.0185692
676.232	0.0185419
676.310	0.0185264
676.388	0.0183131
676.466	0.0182962
676.544	0.0179910
676.622	0.0176299
676.700	0.0174602
676.779	0.0174506
676.857	0.0172620
676.935	0.0171465
677.013	0.0170084
677.091	0.0169787
677.169	0.0171601
677.247	0.0172093
677.325	0.0171391
677.404	0.0170399
677.482	0.0170531
677.560	0.0168863
677.638	0.0168101
677.716	0.0167277
677.794	0.0164641
677.872	0.0162315
677.950	0.0161496
678.029	0.0160671
678.107	0.0160100
678.185	0.0160488
678.263	0.0160215
678.341	0.0161215
678.419	0.0164059
678.497	0.0164647
678.575	0.0166222
678.654	0.0165902
678.732	0.0164761
678.810	0.0165173
678.888	0.0164414
678.966	0.0163221
679.044	0.0162766
679.122	0.0160886
679.200	0.0160216
679.279	0.0159489
679.357	0.0160088
679.435	0.0161208
679.513	0.0162299
679.591	0.0163247
679.669	0.0166558
679.747	0.0170303
679.825	0.0174147
679.904	0.0178604
679.982	0.0183102
680.060	0.0189245
680.138	0.0194035
680.216	0.0197146
680.294	0.0200853
680.372	0.0202885
680.450	0.0204144
680.529	0.0203017
680.607	0.0201640
680.685	0.0197693
680.763	0.0194201
680.841	0.0189268
680.919	0.0184949
680.997	0.0179643
681.075	0.0177881
681.154	0.0174651
681.232	0.0171920
681.310	0.0171114
681.388	0.0171483
681.466	0.0171027
681.544	0.0169727
681.622	0.0169822
681.700	0.0168340
681.779	0.0166615
681.857	0.0163640
681.935	0.0161374
682.013	0.0159196
682.091	0.0153602
682.169	0.0149412
682.247	0.0146783
682.325	0.0144577
682.404	0.0139877
682.482	0.0137194
682.560	0.0136572
682.638	0.0140264
682.716	0.0141229
682.794	0.0143554
682.872	0.0149683
682.950	0.0153425
683.029	0.0158010
683.107	0.0164066
683.185	0.0169009
683.263	0.0174793
683.341	0.0178722
683.419	0.0181313
683.497	0.0183850
683.575	0.0184904
683.654	0.0184701
683.732	0.0184497
683.810	0.0184288
683.888	0.0183044
683.966	0.0183803
684.044	0.0183604
684.122	0.0184049
684.200	0.0187644
684.279	0.0190924
684.357	0.0195158
684.435	0.0200724
684.513	0.0205286
684.591	0.0209996
684.669	0.0215064
684.747	0.0219028
684.825	0.0221670
684.904	0.0222220
684.982	0.0220266
685.060	0.0217670
685.138	0.0210804
685.216	0.0201565
685.294	0.0192057
685.372	0.0178680
685.450	0.0166982
685.529	0.0152479
685.607	0.0137856
685.685	0.0124732
685.763	0.0114208
685.841	0.0102285
685.919	0.00943069
685.997	0.00871902
686.075	0.00816078
686.154	0.00788437
686.232	0.00770409
686.310	0.00782928
686.388	0.00825920
686.466	0.00894547
686.544	0.00985519
686.622	0.0108611
686.700	0.0122406
686.779	0.0136366
686.857	0.0154094
686.935	0.0171767
687.013	0.0191076
687.091	0.0207977
687.169	0.0223582
687.247	0.0236980
687.325	0.0248359
687.404	0.0255753
687.482	0.0262202
687.560	0.0264973
687.638	0.0267396
687.716	0.0265820
687.794	0.0265163
687.872	0.0260400
687.950	0.0255663
688.029	0.0251135
688.107	0.0244390
688.185	0.0237694
688.263	0.0228610
688.341	0.0221230
688.419	0.0214722
688.497	0.0204177
688.575	0.0193862
688.654	0.0183565
688.732	0.0172181
688.810	0.0162894
688.888	0.0152720
688.966	0.0143764
689.044	0.0136102
689.122	0.0127660
689.200	0.0121405
689.279	0.0116843
689.357	0.0112327
689.435	0.0109642
689.513	0.0107612
689.591	0.0105209
689.669	0.0101730
689.747	0.00998779
689.825	0.00959328
689.904	0.00914673
689.982	0.00880402
690.060	0.00860947
690.138	0.00816299
690.216	0.00819603
690.294	0.00805878
690.372	0.00816299
690.450	0.00849579
690.529	0.00891800
690.607	0.00957619
690.685	0.0107507
690.763	0.0122589
690.841	0.0138580
690.919	0.0156596
690.997	0.0176139
691.075	0.0197517
691.154	0.0219416
691.232	0.0239144
691.310	0.0257893
691.388	0.0276826
691.466	0.0289941
691.544	0.0300935
691.622	0.0307912
691.700	0.0311713
691.779	0.0310783
691.857	0.0307268
691.935	0.0301415
692.013	0.0292325
692.091	0.0284442
692.169	0.0272598
692.247	0.0259448
692.325	0.0249171
692.404	0.0238710
692.482	0.0227280
692.560	0.0216118
692.638	0.0204599
692.716	0.0195084
692.794	0.0185985
692.872	0.0174275
692.950	0.0162653
693.029	0.0150182
693.107	0.0140598
693.185	0.0129984
693.263	0.0118540
693.341	0.0109671
693.419	0.0102025
693.497	0.00956589
693.575	0.00890648
693.654	0.00848526
693.732	0.00832458
693.810	0.00813232
693.888	0.00807449
693.966	0.00802132
694.044	0.00766182
694.122	0.00763718
694.200	0.00742470
694.279	0.00733650
694.357	0.00707108
694.435	0.00695984
694.513	0.00686172
694.591	0.00686562
694.669	0.00707130
694.747	0.00744957
694.825	0.00772690
694.904	0.00869751
694.982	0.00949593
695.060	0.0105862
695.138	0.0121310
695.216	0.0137727
695.294	0.0158237
695.372	0.0180846
695.450	0.0201134
695.529	0.0224335
695.607	0.0248538
695.685	0.0271865
695.763	0.0293462
695.841	0.0310686
695.919	0.0324992
695.997	0.0338023
696.075	0.0347281
696.154	0.0352861
696.232	0.0352135
696.310	0.0349895
696.388	0.0342612
696.466	0.0332294
696.544	0.0320253
696.622	0.0303792
696.700	0.0285590
696.779	0.0265690
696.857	0.0247672
696.935	0.0227335
697.013	0.0207076
697.091	0.0187804
697.169	0.0169839
697.247	0.0151726
697.325	0.0136845
697.404	0.0122691
697.482	0.0107893
697.560	0.00955330
697.638	0.00842964
697.716	0.00753235
697.794	0.00674072
697.872	0.00618782
697.950	0.00581253
698.029	0.00566048
698.107	0.00582260
698.185	0.00583443
698.263	0.00615906
698.341	0.00655922
698.419	0.00723907
698.497	0.00768761
698.575	0.00815392
698.654	0.00879005
698.732	0.00941704
698.810	0.0100327
698.888	0.0106233
698.966	0.0110993
699.044	0.0116904
699.122	0.0121222
699.200	0.0126543
699.279	0.0132590
699.357	0.0138611
699.435	0.0144987
699.513	0.0152361
699.591	0.0159254
699.669	0.0169068
699.747	0.0177135
699.825	0.0188681
699.904	0.0200210
699.982	0.0212115
700.060	0.0223343
700.138	0.0236679
700.216	0.0247498
700.294	0.0258945
700.372	0.0270111
700.450	0.0277605
700.529	0.0285538
700.607	0.0290036
700.685	0.0292288
700.763	0.0294759
700.841	0.0292698
700.919	0.0289344
700.997	0.0282288
701.075	0.0275697
701.154	0.0264646
701.232	0.0253799
701.310	0.0239012
701.388	0.0225707
701.466	0.0210439
701.544	0.0194418
701.622	0.0178721
701.700	0.0164142
701.779	0.0149883
701.857	0.0139168
701.935	0.0127563
702.013	0.0117315
702.091	0.0109812
702.169	0.0103948
702.247	0.00986237
702.325	0.00947655
702.404	0.00945396
702.482	0.00944229
702.560	0.00971283
702.638	0.00999535
702.716	0.0103025
702.794	0.0109131
702.872	0.0113059
702.950	0.0118614
703.029	0.0124335
703.107	0.0129942
703.185	0.0135097
703.263	0.0139967
703.341	0.0141387
703.419	0.0145483
703.497	0.0146953
703.575	0.0149394
703.654	0.0151366
703.732	0.0153773
703.810	0.0156181
703.888	0.0157666
703.966	0.0159152
704.044	0.0161563
704.122	0.0165642
704.200	0.0167393
704.279	0.0171154
704.357	0.0176161
704.435	0.0180244
704.513	0.0185902
704.591	0.0189328
704.669	0.0193050
704.747	0.0197766
704.825	0.0201240
704.904	0.0205470
704.982	0.0207163
705.060	0.0210383
705.138	0.0212737
705.216	0.0215261
705.294	0.0216718
705.372	0.0218293
705.450	0.0218069
705.529	0.0217873
705.607	0.0215458
705.685	0.0213808
705.763	0.0210650
705.841	0.0204949
705.919	0.0201317
705.997	0.0194548
706.075	0.0190380
706.154	0.0181522
706.232	0.0173740
706.310	0.0167677
706.388	0.0162165
706.466	0.0155436
706.544	0.0151052
706.622	0.0147904
706.700	0.0146128
706.779	0.0145255
706.857	0.0143932
706.935	0.0146898
707.013	0.0149599
707.091	0.0154790
707.169	0.0158876
707.247	0.0163473
707.325	0.0166984
707.404	0.0171314
707.482	0.0174793
707.560	0.0179202
707.638	0.0180613
707.716	0.0181676
707.794	0.0180559
707.872	0.0178450
707.950	0.0175781
708.029	0.0173786
708.107	0.0170499
708.185	0.0164595
708.263	0.0161228
708.341	0.0157689
708.419	0.0154281
708.497	0.0151609
708.575	0.0147991
708.654	0.0147662
708.732	0.0147972
708.810	0.0149777
708.888	0.0151429
708.966	0.0155273
709.044	0.0157937
709.122	0.0162785
709.200	0.0166315
709.279	0.0171078
709.357	0.0175584
709.435	0.0177281
709.513	0.0180930
709.591	0.0183787
709.669	0.0184117
709.747	0.0183437
709.825	0.0183086
709.904	0.0181654
709.982	0.0181924
710.060	0.0182194
710.138	0.0180607
710.216	0.0180621
710.294	0.0177190
710.372	0.0176084
710.450	0.0174332
710.529	0.0170747
710.607	0.0170132
710.685	0.0169624
710.763	0.0165699
710.841	0.0163853
710.919	0.0163148
710.997	0.0162648
711.075	0.0162251
711.154	0.0161235
711.232	0.0162449
711.310	0.0163742
711.388	0.0166200
711.466	0.0167120
711.544	0.0171463
711.622	0.0176080
711.700	0.0176696
711.779	0.0179791
711.857	0.0183291
711.935	0.0185429
712.013	0.0185361
712.091	0.0187980
712.169	0.0188770
712.247	0.0188011
712.325	0.0187134
712.404	0.0187188
712.482	0.0184750
712.560	0.0183717
712.638	0.0183208
712.716	0.0178642
712.794	0.0178202
712.872	0.0175058
712.950	0.0174012
713.029	0.0170954
713.107	0.0168665
713.185	0.0167818
713.263	0.0165472
713.341	0.0164924
713.419	0.0163023
713.497	0.0163181
713.575	0.0163120
713.654	0.0162104
713.732	0.0163347
713.810	0.0164273
713.888	0.0165592
713.966	0.0165041
714.044	0.0166531
714.122	0.0166102
714.200	0.0169186
714.279	0.0169257
714.357	0.0169892
714.435	0.0172608
714.513	0.0173846
714.591	0.0173962
714.669	0.0176785
714.747	0.0179806
714.825	0.0180361
714.904	0.0181515
714.982	0.0180814
715.060	0.0181644
715.138	0.0180453
715.216	0.0179388
715.294	0.0176618
715.372	0.0174387
715.450	0.0170994
715.529	0.0166682
715.607	0.0165572
715.685	0.0162654
715.763	0.0161278
715.841	0.0158650
715.919	0.0158162
715.997	0.0156313
716.075	0.0153828
716.154	0.0155262
716.232	0.0156550
716.310	0.0157007
716.388	0.0158372
716.466	0.0158786
716.544	0.0157807
716.622	0.0159727
716.700	0.0160580
716.779	0.0161960
716.857	0.0162917
716.935	0.0164143
717.013	0.0165386
717.091	0.0168774
717.169	0.0171270
717.247	0.0172675
717.325	0.0174837
717.404	0.0177928
717.482	0.0179659
717.560	0.0180096
717.638	0.0183247
717.716	0.0184614
717.794	0.0185116
717.872	0.0186433
717.950	0.0185598
718.029	0.0187178
718.107	0.0185632
718.185	0.0184811
718.263	0.0184144
718.341	0.0183488
718.419	0.0181906
718.497	0.0180714
718.575	0.0178089
718.654	0.0177139
718.732	0.0176276
718.810	0.0176214
718.888	0.0175283
718.966	0.0175618
719.044	0.0174680
719.122	0.0174590
719.200	0.0173589
719.279	0.0175994
719.357	0.0175793
719.435	0.0176711
719.513	0.0176222
719.591	0.0176483
719.669	0.0178139
719.747	0.0179506
719.825	0.0179958
719.904	0.0180521
719.982	0.0178143
720.060	0.0179629
720.138	0.0179298
720.216	0.0178727
720.294	0.0175621
720.372	0.0174514
720.450	0.0172889
720.529	0.0170250
720.607	0.0168023
720.685	0.0165150
720.763	0.0164677
720.841	0.0161983
720.919	0.0159665
720.997	0.0159093
721.075	0.0157471
721.154	0.0157445
721.232	0.0154227
721.310	0.0153197
721.388	0.0153167
721.466	0.0152623
721.544	0.0152747
721.622	0.0151076
721.700	0.0152029
721.779	0.0153748
721.857	0.0151454
721.935	0.0153958
722.013	0.0155572
722.091	0.0158862
722.169	0.0163008
722.247	0.0164184
722.325	0.0167374
722.404	0.0170227
722.482	0.0172366
722.560	0.0174401
722.638	0.0177866
722.716	0.0178202
722.794	0.0178564
722.872	0.0179267
722.950	0.0180630
723.029	0.0181428
723.107	0.0180544
723.185	0.0182042
723.263	0.0182179
723.341	0.0181874
723.419	0.0182257
723.497	0.0181761
723.575	0.0181366
723.654	0.0183555
723.732	0.0181557
723.810	0.0180613
723.888	0.0181082
723.966	0.0181392
724.044	0.0180180
724.122	0.0179466
724.200	0.0180228
724.279	0.0179718
724.357	0.0179124
724.435	0.0180156
724.513	0.0179552
724.591	0.0179198
724.669	0.0179147
724.747	0.0180317
724.825	0.0180143
724.904	0.0180680
724.982	0.0181068
725.060	0.0178022
725.138	0.0179077
725.216	0.0178468
725.294	0.0177491
725.372	0.0174602
725.450	0.0173652
725.529	0.0172290
725.607	0.0171033
725.685	0.0170811
725.763	0.0168921
725.841	0.0165654
725.919	0.0165405
725.997	0.0162383
726.075	0.0162087
726.154	0.0160743
726.232	0.0159938
726.310	0.0159818
726.388	0.0157375
726.466	0.0157991
726.544	0.0156598
726.622	0.0157859
726.700	0.0158818
726.779	0.0160229
726.857	0.0160002
726.935	0.0162555
727.013	0.0162373
727.091	0.0165010
727.169	0.0166421
727.247	0.0168825
727.325	0.0171735
727.404	0.0170456
727.482	0.0174591
727.560	0.0174230
727.638	0.0176221
727.716	0.0177208
727.794	0.0179237
727.872	0.0179401
727.950	0.0178757
728.029	0.0179073
728.107	0.0179202
728.185	0.0178908
728.263	0.0178192
728.341	0.0177922
728.419	0.0175999
728.497	0.0174557
728.575	0.0173955
728.654	0.0173760
728.732	0.0172795
728.810	0.0169538
728.888	0.0168978
728.966	0.0167744
729.044	0.0167343
729.122	0.0166331
729.200	0.0167566
729.279	0.0166673
729.357	0.0165463
729.435	0.0166087
729.513	0.0166856
729.591	0.0168474
729.669	0.0167698
729.747	0.0168072
729.825	0.0167621
729.904	0.0170690
729.982	0.0171212
730.060	0.0173360
730.138	0.0174798
730.216	0.0175168
730.294	0.0176540
730.372	0.0175751
730.450	0.0175987
730.529	0.0177871
730.607	0.0178126
730.685	0.0178017
730.763	0.0177229
730.841	0.0176633
730.919	0.0177431
730.997	0.0177097
731.075	0.0173917
731.154	0.0173174
731.232	0.0173576
731.310	0.0173006
731.388	0.0172497
731.466	0.0170753
731.544	0.0169706
731.622	0.0168647
731.700	0.0168735
731.779	0.0168413
731.857	0.0168849
731.935	0.0167274
732.013	0.0168650
732.091	0.0169012
732.169	0.0170446
732.247	0.0169589
732.325	0.0169067
732.404	0.0170823
732.482	0.0171871
732.560	0.0171548
732.638	0.0171119
732.716	0.0170744
732.794	0.0171991
732.872	0.0171934
732.950	0.0174043
733.029	0.0172346
733.107	0.0173418
733.185	0.0173306
733.263	0.0174451
733.341	0.0173042
733.419	0.0174726
733.497	0.0173498
733.575	0.0174591
733.654	0.0174101
733.732	0.0173202
733.810	0.0171954
733.888	0.0172040
733.966	0.0170416
734.044	0.0170037
734.122	0.0169511
734.200	0.0168755
734.279	0.0168273
734.357	0.0165523
734.435	0.0166426
734.513	0.0166533
734.591	0.0165165
734.669	0.0166579
734.747	0.0165804
734.825	0.0167301
734.904	0.0167807
734.982	0.0169975
735.060	0.0168345
735.138	0.0168916
735.216	0.0170269
735.294	0.0171188
735.372	0.0172204
735.450	0.0172125
735.529	0.0172089
735.607	0.0171999
735.685	0.0172068
735.763	0.0173830
735.841	0.0173450
735.919	0.0172495
735.997	0.0171333
736.075	0.0171079
736.154	0.0169647
736.232	0.0170393
736.310	0.0169671
736.388	0.0168002
736.466	0.0168938
736.544	0.0168565
736.622	0.0166832
736.700	0.0167865
736.779	0.0167593
736.857	0.0170568
736.935	0.0170251
737.013	0.0170069
737.091	0.0169395
737.169	0.0170922
737.247	0.0173977
737.325	0.0173135
737.404	0.0173525
737.482	0.0174383
737.560	0.0174413
737.638	0.0175363
737.716	0.0174930
737.794	0.0176205
737.872	0.0177059
737.950	0.0176982
738.029	0.0177916
738.107	0.0180045
738.185	0.0181221
738.263	0.0180441
738.341	0.0180943
738.419	0.0181911
738.497	0.0181728
738.575	0.0182092
738.654	0.0181518
738.732	0.0179586
738.810	0.0178937
738.888	0.0176473
738.966	0.0175208
739.044	0.0172861
739.122	0.0171806
739.200	0.0170491
739.279	0.0168244
739.357	0.0168671
739.435	0.0167824
739.513	0.0165768
739.591	0.0165626
739.669	0.0165331
739.747	0.0165040
739.825	0.0165041
739.904	0.0165083
739.982	0.0166640
740.060	0.0165944
740.138	0.0165914
740.216	0.0168658
740.294	0.0169644
740.372	0.0168960
740.450	0.0170502
740.529	0.0169517
740.607	0.0168923
740.685	0.0169981
740.763	0.0170443
740.841	0.0170605
740.919	0.0171894
740.997	0.0170905
741.075	0.0170922
741.154	0.0170477
741.232	0.0170901
741.310	0.0170576
741.388	0.0170542
741.466	0.0169840
741.544	0.0169085
741.622	0.0169299
741.700	0.0166847
741.779	0.0166158
741.857	0.0165420
741.935	0.0165046
742.013	0.0166347
742.091	0.0166400
742.169	0.0166692
742.247	0.0166148
742.325	0.0167159
742.404	0.0167154
742.482	0.0170412
742.560	0.0169547
742.638	0.0173007
742.716	0.0172708
742.794	0.0173379
742.872	0.0176121
742.950	0.0177183
743.029	0.0176858
743.107	0.0179034
743.185	0.0179429
743.263	0.0178740
743.341	0.0179466
743.419	0.0180017
743.497	0.0178199
743.575	0.0179691
743.654	0.0178582
743.732	0.0177665
743.810	0.0177583
743.888	0.0176456
743.966	0.0176202
744.044	0.0176994
744.122	0.0176788
744.200	0.0174574
744.279	0.0174325
744.357	0.0173989
744.435	0.0174583
744.513	0.0174528
744.591	0.0175273
744.669	0.0174184
744.747	0.0174077
744.825	0.0173563
744.904	0.0173145
744.982	0.0174300
745.060	0.0173249
745.138	0.0172734
745.216	0.0172944
745.294	0.0171149
745.372	0.0173637
745.450	0.0171420
745.529	0.0171832
745.607	0.0171745
745.685	0.0171270
745.763	0.0171125
745.841	0.0170454
745.919	0.0168787
745.997	0.0169053
746.075	0.0168912
746.154	0.0167976
746.232	0.0167352
746.310	0.0166727
746.388	0.0165866
746.466	0.0165470
746.544	0.0164565
746.622	0.0162911
746.700	0.0163532
746.779	0.0161575
746.857	0.0162303
746.935	0.0163372
747.013	0.0160916
747.091	0.0161641
747.169	0.0162580
747.247	0.0162577
747.325	0.0161616
747.404	0.0164954
747.482	0.0165414
747.560	0.0166702
747.638	0.0167980
747.716	0.0169324
747.794	0.0169505
747.872	0.0170486
747.950	0.0172298
748.029	0.0172941
748.107	0.0173818
748.185	0.0175173
748.263	0.0175985
748.341	0.0177380
748.419	0.0178708
748.497	0.0178115
748.575	0.0179101
748.654	0.0178439
748.732	0.0178669
748.810	0.0179189
748.888	0.0180205
748.966	0.0178352
749.044	0.0178368
749.122	0.0179243
749.200	0.0179875
749.279	0.0179111
749.357	0.0179138
749.435	0.0178760
749.513	0.0176926
749.591	0.0178248
749.669	0.0176093
749.747	0.0175117
749.825	0.0174527
749.904	0.0174337
749.982	0.0172441
750.060	0.0171123
750.138	0.0170338
750.216	0.0167688
750.294	0.0167717
750.372	0.0166942
750.450	0.0166928
750.529	0.0167303
750.607	0.0166579
750.685	0.0167818
750.763	0.0167681
750.841	0.0167939
750.919	0.0168739
750.997	0.0170701
751.075	0.0170655
751.154	0.0169098
751.232	0.0170455
751.310	0.0169975
751.388	0.0169817
751.466	0.0170759
751.544	0.0171868
751.622	0.0171538
751.700	0.0168374
751.779	0.0169572
751.857	0.0168486
751.935	0.0168539
752.013	0.0168536
752.091	0.0167668
752.169	0.0168403
752.247	0.0168422
752.325	0.0168676
752.404	0.0167830
752.482	0.0169088
752.560	0.0169878
752.638	0.0169468
752.716	0.0169300
752.794	0.0169845
752.872	0.0170197
752.950	0.0170571
753.029	0.0170117
753.107	0.0170855
753.185	0.0172453
753.263	0.0171019
753.341	0.0172033
753.419	0.0172152
753.497	0.0173795
753.575	0.0173357
753.654	0.0171479
753.732	0.0172506
753.810	0.0172804
753.888	0.0172191
753.966	0.0172980
754.044	0.0173687
754.122	0.0173601
754.200	0.0174469
754.279	0.0173277
754.357	0.0174092
754.435	0.0175669
754.513	0.0175445
754.591	0.0175293
754.669	0.0176054
754.747	0.0174796
754.825	0.0173592
754.904	0.0175368
754.982	0.0173044
755.060	0.0173769
755.138	0.0174007
755.216	0.0173890
755.294	0.0173615
755.372	0.0173957
755.450	0.0171571
755.529	0.0171138
755.607	0.0172340
755.685	0.0171548
755.763	0.0170126
755.841	0.0171230
755.919	0.0171635
755.997	0.0169614
756.075	0.0170849
756.154	0.0170462
756.232	0.0170773
756.310	0.0171356
756.388	0.0171883
756.466	0.0172634
756.544	0.0172940
756.622	0.0171451
756.700	0.0171140
756.779	0.0170818
756.857	0.0171255
756.935	0.0169490
757.013	0.0169970
757.091	0.0170149
757.169	0.0169180
757.247	0.0168033
757.325	0.0167129
757.404	0.0166299
757.482	0.0166544
757.560	0.0167223
757.638	0.0165630
757.716	0.0166599
757.794	0.0166669
757.872	0.0165628
757.950	0.0165428
758.029	0.0167499
758.107	0.0167656
758.185	0.0169047
758.263	0.0168938
758.341	0.0170370
758.419	0.0170522
758.497	0.0170719
758.575	0.0172004
758.654	0.0174368
758.732	0.0173621
758.810	0.0175194
758.888	0.0176122
758.966	0.0175858
759.044	0.0176318
759.122	0.0177689
759.200	0.0176305
759.279	0.0176482
759.357	0.0176524
759.435	0.0177791
759.513	0.0175961
759.591	0.0176098
759.669	0.0176422
759.747	0.0176781
759.825	0.0175763
759.904	0.0174488
759.982	0.0174771
760.060	0.0173920
760.138	0.0173716
760.216	0.0172511
760.294	0.0172164
760.372	0.0170445
760.450	0.0169952
760.529	0.0169971
760.607	0.0169287
760.685	0.0168412
760.763	0.0169208
760.841	0.0167764
760.919	0.0168066
760.997	0.0168140
761.075	0.0167798
761.154	0.0167283
761.232	0.0166947
761.310	0.0167759
761.388	0.0168165
761.466	0.0168397
761.544	0.0167806
761.622	0.0167751
761.700	0.0167774
761.779	0.0169550
761.857	0.0169206
761.935	0.0167795
762.013	0.0170327
762.091	0.0169825
762.169	0.0169064
762.247	0.0169244
762.325	0.0169532
762.404	0.0169756
762.482	0.0169614
762.560	0.0168874
762.638	0.0169336
762.716	0.0170041
762.794	0.0169833
762.872	0.0169610
762.950	0.0170712
763.029	0.0170325
763.107	0.0170879
763.185	0.0171642
763.263	0.0171342
763.341	0.0170362
763.419	0.0173392
763.497	0.0173060
763.575	0.0174709
763.654	0.0174140
763.732	0.0175390
763.810	0.0175072
763.888	0.0174345
763.966	0.0174686
764.044	0.0175599
764.122	0.0175185
764.200	0.0174480
764.279	0.0173784
764.357	0.0173278
764.435	0.0174146
764.513	0.0173480
764.591	0.0171888
764.669	0.0173090
764.747	0.0173976
764.825	0.0172122
764.904	0.0171218
764.982	0.0171390
765.060	0.0171709
765.138	0.0171571
765.216	0.0171439
765.294	0.0168989
765.372	0.0169733
765.450	0.0170491
765.529	0.0168222
765.607	0.0167719
765.685	0.0166965
765.763	0.0168528
765.841	0.0167580
765.919	0.0166084
765.997	0.0167149
766.075	0.0168500
766.154	0.0166364
766.232	0.0168508
766.310	0.0167406
766.388	0.0168115
766.466	0.0168889
766.544	0.0169230
766.622	0.0171619
766.700	0.0170978
766.779	0.0171153
766.857	0.0170914
766.935	0.0171900
767.013	0.0171359
767.091	0.0171580
767.169	0.0172239
767.247	0.0172102
767.325	0.0172260
767.404	0.0171030
767.482	0.0173628
767.560	0.0173292
767.638	0.0172330
767.716	0.0171960
767.794	0.0173048
767.872	0.0171392
767.950	0.0172345
768.029	0.0171741
768.107	0.0172919
768.185	0.0172318
768.263	0.0171389
768.341	0.0170972
768.419	0.0172417
768.497	0.0172731
768.575	0.0170913
768.654	0.0171722
768.732	0.0173000
768.810	0.0173093
768.888	0.0173940
768.966	0.0174397
769.044	0.0174397
769.122	0.0174353
769.200	0.0173490
769.279	0.0174454
769.357	0.0173893
769.435	0.0175530
769.513	0.0174316
769.591	0.0173682
769.669	0.0173129
769.747	0.0172197
769.825	0.0172534
769.904	0.0173154
769.982	0.0171606
770.060	0.0170792
770.138	0.0172543
770.216	0.0172726
770.294	0.0170165
770.372	0.0171064
770.450	0.0171017
770.529	0.0170443
770.607	0.0171072
770.685	0.0171433
770.763	0.0169437
770.841	0.0171812
770.919	0.0171038
770.997	0.0171203
771.075	0.0169801
771.154	0.0170049
771.232	0.0170293
771.310	0.0170844
771.388	0.0169387
771.466	0.0169966
771.544	0.0170432
771.622	0.0168654
771.700	0.0169463
771.779	0.0170838
771.857	0.0168752
771.935	0.0170007
772.013	0.0167500
772.091	0.0169044
772.169	0.0169316
772.247	0.0168347
772.325	0.0167558
772.404	0.0168311
772.482	0.0168891
772.560	0.0168918
772.638	0.0167487
772.716	0.0168457
772.794	0.0169952
772.872	0.0169879
772.950	0.0170692
773.029	0.0171264
773.107	0.0170969
773.185	0.0172380
773.263	0.0172085
773.341	0.0171833
773.419	0.0173605
773.497	0.0173390
773.575	0.0173399
773.654	0.0174035
773.732	0.0173617
773.810	0.0174379
773.888	0.0174097
773.966	0.0173877
774.044	0.0174639
774.122	0.0173775
774.200	0.0174033
774.279	0.0173960
774.357	0.0173354
774.435	0.0174249
774.513	0.0173347
774.591	0.0174493
774.669	0.0173589
774.747	0.0174237
774.825	0.0174025
774.904	0.0174213
774.982	0.0172611
775.060	0.0172037
775.138	0.0173063
775.216	0.0174171
775.294	0.0173824
775.372	0.0171769
775.450	0.0171857
775.529	0.0171954
775.607	0.0171090
775.685	0.0172070
775.763	0.0171870
775.841	0.0170760
775.919	0.0168756
775.997	0.0171172
776.075	0.0170855
776.154	0.0170684
776.232	0.0168264
776.310	0.0168726
776.388	0.0169213
776.466	0.0168373
776.544	0.0169283
776.622	0.0168565
776.700	0.0167674
776.779	0.0169559
776.857	0.0168707
776.935	0.0169330
777.013	0.0167837
777.091	0.0169221
777.169	0.0169939
777.247	0.0170385
777.325	0.0169316
777.404	0.0169225
777.482	0.0169695
777.560	0.0169740
777.638	0.0168193
777.716	0.0168406
777.794	0.0168760
777.872	0.0168111
777.950	0.0169850
778.029	0.0170605
778.107	0.0169304
778.185	0.0170155
778.263	0.0170325
778.341	0.0170230
778.419	0.0171174
778.497	0.0172918
778.575	0.0171074
778.654	0.0172269
778.732	0.0172815
778.810	0.0172874
778.888	0.0171450
778.966	0.0172518
779.044	0.0172166
779.122	0.0172404
779.200	0.0172695
779.279	0.0171936
779.357	0.0171817
779.435	0.0172774
779.513	0.0171982
779.591	0.0172961
779.669	0.0172221
779.747	0.0171510
779.825	0.0173284
779.904	0.0171992
779.982	0.0171570
780.060	0.0171816
780.138	0.0174362
780.216	0.0172813
780.294	0.0172894
780.372	0.0173145
780.450	0.0173449
780.529	0.0172546
780.607	0.0173119
780.685	0.0174701
780.763	0.0173832
780.841	0.0175031
780.919	0.0174187
780.997	0.0175347
781.075	0.0176091
781.154	0.0176264
781.232	0.0175338
781.310	0.0173987
781.388	0.0176023
781.466	0.0174768
781.544	0.0173409
781.622	0.0174307
781.700	0.0173741
781.779	0.0172286
781.857	0.0170092
781.935	0.0169961
782.013	0.0166486
782.091	0.0166443
782.169	0.0165102
782.247	0.0163692
782.325	0.0162811
782.404	0.0160560
782.482	0.0159584
782.560	0.0161266
782.638	0.0160442
782.716	0.0160171
782.794	0.0160250
782.872	0.0160268
782.950	0.0161952
783.029	0.0162702
783.107	0.0164017
783.185	0.0165998
783.263	0.0167152
783.341	0.0170374
783.419	0.0172363
783.497	0.0174082
783.575	0.0176014
783.654	0.0177858
783.732	0.0181778
783.810	0.0180651
783.888	0.0181185
783.966	0.0181814
784.044	0.0182010
784.122	0.0182382
784.200	0.0182950
784.279	0.0180866
784.357	0.0182275
784.435	0.0182471
784.513	0.0180583
784.591	0.0178072
784.669	0.0178114
784.747	0.0176415
784.825	0.0175031
784.904	0.0176185
784.982	0.0173561
785.060	0.0173557
785.138	0.0172162
785.216	0.0171651
785.294	0.0170360
785.372	0.0168450
785.450	0.0169055
785.529	0.0167358
785.607	0.0166258
785.685	0.0165938
785.763	0.0165108
785.841	0.0166116
785.919	0.0165414
785.997	0.0165654
786.075	0.0164143
786.154	0.0162272
786.232	0.0164083
786.310	0.0163750
786.388	0.0161594
786.466	0.0159970
786.544	0.0159921
786.622	0.0159492
786.700	0.0158967
786.779	0.0157941
786.857	0.0159293
786.935	0.0160030
787.013	0.0159921
787.091	0.0160365
787.169	0.0162678
787.247	0.0164963
787.325	0.0166362
787.404	0.0169896
787.482	0.0172287
787.560	0.0175003
787.638	0.0178046
787.716	0.0180834
787.794	0.0180741
787.872	0.0183070
787.950	0.0186842
788.029	0.0187447
788.107	0.0188135
788.185	0.0188506
788.263	0.0189507
788.341	0.0188556
788.419	0.0187542
788.497	0.0187634
788.575	0.0185159
788.654	0.0184633
788.732	0.0184459
788.810	0.0181811
788.888	0.0179520
788.966	0.0178713
789.044	0.0177414
789.122	0.0175159
789.200	0.0171915
789.279	0.0172144
789.357	0.0170693
789.435	0.0167755
789.513	0.0165710
789.591	0.0165881
789.669	0.0165408
789.747	0.0163885
789.825	0.0163067
789.904	0.0163885
789.982	0.0162998
790.060	0.0162981
790.138	0.0161608
790.216	0.0162960
790.294	0.0161443
790.372	0.0160302
790.450	0.0160593
790.529	0.0160345
790.607	0.0158659
790.685	0.0157845
790.763	0.0159322
790.841	0.0158746
790.919	0.0159698
790.997	0.0159718
791.075	0.0158633
791.154	0.0160101
791.232	0.0161239
791.310	0.0162384
791.388	0.0164765
791.466	0.0164987
791.544	0.0167577
791.622	0.0168345
791.700	0.0170657
791.779	0.0174874
791.857	0.0176186
791.935	0.0177316
792.013	0.0179961
792.091	0.0182676
792.169	0.0183943
792.247	0.0183723
792.325	0.0184875
792.404	0.0186648
792.482	0.0187403
792.560	0.0187154
792.638	0.0187381
792.716	0.0186139
792.794	0.0184328
792.872	0.0185522
792.950	0.0184037
793.029	0.0182671
793.107	0.0182432
793.185	0.0181213
793.263	0.0178194
793.341	0.0178568
793.419	0.0178577
793.497	0.0175597
793.575	0.0175763
793.654	0.0175347
793.732	0.0172717
793.810	0.0172347
793.888	0.0173225
793.966	0.0171655
794.044	0.0169501
794.122	0.0169715
794.200	0.0168307
794.279	0.0167458
794.357	0.0165261
794.435	0.0165858
794.513	0.0163177
794.591	0.0162271
794.669	0.0162663
794.747	0.0163370
794.825	0.0161156
794.904	0.0160112
794.982	0.0159689
795.060	0.0159427
795.138	0.0159892
795.216	0.0159422
795.294	0.0159319
795.372	0.0160252
795.450	0.0160551
795.529	0.0160556
795.607	0.0162485
795.685	0.0163145
795.763	0.0163953
795.841	0.0164732
795.919	0.0164906
795.997	0.0167883
796.075	0.0170014
796.154	0.0171091
796.232	0.0172231
796.310	0.0175200
796.388	0.0174857
796.466	0.0176735
796.544	0.0178853
796.622	0.0180559
796.700	0.0181691
796.779	0.0181890
796.857	0.0182298
796.935	0.0183643
797.013	0.0182294
797.091	0.0183014
797.169	0.0184755
797.247	0.0184625
797.325	0.0182417
797.404	0.0183773
797.482	0.0181812
797.560	0.0181203
797.638	0.0179014
797.716	0.0179335
797.794	0.0178135
797.872	0.0176920
797.950	0.0175626
798.029	0.0174802
798.107	0.0174876
798.185	0.0172195
798.263	0.0173148
798.341	0.0171382
798.419	0.0170554
798.497	0.0169822
798.575	0.0168430
798.654	0.0168831
798.732	0.0167746
798.810	0.0167387
798.888	0.0165203
798.966	0.0166916
799.044	0.0166704
799.122	0.0166511
799.200	0.0166309
799.279	0.0167345
799.357	0.0166931
799.435	0.0166344
799.513	0.0166763
799.591	0.0167405
799.669	0.0166988
799.747	0.0167924
799.825	0.0168647
799.904	0.0167134
799.982	0.0166418
800.060	0.0166647
800.138	0.0165518
800.216	0.0166428
800.294	0.0167139
800.372	0.0166302
800.450	0.0167245
800.529	0.0167291
800.607	0.0167402
800.685	0.0168391
800.763	0.0168327
800.841	0.0169086
800.919	0.0170334
800.997	0.0169469
801.075	0.0170805
801.154	0.0171817
801.232	0.0171663
801.310	0.0173419
801.388	0.0173896
801.466	0.0173743
801.544	0.0173271
801.622	0.0174157
801.700	0.0174274
801.779	0.0174841
801.857	0.0176141
801.935	0.0176474
802.013	0.0175571
802.091	0.0176283
802.169	0.0176852
802.247	0.0177000
802.325	0.0177145
802.404	0.0176689
802.482	0.0176730
802.560	0.0175553
802.638	0.0173924
802.716	0.0175352
802.794	0.0174928
802.872	0.0173636
802.950	0.0172916
803.029	0.0173082
803.107	0.0172944
803.185	0.0173002
803.263	0.0171142
803.341	0.0173299
803.419	0.0172692
803.497	0.0172054
803.575	0.0172112
803.654	0.0172919
803.732	0.0174355
803.810	0.0173063
803.888	0.0172945
803.966	0.0172874
804.044	0.0173348
804.122	0.0174663
804.200	0.0173724
804.279	0.0174226
804.357	0.0172858
804.435	0.0172694
804.513	0.0172601
804.591	0.0173244
804.669	0.0171996
804.747	0.0173315
804.825	0.0172359
804.904	0.0172161
804.982	0.0171526
805.060	0.0170560
805.138	0.0171350
805.216	0.0168557
805.294	0.0167744
805.372	0.0168311
805.450	0.0168225
805.529	0.0168070
805.607	0.0168673
805.685	0.0168562
805.763	0.0167957
805.841	0.0167375
805.919	0.0167606
805.997	0.0168831
806.075	0.0167513
806.154	0.0168731
806.232	0.0167055
806.310	0.0167251
806.388	0.0168837
806.466	0.0168144
806.544	0.0167945
806.622	0.0169397
806.700	0.0168392
806.779	0.0169286
806.857	0.0169450
806.935	0.0170040
807.013	0.0170824
807.091	0.0170493
807.169	0.0171443
807.247	0.0171069
807.325	0.0169836
807.404	0.0170972
807.482	0.0171508
807.560	0.0174416
807.638	0.0171134
807.716	0.0171216
807.794	0.0171690
807.872	0.0172861
807.950	0.0172208
808.029	0.0173006
808.107	0.0174248
808.185	0.0174299
808.263	0.0174432
808.341	0.0172810
808.419	0.0174428
808.497	0.0174339
808.575	0.0174117
808.654	0.0175239
808.732	0.0176059
808.810	0.0175383
808.888	0.0175528
808.966	0.0176910
809.044	0.0177576
809.122	0.0176347
809.200	0.0177533
809.279	0.0176487
809.357	0.0176185
809.435	0.0176591
809.513	0.0176908
809.591	0.0176064
809.669	0.0177027
809.747	0.0175708
809.825	0.0175216
809.904	0.0175542
809.982	0.0173663
810.060	0.0173582
810.138	0.0172116
810.216	0.0172047
810.294	0.0172824
810.372	0.0169294
810.450	0.0169881
810.529	0.0170249
810.607	0.0168867
810.685	0.0167355
810.763	0.0168988
810.841	0.0168633
810.919	0.0167856
810.997	0.0168166
811.075	0.0166297
811.154	0.0168098
811.232	0.0168246
811.310	0.0167295
811.388	0.0167879
811.466	0.0169361
811.544	0.0170446
811.622	0.0169449
811.700	0.0168551
811.779	0.0168054
811.857	0.0169820
811.935	0.0169089
812.013	0.0167923
812.091	0.0169004
812.169	0.0169384
812.247	0.0169241
812.325	0.0169302
812.404	0.0169147
812.482	0.0167596
812.560	0.0168010
812.638	0.0169901
812.716	0.0168008
812.794	0.0167988
812.872	0.0167762
812.950	0.0168582
813.029	0.0169740
813.107	0.0168580
813.185	0.0170033
813.263	0.0172643
813.341	0.0173441
813.419	0.0173543
813.497	0.0174192
813.575	0.0174959
813.654	0.0175135
813.732	0.0176846
813.810	0.0178825
813.888	0.0178785
813.966	0.0178699
814.044	0.0178403
814.122	0.0177853
814.200	0.0178817
814.279	0.0177107
814.357	0.0178158
814.435	0.0177586
814.513	0.0176257
814.591	0.0175689
814.669	0.0175085
814.747	0.0175691
814.825	0.0174973
814.904	0.0173234
814.982	0.0174461
815.060	0.0174655
815.138	0.0174750
815.216	0.0173284
815.294	0.0172938
815.372	0.0171506
815.450	0.0171735
815.529	0.0171542
815.607	0.0169592
815.685	0.0168990
815.763	0.0169292
815.841	0.0168997
815.919	0.0167192
815.997	0.0167937
816.075	0.0168232
816.154	0.0167986
816.232	0.0165984
816.310	0.0166909
816.388	0.0167526
816.466	0.0166163
816.544	0.0167422
816.622	0.0166679
816.700	0.0168021
816.779	0.0168405
816.857	0.0168798
816.935	0.0168369
817.013	0.0170264
817.091	0.0168933
817.169	0.0171194
817.247	0.0171580
817.325	0.0171862
817.404	0.0173359
817.482	0.0171556
817.560	0.0172490
817.638	0.0173267
817.716	0.0174011
817.794	0.0173355
817.872	0.0175246
817.950	0.0175053
818.029	0.0173505
818.107	0.0172878
818.185	0.0174445
818.263	0.0173351
818.341	0.0173101
818.419	0.0173969
818.497	0.0173203
818.575	0.0173863
818.654	0.0173972
818.732	0.0173607
818.810	0.0173458
818.888	0.0172278
818.966	0.0171861
819.044	0.0173496
819.122	0.0173267
819.200	0.0172858
819.279	0.0172330
819.357	0.0172186
819.435	0.0174245
819.513	0.0172206
819.591	0.0173064
819.669	0.0172659
819.747	0.0172419
819.825	0.0171944
819.904	0.0171094
819.982	0.0172987
820.060	0.0171318
820.138	0.0170543
820.216	0.0171297
820.294	0.0172073
820.372	0.0170044
820.450	0.0171365
820.529	0.0170409
820.607	0.0169861
820.685	0.0169708
820.763	0.0170751
820.841	0.0170589
820.919	0.0169819
820.997	0.0171947
821.075	0.0171931
821.154	0.0171371
821.232	0.0172479
821.310	0.0171335
821.388	0.0171519
821.466	0.0174362
821.544	0.0172585
821.622	0.0173031
821.700	0.0173597
821.779	0.0172743
821.857	0.0173335
821.935	0.0172483
822.013	0.0171891
822.091	0.0171713
822.169	0.0172428
822.247	0.0170957
822.325	0.0173069
822.404	0.0172433
822.482	0.0169994
822.560	0.0171463
822.638	0.0169279
822.716	0.0169695
822.794	0.0170897
822.872	0.0168963
822.950	0.0169152
823.029	0.0168108
823.107	0.0170056
823.185	0.0169684
823.263	0.0168629
823.341	0.0168311
823.419	0.0168723
823.497	0.0169531
823.575	0.0169364
823.654	0.0169955
823.732	0.0170433
823.810	0.0170461
823.888	0.0170656
823.966	0.0169289
824.044	0.0172200
824.122	0.0170515
824.200	0.0171491
824.279	0.0171299
824.357	0.0170269
824.435	0.0172117
824.513	0.0171992
824.591	0.0171587
824.669	0.0171651
824.747	0.0172366
824.825	0.0172742
824.904	0.0172665
824.982	0.0172258
825.060	0.0174046
825.138	0.0173239
825.216	0.0173515
825.294	0.0173221
825.372	0.0175787
825.450	0.0173914
825.529	0.0173646
825.607	0.0174347
825.685	0.0174508
825.763	0.0173746
825.841	0.0174742
825.919	0.0174187
825.997	0.0174802
826.075	0.0173937
826.154	0.0175024
826.232	0.0173553
826.310	0.0173988
826.388	0.0173824
826.466	0.0173264
826.544	0.0174384
826.622	0.0174059
826.700	0.0172401
826.779	0.0171668
826.857	0.0172562
826.935	0.0171739
827.013	0.0171240
827.091	0.0171758
827.169	0.0170575
827.247	0.0170321
827.325	0.0168904
827.404	0.0168931
827.482	0.0167796
827.560	0.0168630
827.638	0.0168783
827.716	0.0168697
827.794	0.0167789
827.872	0.0167677
827.950	0.0168089
828.029	0.0167094
828.107	0.0168382
828.185	0.0167729
828.263	0.0168256
828.341	0.0166912
828.419	0.0169225
828.497	0.0168357
828.575	0.0169049
828.654	0.0170261
828.732	0.0170344
828.810	0.0169118
828.888	0.0170501
828.966	0.0171554
829.044	0.0170364
829.122	0.0172595
829.200	0.0173794
829.279	0.0173122
829.357	0.0173006
829.435	0.0172945
829.513	0.0174681
829.591	0.0174117
829.669	0.0174252
829.747	0.0174368
829.825	0.0174062
829.904	0.0175219
829.982	0.0173723
830.060	0.0175184
830.138	0.0175079
830.216	0.0173055
830.294	0.0174577
830.372	0.0173582
830.450	0.0174104
830.529	0.0175449
830.607	0.0175229
830.685	0.0174009
830.763	0.0173609
830.841	0.0173597
830.919	0.0172742
830.997	0.0171140
831.075	0.0171609
831.154	0.0170760
831.232	0.0171568
831.310	0.0171322
831.388	0.0169869
831.466	0.0171410
831.544	0.0169894
831.622	0.0168689
831.700	0.0168876
831.779	0.0168993
831.857	0.0168242
831.935	0.0168564
832.013	0.0165854
832.091	0.0167208
832.169	0.0168090
832.247	0.0165881
832.325	0.0166978
832.404	0.0167766
832.482	0.0168227
832.560	0.0168707
832.638	0.0167455
832.716	0.0168049
832.794	0.0169617
832.872	0.0168539
832.950	0.0167047
833.029	0.0169610
833.107	0.0169749
833.185	0.0170057
833.263	0.0169238
833.341	0.0170650
833.419	0.0170915
833.497	0.0171810
833.575	0.0173316
833.654	0.0174739
833.732	0.0174768
833.810	0.0173701
833.888	0.0175875
833.966	0.0176303
834.044	0.0175663
834.122	0.0176622
834.200	0.0178001
834.279	0.0178230
834.357	0.0177335
834.435	0.0176974
834.513	0.0175851
834.591	0.0176311
834.669	0.0176602
834.747	0.0175464
834.825	0.0176225
834.904	0.0175365
834.982	0.0174887
835.060	0.0174715
835.138	0.0173965
835.216	0.0174007
835.294	0.0171821
835.372	0.0171586
835.450	0.0171962
835.529	0.0171039
835.607	0.0171109
835.685	0.0170269
835.763	0.0170062
835.841	0.0169125
835.919	0.0169283
835.997	0.0169081
836.075	0.0168816
836.154	0.0166991
836.232	0.0168169
836.310	0.0166973
836.388	0.0167525
836.466	0.0166791
836.544	0.0168430
836.622	0.0167471
836.700	0.0167554
836.779	0.0168645
836.857	0.0169070
836.935	0.0168178
837.013	0.0166540
837.091	0.0167577
837.169	0.0167085
837.247	0.0167564
837.325	0.0167562
837.404	0.0168954
837.482	0.0168878
837.560	0.0168008
837.638	0.0170133
837.716	0.0170805
837.794	0.0170408
837.872	0.0169748
837.950	0.0171243
838.029	0.0171552
838.107	0.0172528
838.185	0.0171702
838.263	0.0172636
838.341	0.0173235
838.419	0.0173224
838.497	0.0173479
838.575	0.0174527
838.654	0.0174025
838.732	0.0175314
838.810	0.0176456
838.888	0.0175737
838.966	0.0174763
839.044	0.0173924
839.122	0.0175368
839.200	0.0175173
839.279	0.0174737
839.357	0.0174724
839.435	0.0173394
839.513	0.0174343
839.591	0.0175857
839.669	0.0172970
839.747	0.0173473
839.825	0.0173232
839.904	0.0171861
839.982	0.0171761
840.060	0.0173154
840.138	0.0172845
840.216	0.0172137
840.294	0.0172614
840.372	0.0171293
840.450	0.0172540
840.529	0.0170939
840.607	0.0171177
840.685	0.0172058
840.763	0.0171233
840.841	0.0170004
840.919	0.0171375
840.997	0.0169887
841.075	0.0169183
841.154	0.0169893
841.232	0.0169635
841.310	0.0170250
841.388	0.0170345
841.466	0.0170121
841.544	0.0170583
841.622	0.0170016
841.700	0.0170080
841.779	0.0170705
841.857	0.0170778
841.935	0.0170068
842.013	0.0169905
842.091	0.0171028
842.169	0.0171794
842.247	0.0170914
842.325	0.0171272
842.404	0.0171037
842.482	0.0170978
842.560	0.0171841
842.638	0.0172041
842.716	0.0170788
842.794	0.0171243
842.872	0.0171308
842.950	0.0170277
843.029	0.0170394
843.107	0.0169327
843.185	0.0170167
843.263	0.0170030
843.341	0.0170457
843.419	0.0170454
843.497	0.0168517
843.575	0.0169580
843.654	0.0170039
843.732	0.0170285
843.810	0.0169713
843.888	0.0170484
843.966	0.0169479
844.044	0.0171027
844.122	0.0171378
844.200	0.0171296
844.279	0.0169218
844.357	0.0170662
844.435	0.0170468
844.513	0.0172411
844.591	0.0171777
844.669	0.0171548
844.747	0.0171375
844.825	0.0172438
844.904	0.0174011
844.982	0.0172821
845.060	0.0172192
845.138	0.0171730
845.216	0.0174232
845.294	0.0172829
845.372	0.0172994
845.450	0.0173104
845.529	0.0172932
845.607	0.0172997
845.685	0.0173061
845.763	0.0173328
845.841	0.0172544
845.919	0.0172716
845.997	0.0173375
846.075	0.0172327
846.154	0.0172363
846.232	0.0172115
846.310	0.0172982
846.388	0.0172212
846.466	0.0172363
846.544	0.0173017
846.622	0.0171460
846.700	0.0170754
846.779	0.0172215
846.857	0.0172112
846.935	0.0172526
847.013	0.0171436
847.091	0.0171608
847.169	0.0170924
847.247	0.0169505
847.325	0.0169889
847.404	0.0170016
847.482	0.0170059
847.560	0.0169820
847.638	0.0171902
847.716	0.0170547
847.794	0.0169951
847.872	0.0169300
847.950	0.0170747
848.029	0.0171024
848.107	0.0171442
848.185	0.0171304
848.263	0.0170777
848.341	0.0171072
848.419	0.0169946
848.497	0.0172194
848.575	0.0170090
848.654	0.0170649
848.732	0.0169337
848.810	0.0169904
848.888	0.0170898
848.966	0.0170412
849.044	0.0170034
849.122	0.0170066
849.200	0.0170168
849.279	0.0169302
849.357	0.0169160
849.435	0.0170782
849.513	0.0170592
849.591	0.0172018
849.669	0.0171200
849.747	0.0171161
849.825	0.0172050
849.904	0.0171346
849.982	0.0171410
850.060	0.0171744
850.138	0.0171768
850.216	0.0172395
850.294	0.0172355
850.372	0.0172798
850.450	0.0172408
850.529	0.0172760
850.607	0.0173238
850.685	0.0172307
850.763	0.0173548
850.841	0.0172579
850.919	0.0172447
850.997	0.0172733
851.075	0.0172842
851.154	0.0173541
851.232	0.0172343
851.310	0.0171914
851.388	0.0173779
851.466	0.0173043
851.544	0.0173457
851.622	0.0171603
851.700	0.0172246
851.779	0.0171690
851.857	0.0171415
851.935	0.0171930
852.013	0.0171030
852.091	0.0171556
852.169	0.0171367
852.247	0.0171372
852.325	0.0171307
852.404	0.0170372
852.482	0.0170147
852.560	0.0171039
852.638	0.0170090
852.716	0.0169711
852.794	0.0170360
852.872	0.0170150
852.950	0.0169909
853.029	0.0170671
853.107	0.0170177
853.185	0.0169752
853.263	0.0170065
853.341	0.0169217
853.419	0.0169348
853.497	0.0169482
853.575	0.0169238
853.654	0.0169489
853.732	0.0168742
853.810	0.0170302
853.888	0.0170216
853.966	0.0170313
854.044	0.0168814
854.122	0.0170330
854.200	0.0170799
854.279	0.0171009
854.357	0.0171730
854.435	0.0170921
854.513	0.0172169
854.591	0.0173043
854.669	0.0171919
854.747	0.0172778
854.825	0.0173165
854.904	0.0172523
854.982	0.0172189
855.060	0.0172789
855.138	0.0173031
855.216	0.0172998
855.294	0.0173087
855.372	0.0172570
855.450	0.0172395
855.529	0.0173818
855.607	0.0173142
855.685	0.0172131
855.763	0.0172784
855.841	0.0171961
855.919	0.0172508
855.997	0.0172177
856.075	0.0172513
856.154	0.0172884
856.232	0.0170766
856.310	0.0171647
856.388	0.0171200
856.466	0.0171078
856.544	0.0171375
856.622	0.0170428
856.700	0.0171313
856.779	0.0171133
856.857	0.0173018
856.935	0.0171853
857.013	0.0170204
857.091	0.0171796
857.169	0.0171317
857.247	0.0171433
857.325	0.0171867
857.404	0.0172620
857.482	0.0171671
857.560	0.0171384
857.638	0.0172923
857.716	0.0171581
857.794	0.0170444
857.872	0.0171592
857.950	0.0172318
858.029	0.0171431
858.107	0.0171310
858.185	0.0170369
858.263	0.0170703
858.341	0.0171624
858.419	0.0171434
858.497	0.0171504
858.575	0.0171215
858.654	0.0171790
858.732	0.0170047
858.810	0.0171539
858.888	0.0171479
858.966	0.0172126
859.044	0.0172716
859.122	0.0172451
859.200	0.0172390
859.279	0.0172482
859.357	0.0171861
859.435	0.0172986
859.513	0.0171301
859.591	0.0170615
859.669	0.0173038
859.747	0.0170340
859.825	0.0169829
859.904	0.0170745
859.982	0.0170883
860.060	0.0170533
860.138	0.0169407
860.216	0.0170950
860.294	0.0169714
860.372	0.0170659
860.450	0.0169695
860.529	0.0169594
860.607	0.0167808
860.685	0.0170631
860.763	0.0170135
860.841	0.0169328
860.919	0.0170037
860.997	0.0170864
861.075	0.0169277
861.154	0.0168958
861.232	0.0170303
861.310	0.0170216
861.388	0.0171120
861.466	0.0172354
861.544	0.0172462
861.622	0.0171774
861.700	0.0172433
861.779	0.0170538
861.857	0.0172508
861.935	0.0171187
862.013	0.0171536
862.091	0.0171764
862.169	0.0171848
862.247	0.0172349
862.325	0.0170642
862.404	0.0170908
862.482	0.0170809
862.560	0.0170353
862.638	0.0171861
862.716	0.0172770
862.794	0.0171990
862.872	0.0171987
862.950	0.0171545
863.029	0.0172866
863.107	0.0172694
863.185	0.0173903
863.263	0.0172807
863.341	0.0172074
863.419	0.0173550
863.497	0.0172925
863.575	0.0172730
863.654	0.0173319
863.732	0.0172851
863.810	0.0174157
863.888	0.0172358
863.966	0.0172156
864.044	0.0173654
864.122	0.0171866
864.200	0.0171388
864.279	0.0171828
864.357	0.0172971
864.435	0.0171684
864.513	0.0172935
864.591	0.0173547
864.669	0.0173070
864.747	0.0172203
864.825	0.0173368
864.904	0.0172689
864.982	0.0171719
865.060	0.0171719
865.138	0.0171935
865.216	0.0171163
865.294	0.0170369
865.372	0.0168526
865.450	0.0169678
865.529	0.0168877
865.607	0.0168856
865.685	0.0169885
865.763	0.0169473
865.841	0.0169196
865.919	0.0169658
865.997	0.0167693
866.075	0.0167964
866.154	0.0167694
866.232	0.0168690
866.310	0.0167697
866.388	0.0168721
866.466	0.0168451
866.544	0.0168204
866.622	0.0168375
866.700	0.0170723
866.779	0.0170446
866.857	0.0171411
866.935	0.0172009
867.013	0.0171788
867.091	0.0172356
867.169	0.0173335
867.247	0.0173814
867.325	0.0173437
867.404	0.0173460
867.482	0.0173609
867.560	0.0174258
867.638	0.0174423
867.716	0.0173943
867.794	0.0175149
867.872	0.0175153
867.950	0.0173939
868.029	0.0172933
868.107	0.0173131
868.185	0.0175618
868.263	0.0175671
868.341	0.0174149
868.419	0.0175970
868.497	0.0173802
868.575	0.0173165
868.654	0.0175083
868.732	0.0173668
868.810	0.0174152
868.888	0.0173430
868.966	0.0173368
869.044	0.0174557
869.122	0.0174021
869.200	0.0172673
869.279	0.0171434
869.357	0.0171319
869.435	0.0171322
869.513	0.0171016
869.591	0.0171381
869.669	0.0170323
869.747	0.0170734
869.825	0.0168636
869.904	0.0167954
869.982	0.0169935
870.060	0.0169707
870.138	0.0167529
870.216	0.0167554
870.294	0.0167410
870.372	0.0167561
870.450	0.0165714
870.529	0.0166977
870.607	0.0165749
870.685	0.0166164
870.763	0.0167101
870.841	0.0166949
870.919	0.0167154
870.997	0.0167149
871.075	0.0167161
871.154	0.0169113
871.232	0.0170487
871.310	0.0171259
871.388	0.0171831
871.466	0.0172641
871.544	0.0174820
871.622	0.0173572
871.700	0.0176413
871.779	0.0177422
871.857	0.0176442
871.935	0.0177339
872.013	0.0177830
872.091	0.0177936
872.169	0.0176758
872.247	0.0174799
872.325	0.0177176
872.404	0.0175612
872.482	0.0175310
872.560	0.0176391
872.638	0.0173348
872.716	0.0173391
872.794	0.0173804
872.872	0.0172406
872.950	0.0172260
873.029	0.0171169
873.107	0.0170610
873.185	0.0171358
873.263	0.0169784
873.341	0.0172829
873.419	0.0171280
873.497	0.0170708
873.575	0.0170565
873.654	0.0168977
873.732	0.0168550
873.810	0.0168852
873.888	0.0168491
873.966	0.0167914
874.044	0.0168419
874.122	0.0168422
874.200	0.0167342
874.279	0.0167700
874.357	0.0168085
874.435	0.0168797
874.513	0.0168657
874.591	0.0168772
874.669	0.0169538
874.747	0.0168698
874.825	0.0170437
874.904	0.0170056
874.982	0.0168924
875.060	0.0168205
875.138	0.0169727
875.216	0.0170210
875.294	0.0169486
875.372	0.0170859
875.450	0.0171086
875.529	0.0173248
875.607	0.0172047
875.685	0.0172034
875.763	0.0173573
875.841	0.0174541
875.919	0.0174244
875.997	0.0174413
876.075	0.0177399
876.154	0.0176682
876.232	0.0175789
876.310	0.0177377
876.388	0.0177670
876.466	0.0178043
876.544	0.0177619
876.622	0.0177849
876.700	0.0175453
876.779	0.0175378
876.857	0.0175819
876.935	0.0172153
877.013	0.0173275
877.091	0.0170234
877.169	0.0171741
877.247	0.0169878
877.325	0.0167838
877.404	0.0167052
877.482	0.0166917
877.560	0.0165607
877.638	0.0164912
877.716	0.0164864
877.794	0.0164147
877.872	0.0163087
877.950	0.0165665
878.029	0.0165267
878.107	0.0166844
878.185	0.0167643
878.263	0.0168168
878.341	0.0171190
878.419	0.0173249
878.497	0.0174773
878.575	0.0177786
878.654	0.0178454
878.732	0.0181081
878.810	0.0181275
878.888	0.0184051
878.966	0.0183015
879.044	0.0182866
879.122	0.0181618
879.200	0.0182586
879.279	0.0180201
879.357	0.0178994
879.435	0.0176881
879.513	0.0175753
879.591	0.0173743
879.669	0.0173656
879.747	0.0171425
879.825	0.0168773
879.904	0.0169193
879.982	0.0169306
880.060	0.0168398
880.138	0.0168517
880.216	0.0168410
880.294	0.0167986
880.372	0.0168073
880.450	0.0168241
880.529	0.0168547
880.607	0.0168382
880.685	0.0168244
880.763	0.0166885
880.841	0.0168071
880.919	0.0168833
880.997	0.0168548
881.075	0.0168839
881.154	0.0167696
881.232	0.0168810
881.310	0.0168464
881.388	0.0167719
881.466	0.0168215
881.544	0.0168970
881.622	0.0168340
881.700	0.0168946
881.779	0.0168159
881.857	0.0168422
881.935	0.0169262
882.013	0.0168983
882.091	0.0168624
882.169	0.0168426
882.247	0.0170476
882.325	0.0171552
882.404	0.0172624
882.482	0.0174795
882.560	0.0176589
882.638	0.0179794
882.716	0.0178573
882.794	0.0181667
882.872	0.0181544
882.950	0.0183662
883.029	0.0185014
883.107	0.0184435
883.185	0.0183117
883.263	0.0181796
883.341	0.0182015
883.419	0.0180156
883.497	0.0178987
883.575	0.0177186
883.654	0.0175519
883.732	0.0173969
883.810	0.0171163
883.888	0.0169436
883.966	0.0170437
884.044	0.0169384
884.122	0.0166738
884.200	0.0166996
884.279	0.0168250
884.357	0.0167891
884.435	0.0167292
884.513	0.0167305
884.591	0.0167941
884.669	0.0166780
884.747	0.0167902
884.825	0.0167013
884.904	0.0170473
884.982	0.0168557
885.060	0.0169676
885.138	0.0169851
885.216	0.0169260
885.294	0.0169674
885.372	0.0169889
885.450	0.0170061
885.529	0.0168530
885.607	0.0169312
885.685	0.0167949
885.763	0.0167783
885.841	0.0167233
885.919	0.0167806
885.997	0.0168073
886.075	0.0167286
886.154	0.0166729
886.232	0.0167440
886.310	0.0167225
886.388	0.0168331
886.466	0.0170132
886.544	0.0171310
886.622	0.0172852
886.700	0.0172334
886.779	0.0174767
886.857	0.0174289
886.935	0.0176057
887.013	0.0177306
887.091	0.0179570
887.169	0.0180536
887.247	0.0182491
887.325	0.0182735
887.404	0.0182455
887.482	0.0183131
887.560	0.0183103
887.638	0.0181828
887.716	0.0183241
887.794	0.0182893
887.872	0.0182230
887.950	0.0182454
888.029	0.0179501
888.107	0.0175901
888.185	0.0175152
888.263	0.0172298
888.341	0.0170794
888.419	0.0169111
888.497	0.0168569
888.575	0.0166290
888.654	0.0164198
888.732	0.0163965
888.810	0.0164226
888.888	0.0165022
888.966	0.0161674
889.044	0.0163486
889.122	0.0163643
889.200	0.0162354
889.279	0.0163123
889.357	0.0163134
889.435	0.0164095
889.513	0.0163635
889.591	0.0165088
889.669	0.0165179
889.747	0.0165984
889.825	0.0166348
889.904	0.0167318
889.982	0.0168263
890.060	0.0170070
890.138	0.0169652
890.216	0.0170612
890.294	0.0173027
890.372	0.0173096
890.450	0.0173367
890.529	0.0174123
890.607	0.0173980
890.685	0.0176437
890.763	0.0175909
890.841	0.0175483
890.919	0.0176292
890.997	0.0177057
891.075	0.0176256
891.154	0.0176626
891.232	0.0177103
891.310	0.0175200
891.388	0.0175630
891.466	0.0174674
891.544	0.0175753
891.622	0.0174792
891.700	0.0175007
891.779	0.0174053
891.857	0.0176120
891.935	0.0176338
892.013	0.0174637
892.091	0.0176309
892.169	0.0176546
892.247	0.0178217
892.325	0.0177425
892.404	0.0176888
892.482	0.0176598
892.560	0.0177253
892.638	0.0176162
892.716	0.0175938
892.794	0.0175188
892.872	0.0173434
892.950	0.0172030
893.029	0.0170302
893.107	0.0170692
893.185	0.0168723
893.263	0.0168192
893.341	0.0165933
893.419	0.0165035
893.497	0.0165871
893.575	0.0164841
893.654	0.0164819
893.732	0.0163605
893.810	0.0164086
893.888	0.0164487
893.966	0.0164729
894.044	0.0165338
894.122	0.0165043
894.200	0.0165766
894.279	0.0166423
894.357	0.0167127
894.435	0.0168269
894.513	0.0168902
894.591	0.0169907
894.669	0.0170467
894.747	0.0171721
894.825	0.0173239
894.904	0.0172369
894.982	0.0173501
895.060	0.0174825
895.138	0.0173553
895.216	0.0172855
895.294	0.0173917
895.372	0.0174567
895.450	0.0172494
895.529	0.0172166
895.607	0.0171522
895.685	0.0172906
895.763	0.0171641
895.841	0.0171422
895.919	0.0172742
895.997	0.0170813
896.075	0.0170940
896.154	0.0171326
896.232	0.0172517
896.310	0.0173807
896.388	0.0174568
896.466	0.0175288
896.544	0.0175854
896.622	0.0175417
896.700	0.0176499
896.779	0.0176047
896.857	0.0178316
896.935	0.0178410
897.013	0.0177058
897.091	0.0177969
897.169	0.0177685
897.247	0.0178541
897.325	0.0175993
897.404	0.0173686
897.482	0.0174670
897.560	0.0173262
897.638	0.0172110
897.716	0.0170785
897.794	0.0170105
897.872	0.0167865
897.950	0.0167014
898.029	0.0166369
898.107	0.0165042
898.185	0.0165002
898.263	0.0165382
898.341	0.0163792
898.419	0.0164979
898.497	0.0164494
898.575	0.0163826
898.654	0.0165182
898.732	0.0166025
898.810	0.0166231
898.888	0.0167804
898.966	0.0169753
899.044	0.0170515
899.122	0.0171040
899.200	0.0171395
899.279	0.0172575
899.357	0.0171535
899.435	0.0173710
899.513	0.0175034
899.591	0.0174785
899.669	0.0174786
899.747	0.0175944
899.825	0.0174203
899.904	0.0174503
899.982	0.0175602
900.060	0.0175326
900.138	0.0174392
900.216	0.0173605
900.294	0.0174725
900.372	0.0175057
900.450	0.0174219
900.529	0.0172639
900.607	0.0173767
900.685	0.0173313
900.763	0.0174473
900.841	0.0174265
900.919	0.0174538
900.997	0.0175068
901.075	0.0174802
901.154	0.0175652
901.232	0.0176910
901.310	0.0175893
901.388	0.0177018
901.466	0.0176163
901.544	0.0174020
901.622	0.0174735
901.700	0.0174462
901.779	0.0175195
901.857	0.0173895
901.935	0.0172204
902.013	0.0170783
902.091	0.0172143
902.169	0.0172674
902.247	0.0169757
902.325	0.0171217
902.404	0.0169165
902.482	0.0169722
902.560	0.0168771
902.638	0.0169073
902.716	0.0169662
902.794	0.0168145
902.872	0.0166763
902.950	0.0168107
903.029	0.0167334
903.107	0.0167967
903.185	0.0167699
903.263	0.0168285
903.341	0.0168005
903.419	0.0168546
903.497	0.0168871
903.575	0.0169403
903.654	0.0169421
903.732	0.0171030
903.810	0.0171552
903.888	0.0172071
903.966	0.0172039
904.044	0.0171193
904.122	0.0172375
904.200	0.0172155
904.279	0.0172706
904.357	0.0173663
904.435	0.0173009
904.513	0.0174004
904.591	0.0172417
904.669	0.0172553
904.747	0.0173775
904.825	0.0173306
904.904	0.0173404
904.982	0.0173236
905.060	0.0173071
905.138	0.0172115
905.216	0.0172841
905.294	0.0172815
905.372	0.0172751
905.450	0.0172958
905.529	0.0172480
905.607	0.0173912
905.685	0.0173560
905.763	0.0173627
905.841	0.0173234
905.919	0.0172647
905.997	0.0174168
906.075	0.0175256
906.154	0.0172547
906.232	0.0171143
906.310	0.0173159
906.388	0.0172874
906.466	0.0173512
906.544	0.0173044
906.622	0.0174203
906.700	0.0172025
906.779	0.0172672
906.857	0.0172860
906.935	0.0173069
907.013	0.0172554
907.091	0.0172934
907.169	0.0171310
907.247	0.0170107
907.325	0.0171163
907.404	0.0171844
907.482	0.0169947
907.560	0.0169537
907.638	0.0170104
907.716	0.0169856
907.794	0.0169771
907.872	0.0170351
907.950	0.0170706
908.029	0.0169532
908.107	0.0169495
908.185	0.0170287
908.263	0.0171138
908.341	0.0171655
908.419	0.0171071
908.497	0.0172363
908.575	0.0173677
908.654	0.0173667
908.732	0.0174106
908.810	0.0173813
908.888	0.0175285
908.966	0.0174515
909.044	0.0172742
909.122	0.0174072
909.200	0.0173991
909.279	0.0174166
909.357	0.0173923
909.435	0.0172623
909.513	0.0170896
909.591	0.0171490
909.669	0.0170461
909.747	0.0170645
909.825	0.0170689
909.904	0.0168365
909.982	0.0169070
910.060	0.0169810
910.138	0.0168394
910.216	0.0168870
910.294	0.0167979
910.372	0.0169982
910.450	0.0171820
910.529	0.0170498
910.607	0.0171638
910.685	0.0171998
910.763	0.0171548
910.841	0.0172091
910.919	0.0172196
910.997	0.0173275
911.075	0.0171493
911.154	0.0172343
911.232	0.0171237
911.310	0.0172908
911.388	0.0172854
911.466	0.0172050
911.544	0.0173639
911.622	0.0174495
911.700	0.0171781
911.779	0.0173438
911.857	0.0172175
911.935	0.0172347
912.013	0.0173521
912.091	0.0171320
912.169	0.0171078
912.247	0.0171436
912.325	0.0171629
912.404	0.0170190
912.482	0.0170555
912.560	0.0169480
912.638	0.0169898
912.716	0.0169716
912.794	0.0169402
912.872	0.0170579
912.950	0.0170985
913.029	0.0171482
913.107	0.0171582
913.185	0.0171807
913.263	0.0172102
913.341	0.0172433
913.419	0.0172752
913.497	0.0174521
913.575	0.0173743
913.654	0.0173303
913.732	0.0173553
913.810	0.0173717
913.888	0.0174051
913.966	0.0174541
914.044	0.0173738
914.122	0.0174231
914.200	0.0174521
914.279	0.0172949
914.357	0.0172221
914.435	0.0172832
914.513	0.0173092
914.591	0.0172462
914.669	0.0171255
914.747	0.0170786
914.825	0.0170246
914.904	0.0171149
914.982	0.0169353
915.060	0.0171474
915.138	0.0170863
915.216	0.0172139
915.294	0.0171867
915.372	0.0172025
915.450	0.0171581
915.529	0.0170153
915.607	0.0171546
915.685	0.0170544
915.763	0.0170674
915.841	0.0169993
915.919	0.0170874
915.997	0.0171207
916.075	0.0172239
916.154	0.0171597
916.232	0.0171275
916.310	0.0172710
916.388	0.0171649
916.466	0.0172691
916.544	0.0172771
916.622	0.0172046
916.700	0.0171335
916.779	0.0172614
916.857	0.0172076
916.935	0.0173320
917.013	0.0172054
917.091	0.0171464
917.169	0.0171070
917.247	0.0170781
917.325	0.0172360
917.404	0.0172399
917.482	0.0172282
917.560	0.0171376
917.638	0.0171424
917.716	0.0170576
917.794	0.0173080
917.872	0.0171778
917.950	0.0172188
918.029	0.0172765
918.107	0.0171879
918.185	0.0171713
918.263	0.0173029
918.341	0.0172137
918.419	0.0172359
918.497	0.0171857
918.575	0.0173061
918.654	0.0172139
918.732	0.0171713
918.810	0.0171876
918.888	0.0171694
918.966	0.0171676
919.044	0.0169321
919.122	0.0171194
919.200	0.0171423
919.279	0.0172540
919.357	0.0170511
919.435	0.0170102
919.513	0.0171502
919.591	0.0170594
919.669	0.0171395
919.747	0.0170075
919.825	0.0169597
919.904	0.0171397
