05/24/2022	20:15:24	Ver.	4.1	UNKNOWN
Optical Delay	599.988409	Delta X		0.078125	Sweeps	1	Scan Rate	0/0
Coordinates	Axis 1	NaN	Axis 2	NaN	Axis 3	NaN	Axis 4	NaN	Axis 5	NaN	Axis 6	0.000000
TX Power	0.000000	RX Power	0.000000

599.988	0.0166537
600.067	0.0166238
600.145	0.0166401
600.223	0.0166192
600.301	0.0166647
600.379	0.0168385
600.457	0.0168011
600.535	0.0167208
600.613	0.0167053
600.692	0.0167200
600.770	0.0166553
600.848	0.0166872
600.926	0.0166499
601.004	0.0166443
601.082	0.0165504
601.160	0.0166114
601.238	0.0166296
601.317	0.0168468
601.395	0.0167712
601.473	0.0165677
601.551	0.0165581
601.629	0.0165296
601.707	0.0166084
601.785	0.0167049
601.863	0.0167783
601.942	0.0166309
602.020	0.0165584
602.098	0.0165780
602.176	0.0167045
602.254	0.0166312
602.332	0.0167233
602.410	0.0166172
602.488	0.0165774
602.567	0.0168351
602.645	0.0167227
602.723	0.0165160
602.801	0.0165845
602.879	0.0166875
602.957	0.0165154
603.035	0.0167727
603.113	0.0167243
603.192	0.0166794
603.270	0.0166108
603.348	0.0166545
603.426	0.0166552
603.504	0.0166718
603.582	0.0165430
603.660	0.0166682
603.738	0.0166711
603.817	0.0168421
603.895	0.0166230
603.973	0.0166547
604.051	0.0166759
604.129	0.0167496
604.207	0.0167194
604.285	0.0166061
604.363	0.0165965
604.442	0.0166965
604.520	0.0167038
604.598	0.0168372
604.676	0.0167468
604.754	0.0165985
604.832	0.0166837
604.910	0.0166764
604.988	0.0166495
605.067	0.0167363
605.145	0.0166470
605.223	0.0165828
605.301	0.0165578
605.379	0.0167225
605.457	0.0167164
605.535	0.0165611
605.613	0.0167451
605.692	0.0167344
605.770	0.0167117
605.848	0.0167154
605.926	0.0166958
606.004	0.0167422
606.082	0.0166883
606.160	0.0166568
606.238	0.0166830
606.317	0.0166893
606.395	0.0167014
606.473	0.0166918
606.551	0.0167484
606.629	0.0168333
606.707	0.0166698
606.785	0.0166615
606.863	0.0166389
606.942	0.0165988
607.020	0.0167842
607.098	0.0167258
607.176	0.0166814
607.254	0.0166528
607.332	0.0167072
607.410	0.0165974
607.488	0.0167240
607.567	0.0166752
607.645	0.0165980
607.723	0.0165858
607.801	0.0166737
607.879	0.0166773
607.957	0.0166997
608.035	0.0166188
608.113	0.0165396
608.192	0.0165949
608.270	0.0166101
608.348	0.0165945
608.426	0.0167218
608.504	0.0165628
608.582	0.0166177
608.660	0.0165163
608.738	0.0165250
608.817	0.0166211
608.895	0.0166282
608.973	0.0166587
609.051	0.0165921
609.129	0.0165427
609.207	0.0164281
609.285	0.0165787
609.363	0.0166695
609.442	0.0166914
609.520	0.0166914
609.598	0.0167747
609.676	0.0166599
609.754	0.0166405
609.832	0.0166807
609.910	0.0167251
609.988	0.0167031
610.067	0.0167083
610.145	0.0167895
610.223	0.0167079
610.301	0.0167472
610.379	0.0165750
610.457	0.0167305
610.535	0.0167192
610.613	0.0166046
610.692	0.0166558
610.770	0.0167536
610.848	0.0166838
610.926	0.0168368
611.004	0.0167389
611.082	0.0165672
611.160	0.0167843
611.238	0.0167505
611.317	0.0166120
611.395	0.0165530
611.473	0.0165883
611.551	0.0165118
611.629	0.0165941
611.707	0.0165950
611.785	0.0166956
611.863	0.0167020
611.942	0.0165759
612.020	0.0166232
612.098	0.0167032
612.176	0.0167167
612.254	0.0166550
612.332	0.0166165
612.410	0.0166467
612.488	0.0166777
612.567	0.0167233
612.645	0.0165082
612.723	0.0165846
612.801	0.0166422
612.879	0.0166846
612.957	0.0167165
613.035	0.0165354
613.113	0.0165893
613.192	0.0167225
613.270	0.0166929
613.348	0.0166229
613.426	0.0166109
613.504	0.0166703
613.582	0.0165296
613.660	0.0167107
613.738	0.0166745
613.817	0.0166076
613.895	0.0165562
613.973	0.0165863
614.051	0.0167231
614.129	0.0166488
614.207	0.0166682
614.285	0.0166804
614.363	0.0167158
614.442	0.0167297
614.520	0.0164971
614.598	0.0166853
614.676	0.0166486
614.754	0.0167622
614.832	0.0167513
614.910	0.0167532
614.988	0.0166814
615.067	0.0166830
615.145	0.0167203
615.223	0.0166299
615.301	0.0167794
615.379	0.0167561
615.457	0.0167532
615.535	0.0166619
615.613	0.0167089
615.692	0.0166921
615.770	0.0167664
615.848	0.0166914
615.926	0.0167999
616.004	0.0168568
616.082	0.0166415
616.160	0.0165594
616.238	0.0167722
616.317	0.0167712
616.395	0.0165464
616.473	0.0166275
616.551	0.0166696
616.629	0.0165976
616.707	0.0165810
616.785	0.0166599
616.863	0.0166351
616.942	0.0166502
617.020	0.0167475
617.098	0.0165790
617.176	0.0165419
617.254	0.0167252
617.332	0.0165464
617.410	0.0165897
617.488	0.0164721
617.567	0.0166087
617.645	0.0166740
617.723	0.0167670
617.801	0.0165860
617.879	0.0163541
617.957	0.0165714
618.035	0.0165930
618.113	0.0166485
618.192	0.0165822
618.270	0.0166641
618.348	0.0166286
618.426	0.0164792
618.504	0.0165665
618.582	0.0166769
618.660	0.0165833
618.738	0.0165197
618.817	0.0165867
618.895	0.0165525
618.973	0.0165670
619.051	0.0166843
619.129	0.0166351
619.207	0.0166468
619.285	0.0166828
619.363	0.0166029
619.442	0.0165866
619.520	0.0167597
619.598	0.0167037
619.676	0.0168087
619.754	0.0167709
619.832	0.0166254
619.910	0.0167194
619.988	0.0166582
620.067	0.0167347
620.145	0.0167667
620.223	0.0167511
620.301	0.0167290
620.379	0.0166338
620.457	0.0167153
620.535	0.0166846
620.613	0.0165923
620.692	0.0166983
620.770	0.0165678
620.848	0.0166275
620.926	0.0166557
621.004	0.0166530
621.082	0.0166352
621.160	0.0166212
621.238	0.0166196
621.317	0.0165153
621.395	0.0166078
621.473	0.0165137
621.551	0.0166377
621.629	0.0166740
621.707	0.0165527
621.785	0.0166592
621.863	0.0164781
621.942	0.0168014
622.020	0.0166666
622.098	0.0165685
622.176	0.0165849
622.254	0.0168402
622.332	0.0164403
622.410	0.0166447
622.488	0.0167180
622.567	0.0167380
622.645	0.0166387
622.723	0.0166850
622.801	0.0167239
622.879	0.0166892
622.957	0.0165631
623.035	0.0167424
623.113	0.0165828
623.192	0.0166436
623.270	0.0164545
623.348	0.0166143
623.426	0.0166508
623.504	0.0167336
623.582	0.0165005
623.660	0.0166420
623.738	0.0166501
623.817	0.0165409
623.895	0.0166956
623.973	0.0167204
624.051	0.0166619
624.129	0.0166663
624.207	0.0167027
624.285	0.0167010
624.363	0.0167416
624.442	0.0167809
624.520	0.0166853
624.598	0.0167570
624.676	0.0166759
624.754	0.0167621
624.832	0.0167284
624.910	0.0167852
624.988	0.0167336
625.067	0.0167215
625.145	0.0168073
625.223	0.0167972
625.301	0.0165132
625.379	0.0167204
625.457	0.0167303
625.535	0.0166866
625.613	0.0167161
625.692	0.0166465
625.770	0.0166459
625.848	0.0166238
625.926	0.0165757
626.004	0.0166706
626.082	0.0166273
626.160	0.0166623
626.238	0.0166518
626.317	0.0167802
626.395	0.0166217
626.473	0.0165977
626.551	0.0167163
626.629	0.0166039
626.707	0.0165478
626.785	0.0166840
626.863	0.0166663
626.942	0.0165527
627.020	0.0165318
627.098	0.0167453
627.176	0.0166782
627.254	0.0165587
627.332	0.0167247
627.410	0.0165959
627.488	0.0166994
627.567	0.0167085
627.645	0.0166228
627.723	0.0166868
627.801	0.0166908
627.879	0.0165068
627.957	0.0166872
628.035	0.0166836
628.113	0.0166438
628.192	0.0166893
628.270	0.0166542
628.348	0.0167165
628.426	0.0164984
628.504	0.0166920
628.582	0.0166223
628.660	0.0166456
628.738	0.0167902
628.817	0.0167395
628.895	0.0166549
628.973	0.0166193
629.051	0.0166924
629.129	0.0168246
629.207	0.0166562
629.285	0.0167381
629.363	0.0168851
629.442	0.0167223
629.520	0.0166747
629.598	0.0167258
629.676	0.0167410
629.754	0.0166394
629.832	0.0166813
629.910	0.0166205
629.988	0.0167426
630.067	0.0167210
630.145	0.0166065
630.223	0.0166821
630.301	0.0165528
630.379	0.0165943
630.457	0.0167678
630.535	0.0167378
630.613	0.0166915
630.692	0.0167201
630.770	0.0167389
630.848	0.0167907
630.926	0.0166467
631.004	0.0166045
631.082	0.0167076
631.160	0.0166257
631.238	0.0167356
631.317	0.0167268
631.395	0.0166238
631.473	0.0167052
631.551	0.0167029
631.629	0.0166560
631.707	0.0166933
631.785	0.0166347
631.863	0.0166135
631.942	0.0167420
632.020	0.0166000
632.098	0.0165672
632.176	0.0165770
632.254	0.0167277
632.332	0.0166285
632.410	0.0167393
632.488	0.0167578
632.567	0.0165939
632.645	0.0167087
632.723	0.0165794
632.801	0.0166518
632.879	0.0165802
632.957	0.0167294
633.035	0.0166288
633.113	0.0165987
633.192	0.0167017
633.270	0.0165936
633.348	0.0166016
633.426	0.0166872
633.504	0.0166587
633.582	0.0166288
633.660	0.0167645
633.738	0.0166918
633.817	0.0166987
633.895	0.0167273
633.973	0.0165832
634.051	0.0166470
634.129	0.0166850
634.207	0.0166938
634.285	0.0165990
634.363	0.0166647
634.442	0.0166234
634.520	0.0165905
634.598	0.0166228
634.676	0.0165913
634.754	0.0165385
634.832	0.0165713
634.910	0.0166220
634.988	0.0166496
635.067	0.0165474
635.145	0.0167038
635.223	0.0165114
635.301	0.0167139
635.379	0.0166850
635.457	0.0166009
635.535	0.0165840
635.613	0.0166739
635.692	0.0166544
635.770	0.0166966
635.848	0.0165730
635.926	0.0165198
636.004	0.0166585
636.082	0.0167412
636.160	0.0166601
636.238	0.0166264
636.317	0.0166980
636.395	0.0166621
636.473	0.0167860
636.551	0.0166608
636.629	0.0166624
636.707	0.0165514
636.785	0.0167086
636.863	0.0168129
636.942	0.0166209
637.020	0.0166515
637.098	0.0166451
637.176	0.0165038
637.254	0.0166954
637.332	0.0166802
637.410	0.0166950
637.488	0.0166217
637.567	0.0165426
637.645	0.0166304
637.723	0.0167200
637.801	0.0165204
637.879	0.0166106
637.957	0.0166816
638.035	0.0166805
638.113	0.0166025
638.192	0.0166864
638.270	0.0166894
638.348	0.0165650
638.426	0.0166347
638.504	0.0166330
638.582	0.0166927
638.660	0.0165057
638.738	0.0166291
638.817	0.0166945
638.895	0.0165573
638.973	0.0166846
639.051	0.0165283
639.129	0.0165868
639.207	0.0166586
639.285	0.0166776
639.363	0.0165354
639.442	0.0166161
639.520	0.0166160
639.598	0.0166106
639.676	0.0165227
639.754	0.0166383
639.832	0.0165910
639.910	0.0165411
639.988	0.0166418
640.067	0.0165976
640.145	0.0166303
640.223	0.0167387
640.301	0.0165605
640.379	0.0166571
640.457	0.0167408
640.535	0.0167529
640.613	0.0165577
640.692	0.0166924
640.770	0.0166564
640.848	0.0166467
640.926	0.0167450
641.004	0.0167204
641.082	0.0166021
641.160	0.0166689
641.238	0.0166099
641.317	0.0166837
641.395	0.0166817
641.473	0.0167437
641.551	0.0167085
641.629	0.0166488
641.707	0.0166781
641.785	0.0166200
641.863	0.0167107
641.942	0.0166247
642.020	0.0166465
642.098	0.0165054
642.176	0.0166409
642.254	0.0166115
642.332	0.0166068
642.410	0.0167011
642.488	0.0165813
642.567	0.0166615
642.645	0.0166743
642.723	0.0166544
642.801	0.0167328
642.879	0.0167187
642.957	0.0166527
643.035	0.0166264
643.113	0.0166668
643.192	0.0165849
643.270	0.0167553
643.348	0.0166824
643.426	0.0166570
643.504	0.0167466
643.582	0.0166424
643.660	0.0165826
643.738	0.0167136
643.817	0.0166344
643.895	0.0165855
643.973	0.0167207
644.051	0.0166526
644.129	0.0167488
644.207	0.0166193
644.285	0.0165745
644.363	0.0166824
644.442	0.0167595
644.520	0.0167424
644.598	0.0166923
644.676	0.0168093
644.754	0.0166285
644.832	0.0167333
644.910	0.0166560
644.988	0.0165749
645.067	0.0165249
645.145	0.0167942
645.223	0.0167618
645.301	0.0166074
645.379	0.0165910
645.457	0.0166045
645.535	0.0166486
645.613	0.0165881
645.692	0.0167692
645.770	0.0167811
645.848	0.0166788
645.926	0.0166222
646.004	0.0166413
646.082	0.0166767
646.160	0.0167561
646.238	0.0167344
646.317	0.0165405
646.395	0.0165717
646.473	0.0166774
646.551	0.0167356
646.629	0.0166353
646.707	0.0166283
646.785	0.0166904
646.863	0.0165714
646.942	0.0167148
647.020	0.0165555
647.098	0.0166888
647.176	0.0166588
647.254	0.0167506
647.332	0.0166880
647.410	0.0166574
647.488	0.0166861
647.567	0.0165231
647.645	0.0165884
647.723	0.0166205
647.801	0.0165146
647.879	0.0166025
647.957	0.0165652
648.035	0.0167104
648.113	0.0166180
648.192	0.0167053
648.270	0.0166539
648.348	0.0166906
648.426	0.0165239
648.504	0.0166461
648.582	0.0167046
648.660	0.0166616
648.738	0.0165340
648.817	0.0166035
648.895	0.0165272
648.973	0.0166702
649.051	0.0165864
649.129	0.0165701
649.207	0.0165239
649.285	0.0164334
649.363	0.0166582
649.442	0.0166800
649.520	0.0166289
649.598	0.0166954
649.676	0.0166866
649.754	0.0166165
649.832	0.0167014
649.910	0.0167856
649.988	0.0165550
650.067	0.0165806
650.145	0.0166531
650.223	0.0166971
650.301	0.0165176
650.379	0.0166213
650.457	0.0166482
650.535	0.0166162
650.613	0.0166428
650.692	0.0168039
650.770	0.0166862
650.848	0.0165356
650.926	0.0165723
651.004	0.0166203
651.082	0.0165909
651.160	0.0166022
651.238	0.0167344
651.317	0.0165302
651.395	0.0166583
651.473	0.0166217
651.551	0.0166319
651.629	0.0166843
651.707	0.0166885
651.785	0.0166204
651.863	0.0168057
651.942	0.0166992
652.020	0.0167937
652.098	0.0166068
652.176	0.0166054
652.254	0.0166729
652.332	0.0167657
652.410	0.0166092
652.488	0.0165360
652.567	0.0167375
652.645	0.0166051
652.723	0.0167323
652.801	0.0167971
652.879	0.0166978
652.957	0.0165831
653.035	0.0166168
653.113	0.0167502
653.192	0.0167146
653.270	0.0166370
653.348	0.0167078
653.426	0.0165822
653.504	0.0166615
653.582	0.0167196
653.660	0.0165797
653.738	0.0167113
653.817	0.0167358
653.895	0.0166264
653.973	0.0167640
654.051	0.0166416
654.129	0.0166779
654.207	0.0166977
654.285	0.0164818
654.363	0.0166840
654.442	0.0167020
654.520	0.0167133
654.598	0.0167067
654.676	0.0166444
654.754	0.0165550
654.832	0.0167246
654.910	0.0166408
654.988	0.0165600
655.067	0.0166633
655.145	0.0166162
655.223	0.0166593
655.301	0.0167649
655.379	0.0166624
655.457	0.0166279
655.535	0.0166364
655.613	0.0166214
655.692	0.0166509
655.770	0.0166865
655.848	0.0166579
655.926	0.0167635
656.004	0.0166606
656.082	0.0167007
656.160	0.0167288
656.238	0.0167225
656.317	0.0165305
656.395	0.0167388
656.473	0.0166442
656.551	0.0167319
656.629	0.0166123
656.707	0.0166939
656.785	0.0166320
656.863	0.0168622
656.942	0.0166115
657.020	0.0165382
657.098	0.0166309
657.176	0.0165263
657.254	0.0166766
657.332	0.0167548
657.410	0.0167010
657.488	0.0167182
657.567	0.0166206
657.645	0.0167157
657.723	0.0165859
657.801	0.0166453
657.879	0.0166796
657.957	0.0167099
658.035	0.0165209
658.113	0.0166237
658.192	0.0166293
658.270	0.0166447
658.348	0.0165826
658.426	0.0166167
658.504	0.0167139
658.582	0.0167419
658.660	0.0166121
658.738	0.0165935
658.817	0.0165276
658.895	0.0166378
658.973	0.0166336
659.051	0.0166644
659.129	0.0164569
659.207	0.0164663
659.285	0.0166723
659.363	0.0166506
659.442	0.0166266
659.520	0.0167312
659.598	0.0165852
659.676	0.0165241
659.754	0.0167232
659.832	0.0167946
659.910	0.0165689
659.988	0.0163795
660.067	0.0165450
660.145	0.0165270
660.223	0.0167305
660.301	0.0165521
660.379	0.0165949
660.457	0.0166508
660.535	0.0165607
660.613	0.0165770
660.692	0.0166292
660.770	0.0165717
660.848	0.0165767
660.926	0.0167017
661.004	0.0165379
661.082	0.0165811
661.160	0.0165800
661.238	0.0165737
661.317	0.0167010
661.395	0.0165273
661.473	0.0165985
661.551	0.0165597
661.629	0.0165454
661.707	0.0166265
661.785	0.0165092
661.863	0.0166840
661.942	0.0167336
662.020	0.0165374
662.098	0.0164955
662.176	0.0165521
662.254	0.0165578
662.332	0.0165092
662.410	0.0166676
662.488	0.0164558
662.567	0.0165389
662.645	0.0166132
662.723	0.0165051
662.801	0.0163875
662.879	0.0165273
662.957	0.0166040
663.035	0.0164495
663.113	0.0167320
663.192	0.0168412
663.270	0.0166075
663.348	0.0166517
663.426	0.0167955
663.504	0.0167065
663.582	0.0166622
663.660	0.0166425
663.738	0.0167509
663.817	0.0167531
663.895	0.0166348
663.973	0.0168168
664.051	0.0167311
664.129	0.0168358
664.207	0.0166276
664.285	0.0166730
664.363	0.0167938
664.442	0.0167508
664.520	0.0167429
664.598	0.0165313
664.676	0.0166132
664.754	0.0165831
664.832	0.0165247
664.910	0.0166258
664.988	0.0165082
665.067	0.0165350
665.145	0.0164806
665.223	0.0164021
665.301	0.0162468
665.379	0.0162559
665.457	0.0163859
665.535	0.0162075
665.613	0.0162207
665.692	0.0162197
665.770	0.0162136
665.848	0.0161225
665.926	0.0161736
666.004	0.0162263
666.082	0.0163469
666.160	0.0165145
666.238	0.0166193
666.317	0.0166710
666.395	0.0167258
666.473	0.0168884
666.551	0.0169638
666.629	0.0169376
666.707	0.0169168
666.785	0.0171736
666.863	0.0170431
666.942	0.0170488
667.020	0.0172182
667.098	0.0171545
667.176	0.0170326
667.254	0.0172477
667.332	0.0171782
667.410	0.0171156
667.488	0.0171161
667.567	0.0171001
667.645	0.0169267
667.723	0.0168900
667.801	0.0166686
667.879	0.0163745
667.957	0.0163778
668.035	0.0164993
668.113	0.0163132
668.192	0.0163139
668.270	0.0164194
668.348	0.0164143
668.426	0.0165295
668.504	0.0164839
668.582	0.0164359
668.660	0.0163660
668.738	0.0161917
668.817	0.0161974
668.895	0.0160619
668.973	0.0161772
669.051	0.0160202
669.129	0.0160482
669.207	0.0161922
669.285	0.0162245
669.363	0.0162171
669.442	0.0164314
669.520	0.0165061
669.598	0.0163824
669.676	0.0164090
669.754	0.0163704
669.832	0.0163294
669.910	0.0162567
669.988	0.0161490
670.067	0.0160793
670.145	0.0161512
670.223	0.0161803
670.301	0.0163680
670.379	0.0165662
670.457	0.0166715
670.535	0.0168661
670.613	0.0170939
670.692	0.0171414
670.770	0.0172378
670.848	0.0173351
670.926	0.0172521
671.004	0.0174340
671.082	0.0174641
671.160	0.0175862
671.238	0.0176414
671.317	0.0178572
671.395	0.0176506
671.473	0.0176067
671.551	0.0175642
671.629	0.0173023
671.707	0.0173183
671.785	0.0169231
671.863	0.0166592
671.942	0.0166773
672.020	0.0164476
672.098	0.0163726
672.176	0.0163306
672.254	0.0164297
672.332	0.0165250
672.410	0.0166491
672.488	0.0168644
672.567	0.0169546
672.645	0.0169588
672.723	0.0170969
672.801	0.0169907
672.879	0.0168557
672.957	0.0167371
673.035	0.0165632
673.113	0.0163323
673.192	0.0161755
673.270	0.0161362
673.348	0.0159843
673.426	0.0158022
673.504	0.0158795
673.582	0.0157095
673.660	0.0157719
673.738	0.0160447
673.817	0.0160509
673.895	0.0159894
673.973	0.0161038
674.051	0.0161261
674.129	0.0160567
674.207	0.0161097
674.285	0.0163822
674.363	0.0162954
674.442	0.0162972
674.520	0.0163084
674.598	0.0164983
674.676	0.0164098
674.754	0.0165851
674.832	0.0167012
674.910	0.0165907
674.988	0.0167446
675.067	0.0168066
675.145	0.0168462
675.223	0.0169655
675.301	0.0170448
675.379	0.0171006
675.457	0.0172492
675.535	0.0171886
675.613	0.0175119
675.692	0.0174948
675.770	0.0176987
675.848	0.0177419
675.926	0.0177472
676.004	0.0175503
676.082	0.0174722
676.160	0.0174771
676.238	0.0173198
676.317	0.0170107
676.395	0.0168658
676.473	0.0168559
676.551	0.0166754
676.629	0.0166518
676.707	0.0166167
676.785	0.0165435
676.863	0.0166391
676.942	0.0167925
677.020	0.0167522
677.098	0.0168828
677.176	0.0170790
677.254	0.0170844
677.332	0.0170721
677.410	0.0170636
677.488	0.0170842
677.567	0.0167985
677.645	0.0165187
677.723	0.0163507
677.801	0.0159634
677.879	0.0156367
677.957	0.0155836
678.035	0.0155882
678.113	0.0156403
678.192	0.0156642
678.270	0.0159231
678.348	0.0161131
678.426	0.0164085
678.504	0.0168236
678.582	0.0168743
678.660	0.0171959
678.738	0.0171594
678.817	0.0171917
678.895	0.0171431
678.973	0.0168375
679.051	0.0165577
679.129	0.0163087
679.207	0.0160008
679.285	0.0159007
679.363	0.0157576
679.442	0.0157296
679.520	0.0155952
679.598	0.0155555
679.676	0.0158697
679.754	0.0158529
679.832	0.0159220
679.910	0.0161223
679.988	0.0161686
680.067	0.0161251
680.145	0.0161984
680.223	0.0160838
680.301	0.0163431
680.379	0.0163683
680.457	0.0163844
680.535	0.0166563
680.613	0.0168198
680.692	0.0171088
680.770	0.0174239
680.848	0.0177898
680.926	0.0180957
681.004	0.0183550
681.082	0.0187801
681.160	0.0188931
681.238	0.0189055
681.317	0.0189467
681.395	0.0188647
681.473	0.0185175
681.551	0.0180950
681.629	0.0178656
681.707	0.0175197
681.785	0.0172483
681.863	0.0170300
681.942	0.0166417
682.020	0.0166863
682.098	0.0165745
682.176	0.0165702
682.254	0.0166019
682.332	0.0166675
682.410	0.0167133
682.488	0.0168814
682.567	0.0169212
682.645	0.0170001
682.723	0.0167715
682.801	0.0166508
682.879	0.0164912
682.957	0.0162817
683.035	0.0158488
683.113	0.0155984
683.192	0.0153064
683.270	0.0150285
683.348	0.0147271
683.426	0.0146046
683.504	0.0145544
683.582	0.0145647
683.660	0.0146159
683.738	0.0145277
683.817	0.0145477
683.895	0.0144098
683.973	0.0144038
684.051	0.0145755
684.129	0.0145058
684.207	0.0146170
684.285	0.0147153
684.363	0.0151329
684.442	0.0152516
684.520	0.0154594
684.598	0.0158369
684.676	0.0161800
684.754	0.0164021
684.832	0.0167860
684.910	0.0170950
684.988	0.0175228
685.067	0.0180196
685.145	0.0182685
685.223	0.0184272
685.301	0.0188579
685.379	0.0190979
685.457	0.0193167
685.535	0.0194560
685.613	0.0196111
685.692	0.0198180
685.770	0.0199483
685.848	0.0200440
685.926	0.0200260
686.004	0.0201240
686.082	0.0202368
686.160	0.0203148
686.238	0.0204444
686.317	0.0204958
686.395	0.0207497
686.473	0.0207236
686.551	0.0209212
686.629	0.0207001
686.707	0.0205692
686.785	0.0203313
686.863	0.0198438
686.942	0.0192599
687.020	0.0186372
687.098	0.0175719
687.176	0.0168743
687.254	0.0158724
687.332	0.0149421
687.410	0.0138161
687.488	0.0127301
687.567	0.0117455
687.645	0.0106565
687.723	0.00972237
687.801	0.00875778
687.879	0.00796288
687.957	0.00715935
688.035	0.00634033
688.113	0.00564621
688.192	0.00538010
688.270	0.00502411
688.348	0.00518723
688.426	0.00545006
688.504	0.00603455
688.582	0.00702919
688.660	0.00844322
688.738	0.00992096
688.817	0.0117784
688.895	0.0138632
688.973	0.0161597
689.051	0.0184837
689.129	0.0210073
689.207	0.0232346
689.285	0.0256287
689.363	0.0275939
689.442	0.0295099
689.520	0.0307996
689.598	0.0319579
689.676	0.0324320
689.754	0.0326947
689.832	0.0323853
689.910	0.0315553
689.988	0.0303413
690.067	0.0289815
690.145	0.0272319
690.223	0.0252929
690.301	0.0234711
690.379	0.0216502
690.457	0.0197286
690.535	0.0178458
690.613	0.0163421
690.692	0.0149632
690.770	0.0137814
690.848	0.0127692
690.926	0.0120260
691.004	0.0115219
691.082	0.0109627
691.160	0.0106252
691.238	0.0104547
691.317	0.0103677
691.395	0.0103860
691.473	0.0106104
691.551	0.0107807
691.629	0.0109988
691.707	0.0112836
691.785	0.0115764
691.863	0.0120483
691.942	0.0122501
692.020	0.0125131
692.098	0.0126289
692.176	0.0127640
692.254	0.0129092
692.332	0.0128209
692.410	0.0126362
692.488	0.0125198
692.567	0.0123611
692.645	0.0118656
692.723	0.0115350
692.801	0.0113020
692.879	0.0107798
692.957	0.0103219
693.035	0.0101335
693.113	0.00991318
693.192	0.00979607
693.270	0.00999084
693.348	0.0104211
693.426	0.0113069
693.504	0.0122449
693.582	0.0137923
693.660	0.0153807
693.738	0.0174857
693.817	0.0195860
693.895	0.0217044
693.973	0.0240213
694.051	0.0261295
694.129	0.0281337
694.207	0.0299003
694.285	0.0311772
694.363	0.0322395
694.442	0.0325903
694.520	0.0327186
694.598	0.0323320
694.676	0.0315671
694.754	0.0306016
694.832	0.0292631
694.910	0.0278487
694.988	0.0262524
695.067	0.0245028
695.145	0.0228378
695.223	0.0209695
695.301	0.0191685
695.379	0.0174658
695.457	0.0157103
695.535	0.0139677
695.613	0.0126244
695.692	0.0113955
695.770	0.0102975
695.848	0.00919212
695.926	0.00855560
696.004	0.00824486
696.082	0.00809700
696.160	0.00811768
696.238	0.00851028
696.317	0.00884499
696.395	0.00913231
696.473	0.00980286
696.551	0.0101214
696.629	0.0105950
696.707	0.0108726
696.785	0.0109001
696.863	0.0109969
696.942	0.0110417
697.020	0.0109487
697.098	0.0107139
697.176	0.0105114
697.254	0.0104559
697.332	0.0102077
697.410	0.0102437
697.488	0.0101031
697.567	0.0101713
697.645	0.0104278
697.723	0.0105154
697.801	0.0106641
697.879	0.0108826
697.957	0.0113113
698.035	0.0117729
698.113	0.0123653
698.192	0.0132814
698.270	0.0143837
698.348	0.0157407
698.426	0.0174207
698.504	0.0191100
698.582	0.0211008
698.660	0.0232149
698.738	0.0252509
698.817	0.0272485
698.895	0.0293232
698.973	0.0308041
699.051	0.0319576
699.129	0.0327797
699.207	0.0331109
699.285	0.0329053
699.363	0.0321233
699.442	0.0311385
699.520	0.0298241
699.598	0.0281599
699.676	0.0264845
699.754	0.0246084
699.832	0.0226966
699.910	0.0208651
699.988	0.0191318
700.067	0.0174755
700.145	0.0161457
700.223	0.0147028
700.301	0.0135526
700.379	0.0125942
700.457	0.0116118
700.535	0.0109534
700.613	0.0106233
700.692	0.0101615
700.770	0.00993919
700.848	0.00981796
700.926	0.00992233
701.004	0.00990952
701.082	0.00998322
701.160	0.0102319
701.238	0.0104163
701.317	0.0105423
701.395	0.0104930
701.473	0.0108661
701.551	0.0108145
701.629	0.0107540
701.707	0.0108460
701.785	0.0108674
701.863	0.0107122
701.942	0.0108109
702.020	0.0110452
702.098	0.0111938
702.176	0.0112761
702.254	0.0115175
702.332	0.0119125
702.410	0.0123244
702.488	0.0127605
702.567	0.0131267
702.645	0.0136947
702.723	0.0142514
702.801	0.0148904
702.879	0.0154442
702.957	0.0159760
703.035	0.0165421
703.113	0.0174337
703.192	0.0181081
703.270	0.0191460
703.348	0.0199942
703.426	0.0208153
703.504	0.0216278
703.582	0.0224796
703.660	0.0234635
703.738	0.0243301
703.817	0.0247455
703.895	0.0252215
703.973	0.0254285
704.051	0.0253457
704.129	0.0252760
704.207	0.0247887
704.285	0.0239791
704.363	0.0232170
704.442	0.0222785
704.520	0.0213672
704.598	0.0203131
704.676	0.0193916
704.754	0.0184567
704.832	0.0175336
704.910	0.0168947
704.988	0.0163038
705.067	0.0159264
705.145	0.0155918
705.223	0.0154985
705.301	0.0155266
705.379	0.0156544
705.457	0.0157718
705.535	0.0159068
705.613	0.0161038
705.692	0.0162386
705.770	0.0164142
705.848	0.0166408
705.926	0.0165451
706.004	0.0163419
706.082	0.0163045
706.160	0.0160032
706.238	0.0154643
706.317	0.0150346
706.395	0.0143895
706.473	0.0139140
706.551	0.0132683
706.629	0.0125704
706.707	0.0119664
706.785	0.0114262
706.863	0.0112089
706.942	0.0109114
707.020	0.0107481
707.098	0.0108324
707.176	0.0110822
707.254	0.0114563
707.332	0.0120114
707.410	0.0124382
707.488	0.0132407
707.567	0.0140519
707.645	0.0146930
707.723	0.0154185
707.801	0.0161433
707.879	0.0170609
707.957	0.0178213
708.035	0.0184978
708.113	0.0190769
708.192	0.0197041
708.270	0.0200726
708.348	0.0202197
708.426	0.0205166
708.504	0.0204019
708.582	0.0202299
708.660	0.0201182
708.738	0.0196911
708.817	0.0191405
708.895	0.0186925
708.973	0.0180191
709.051	0.0173837
709.129	0.0167681
709.207	0.0163617
709.285	0.0157630
709.363	0.0155820
709.442	0.0152699
709.520	0.0154012
709.598	0.0155824
709.676	0.0156971
709.754	0.0161909
709.832	0.0164989
709.910	0.0171009
709.988	0.0175636
710.067	0.0182787
710.145	0.0191395
710.223	0.0194952
710.301	0.0200404
710.379	0.0205613
710.457	0.0209849
710.535	0.0210635
710.613	0.0210433
710.692	0.0211942
710.770	0.0208771
710.848	0.0206413
710.926	0.0201299
711.004	0.0195914
711.082	0.0189709
711.160	0.0183446
711.238	0.0175167
711.317	0.0166927
711.395	0.0161359
711.473	0.0154505
711.551	0.0147527
711.629	0.0141277
711.707	0.0137994
711.785	0.0133573
711.863	0.0131053
711.942	0.0130528
712.020	0.0129957
712.098	0.0130025
712.176	0.0131390
712.254	0.0135302
712.332	0.0139310
712.410	0.0141486
712.488	0.0146562
712.567	0.0152807
712.645	0.0156775
712.723	0.0159876
712.801	0.0165514
712.879	0.0169712
712.957	0.0172836
713.035	0.0176204
713.113	0.0177708
713.192	0.0178764
713.270	0.0179937
713.348	0.0176328
713.426	0.0175230
713.504	0.0171747
713.582	0.0167464
713.660	0.0162334
713.738	0.0158437
713.817	0.0153693
713.895	0.0148998
713.973	0.0146342
714.051	0.0142889
714.129	0.0139902
714.207	0.0138567
714.285	0.0137237
714.363	0.0136422
714.442	0.0138721
714.520	0.0141375
714.598	0.0145371
714.676	0.0148397
714.754	0.0155467
714.832	0.0162117
714.910	0.0168211
714.988	0.0172408
715.067	0.0179331
715.145	0.0183961
715.223	0.0191199
715.301	0.0196969
715.379	0.0199985
715.457	0.0202814
715.535	0.0207814
715.613	0.0208566
715.692	0.0206585
715.770	0.0206620
715.848	0.0204308
715.926	0.0200443
716.004	0.0196913
716.082	0.0192675
716.160	0.0185587
716.238	0.0179802
716.317	0.0175024
716.395	0.0171018
716.473	0.0165288
716.551	0.0160911
716.629	0.0157273
716.707	0.0155584
716.785	0.0153454
716.863	0.0153729
716.942	0.0152377
717.020	0.0154211
717.098	0.0154819
717.176	0.0157323
717.254	0.0159097
717.332	0.0162759
717.410	0.0166148
717.488	0.0168630
717.567	0.0172546
717.645	0.0175885
717.723	0.0179956
717.801	0.0179914
717.879	0.0182014
717.957	0.0181596
718.035	0.0181409
718.113	0.0181307
718.192	0.0179964
718.270	0.0175146
718.348	0.0171836
718.426	0.0165102
718.504	0.0163238
718.582	0.0157969
718.660	0.0151924
718.738	0.0145755
718.817	0.0142399
718.895	0.0140550
718.973	0.0136037
719.051	0.0132884
719.129	0.0131875
719.207	0.0131910
719.285	0.0131373
719.363	0.0133193
719.442	0.0134405
719.520	0.0138312
719.598	0.0138971
719.676	0.0142185
719.754	0.0146798
719.832	0.0150633
719.910	0.0153101
719.988	0.0156499
720.067	0.0162225
720.145	0.0166071
720.223	0.0170261
720.301	0.0174486
720.379	0.0175452
720.457	0.0178728
720.535	0.0181850
720.613	0.0183109
720.692	0.0184707
720.770	0.0184932
720.848	0.0183853
720.926	0.0184158
721.004	0.0183117
721.082	0.0182696
721.160	0.0179132
721.238	0.0176900
721.317	0.0177445
721.395	0.0176242
721.473	0.0173749
721.551	0.0172784
721.629	0.0173108
721.707	0.0172310
721.785	0.0170512
721.863	0.0172449
721.942	0.0173615
722.020	0.0174391
722.098	0.0174832
722.176	0.0177325
722.254	0.0176337
722.332	0.0178314
722.410	0.0179939
722.488	0.0179536
722.567	0.0180109
722.645	0.0180888
722.723	0.0183087
722.801	0.0181841
722.879	0.0182470
722.957	0.0183002
723.035	0.0180224
723.113	0.0179033
723.192	0.0176700
723.270	0.0174503
723.348	0.0171592
723.426	0.0171262
723.504	0.0167284
723.582	0.0163340
723.660	0.0159908
723.738	0.0156894
723.817	0.0152868
723.895	0.0150187
723.973	0.0149128
724.051	0.0147272
724.129	0.0145422
724.207	0.0144065
724.285	0.0143391
724.363	0.0143070
724.442	0.0141404
724.520	0.0142416
724.598	0.0143135
724.676	0.0144760
724.754	0.0146470
724.832	0.0148186
724.910	0.0150126
724.988	0.0150955
725.067	0.0150717
725.145	0.0153902
725.223	0.0158910
725.301	0.0159534
725.379	0.0162028
725.457	0.0164794
725.535	0.0166261
725.613	0.0168397
725.692	0.0170473
725.770	0.0173174
725.848	0.0173090
725.926	0.0173199
726.004	0.0175365
726.082	0.0176124
726.160	0.0177695
726.238	0.0178169
726.317	0.0177448
726.395	0.0177870
726.473	0.0176842
726.551	0.0178461
726.629	0.0178074
726.707	0.0176878
726.785	0.0175229
726.863	0.0173692
726.942	0.0172549
727.020	0.0172482
727.098	0.0167867
727.176	0.0168588
727.254	0.0167121
727.332	0.0166538
727.410	0.0167346
727.488	0.0166080
727.567	0.0165598
727.645	0.0166734
727.723	0.0168058
727.801	0.0169706
727.879	0.0171482
727.957	0.0171591
728.035	0.0172009
728.113	0.0174239
728.192	0.0173668
728.270	0.0172730
728.348	0.0173805
728.426	0.0174247
728.504	0.0173739
728.582	0.0171982
728.660	0.0169925
728.738	0.0167360
728.817	0.0166952
728.895	0.0164407
728.973	0.0163415
729.051	0.0162154
729.129	0.0160464
729.207	0.0159205
729.285	0.0158503
729.363	0.0157706
729.442	0.0155722
729.520	0.0155788
729.598	0.0157096
729.676	0.0156122
729.754	0.0155664
729.832	0.0156882
729.910	0.0158425
729.988	0.0159476
730.067	0.0160658
730.145	0.0162062
730.223	0.0162987
730.301	0.0163567
730.379	0.0165102
730.457	0.0165803
730.535	0.0166792
730.613	0.0169143
730.692	0.0168896
730.770	0.0170132
730.848	0.0171333
730.926	0.0172152
731.004	0.0173249
731.082	0.0173516
731.160	0.0173409
731.238	0.0173953
731.317	0.0173386
731.395	0.0175320
731.473	0.0174369
731.551	0.0174306
731.629	0.0175499
731.707	0.0173571
731.785	0.0173295
731.863	0.0171268
731.942	0.0170219
732.020	0.0169711
732.098	0.0167224
732.176	0.0165218
732.254	0.0164503
732.332	0.0163606
732.410	0.0163304
732.488	0.0161944
732.567	0.0162002
732.645	0.0162523
732.723	0.0162126
732.801	0.0161092
732.879	0.0163652
732.957	0.0163686
733.035	0.0163663
733.113	0.0165022
733.192	0.0166009
733.270	0.0166766
733.348	0.0167896
733.426	0.0167111
733.504	0.0167622
733.582	0.0168328
733.660	0.0167590
733.738	0.0167629
733.817	0.0165418
733.895	0.0164447
733.973	0.0163360
734.051	0.0164999
734.129	0.0163786
734.207	0.0163879
734.285	0.0161569
734.363	0.0161833
734.442	0.0161710
734.520	0.0161504
734.598	0.0161738
734.676	0.0160800
734.754	0.0161025
734.832	0.0161074
734.910	0.0161765
734.988	0.0160730
735.067	0.0160248
735.145	0.0161445
735.223	0.0163933
735.301	0.0163889
735.379	0.0164943
735.457	0.0166890
735.535	0.0167710
735.613	0.0168729
735.692	0.0170046
735.770	0.0171838
735.848	0.0173169
735.926	0.0174932
736.004	0.0174723
736.082	0.0175465
736.160	0.0177721
736.238	0.0177959
736.317	0.0178320
736.395	0.0179897
736.473	0.0179743
736.551	0.0176552
736.629	0.0178542
736.707	0.0178613
736.785	0.0176096
736.863	0.0173940
736.942	0.0174633
737.020	0.0172147
737.098	0.0170377
737.176	0.0169517
737.254	0.0167371
737.332	0.0164791
737.410	0.0165173
737.488	0.0163810
737.567	0.0162103
737.645	0.0162936
737.723	0.0162528
737.801	0.0164025
737.879	0.0162533
737.957	0.0164010
738.035	0.0164260
738.113	0.0164436
738.192	0.0165160
738.270	0.0164439
738.348	0.0166156
738.426	0.0165552
738.504	0.0165849
738.582	0.0166129
738.660	0.0166640
738.738	0.0165634
738.817	0.0166963
738.895	0.0167091
738.973	0.0166993
739.051	0.0166378
739.129	0.0167423
739.207	0.0165170
739.285	0.0163774
739.363	0.0164501
739.442	0.0164491
739.520	0.0162377
739.598	0.0161175
739.676	0.0160342
739.754	0.0157868
739.832	0.0157446
739.910	0.0157499
739.988	0.0156178
740.067	0.0157410
740.145	0.0156226
740.223	0.0156400
740.301	0.0157687
740.379	0.0156490
740.457	0.0157333
740.535	0.0159732
740.613	0.0159624
740.692	0.0162075
740.770	0.0163779
740.848	0.0166946
740.926	0.0167467
741.004	0.0168502
741.082	0.0169369
741.160	0.0173143
741.238	0.0174545
741.317	0.0173568
741.395	0.0174766
741.473	0.0175920
741.551	0.0177975
741.629	0.0178709
741.707	0.0177061
741.785	0.0179163
741.863	0.0178175
741.942	0.0177117
742.020	0.0177346
742.098	0.0176574
742.176	0.0174986
742.254	0.0174763
742.332	0.0172562
742.410	0.0171667
742.488	0.0171360
742.567	0.0169377
742.645	0.0169081
742.723	0.0167032
742.801	0.0166511
742.879	0.0166953
742.957	0.0165903
743.035	0.0165491
743.113	0.0166182
743.192	0.0165015
743.270	0.0165442
743.348	0.0166250
743.426	0.0166541
743.504	0.0164624
743.582	0.0165016
743.660	0.0166589
743.738	0.0166790
743.817	0.0165570
743.895	0.0166022
743.973	0.0165028
744.051	0.0164002
744.129	0.0164276
744.207	0.0163994
744.285	0.0161546
744.363	0.0161668
744.442	0.0160993
744.520	0.0160800
744.598	0.0159589
744.676	0.0159638
744.754	0.0160190
744.832	0.0160848
744.910	0.0158238
744.988	0.0157355
745.067	0.0159258
745.145	0.0158598
745.223	0.0159556
745.301	0.0160426
745.379	0.0159638
745.457	0.0160483
745.535	0.0160728
745.613	0.0161916
745.692	0.0160982
745.770	0.0163075
745.848	0.0163158
745.926	0.0164026
746.004	0.0164319
746.082	0.0166244
746.160	0.0167311
746.238	0.0167774
746.317	0.0168293
746.395	0.0169521
746.473	0.0170847
746.551	0.0170459
746.629	0.0171395
746.707	0.0172286
746.785	0.0172741
746.863	0.0172573
746.942	0.0172052
747.020	0.0172891
747.098	0.0174375
747.176	0.0172482
747.254	0.0172861
747.332	0.0173592
747.410	0.0172141
747.488	0.0170867
747.567	0.0170681
747.645	0.0169226
747.723	0.0169991
747.801	0.0168468
747.879	0.0166809
747.957	0.0166797
748.035	0.0166412
748.113	0.0164261
748.192	0.0163059
748.270	0.0163596
748.348	0.0163615
748.426	0.0162712
748.504	0.0162858
748.582	0.0161771
748.660	0.0162213
748.738	0.0163107
748.817	0.0162624
748.895	0.0162479
748.973	0.0163535
749.051	0.0164633
749.129	0.0164189
749.207	0.0166342
749.285	0.0165189
749.363	0.0167806
749.442	0.0166935
749.520	0.0167131
749.598	0.0168243
749.676	0.0167857
749.754	0.0167488
749.832	0.0167790
749.910	0.0169014
749.988	0.0167129
750.067	0.0165915
750.145	0.0166946
750.223	0.0165983
750.301	0.0164900
750.379	0.0163979
750.457	0.0161409
750.535	0.0162072
750.613	0.0163614
750.692	0.0162337
750.770	0.0162358
750.848	0.0162119
750.926	0.0161700
751.004	0.0161064
751.082	0.0164307
751.160	0.0164206
751.238	0.0165167
751.317	0.0163954
751.395	0.0165761
751.473	0.0167107
751.551	0.0169385
751.629	0.0169298
751.707	0.0170104
751.785	0.0171095
751.863	0.0171352
751.942	0.0173477
752.020	0.0172630
752.098	0.0173021
752.176	0.0173470
752.254	0.0173028
752.332	0.0171788
752.410	0.0172009
752.488	0.0170204
752.567	0.0170407
752.645	0.0168851
752.723	0.0169096
752.801	0.0167723
752.879	0.0167401
752.957	0.0165731
753.035	0.0166296
753.113	0.0165590
753.192	0.0165911
753.270	0.0164478
753.348	0.0165788
753.426	0.0164410
753.504	0.0164367
753.582	0.0162647
753.660	0.0163332
753.738	0.0162936
753.817	0.0164287
753.895	0.0162128
753.973	0.0162071
754.051	0.0163491
754.129	0.0163187
754.207	0.0162326
754.285	0.0163957
754.363	0.0163464
754.442	0.0164697
754.520	0.0164682
754.598	0.0163651
754.676	0.0163639
754.754	0.0166835
754.832	0.0166080
754.910	0.0164989
754.988	0.0164608
755.067	0.0165298
755.145	0.0164994
755.223	0.0163496
755.301	0.0165079
755.379	0.0165138
755.457	0.0164577
755.535	0.0164776
755.613	0.0164906
755.692	0.0164384
755.770	0.0164597
755.848	0.0165600
755.926	0.0166192
756.004	0.0166368
756.082	0.0166504
756.160	0.0166577
756.238	0.0168186
756.317	0.0167586
756.395	0.0168977
756.473	0.0170133
756.551	0.0171140
756.629	0.0170472
756.707	0.0170221
756.785	0.0172136
756.863	0.0172146
756.942	0.0173065
757.020	0.0173032
757.098	0.0172594
757.176	0.0175703
757.254	0.0174800
757.332	0.0174543
757.410	0.0172920
757.488	0.0174122
757.567	0.0175030
757.645	0.0173531
757.723	0.0174061
757.801	0.0172333
757.879	0.0172847
757.957	0.0171167
758.035	0.0171314
758.113	0.0169842
758.192	0.0169019
758.270	0.0167946
758.348	0.0166198
758.426	0.0165749
758.504	0.0164483
758.582	0.0163865
758.660	0.0162656
758.738	0.0162920
758.817	0.0160081
758.895	0.0159141
758.973	0.0159971
759.051	0.0159605
759.129	0.0159145
759.207	0.0159251
759.285	0.0158595
759.363	0.0158042
759.442	0.0158533
759.520	0.0157322
759.598	0.0158303
759.676	0.0158244
759.754	0.0160239
759.832	0.0161436
759.910	0.0161263
759.988	0.0162925
760.067	0.0163503
760.145	0.0163062
760.223	0.0164271
760.301	0.0165234
760.379	0.0164443
760.457	0.0164188
760.535	0.0166874
760.613	0.0164649
760.692	0.0165486
760.770	0.0168159
760.848	0.0166689
760.926	0.0166502
761.004	0.0166946
761.082	0.0166904
761.160	0.0167462
761.238	0.0167462
761.317	0.0168940
761.395	0.0169051
761.473	0.0169692
761.551	0.0168799
761.629	0.0170592
761.707	0.0170627
761.785	0.0170862
761.863	0.0171056
761.942	0.0173439
762.020	0.0171383
762.098	0.0171906
762.176	0.0173380
762.254	0.0171821
762.332	0.0172070
762.410	0.0171689
762.488	0.0172161
762.567	0.0172329
762.645	0.0171833
762.723	0.0170979
762.801	0.0171348
762.879	0.0169480
762.957	0.0169502
763.035	0.0168851
763.113	0.0168253
763.192	0.0167319
763.270	0.0169519
763.348	0.0167894
763.426	0.0167329
763.504	0.0167357
763.582	0.0166019
763.660	0.0163999
763.738	0.0162833
763.817	0.0164741
763.895	0.0164211
763.973	0.0164040
764.051	0.0162755
764.129	0.0161530
764.207	0.0162634
764.285	0.0160593
764.363	0.0163133
764.442	0.0162041
764.520	0.0160207
764.598	0.0160907
764.676	0.0161253
764.754	0.0161298
764.832	0.0162581
764.910	0.0164291
764.988	0.0162338
765.067	0.0163586
765.145	0.0164410
765.223	0.0163612
765.301	0.0163696
765.379	0.0166228
765.457	0.0165473
765.535	0.0167372
765.613	0.0167237
765.692	0.0167441
765.770	0.0165862
765.848	0.0166309
765.926	0.0166984
766.004	0.0166280
766.082	0.0167101
766.160	0.0166076
766.238	0.0167777
766.317	0.0166403
766.395	0.0167580
766.473	0.0166712
766.551	0.0167958
766.629	0.0168950
766.707	0.0169330
766.785	0.0168903
766.863	0.0168450
766.942	0.0169074
767.020	0.0171812
767.098	0.0171210
767.176	0.0169579
767.254	0.0171487
767.332	0.0171971
767.410	0.0169570
767.488	0.0170546
767.567	0.0171298
767.645	0.0171149
767.723	0.0169308
767.801	0.0169427
767.879	0.0169289
767.957	0.0168806
768.035	0.0169186
768.113	0.0168681
768.192	0.0168388
768.270	0.0170085
768.348	0.0168361
768.426	0.0169289
768.504	0.0169767
768.582	0.0168919
768.660	0.0169615
768.738	0.0167216
768.817	0.0168002
768.895	0.0168182
768.973	0.0166139
769.051	0.0165265
769.129	0.0164604
769.207	0.0165674
769.285	0.0164687
769.363	0.0161641
769.442	0.0162609
769.520	0.0161537
769.598	0.0161671
769.676	0.0163090
769.754	0.0161533
769.832	0.0159365
769.910	0.0160692
769.988	0.0161852
770.067	0.0160131
770.145	0.0161758
770.223	0.0161871
770.301	0.0162679
770.379	0.0163725
770.457	0.0163559
770.535	0.0162402
770.613	0.0163230
770.692	0.0165357
770.770	0.0165824
770.848	0.0165407
770.926	0.0166193
771.004	0.0166810
771.082	0.0167265
771.160	0.0169196
771.238	0.0168671
771.317	0.0168280
771.395	0.0167779
771.473	0.0169093
771.551	0.0170229
771.629	0.0169341
771.707	0.0168710
771.785	0.0170741
771.863	0.0171030
771.942	0.0171118
772.020	0.0170300
772.098	0.0170499
772.176	0.0171142
772.254	0.0171546
772.332	0.0170434
772.410	0.0169994
772.488	0.0170567
772.567	0.0169559
772.645	0.0170172
772.723	0.0169219
772.801	0.0168865
772.879	0.0169512
772.957	0.0168558
773.035	0.0168365
773.113	0.0168429
773.192	0.0168846
773.270	0.0167457
773.348	0.0166924
773.426	0.0167809
773.504	0.0167993
773.582	0.0166650
773.660	0.0167652
773.738	0.0167490
773.817	0.0166551
773.895	0.0166074
773.973	0.0166470
774.051	0.0165694
774.129	0.0166129
774.207	0.0166193
774.285	0.0165277
774.363	0.0165729
774.442	0.0165132
774.520	0.0165714
774.598	0.0164776
774.676	0.0164948
774.754	0.0165025
774.832	0.0164769
774.910	0.0165826
774.988	0.0165181
775.067	0.0163667
775.145	0.0163355
775.223	0.0164813
775.301	0.0163436
775.379	0.0163372
775.457	0.0163162
775.535	0.0163025
775.613	0.0163960
775.692	0.0163180
775.770	0.0162033
775.848	0.0163741
775.926	0.0162805
776.004	0.0163176
776.082	0.0164317
776.160	0.0165208
776.238	0.0165903
776.317	0.0166819
776.395	0.0167003
776.473	0.0166805
776.551	0.0167954
776.629	0.0167496
776.707	0.0167524
776.785	0.0168092
776.863	0.0169363
776.942	0.0170045
777.020	0.0169334
777.098	0.0168590
777.176	0.0170059
777.254	0.0169782
777.332	0.0171244
777.410	0.0170050
777.488	0.0169485
777.567	0.0170819
777.645	0.0170270
777.723	0.0168278
777.801	0.0169604
777.879	0.0169022
777.957	0.0170049
778.035	0.0170211
778.113	0.0169342
778.192	0.0169164
778.270	0.0171178
778.348	0.0171103
778.426	0.0170549
778.504	0.0171117
778.582	0.0170898
778.660	0.0171305
778.738	0.0170217
778.817	0.0170396
778.895	0.0171189
778.973	0.0170392
779.051	0.0169189
779.129	0.0167535
779.207	0.0168700
779.285	0.0167859
779.363	0.0167381
779.442	0.0165859
779.520	0.0165186
779.598	0.0164944
779.676	0.0163752
779.754	0.0160296
779.832	0.0160870
779.910	0.0161550
779.988	0.0160888
780.067	0.0160275
780.145	0.0160578
780.223	0.0160471
780.301	0.0159475
780.379	0.0159283
780.457	0.0158157
780.535	0.0158535
780.613	0.0159510
780.692	0.0159732
780.770	0.0160143
780.848	0.0160566
780.926	0.0159888
781.004	0.0161051
781.082	0.0162389
781.160	0.0164710
781.238	0.0165454
781.317	0.0166497
781.395	0.0166711
781.473	0.0167654
781.551	0.0168689
781.629	0.0170018
781.707	0.0171619
781.785	0.0172254
781.863	0.0173560
781.942	0.0172356
782.020	0.0172979
782.098	0.0173717
782.176	0.0173974
782.254	0.0174634
782.332	0.0175382
782.410	0.0175118
782.488	0.0175831
782.567	0.0174818
782.645	0.0175997
782.723	0.0173818
782.801	0.0173421
782.879	0.0174765
782.957	0.0173352
783.035	0.0171853
783.113	0.0171320
783.192	0.0170790
783.270	0.0170618
783.348	0.0169952
783.426	0.0168314
783.504	0.0168515
783.582	0.0166801
783.660	0.0167314
783.738	0.0165318
783.817	0.0164158
783.895	0.0162795
783.973	0.0161534
784.051	0.0160663
784.129	0.0159713
784.207	0.0160349
784.285	0.0158508
784.363	0.0156458
784.442	0.0156327
784.520	0.0157343
784.598	0.0154610
784.676	0.0153789
784.754	0.0154710
784.832	0.0154878
784.910	0.0154980
784.988	0.0155470
785.067	0.0156030
785.145	0.0157798
785.223	0.0159550
785.301	0.0161798
785.379	0.0161612
785.457	0.0165575
785.535	0.0166924
785.613	0.0168298
785.692	0.0171459
785.770	0.0173915
785.848	0.0176506
785.926	0.0178587
786.004	0.0180413
786.082	0.0179645
786.160	0.0180877
786.238	0.0181982
786.317	0.0181906
786.395	0.0181580
786.473	0.0180281
786.551	0.0180624
786.629	0.0178651
786.707	0.0178129
786.785	0.0177502
786.863	0.0173619
786.942	0.0173769
787.020	0.0170399
787.098	0.0169639
787.176	0.0169223
787.254	0.0168327
787.332	0.0168564
787.410	0.0167037
787.488	0.0165709
787.567	0.0165414
787.645	0.0164132
787.723	0.0164926
787.801	0.0162964
787.879	0.0162325
787.957	0.0161996
788.035	0.0160081
788.113	0.0160495
788.192	0.0158708
788.270	0.0159290
788.348	0.0158952
788.426	0.0158325
788.504	0.0157179
788.582	0.0157351
788.660	0.0157683
788.738	0.0156371
788.817	0.0156954
788.895	0.0157586
788.973	0.0158601
789.051	0.0157925
789.129	0.0158320
789.207	0.0158803
789.285	0.0158314
789.363	0.0160231
789.442	0.0160432
789.520	0.0162390
789.598	0.0162722
789.676	0.0163191
789.754	0.0163824
789.832	0.0164599
789.910	0.0166037
789.988	0.0168887
790.067	0.0169655
790.145	0.0171235
790.223	0.0173286
790.301	0.0174103
790.379	0.0177087
790.457	0.0177029
790.535	0.0178094
790.613	0.0178909
790.692	0.0180599
790.770	0.0179568
790.848	0.0180701
790.926	0.0182520
791.004	0.0181111
791.082	0.0181578
791.160	0.0180145
791.238	0.0179295
791.317	0.0177704
791.395	0.0176462
791.473	0.0176237
791.551	0.0174151
791.629	0.0173001
791.707	0.0173029
791.785	0.0170632
791.863	0.0167696
791.942	0.0167254
792.020	0.0165750
792.098	0.0165132
792.176	0.0163396
792.254	0.0162146
792.332	0.0162012
792.410	0.0161388
792.488	0.0160666
792.567	0.0160250
792.645	0.0160115
792.723	0.0159985
792.801	0.0159766
792.879	0.0159823
792.957	0.0158887
793.035	0.0158725
793.113	0.0156993
793.192	0.0157012
793.270	0.0156981
793.348	0.0156388
793.426	0.0156663
793.504	0.0157725
793.582	0.0156571
793.660	0.0156252
793.738	0.0157348
793.817	0.0155496
793.895	0.0157999
793.973	0.0158311
794.051	0.0156652
794.129	0.0156702
794.207	0.0156310
794.285	0.0159313
794.363	0.0160480
794.442	0.0160375
794.520	0.0161162
794.598	0.0161590
794.676	0.0164235
794.754	0.0165767
794.832	0.0167154
794.910	0.0169154
794.988	0.0171204
795.067	0.0174223
795.145	0.0176295
795.223	0.0178065
795.301	0.0180318
795.379	0.0181978
795.457	0.0181640
795.535	0.0183743
795.613	0.0182947
795.692	0.0181508
795.770	0.0182519
795.848	0.0182398
795.926	0.0181717
796.004	0.0180274
796.082	0.0179368
796.160	0.0177441
796.238	0.0176682
796.317	0.0174747
796.395	0.0173985
796.473	0.0172354
796.551	0.0171112
796.629	0.0170808
796.707	0.0169206
796.785	0.0168305
796.863	0.0166659
796.942	0.0165350
797.020	0.0166366
797.098	0.0165804
797.176	0.0164139
797.254	0.0162970
797.332	0.0162511
797.410	0.0161356
797.488	0.0162546
797.567	0.0162777
797.645	0.0161803
797.723	0.0160670
797.801	0.0160731
797.879	0.0159849
797.957	0.0159197
798.035	0.0158096
798.113	0.0158542
798.192	0.0156710
798.270	0.0158366
798.348	0.0158267
798.426	0.0157086
798.504	0.0157155
798.582	0.0155962
798.660	0.0157074
798.738	0.0156609
798.817	0.0157809
798.895	0.0157185
798.973	0.0158295
799.051	0.0159187
799.129	0.0159467
799.207	0.0159515
799.285	0.0161594
799.363	0.0162577
799.442	0.0161790
799.520	0.0164865
799.598	0.0165167
799.676	0.0166051
799.754	0.0167368
799.832	0.0168134
799.910	0.0168298
799.988	0.0169804
800.067	0.0171384
800.145	0.0172138
800.223	0.0174364
800.301	0.0171542
800.379	0.0174020
800.457	0.0173363
800.535	0.0172807
800.613	0.0172290
800.692	0.0172569
800.770	0.0172306
800.848	0.0172427
800.926	0.0169938
801.004	0.0171253
801.082	0.0171180
801.160	0.0170167
801.238	0.0169945
801.317	0.0169652
801.395	0.0169186
801.473	0.0170820
801.551	0.0171056
801.629	0.0171550
801.707	0.0172990
801.785	0.0172069
801.863	0.0172863
801.942	0.0172112
802.020	0.0172239
802.098	0.0173825
802.176	0.0173223
802.254	0.0172324
802.332	0.0172040
802.410	0.0173208
802.488	0.0172518
802.567	0.0170307
802.645	0.0170916
802.723	0.0169215
802.801	0.0169035
802.879	0.0166885
802.957	0.0166764
803.035	0.0166692
803.113	0.0164677
803.192	0.0161906
803.270	0.0161699
803.348	0.0161637
803.426	0.0159729
803.504	0.0159702
803.582	0.0157790
803.660	0.0158279
803.738	0.0158807
803.817	0.0157465
803.895	0.0158537
803.973	0.0157635
804.051	0.0159441
804.129	0.0160577
804.207	0.0159736
804.285	0.0161747
804.363	0.0160921
804.442	0.0162513
804.520	0.0163620
804.598	0.0163303
804.676	0.0162834
804.754	0.0164629
804.832	0.0164139
804.910	0.0163264
804.988	0.0163897
805.067	0.0162537
805.145	0.0164127
805.223	0.0163216
805.301	0.0162717
805.379	0.0163230
805.457	0.0164037
805.535	0.0162931
805.613	0.0162711
805.692	0.0164456
805.770	0.0165536
805.848	0.0167391
805.926	0.0166385
806.004	0.0167654
806.082	0.0166989
806.160	0.0170032
806.238	0.0172269
806.317	0.0172243
806.395	0.0173673
806.473	0.0175395
806.551	0.0174694
806.629	0.0175559
806.707	0.0175488
806.785	0.0175710
806.863	0.0175507
806.942	0.0176508
807.020	0.0176192
807.098	0.0176697
807.176	0.0176461
807.254	0.0175626
807.332	0.0176358
807.410	0.0175751
807.488	0.0175625
807.567	0.0175745
807.645	0.0174258
807.723	0.0174913
807.801	0.0173003
807.879	0.0172141
807.957	0.0171489
808.035	0.0170640
808.113	0.0170784
808.192	0.0168122
808.270	0.0167706
808.348	0.0165887
808.426	0.0167542
808.504	0.0165377
808.582	0.0164653
808.660	0.0162327
808.738	0.0162659
808.817	0.0161900
808.895	0.0161495
808.973	0.0161809
809.051	0.0159695
809.129	0.0159879
809.207	0.0160210
809.285	0.0159116
809.363	0.0158543
809.442	0.0159451
809.520	0.0158961
809.598	0.0159395
809.676	0.0159634
809.754	0.0159792
809.832	0.0159956
809.910	0.0158694
809.988	0.0159440
810.067	0.0159901
810.145	0.0160072
810.223	0.0160275
810.301	0.0161889
810.379	0.0160815
810.457	0.0161912
810.535	0.0162255
810.613	0.0162684
810.692	0.0163932
810.770	0.0164796
810.848	0.0164983
810.926	0.0165732
811.004	0.0167509
811.082	0.0168579
811.160	0.0168200
811.238	0.0169430
811.317	0.0171565
811.395	0.0171362
811.473	0.0172311
811.551	0.0173124
811.629	0.0173999
811.707	0.0173312
811.785	0.0173642
811.863	0.0173660
811.942	0.0174239
812.020	0.0175339
812.098	0.0175979
812.176	0.0174121
812.254	0.0175034
812.332	0.0174494
812.410	0.0174711
812.488	0.0174097
812.567	0.0173222
812.645	0.0173528
812.723	0.0173194
812.801	0.0173077
812.879	0.0170787
812.957	0.0171803
813.035	0.0170316
813.113	0.0170932
813.192	0.0170099
813.270	0.0168172
813.348	0.0169098
813.426	0.0167612
813.504	0.0167435
813.582	0.0167358
813.660	0.0166650
813.738	0.0165569
813.817	0.0165639
813.895	0.0164516
813.973	0.0164088
814.051	0.0165022
814.129	0.0164388
814.207	0.0163857
814.285	0.0163118
814.363	0.0162221
814.442	0.0162167
814.520	0.0161193
814.598	0.0163115
814.676	0.0161713
814.754	0.0160724
814.832	0.0160638
814.910	0.0159985
814.988	0.0160191
815.067	0.0160168
815.145	0.0161166
815.223	0.0159480
815.301	0.0158291
815.379	0.0161673
815.457	0.0161398
815.535	0.0161246
815.613	0.0161621
815.692	0.0162389
815.770	0.0161685
815.848	0.0162321
815.926	0.0163726
816.004	0.0163601
816.082	0.0164471
816.160	0.0164100
816.238	0.0166164
816.317	0.0165078
816.395	0.0165337
816.473	0.0167384
816.551	0.0168340
816.629	0.0167412
816.707	0.0167262
816.785	0.0169830
816.863	0.0170528
816.942	0.0169685
817.020	0.0171735
817.098	0.0171815
817.176	0.0170719
817.254	0.0172855
817.332	0.0173385
817.410	0.0173412
817.488	0.0173013
817.567	0.0173010
817.645	0.0172721
817.723	0.0173365
817.801	0.0172115
817.879	0.0172233
817.957	0.0173578
818.035	0.0170481
818.113	0.0169932
818.192	0.0170723
818.270	0.0171364
818.348	0.0170081
818.426	0.0168436
818.504	0.0167976
818.582	0.0167889
818.660	0.0168148
818.738	0.0167673
818.817	0.0167616
818.895	0.0166911
818.973	0.0166065
819.051	0.0165629
819.129	0.0164813
819.207	0.0166042
819.285	0.0166304
819.363	0.0166128
819.442	0.0165813
819.520	0.0164857
819.598	0.0164438
819.676	0.0162754
819.754	0.0163804
819.832	0.0164735
819.910	0.0163933
819.988	0.0162011
820.067	0.0162140
820.145	0.0162830
820.223	0.0162725
820.301	0.0161958
820.379	0.0161117
820.457	0.0161361
820.535	0.0160564
820.613	0.0160938
820.692	0.0160342
820.770	0.0161778
820.848	0.0161456
820.926	0.0163215
821.004	0.0161843
821.082	0.0162145
821.160	0.0162682
821.238	0.0163313
821.317	0.0164041
821.395	0.0163561
821.473	0.0164240
821.551	0.0163586
821.629	0.0165027
821.707	0.0165414
821.785	0.0166082
821.863	0.0165365
821.942	0.0166350
822.020	0.0167347
822.098	0.0167492
822.176	0.0167038
822.254	0.0168153
822.332	0.0169090
822.410	0.0168732
822.488	0.0170272
822.567	0.0168378
822.645	0.0169624
822.723	0.0170441
822.801	0.0169740
822.879	0.0170415
822.957	0.0170031
823.035	0.0168340
823.113	0.0170358
823.192	0.0169559
823.270	0.0169350
823.348	0.0168404
823.426	0.0168789
823.504	0.0167724
823.582	0.0167825
823.660	0.0166337
823.738	0.0165556
823.817	0.0165469
823.895	0.0165106
823.973	0.0167075
824.051	0.0165437
824.129	0.0166462
824.207	0.0164447
824.285	0.0165371
824.363	0.0166222
824.442	0.0166489
824.520	0.0166117
824.598	0.0166081
824.676	0.0166400
824.754	0.0166425
824.832	0.0166525
824.910	0.0166792
824.988	0.0167315
825.067	0.0167057
825.145	0.0166743
825.223	0.0166906
825.301	0.0166387
825.379	0.0166257
825.457	0.0165564
825.535	0.0165541
825.613	0.0164632
825.692	0.0164553
825.770	0.0165417
825.848	0.0164657
825.926	0.0163077
826.004	0.0163605
826.082	0.0164240
826.160	0.0163465
826.238	0.0163866
826.317	0.0163289
826.395	0.0162404
826.473	0.0163342
826.551	0.0163884
826.629	0.0163945
826.707	0.0165636
826.785	0.0164428
826.863	0.0166405
826.942	0.0166424
827.020	0.0166584
827.098	0.0167509
827.176	0.0168391
827.254	0.0169218
827.332	0.0168545
827.410	0.0167854
827.488	0.0169205
827.567	0.0169074
827.645	0.0169013
827.723	0.0169486
827.801	0.0168804
827.879	0.0169015
827.957	0.0169424
828.035	0.0167834
828.113	0.0167457
828.192	0.0168050
828.270	0.0169640
828.348	0.0167227
828.426	0.0167753
828.504	0.0168237
828.582	0.0168932
828.660	0.0167461
828.738	0.0167622
828.817	0.0167965
828.895	0.0167601
828.973	0.0167931
829.051	0.0166409
829.129	0.0167471
829.207	0.0166348
829.285	0.0167905
829.363	0.0166431
829.442	0.0165822
829.520	0.0165507
829.598	0.0165786
829.676	0.0165531
829.754	0.0164648
829.832	0.0164750
829.910	0.0163371
829.988	0.0163367
830.067	0.0162462
830.145	0.0163795
830.223	0.0162564
830.301	0.0162454
830.379	0.0161545
830.457	0.0159985
830.535	0.0161437
830.613	0.0162923
830.692	0.0161840
830.770	0.0161801
830.848	0.0162004
830.926	0.0163714
831.004	0.0162502
831.082	0.0162608
831.160	0.0164590
831.238	0.0165176
831.317	0.0165845
831.395	0.0165843
831.473	0.0167857
831.551	0.0168079
831.629	0.0169363
831.707	0.0170146
831.785	0.0170137
831.863	0.0169858
831.942	0.0172316
832.020	0.0173273
832.098	0.0172778
832.176	0.0173037
832.254	0.0174100
832.332	0.0174695
832.410	0.0174685
832.488	0.0174426
832.567	0.0173055
832.645	0.0173557
832.723	0.0172798
832.801	0.0172552
832.879	0.0172306
832.957	0.0172928
833.035	0.0169730
833.113	0.0170300
833.192	0.0170753
833.270	0.0169321
833.348	0.0168893
833.426	0.0168074
833.504	0.0166505
833.582	0.0168243
833.660	0.0166803
833.738	0.0165709
833.817	0.0165865
833.895	0.0165550
833.973	0.0164967
834.051	0.0166756
834.129	0.0164059
834.207	0.0161965
834.285	0.0164233
834.363	0.0163994
834.442	0.0163358
834.520	0.0163300
834.598	0.0161576
834.676	0.0162677
834.754	0.0161269
834.832	0.0160500
834.910	0.0161905
834.988	0.0162243
835.067	0.0162270
835.145	0.0160638
835.223	0.0160851
835.301	0.0162037
835.379	0.0161932
835.457	0.0161738
835.535	0.0163217
835.613	0.0162598
835.692	0.0163454
835.770	0.0165620
835.848	0.0164193
835.926	0.0164140
836.004	0.0164635
836.082	0.0166554
836.160	0.0165974
836.238	0.0168611
836.317	0.0168185
836.395	0.0168498
836.473	0.0168806
836.551	0.0169938
836.629	0.0169219
836.707	0.0170532
836.785	0.0170398
836.863	0.0169332
836.942	0.0170594
837.020	0.0170753
837.098	0.0170708
837.176	0.0171151
837.254	0.0170595
837.332	0.0170717
837.410	0.0171427
837.488	0.0172009
837.567	0.0170056
837.645	0.0170707
837.723	0.0171743
837.801	0.0170432
837.879	0.0170215
837.957	0.0168932
838.035	0.0168880
838.113	0.0169236
838.192	0.0169167
838.270	0.0169400
838.348	0.0169825
838.426	0.0168501
838.504	0.0167857
838.582	0.0167969
838.660	0.0166320
838.738	0.0167136
838.817	0.0166769
838.895	0.0166409
838.973	0.0166310
839.051	0.0165053
839.129	0.0165179
839.207	0.0166196
839.285	0.0164410
839.363	0.0165379
839.442	0.0164125
839.520	0.0164299
839.598	0.0163044
839.676	0.0164068
839.754	0.0163453
839.832	0.0163548
839.910	0.0164165
839.988	0.0163112
840.067	0.0162663
840.145	0.0161387
840.223	0.0163347
840.301	0.0163611
840.379	0.0163925
840.457	0.0163387
840.535	0.0163633
840.613	0.0163314
840.692	0.0163493
840.770	0.0164890
840.848	0.0164494
840.926	0.0162144
841.004	0.0164652
841.082	0.0164842
841.160	0.0165842
841.238	0.0166956
841.317	0.0166419
841.395	0.0166662
841.473	0.0166261
841.551	0.0166001
841.629	0.0165224
841.707	0.0166379
841.785	0.0166518
841.863	0.0166974
841.942	0.0167102
842.020	0.0166140
842.098	0.0167646
842.176	0.0168302
842.254	0.0168436
842.332	0.0167434
842.410	0.0167468
842.488	0.0169031
842.567	0.0167735
842.645	0.0168240
842.723	0.0168528
842.801	0.0167500
842.879	0.0167139
842.957	0.0168694
843.035	0.0167548
843.113	0.0168015
843.192	0.0168771
843.270	0.0168145
843.348	0.0166604
843.426	0.0166576
843.504	0.0166461
843.582	0.0168056
843.660	0.0167018
843.738	0.0166903
843.817	0.0165821
843.895	0.0167266
843.973	0.0165966
844.051	0.0165737
844.129	0.0165903
844.207	0.0164662
844.285	0.0165503
844.363	0.0164977
844.442	0.0163924
844.520	0.0166041
844.598	0.0165435
844.676	0.0163241
844.754	0.0165823
844.832	0.0164354
844.910	0.0163576
844.988	0.0164860
845.067	0.0165406
845.145	0.0163885
845.223	0.0165169
845.301	0.0163621
845.379	0.0164363
845.457	0.0165314
845.535	0.0164832
845.613	0.0164532
845.692	0.0165582
845.770	0.0165630
845.848	0.0165083
845.926	0.0165516
846.004	0.0166296
846.082	0.0167222
846.160	0.0165514
846.238	0.0166795
846.317	0.0166799
846.395	0.0165893
846.473	0.0166481
846.551	0.0166467
846.629	0.0167020
846.707	0.0166483
846.785	0.0166047
846.863	0.0166615
846.942	0.0166492
847.020	0.0166028
847.098	0.0166208
847.176	0.0166511
847.254	0.0165670
847.332	0.0165688
847.410	0.0165507
847.488	0.0165942
847.567	0.0166505
847.645	0.0165677
847.723	0.0166510
847.801	0.0166744
847.879	0.0167391
847.957	0.0165637
848.035	0.0164828
848.113	0.0168094
848.192	0.0167791
848.270	0.0168744
848.348	0.0167374
848.426	0.0167652
848.504	0.0169034
848.582	0.0168396
848.660	0.0169093
848.738	0.0169598
848.817	0.0168842
848.895	0.0167885
848.973	0.0166869
849.051	0.0167742
849.129	0.0167875
849.207	0.0166953
849.285	0.0166119
849.363	0.0165151
849.442	0.0166161
849.520	0.0164387
849.598	0.0166301
849.676	0.0166071
849.754	0.0165044
849.832	0.0165495
849.910	0.0166878
849.988	0.0166011
850.067	0.0166694
850.145	0.0165914
850.223	0.0165044
850.301	0.0166331
850.379	0.0167401
850.457	0.0167571
850.535	0.0167645
850.613	0.0167916
850.692	0.0166972
850.770	0.0165573
850.848	0.0165182
850.926	0.0167173
851.004	0.0165620
851.082	0.0164874
851.160	0.0166553
851.238	0.0166956
851.317	0.0164938
851.395	0.0164651
851.473	0.0163967
851.551	0.0164611
851.629	0.0163865
851.707	0.0163706
851.785	0.0165318
851.863	0.0164330
851.942	0.0164329
852.020	0.0164983
852.098	0.0164198
852.176	0.0165327
852.254	0.0165069
852.332	0.0164893
852.410	0.0166959
852.488	0.0167291
852.567	0.0166153
852.645	0.0166319
852.723	0.0167800
852.801	0.0168405
852.879	0.0167403
852.957	0.0168208
853.035	0.0168683
853.113	0.0168343
853.192	0.0168517
853.270	0.0168719
853.348	0.0168784
853.426	0.0167887
853.504	0.0168636
853.582	0.0169559
853.660	0.0169254
853.738	0.0168146
853.817	0.0168121
853.895	0.0168086
853.973	0.0168709
854.051	0.0168524
854.129	0.0168783
854.207	0.0167959
854.285	0.0168542
854.363	0.0168590
854.442	0.0167155
854.520	0.0167818
854.598	0.0168419
854.676	0.0167049
854.754	0.0167751
854.832	0.0168494
854.910	0.0168029
854.988	0.0167976
855.067	0.0165903
855.145	0.0167273
855.223	0.0166705
855.301	0.0167934
855.379	0.0166672
855.457	0.0165621
855.535	0.0166253
855.613	0.0167248
855.692	0.0165770
855.770	0.0166206
855.848	0.0165739
855.926	0.0166480
856.004	0.0165775
856.082	0.0164890
856.160	0.0164958
856.238	0.0164912
856.317	0.0165017
856.395	0.0164889
856.473	0.0165061
856.551	0.0164603
856.629	0.0164165
856.707	0.0163129
856.785	0.0164826
856.863	0.0165192
856.942	0.0166352
857.020	0.0166385
857.098	0.0166523
857.176	0.0166067
857.254	0.0165760
857.332	0.0165601
857.410	0.0165629
857.488	0.0165734
857.567	0.0165592
857.645	0.0165821
857.723	0.0166026
857.801	0.0166100
857.879	0.0165907
857.957	0.0166436
858.035	0.0165356
858.113	0.0165852
858.192	0.0166631
858.270	0.0165914
858.348	0.0164789
858.426	0.0166206
858.504	0.0166259
858.582	0.0165900
858.660	0.0166797
858.738	0.0164997
858.817	0.0165176
858.895	0.0166349
858.973	0.0166422
859.051	0.0166344
859.129	0.0165643
859.207	0.0166628
859.285	0.0166061
859.363	0.0164809
859.442	0.0167178
859.520	0.0166426
859.598	0.0167036
859.676	0.0167133
859.754	0.0166753
859.832	0.0166577
859.910	0.0167377
859.988	0.0168492
860.067	0.0169347
860.145	0.0169509
860.223	0.0170277
860.301	0.0170226
860.379	0.0168901
860.457	0.0168291
860.535	0.0169421
860.613	0.0170525
860.692	0.0169785
860.770	0.0168960
860.848	0.0168500
860.926	0.0169019
861.004	0.0167908
861.082	0.0167860
861.160	0.0168079
861.238	0.0167425
861.317	0.0167722
861.395	0.0166158
861.473	0.0166479
861.551	0.0167854
861.629	0.0166045
861.707	0.0166670
861.785	0.0165549
861.863	0.0166447
861.942	0.0165209
862.020	0.0166034
862.098	0.0166003
862.176	0.0165873
862.254	0.0165375
862.332	0.0165909
862.410	0.0166170
862.488	0.0165099
862.567	0.0165649
862.645	0.0166254
862.723	0.0165234
862.801	0.0166022
862.879	0.0164486
862.957	0.0164873
863.035	0.0166300
863.113	0.0166270
863.192	0.0164837
863.270	0.0165895
863.348	0.0166031
863.426	0.0164944
863.504	0.0165005
863.582	0.0165105
863.660	0.0165203
863.738	0.0165128
863.817	0.0165057
863.895	0.0164130
863.973	0.0165357
864.051	0.0165081
864.129	0.0166755
864.207	0.0167739
864.285	0.0166885
864.363	0.0167419
864.442	0.0167644
864.520	0.0166843
864.598	0.0167181
864.676	0.0167534
864.754	0.0168180
864.832	0.0167321
864.910	0.0167741
864.988	0.0167925
865.067	0.0168610
865.145	0.0169376
865.223	0.0167803
865.301	0.0167297
865.379	0.0168703
865.457	0.0168379
865.535	0.0167944
865.613	0.0168280
865.692	0.0167197
865.770	0.0166145
865.848	0.0166406
865.926	0.0165348
866.004	0.0166298
866.082	0.0165212
866.160	0.0165577
866.238	0.0165806
866.317	0.0165815
866.395	0.0166106
866.473	0.0166626
866.551	0.0165913
866.629	0.0166012
866.707	0.0166886
866.785	0.0166262
866.863	0.0167835
866.942	0.0168091
867.020	0.0167075
867.098	0.0168400
867.176	0.0166720
867.254	0.0167999
867.332	0.0168851
867.410	0.0168793
867.488	0.0168538
867.567	0.0169322
867.645	0.0170800
867.723	0.0169530
867.801	0.0169723
867.879	0.0168386
867.957	0.0169389
868.035	0.0168636
868.113	0.0169724
868.192	0.0168507
868.270	0.0167241
868.348	0.0167220
868.426	0.0167970
868.504	0.0166091
868.582	0.0165958
868.660	0.0167140
868.738	0.0165566
868.817	0.0163645
868.895	0.0164259
868.973	0.0162975
869.051	0.0165511
869.129	0.0165282
869.207	0.0163407
869.285	0.0164372
869.363	0.0163451
869.442	0.0164563
869.520	0.0164692
869.598	0.0163768
869.676	0.0164326
869.754	0.0165376
869.832	0.0164712
869.910	0.0165535
869.988	0.0165556
870.067	0.0165635
870.145	0.0166055
870.223	0.0165913
870.301	0.0166254
870.379	0.0165204
870.457	0.0166022
870.535	0.0165748
870.613	0.0166193
870.692	0.0166914
870.770	0.0167738
870.848	0.0167278
870.926	0.0167287
871.004	0.0168346
871.082	0.0166557
871.160	0.0167945
871.238	0.0167310
871.317	0.0167931
871.395	0.0168152
871.473	0.0166124
871.551	0.0167554
871.629	0.0167778
871.707	0.0167139
871.785	0.0166911
871.863	0.0167716
871.942	0.0168805
872.020	0.0168077
872.098	0.0168347
872.176	0.0167781
872.254	0.0168391
872.332	0.0168819
872.410	0.0168165
872.488	0.0169811
872.567	0.0169057
872.645	0.0169772
872.723	0.0168564
872.801	0.0167558
872.879	0.0168072
872.957	0.0166901
873.035	0.0167496
873.113	0.0166209
873.192	0.0164170
873.270	0.0163903
873.348	0.0165192
873.426	0.0164416
873.504	0.0165016
873.582	0.0162930
873.660	0.0163210
873.738	0.0163020
873.817	0.0163444
873.895	0.0165889
873.973	0.0165372
874.051	0.0163800
874.129	0.0164987
874.207	0.0164556
874.285	0.0165446
874.363	0.0165820
874.442	0.0167002
874.520	0.0164701
874.598	0.0165583
874.676	0.0165510
874.754	0.0166123
874.832	0.0165701
874.910	0.0164368
874.988	0.0165585
875.067	0.0165543
875.145	0.0164313
875.223	0.0165546
875.301	0.0166352
875.379	0.0166279
875.457	0.0164914
875.535	0.0166264
875.613	0.0166270
875.692	0.0166573
875.770	0.0164593
875.848	0.0165783
875.926	0.0166434
876.004	0.0167464
876.082	0.0166621
876.160	0.0166816
876.238	0.0165343
876.317	0.0165898
876.395	0.0166697
876.473	0.0167301
876.551	0.0168208
876.629	0.0168876
876.707	0.0169586
876.785	0.0169328
876.863	0.0169854
876.942	0.0168987
877.020	0.0169804
877.098	0.0169733
877.176	0.0170206
877.254	0.0170633
877.332	0.0170217
877.410	0.0171752
877.488	0.0170377
877.567	0.0168890
877.645	0.0169181
877.723	0.0168437
877.801	0.0168715
877.879	0.0167824
877.957	0.0167165
878.035	0.0166712
878.113	0.0166462
878.192	0.0167949
878.270	0.0166981
878.348	0.0167172
878.426	0.0167310
878.504	0.0167156
878.582	0.0166748
878.660	0.0167043
878.738	0.0166720
878.817	0.0166850
878.895	0.0165576
878.973	0.0165899
879.051	0.0164914
879.129	0.0163468
879.207	0.0163531
879.285	0.0162769
879.363	0.0162121
879.442	0.0162624
879.520	0.0160317
879.598	0.0162347
879.676	0.0160074
879.754	0.0161017
879.832	0.0159749
879.910	0.0161649
879.988	0.0160742
880.067	0.0160654
880.145	0.0160238
880.223	0.0161000
880.301	0.0163592
880.379	0.0163649
880.457	0.0163558
880.535	0.0167107
880.613	0.0167976
880.692	0.0171234
880.770	0.0171359
880.848	0.0174613
880.926	0.0177013
881.004	0.0176048
881.082	0.0177522
881.160	0.0178374
881.238	0.0178178
881.317	0.0178842
881.395	0.0178613
881.473	0.0178602
881.551	0.0176151
881.629	0.0174873
881.707	0.0172336
881.785	0.0169294
881.863	0.0167398
881.942	0.0165561
882.020	0.0163148
882.098	0.0162441
882.176	0.0160194
882.254	0.0159059
882.332	0.0159215
882.410	0.0159051
882.488	0.0157258
882.567	0.0159021
882.645	0.0159843
882.723	0.0160146
882.801	0.0161241
882.879	0.0161594
882.957	0.0161820
883.035	0.0164670
883.113	0.0165185
883.192	0.0165325
883.270	0.0166210
883.348	0.0165791
883.426	0.0165842
883.504	0.0166302
883.582	0.0167343
883.660	0.0167942
883.738	0.0166837
883.817	0.0167199
883.895	0.0167900
883.973	0.0167659
884.051	0.0168835
884.129	0.0166634
884.207	0.0168666
884.285	0.0167400
884.363	0.0165535
884.442	0.0166115
884.520	0.0165741
884.598	0.0165656
884.676	0.0165607
884.754	0.0165070
884.832	0.0165370
884.910	0.0163494
884.988	0.0164828
885.067	0.0164739
885.145	0.0165362
885.223	0.0167059
885.301	0.0168233
885.379	0.0168471
885.457	0.0170277
885.535	0.0172126
885.613	0.0172504
885.692	0.0175578
885.770	0.0174371
885.848	0.0176611
885.926	0.0177563
886.004	0.0176910
886.082	0.0175641
886.160	0.0175058
886.238	0.0173981
886.317	0.0172575
886.395	0.0168596
886.473	0.0167271
886.551	0.0165643
886.629	0.0164646
886.707	0.0161786
886.785	0.0160242
886.863	0.0159838
886.942	0.0157510
887.020	0.0157797
887.098	0.0157146
887.176	0.0156280
887.254	0.0156720
887.332	0.0156844
887.410	0.0156577
887.488	0.0157510
887.567	0.0157971
887.645	0.0159859
887.723	0.0161010
887.801	0.0162775
887.879	0.0164724
887.957	0.0166064
888.035	0.0168644
888.113	0.0169416
888.192	0.0170512
888.270	0.0171141
888.348	0.0171893
888.426	0.0171032
888.504	0.0170161
888.582	0.0172268
888.660	0.0171162
888.738	0.0170361
888.817	0.0169709
888.895	0.0169370
888.973	0.0168324
889.051	0.0168797
889.129	0.0168036
889.207	0.0164963
889.285	0.0165861
889.363	0.0166235
889.442	0.0164451
889.520	0.0164357
889.598	0.0164205
889.676	0.0163132
889.754	0.0163011
889.832	0.0163464
889.910	0.0163586
889.988	0.0164735
890.067	0.0164937
890.145	0.0165733
890.223	0.0166856
890.301	0.0167554
890.379	0.0168649
890.457	0.0170840
890.535	0.0171555
890.613	0.0173558
890.692	0.0174181
890.770	0.0174344
890.848	0.0174239
890.926	0.0173795
891.004	0.0173094
891.082	0.0172131
891.160	0.0169262
891.238	0.0168410
891.317	0.0165096
891.395	0.0162535
891.473	0.0162375
891.551	0.0162406
891.629	0.0159514
891.707	0.0159145
891.785	0.0158730
891.863	0.0159631
891.942	0.0160126
892.020	0.0160390
892.098	0.0159099
892.176	0.0161955
892.254	0.0162098
892.332	0.0163594
892.410	0.0164525
892.488	0.0164732
892.567	0.0167529
892.645	0.0165922
892.723	0.0167368
892.801	0.0167677
892.879	0.0169344
892.957	0.0169050
893.035	0.0169898
893.113	0.0169869
893.192	0.0169741
893.270	0.0169844
893.348	0.0169596
893.426	0.0168497
893.504	0.0168732
893.582	0.0168513
893.660	0.0168629
893.738	0.0166566
893.817	0.0166386
893.895	0.0166037
893.973	0.0165323
894.051	0.0164044
894.129	0.0165690
894.207	0.0164194
894.285	0.0164727
894.363	0.0165324
894.442	0.0164473
894.520	0.0165366
894.598	0.0164314
894.676	0.0164333
894.754	0.0165522
894.832	0.0166962
894.910	0.0167850
894.988	0.0168333
895.067	0.0168041
895.145	0.0169355
895.223	0.0171085
895.301	0.0171095
895.379	0.0171918
895.457	0.0172162
895.535	0.0171078
895.613	0.0172530
895.692	0.0170956
895.770	0.0170966
895.848	0.0171693
895.926	0.0169309
896.004	0.0167085
896.082	0.0167579
896.160	0.0166770
896.238	0.0164166
896.317	0.0164323
896.395	0.0163691
896.473	0.0161392
896.551	0.0162328
896.629	0.0160606
896.707	0.0161429
896.785	0.0161913
896.863	0.0162585
896.942	0.0163819
897.020	0.0163091
897.098	0.0163765
897.176	0.0164858
897.254	0.0165257
897.332	0.0166893
897.410	0.0167163
897.488	0.0168636
897.567	0.0167487
897.645	0.0170008
897.723	0.0169236
897.801	0.0167644
897.879	0.0168719
897.957	0.0168221
898.035	0.0167985
898.113	0.0166595
898.192	0.0166826
898.270	0.0167216
898.348	0.0167963
898.426	0.0165022
898.504	0.0162971
898.582	0.0164713
898.660	0.0164300
898.738	0.0164410
898.817	0.0166309
898.895	0.0166852
898.973	0.0166153
899.051	0.0164904
899.129	0.0166534
899.207	0.0166936
899.285	0.0169376
899.363	0.0168874
899.442	0.0169823
899.520	0.0170948
899.598	0.0171279
899.676	0.0171988
899.754	0.0171456
899.832	0.0172477
899.910	0.0172174
899.988	0.0172972
900.067	0.0172377
900.145	0.0172060
900.223	0.0172923
900.301	0.0170987
900.379	0.0171844
900.457	0.0170528
900.535	0.0167471
900.613	0.0165955
900.692	0.0166057
900.770	0.0164718
900.848	0.0164510
900.926	0.0162074
901.004	0.0161593
901.082	0.0159930
901.160	0.0160101
901.238	0.0163413
901.317	0.0160482
901.395	0.0161325
901.473	0.0162506
901.551	0.0163712
901.629	0.0163406
901.707	0.0165032
901.785	0.0164304
901.863	0.0165309
901.942	0.0166099
902.020	0.0167551
902.098	0.0166227
902.176	0.0168200
902.254	0.0169238
902.332	0.0166897
902.410	0.0167449
902.488	0.0167780
902.567	0.0167158
902.645	0.0168000
902.723	0.0167842
902.801	0.0167406
902.879	0.0166738
902.957	0.0165960
903.035	0.0166402
903.113	0.0166314
903.192	0.0165662
903.270	0.0165260
903.348	0.0166132
903.426	0.0166048
903.504	0.0165489
903.582	0.0166510
903.660	0.0167137
903.738	0.0166876
903.817	0.0166490
903.895	0.0166354
903.973	0.0167351
904.051	0.0167690
904.129	0.0168082
904.207	0.0168819
904.285	0.0169517
904.363	0.0169014
904.442	0.0170651
904.520	0.0169453
904.598	0.0170412
904.676	0.0170621
904.754	0.0171735
904.832	0.0171264
904.910	0.0170665
904.988	0.0169828
905.067	0.0170414
905.145	0.0167612
905.223	0.0167022
905.301	0.0167519
905.379	0.0165311
905.457	0.0165646
905.535	0.0162525
905.613	0.0163920
905.692	0.0162568
905.770	0.0162687
905.848	0.0162343
905.926	0.0162877
906.004	0.0160822
906.082	0.0161797
906.160	0.0162505
906.238	0.0164516
906.317	0.0163813
906.395	0.0164364
906.473	0.0164162
906.551	0.0165395
906.629	0.0166653
906.707	0.0168434
906.785	0.0168653
906.863	0.0170245
906.942	0.0170476
907.020	0.0170734
907.098	0.0170608
907.176	0.0170614
907.254	0.0170529
907.332	0.0169431
907.410	0.0169187
907.488	0.0169267
907.567	0.0168808
907.645	0.0168471
907.723	0.0167245
907.801	0.0167241
907.879	0.0164924
907.957	0.0165150
908.035	0.0164687
908.113	0.0163800
908.192	0.0163033
908.270	0.0162942
908.348	0.0165115
908.426	0.0162583
908.504	0.0163879
908.582	0.0164542
908.660	0.0164024
908.738	0.0164080
908.817	0.0164797
908.895	0.0165530
908.973	0.0167030
909.051	0.0165499
909.129	0.0166017
909.207	0.0167632
909.285	0.0167780
909.363	0.0168469
909.442	0.0167353
909.520	0.0168199
909.598	0.0169603
909.676	0.0169745
909.754	0.0168826
909.832	0.0169101
909.910	0.0168214
909.988	0.0166849
910.067	0.0167281
910.145	0.0166830
910.223	0.0164697
910.301	0.0165031
910.379	0.0165569
910.457	0.0163164
910.535	0.0164017
910.613	0.0162765
910.692	0.0161884
910.770	0.0162754
910.848	0.0162323
910.926	0.0161906
911.004	0.0161865
911.082	0.0163557
911.160	0.0163773
911.238	0.0164941
911.317	0.0165983
911.395	0.0166164
911.473	0.0168957
911.551	0.0167959
911.629	0.0169231
911.707	0.0169402
911.785	0.0170029
911.863	0.0169611
911.942	0.0169833
912.020	0.0171218
912.098	0.0170860
912.176	0.0171018
912.254	0.0171334
912.332	0.0169554
912.410	0.0170245
912.488	0.0170382
912.567	0.0170286
912.645	0.0168610
912.723	0.0167680
912.801	0.0166653
912.879	0.0166769
912.957	0.0167610
913.035	0.0165898
913.113	0.0163465
913.192	0.0163197
913.270	0.0162682
913.348	0.0162040
913.426	0.0159624
913.504	0.0160273
913.582	0.0161967
913.660	0.0160775
913.738	0.0161620
913.817	0.0162173
913.895	0.0162571
913.973	0.0161603
914.051	0.0161591
914.129	0.0164307
914.207	0.0163986
914.285	0.0166014
914.363	0.0165453
914.442	0.0165755
914.520	0.0165997
914.598	0.0167629
914.676	0.0167539
914.754	0.0166293
914.832	0.0166916
914.910	0.0167711
914.988	0.0168070
915.067	0.0166607
915.145	0.0165707
915.223	0.0164976
915.301	0.0166257
915.379	0.0165170
915.457	0.0165468
915.535	0.0166076
915.613	0.0165957
915.692	0.0164650
915.770	0.0166288
915.848	0.0166021
915.926	0.0166389
916.004	0.0167783
916.082	0.0168150
916.160	0.0169071
916.238	0.0168186
916.317	0.0169992
916.395	0.0170789
916.473	0.0171462
916.551	0.0170686
916.629	0.0170664
916.707	0.0171280
916.785	0.0171820
916.863	0.0171844
916.942	0.0170956
917.020	0.0171500
917.098	0.0170139
917.176	0.0170143
917.254	0.0169803
917.332	0.0168648
917.410	0.0168682
917.488	0.0167827
917.567	0.0168796
917.645	0.0166487
917.723	0.0164694
917.801	0.0164018
917.879	0.0164627
917.957	0.0162936
918.035	0.0162794
918.113	0.0161790
918.192	0.0160819
918.270	0.0160727
918.348	0.0162147
918.426	0.0161336
918.504	0.0160585
918.582	0.0160014
918.660	0.0160924
918.738	0.0161497
918.817	0.0163343
918.895	0.0162761
918.973	0.0162336
919.051	0.0164273
919.129	0.0164677
919.207	0.0167194
919.285	0.0166013
919.363	0.0166538
919.442	0.0167880
919.520	0.0166075
919.598	0.0166085
919.676	0.0169202
919.754	0.0168767
919.832	0.0168320
919.910	0.0169365
