05/24/2022	20:16:04	Ver.	4.1	UNKNOWN
Optical Delay	599.988409	Delta X		0.078125	Sweeps	1	Scan Rate	0/0
Coordinates	Axis 1	NaN	Axis 2	NaN	Axis 3	NaN	Axis 4	NaN	Axis 5	NaN	Axis 6	0.000000
TX Power	0.000000	RX Power	0.000000

599.988	0.0166704
600.067	0.0167242
600.145	0.0167100
600.223	0.0167558
600.301	0.0166350
600.379	0.0166168
600.457	0.0166272
600.535	0.0166455
600.613	0.0166516
600.692	0.0166097
600.770	0.0167529
600.848	0.0165705
600.926	0.0166437
601.004	0.0165577
601.082	0.0166624
601.160	0.0166577
601.238	0.0164824
601.317	0.0165837
601.395	0.0167698
601.473	0.0167487
601.551	0.0167189
601.629	0.0165536
601.707	0.0166434
601.785	0.0165846
601.863	0.0165634
601.942	0.0166550
602.020	0.0166654
602.098	0.0166685
602.176	0.0167355
602.254	0.0165969
602.332	0.0166817
602.410	0.0166809
602.488	0.0166148
602.567	0.0167486
602.645	0.0167632
602.723	0.0165997
602.801	0.0166689
602.879	0.0167913
602.957	0.0166156
603.035	0.0166569
603.113	0.0166159
603.192	0.0166769
603.270	0.0167084
603.348	0.0168142
603.426	0.0166123
603.504	0.0166052
603.582	0.0165384
603.660	0.0166269
603.738	0.0165514
603.817	0.0167347
603.895	0.0169044
603.973	0.0167303
604.051	0.0165238
604.129	0.0166520
604.207	0.0167089
604.285	0.0166843
604.363	0.0166351
604.442	0.0166117
604.520	0.0167110
604.598	0.0168490
604.676	0.0167791
604.754	0.0167689
604.832	0.0168430
604.910	0.0166320
604.988	0.0165905
605.067	0.0167156
605.145	0.0166376
605.223	0.0167982
605.301	0.0167376
605.379	0.0166293
605.457	0.0167358
605.535	0.0166569
605.613	0.0166656
605.692	0.0166346
605.770	0.0166431
605.848	0.0166467
605.926	0.0167399
606.004	0.0166665
606.082	0.0167118
606.160	0.0167261
606.238	0.0166120
606.317	0.0166608
606.395	0.0166906
606.473	0.0165953
606.551	0.0165685
606.629	0.0166569
606.707	0.0167188
606.785	0.0165720
606.863	0.0165889
606.942	0.0166208
607.020	0.0165546
607.098	0.0166403
607.176	0.0167742
607.254	0.0166026
607.332	0.0165083
607.410	0.0166318
607.488	0.0165771
607.567	0.0166271
607.645	0.0166131
607.723	0.0165862
607.801	0.0167855
607.879	0.0165746
607.957	0.0165576
608.035	0.0165338
608.113	0.0166583
608.192	0.0166681
608.270	0.0166056
608.348	0.0165781
608.426	0.0167726
608.504	0.0165423
608.582	0.0166124
608.660	0.0165745
608.738	0.0167262
608.817	0.0166785
608.895	0.0168475
608.973	0.0166358
609.051	0.0166319
609.129	0.0167481
609.207	0.0166830
609.285	0.0168482
609.363	0.0168976
609.442	0.0168207
609.520	0.0167653
609.598	0.0167474
609.676	0.0167450
609.754	0.0166627
609.832	0.0167203
609.910	0.0166156
609.988	0.0166943
610.067	0.0166383
610.145	0.0167426
610.223	0.0166872
610.301	0.0164949
610.379	0.0166505
610.457	0.0167118
610.535	0.0166339
610.613	0.0166732
610.692	0.0165404
610.770	0.0165566
610.848	0.0165405
610.926	0.0167148
611.004	0.0165877
611.082	0.0166389
611.160	0.0166240
611.238	0.0167010
611.317	0.0167384
611.395	0.0166861
611.473	0.0167085
611.551	0.0166936
611.629	0.0166541
611.707	0.0167617
611.785	0.0166326
611.863	0.0166126
611.942	0.0166481
612.020	0.0166214
612.098	0.0166315
612.176	0.0166599
612.254	0.0165809
612.332	0.0166570
612.410	0.0165858
612.488	0.0164750
612.567	0.0166595
612.645	0.0167056
612.723	0.0165831
612.801	0.0166113
612.879	0.0167314
612.957	0.0167131
613.035	0.0165302
613.113	0.0166343
613.192	0.0166825
613.270	0.0167905
613.348	0.0165894
613.426	0.0166934
613.504	0.0167373
613.582	0.0166858
613.660	0.0166673
613.738	0.0167309
613.817	0.0166415
613.895	0.0167533
613.973	0.0167674
614.051	0.0167040
614.129	0.0167191
614.207	0.0166663
614.285	0.0168053
614.363	0.0168369
614.442	0.0166697
614.520	0.0166829
614.598	0.0166987
614.676	0.0166674
614.754	0.0168549
614.832	0.0167460
614.910	0.0165928
614.988	0.0166180
615.067	0.0166909
615.145	0.0166364
615.223	0.0165847
615.301	0.0168638
615.379	0.0166306
615.457	0.0166419
615.535	0.0166146
615.613	0.0166739
615.692	0.0167059
615.770	0.0166203
615.848	0.0167099
615.926	0.0168092
616.004	0.0165340
616.082	0.0165223
616.160	0.0166811
616.238	0.0166441
616.317	0.0166116
616.395	0.0165907
616.473	0.0167614
616.551	0.0166573
616.629	0.0166100
616.707	0.0168239
616.785	0.0165695
616.863	0.0165842
616.942	0.0167552
617.020	0.0167203
617.098	0.0165903
617.176	0.0166859
617.254	0.0165812
617.332	0.0165834
617.410	0.0167351
617.488	0.0167107
617.567	0.0166062
617.645	0.0166872
617.723	0.0166811
617.801	0.0166547
617.879	0.0165388
617.957	0.0165978
618.035	0.0167649
618.113	0.0167920
618.192	0.0166016
618.270	0.0166975
618.348	0.0167341
618.426	0.0167441
618.504	0.0165929
618.582	0.0167268
618.660	0.0168615
618.738	0.0166645
618.817	0.0167277
618.895	0.0168051
618.973	0.0167564
619.051	0.0166888
619.129	0.0168214
619.207	0.0167693
619.285	0.0166166
619.363	0.0168095
619.442	0.0166662
619.520	0.0167093
619.598	0.0166692
619.676	0.0166710
619.754	0.0167290
619.832	0.0167617
619.910	0.0166441
619.988	0.0166387
620.067	0.0167312
620.145	0.0166584
620.223	0.0167171
620.301	0.0166826
620.379	0.0167043
620.457	0.0166665
620.535	0.0167094
620.613	0.0167065
620.692	0.0166415
620.770	0.0166467
620.848	0.0167103
620.926	0.0164657
621.004	0.0164832
621.082	0.0165430
621.160	0.0165930
621.238	0.0167785
621.317	0.0166573
621.395	0.0166802
621.473	0.0165987
621.551	0.0167049
621.629	0.0167280
621.707	0.0165549
621.785	0.0166485
621.863	0.0166298
621.942	0.0166383
622.020	0.0165822
622.098	0.0166033
622.176	0.0166832
622.254	0.0165718
622.332	0.0166440
622.410	0.0166347
622.488	0.0167072
622.567	0.0167413
622.645	0.0166617
622.723	0.0167392
622.801	0.0167583
622.879	0.0168516
622.957	0.0167329
623.035	0.0166759
623.113	0.0167088
623.192	0.0165972
623.270	0.0166644
623.348	0.0166606
623.426	0.0169332
623.504	0.0167543
623.582	0.0166634
623.660	0.0168172
623.738	0.0167017
623.817	0.0167073
623.895	0.0167551
623.973	0.0166148
624.051	0.0167791
624.129	0.0168135
624.207	0.0166917
624.285	0.0166531
624.363	0.0167853
624.442	0.0168912
624.520	0.0166679
624.598	0.0166016
624.676	0.0166495
624.754	0.0166328
624.832	0.0166309
624.910	0.0168157
624.988	0.0167166
625.067	0.0165361
625.145	0.0166718
625.223	0.0167290
625.301	0.0167200
625.379	0.0166698
625.457	0.0167492
625.535	0.0167076
625.613	0.0167678
625.692	0.0166788
625.770	0.0168604
625.848	0.0167423
625.926	0.0166785
626.004	0.0166375
626.082	0.0166433
626.160	0.0167088
626.238	0.0165845
626.317	0.0166617
626.395	0.0165501
626.473	0.0166937
626.551	0.0167130
626.629	0.0165625
626.707	0.0166991
626.785	0.0165224
626.863	0.0166985
626.942	0.0166557
627.020	0.0167128
627.098	0.0166495
627.176	0.0165775
627.254	0.0166852
627.332	0.0167080
627.410	0.0166474
627.488	0.0167574
627.567	0.0167142
627.645	0.0166384
627.723	0.0168069
627.801	0.0167323
627.879	0.0166529
627.957	0.0167355
628.035	0.0166553
628.113	0.0166065
628.192	0.0166245
628.270	0.0166718
628.348	0.0166940
628.426	0.0167857
628.504	0.0167300
628.582	0.0167931
628.660	0.0165672
628.738	0.0166868
628.817	0.0166520
628.895	0.0167387
628.973	0.0167496
629.051	0.0166769
629.129	0.0166698
629.207	0.0166776
629.285	0.0166652
629.363	0.0168146
629.442	0.0167031
629.520	0.0166678
629.598	0.0166956
629.676	0.0166347
629.754	0.0166534
629.832	0.0166372
629.910	0.0167277
629.988	0.0167149
630.067	0.0166338
630.145	0.0167374
630.223	0.0167347
630.301	0.0166588
630.379	0.0167068
630.457	0.0166430
630.535	0.0166927
630.613	0.0166351
630.692	0.0166965
630.770	0.0166823
630.848	0.0166638
630.926	0.0166582
631.004	0.0166470
631.082	0.0166457
631.160	0.0166428
631.238	0.0166212
631.317	0.0166362
631.395	0.0165745
631.473	0.0165365
631.551	0.0166547
631.629	0.0166023
631.707	0.0165494
631.785	0.0166509
631.863	0.0166659
631.942	0.0166243
632.020	0.0166216
632.098	0.0166084
632.176	0.0165994
632.254	0.0165503
632.332	0.0166230
632.410	0.0164941
632.488	0.0165257
632.567	0.0166104
632.645	0.0167634
632.723	0.0166917
632.801	0.0165532
632.879	0.0165295
632.957	0.0165340
633.035	0.0165875
633.113	0.0167095
633.192	0.0165849
633.270	0.0166152
633.348	0.0166688
633.426	0.0165811
633.504	0.0166067
633.582	0.0166656
633.660	0.0165446
633.738	0.0164903
633.817	0.0166395
633.895	0.0167226
633.973	0.0165327
634.051	0.0165707
634.129	0.0165111
634.207	0.0165797
634.285	0.0167425
634.363	0.0166224
634.442	0.0166369
634.520	0.0166255
634.598	0.0166201
634.676	0.0166028
634.754	0.0165314
634.832	0.0165504
634.910	0.0166146
634.988	0.0166193
635.067	0.0165920
635.145	0.0164994
635.223	0.0167364
635.301	0.0167073
635.379	0.0167439
635.457	0.0167425
635.535	0.0166955
635.613	0.0167379
635.692	0.0166547
635.770	0.0167284
635.848	0.0165770
635.926	0.0166567
636.004	0.0165898
636.082	0.0166534
636.160	0.0166771
636.238	0.0165610
636.317	0.0167036
636.395	0.0166646
636.473	0.0166208
636.551	0.0166929
636.629	0.0166773
636.707	0.0167011
636.785	0.0164777
636.863	0.0166104
636.942	0.0166978
637.020	0.0165373
637.098	0.0165945
637.176	0.0166688
637.254	0.0165829
637.332	0.0166180
637.410	0.0167071
637.488	0.0166695
637.567	0.0165469
637.645	0.0165643
637.723	0.0166017
637.801	0.0166265
637.879	0.0166734
637.957	0.0166216
638.035	0.0166064
638.113	0.0165305
638.192	0.0165944
638.270	0.0167780
638.348	0.0165060
638.426	0.0165163
638.504	0.0166271
638.582	0.0166982
638.660	0.0166634
638.738	0.0167019
638.817	0.0165755
638.895	0.0166459
638.973	0.0165752
639.051	0.0166098
639.129	0.0165474
639.207	0.0166743
639.285	0.0166624
639.363	0.0166597
639.442	0.0166079
639.520	0.0166020
639.598	0.0165759
639.676	0.0166515
639.754	0.0166553
639.832	0.0167127
639.910	0.0166459
639.988	0.0167075
640.067	0.0166444
640.145	0.0168112
640.223	0.0165540
640.301	0.0165766
640.379	0.0167321
640.457	0.0166697
640.535	0.0167006
640.613	0.0167465
640.692	0.0167744
640.770	0.0165653
640.848	0.0167050
640.926	0.0165855
641.004	0.0166247
641.082	0.0166128
641.160	0.0166236
641.238	0.0167227
641.317	0.0166798
641.395	0.0165840
641.473	0.0165678
641.551	0.0166719
641.629	0.0165999
641.707	0.0166970
641.785	0.0165970
641.863	0.0167266
641.942	0.0167774
642.020	0.0166198
642.098	0.0167056
642.176	0.0167065
642.254	0.0166081
642.332	0.0166005
642.410	0.0166512
642.488	0.0167532
642.567	0.0166501
642.645	0.0166192
642.723	0.0166875
642.801	0.0167593
642.879	0.0165884
642.957	0.0166521
643.035	0.0166284
643.113	0.0166502
643.192	0.0166439
643.270	0.0166337
643.348	0.0166930
643.426	0.0166527
643.504	0.0166797
643.582	0.0166099
643.660	0.0165821
643.738	0.0166437
643.817	0.0166360
643.895	0.0166943
643.973	0.0165624
644.051	0.0167558
644.129	0.0168013
644.207	0.0166327
644.285	0.0165971
644.363	0.0164452
644.442	0.0167491
644.520	0.0167419
644.598	0.0165228
644.676	0.0166909
644.754	0.0166927
644.832	0.0167476
644.910	0.0165056
644.988	0.0165490
645.067	0.0167477
645.145	0.0166833
645.223	0.0167004
645.301	0.0166885
645.379	0.0166657
645.457	0.0167833
645.535	0.0166345
645.613	0.0165765
645.692	0.0167020
645.770	0.0166973
645.848	0.0166146
645.926	0.0166180
646.004	0.0165572
646.082	0.0166111
646.160	0.0166171
646.238	0.0167863
646.317	0.0167342
646.395	0.0166322
646.473	0.0166465
646.551	0.0165838
646.629	0.0167684
646.707	0.0165659
646.785	0.0165800
646.863	0.0166727
646.942	0.0168044
647.020	0.0165712
647.098	0.0165842
647.176	0.0165632
647.254	0.0166738
647.332	0.0166603
647.410	0.0165060
647.488	0.0167439
647.567	0.0168099
647.645	0.0166747
647.723	0.0166537
647.801	0.0166143
647.879	0.0167290
647.957	0.0166877
648.035	0.0166248
648.113	0.0166878
648.192	0.0166912
648.270	0.0165944
648.348	0.0167508
648.426	0.0167138
648.504	0.0165991
648.582	0.0166228
648.660	0.0166458
648.738	0.0166007
648.817	0.0166801
648.895	0.0167159
648.973	0.0166503
649.051	0.0166494
649.129	0.0166932
649.207	0.0165746
649.285	0.0166547
649.363	0.0166256
649.442	0.0166864
649.520	0.0165908
649.598	0.0165874
649.676	0.0166702
649.754	0.0167410
649.832	0.0166140
649.910	0.0166562
649.988	0.0164837
650.067	0.0166988
650.145	0.0168056
650.223	0.0166464
650.301	0.0166470
650.379	0.0166161
650.457	0.0166067
650.535	0.0167206
650.613	0.0167134
650.692	0.0166881
650.770	0.0168156
650.848	0.0165907
650.926	0.0166364
651.004	0.0166664
651.082	0.0165601
651.160	0.0166908
651.238	0.0166766
651.317	0.0165194
651.395	0.0166107
651.473	0.0165525
651.551	0.0166682
651.629	0.0166612
651.707	0.0165926
651.785	0.0167080
651.863	0.0166495
651.942	0.0166889
652.020	0.0167950
652.098	0.0166039
652.176	0.0167419
652.254	0.0167867
652.332	0.0168024
652.410	0.0167254
652.488	0.0165670
652.567	0.0166579
652.645	0.0167488
652.723	0.0165756
652.801	0.0166659
652.879	0.0166483
652.957	0.0165827
653.035	0.0166052
653.113	0.0166967
653.192	0.0167513
653.270	0.0166326
653.348	0.0167858
653.426	0.0166920
653.504	0.0166279
653.582	0.0167552
653.660	0.0167007
653.738	0.0166840
653.817	0.0165404
653.895	0.0167058
653.973	0.0168283
654.051	0.0165945
654.129	0.0166466
654.207	0.0166364
654.285	0.0167410
654.363	0.0166840
654.442	0.0166754
654.520	0.0166154
654.598	0.0165911
654.676	0.0167443
654.754	0.0166045
654.832	0.0166002
654.910	0.0165584
654.988	0.0166347
655.067	0.0166180
655.145	0.0166447
655.223	0.0166805
655.301	0.0167532
655.379	0.0166471
655.457	0.0166114
655.535	0.0166692
655.613	0.0166065
655.692	0.0166489
655.770	0.0166048
655.848	0.0165058
655.926	0.0165704
656.004	0.0165771
656.082	0.0166959
656.160	0.0166513
656.238	0.0167713
656.317	0.0165161
656.395	0.0165028
656.473	0.0165910
656.551	0.0166587
656.629	0.0165466
656.707	0.0166458
656.785	0.0165316
656.863	0.0166463
656.942	0.0165714
657.020	0.0167167
657.098	0.0165999
657.176	0.0166843
657.254	0.0167157
657.332	0.0166862
657.410	0.0164171
657.488	0.0164445
657.567	0.0167622
657.645	0.0165814
657.723	0.0165707
657.801	0.0165113
657.879	0.0166558
657.957	0.0167070
658.035	0.0166312
658.113	0.0165538
658.192	0.0166071
658.270	0.0166721
658.348	0.0166244
658.426	0.0167424
658.504	0.0167353
658.582	0.0165714
658.660	0.0166937
658.738	0.0166214
658.817	0.0166317
658.895	0.0165394
658.973	0.0164992
659.051	0.0166122
659.129	0.0165108
659.207	0.0165075
659.285	0.0166438
659.363	0.0165707
659.442	0.0165425
659.520	0.0165000
659.598	0.0166135
659.676	0.0164722
659.754	0.0165491
659.832	0.0165343
659.910	0.0165054
659.988	0.0166286
660.067	0.0166243
660.145	0.0166502
660.223	0.0165376
660.301	0.0167155
660.379	0.0165786
660.457	0.0166046
660.535	0.0166946
660.613	0.0166579
660.692	0.0166120
660.770	0.0166050
660.848	0.0166828
660.926	0.0167116
661.004	0.0166487
661.082	0.0166725
661.160	0.0166917
661.238	0.0167204
661.317	0.0168823
661.395	0.0167646
661.473	0.0166355
661.551	0.0168228
661.629	0.0167787
661.707	0.0167139
661.785	0.0168111
661.863	0.0166637
661.942	0.0167767
662.020	0.0166529
662.098	0.0165292
662.176	0.0166122
662.254	0.0165703
662.332	0.0164111
662.410	0.0164457
662.488	0.0164501
662.567	0.0164345
662.645	0.0163857
662.723	0.0162769
662.801	0.0161084
662.879	0.0162424
662.957	0.0162006
663.035	0.0161499
663.113	0.0162969
663.192	0.0161496
663.270	0.0162547
663.348	0.0164866
663.426	0.0164020
663.504	0.0165248
663.582	0.0165671
663.660	0.0166849
663.738	0.0167617
663.817	0.0169215
663.895	0.0169002
663.973	0.0169791
664.051	0.0169662
664.129	0.0171195
664.207	0.0170884
664.285	0.0171116
664.363	0.0172610
664.442	0.0173898
664.520	0.0173396
664.598	0.0172211
664.676	0.0172276
664.754	0.0172621
664.832	0.0171793
664.910	0.0170567
664.988	0.0170432
665.067	0.0168407
665.145	0.0165535
665.223	0.0165675
665.301	0.0162973
665.379	0.0162820
665.457	0.0162099
665.535	0.0164323
665.613	0.0164207
665.692	0.0164136
665.770	0.0165016
665.848	0.0162973
665.926	0.0162696
666.004	0.0164664
666.082	0.0162234
666.160	0.0160867
666.238	0.0161904
666.317	0.0160790
666.395	0.0161691
666.473	0.0162345
666.551	0.0163068
666.629	0.0164910
666.707	0.0164272
666.785	0.0165225
666.863	0.0164570
666.942	0.0165744
667.020	0.0165741
667.098	0.0165269
667.176	0.0163779
667.254	0.0161826
667.332	0.0160659
667.410	0.0162439
667.488	0.0163741
667.567	0.0162488
667.645	0.0164343
667.723	0.0165925
667.801	0.0167303
667.879	0.0168380
667.957	0.0170598
668.035	0.0171249
668.113	0.0170947
668.192	0.0171928
668.270	0.0172409
668.348	0.0172238
668.426	0.0172922
668.504	0.0173576
668.582	0.0174696
668.660	0.0173508
668.738	0.0174554
668.817	0.0175346
668.895	0.0171783
668.973	0.0171883
669.051	0.0170073
669.129	0.0166552
669.207	0.0165357
669.285	0.0165382
669.363	0.0161938
669.442	0.0162926
669.520	0.0163876
669.598	0.0164068
669.676	0.0165470
669.754	0.0164889
669.832	0.0166431
669.910	0.0168140
669.988	0.0168426
670.067	0.0168934
670.145	0.0168853
670.223	0.0167627
670.301	0.0167344
670.379	0.0166053
670.457	0.0166187
670.535	0.0166139
670.613	0.0164565
670.692	0.0163447
670.770	0.0163605
670.848	0.0165290
670.926	0.0165187
671.004	0.0165423
671.082	0.0167128
671.160	0.0165589
671.238	0.0165270
671.317	0.0165398
671.395	0.0164363
671.473	0.0162407
671.551	0.0162285
671.629	0.0160705
671.707	0.0160026
671.785	0.0160568
671.863	0.0159335
671.942	0.0158799
672.020	0.0159766
672.098	0.0160523
672.176	0.0160268
672.254	0.0161447
672.332	0.0163370
672.410	0.0164934
672.488	0.0166534
672.567	0.0166644
672.645	0.0169952
672.723	0.0172336
672.801	0.0173598
672.879	0.0175514
672.957	0.0177118
673.035	0.0178471
673.113	0.0178011
673.192	0.0175950
673.270	0.0175620
673.348	0.0174326
673.426	0.0170827
673.504	0.0169011
673.582	0.0168730
673.660	0.0165015
673.738	0.0163865
673.817	0.0162215
673.895	0.0163171
673.973	0.0161057
674.051	0.0163418
674.129	0.0162336
674.207	0.0163766
674.285	0.0164042
674.363	0.0166289
674.442	0.0166595
674.520	0.0169045
674.598	0.0171489
674.676	0.0173390
674.754	0.0174249
674.832	0.0177081
674.910	0.0177589
674.988	0.0176615
675.067	0.0175049
675.145	0.0173727
675.223	0.0171047
675.301	0.0167547
675.379	0.0165580
675.457	0.0162083
675.535	0.0158623
675.613	0.0157643
675.692	0.0156842
675.770	0.0155887
675.848	0.0156694
675.926	0.0157494
676.004	0.0157626
676.082	0.0158888
676.160	0.0161405
676.238	0.0163247
676.317	0.0163020
676.395	0.0163535
676.473	0.0163612
676.551	0.0163181
676.629	0.0161597
676.707	0.0159164
676.785	0.0159282
676.863	0.0157465
676.942	0.0157455
677.020	0.0157976
677.098	0.0158572
677.176	0.0159923
677.254	0.0163686
677.332	0.0167020
677.410	0.0171474
677.488	0.0173624
677.567	0.0175957
677.645	0.0176781
677.723	0.0179156
677.801	0.0178883
677.879	0.0175971
677.957	0.0173822
678.035	0.0170853
678.113	0.0169067
678.192	0.0168460
678.270	0.0166711
678.348	0.0167759
678.426	0.0169123
678.504	0.0170371
678.582	0.0172154
678.660	0.0173383
678.738	0.0173863
678.817	0.0175880
678.895	0.0173368
678.973	0.0172914
679.051	0.0170833
679.129	0.0167298
679.207	0.0164881
679.285	0.0162334
679.363	0.0160241
679.442	0.0158695
679.520	0.0157584
679.598	0.0158027
679.676	0.0159620
679.754	0.0160428
679.832	0.0165475
679.910	0.0167498
679.988	0.0170991
680.067	0.0177610
680.145	0.0179102
680.223	0.0178146
680.301	0.0179973
680.379	0.0179301
680.457	0.0178061
680.535	0.0176650
680.613	0.0174152
680.692	0.0170409
680.770	0.0168416
680.848	0.0162740
680.926	0.0161674
681.004	0.0160787
681.082	0.0159502
681.160	0.0158953
681.238	0.0158075
681.317	0.0159144
681.395	0.0159528
681.473	0.0161469
681.551	0.0160987
681.629	0.0160914
681.707	0.0159854
681.785	0.0160188
681.863	0.0159032
681.942	0.0158118
682.020	0.0156798
682.098	0.0154371
682.176	0.0153645
682.254	0.0153030
682.332	0.0152612
682.410	0.0151643
682.488	0.0150818
682.567	0.0151379
682.645	0.0151223
682.723	0.0153335
682.801	0.0157216
682.879	0.0159544
682.957	0.0162540
683.035	0.0169145
683.113	0.0172079
683.192	0.0177924
683.270	0.0183063
683.348	0.0187186
683.426	0.0191255
683.504	0.0193995
683.582	0.0194769
683.660	0.0195020
683.738	0.0193477
683.817	0.0190374
683.895	0.0188965
683.973	0.0183951
684.051	0.0180383
684.129	0.0175621
684.207	0.0171881
684.285	0.0167407
684.363	0.0162922
684.442	0.0159618
684.520	0.0155768
684.598	0.0155295
684.676	0.0154990
684.754	0.0154694
684.832	0.0154591
684.910	0.0158007
684.988	0.0160770
685.067	0.0164540
685.145	0.0170568
685.223	0.0176591
685.301	0.0181877
685.379	0.0188519
685.457	0.0192429
685.535	0.0196259
685.613	0.0198956
685.692	0.0198096
685.770	0.0197133
685.848	0.0195076
685.926	0.0191116
686.004	0.0186285
686.082	0.0180552
686.160	0.0173553
686.238	0.0165446
686.317	0.0159366
686.395	0.0151739
686.473	0.0142342
686.551	0.0136510
686.629	0.0128923
686.707	0.0120826
686.785	0.0113477
686.863	0.0105618
686.942	0.00981071
687.020	0.00920502
687.098	0.00850967
687.176	0.00817871
687.254	0.00781693
687.332	0.00774376
687.410	0.00790024
687.488	0.00844337
687.567	0.00913094
687.645	0.0101096
687.723	0.0114496
687.801	0.0130160
687.879	0.0148834
687.957	0.0167461
688.035	0.0188120
688.113	0.0208089
688.192	0.0225979
688.270	0.0243984
688.348	0.0260889
688.426	0.0275089
688.504	0.0286002
688.582	0.0292976
688.660	0.0300149
688.738	0.0302354
688.817	0.0299960
688.895	0.0295206
688.973	0.0287191
689.051	0.0277179
689.129	0.0263496
689.207	0.0249004
689.285	0.0231551
689.363	0.0213551
689.442	0.0196191
689.520	0.0178011
689.598	0.0162089
689.676	0.0145744
689.754	0.0131731
689.832	0.0121111
689.910	0.0111445
689.988	0.0105548
690.067	0.00998543
690.145	0.00978394
690.223	0.00978767
690.301	0.00964569
690.379	0.00954720
690.457	0.00981812
690.535	0.0100232
690.613	0.00987930
690.692	0.0101618
690.770	0.0102924
690.848	0.0102222
690.926	0.0103761
691.004	0.0103321
691.082	0.0106142
691.160	0.0109290
691.238	0.0111376
691.317	0.0113382
691.395	0.0119017
691.473	0.0123292
691.551	0.0124162
691.629	0.0127200
691.707	0.0129494
691.785	0.0130064
691.863	0.0130689
691.942	0.0132513
692.020	0.0133555
692.098	0.0134711
692.176	0.0139165
692.254	0.0144759
692.332	0.0152779
692.410	0.0160403
692.488	0.0174113
692.567	0.0189239
692.645	0.0205627
692.723	0.0220997
692.801	0.0238596
692.879	0.0255714
692.957	0.0271315
693.035	0.0282756
693.113	0.0293465
693.192	0.0298799
693.270	0.0300002
693.348	0.0299607
693.426	0.0294725
693.504	0.0286165
693.582	0.0274227
693.660	0.0261642
693.738	0.0247810
693.817	0.0232970
693.895	0.0217828
693.973	0.0204518
694.051	0.0191627
694.129	0.0177583
694.207	0.0166653
694.285	0.0155259
694.363	0.0146263
694.442	0.0136912
694.520	0.0128273
694.598	0.0119320
694.676	0.0111861
694.754	0.0105996
694.832	0.0100353
694.910	0.00963539
694.988	0.00957993
695.067	0.00951790
695.145	0.00957054
695.223	0.00983307
695.301	0.0101801
695.379	0.0105548
695.457	0.0111458
695.535	0.0115133
695.613	0.0118262
695.692	0.0120972
695.770	0.0124358
695.848	0.0124503
695.926	0.0125940
696.004	0.0124467
696.082	0.0125520
696.160	0.0125374
696.238	0.0125562
696.317	0.0125149
696.395	0.0125414
696.473	0.0125594
696.551	0.0125151
696.629	0.0122785
696.707	0.0122404
696.785	0.0121944
696.863	0.0124506
696.942	0.0125523
697.020	0.0125776
697.098	0.0128998
697.176	0.0134853
697.254	0.0143203
697.332	0.0152476
697.410	0.0164091
697.488	0.0177904
697.567	0.0192551
697.645	0.0209687
697.723	0.0227270
697.801	0.0246668
697.879	0.0262414
697.957	0.0277634
698.035	0.0290022
698.113	0.0300717
698.192	0.0305792
698.270	0.0309090
698.348	0.0308440
698.426	0.0301805
698.504	0.0294650
698.582	0.0285432
698.660	0.0271456
698.738	0.0258292
698.817	0.0242462
698.895	0.0228656
698.973	0.0213301
699.051	0.0198106
699.129	0.0184546
699.207	0.0169685
699.285	0.0155385
699.363	0.0141297
699.442	0.0129076
699.520	0.0121323
699.598	0.0112026
699.676	0.0104383
699.754	0.0101177
699.832	0.00956970
699.910	0.00936752
699.988	0.00912468
700.067	0.00921516
700.145	0.00949219
700.223	0.00967545
700.301	0.00981827
700.379	0.0102735
700.457	0.0105207
700.535	0.0108925
700.613	0.0109763
700.692	0.0112130
700.770	0.0114193
700.848	0.0115365
700.926	0.0118703
701.004	0.0120268
701.082	0.0119810
701.160	0.0120760
701.238	0.0122609
701.317	0.0124204
701.395	0.0126342
701.473	0.0127634
701.551	0.0129830
701.629	0.0131877
701.707	0.0134144
701.785	0.0137748
701.863	0.0139683
701.942	0.0143476
702.020	0.0146280
702.098	0.0150443
702.176	0.0156050
702.254	0.0163529
702.332	0.0170176
702.410	0.0180647
702.488	0.0190642
702.567	0.0200271
702.645	0.0210542
702.723	0.0220490
702.801	0.0231763
702.879	0.0239861
702.957	0.0249840
703.035	0.0256001
703.113	0.0258919
703.192	0.0260641
703.270	0.0259534
703.348	0.0258362
703.426	0.0253009
703.504	0.0247228
703.582	0.0243507
703.660	0.0235890
703.738	0.0226559
703.817	0.0218980
703.895	0.0212267
703.973	0.0206371
704.051	0.0200526
704.129	0.0194452
704.207	0.0189716
704.285	0.0184074
704.363	0.0179323
704.442	0.0176637
704.520	0.0172023
704.598	0.0164294
704.676	0.0159549
704.754	0.0153152
704.832	0.0144621
704.910	0.0138887
704.988	0.0133641
705.067	0.0127767
705.145	0.0122756
705.223	0.0118404
705.301	0.0112984
705.379	0.0109401
705.457	0.0106725
705.535	0.0104079
705.613	0.0103960
705.692	0.0103551
705.770	0.0104962
705.848	0.0105477
705.926	0.0110083
706.004	0.0111349
706.082	0.0117481
706.160	0.0121826
706.238	0.0127325
706.317	0.0132803
706.395	0.0137698
706.473	0.0142835
706.551	0.0147485
706.629	0.0150954
706.707	0.0153853
706.785	0.0156600
706.863	0.0160365
706.942	0.0162508
707.020	0.0165256
707.098	0.0167339
707.176	0.0171257
707.254	0.0171566
707.332	0.0173708
707.410	0.0175367
707.488	0.0178538
707.567	0.0178981
707.645	0.0180345
707.723	0.0184159
707.801	0.0185462
707.879	0.0186850
707.957	0.0188718
708.035	0.0188132
708.113	0.0189462
708.192	0.0189072
708.270	0.0188533
708.348	0.0188338
708.426	0.0185794
708.504	0.0186810
708.582	0.0186878
708.660	0.0186668
708.738	0.0187717
708.817	0.0186900
708.895	0.0188500
708.973	0.0190780
709.051	0.0191082
709.129	0.0194688
709.207	0.0195904
709.285	0.0196769
709.363	0.0198158
709.442	0.0199570
709.520	0.0201588
709.598	0.0201478
709.676	0.0199934
709.754	0.0199177
709.832	0.0196328
709.910	0.0191920
709.988	0.0188942
710.067	0.0184448
710.145	0.0179565
710.223	0.0174670
710.301	0.0168217
710.379	0.0163821
710.457	0.0158093
710.535	0.0151102
710.613	0.0146680
710.692	0.0139998
710.770	0.0136599
710.848	0.0132857
710.926	0.0128795
711.004	0.0128014
711.082	0.0128159
711.160	0.0128732
711.238	0.0129822
711.317	0.0132741
711.395	0.0137724
711.473	0.0140878
711.551	0.0143132
711.629	0.0147321
711.707	0.0151501
711.785	0.0155142
711.863	0.0156205
711.942	0.0158245
712.020	0.0158383
712.098	0.0158757
712.176	0.0158041
712.254	0.0155818
712.332	0.0155408
712.410	0.0152010
712.488	0.0152287
712.567	0.0149621
712.645	0.0150328
712.723	0.0148560
712.801	0.0148052
712.879	0.0148866
712.957	0.0147878
713.035	0.0150099
713.113	0.0149577
713.192	0.0151083
713.270	0.0152012
713.348	0.0153853
713.426	0.0155090
713.504	0.0156508
713.582	0.0156921
713.660	0.0161317
713.738	0.0164272
713.817	0.0167993
713.895	0.0172005
713.973	0.0175979
714.051	0.0179657
714.129	0.0184579
714.207	0.0189978
714.285	0.0194363
714.363	0.0199936
714.442	0.0204694
714.520	0.0207638
714.598	0.0211550
714.676	0.0215438
714.754	0.0215428
714.832	0.0213303
714.910	0.0213462
714.988	0.0211124
715.067	0.0204962
715.145	0.0200240
715.223	0.0195389
715.301	0.0189612
715.379	0.0184359
715.457	0.0177371
715.535	0.0170763
715.613	0.0165370
715.692	0.0160024
715.770	0.0155501
715.848	0.0151071
715.926	0.0147571
716.004	0.0147725
716.082	0.0147442
716.160	0.0147702
716.238	0.0149301
716.317	0.0150890
716.395	0.0154850
716.473	0.0159502
716.551	0.0162296
716.629	0.0168022
716.707	0.0168329
716.785	0.0172122
716.863	0.0174933
716.942	0.0174770
717.020	0.0175761
717.098	0.0177014
717.176	0.0174894
717.254	0.0171619
717.332	0.0168279
717.410	0.0163489
717.488	0.0159068
717.567	0.0153463
717.645	0.0147994
717.723	0.0143156
717.801	0.0140126
717.879	0.0134576
717.957	0.0131159
718.035	0.0126762
718.113	0.0124590
718.192	0.0123502
718.270	0.0123188
718.348	0.0123921
718.426	0.0125547
718.504	0.0128490
718.582	0.0131422
718.660	0.0135012
718.738	0.0138567
718.817	0.0145041
718.895	0.0148847
718.973	0.0156386
719.051	0.0163884
719.129	0.0168890
719.207	0.0174416
719.285	0.0180299
719.363	0.0186701
719.442	0.0189700
719.520	0.0194428
719.598	0.0197383
719.676	0.0198839
719.754	0.0200549
719.832	0.0200466
719.910	0.0200837
719.988	0.0200716
720.067	0.0195168
720.145	0.0193486
720.223	0.0189529
720.301	0.0185598
720.379	0.0182339
720.457	0.0177223
720.535	0.0174263
720.613	0.0170895
720.692	0.0168811
720.770	0.0166331
720.848	0.0164213
720.926	0.0164386
721.004	0.0165243
721.082	0.0165225
721.160	0.0167177
721.238	0.0168349
721.317	0.0171701
721.395	0.0172610
721.473	0.0176543
721.551	0.0177939
721.629	0.0182332
721.707	0.0185018
721.785	0.0185726
721.863	0.0187461
721.942	0.0189601
722.020	0.0190022
722.098	0.0189235
722.176	0.0186404
722.254	0.0183382
722.332	0.0179550
722.410	0.0175758
722.488	0.0171136
722.567	0.0168663
722.645	0.0162589
722.723	0.0157480
722.801	0.0152366
722.879	0.0148235
722.957	0.0143910
723.035	0.0140798
723.113	0.0138017
723.192	0.0134679
723.270	0.0131704
723.348	0.0130582
723.426	0.0130495
723.504	0.0131322
723.582	0.0131570
723.660	0.0134016
723.738	0.0135773
723.817	0.0139207
723.895	0.0142006
723.973	0.0145425
724.051	0.0150144
724.129	0.0154408
724.207	0.0156588
724.285	0.0161652
724.363	0.0165514
724.442	0.0168622
724.520	0.0170032
724.598	0.0173399
724.676	0.0174823
724.754	0.0177903
724.832	0.0177573
724.910	0.0177945
724.988	0.0178595
725.067	0.0176554
725.145	0.0177283
725.223	0.0175809
725.301	0.0173419
725.379	0.0173965
725.457	0.0171607
725.535	0.0171207
725.613	0.0170030
725.692	0.0168452
725.770	0.0166108
725.848	0.0167459
725.926	0.0168619
726.004	0.0167582
726.082	0.0167503
726.160	0.0167650
726.238	0.0168904
726.317	0.0170698
726.395	0.0173602
726.473	0.0173552
726.551	0.0176956
726.629	0.0180717
726.707	0.0181054
726.785	0.0182030
726.863	0.0185828
726.942	0.0185892
727.020	0.0186958
727.098	0.0185799
727.176	0.0186233
727.254	0.0184399
727.332	0.0184361
727.410	0.0182484
727.488	0.0179146
727.567	0.0176047
727.645	0.0172703
727.723	0.0169917
727.801	0.0166980
727.879	0.0162914
727.957	0.0159556
728.035	0.0157286
728.113	0.0153217
728.192	0.0153033
728.270	0.0148504
728.348	0.0147999
728.426	0.0146302
728.504	0.0145690
728.582	0.0145454
728.660	0.0146671
728.738	0.0147454
728.817	0.0149557
728.895	0.0149668
728.973	0.0153439
729.051	0.0154924
729.129	0.0156087
729.207	0.0158506
729.285	0.0161216
729.363	0.0163213
729.442	0.0165597
729.520	0.0167220
729.598	0.0167704
729.676	0.0171172
729.754	0.0174039
729.832	0.0173594
729.910	0.0175145
729.988	0.0174571
730.067	0.0175385
730.145	0.0175849
730.223	0.0175797
730.301	0.0172405
730.379	0.0173839
730.457	0.0171166
730.535	0.0170027
730.613	0.0168913
730.692	0.0166375
730.770	0.0165806
730.848	0.0166160
730.926	0.0165730
731.004	0.0164526
731.082	0.0165271
731.160	0.0166479
731.238	0.0164779
731.317	0.0165352
731.395	0.0165259
731.473	0.0166962
731.551	0.0168111
731.629	0.0168890
731.707	0.0167523
731.785	0.0168272
731.863	0.0171280
731.942	0.0172302
732.020	0.0174118
732.098	0.0172769
732.176	0.0173447
732.254	0.0174781
732.332	0.0174316
732.410	0.0174704
732.488	0.0173981
732.567	0.0174014
732.645	0.0171568
732.723	0.0169649
732.801	0.0167370
732.879	0.0165338
732.957	0.0162346
733.035	0.0160831
733.113	0.0160252
733.192	0.0158860
733.270	0.0157750
733.348	0.0157471
733.426	0.0157033
733.504	0.0155177
733.582	0.0156277
733.660	0.0155889
733.738	0.0155996
733.817	0.0156448
733.895	0.0156960
733.973	0.0158891
734.051	0.0159282
734.129	0.0160336
734.207	0.0162137
734.285	0.0164012
734.363	0.0164723
734.442	0.0168084
734.520	0.0169283
734.598	0.0170177
734.676	0.0173682
734.754	0.0175206
734.832	0.0175118
734.910	0.0175113
734.988	0.0176717
735.067	0.0177251
735.145	0.0178402
735.223	0.0176939
735.301	0.0176865
735.379	0.0177147
735.457	0.0174030
735.535	0.0173705
735.613	0.0173152
735.692	0.0172363
735.770	0.0169872
735.848	0.0167271
735.926	0.0169346
736.004	0.0165960
736.082	0.0165466
736.160	0.0163027
736.238	0.0162640
736.317	0.0162238
736.395	0.0162247
736.473	0.0162831
736.551	0.0162203
736.629	0.0163287
736.707	0.0162675
736.785	0.0163454
736.863	0.0164407
736.942	0.0165826
737.020	0.0166065
737.098	0.0168093
737.176	0.0168078
737.254	0.0168584
737.332	0.0169066
737.410	0.0170143
737.488	0.0170677
737.567	0.0170336
737.645	0.0170541
737.723	0.0170727
737.801	0.0171832
737.879	0.0169359
737.957	0.0168903
738.035	0.0169514
738.113	0.0169281
738.192	0.0167083
738.270	0.0164768
738.348	0.0162630
738.426	0.0161562
738.504	0.0160973
738.582	0.0159487
738.660	0.0159190
738.738	0.0158576
738.817	0.0156574
738.895	0.0155563
738.973	0.0155327
739.051	0.0156336
739.129	0.0155834
739.207	0.0154884
739.285	0.0155484
739.363	0.0157069
739.442	0.0159398
739.520	0.0160136
739.598	0.0161749
739.676	0.0162013
739.754	0.0162859
739.832	0.0164571
739.910	0.0166146
739.988	0.0166379
740.067	0.0170680
740.145	0.0171964
740.223	0.0171150
740.301	0.0173325
740.379	0.0174542
740.457	0.0173548
740.535	0.0174920
740.613	0.0177715
740.692	0.0175908
740.770	0.0175338
740.848	0.0175517
740.926	0.0174865
741.004	0.0173065
741.082	0.0173111
741.160	0.0171960
741.238	0.0170620
741.317	0.0170747
741.395	0.0170771
741.473	0.0169754
741.551	0.0169229
741.629	0.0168936
741.707	0.0167597
741.785	0.0167444
741.863	0.0167549
741.942	0.0167582
742.020	0.0166879
742.098	0.0167557
742.176	0.0166827
742.254	0.0168752
742.332	0.0168295
742.410	0.0168301
742.488	0.0169065
742.567	0.0169090
742.645	0.0168097
742.723	0.0169613
742.801	0.0169318
742.879	0.0169366
742.957	0.0167900
743.035	0.0166590
743.113	0.0168523
743.192	0.0165108
743.270	0.0164121
743.348	0.0164861
743.426	0.0162362
743.504	0.0162097
743.582	0.0161860
743.660	0.0160007
743.738	0.0160759
743.817	0.0161138
743.895	0.0159683
743.973	0.0158809
744.051	0.0159113
744.129	0.0157369
744.207	0.0156941
744.285	0.0156609
744.363	0.0157686
744.442	0.0157578
744.520	0.0157699
744.598	0.0158195
744.676	0.0158194
744.754	0.0158820
744.832	0.0161314
744.910	0.0162621
744.988	0.0161977
745.067	0.0164794
745.145	0.0166929
745.223	0.0166229
745.301	0.0168975
745.379	0.0169816
745.457	0.0170622
745.535	0.0171489
745.613	0.0174627
745.692	0.0173785
745.770	0.0174083
745.848	0.0175536
745.926	0.0174445
746.004	0.0175024
746.082	0.0174437
746.160	0.0174513
746.238	0.0171914
746.317	0.0171441
746.395	0.0170692
746.473	0.0169403
746.551	0.0167349
746.629	0.0167892
746.707	0.0165886
746.785	0.0166389
746.863	0.0164230
746.942	0.0163156
747.020	0.0164787
747.098	0.0162947
747.176	0.0162331
747.254	0.0163260
747.332	0.0164348
747.410	0.0164697
747.488	0.0164587
747.567	0.0163976
747.645	0.0164628
747.723	0.0164484
747.801	0.0164595
747.879	0.0164484
747.957	0.0165594
748.035	0.0166338
748.113	0.0165919
748.192	0.0166870
748.270	0.0166372
748.348	0.0168149
748.426	0.0170473
748.504	0.0168017
748.582	0.0168206
748.660	0.0169432
748.738	0.0170081
748.817	0.0168850
748.895	0.0167816
748.973	0.0169894
749.051	0.0168064
749.129	0.0166115
749.207	0.0165784
749.285	0.0164223
749.363	0.0165549
749.442	0.0164055
749.520	0.0164313
749.598	0.0162562
749.676	0.0160841
749.754	0.0160874
749.832	0.0160613
749.910	0.0160271
749.988	0.0163474
750.067	0.0161537
750.145	0.0160645
750.223	0.0163033
750.301	0.0163166
750.379	0.0164573
750.457	0.0166438
750.535	0.0167290
750.613	0.0167648
750.692	0.0169417
750.770	0.0170839
750.848	0.0171867
750.926	0.0171854
751.004	0.0172942
751.082	0.0174149
751.160	0.0173161
751.238	0.0173026
751.317	0.0172392
751.395	0.0172696
751.473	0.0172330
751.551	0.0171253
751.629	0.0171349
751.707	0.0169585
751.785	0.0169221
751.863	0.0166742
751.942	0.0166299
752.020	0.0166295
752.098	0.0166584
752.176	0.0164454
752.254	0.0163283
752.332	0.0162414
752.410	0.0161912
752.488	0.0161590
752.567	0.0160276
752.645	0.0160108
752.723	0.0161182
752.801	0.0160485
752.879	0.0160362
752.957	0.0160210
753.035	0.0161301
753.113	0.0161794
753.192	0.0162901
753.270	0.0162936
753.348	0.0163795
753.426	0.0164723
753.504	0.0164103
753.582	0.0165166
753.660	0.0165400
753.738	0.0165636
753.817	0.0165330
753.895	0.0166386
753.973	0.0166585
754.051	0.0165664
754.129	0.0165880
754.207	0.0165610
754.285	0.0163967
754.363	0.0164742
754.442	0.0165382
754.520	0.0164425
754.598	0.0163477
754.676	0.0163053
754.754	0.0162701
754.832	0.0163042
754.910	0.0162669
754.988	0.0165242
755.067	0.0166095
755.145	0.0165633
755.223	0.0166361
755.301	0.0167933
755.379	0.0168568
755.457	0.0169640
755.535	0.0170003
755.613	0.0172516
755.692	0.0172169
755.770	0.0174368
755.848	0.0175286
755.926	0.0173824
756.004	0.0174455
756.082	0.0174964
756.160	0.0175858
756.238	0.0174438
756.317	0.0175104
756.395	0.0174579
756.473	0.0174843
756.551	0.0173946
756.629	0.0174354
756.707	0.0171672
756.785	0.0171516
756.863	0.0170797
756.942	0.0170210
757.020	0.0169421
757.098	0.0168471
757.176	0.0167048
757.254	0.0166154
757.332	0.0163548
757.410	0.0163728
757.488	0.0162812
757.567	0.0162921
757.645	0.0160592
757.723	0.0160637
757.801	0.0160363
757.879	0.0159184
757.957	0.0157826
758.035	0.0158115
758.113	0.0159238
758.192	0.0158738
758.270	0.0157831
758.348	0.0157624
758.426	0.0159071
758.504	0.0158903
758.582	0.0159164
758.660	0.0160216
758.738	0.0162386
758.817	0.0161707
758.895	0.0163044
758.973	0.0163347
759.051	0.0165365
759.129	0.0162989
759.207	0.0163474
759.285	0.0165404
759.363	0.0165553
759.442	0.0166602
759.520	0.0165360
759.598	0.0165351
759.676	0.0166921
759.754	0.0165509
759.832	0.0165791
759.910	0.0166663
759.988	0.0167540
760.067	0.0166753
760.145	0.0167050
760.223	0.0167683
760.301	0.0167996
760.379	0.0169421
760.457	0.0169298
760.535	0.0168331
760.613	0.0169610
760.692	0.0171363
760.770	0.0171035
760.848	0.0170834
760.926	0.0171468
761.004	0.0171526
761.082	0.0171458
761.160	0.0172117
761.238	0.0173366
761.317	0.0171658
761.395	0.0172242
761.473	0.0170724
761.551	0.0170959
761.629	0.0171160
761.707	0.0171407
761.785	0.0170993
761.863	0.0170592
761.942	0.0169553
762.020	0.0169954
762.098	0.0169564
762.176	0.0167691
762.254	0.0168658
762.332	0.0168261
762.410	0.0166856
762.488	0.0167918
762.567	0.0167295
762.645	0.0165354
762.723	0.0166590
762.801	0.0164403
762.879	0.0164580
762.957	0.0163807
763.035	0.0163579
763.113	0.0164858
763.192	0.0164566
763.270	0.0163630
763.348	0.0161510
763.426	0.0163770
763.504	0.0162019
763.582	0.0160091
763.660	0.0163673
763.738	0.0164110
763.817	0.0163389
763.895	0.0163075
763.973	0.0162789
764.051	0.0164008
764.129	0.0164723
764.207	0.0164561
764.285	0.0165610
764.363	0.0165138
764.442	0.0166653
764.520	0.0166479
764.598	0.0165720
764.676	0.0165593
764.754	0.0166994
764.832	0.0166520
764.910	0.0165062
764.988	0.0165257
765.067	0.0166293
765.145	0.0164822
765.223	0.0164460
765.301	0.0163464
765.379	0.0163570
765.457	0.0164616
765.535	0.0164452
765.613	0.0165009
765.692	0.0164803
765.770	0.0165242
765.848	0.0166569
765.926	0.0166006
766.004	0.0165771
766.082	0.0166872
766.160	0.0167182
766.238	0.0168320
766.317	0.0169375
766.395	0.0168029
766.473	0.0168392
766.551	0.0169353
766.629	0.0169873
766.707	0.0168681
766.785	0.0168145
766.863	0.0169168
766.942	0.0169349
767.020	0.0169132
767.098	0.0169149
767.176	0.0169687
767.254	0.0169225
767.332	0.0169775
767.410	0.0168752
767.488	0.0170052
767.567	0.0169647
767.645	0.0170206
767.723	0.0168657
767.801	0.0168349
767.879	0.0169840
767.957	0.0168102
768.035	0.0167268
768.113	0.0167460
768.192	0.0166216
768.270	0.0165661
768.348	0.0163949
768.426	0.0165115
768.504	0.0164786
768.582	0.0165039
768.660	0.0163451
768.738	0.0163232
768.817	0.0162600
768.895	0.0163285
768.973	0.0162863
769.051	0.0162190
769.129	0.0161972
769.207	0.0162482
769.285	0.0162347
769.363	0.0163107
769.442	0.0162067
769.520	0.0162758
769.598	0.0163885
769.676	0.0164467
769.754	0.0164771
769.832	0.0163855
769.910	0.0164185
769.988	0.0163460
770.067	0.0163759
770.145	0.0165681
770.223	0.0164867
770.301	0.0164899
770.379	0.0164283
770.457	0.0164820
770.535	0.0166327
770.613	0.0165063
770.692	0.0164726
770.770	0.0168277
770.848	0.0166418
770.926	0.0166142
771.004	0.0166631
771.082	0.0169811
771.160	0.0167619
771.238	0.0168725
771.317	0.0171296
771.395	0.0169640
771.473	0.0170103
771.551	0.0169407
771.629	0.0170304
771.707	0.0170868
771.785	0.0172493
771.863	0.0172075
771.942	0.0171938
772.020	0.0172935
772.098	0.0171788
772.176	0.0169650
772.254	0.0170356
772.332	0.0170425
772.410	0.0168880
772.488	0.0168150
772.567	0.0168584
772.645	0.0167281
772.723	0.0167173
772.801	0.0166589
772.879	0.0164753
772.957	0.0165563
773.035	0.0163383
773.113	0.0162947
773.192	0.0163784
773.270	0.0163460
773.348	0.0162613
773.426	0.0161848
773.504	0.0162743
773.582	0.0162147
773.660	0.0162388
773.738	0.0164314
773.817	0.0162933
773.895	0.0162685
773.973	0.0162189
774.051	0.0163181
774.129	0.0163944
774.207	0.0163591
774.285	0.0162662
774.363	0.0163210
774.442	0.0164168
774.520	0.0164063
774.598	0.0165347
774.676	0.0166139
774.754	0.0165294
774.832	0.0167159
774.910	0.0165580
774.988	0.0166077
775.067	0.0166708
775.145	0.0165083
775.223	0.0163902
775.301	0.0166309
775.379	0.0166757
775.457	0.0165593
775.535	0.0167440
775.613	0.0166078
775.692	0.0167448
775.770	0.0166627
775.848	0.0167796
775.926	0.0168557
776.004	0.0170341
776.082	0.0168797
776.160	0.0169843
776.238	0.0170336
776.317	0.0171163
776.395	0.0172478
776.473	0.0171239
776.551	0.0170101
776.629	0.0169863
776.707	0.0170846
776.785	0.0171725
776.863	0.0171255
776.942	0.0170798
777.020	0.0170483
777.098	0.0170412
777.176	0.0169643
777.254	0.0169325
777.332	0.0168476
777.410	0.0168327
777.488	0.0168320
777.567	0.0168768
777.645	0.0165496
777.723	0.0168344
777.801	0.0167853
777.879	0.0166046
777.957	0.0164803
778.035	0.0165853
778.113	0.0166390
778.192	0.0162733
778.270	0.0164223
778.348	0.0163265
778.426	0.0163434
778.504	0.0163190
778.582	0.0162110
778.660	0.0162285
778.738	0.0162838
778.817	0.0161758
778.895	0.0161308
778.973	0.0160949
779.051	0.0161001
779.129	0.0162518
779.207	0.0163309
779.285	0.0163560
779.363	0.0162324
779.442	0.0164302
779.520	0.0164970
779.598	0.0164584
779.676	0.0165067
779.754	0.0166116
779.832	0.0166685
779.910	0.0166645
779.988	0.0166937
780.067	0.0169004
780.145	0.0168642
780.223	0.0167978
780.301	0.0168294
780.379	0.0169234
780.457	0.0170633
780.535	0.0169587
780.613	0.0170014
780.692	0.0169767
780.770	0.0168860
780.848	0.0168597
780.926	0.0169270
781.004	0.0170077
781.082	0.0168378
781.160	0.0168288
781.238	0.0168035
781.317	0.0170451
781.395	0.0169704
781.473	0.0170108
781.551	0.0169733
781.629	0.0169482
781.707	0.0168768
781.785	0.0169868
781.863	0.0170555
781.942	0.0171271
782.020	0.0169650
782.098	0.0170378
782.176	0.0170469
782.254	0.0170029
782.332	0.0168665
782.410	0.0168555
782.488	0.0169384
782.567	0.0168687
782.645	0.0165661
782.723	0.0167781
782.801	0.0167150
782.879	0.0164791
782.957	0.0163940
783.035	0.0164011
783.113	0.0161278
783.192	0.0160440
783.270	0.0160784
783.348	0.0159813
783.426	0.0159416
783.504	0.0157329
783.582	0.0156248
783.660	0.0157277
783.738	0.0156728
783.817	0.0155253
783.895	0.0155888
783.973	0.0156783
784.051	0.0156464
784.129	0.0158766
784.207	0.0160208
784.285	0.0161059
784.363	0.0162081
784.442	0.0164430
784.520	0.0167382
784.598	0.0168232
784.676	0.0170744
784.754	0.0172601
784.832	0.0173238
784.910	0.0175047
784.988	0.0177357
785.067	0.0178246
785.145	0.0179183
785.223	0.0178506
785.301	0.0177345
785.379	0.0178980
785.457	0.0178134
785.535	0.0176807
785.613	0.0178066
785.692	0.0176043
785.770	0.0173929
785.848	0.0173501
785.926	0.0171743
786.004	0.0170308
786.082	0.0168221
786.160	0.0169250
786.238	0.0167328
786.317	0.0167657
786.395	0.0165992
786.473	0.0166089
786.551	0.0165209
786.629	0.0164824
786.707	0.0164983
786.785	0.0164609
786.863	0.0162870
786.942	0.0161971
787.020	0.0160164
787.098	0.0159686
787.176	0.0160616
787.254	0.0159106
787.332	0.0159235
787.410	0.0158724
787.488	0.0156016
787.567	0.0156570
787.645	0.0156807
787.723	0.0156750
787.801	0.0157430
787.879	0.0156305
787.957	0.0156879
788.035	0.0156217
788.113	0.0156873
788.192	0.0158128
788.270	0.0157851
788.348	0.0159147
788.426	0.0159197
788.504	0.0161233
788.582	0.0161585
788.660	0.0161475
788.738	0.0165186
788.817	0.0165079
788.895	0.0167133
788.973	0.0169017
789.051	0.0169635
789.129	0.0171248
789.207	0.0174760
789.285	0.0176568
789.363	0.0177055
789.442	0.0177983
789.520	0.0179314
789.598	0.0179428
789.676	0.0180646
789.754	0.0181281
789.832	0.0181586
789.910	0.0180163
789.988	0.0179215
790.067	0.0178976
790.145	0.0178440
790.223	0.0176009
790.301	0.0176498
790.379	0.0175130
790.457	0.0172412
790.535	0.0172463
790.613	0.0171038
790.692	0.0170065
790.770	0.0169331
790.848	0.0166599
790.926	0.0165758
791.004	0.0165853
791.082	0.0162885
791.160	0.0160680
791.238	0.0161599
791.317	0.0160245
791.395	0.0161636
791.473	0.0159620
791.551	0.0159304
791.629	0.0157940
791.707	0.0159100
791.785	0.0158428
791.863	0.0157630
791.942	0.0158925
792.020	0.0157685
792.098	0.0158355
792.176	0.0159621
792.254	0.0158405
792.332	0.0157059
792.410	0.0158547
792.488	0.0158028
792.567	0.0157648
792.645	0.0158280
792.723	0.0158273
792.801	0.0157524
792.879	0.0158717
792.957	0.0158424
793.035	0.0159171
793.113	0.0159190
793.192	0.0159568
793.270	0.0161607
793.348	0.0162385
793.426	0.0164109
793.504	0.0165206
793.582	0.0165491
793.660	0.0166714
793.738	0.0167773
793.817	0.0170062
793.895	0.0171055
793.973	0.0172887
794.051	0.0175362
794.129	0.0176165
794.207	0.0177843
794.285	0.0179388
794.363	0.0179332
794.442	0.0182230
794.520	0.0181187
794.598	0.0181538
794.676	0.0181911
794.754	0.0179086
794.832	0.0178409
794.910	0.0178683
794.988	0.0177921
795.067	0.0176463
795.145	0.0176086
795.223	0.0173223
795.301	0.0172097
795.379	0.0170970
795.457	0.0170332
795.535	0.0170174
795.613	0.0168279
795.692	0.0168051
795.770	0.0166985
795.848	0.0167107
795.926	0.0165350
796.004	0.0163522
796.082	0.0164124
796.160	0.0162979
796.238	0.0161572
796.317	0.0162217
796.395	0.0162337
796.473	0.0161752
796.551	0.0161065
796.629	0.0162273
796.707	0.0160574
796.785	0.0160503
796.863	0.0161695
796.942	0.0161512
797.020	0.0160678
797.098	0.0161157
797.176	0.0158317
797.254	0.0159847
797.332	0.0158793
797.410	0.0159564
797.488	0.0157764
797.567	0.0157991
797.645	0.0156528
797.723	0.0160114
797.801	0.0159008
797.879	0.0158405
797.957	0.0160487
798.035	0.0160416
798.113	0.0159349
798.192	0.0161529
798.270	0.0162395
798.348	0.0161985
798.426	0.0161739
798.504	0.0163598
798.582	0.0165182
798.660	0.0164261
798.738	0.0166354
798.817	0.0167033
798.895	0.0168419
798.973	0.0169941
799.051	0.0169637
799.129	0.0171150
799.207	0.0172903
799.285	0.0173797
799.363	0.0175434
799.442	0.0176263
799.520	0.0175767
799.598	0.0176643
799.676	0.0176567
799.754	0.0175983
799.832	0.0176556
799.910	0.0176720
799.988	0.0173943
800.067	0.0175174
800.145	0.0173394
800.223	0.0174065
800.301	0.0174049
800.379	0.0172523
800.457	0.0173168
800.535	0.0171553
800.613	0.0171587
800.692	0.0170601
800.770	0.0172274
800.848	0.0171471
800.926	0.0169755
801.004	0.0170515
801.082	0.0169375
801.160	0.0170291
801.238	0.0169746
801.317	0.0169562
801.395	0.0168521
801.473	0.0168288
801.551	0.0169594
801.629	0.0167579
801.707	0.0167024
801.785	0.0166983
801.863	0.0165041
801.942	0.0165239
802.020	0.0164467
802.098	0.0162904
802.176	0.0162186
802.254	0.0160179
802.332	0.0160374
802.410	0.0158559
802.488	0.0157938
802.567	0.0157114
802.645	0.0157704
802.723	0.0156123
802.801	0.0157570
802.879	0.0156207
802.957	0.0156447
803.035	0.0157319
803.113	0.0158237
803.192	0.0158578
803.270	0.0159605
803.348	0.0160009
803.426	0.0160696
803.504	0.0160551
803.582	0.0161216
803.660	0.0161208
803.738	0.0161603
803.817	0.0162525
803.895	0.0163627
803.973	0.0165709
804.051	0.0164609
804.129	0.0166710
804.207	0.0166367
804.285	0.0167361
804.363	0.0168133
804.442	0.0169301
804.520	0.0170975
804.598	0.0170701
804.676	0.0171021
804.754	0.0170949
804.832	0.0173178
804.910	0.0172763
804.988	0.0172454
805.067	0.0173099
805.145	0.0173711
805.223	0.0172954
805.301	0.0173067
805.379	0.0173201
805.457	0.0175056
805.535	0.0175713
805.613	0.0172475
805.692	0.0174596
805.770	0.0174796
805.848	0.0174764
805.926	0.0174494
806.004	0.0174681
806.082	0.0174919
806.160	0.0174914
806.238	0.0174288
806.317	0.0174231
806.395	0.0174065
806.473	0.0174149
806.551	0.0171867
806.629	0.0171569
806.707	0.0169399
806.785	0.0170064
806.863	0.0169654
806.942	0.0167336
807.020	0.0168480
807.098	0.0167175
807.176	0.0164380
807.254	0.0164955
807.332	0.0163408
807.410	0.0161812
807.488	0.0161687
807.567	0.0160605
807.645	0.0160033
807.723	0.0159553
807.801	0.0159525
807.879	0.0158752
807.957	0.0159333
808.035	0.0159159
808.113	0.0160249
808.192	0.0157045
808.270	0.0158735
808.348	0.0159825
808.426	0.0157856
808.504	0.0158171
808.582	0.0157725
808.660	0.0157751
808.738	0.0157112
808.817	0.0159109
808.895	0.0159444
808.973	0.0158796
809.051	0.0159431
809.129	0.0160168
809.207	0.0159874
809.285	0.0162200
809.363	0.0164365
809.442	0.0162643
809.520	0.0163447
809.598	0.0163676
809.676	0.0166074
809.754	0.0165982
809.832	0.0166097
809.910	0.0168671
809.988	0.0169371
810.067	0.0169849
810.145	0.0169880
810.223	0.0171091
810.301	0.0171453
810.379	0.0172864
810.457	0.0173420
810.535	0.0173620
810.613	0.0174167
810.692	0.0173400
810.770	0.0174888
810.848	0.0175957
810.926	0.0175320
811.004	0.0174752
811.082	0.0175795
811.160	0.0174865
811.238	0.0174876
811.317	0.0176842
811.395	0.0175343
811.473	0.0174165
811.551	0.0173582
811.629	0.0172866
811.707	0.0172002
811.785	0.0171404
811.863	0.0169997
811.942	0.0170744
812.020	0.0169732
812.098	0.0168379
812.176	0.0168754
812.254	0.0167710
812.332	0.0166681
812.410	0.0166532
812.488	0.0165033
812.567	0.0165607
812.645	0.0164076
812.723	0.0164743
812.801	0.0163869
812.879	0.0164887
812.957	0.0164064
813.035	0.0164110
813.113	0.0163145
813.192	0.0164790
813.270	0.0163664
813.348	0.0161539
813.426	0.0161008
813.504	0.0160404
813.582	0.0159993
813.660	0.0160472
813.738	0.0159933
813.817	0.0157739
813.895	0.0157714
813.973	0.0158012
814.051	0.0157638
814.129	0.0157100
814.207	0.0158456
814.285	0.0157817
814.363	0.0158230
814.442	0.0157226
814.520	0.0158644
814.598	0.0159449
814.676	0.0158767
814.754	0.0160451
814.832	0.0159863
814.910	0.0160938
814.988	0.0160987
815.067	0.0162009
815.145	0.0163234
815.223	0.0164362
815.301	0.0165160
815.379	0.0165281
815.457	0.0166293
815.535	0.0166361
815.613	0.0168725
815.692	0.0169900
815.770	0.0169508
815.848	0.0170434
815.926	0.0171116
816.004	0.0171997
816.082	0.0173428
816.160	0.0172914
816.238	0.0173603
816.317	0.0174088
816.395	0.0173865
816.473	0.0175594
816.551	0.0175711
816.629	0.0174200
816.707	0.0174632
816.785	0.0172818
816.863	0.0173054
816.942	0.0173345
817.020	0.0174743
817.098	0.0172844
817.176	0.0172337
817.254	0.0172919
817.332	0.0171287
817.410	0.0169738
817.488	0.0168822
817.567	0.0168737
817.645	0.0167905
817.723	0.0168737
817.801	0.0167979
817.879	0.0167899
817.957	0.0167162
818.035	0.0166676
818.113	0.0165768
818.192	0.0167892
818.270	0.0166832
818.348	0.0164484
818.426	0.0165269
818.504	0.0163744
818.582	0.0163776
818.660	0.0164576
818.738	0.0163116
818.817	0.0163188
818.895	0.0161905
818.973	0.0161240
819.051	0.0160155
819.129	0.0159420
819.207	0.0160704
819.285	0.0161584
819.363	0.0159996
819.442	0.0161755
819.520	0.0160230
819.598	0.0159372
819.676	0.0160544
819.754	0.0159809
819.832	0.0158724
819.910	0.0160525
819.988	0.0160892
820.067	0.0161097
820.145	0.0161227
820.223	0.0160104
820.301	0.0160268
820.379	0.0160788
820.457	0.0161945
820.535	0.0162341
820.613	0.0162338
820.692	0.0163683
820.770	0.0163188
820.848	0.0164728
820.926	0.0165977
821.004	0.0166757
821.082	0.0166825
821.160	0.0167008
821.238	0.0168034
821.317	0.0167636
821.395	0.0168248
821.473	0.0169547
821.551	0.0169006
821.629	0.0169012
821.707	0.0170930
821.785	0.0171078
821.863	0.0170207
821.942	0.0170293
822.020	0.0171373
822.098	0.0172099
822.176	0.0172318
822.254	0.0170456
822.332	0.0171999
822.410	0.0171566
822.488	0.0171420
822.567	0.0170399
822.645	0.0171142
822.723	0.0169287
822.801	0.0168481
822.879	0.0168872
822.957	0.0167847
823.035	0.0166985
823.113	0.0165451
823.192	0.0165814
823.270	0.0165275
823.348	0.0166759
823.426	0.0165099
823.504	0.0165262
823.582	0.0164130
823.660	0.0166924
823.738	0.0164383
823.817	0.0164114
823.895	0.0166252
823.973	0.0165845
824.051	0.0165584
824.129	0.0165692
824.207	0.0166170
824.285	0.0166347
824.363	0.0166251
824.442	0.0166674
824.520	0.0167204
824.598	0.0167775
824.676	0.0167182
824.754	0.0166337
824.832	0.0168063
824.910	0.0166782
824.988	0.0166177
825.067	0.0164983
825.145	0.0165650
825.223	0.0166998
825.301	0.0164563
825.379	0.0164905
825.457	0.0164079
825.535	0.0162840
825.613	0.0164402
825.692	0.0163187
825.770	0.0162677
825.848	0.0163600
825.926	0.0164446
826.004	0.0164497
826.082	0.0164275
826.160	0.0165769
826.238	0.0167204
826.317	0.0166225
826.395	0.0165910
826.473	0.0167277
826.551	0.0166850
826.629	0.0167260
826.707	0.0168286
826.785	0.0168529
826.863	0.0168494
826.942	0.0168173
827.020	0.0167043
827.098	0.0166885
827.176	0.0167738
827.254	0.0167846
827.332	0.0167487
827.410	0.0168139
827.488	0.0166528
827.567	0.0165892
827.645	0.0166399
827.723	0.0166578
827.801	0.0167074
827.879	0.0165869
827.957	0.0164503
828.035	0.0165985
828.113	0.0166495
828.192	0.0166326
828.270	0.0166355
828.348	0.0165239
828.426	0.0167166
828.504	0.0165730
828.582	0.0165770
828.660	0.0166402
828.738	0.0166919
828.817	0.0165382
828.895	0.0166084
828.973	0.0166545
829.051	0.0166675
829.129	0.0165577
829.207	0.0166230
829.285	0.0166109
829.363	0.0164088
829.442	0.0165259
829.520	0.0165055
829.598	0.0165498
829.676	0.0166177
829.754	0.0165514
829.832	0.0164455
829.910	0.0164954
829.988	0.0165752
830.067	0.0164977
830.145	0.0164452
830.223	0.0166238
830.301	0.0167683
830.379	0.0166492
830.457	0.0165851
830.535	0.0165736
830.613	0.0167187
830.692	0.0166893
830.770	0.0167900
830.848	0.0167858
830.926	0.0169022
831.004	0.0170039
831.082	0.0169528
831.160	0.0168449
831.238	0.0168174
831.317	0.0169156
831.395	0.0170548
831.473	0.0169837
831.551	0.0169973
831.629	0.0169991
831.707	0.0168945
831.785	0.0169995
831.863	0.0169612
831.942	0.0169150
832.020	0.0167864
832.098	0.0166583
832.176	0.0169640
832.254	0.0167323
832.332	0.0166432
832.410	0.0166179
832.488	0.0166644
832.567	0.0165596
832.645	0.0167467
832.723	0.0166082
832.801	0.0166198
832.879	0.0166518
832.957	0.0164304
833.035	0.0164892
833.113	0.0165469
833.192	0.0163979
833.270	0.0163678
833.348	0.0163263
833.426	0.0163966
833.504	0.0163967
833.582	0.0163382
833.660	0.0163161
833.738	0.0164071
833.817	0.0163499
833.895	0.0161681
833.973	0.0162685
834.051	0.0163653
834.129	0.0161499
834.207	0.0160757
834.285	0.0162256
834.363	0.0160667
834.442	0.0163214
834.520	0.0164554
834.598	0.0163009
834.676	0.0163610
834.754	0.0163106
834.832	0.0165085
834.910	0.0164095
834.988	0.0163725
835.067	0.0166419
835.145	0.0166460
835.223	0.0167574
835.301	0.0167023
835.379	0.0167599
835.457	0.0167834
835.535	0.0167968
835.613	0.0168346
835.692	0.0169570
835.770	0.0170197
835.848	0.0169926
835.926	0.0170126
836.004	0.0170885
836.082	0.0170977
836.160	0.0170761
836.238	0.0169659
836.317	0.0170035
836.395	0.0170370
836.473	0.0169841
836.551	0.0169914
836.629	0.0169490
836.707	0.0167839
836.785	0.0168736
836.863	0.0168896
836.942	0.0168423
837.020	0.0168320
837.098	0.0166006
837.176	0.0165262
837.254	0.0165984
837.332	0.0167406
837.410	0.0166257
837.488	0.0166219
837.567	0.0165751
837.645	0.0165755
837.723	0.0166420
837.801	0.0165537
837.879	0.0165836
837.957	0.0165897
838.035	0.0166431
838.113	0.0166122
838.192	0.0166637
838.270	0.0165587
838.348	0.0164954
838.426	0.0164895
838.504	0.0165833
838.582	0.0165106
838.660	0.0164434
838.738	0.0164260
838.817	0.0164228
838.895	0.0163557
838.973	0.0165224
839.051	0.0164926
839.129	0.0162801
839.207	0.0164334
839.285	0.0163663
839.363	0.0164613
839.442	0.0163844
839.520	0.0162392
839.598	0.0163823
839.676	0.0162774
839.754	0.0163489
839.832	0.0164482
839.910	0.0164153
839.988	0.0165159
840.067	0.0165045
840.145	0.0164200
840.223	0.0166160
840.301	0.0166938
840.379	0.0166481
840.457	0.0166777
840.535	0.0168042
840.613	0.0168412
840.692	0.0167921
840.770	0.0169473
840.848	0.0168066
840.926	0.0167400
841.004	0.0168149
841.082	0.0167601
841.160	0.0169428
841.238	0.0168031
841.317	0.0169517
841.395	0.0168615
841.473	0.0167448
841.551	0.0168820
841.629	0.0167465
841.707	0.0168180
841.785	0.0168771
841.863	0.0168923
841.942	0.0168436
842.020	0.0167531
842.098	0.0166402
842.176	0.0167417
842.254	0.0168649
842.332	0.0167803
842.410	0.0167731
842.488	0.0168018
842.567	0.0167754
842.645	0.0167516
842.723	0.0168385
842.801	0.0165643
842.879	0.0166941
842.957	0.0167080
843.035	0.0166199
843.113	0.0165491
843.192	0.0164456
843.270	0.0166217
843.348	0.0164702
843.426	0.0165176
843.504	0.0166296
843.582	0.0164446
843.660	0.0163184
843.738	0.0165076
843.817	0.0165019
843.895	0.0163296
843.973	0.0164666
844.051	0.0163809
844.129	0.0164111
844.207	0.0164030
844.285	0.0163535
844.363	0.0163528
844.442	0.0164940
844.520	0.0163281
844.598	0.0163911
844.676	0.0165312
844.754	0.0164187
844.832	0.0162685
844.910	0.0163660
844.988	0.0164888
845.067	0.0164812
845.145	0.0165783
845.223	0.0166196
845.301	0.0165108
845.379	0.0165932
845.457	0.0165173
845.535	0.0165192
845.613	0.0166030
845.692	0.0167441
845.770	0.0167858
845.848	0.0166508
845.926	0.0166771
846.004	0.0167236
846.082	0.0166715
846.160	0.0166561
846.238	0.0166830
846.317	0.0167217
846.395	0.0168476
846.473	0.0168394
846.551	0.0167091
846.629	0.0169730
846.707	0.0168181
846.785	0.0168897
846.863	0.0169965
846.942	0.0169026
847.020	0.0167587
847.098	0.0168257
847.176	0.0169155
847.254	0.0169240
847.332	0.0168325
847.410	0.0170650
847.488	0.0169512
847.567	0.0168662
847.645	0.0167653
847.723	0.0167331
847.801	0.0168740
847.879	0.0169243
847.957	0.0168671
848.035	0.0167342
848.113	0.0166310
848.192	0.0167630
848.270	0.0166247
848.348	0.0165128
848.426	0.0166040
848.504	0.0166930
848.582	0.0166388
848.660	0.0164867
848.738	0.0164413
848.817	0.0165682
848.895	0.0165981
848.973	0.0165646
849.051	0.0164599
849.129	0.0165453
849.207	0.0165803
849.285	0.0164902
849.363	0.0166621
849.442	0.0165601
849.520	0.0164604
849.598	0.0163164
849.676	0.0165235
849.754	0.0164559
849.832	0.0164609
849.910	0.0163931
849.988	0.0163706
850.067	0.0164425
850.145	0.0163771
850.223	0.0163458
850.301	0.0163462
850.379	0.0163376
850.457	0.0163210
850.535	0.0163618
850.613	0.0161949
850.692	0.0163227
850.770	0.0161960
850.848	0.0163297
850.926	0.0164018
851.004	0.0164785
851.082	0.0165833
851.160	0.0164625
851.238	0.0166048
851.317	0.0165479
851.395	0.0167628
851.473	0.0167419
851.551	0.0167931
851.629	0.0167754
851.707	0.0168193
851.785	0.0168712
851.863	0.0168803
851.942	0.0168578
852.020	0.0168552
852.098	0.0168546
852.176	0.0171027
852.254	0.0171231
852.332	0.0169424
852.410	0.0169892
852.488	0.0169632
852.567	0.0169046
852.645	0.0169747
852.723	0.0170446
852.801	0.0169104
852.879	0.0168464
852.957	0.0169081
853.035	0.0169513
853.113	0.0167811
853.192	0.0167565
853.270	0.0168188
853.348	0.0168435
853.426	0.0167831
853.504	0.0168146
853.582	0.0168325
853.660	0.0166516
853.738	0.0167800
853.817	0.0166782
853.895	0.0167459
853.973	0.0167435
854.051	0.0167571
854.129	0.0168464
854.207	0.0167078
854.285	0.0168642
854.363	0.0167068
854.442	0.0166507
854.520	0.0167236
854.598	0.0166248
854.676	0.0166709
854.754	0.0166408
854.832	0.0167092
854.910	0.0166719
854.988	0.0165199
855.067	0.0165232
855.145	0.0165556
855.223	0.0166341
855.301	0.0164746
855.379	0.0164332
855.457	0.0164746
855.535	0.0164246
855.613	0.0163940
855.692	0.0164186
855.770	0.0164621
855.848	0.0163060
855.926	0.0163237
856.004	0.0164758
856.082	0.0164065
856.160	0.0164855
856.238	0.0164271
856.317	0.0163354
856.395	0.0164413
856.473	0.0164948
856.551	0.0165166
856.629	0.0165107
856.707	0.0163153
856.785	0.0164070
856.863	0.0166143
856.942	0.0166181
857.020	0.0166433
857.098	0.0166460
857.176	0.0166386
857.254	0.0166992
857.332	0.0165750
857.410	0.0167428
857.488	0.0166674
857.567	0.0168784
857.645	0.0168283
857.723	0.0167821
857.801	0.0168788
857.879	0.0167986
857.957	0.0167975
858.035	0.0168884
858.113	0.0168983
858.192	0.0168082
858.270	0.0168856
858.348	0.0169138
858.426	0.0167877
858.504	0.0167785
858.582	0.0168182
858.660	0.0169315
858.738	0.0167491
858.817	0.0167693
858.895	0.0168716
858.973	0.0168121
859.051	0.0167558
859.129	0.0168524
859.207	0.0168422
859.285	0.0167281
859.363	0.0166047
859.442	0.0167855
859.520	0.0167648
859.598	0.0166783
859.676	0.0167490
859.754	0.0167155
859.832	0.0167520
859.910	0.0166189
859.988	0.0167177
860.067	0.0166631
860.145	0.0167404
860.223	0.0168034
860.301	0.0167862
860.379	0.0167274
860.457	0.0167057
860.535	0.0167448
860.613	0.0168703
860.692	0.0167612
860.770	0.0168535
860.848	0.0169131
860.926	0.0168307
861.004	0.0169080
861.082	0.0170164
861.160	0.0168197
861.238	0.0168317
861.317	0.0169731
861.395	0.0167791
861.473	0.0168004
861.551	0.0168760
861.629	0.0168954
861.707	0.0168069
861.785	0.0167175
861.863	0.0166282
861.942	0.0165946
862.020	0.0165842
862.098	0.0166839
862.176	0.0165685
862.254	0.0164922
862.332	0.0163970
862.410	0.0163017
862.488	0.0162766
862.567	0.0163427
862.645	0.0162655
862.723	0.0162430
862.801	0.0161784
862.879	0.0161980
862.957	0.0161952
863.035	0.0163208
863.113	0.0162393
863.192	0.0162938
863.270	0.0162758
863.348	0.0163667
863.426	0.0162277
863.504	0.0163795
863.582	0.0163445
863.660	0.0164291
863.738	0.0164845
863.817	0.0165437
863.895	0.0165021
863.973	0.0166498
864.051	0.0165294
864.129	0.0166605
864.207	0.0167463
864.285	0.0167185
864.363	0.0168427
864.442	0.0168224
864.520	0.0168275
864.598	0.0170467
864.676	0.0171108
864.754	0.0171841
864.832	0.0171492
864.910	0.0172408
864.988	0.0172426
865.067	0.0171616
865.145	0.0173100
865.223	0.0171532
865.301	0.0172610
865.379	0.0173055
865.457	0.0172842
865.535	0.0172472
865.613	0.0173228
865.692	0.0172392
865.770	0.0170783
865.848	0.0170165
865.926	0.0169316
866.004	0.0168347
866.082	0.0168560
866.160	0.0167061
866.238	0.0167921
866.317	0.0166615
866.395	0.0165495
866.473	0.0165532
866.551	0.0162633
866.629	0.0163836
866.707	0.0163469
866.785	0.0161575
866.863	0.0162624
866.942	0.0161954
867.020	0.0160732
867.098	0.0160034
867.176	0.0159862
867.254	0.0158923
867.332	0.0158440
867.410	0.0160136
867.488	0.0157215
867.567	0.0157115
867.645	0.0159442
867.723	0.0158924
867.801	0.0160748
867.879	0.0161497
867.957	0.0162656
868.035	0.0163441
868.113	0.0163586
868.192	0.0164655
868.270	0.0166248
868.348	0.0166570
868.426	0.0167815
868.504	0.0168607
868.582	0.0168118
868.660	0.0169777
868.738	0.0170614
868.817	0.0169992
868.895	0.0170028
868.973	0.0171752
869.051	0.0172221
869.129	0.0171763
869.207	0.0171157
869.285	0.0173089
869.363	0.0172973
869.442	0.0170954
869.520	0.0170284
869.598	0.0171049
869.676	0.0170046
869.754	0.0170386
869.832	0.0169157
869.910	0.0168518
869.988	0.0167255
870.067	0.0166100
870.145	0.0167292
870.223	0.0167409
870.301	0.0165571
870.379	0.0165968
870.457	0.0166521
870.535	0.0166476
870.613	0.0167082
870.692	0.0166287
870.770	0.0165341
870.848	0.0166242
870.926	0.0165739
871.004	0.0166080
871.082	0.0163680
871.160	0.0164003
871.238	0.0165981
871.317	0.0165461
871.395	0.0164287
871.473	0.0163579
871.551	0.0165118
871.629	0.0164770
871.707	0.0166051
871.785	0.0165472
871.863	0.0164331
871.942	0.0164166
872.020	0.0164761
872.098	0.0163334
872.176	0.0164342
872.254	0.0163172
872.332	0.0164573
872.410	0.0164462
872.488	0.0163968
872.567	0.0163662
872.645	0.0164957
872.723	0.0164930
872.801	0.0164677
872.879	0.0166316
872.957	0.0165548
873.035	0.0166261
873.113	0.0168254
873.192	0.0167334
873.270	0.0167645
873.348	0.0167744
873.426	0.0168303
873.504	0.0166685
873.582	0.0168137
873.660	0.0167793
873.738	0.0166706
873.817	0.0166925
873.895	0.0167294
873.973	0.0167873
874.051	0.0166589
874.129	0.0167023
874.207	0.0167630
874.285	0.0167033
874.363	0.0166917
874.442	0.0166142
874.520	0.0169727
874.598	0.0167859
874.676	0.0167724
874.754	0.0168024
874.832	0.0168452
874.910	0.0169122
874.988	0.0168265
875.067	0.0169044
875.145	0.0169321
875.223	0.0169073
875.301	0.0169078
875.379	0.0169569
875.457	0.0170045
875.535	0.0168800
875.613	0.0170427
875.692	0.0170115
875.770	0.0167134
875.848	0.0167632
875.926	0.0166853
876.004	0.0166719
876.082	0.0166272
876.160	0.0166872
876.238	0.0166474
876.317	0.0167287
876.395	0.0166227
876.473	0.0168690
876.551	0.0167108
876.629	0.0166724
876.707	0.0166657
876.785	0.0168502
876.863	0.0168281
876.942	0.0168092
877.020	0.0169090
877.098	0.0168045
877.176	0.0167799
877.254	0.0168561
877.332	0.0168037
877.410	0.0168106
877.488	0.0167230
877.567	0.0168886
877.645	0.0166364
877.723	0.0164981
877.801	0.0166295
877.879	0.0165525
877.957	0.0163036
878.035	0.0163766
878.113	0.0162576
878.192	0.0163045
878.270	0.0163809
878.348	0.0163104
878.426	0.0160918
878.504	0.0161929
878.582	0.0161312
878.660	0.0160876
878.738	0.0161215
878.817	0.0160321
878.895	0.0158993
878.973	0.0159570
879.051	0.0160606
879.129	0.0161150
879.207	0.0161338
879.285	0.0162757
879.363	0.0163094
879.442	0.0165477
879.520	0.0167538
879.598	0.0169511
879.676	0.0171027
879.754	0.0172653
879.832	0.0174657
879.910	0.0174919
879.988	0.0175915
880.067	0.0176483
880.145	0.0178690
880.223	0.0177838
880.301	0.0177694
880.379	0.0177728
880.457	0.0175142
880.535	0.0174750
880.613	0.0174096
880.692	0.0172382
880.770	0.0168992
880.848	0.0167577
880.926	0.0166348
881.004	0.0164522
881.082	0.0162280
881.160	0.0160291
881.238	0.0160443
881.317	0.0159081
881.395	0.0159303
881.473	0.0157736
881.551	0.0159982
881.629	0.0159794
881.707	0.0159566
881.785	0.0160890
881.863	0.0160902
881.942	0.0162079
882.020	0.0164307
882.098	0.0163692
882.176	0.0164398
882.254	0.0166173
882.332	0.0167638
882.410	0.0167603
882.488	0.0166459
882.567	0.0168061
882.645	0.0167350
882.723	0.0167994
882.801	0.0167583
882.879	0.0167201
882.957	0.0167371
883.035	0.0166956
883.113	0.0167454
883.192	0.0166293
883.270	0.0164336
883.348	0.0166312
883.426	0.0166759
883.504	0.0164960
883.582	0.0164995
883.660	0.0163794
883.738	0.0163873
883.817	0.0164516
883.895	0.0164321
883.973	0.0164838
884.051	0.0167229
884.129	0.0166574
884.207	0.0168458
884.285	0.0170568
884.363	0.0171727
884.442	0.0172351
884.520	0.0173035
884.598	0.0174606
884.676	0.0174599
884.754	0.0177388
884.832	0.0176411
884.910	0.0176999
884.988	0.0175500
885.067	0.0173624
885.145	0.0172392
885.223	0.0169386
885.301	0.0168816
885.379	0.0166918
885.457	0.0165571
885.535	0.0163615
885.613	0.0163197
885.692	0.0161124
885.770	0.0159808
885.848	0.0161279
885.926	0.0160472
886.004	0.0159857
886.082	0.0159837
886.160	0.0157642
886.238	0.0159850
886.317	0.0158459
886.395	0.0158775
886.473	0.0159512
886.551	0.0160215
886.629	0.0159985
886.707	0.0159080
886.785	0.0161527
886.863	0.0162934
886.942	0.0163188
887.020	0.0164679
887.098	0.0165179
887.176	0.0166032
887.254	0.0168846
887.332	0.0169792
887.410	0.0169774
887.488	0.0168193
887.567	0.0170979
887.645	0.0169697
887.723	0.0170436
887.801	0.0170515
887.879	0.0169659
887.957	0.0167097
888.035	0.0168295
888.113	0.0166159
888.192	0.0166541
888.270	0.0167062
888.348	0.0166516
888.426	0.0164906
888.504	0.0164812
888.582	0.0165955
888.660	0.0164485
888.738	0.0163466
888.817	0.0164140
888.895	0.0164948
888.973	0.0163563
889.051	0.0164241
889.129	0.0166204
889.207	0.0166699
889.285	0.0167715
889.363	0.0169589
889.442	0.0169813
889.520	0.0172314
889.598	0.0174131
889.676	0.0173915
889.754	0.0174547
889.832	0.0174808
889.910	0.0174033
889.988	0.0172579
890.067	0.0172757
890.145	0.0171169
890.223	0.0168678
890.301	0.0167116
890.379	0.0164833
890.457	0.0164367
890.535	0.0163041
890.613	0.0162538
890.692	0.0162038
890.770	0.0160686
890.848	0.0159473
890.926	0.0160502
891.004	0.0158813
891.082	0.0157777
891.160	0.0160334
891.238	0.0160527
891.317	0.0160263
891.395	0.0161505
891.473	0.0161724
891.551	0.0161529
891.629	0.0165110
891.707	0.0166052
891.785	0.0166331
891.863	0.0166954
891.942	0.0166074
892.020	0.0165739
892.098	0.0168437
892.176	0.0168658
892.254	0.0168516
892.332	0.0168354
892.410	0.0168476
892.488	0.0169324
892.567	0.0167911
892.645	0.0167482
892.723	0.0166438
892.801	0.0166460
892.879	0.0166825
892.957	0.0166658
893.035	0.0165738
893.113	0.0166599
893.192	0.0165209
893.270	0.0166148
893.348	0.0165566
893.426	0.0166158
893.504	0.0166360
893.582	0.0164737
893.660	0.0166417
893.738	0.0166389
893.817	0.0166784
893.895	0.0165716
893.973	0.0167564
894.051	0.0168228
894.129	0.0168614
894.207	0.0169288
894.285	0.0168875
894.363	0.0170139
894.442	0.0169600
894.520	0.0169712
894.598	0.0171268
894.676	0.0171583
894.754	0.0170518
894.832	0.0171150
894.910	0.0171886
894.988	0.0170491
895.067	0.0169542
895.145	0.0168683
895.223	0.0168745
895.301	0.0166425
895.379	0.0165902
895.457	0.0164447
895.535	0.0164095
895.613	0.0163769
895.692	0.0164504
895.770	0.0164078
895.848	0.0164511
895.926	0.0164102
896.004	0.0164418
896.082	0.0163775
896.160	0.0164300
896.238	0.0165213
896.317	0.0164150
896.395	0.0165630
896.473	0.0166783
896.551	0.0166600
896.629	0.0165182
896.707	0.0165561
896.785	0.0165707
896.863	0.0166687
896.942	0.0165983
897.020	0.0164442
897.098	0.0166112
897.176	0.0166169
897.254	0.0165514
897.332	0.0165415
897.410	0.0165790
897.488	0.0164766
897.567	0.0164777
897.645	0.0164594
897.723	0.0166035
897.801	0.0166861
897.879	0.0164857
897.957	0.0164566
898.035	0.0167262
898.113	0.0166225
898.192	0.0165839
898.270	0.0167902
898.348	0.0167854
898.426	0.0168112
898.504	0.0167746
898.582	0.0168704
898.660	0.0169675
898.738	0.0168682
898.817	0.0169126
898.895	0.0169327
898.973	0.0169862
899.051	0.0171017
899.129	0.0170014
899.207	0.0169748
899.285	0.0170915
899.363	0.0170156
899.442	0.0170776
899.520	0.0169013
899.598	0.0169742
899.676	0.0169514
899.754	0.0168520
899.832	0.0168565
899.910	0.0167444
899.988	0.0168707
900.067	0.0167394
900.145	0.0166248
900.223	0.0165070
900.301	0.0163879
900.379	0.0164953
900.457	0.0164841
900.535	0.0164507
900.613	0.0164922
900.692	0.0164552
900.770	0.0161895
900.848	0.0163486
900.926	0.0164465
901.004	0.0164572
901.082	0.0165450
901.160	0.0165611
901.238	0.0165166
901.317	0.0166669
901.395	0.0165250
901.473	0.0166549
901.551	0.0166621
901.629	0.0165825
901.707	0.0165193
901.785	0.0165488
901.863	0.0165205
901.942	0.0165385
902.020	0.0166235
902.098	0.0164803
902.176	0.0164063
902.254	0.0165256
902.332	0.0164429
902.410	0.0165144
902.488	0.0165147
902.567	0.0165110
902.645	0.0163200
902.723	0.0164751
902.801	0.0164957
902.879	0.0165064
902.957	0.0166353
903.035	0.0166275
903.113	0.0167690
903.192	0.0167519
903.270	0.0167906
903.348	0.0167623
903.426	0.0168889
903.504	0.0169605
903.582	0.0168024
903.660	0.0168614
903.738	0.0169111
903.817	0.0168629
903.895	0.0169585
903.973	0.0168698
904.051	0.0168217
904.129	0.0167627
904.207	0.0167109
904.285	0.0167802
904.363	0.0166740
904.442	0.0165934
904.520	0.0167837
904.598	0.0165839
904.676	0.0165635
904.754	0.0166235
904.832	0.0165199
904.910	0.0166628
904.988	0.0165053
905.067	0.0165044
905.145	0.0165273
905.223	0.0164806
905.301	0.0165176
905.379	0.0166295
905.457	0.0165788
905.535	0.0166762
905.613	0.0166920
905.692	0.0166031
905.770	0.0166525
905.848	0.0168164
905.926	0.0168960
906.004	0.0168999
906.082	0.0169044
906.160	0.0170008
906.238	0.0169703
906.317	0.0167744
906.395	0.0166937
906.473	0.0167831
906.551	0.0167442
906.629	0.0163708
906.707	0.0165022
906.785	0.0163769
906.863	0.0164140
906.942	0.0163340
907.020	0.0161073
907.098	0.0160172
907.176	0.0161419
907.254	0.0161063
907.332	0.0159988
907.410	0.0160699
907.488	0.0162144
907.567	0.0161031
907.645	0.0161884
907.723	0.0163021
907.801	0.0163855
907.879	0.0164892
907.957	0.0163958
908.035	0.0165638
908.113	0.0166350
908.192	0.0167861
908.270	0.0168979
908.348	0.0170092
908.426	0.0170704
908.504	0.0169772
908.582	0.0169939
908.660	0.0169474
908.738	0.0169740
908.817	0.0170898
908.895	0.0170506
908.973	0.0171239
909.051	0.0169250
909.129	0.0169935
909.207	0.0168499
909.285	0.0167946
909.363	0.0166902
909.442	0.0166000
909.520	0.0166866
909.598	0.0166782
909.676	0.0166399
909.754	0.0165630
909.832	0.0165052
909.910	0.0164993
909.988	0.0163590
910.067	0.0165040
910.145	0.0164149
910.223	0.0164681
910.301	0.0165256
910.379	0.0165469
910.457	0.0166223
910.535	0.0165971
910.613	0.0166533
910.692	0.0167064
910.770	0.0167429
910.848	0.0167181
910.926	0.0168693
911.004	0.0168002
911.082	0.0167984
911.160	0.0169228
911.238	0.0168824
911.317	0.0167416
911.395	0.0165360
911.473	0.0165912
911.551	0.0165902
911.629	0.0165464
911.707	0.0164974
911.785	0.0164136
911.863	0.0162837
911.942	0.0163658
912.020	0.0161973
912.098	0.0161707
912.176	0.0160774
912.254	0.0161251
912.332	0.0159686
912.410	0.0160304
912.488	0.0159948
912.567	0.0160075
912.645	0.0160236
912.723	0.0163879
912.801	0.0162167
912.879	0.0161707
912.957	0.0164291
913.035	0.0166577
913.113	0.0166169
913.192	0.0166169
913.270	0.0168959
913.348	0.0171076
913.426	0.0171038
913.504	0.0171837
913.582	0.0171409
913.660	0.0172343
913.738	0.0172350
913.817	0.0172575
913.895	0.0170905
913.973	0.0170979
914.051	0.0170469
914.129	0.0170653
914.207	0.0168970
914.285	0.0168502
914.363	0.0167466
914.442	0.0165955
914.520	0.0165397
914.598	0.0165533
914.676	0.0164226
914.754	0.0164778
914.832	0.0164218
914.910	0.0162703
914.988	0.0164125
915.067	0.0164375
915.145	0.0163366
915.223	0.0162998
915.301	0.0164699
915.379	0.0165772
915.457	0.0164864
915.535	0.0165952
915.613	0.0166425
915.692	0.0168571
915.770	0.0169941
915.848	0.0169545
915.926	0.0169498
916.004	0.0168971
916.082	0.0169343
916.160	0.0169693
916.238	0.0169441
916.317	0.0169621
916.395	0.0168857
916.473	0.0168194
916.551	0.0169609
916.629	0.0167902
916.707	0.0166950
916.785	0.0167566
916.863	0.0166917
916.942	0.0165668
917.020	0.0165009
917.098	0.0164188
917.176	0.0165218
917.254	0.0163280
917.332	0.0162211
917.410	0.0163916
917.488	0.0162992
917.567	0.0164269
917.645	0.0163111
917.723	0.0162469
917.801	0.0163300
917.879	0.0163329
917.957	0.0164517
918.035	0.0164053
918.113	0.0163528
918.192	0.0164537
918.270	0.0165745
918.348	0.0166152
918.426	0.0166241
918.504	0.0165665
918.582	0.0167980
918.660	0.0167318
918.738	0.0166128
918.817	0.0167419
918.895	0.0169925
918.973	0.0168536
919.051	0.0167812
919.129	0.0167830
919.207	0.0167331
919.285	0.0167787
919.363	0.0165884
919.442	0.0165781
919.520	0.0166901
919.598	0.0164823
919.676	0.0164666
919.754	0.0164442
919.832	0.0164854
919.910	0.0164271
