05/24/2022	20:16:49	Ver.	4.1	UNKNOWN
Optical Delay	599.988409	Delta X		0.078125	Sweeps	1	Scan Rate	0/0
Coordinates	Axis 1	NaN	Axis 2	NaN	Axis 3	NaN	Axis 4	NaN	Axis 5	NaN	Axis 6	0.000000
TX Power	0.000000	RX Power	0.000000

599.988	0.0164946
600.067	0.0165347
600.145	0.0166026
600.223	0.0165726
600.301	0.0164550
600.379	0.0165755
600.457	0.0164820
600.535	0.0164233
600.613	0.0166351
600.692	0.0166518
600.770	0.0164799
600.848	0.0164694
600.926	0.0163880
601.004	0.0165112
601.082	0.0164465
601.160	0.0164841
601.238	0.0164952
601.317	0.0165176
601.395	0.0164629
601.473	0.0164943
601.551	0.0164402
601.629	0.0164793
601.707	0.0163966
601.785	0.0163367
601.863	0.0165036
601.942	0.0164634
602.020	0.0165050
602.098	0.0165703
602.176	0.0164738
602.254	0.0164790
602.332	0.0164696
602.410	0.0164469
602.488	0.0164486
602.567	0.0166684
602.645	0.0163860
602.723	0.0164468
602.801	0.0166138
602.879	0.0164126
602.957	0.0165015
603.035	0.0165921
603.113	0.0165553
603.192	0.0165925
603.270	0.0165820
603.348	0.0164938
603.426	0.0165131
603.504	0.0165648
603.582	0.0164258
603.660	0.0164323
603.738	0.0165370
603.817	0.0163862
603.895	0.0165339
603.973	0.0165163
604.051	0.0165434
604.129	0.0164696
604.207	0.0165207
604.285	0.0165429
604.363	0.0164918
604.442	0.0165847
604.520	0.0165887
604.598	0.0164120
604.676	0.0164159
604.754	0.0165041
604.832	0.0164880
604.910	0.0164513
604.988	0.0164489
605.067	0.0165256
605.145	0.0164524
605.223	0.0165017
605.301	0.0164133
605.379	0.0164655
605.457	0.0163890
605.535	0.0164917
605.613	0.0164989
605.692	0.0165111
605.770	0.0164126
605.848	0.0165501
605.926	0.0163911
606.004	0.0164886
606.082	0.0163515
606.160	0.0165537
606.238	0.0165334
606.317	0.0163598
606.395	0.0163004
606.473	0.0165260
606.551	0.0164371
606.629	0.0164046
606.707	0.0164502
606.785	0.0165005
606.863	0.0164109
606.942	0.0164677
607.020	0.0163614
607.098	0.0164313
607.176	0.0164810
607.254	0.0164742
607.332	0.0166074
607.410	0.0164210
607.488	0.0165624
607.567	0.0165401
607.645	0.0165668
607.723	0.0164854
607.801	0.0165399
607.879	0.0165327
607.957	0.0164935
608.035	0.0165162
608.113	0.0164833
608.192	0.0163638
608.270	0.0166033
608.348	0.0166542
608.426	0.0165401
608.504	0.0165338
608.582	0.0166209
608.660	0.0164935
608.738	0.0165067
608.817	0.0165164
608.895	0.0164679
608.973	0.0165968
609.051	0.0164751
609.129	0.0163235
609.207	0.0165277
609.285	0.0165128
609.363	0.0164366
609.442	0.0164618
609.520	0.0164872
609.598	0.0165434
609.676	0.0165516
609.754	0.0164478
609.832	0.0164318
609.910	0.0164586
609.988	0.0164983
610.067	0.0165012
610.145	0.0164268
610.223	0.0166060
610.301	0.0164857
610.379	0.0165434
610.457	0.0164706
610.535	0.0164214
610.613	0.0165209
610.692	0.0165333
610.770	0.0165427
610.848	0.0165272
610.926	0.0163859
611.004	0.0164954
611.082	0.0164868
611.160	0.0165066
611.238	0.0164442
611.317	0.0165372
611.395	0.0164018
611.473	0.0163660
611.551	0.0165283
611.629	0.0165710
611.707	0.0165303
611.785	0.0165844
611.863	0.0165878
611.942	0.0165917
612.020	0.0165647
612.098	0.0165692
612.176	0.0166597
612.254	0.0165701
612.332	0.0164260
612.410	0.0164514
612.488	0.0165480
612.567	0.0164905
612.645	0.0165688
612.723	0.0165357
612.801	0.0166179
612.879	0.0166376
612.957	0.0163631
613.035	0.0164057
613.113	0.0166191
613.192	0.0165289
613.270	0.0164782
613.348	0.0165331
613.426	0.0165423
613.504	0.0166836
613.582	0.0165566
613.660	0.0164835
613.738	0.0164746
613.817	0.0164943
613.895	0.0164935
613.973	0.0163889
614.051	0.0165386
614.129	0.0164339
614.207	0.0164545
614.285	0.0166277
614.363	0.0164024
614.442	0.0164171
614.520	0.0164613
614.598	0.0164674
614.676	0.0166306
614.754	0.0163364
614.832	0.0165498
614.910	0.0165593
614.988	0.0164363
615.067	0.0165267
615.145	0.0166055
615.223	0.0165343
615.301	0.0165028
615.379	0.0165416
615.457	0.0165726
615.535	0.0165495
615.613	0.0165530
615.692	0.0165788
615.770	0.0165455
615.848	0.0163976
615.926	0.0165527
616.004	0.0163869
616.082	0.0164988
616.160	0.0165813
616.238	0.0166663
616.317	0.0165331
616.395	0.0164418
616.473	0.0165617
616.551	0.0165235
616.629	0.0165842
616.707	0.0165286
616.785	0.0165522
616.863	0.0163837
616.942	0.0164321
617.020	0.0164774
617.098	0.0165464
617.176	0.0166060
617.254	0.0164112
617.332	0.0165838
617.410	0.0165621
617.488	0.0166058
617.567	0.0166384
617.645	0.0164767
617.723	0.0164860
617.801	0.0165924
617.879	0.0165237
617.957	0.0166396
618.035	0.0166323
618.113	0.0165578
618.192	0.0165323
618.270	0.0165334
618.348	0.0164821
618.426	0.0166026
618.504	0.0162969
618.582	0.0165574
618.660	0.0165459
618.738	0.0164235
618.817	0.0164888
618.895	0.0163923
618.973	0.0164822
619.051	0.0164053
619.129	0.0164574
619.207	0.0163772
619.285	0.0164546
619.363	0.0164126
619.442	0.0163331
619.520	0.0166455
619.598	0.0164485
619.676	0.0164319
619.754	0.0165032
619.832	0.0164406
619.910	0.0163769
619.988	0.0164697
620.067	0.0165896
620.145	0.0164369
620.223	0.0164790
620.301	0.0164562
620.379	0.0164134
620.457	0.0165704
620.535	0.0164365
620.613	0.0163585
620.692	0.0165408
620.770	0.0165733
620.848	0.0164867
620.926	0.0166264
621.004	0.0164465
621.082	0.0164649
621.160	0.0165173
621.238	0.0165074
621.317	0.0164876
621.395	0.0165110
621.473	0.0165528
621.551	0.0164764
621.629	0.0164803
621.707	0.0165364
621.785	0.0166030
621.863	0.0164947
621.942	0.0166114
622.020	0.0165885
622.098	0.0165369
622.176	0.0164674
622.254	0.0164518
622.332	0.0166808
622.410	0.0166138
622.488	0.0164000
622.567	0.0165707
622.645	0.0166098
622.723	0.0165437
622.801	0.0165636
622.879	0.0165552
622.957	0.0164657
623.035	0.0164728
623.113	0.0165620
623.192	0.0165976
623.270	0.0164847
623.348	0.0164796
623.426	0.0166920
623.504	0.0165638
623.582	0.0165829
623.660	0.0164348
623.738	0.0164586
623.817	0.0164179
623.895	0.0164359
623.973	0.0165746
624.051	0.0164148
624.129	0.0164055
624.207	0.0165228
624.285	0.0166170
624.363	0.0164651
624.442	0.0164597
624.520	0.0164507
624.598	0.0164225
624.676	0.0165470
624.754	0.0164023
624.832	0.0164382
624.910	0.0164404
624.988	0.0164338
625.067	0.0164638
625.145	0.0164095
625.223	0.0164274
625.301	0.0165405
625.379	0.0163627
625.457	0.0164091
625.535	0.0164469
625.613	0.0164252
625.692	0.0164090
625.770	0.0164707
625.848	0.0165540
625.926	0.0164046
626.004	0.0165643
626.082	0.0163821
626.160	0.0163683
626.238	0.0164014
626.317	0.0164948
626.395	0.0164600
626.473	0.0165784
626.551	0.0163852
626.629	0.0164204
626.707	0.0164224
626.785	0.0163387
626.863	0.0164656
626.942	0.0164760
627.020	0.0164247
627.098	0.0164441
627.176	0.0164267
627.254	0.0164893
627.332	0.0164171
627.410	0.0164745
627.488	0.0164666
627.567	0.0165215
627.645	0.0164326
627.723	0.0165357
627.801	0.0165947
627.879	0.0164250
627.957	0.0165031
628.035	0.0165243
628.113	0.0163989
628.192	0.0164744
628.270	0.0165109
628.348	0.0165686
628.426	0.0166789
628.504	0.0164552
628.582	0.0166334
628.660	0.0164873
628.738	0.0164100
628.817	0.0165030
628.895	0.0165797
628.973	0.0165126
629.051	0.0165436
629.129	0.0165167
629.207	0.0165632
629.285	0.0165584
629.363	0.0162729
629.442	0.0164545
629.520	0.0165268
629.598	0.0166131
629.676	0.0164389
629.754	0.0164273
629.832	0.0165807
629.910	0.0164912
629.988	0.0164024
630.067	0.0164861
630.145	0.0165263
630.223	0.0163370
630.301	0.0163448
630.379	0.0165464
630.457	0.0163964
630.535	0.0164106
630.613	0.0164539
630.692	0.0164780
630.770	0.0164545
630.848	0.0165118
630.926	0.0165325
631.004	0.0165508
631.082	0.0165481
631.160	0.0164629
631.238	0.0164719
631.317	0.0165195
631.395	0.0166634
631.473	0.0163013
631.551	0.0164505
631.629	0.0165112
631.707	0.0164280
631.785	0.0164176
631.863	0.0163916
631.942	0.0164236
632.020	0.0164470
632.098	0.0164229
632.176	0.0165308
632.254	0.0165547
632.332	0.0164198
632.410	0.0165720
632.488	0.0163990
632.567	0.0164582
632.645	0.0164767
632.723	0.0166096
632.801	0.0166101
632.879	0.0164634
632.957	0.0164822
633.035	0.0163935
633.113	0.0164602
633.192	0.0165170
633.270	0.0165350
633.348	0.0165078
633.426	0.0164822
633.504	0.0165536
633.582	0.0163368
633.660	0.0164427
633.738	0.0165505
633.817	0.0165375
633.895	0.0164656
633.973	0.0166286
634.051	0.0164423
634.129	0.0165273
634.207	0.0165331
634.285	0.0164255
634.363	0.0165167
634.442	0.0165259
634.520	0.0164957
634.598	0.0165833
634.676	0.0165900
634.754	0.0164947
634.832	0.0165744
634.910	0.0165883
634.988	0.0165462
635.067	0.0166828
635.145	0.0164034
635.223	0.0164202
635.301	0.0165282
635.379	0.0163930
635.457	0.0165696
635.535	0.0164732
635.613	0.0165179
635.692	0.0165749
635.770	0.0164696
635.848	0.0164600
635.926	0.0165469
636.004	0.0165282
636.082	0.0166730
636.160	0.0164717
636.238	0.0164742
636.317	0.0165832
636.395	0.0165404
636.473	0.0165991
636.551	0.0165525
636.629	0.0164702
636.707	0.0164812
636.785	0.0164232
636.863	0.0164075
636.942	0.0164658
637.020	0.0165382
637.098	0.0164829
637.176	0.0165996
637.254	0.0164176
637.332	0.0165203
637.410	0.0164004
637.488	0.0163778
637.567	0.0165398
637.645	0.0165153
637.723	0.0165393
637.801	0.0165979
637.879	0.0165416
637.957	0.0165744
638.035	0.0164549
638.113	0.0164219
638.192	0.0165466
638.270	0.0165057
638.348	0.0166588
638.426	0.0164555
638.504	0.0164735
638.582	0.0164070
638.660	0.0165309
638.738	0.0165282
638.817	0.0166317
638.895	0.0166428
638.973	0.0165569
639.051	0.0166422
639.129	0.0167207
639.207	0.0165536
639.285	0.0165913
639.363	0.0165430
639.442	0.0165435
639.520	0.0166154
639.598	0.0165340
639.676	0.0165262
639.754	0.0166246
639.832	0.0166448
639.910	0.0165219
639.988	0.0164529
640.067	0.0164749
640.145	0.0165185
640.223	0.0165332
640.301	0.0165056
640.379	0.0164205
640.457	0.0165912
640.535	0.0163512
640.613	0.0163790
640.692	0.0164297
640.770	0.0164226
640.848	0.0165909
640.926	0.0165311
641.004	0.0165115
641.082	0.0164831
641.160	0.0165456
641.238	0.0165235
641.317	0.0165010
641.395	0.0164893
641.473	0.0165320
641.551	0.0167062
641.629	0.0165268
641.707	0.0164825
641.785	0.0164819
641.863	0.0164634
641.942	0.0165508
642.020	0.0165685
642.098	0.0163913
642.176	0.0165654
642.254	0.0165180
642.332	0.0164262
642.410	0.0164999
642.488	0.0165859
642.567	0.0165216
642.645	0.0164536
642.723	0.0165276
642.801	0.0164407
642.879	0.0164819
642.957	0.0164821
643.035	0.0164551
643.113	0.0164857
643.192	0.0165103
643.270	0.0165811
643.348	0.0165868
643.426	0.0164640
643.504	0.0164844
643.582	0.0165151
643.660	0.0165163
643.738	0.0166441
643.817	0.0165099
643.895	0.0165967
643.973	0.0165163
644.051	0.0165250
644.129	0.0165372
644.207	0.0165566
644.285	0.0165578
644.363	0.0164576
644.442	0.0165435
644.520	0.0164332
644.598	0.0164400
644.676	0.0164638
644.754	0.0163892
644.832	0.0164056
644.910	0.0165569
644.988	0.0164479
645.067	0.0165005
645.145	0.0164189
645.223	0.0166879
645.301	0.0165255
645.379	0.0165013
645.457	0.0165324
645.535	0.0164406
645.613	0.0164697
645.692	0.0164223
645.770	0.0165076
645.848	0.0164018
645.926	0.0163782
646.004	0.0163889
646.082	0.0164017
646.160	0.0165386
646.238	0.0164594
646.317	0.0164753
646.395	0.0164162
646.473	0.0164464
646.551	0.0165520
646.629	0.0165923
646.707	0.0165635
646.785	0.0165689
646.863	0.0165150
646.942	0.0164262
647.020	0.0163886
647.098	0.0165599
647.176	0.0163892
647.254	0.0164571
647.332	0.0165627
647.410	0.0163226
647.488	0.0164137
647.567	0.0164992
647.645	0.0163553
647.723	0.0163740
647.801	0.0164361
647.879	0.0164169
647.957	0.0164727
648.035	0.0164739
648.113	0.0165205
648.192	0.0165492
648.270	0.0163678
648.348	0.0163819
648.426	0.0165379
648.504	0.0165425
648.582	0.0164523
648.660	0.0164721
648.738	0.0165217
648.817	0.0164706
648.895	0.0166435
648.973	0.0165239
649.051	0.0166810
649.129	0.0166421
649.207	0.0163649
649.285	0.0164313
649.363	0.0165147
649.442	0.0164870
649.520	0.0165440
649.598	0.0165075
649.676	0.0165541
649.754	0.0164588
649.832	0.0164774
649.910	0.0164014
649.988	0.0165390
650.067	0.0164236
650.145	0.0165674
650.223	0.0165937
650.301	0.0165745
650.379	0.0164867
650.457	0.0166280
650.535	0.0165428
650.613	0.0164986
650.692	0.0165483
650.770	0.0165736
650.848	0.0165737
650.926	0.0165798
651.004	0.0164749
651.082	0.0164105
651.160	0.0164954
651.238	0.0164149
651.317	0.0166024
651.395	0.0165885
651.473	0.0164787
651.551	0.0165398
651.629	0.0165569
651.707	0.0165244
651.785	0.0164834
651.863	0.0164169
651.942	0.0164925
652.020	0.0165405
652.098	0.0165802
652.176	0.0165149
652.254	0.0164817
652.332	0.0164903
652.410	0.0164583
652.488	0.0163828
652.567	0.0166003
652.645	0.0163799
652.723	0.0164414
652.801	0.0165007
652.879	0.0165908
652.957	0.0165769
653.035	0.0164722
653.113	0.0165742
653.192	0.0164217
653.270	0.0164294
653.348	0.0164087
653.426	0.0165720
653.504	0.0164288
653.582	0.0165803
653.660	0.0164362
653.738	0.0164973
653.817	0.0164813
653.895	0.0163882
653.973	0.0164384
654.051	0.0165234
654.129	0.0165315
654.207	0.0165280
654.285	0.0164372
654.363	0.0164352
654.442	0.0165543
654.520	0.0165523
654.598	0.0165082
654.676	0.0163659
654.754	0.0165331
654.832	0.0164205
654.910	0.0163718
654.988	0.0164963
655.067	0.0164989
655.145	0.0164687
655.223	0.0162978
655.301	0.0163905
655.379	0.0164807
655.457	0.0163782
655.535	0.0164402
655.613	0.0163968
655.692	0.0164021
655.770	0.0163361
655.848	0.0164854
655.926	0.0164870
656.004	0.0163397
656.082	0.0164080
656.160	0.0164841
656.238	0.0164345
656.317	0.0163863
656.395	0.0164075
656.473	0.0163554
656.551	0.0163364
656.629	0.0164469
656.707	0.0164803
656.785	0.0163790
656.863	0.0164186
656.942	0.0163666
657.020	0.0163778
657.098	0.0164127
657.176	0.0163665
657.254	0.0164722
657.332	0.0163740
657.410	0.0164316
657.488	0.0164918
657.567	0.0164211
657.645	0.0164590
657.723	0.0164911
657.801	0.0165211
657.879	0.0165505
657.957	0.0165395
658.035	0.0165070
658.113	0.0164588
658.192	0.0165532
658.270	0.0166155
658.348	0.0165652
658.426	0.0166858
658.504	0.0166045
658.582	0.0165508
658.660	0.0166569
658.738	0.0166270
658.817	0.0166548
658.895	0.0165266
658.973	0.0164999
659.051	0.0164526
659.129	0.0163644
659.207	0.0162910
659.285	0.0162531
659.363	0.0162354
659.442	0.0163120
659.520	0.0162370
659.598	0.0161874
659.676	0.0162314
659.754	0.0159991
659.832	0.0161530
659.910	0.0160303
659.988	0.0160511
660.067	0.0159800
660.145	0.0159161
660.223	0.0161227
660.301	0.0161509
660.379	0.0161275
660.457	0.0163000
660.535	0.0165179
660.613	0.0165268
660.692	0.0164963
660.770	0.0165968
660.848	0.0168285
660.926	0.0168455
661.004	0.0168343
661.082	0.0169365
661.160	0.0169823
661.238	0.0168572
661.317	0.0170416
661.395	0.0171401
661.473	0.0170792
661.551	0.0170882
661.629	0.0171962
661.707	0.0172056
661.785	0.0170629
661.863	0.0169611
661.942	0.0168558
662.020	0.0166322
662.098	0.0163799
662.176	0.0163589
662.254	0.0163806
662.332	0.0162947
662.410	0.0160567
662.488	0.0160718
662.567	0.0160912
662.645	0.0161845
662.723	0.0162712
662.801	0.0160870
662.879	0.0160414
662.957	0.0161458
663.035	0.0160397
663.113	0.0158414
663.192	0.0159746
663.270	0.0159810
663.348	0.0158523
663.426	0.0161554
663.504	0.0161069
663.582	0.0161607
663.660	0.0162540
663.738	0.0163792
663.817	0.0163027
663.895	0.0164893
663.973	0.0164157
664.051	0.0162157
664.129	0.0162788
664.207	0.0163642
664.285	0.0162925
664.363	0.0161346
664.442	0.0162708
664.520	0.0162763
664.598	0.0163628
664.676	0.0165643
664.754	0.0165140
664.832	0.0167916
664.910	0.0167593
664.988	0.0168187
665.067	0.0169395
665.145	0.0169823
665.223	0.0170715
665.301	0.0169816
665.379	0.0170711
665.457	0.0170761
665.535	0.0171370
665.613	0.0170634
665.692	0.0170941
665.770	0.0170596
665.848	0.0170050
665.926	0.0168979
666.004	0.0166820
666.082	0.0165732
666.160	0.0163110
666.238	0.0162333
666.317	0.0163048
666.395	0.0161487
666.473	0.0160203
666.551	0.0161418
666.629	0.0163377
666.707	0.0163618
666.785	0.0165041
666.863	0.0167404
666.942	0.0165054
667.020	0.0167249
667.098	0.0168900
667.176	0.0167822
667.254	0.0167352
667.332	0.0166165
667.410	0.0165022
667.488	0.0164897
667.567	0.0163538
667.645	0.0162471
667.723	0.0162920
667.801	0.0163932
667.879	0.0164409
667.957	0.0165165
668.035	0.0165246
668.113	0.0165182
668.192	0.0165088
668.270	0.0163922
668.348	0.0163873
668.426	0.0162112
668.504	0.0161955
668.582	0.0161710
668.660	0.0160739
668.738	0.0159467
668.817	0.0159563
668.895	0.0161103
668.973	0.0161185
669.051	0.0161159
669.129	0.0161563
669.207	0.0162868
669.285	0.0162497
669.363	0.0163521
669.442	0.0165393
669.520	0.0167484
669.598	0.0167332
669.676	0.0167506
669.754	0.0167816
669.832	0.0169706
669.910	0.0170535
669.988	0.0169931
670.067	0.0169979
670.145	0.0168567
670.223	0.0167834
670.301	0.0166933
670.379	0.0164890
670.457	0.0164515
670.535	0.0163570
670.613	0.0162878
670.692	0.0163056
670.770	0.0163338
670.848	0.0165204
670.926	0.0164701
671.004	0.0167389
671.082	0.0168993
671.160	0.0168852
671.238	0.0173202
671.317	0.0174136
671.395	0.0175435
671.473	0.0176193
671.551	0.0176160
671.629	0.0177633
671.707	0.0175077
671.785	0.0175715
671.863	0.0174025
671.942	0.0169540
672.020	0.0167014
672.098	0.0162737
672.176	0.0162144
672.254	0.0158495
672.332	0.0155939
672.410	0.0154635
672.488	0.0153281
672.567	0.0152463
672.645	0.0150871
672.723	0.0152625
672.801	0.0154256
672.879	0.0155559
672.957	0.0154949
673.035	0.0159438
673.113	0.0161324
673.192	0.0163072
673.270	0.0163686
673.348	0.0167834
673.426	0.0169957
673.504	0.0169003
673.582	0.0169559
673.660	0.0170400
673.738	0.0169296
673.817	0.0167839
673.895	0.0167666
673.973	0.0165208
674.051	0.0161756
674.129	0.0161130
674.207	0.0160434
674.285	0.0158218
674.363	0.0156664
674.442	0.0155704
674.520	0.0157977
674.598	0.0159055
674.676	0.0159002
674.754	0.0161842
674.832	0.0160698
674.910	0.0164140
674.988	0.0167545
675.067	0.0167075
675.145	0.0170688
675.223	0.0171689
675.301	0.0173788
675.379	0.0174721
675.457	0.0174972
675.535	0.0172788
675.613	0.0171898
675.692	0.0172518
675.770	0.0173642
675.848	0.0171702
675.926	0.0171333
676.004	0.0170992
676.082	0.0171774
676.160	0.0171831
676.238	0.0170982
676.317	0.0171933
676.395	0.0172522
676.473	0.0170145
676.551	0.0167886
676.629	0.0164925
676.707	0.0162596
676.785	0.0161311
676.863	0.0157156
676.942	0.0153709
677.020	0.0152868
677.098	0.0152290
677.176	0.0151536
677.254	0.0152985
677.332	0.0153342
677.410	0.0156042
677.488	0.0158063
677.567	0.0160425
677.645	0.0163137
677.723	0.0162648
677.801	0.0164742
677.879	0.0165656
677.957	0.0163353
678.035	0.0163181
678.113	0.0159800
678.192	0.0159026
678.270	0.0158823
678.348	0.0158459
678.426	0.0159739
678.504	0.0161738
678.582	0.0166013
678.660	0.0167296
678.738	0.0170629
678.817	0.0172572
678.895	0.0176159
678.973	0.0176050
679.051	0.0176329
679.129	0.0176420
679.207	0.0174622
679.285	0.0172631
679.363	0.0171673
679.442	0.0169936
679.520	0.0166957
679.598	0.0166074
679.676	0.0164781
679.754	0.0163190
679.832	0.0162628
679.910	0.0162126
679.988	0.0159451
680.067	0.0158292
680.145	0.0157697
680.223	0.0155540
680.301	0.0153336
680.379	0.0152676
680.457	0.0151678
680.535	0.0149713
680.613	0.0150837
680.692	0.0151856
680.770	0.0154343
680.848	0.0157249
680.926	0.0159678
681.004	0.0161702
681.082	0.0164941
681.160	0.0166683
681.238	0.0166776
681.317	0.0168169
681.395	0.0169689
681.473	0.0171366
681.551	0.0171820
681.629	0.0172181
681.707	0.0171942
681.785	0.0172869
681.863	0.0173927
681.942	0.0171858
682.020	0.0173606
682.098	0.0174612
682.176	0.0172739
682.254	0.0173090
682.332	0.0171499
682.410	0.0170413
682.488	0.0168436
682.567	0.0164578
682.645	0.0163407
682.723	0.0161038
682.801	0.0159269
682.879	0.0157934
682.957	0.0157035
683.035	0.0156191
683.113	0.0156142
683.192	0.0157339
683.270	0.0158780
683.348	0.0160912
683.426	0.0162604
683.504	0.0164034
683.582	0.0162716
683.660	0.0164293
683.738	0.0165279
683.817	0.0164693
683.895	0.0165771
683.973	0.0166640
684.051	0.0169053
684.129	0.0170937
684.207	0.0173539
684.285	0.0177210
684.363	0.0181278
684.442	0.0181650
684.520	0.0182897
684.598	0.0184050
684.676	0.0183280
684.754	0.0180649
684.832	0.0176170
684.910	0.0171368
684.988	0.0165600
685.067	0.0158498
685.145	0.0153105
685.223	0.0147118
685.301	0.0141013
685.379	0.0136197
685.457	0.0132909
685.535	0.0126907
685.613	0.0123212
685.692	0.0122093
685.770	0.0117838
685.848	0.0117225
685.926	0.0114993
686.004	0.0117367
686.082	0.0119038
686.160	0.0123100
686.238	0.0128125
686.317	0.0133820
686.395	0.0141383
686.473	0.0152068
686.551	0.0163677
686.629	0.0174101
686.707	0.0186485
686.785	0.0195697
686.863	0.0204408
686.942	0.0214605
687.020	0.0220395
687.098	0.0225790
687.176	0.0230960
687.254	0.0231420
687.332	0.0231985
687.410	0.0230108
687.488	0.0229671
687.567	0.0226842
687.645	0.0222903
687.723	0.0218333
687.801	0.0212830
687.879	0.0206519
687.957	0.0200589
688.035	0.0195098
688.113	0.0189217
688.192	0.0183850
688.270	0.0179651
688.348	0.0174448
688.426	0.0170747
688.504	0.0166363
688.582	0.0161568
688.660	0.0158967
688.738	0.0152154
688.817	0.0146040
688.895	0.0139985
688.973	0.0134709
689.051	0.0127889
689.129	0.0122108
689.207	0.0115057
689.285	0.0110592
689.363	0.0106757
689.442	0.0105064
689.520	0.0103140
689.598	0.0101968
689.676	0.0100571
689.754	0.0101091
689.832	0.0101241
689.910	0.0102380
689.988	0.0104658
690.067	0.0104415
690.145	0.0105976
690.223	0.0105545
690.301	0.0107326
690.379	0.0108478
690.457	0.0111131
690.535	0.0114408
690.613	0.0118218
690.692	0.0125497
690.770	0.0133346
690.848	0.0142921
690.926	0.0156089
691.004	0.0169154
691.082	0.0184379
691.160	0.0201144
691.238	0.0215956
691.317	0.0231197
691.395	0.0246076
691.473	0.0261224
691.551	0.0275677
691.629	0.0285377
691.707	0.0293348
691.785	0.0297337
691.863	0.0300850
691.942	0.0299090
692.020	0.0295181
692.098	0.0289660
692.176	0.0280491
692.254	0.0268931
692.332	0.0255833
692.410	0.0240006
692.488	0.0222466
692.567	0.0207124
692.645	0.0189346
692.723	0.0171482
692.801	0.0155111
692.879	0.0139107
692.957	0.0123985
693.035	0.0109933
693.113	0.00960403
693.192	0.00857735
693.270	0.00773964
693.348	0.00705681
693.426	0.00676117
693.504	0.00682281
693.582	0.00672264
693.660	0.00705261
693.738	0.00761215
693.817	0.00818336
693.895	0.00894478
693.973	0.00980751
694.051	0.0105688
694.129	0.0117204
694.207	0.0125573
694.285	0.0132007
694.363	0.0139600
694.442	0.0143787
694.520	0.0151249
694.598	0.0155085
694.676	0.0158298
694.754	0.0160267
694.832	0.0159985
694.910	0.0162870
694.988	0.0164919
695.067	0.0164759
695.145	0.0165569
695.223	0.0161472
695.301	0.0160559
695.379	0.0157063
695.457	0.0154792
695.535	0.0152700
695.613	0.0149313
695.692	0.0144660
695.770	0.0142915
695.848	0.0140282
695.926	0.0140782
696.004	0.0142455
696.082	0.0148676
696.160	0.0157214
696.238	0.0168413
696.317	0.0181086
696.395	0.0193370
696.473	0.0208971
696.551	0.0222878
696.629	0.0236147
696.707	0.0249641
696.785	0.0256603
696.863	0.0264226
696.942	0.0269118
697.020	0.0271058
697.098	0.0268924
697.176	0.0262844
697.254	0.0258800
697.332	0.0250764
697.410	0.0241924
697.488	0.0232567
697.567	0.0223390
697.645	0.0213819
697.723	0.0204289
697.801	0.0194296
697.879	0.0184856
697.957	0.0173557
698.035	0.0162239
698.113	0.0153067
698.192	0.0143340
698.270	0.0133216
698.348	0.0124332
698.426	0.0117191
698.504	0.0109991
698.582	0.0103307
698.660	0.00973511
698.738	0.00946693
698.817	0.00919678
698.895	0.00896896
698.973	0.00912903
699.051	0.00932556
699.129	0.00960541
699.207	0.0100697
699.285	0.0105402
699.363	0.0112537
699.442	0.0116633
699.520	0.0122265
699.598	0.0126936
699.676	0.0131201
699.754	0.0133524
699.832	0.0138248
699.910	0.0139591
699.988	0.0140622
700.067	0.0142323
700.145	0.0144808
700.223	0.0146392
700.301	0.0146661
700.379	0.0148524
700.457	0.0149195
700.535	0.0147961
700.613	0.0145919
700.692	0.0144614
700.770	0.0143231
700.848	0.0141706
700.926	0.0141313
701.004	0.0142493
701.082	0.0145527
701.160	0.0149581
701.238	0.0152949
701.317	0.0161223
701.395	0.0172147
701.473	0.0181353
701.551	0.0192831
701.629	0.0203683
701.707	0.0215459
701.785	0.0226225
701.863	0.0236472
701.942	0.0243599
702.020	0.0249801
702.098	0.0254594
702.176	0.0256445
702.254	0.0258096
702.332	0.0257020
702.410	0.0255428
702.488	0.0252715
702.567	0.0247925
702.645	0.0243333
702.723	0.0237285
702.801	0.0231716
702.879	0.0223710
702.957	0.0216601
703.035	0.0208260
703.113	0.0198669
703.192	0.0191812
703.270	0.0181485
703.348	0.0172384
703.426	0.0163371
703.504	0.0153631
703.582	0.0144330
703.660	0.0135788
703.738	0.0124989
703.817	0.0118451
703.895	0.0111227
703.973	0.0103875
704.051	0.00985832
704.129	0.00931000
704.207	0.00909622
704.285	0.00870506
704.363	0.00851501
704.442	0.00861351
704.520	0.00876076
704.598	0.00893730
704.676	0.00952103
704.754	0.0102565
704.832	0.0108073
704.910	0.0114517
704.988	0.0124922
705.067	0.0131911
705.145	0.0139476
705.223	0.0146224
705.301	0.0150695
705.379	0.0156712
705.457	0.0160044
705.535	0.0161210
705.613	0.0162323
705.692	0.0162914
705.770	0.0163333
705.848	0.0162144
705.926	0.0161126
706.004	0.0157658
706.082	0.0158750
706.160	0.0157358
706.238	0.0154774
706.317	0.0154224
706.395	0.0154377
706.473	0.0156538
706.551	0.0156402
706.629	0.0158932
706.707	0.0163280
706.785	0.0168867
706.863	0.0174677
706.942	0.0178734
707.020	0.0186149
707.098	0.0193835
707.176	0.0200731
707.254	0.0208126
707.332	0.0213959
707.410	0.0220742
707.488	0.0224303
707.567	0.0228760
707.645	0.0230886
707.723	0.0231510
707.801	0.0231125
707.879	0.0229733
707.957	0.0226960
708.035	0.0225142
708.113	0.0217766
708.192	0.0212300
708.270	0.0207110
708.348	0.0199197
708.426	0.0194542
708.504	0.0187727
708.582	0.0181171
708.660	0.0175918
708.738	0.0169595
708.817	0.0166666
708.895	0.0159734
708.973	0.0154126
709.051	0.0152095
709.129	0.0146659
709.207	0.0141523
709.285	0.0138173
709.363	0.0135842
709.442	0.0134029
709.520	0.0130798
709.598	0.0131213
709.676	0.0131745
709.754	0.0132139
709.832	0.0131691
709.910	0.0135253
709.988	0.0137032
710.067	0.0139120
710.145	0.0141978
710.223	0.0144774
710.301	0.0147260
710.379	0.0149398
710.457	0.0152116
710.535	0.0152762
710.613	0.0151468
710.692	0.0153027
710.770	0.0149854
710.848	0.0149336
710.926	0.0145223
711.004	0.0141670
711.082	0.0138651
711.160	0.0133682
711.238	0.0131081
711.317	0.0127635
711.395	0.0125950
711.473	0.0124841
711.551	0.0124507
711.629	0.0125977
711.707	0.0129273
711.785	0.0132148
711.863	0.0136575
711.942	0.0142233
712.020	0.0148534
712.098	0.0153755
712.176	0.0158450
712.254	0.0165189
712.332	0.0169611
712.410	0.0176139
712.488	0.0182068
712.567	0.0186115
712.645	0.0189583
712.723	0.0195428
712.801	0.0199058
712.879	0.0201781
712.957	0.0204498
713.035	0.0207298
713.113	0.0209589
713.192	0.0212093
713.270	0.0212977
713.348	0.0215869
713.426	0.0215498
713.504	0.0214863
713.582	0.0212902
713.660	0.0210809
713.738	0.0208151
713.817	0.0202616
713.895	0.0197848
713.973	0.0193174
714.051	0.0187560
714.129	0.0181822
714.207	0.0175794
714.285	0.0171415
714.363	0.0165628
714.442	0.0161243
714.520	0.0158873
714.598	0.0157504
714.676	0.0155370
714.754	0.0156438
714.832	0.0156758
714.910	0.0159040
714.988	0.0160272
715.067	0.0161308
715.145	0.0165747
715.223	0.0169739
715.301	0.0170550
715.379	0.0171961
715.457	0.0173042
715.535	0.0173526
715.613	0.0174310
715.692	0.0172320
715.770	0.0168003
715.848	0.0165460
715.926	0.0161486
716.004	0.0155419
716.082	0.0151442
716.160	0.0145084
716.238	0.0139522
716.317	0.0133815
716.395	0.0127448
716.473	0.0120849
716.551	0.0115268
716.629	0.0112807
716.707	0.0107973
716.785	0.0105308
716.863	0.0105237
716.942	0.0106791
717.020	0.0107008
717.098	0.0109811
717.176	0.0113266
717.254	0.0117362
717.332	0.0125414
717.410	0.0131783
717.488	0.0140744
717.567	0.0148283
717.645	0.0156082
717.723	0.0162663
717.801	0.0171954
717.879	0.0177540
717.957	0.0184077
718.035	0.0188458
718.113	0.0192108
718.192	0.0195342
718.270	0.0200469
718.348	0.0201125
718.426	0.0202491
718.504	0.0203023
718.582	0.0203424
718.660	0.0203574
718.738	0.0200092
718.817	0.0199170
718.895	0.0196635
718.973	0.0193320
719.051	0.0191147
719.129	0.0187063
719.207	0.0184512
719.285	0.0181481
719.363	0.0178688
719.442	0.0176463
719.520	0.0175095
719.598	0.0173846
719.676	0.0172603
719.754	0.0171068
719.832	0.0170377
719.910	0.0171491
719.988	0.0171308
720.067	0.0173458
720.145	0.0174148
720.223	0.0175471
720.301	0.0179436
720.379	0.0180875
720.457	0.0182811
720.535	0.0184073
720.613	0.0186140
720.692	0.0186046
720.770	0.0184560
720.848	0.0185061
720.926	0.0182188
721.004	0.0182167
721.082	0.0178394
721.160	0.0174678
721.238	0.0169891
721.317	0.0164418
721.395	0.0160690
721.473	0.0154095
721.551	0.0148966
721.629	0.0143913
721.707	0.0138749
721.785	0.0135544
721.863	0.0130540
721.942	0.0127063
722.020	0.0123363
722.098	0.0121955
722.176	0.0122104
722.254	0.0120358
722.332	0.0122575
722.410	0.0124892
722.488	0.0126746
722.567	0.0129205
722.645	0.0131960
722.723	0.0137178
722.801	0.0140585
722.879	0.0143874
722.957	0.0147979
723.035	0.0152422
723.113	0.0157114
723.192	0.0160541
723.270	0.0163354
723.348	0.0167471
723.426	0.0168827
723.504	0.0171883
723.582	0.0175360
723.660	0.0177064
723.738	0.0177781
723.817	0.0177102
723.895	0.0179090
723.973	0.0177357
724.051	0.0178529
724.129	0.0178996
724.207	0.0176684
724.285	0.0173988
724.363	0.0173386
724.442	0.0170795
724.520	0.0170573
724.598	0.0168903
724.676	0.0166946
724.754	0.0167879
724.832	0.0168316
724.910	0.0168755
724.988	0.0170153
725.067	0.0170571
725.145	0.0171877
725.223	0.0175900
725.301	0.0178823
725.379	0.0181522
725.457	0.0183841
725.535	0.0186450
725.613	0.0189548
725.692	0.0191921
725.770	0.0192944
725.848	0.0194540
725.926	0.0194783
726.004	0.0195718
726.082	0.0193655
726.160	0.0192758
726.238	0.0189792
726.317	0.0186210
726.395	0.0182619
726.473	0.0178170
726.551	0.0171654
726.629	0.0166973
726.707	0.0160178
726.785	0.0154734
726.863	0.0147927
726.942	0.0144492
727.020	0.0141543
727.098	0.0138302
727.176	0.0135643
727.254	0.0131567
727.332	0.0132582
727.410	0.0131535
727.488	0.0132672
727.567	0.0134032
727.645	0.0135661
727.723	0.0139149
727.801	0.0142338
727.879	0.0144676
727.957	0.0149758
728.035	0.0152486
728.113	0.0156683
728.192	0.0159125
728.270	0.0162706
728.348	0.0164974
728.426	0.0167950
728.504	0.0170007
728.582	0.0170862
728.660	0.0173241
728.738	0.0175092
728.817	0.0173769
728.895	0.0174763
728.973	0.0173964
729.051	0.0172904
729.129	0.0171762
729.207	0.0169697
729.285	0.0166338
729.363	0.0165424
729.442	0.0162922
729.520	0.0161987
729.598	0.0159951
729.676	0.0157778
729.754	0.0157693
729.832	0.0157915
729.910	0.0157823
729.988	0.0158344
730.067	0.0158813
730.145	0.0160383
730.223	0.0162686
730.301	0.0165453
730.379	0.0166833
730.457	0.0169508
730.535	0.0173853
730.613	0.0176521
730.692	0.0176286
730.770	0.0178493
730.848	0.0180174
730.926	0.0179874
731.004	0.0182057
731.082	0.0181529
731.160	0.0180951
731.238	0.0180173
731.317	0.0180052
731.395	0.0178731
731.473	0.0177371
731.551	0.0174941
731.629	0.0171407
731.707	0.0168843
731.785	0.0166638
731.863	0.0163775
731.942	0.0160476
732.020	0.0157406
732.098	0.0154361
732.176	0.0153232
732.254	0.0151137
732.332	0.0148853
732.410	0.0148387
732.488	0.0148463
732.567	0.0147498
732.645	0.0147904
732.723	0.0149498
732.801	0.0150440
732.879	0.0153654
732.957	0.0156818
733.035	0.0158847
733.113	0.0161794
733.192	0.0165504
733.270	0.0168802
733.348	0.0169899
733.426	0.0172195
733.504	0.0173176
733.582	0.0176151
733.660	0.0176820
733.738	0.0177107
733.817	0.0177842
733.895	0.0178117
733.973	0.0176651
734.051	0.0175047
734.129	0.0174703
734.207	0.0172370
734.285	0.0171276
734.363	0.0169485
734.442	0.0167056
734.520	0.0163578
734.598	0.0161600
734.676	0.0158597
734.754	0.0157344
734.832	0.0156185
734.910	0.0155494
734.988	0.0155325
735.067	0.0153483
735.145	0.0153979
735.223	0.0153540
735.301	0.0153908
735.379	0.0155624
735.457	0.0158020
735.535	0.0159716
735.613	0.0162035
735.692	0.0161791
735.770	0.0165720
735.848	0.0167281
735.926	0.0168748
736.004	0.0170710
736.082	0.0173870
736.160	0.0175549
736.238	0.0174628
736.317	0.0176399
736.395	0.0176942
736.473	0.0177875
736.551	0.0176974
736.629	0.0174297
736.707	0.0174603
736.785	0.0173171
736.863	0.0170396
736.942	0.0169088
737.020	0.0167227
737.098	0.0163268
737.176	0.0159467
737.254	0.0157742
737.332	0.0155219
737.410	0.0153488
737.488	0.0150977
737.567	0.0149760
737.645	0.0149978
737.723	0.0148933
737.801	0.0149230
737.879	0.0149323
737.957	0.0149947
738.035	0.0151005
738.113	0.0154066
738.192	0.0155021
738.270	0.0155242
738.348	0.0157480
738.426	0.0161528
738.504	0.0163261
738.582	0.0165489
738.660	0.0168015
738.738	0.0169357
738.817	0.0171645
738.895	0.0172445
738.973	0.0171780
739.051	0.0173567
739.129	0.0175995
739.207	0.0175455
739.285	0.0175196
739.363	0.0175194
739.442	0.0174162
739.520	0.0173441
739.598	0.0172817
739.676	0.0171208
739.754	0.0171508
739.832	0.0170148
739.910	0.0167497
739.988	0.0166254
740.067	0.0165027
740.145	0.0164922
740.223	0.0164587
740.301	0.0162183
740.379	0.0162753
740.457	0.0163333
740.535	0.0162556
740.613	0.0163783
740.692	0.0165296
740.770	0.0166427
740.848	0.0165532
740.926	0.0166863
741.004	0.0169067
741.082	0.0169843
741.160	0.0168292
741.238	0.0169395
741.317	0.0169765
741.395	0.0171202
741.473	0.0170587
741.551	0.0168632
741.629	0.0169275
741.707	0.0168164
741.785	0.0167226
741.863	0.0165971
741.942	0.0165420
742.020	0.0163572
742.098	0.0162625
742.176	0.0159262
742.254	0.0158718
742.332	0.0158040
742.410	0.0155233
742.488	0.0155104
742.567	0.0153583
742.645	0.0153228
742.723	0.0151788
742.801	0.0151126
742.879	0.0150407
742.957	0.0150946
743.035	0.0150738
743.113	0.0150966
743.192	0.0153044
743.270	0.0154594
743.348	0.0155806
743.426	0.0156688
743.504	0.0159244
743.582	0.0160968
743.660	0.0163043
743.738	0.0164632
743.817	0.0167740
743.895	0.0169864
743.973	0.0171306
744.051	0.0173328
744.129	0.0172955
744.207	0.0175255
744.285	0.0175064
744.363	0.0176221
744.442	0.0177892
744.520	0.0177436
744.598	0.0176556
744.676	0.0175903
744.754	0.0174292
744.832	0.0173390
744.910	0.0171631
744.988	0.0169781
745.067	0.0169256
745.145	0.0166952
745.223	0.0164048
745.301	0.0163918
745.379	0.0163581
745.457	0.0161299
745.535	0.0158244
745.613	0.0159469
745.692	0.0159261
745.770	0.0158502
745.848	0.0159264
745.926	0.0159783
746.004	0.0159562
746.082	0.0159549
746.160	0.0160785
746.238	0.0160854
746.317	0.0162795
746.395	0.0163755
746.473	0.0164616
746.551	0.0163400
746.629	0.0165048
746.707	0.0165879
746.785	0.0166983
746.863	0.0166606
746.942	0.0166929
747.020	0.0166457
747.098	0.0167032
747.176	0.0167744
747.254	0.0167234
747.332	0.0167605
747.410	0.0167099
747.488	0.0166490
747.567	0.0166025
747.645	0.0165619
747.723	0.0165221
747.801	0.0163300
747.879	0.0163155
747.957	0.0161588
748.035	0.0162170
748.113	0.0160767
748.192	0.0158784
748.270	0.0158389
748.348	0.0157776
748.426	0.0157807
748.504	0.0158518
748.582	0.0161169
748.660	0.0160548
748.738	0.0160954
748.817	0.0162849
748.895	0.0164720
748.973	0.0165337
749.051	0.0165911
749.129	0.0167351
749.207	0.0169379
749.285	0.0169888
749.363	0.0169762
749.442	0.0171600
749.520	0.0174383
749.598	0.0173936
749.676	0.0173604
749.754	0.0173256
749.832	0.0172948
749.910	0.0173639
749.988	0.0173045
750.067	0.0172549
750.145	0.0170773
750.223	0.0171497
750.301	0.0170058
750.379	0.0167715
750.457	0.0166921
750.535	0.0165118
750.613	0.0164801
750.692	0.0163174
750.770	0.0161542
750.848	0.0160677
750.926	0.0160123
751.004	0.0159314
751.082	0.0159985
751.160	0.0158480
751.238	0.0158811
751.317	0.0158925
751.395	0.0159016
751.473	0.0158849
751.551	0.0158128
751.629	0.0159938
751.707	0.0161604
751.785	0.0161102
751.863	0.0162036
751.942	0.0163094
752.020	0.0162441
752.098	0.0163110
752.176	0.0162905
752.254	0.0163146
752.332	0.0163630
752.410	0.0164980
752.488	0.0162813
752.567	0.0162267
752.645	0.0163147
752.723	0.0163342
752.801	0.0162348
752.879	0.0162425
752.957	0.0163016
753.035	0.0161144
753.113	0.0161227
753.192	0.0162029
753.270	0.0160329
753.348	0.0162264
753.426	0.0161077
753.504	0.0162623
753.582	0.0161247
753.660	0.0160889
753.738	0.0163019
753.817	0.0163783
753.895	0.0164559
753.973	0.0163773
754.051	0.0164859
754.129	0.0168585
754.207	0.0167912
754.285	0.0168996
754.363	0.0171336
754.442	0.0172067
754.520	0.0171529
754.598	0.0173209
754.676	0.0173949
754.754	0.0175341
754.832	0.0173947
754.910	0.0174586
754.988	0.0174770
755.067	0.0175175
755.145	0.0175629
755.223	0.0173479
755.301	0.0173141
755.379	0.0171993
755.457	0.0171352
755.535	0.0171188
755.613	0.0169545
755.692	0.0168961
755.770	0.0167110
755.848	0.0164778
755.926	0.0163844
756.004	0.0162431
756.082	0.0160175
756.160	0.0159606
756.238	0.0159077
756.317	0.0158746
756.395	0.0157806
756.473	0.0156510
756.551	0.0157803
756.629	0.0158269
756.707	0.0157233
756.785	0.0158971
756.863	0.0159395
756.942	0.0158835
757.020	0.0158878
757.098	0.0159464
757.176	0.0160323
757.254	0.0160808
757.332	0.0162164
757.410	0.0162259
757.488	0.0162284
757.567	0.0162669
757.645	0.0162093
757.723	0.0165020
757.801	0.0161795
757.879	0.0162171
757.957	0.0162567
758.035	0.0164197
758.113	0.0163527
758.192	0.0163889
758.270	0.0163470
758.348	0.0161605
758.426	0.0163237
758.504	0.0163368
758.582	0.0162508
758.660	0.0163022
758.738	0.0161674
758.817	0.0162444
758.895	0.0163982
758.973	0.0164342
759.051	0.0163589
759.129	0.0164049
759.207	0.0164494
759.285	0.0167220
759.363	0.0164752
759.442	0.0165268
759.520	0.0166853
759.598	0.0166753
759.676	0.0167058
759.754	0.0167803
759.832	0.0169304
759.910	0.0169613
759.988	0.0169654
760.067	0.0169846
760.145	0.0169810
760.223	0.0170378
760.301	0.0171368
760.379	0.0170421
760.457	0.0170285
760.535	0.0170155
760.613	0.0169142
760.692	0.0169595
760.770	0.0169526
760.848	0.0169331
760.926	0.0168070
761.004	0.0168404
761.082	0.0167096
761.160	0.0166800
761.238	0.0166009
761.317	0.0166125
761.395	0.0165691
761.473	0.0164507
761.551	0.0163929
761.629	0.0163107
761.707	0.0162421
761.785	0.0163013
761.863	0.0163689
761.942	0.0162019
762.020	0.0161847
762.098	0.0161194
762.176	0.0162393
762.254	0.0162948
762.332	0.0160216
762.410	0.0162420
762.488	0.0161317
762.567	0.0161294
762.645	0.0161890
762.723	0.0161585
762.801	0.0163079
762.879	0.0162012
762.957	0.0162384
763.035	0.0162535
763.113	0.0162881
763.192	0.0163059
763.270	0.0163728
763.348	0.0164082
763.426	0.0164034
763.504	0.0165242
763.582	0.0161716
763.660	0.0163222
763.738	0.0164001
763.817	0.0162657
763.895	0.0163477
763.973	0.0163537
764.051	0.0163564
764.129	0.0163271
764.207	0.0163223
764.285	0.0162394
764.363	0.0163357
764.442	0.0163698
764.520	0.0166376
764.598	0.0167346
764.676	0.0165788
764.754	0.0165214
764.832	0.0166299
764.910	0.0169188
764.988	0.0167562
765.067	0.0167320
765.145	0.0168141
765.223	0.0169080
765.301	0.0168275
765.379	0.0168467
765.457	0.0170425
765.535	0.0170021
765.613	0.0169114
765.692	0.0167870
765.770	0.0167352
765.848	0.0167719
765.926	0.0166843
766.004	0.0166917
766.082	0.0166538
766.160	0.0166483
766.238	0.0166212
766.317	0.0165742
766.395	0.0165744
766.473	0.0163576
766.551	0.0163567
766.629	0.0163239
766.707	0.0162044
766.785	0.0161237
766.863	0.0161673
766.942	0.0161323
767.020	0.0160477
767.098	0.0160455
767.176	0.0160229
767.254	0.0159944
767.332	0.0160278
767.410	0.0161837
767.488	0.0160878
767.567	0.0162857
767.645	0.0163153
767.723	0.0163419
767.801	0.0162141
767.879	0.0163276
767.957	0.0164255
768.035	0.0165021
768.113	0.0165311
768.192	0.0164830
768.270	0.0166088
768.348	0.0166302
768.426	0.0168578
768.504	0.0168417
768.582	0.0166769
768.660	0.0168468
768.738	0.0169308
768.817	0.0168476
768.895	0.0166940
768.973	0.0167318
769.051	0.0166389
769.129	0.0167588
769.207	0.0166878
769.285	0.0166895
769.363	0.0166200
769.442	0.0166026
769.520	0.0165292
769.598	0.0164912
769.676	0.0165083
769.754	0.0165229
769.832	0.0165047
769.910	0.0165295
769.988	0.0166067
770.067	0.0166850
770.145	0.0166638
770.223	0.0166701
770.301	0.0167777
770.379	0.0166827
770.457	0.0166840
770.535	0.0167767
770.613	0.0167928
770.692	0.0167477
770.770	0.0167584
770.848	0.0167853
770.926	0.0167400
771.004	0.0165692
771.082	0.0166515
771.160	0.0167995
771.238	0.0166564
771.317	0.0165565
771.395	0.0164975
771.473	0.0165027
771.551	0.0165207
771.629	0.0163358
771.707	0.0163490
771.785	0.0162290
771.863	0.0161151
771.942	0.0161472
772.020	0.0160024
772.098	0.0160908
772.176	0.0159907
772.254	0.0160394
772.332	0.0160655
772.410	0.0161023
772.488	0.0159801
772.567	0.0160525
772.645	0.0162122
772.723	0.0161957
772.801	0.0162875
772.879	0.0163234
772.957	0.0163506
773.035	0.0164009
773.113	0.0166101
773.192	0.0165003
773.270	0.0166963
773.348	0.0167202
773.426	0.0167602
773.504	0.0165186
773.582	0.0166345
773.660	0.0169434
773.738	0.0168121
773.817	0.0165898
773.895	0.0166904
773.973	0.0167826
774.051	0.0166846
774.129	0.0165974
774.207	0.0167628
774.285	0.0166007
774.363	0.0165392
774.442	0.0165992
774.520	0.0165104
774.598	0.0163840
774.676	0.0165276
774.754	0.0164054
774.832	0.0162430
774.910	0.0163593
774.988	0.0165014
775.067	0.0164575
775.145	0.0164204
775.223	0.0165505
775.301	0.0165112
775.379	0.0165733
775.457	0.0165443
775.535	0.0165045
775.613	0.0165453
775.692	0.0165842
775.770	0.0167197
775.848	0.0167554
775.926	0.0166956
776.004	0.0166878
776.082	0.0167308
776.160	0.0166425
776.238	0.0166219
776.317	0.0166512
776.395	0.0166681
776.473	0.0165639
776.551	0.0164034
776.629	0.0165691
776.707	0.0166242
776.785	0.0164243
776.863	0.0164645
776.942	0.0164169
777.020	0.0163773
777.098	0.0163489
777.176	0.0162911
777.254	0.0161878
777.332	0.0162433
777.410	0.0163229
777.488	0.0161800
777.567	0.0161296
777.645	0.0160960
777.723	0.0161726
777.801	0.0162135
777.879	0.0162296
777.957	0.0164211
778.035	0.0163420
778.113	0.0163501
778.192	0.0164343
778.270	0.0164476
778.348	0.0164537
778.426	0.0165575
778.504	0.0165253
778.582	0.0166878
778.660	0.0166273
778.738	0.0166905
778.817	0.0166225
778.895	0.0166402
778.973	0.0165759
779.051	0.0167075
779.129	0.0167188
779.207	0.0165398
779.285	0.0166166
779.363	0.0167283
779.442	0.0165872
779.520	0.0166148
779.598	0.0166389
779.676	0.0165340
779.754	0.0164223
779.832	0.0165264
779.910	0.0164396
779.988	0.0164130
780.067	0.0164085
780.145	0.0164071
780.223	0.0163456
780.301	0.0164405
780.379	0.0163048
780.457	0.0164763
780.535	0.0165739
780.613	0.0164995
780.692	0.0165214
780.770	0.0165739
780.848	0.0167862
780.926	0.0166835
781.004	0.0167689
781.082	0.0167265
781.160	0.0166382
781.238	0.0167278
781.317	0.0166953
781.395	0.0165521
781.473	0.0164957
781.551	0.0165320
781.629	0.0164775
781.707	0.0163582
781.785	0.0162592
781.863	0.0162034
781.942	0.0161022
782.020	0.0160526
782.098	0.0160403
782.176	0.0159759
782.254	0.0158909
782.332	0.0159153
782.410	0.0157974
782.488	0.0160713
782.567	0.0158857
782.645	0.0159892
782.723	0.0160951
782.801	0.0161211
782.879	0.0161216
782.957	0.0161907
783.035	0.0162164
783.113	0.0165087
783.192	0.0165784
783.270	0.0167202
783.348	0.0168443
783.426	0.0168546
783.504	0.0170158
783.582	0.0171219
783.660	0.0172064
783.738	0.0171315
783.817	0.0172877
783.895	0.0172920
783.973	0.0172530
784.051	0.0175131
784.129	0.0171873
784.207	0.0171355
784.285	0.0172977
784.363	0.0172084
784.442	0.0171199
784.520	0.0170383
784.598	0.0169857
784.676	0.0169135
784.754	0.0170535
784.832	0.0168100
784.910	0.0167182
784.988	0.0165961
785.067	0.0163244
785.145	0.0162665
785.223	0.0163788
785.301	0.0161739
785.379	0.0161760
785.457	0.0159953
785.535	0.0161034
785.613	0.0158981
785.692	0.0159119
785.770	0.0158264
785.848	0.0157814
785.926	0.0157278
786.004	0.0155459
786.082	0.0155391
786.160	0.0156119
786.238	0.0156837
786.317	0.0156245
786.395	0.0157547
786.473	0.0156683
786.551	0.0158109
786.629	0.0157836
786.707	0.0158981
786.785	0.0159647
786.863	0.0161257
786.942	0.0160661
787.020	0.0160220
787.098	0.0162937
787.176	0.0162617
787.254	0.0163511
787.332	0.0164424
787.410	0.0166990
787.488	0.0166536
787.567	0.0168822
787.645	0.0168839
787.723	0.0170914
787.801	0.0173005
787.879	0.0174102
787.957	0.0174973
788.035	0.0176971
788.113	0.0177347
788.192	0.0178895
788.270	0.0178991
788.348	0.0178863
788.426	0.0178369
788.504	0.0178358
788.582	0.0177476
788.660	0.0177949
788.738	0.0177162
788.817	0.0175816
788.895	0.0173034
788.973	0.0172601
789.051	0.0171371
789.129	0.0170197
789.207	0.0167426
789.285	0.0167028
789.363	0.0165789
789.442	0.0164935
789.520	0.0162379
789.598	0.0161452
789.676	0.0160692
789.754	0.0160558
789.832	0.0158286
789.910	0.0156650
789.988	0.0158566
790.067	0.0156952
790.145	0.0157875
790.223	0.0157883
790.301	0.0157311
790.379	0.0156300
790.457	0.0156750
790.535	0.0158061
790.613	0.0156923
790.692	0.0156247
790.770	0.0157450
790.848	0.0157282
790.926	0.0158012
791.004	0.0158585
791.082	0.0159498
791.160	0.0158788
791.238	0.0159121
791.317	0.0161057
791.395	0.0158714
791.473	0.0159355
791.551	0.0161605
791.629	0.0160155
791.707	0.0160870
791.785	0.0161404
791.863	0.0161060
791.942	0.0160970
792.020	0.0161195
792.098	0.0163809
792.176	0.0163097
792.254	0.0163762
792.332	0.0163889
792.410	0.0164813
792.488	0.0166840
792.567	0.0167179
792.645	0.0168452
792.723	0.0170184
792.801	0.0170822
792.879	0.0173264
792.957	0.0175149
793.035	0.0176221
793.113	0.0176545
793.192	0.0176800
793.270	0.0175824
793.348	0.0179557
793.426	0.0178727
793.504	0.0178172
793.582	0.0176968
793.660	0.0176105
793.738	0.0175757
793.817	0.0174074
793.895	0.0174610
793.973	0.0173836
794.051	0.0173991
794.129	0.0173455
794.207	0.0172102
794.285	0.0170621
794.363	0.0168845
794.442	0.0169575
794.520	0.0168265
794.598	0.0164590
794.676	0.0163510
794.754	0.0162190
794.832	0.0162223
794.910	0.0162097
794.988	0.0160365
795.067	0.0159243
795.145	0.0157326
795.223	0.0158265
795.301	0.0158306
795.379	0.0157115
795.457	0.0157320
795.535	0.0157999
795.613	0.0156976
795.692	0.0156739
795.770	0.0155215
795.848	0.0155770
795.926	0.0155245
796.004	0.0156142
796.082	0.0155293
796.160	0.0155597
796.238	0.0154931
796.317	0.0156310
796.395	0.0154347
796.473	0.0155550
796.551	0.0155804
796.629	0.0156243
796.707	0.0157330
796.785	0.0158882
796.863	0.0158689
796.942	0.0158662
797.020	0.0159210
797.098	0.0159393
797.176	0.0160291
797.254	0.0161323
797.332	0.0160654
797.410	0.0161676
797.488	0.0163676
797.567	0.0163534
797.645	0.0165343
797.723	0.0165932
797.801	0.0168076
797.879	0.0168629
797.957	0.0169962
798.035	0.0172489
798.113	0.0173194
798.192	0.0175140
798.270	0.0176264
798.348	0.0176878
798.426	0.0177591
798.504	0.0177952
798.582	0.0178036
798.660	0.0178796
798.738	0.0178294
798.817	0.0178741
798.895	0.0175936
798.973	0.0177140
799.051	0.0177373
799.129	0.0176842
799.207	0.0176324
799.285	0.0175426
799.363	0.0172904
799.442	0.0170866
799.520	0.0172258
799.598	0.0170154
799.676	0.0168938
799.754	0.0167249
799.832	0.0167424
799.910	0.0166737
799.988	0.0165536
800.067	0.0164503
800.145	0.0164015
800.223	0.0163883
800.301	0.0163042
800.379	0.0163980
800.457	0.0162960
800.535	0.0161571
800.613	0.0159467
800.692	0.0160875
800.770	0.0159834
800.848	0.0158975
800.926	0.0159525
801.004	0.0158359
801.082	0.0158575
801.160	0.0157609
801.238	0.0154980
801.317	0.0155791
801.395	0.0155535
801.473	0.0155743
801.551	0.0155655
801.629	0.0155166
801.707	0.0155093
801.785	0.0156197
801.863	0.0155304
801.942	0.0156751
802.020	0.0156045
802.098	0.0157209
802.176	0.0156663
802.254	0.0156923
802.332	0.0159488
802.410	0.0159046
802.488	0.0159856
802.567	0.0160452
802.645	0.0159614
802.723	0.0161361
802.801	0.0162877
802.879	0.0163815
802.957	0.0164799
803.035	0.0166034
803.113	0.0166015
803.192	0.0167947
803.270	0.0168398
803.348	0.0168830
803.426	0.0170596
803.504	0.0171420
803.582	0.0172691
803.660	0.0171644
803.738	0.0171833
803.817	0.0172916
803.895	0.0172092
803.973	0.0173161
804.051	0.0173528
804.129	0.0171565
804.207	0.0172705
804.285	0.0172706
804.363	0.0172588
804.442	0.0173573
804.520	0.0172636
804.598	0.0173350
804.676	0.0172172
804.754	0.0173449
804.832	0.0173242
804.910	0.0170761
804.988	0.0169112
805.067	0.0170805
805.145	0.0171781
805.223	0.0169999
805.301	0.0168983
805.379	0.0169480
805.457	0.0169463
805.535	0.0168056
805.613	0.0166946
805.692	0.0167085
805.770	0.0166376
805.848	0.0165323
805.926	0.0165720
806.004	0.0163914
806.082	0.0163332
806.160	0.0163977
806.238	0.0162765
806.317	0.0161990
806.395	0.0161707
806.473	0.0161292
806.551	0.0161749
806.629	0.0159992
806.707	0.0158216
806.785	0.0157642
806.863	0.0158732
806.942	0.0157170
807.020	0.0157919
807.098	0.0157810
807.176	0.0156164
807.254	0.0157288
807.332	0.0156387
807.410	0.0154756
807.488	0.0154758
807.567	0.0155190
807.645	0.0155361
807.723	0.0155971
807.801	0.0154217
807.879	0.0155540
807.957	0.0155666
808.035	0.0155273
808.113	0.0157012
808.192	0.0157511
808.270	0.0159525
808.348	0.0160224
808.426	0.0159355
808.504	0.0160815
808.582	0.0162921
808.660	0.0161627
808.738	0.0165559
808.817	0.0167144
808.895	0.0167332
808.973	0.0169858
809.051	0.0169169
809.129	0.0170316
809.207	0.0171491
809.285	0.0172555
809.363	0.0173551
809.442	0.0173884
809.520	0.0174727
809.598	0.0175305
809.676	0.0175678
809.754	0.0175607
809.832	0.0175772
809.910	0.0175414
809.988	0.0175359
810.067	0.0175368
810.145	0.0176555
810.223	0.0174011
810.301	0.0173110
810.379	0.0172032
810.457	0.0172466
810.535	0.0172018
810.613	0.0171340
810.692	0.0169778
810.770	0.0167946
810.848	0.0168176
810.926	0.0165915
811.004	0.0165696
811.082	0.0165353
811.160	0.0165616
811.238	0.0164249
811.317	0.0164928
811.395	0.0163865
811.473	0.0164260
811.551	0.0165444
811.629	0.0164192
811.707	0.0163326
811.785	0.0164054
811.863	0.0162626
811.942	0.0161755
812.020	0.0162974
812.098	0.0162043
812.176	0.0161815
812.254	0.0161511
812.332	0.0161387
812.410	0.0160464
812.488	0.0159073
812.567	0.0158553
812.645	0.0158166
812.723	0.0158937
812.801	0.0158406
812.879	0.0156800
812.957	0.0156075
813.035	0.0158012
813.113	0.0158051
813.192	0.0157664
813.270	0.0157414
813.348	0.0158744
813.426	0.0158262
813.504	0.0159451
813.582	0.0159522
813.660	0.0159878
813.738	0.0162027
813.817	0.0162197
813.895	0.0162480
813.973	0.0163724
814.051	0.0164233
814.129	0.0163517
814.207	0.0164855
814.285	0.0166943
814.363	0.0165688
814.442	0.0166994
814.520	0.0167307
814.598	0.0168360
814.676	0.0168607
814.754	0.0170498
814.832	0.0169466
814.910	0.0168766
814.988	0.0172341
815.067	0.0170886
815.145	0.0170480
815.223	0.0171954
815.301	0.0170398
815.379	0.0170114
815.457	0.0171519
815.535	0.0171368
815.613	0.0170335
815.692	0.0171212
815.770	0.0171117
815.848	0.0170700
815.926	0.0169162
816.004	0.0169269
816.082	0.0170297
816.160	0.0169344
816.238	0.0166782
816.317	0.0168580
816.395	0.0168945
816.473	0.0168232
816.551	0.0166757
816.629	0.0166423
816.707	0.0167123
816.785	0.0167194
816.863	0.0167477
816.942	0.0166849
817.020	0.0166414
817.098	0.0166839
817.176	0.0165075
817.254	0.0163441
817.332	0.0164517
817.410	0.0164623
817.488	0.0165254
817.567	0.0165466
817.645	0.0163403
817.723	0.0162063
817.801	0.0162267
817.879	0.0163561
817.957	0.0162981
818.035	0.0162745
818.113	0.0161991
818.192	0.0163119
818.270	0.0163119
818.348	0.0161524
818.426	0.0159453
818.504	0.0161430
818.582	0.0159936
818.660	0.0160265
818.738	0.0161516
818.817	0.0158690
818.895	0.0160244
818.973	0.0160686
819.051	0.0160616
819.129	0.0160888
819.207	0.0161079
819.285	0.0160107
819.363	0.0160526
819.442	0.0161162
819.520	0.0162241
819.598	0.0161923
819.676	0.0162227
819.754	0.0162625
819.832	0.0163711
819.910	0.0165002
819.988	0.0163137
820.067	0.0163691
820.145	0.0165613
820.223	0.0164655
820.301	0.0165425
820.379	0.0166754
820.457	0.0164861
820.535	0.0167686
820.613	0.0167942
820.692	0.0167053
820.770	0.0166930
820.848	0.0168453
820.926	0.0169211
821.004	0.0168336
821.082	0.0168097
821.160	0.0169672
821.238	0.0168812
821.317	0.0167126
821.395	0.0167924
821.473	0.0168018
821.551	0.0166485
821.629	0.0166717
821.707	0.0168431
821.785	0.0167903
821.863	0.0166764
821.942	0.0166947
822.020	0.0166808
822.098	0.0165300
822.176	0.0165837
822.254	0.0165696
822.332	0.0166011
822.410	0.0165476
822.488	0.0164668
822.567	0.0165398
822.645	0.0163586
822.723	0.0163638
822.801	0.0165536
822.879	0.0164429
822.957	0.0164477
823.035	0.0164783
823.113	0.0165273
823.192	0.0164876
823.270	0.0163697
823.348	0.0164551
823.426	0.0164496
823.504	0.0163612
823.582	0.0164309
823.660	0.0164278
823.738	0.0163708
823.817	0.0162296
823.895	0.0163939
823.973	0.0163413
824.051	0.0164439
824.129	0.0163667
824.207	0.0162911
824.285	0.0163461
824.363	0.0164296
824.442	0.0165083
824.520	0.0164416
824.598	0.0164281
824.676	0.0164852
824.754	0.0164222
824.832	0.0164041
824.910	0.0165173
824.988	0.0165697
825.067	0.0164673
825.145	0.0164906
825.223	0.0164650
825.301	0.0165648
825.379	0.0165305
825.457	0.0166371
825.535	0.0164069
825.613	0.0164414
825.692	0.0165352
825.770	0.0164735
825.848	0.0165655
825.926	0.0164680
826.004	0.0164144
826.082	0.0164859
826.160	0.0164642
826.238	0.0165220
826.317	0.0164756
826.395	0.0164092
826.473	0.0165672
826.551	0.0166254
826.629	0.0164674
826.707	0.0165952
826.785	0.0165979
826.863	0.0164145
826.942	0.0165215
827.020	0.0165247
827.098	0.0164319
827.176	0.0164231
827.254	0.0163510
827.332	0.0163633
827.410	0.0163589
827.488	0.0163977
827.567	0.0162856
827.645	0.0161041
827.723	0.0163727
827.801	0.0163009
827.879	0.0162585
827.957	0.0162356
828.035	0.0164188
828.113	0.0162695
828.192	0.0163681
828.270	0.0163100
828.348	0.0163090
828.426	0.0163496
828.504	0.0163126
828.582	0.0164024
828.660	0.0163951
828.738	0.0164755
828.817	0.0165524
828.895	0.0163743
828.973	0.0164067
829.051	0.0164556
829.129	0.0165852
829.207	0.0166437
829.285	0.0167859
829.363	0.0168610
829.442	0.0168691
829.520	0.0167315
829.598	0.0167208
829.676	0.0169590
829.754	0.0169064
829.832	0.0169549
829.910	0.0169209
829.988	0.0170285
830.067	0.0170617
830.145	0.0170555
830.223	0.0168523
830.301	0.0168707
830.379	0.0171004
830.457	0.0168761
830.535	0.0167677
830.613	0.0168160
830.692	0.0168008
830.770	0.0166509
830.848	0.0167751
830.926	0.0166765
831.004	0.0166235
831.082	0.0165816
831.160	0.0165330
831.238	0.0164015
831.317	0.0164548
831.395	0.0163967
831.473	0.0163720
831.551	0.0163995
831.629	0.0162553
831.707	0.0163217
831.785	0.0162823
831.863	0.0162514
831.942	0.0161459
832.020	0.0161966
832.098	0.0161631
832.176	0.0162545
832.254	0.0162902
832.332	0.0162472
832.410	0.0161343
832.488	0.0161604
832.567	0.0161842
832.645	0.0159999
832.723	0.0161514
832.801	0.0161617
832.879	0.0160627
832.957	0.0161295
833.035	0.0161227
833.113	0.0161249
833.192	0.0160033
833.270	0.0161580
833.348	0.0161515
833.426	0.0162316
833.504	0.0161642
833.582	0.0163907
833.660	0.0164622
833.738	0.0163004
833.817	0.0164928
833.895	0.0165630
833.973	0.0166083
834.051	0.0166525
834.129	0.0166316
834.207	0.0168150
834.285	0.0167213
834.363	0.0168023
834.442	0.0168733
834.520	0.0167519
834.598	0.0169236
834.676	0.0169872
834.754	0.0170486
834.832	0.0169335
834.910	0.0169775
834.988	0.0169257
835.067	0.0170757
835.145	0.0170452
835.223	0.0167938
835.301	0.0170053
835.379	0.0168922
835.457	0.0168623
835.535	0.0167239
835.613	0.0168427
835.692	0.0166770
835.770	0.0168472
835.848	0.0167648
835.926	0.0165572
836.004	0.0165751
836.082	0.0166695
836.160	0.0166370
836.238	0.0165591
836.317	0.0165194
836.395	0.0165604
836.473	0.0163902
836.551	0.0163808
836.629	0.0163937
836.707	0.0163776
836.785	0.0163930
836.863	0.0164133
836.942	0.0163095
837.020	0.0163187
837.098	0.0163154
837.176	0.0162366
837.254	0.0162705
837.332	0.0164358
837.410	0.0162961
837.488	0.0161305
837.567	0.0164175
837.645	0.0163562
837.723	0.0161658
837.801	0.0160896
837.879	0.0162143
837.957	0.0162205
838.035	0.0161959
838.113	0.0162146
838.192	0.0162053
838.270	0.0162149
838.348	0.0160609
838.426	0.0160520
838.504	0.0162883
838.582	0.0162831
838.660	0.0161150
838.738	0.0161813
838.817	0.0163366
838.895	0.0163660
838.973	0.0163437
839.051	0.0165042
839.129	0.0165518
839.207	0.0165302
839.285	0.0165606
839.363	0.0166596
839.442	0.0165882
839.520	0.0165437
839.598	0.0165910
839.676	0.0167537
839.754	0.0169143
839.832	0.0167724
839.910	0.0168121
839.988	0.0168678
840.067	0.0168103
840.145	0.0167628
840.223	0.0168322
840.301	0.0168249
840.379	0.0168526
840.457	0.0168211
840.535	0.0169701
840.613	0.0167755
840.692	0.0167097
840.770	0.0168658
840.848	0.0168165
840.926	0.0167031
841.004	0.0167455
841.082	0.0167352
841.160	0.0166467
841.238	0.0166218
841.317	0.0166359
841.395	0.0167986
841.473	0.0165842
841.551	0.0165225
841.629	0.0164194
841.707	0.0164449
841.785	0.0165002
841.863	0.0163715
841.942	0.0163972
842.020	0.0162872
842.098	0.0163211
842.176	0.0161542
842.254	0.0161125
842.332	0.0160561
842.410	0.0161973
842.488	0.0161053
842.567	0.0161572
842.645	0.0161671
842.723	0.0162275
842.801	0.0160606
842.879	0.0162080
842.957	0.0161709
843.035	0.0160479
843.113	0.0162220
843.192	0.0160266
843.270	0.0161192
843.348	0.0162083
843.426	0.0161511
843.504	0.0161539
843.582	0.0161346
843.660	0.0161832
843.738	0.0161343
843.817	0.0164008
843.895	0.0162762
843.973	0.0162395
844.051	0.0162384
844.129	0.0162194
844.207	0.0162616
844.285	0.0163475
844.363	0.0163533
844.442	0.0163521
844.520	0.0164791
844.598	0.0165203
844.676	0.0164091
844.754	0.0164577
844.832	0.0164648
844.910	0.0167371
844.988	0.0167320
845.067	0.0168568
845.145	0.0168023
845.223	0.0168286
845.301	0.0168862
845.379	0.0169044
845.457	0.0167900
845.535	0.0168925
845.613	0.0169799
845.692	0.0168977
845.770	0.0168986
845.848	0.0168575
845.926	0.0169012
846.004	0.0168854
846.082	0.0169852
846.160	0.0169527
846.238	0.0168937
846.317	0.0168771
846.395	0.0168556
846.473	0.0166727
846.551	0.0166222
846.629	0.0167783
846.707	0.0166815
846.785	0.0166407
846.863	0.0165796
846.942	0.0165102
847.020	0.0163750
847.098	0.0164843
847.176	0.0166241
847.254	0.0164677
847.332	0.0164125
847.410	0.0164015
847.488	0.0164503
847.567	0.0164471
847.645	0.0162769
847.723	0.0163821
847.801	0.0163829
847.879	0.0163746
847.957	0.0163411
848.035	0.0164987
848.113	0.0164845
848.192	0.0161718
848.270	0.0163541
848.348	0.0163045
848.426	0.0162853
848.504	0.0161643
848.582	0.0162359
848.660	0.0162920
848.738	0.0161256
848.817	0.0160153
848.895	0.0161430
848.973	0.0160757
849.051	0.0160809
849.129	0.0160108
849.207	0.0161137
849.285	0.0160401
849.363	0.0160082
849.442	0.0161179
849.520	0.0161126
849.598	0.0162112
849.676	0.0162696
849.754	0.0161940
849.832	0.0162627
849.910	0.0164127
849.988	0.0165065
850.067	0.0164958
850.145	0.0164252
850.223	0.0164938
850.301	0.0165127
850.379	0.0166203
850.457	0.0165680
850.535	0.0166425
850.613	0.0167359
850.692	0.0167741
850.770	0.0167644
850.848	0.0168333
850.926	0.0168386
851.004	0.0169281
851.082	0.0167927
851.160	0.0168900
851.238	0.0169767
851.317	0.0169701
851.395	0.0168539
851.473	0.0168960
851.551	0.0169665
851.629	0.0168503
851.707	0.0167939
851.785	0.0168671
851.863	0.0169772
851.942	0.0167613
852.020	0.0166738
852.098	0.0166999
852.176	0.0166853
852.254	0.0166381
852.332	0.0167390
852.410	0.0166690
852.488	0.0166496
852.567	0.0167305
852.645	0.0166189
852.723	0.0167131
852.801	0.0166538
852.879	0.0166985
852.957	0.0166170
853.035	0.0166230
853.113	0.0165423
853.192	0.0165005
853.270	0.0166345
853.348	0.0164423
853.426	0.0164778
853.504	0.0165396
853.582	0.0164936
853.660	0.0164581
853.738	0.0163120
853.817	0.0163776
853.895	0.0164880
853.973	0.0164632
854.051	0.0164737
854.129	0.0163499
854.207	0.0162301
854.285	0.0163374
854.363	0.0164549
854.442	0.0164088
854.520	0.0163496
854.598	0.0164136
854.676	0.0163529
854.754	0.0163880
854.832	0.0162900
854.910	0.0162897
854.988	0.0162555
855.067	0.0163725
855.145	0.0163328
855.223	0.0163445
855.301	0.0162846
855.379	0.0162685
855.457	0.0163103
855.535	0.0162488
855.613	0.0163019
855.692	0.0163596
855.770	0.0162572
855.848	0.0162451
855.926	0.0161129
856.004	0.0162962
856.082	0.0163489
856.160	0.0163758
856.238	0.0163275
856.317	0.0162704
856.395	0.0164111
856.473	0.0162785
856.551	0.0164086
856.629	0.0163965
856.707	0.0165413
856.785	0.0164528
856.863	0.0165328
856.942	0.0165688
857.020	0.0166310
857.098	0.0167158
857.176	0.0167003
857.254	0.0166244
857.332	0.0166126
857.410	0.0166271
857.488	0.0168072
857.567	0.0168245
857.645	0.0168462
857.723	0.0167302
857.801	0.0168928
857.879	0.0169160
857.957	0.0169585
858.035	0.0168999
858.113	0.0168320
858.192	0.0170746
858.270	0.0169409
858.348	0.0169051
858.426	0.0169347
858.504	0.0171420
858.582	0.0169535
858.660	0.0169283
858.738	0.0169817
858.817	0.0170020
858.895	0.0169065
858.973	0.0169067
859.051	0.0169346
859.129	0.0167365
859.207	0.0166853
859.285	0.0168036
859.363	0.0167249
859.442	0.0166647
859.520	0.0165760
859.598	0.0165889
859.676	0.0164280
859.754	0.0164494
859.832	0.0163111
859.910	0.0164530
859.988	0.0162836
860.067	0.0160366
860.145	0.0160046
860.223	0.0160152
860.301	0.0160027
860.379	0.0157864
860.457	0.0157986
860.535	0.0157421
860.613	0.0159114
860.692	0.0158982
860.770	0.0157330
860.848	0.0158669
860.926	0.0157642
861.004	0.0159077
861.082	0.0158791
861.160	0.0160927
861.238	0.0160491
861.317	0.0160802
861.395	0.0161848
861.473	0.0161812
861.551	0.0162629
861.629	0.0163352
861.707	0.0164751
861.785	0.0165695
861.863	0.0167139
861.942	0.0168020
862.020	0.0168378
862.098	0.0168092
862.176	0.0168447
862.254	0.0170181
862.332	0.0169572
862.410	0.0169583
862.488	0.0171548
862.567	0.0170177
862.645	0.0170129
862.723	0.0169398
862.801	0.0169370
862.879	0.0171625
862.957	0.0169653
863.035	0.0169707
863.113	0.0168845
863.192	0.0169106
863.270	0.0168358
863.348	0.0167630
863.426	0.0166743
863.504	0.0167694
863.582	0.0166123
863.660	0.0165962
863.738	0.0166125
863.817	0.0164987
863.895	0.0165409
863.973	0.0164993
864.051	0.0163938
864.129	0.0163580
864.207	0.0163181
864.285	0.0162897
864.363	0.0163474
864.442	0.0162765
864.520	0.0162361
864.598	0.0163216
864.676	0.0163150
864.754	0.0163425
864.832	0.0162462
864.910	0.0163763
864.988	0.0163638
865.067	0.0162672
865.145	0.0164767
865.223	0.0163239
865.301	0.0163194
865.379	0.0164182
865.457	0.0163794
865.535	0.0161832
865.613	0.0163084
865.692	0.0163514
865.770	0.0162003
865.848	0.0163165
865.926	0.0161504
866.004	0.0161556
866.082	0.0162179
866.160	0.0162565
866.238	0.0161903
866.317	0.0163139
866.395	0.0164029
866.473	0.0164519
866.551	0.0164406
866.629	0.0164602
866.707	0.0166582
866.785	0.0166483
866.863	0.0166376
866.942	0.0167088
867.020	0.0167984
867.098	0.0167735
867.176	0.0167651
867.254	0.0169256
867.332	0.0167390
867.410	0.0167971
867.488	0.0167612
867.567	0.0167632
867.645	0.0168346
867.723	0.0167839
867.801	0.0169003
867.879	0.0169719
867.957	0.0167760
868.035	0.0167324
868.113	0.0167610
868.192	0.0168127
868.270	0.0167216
868.348	0.0166729
868.426	0.0166466
868.504	0.0165118
868.582	0.0165758
868.660	0.0164223
868.738	0.0163102
868.817	0.0161796
868.895	0.0162341
868.973	0.0160928
869.051	0.0161923
869.129	0.0163512
869.207	0.0164833
869.285	0.0163269
869.363	0.0163313
869.442	0.0165253
869.520	0.0165823
869.598	0.0165001
869.676	0.0166294
869.754	0.0165353
869.832	0.0166379
869.910	0.0167519
869.988	0.0167970
870.067	0.0166730
870.145	0.0166724
870.223	0.0166046
870.301	0.0164996
870.379	0.0165732
870.457	0.0165098
870.535	0.0165440
870.613	0.0164285
870.692	0.0164430
870.770	0.0165503
870.848	0.0165273
870.926	0.0165589
871.004	0.0164977
871.082	0.0165469
871.160	0.0164580
871.238	0.0164823
871.317	0.0164670
871.395	0.0164686
871.473	0.0164962
871.551	0.0165627
871.629	0.0163625
871.707	0.0163181
871.785	0.0163431
871.863	0.0164281
871.942	0.0163564
872.020	0.0163941
872.098	0.0165164
872.176	0.0165756
872.254	0.0164986
872.332	0.0164315
872.410	0.0164480
872.488	0.0164621
872.567	0.0165224
872.645	0.0166169
872.723	0.0167439
872.801	0.0166196
872.879	0.0167471
872.957	0.0165555
873.035	0.0167104
873.113	0.0166676
873.192	0.0165528
873.270	0.0167462
873.348	0.0167606
873.426	0.0166206
873.504	0.0166788
873.582	0.0167872
873.660	0.0166830
873.738	0.0166692
873.817	0.0166007
873.895	0.0167323
873.973	0.0166814
874.051	0.0167075
874.129	0.0166048
874.207	0.0165335
874.285	0.0167068
874.363	0.0165247
874.442	0.0165208
874.520	0.0166004
874.598	0.0164078
874.676	0.0166434
874.754	0.0166369
874.832	0.0165638
874.910	0.0166335
874.988	0.0165383
875.067	0.0166066
875.145	0.0165889
875.223	0.0166146
875.301	0.0166023
875.379	0.0166202
875.457	0.0166679
875.535	0.0166051
875.613	0.0167292
875.692	0.0165797
875.770	0.0166982
875.848	0.0167561
875.926	0.0167392
876.004	0.0167293
876.082	0.0167435
876.160	0.0167412
876.238	0.0166752
876.317	0.0165878
876.395	0.0167457
876.473	0.0165270
876.551	0.0164223
876.629	0.0165282
876.707	0.0162619
876.785	0.0163306
876.863	0.0162966
876.942	0.0160735
877.020	0.0160036
877.098	0.0159694
877.176	0.0160720
877.254	0.0160009
877.332	0.0160419
877.410	0.0160515
877.488	0.0160947
877.567	0.0161002
877.645	0.0162054
877.723	0.0163071
877.801	0.0163009
877.879	0.0164370
877.957	0.0164342
878.035	0.0165064
878.113	0.0164424
878.192	0.0166901
878.270	0.0167379
878.348	0.0168848
878.426	0.0169291
878.504	0.0169559
878.582	0.0170625
878.660	0.0170232
878.738	0.0170633
878.817	0.0169089
878.895	0.0168289
878.973	0.0170134
879.051	0.0168909
879.129	0.0170586
879.207	0.0167794
879.285	0.0167268
879.363	0.0167389
879.442	0.0166603
879.520	0.0165617
879.598	0.0165570
879.676	0.0163094
879.754	0.0163913
879.832	0.0161945
879.910	0.0163406
879.988	0.0162930
880.067	0.0162006
880.145	0.0161292
880.223	0.0161827
880.301	0.0161800
880.379	0.0162768
880.457	0.0161373
880.535	0.0161543
880.613	0.0162483
880.692	0.0161937
880.770	0.0161494
880.848	0.0161530
880.926	0.0162107
881.004	0.0162019
881.082	0.0163683
881.160	0.0163820
881.238	0.0163030
881.317	0.0164692
881.395	0.0165063
881.473	0.0165984
881.551	0.0165926
881.629	0.0165666
881.707	0.0164755
881.785	0.0165969
881.863	0.0165673
881.942	0.0162864
882.020	0.0164497
882.098	0.0162875
882.176	0.0161195
882.254	0.0164090
882.332	0.0163811
882.410	0.0163753
882.488	0.0164522
882.567	0.0165055
882.645	0.0165826
882.723	0.0169127
882.801	0.0169884
882.879	0.0171033
882.957	0.0172203
883.035	0.0172524
883.113	0.0174469
883.192	0.0176479
883.270	0.0176727
883.348	0.0176035
883.426	0.0177719
883.504	0.0173860
883.582	0.0174795
883.660	0.0171758
883.738	0.0171326
883.817	0.0169109
883.895	0.0167702
883.973	0.0165555
884.051	0.0164038
884.129	0.0162887
884.207	0.0161426
884.285	0.0157803
884.363	0.0157808
884.442	0.0156101
884.520	0.0155486
884.598	0.0154723
884.676	0.0152378
884.754	0.0151968
884.832	0.0152431
884.910	0.0152438
884.988	0.0153117
885.067	0.0155165
885.145	0.0154974
885.223	0.0156701
885.301	0.0157307
885.379	0.0159582
885.457	0.0160063
885.535	0.0162452
885.613	0.0164384
885.692	0.0166020
885.770	0.0166549
885.848	0.0168925
885.926	0.0169920
886.004	0.0170033
886.082	0.0170472
886.160	0.0171278
886.238	0.0171307
886.317	0.0170299
886.395	0.0171046
886.473	0.0170509
886.551	0.0171139
886.629	0.0171437
886.707	0.0169936
886.785	0.0168846
886.863	0.0169247
886.942	0.0169218
887.020	0.0166395
887.098	0.0166553
887.176	0.0168200
887.254	0.0166892
887.332	0.0165710
887.410	0.0165204
887.488	0.0163839
887.567	0.0164849
887.645	0.0162237
887.723	0.0163829
887.801	0.0164781
887.879	0.0164069
887.957	0.0164545
888.035	0.0166147
888.113	0.0167151
888.192	0.0168871
888.270	0.0169798
888.348	0.0168761
888.426	0.0170437
888.504	0.0168190
888.582	0.0170193
888.660	0.0167461
888.738	0.0167059
888.817	0.0165704
888.895	0.0165293
888.973	0.0162723
889.051	0.0161572
889.129	0.0160883
889.207	0.0159512
889.285	0.0159324
889.363	0.0159365
889.442	0.0159181
889.520	0.0158787
889.598	0.0160607
889.676	0.0160807
889.754	0.0159884
889.832	0.0159477
889.910	0.0161349
889.988	0.0161385
890.067	0.0162563
890.145	0.0161578
890.223	0.0162006
890.301	0.0163477
890.379	0.0163263
890.457	0.0163770
890.535	0.0164545
890.613	0.0166243
890.692	0.0166346
890.770	0.0166668
890.848	0.0167673
890.926	0.0167010
891.004	0.0168207
891.082	0.0167913
891.160	0.0169094
891.238	0.0166638
891.317	0.0167800
891.395	0.0168664
891.473	0.0166830
891.551	0.0166418
891.629	0.0166599
891.707	0.0166722
891.785	0.0164409
891.863	0.0165132
891.942	0.0164664
892.020	0.0164423
892.098	0.0163843
892.176	0.0162712
892.254	0.0163966
892.332	0.0163050
892.410	0.0162591
892.488	0.0163091
892.567	0.0162968
892.645	0.0162437
892.723	0.0162380
892.801	0.0164129
892.879	0.0164558
892.957	0.0164146
893.035	0.0164281
893.113	0.0164854
893.192	0.0165917
893.270	0.0166888
893.348	0.0169289
893.426	0.0167667
893.504	0.0168232
893.582	0.0169649
893.660	0.0170218
893.738	0.0170074
893.817	0.0168867
893.895	0.0168202
893.973	0.0168388
894.051	0.0168881
894.129	0.0168141
894.207	0.0166455
894.285	0.0165360
894.363	0.0165613
894.442	0.0164909
894.520	0.0164890
894.598	0.0163908
894.676	0.0164196
894.754	0.0162556
894.832	0.0163105
894.910	0.0162869
894.988	0.0162118
895.067	0.0163488
895.145	0.0162111
895.223	0.0162278
895.301	0.0163088
895.379	0.0162025
895.457	0.0163905
895.535	0.0163055
895.613	0.0164843
895.692	0.0163615
895.770	0.0163258
895.848	0.0164191
895.926	0.0164507
896.004	0.0163869
896.082	0.0163427
896.160	0.0163474
896.238	0.0162653
896.317	0.0163773
896.395	0.0164063
896.473	0.0163337
896.551	0.0164229
896.629	0.0164728
896.707	0.0165194
896.785	0.0166521
896.863	0.0166898
896.942	0.0166445
897.020	0.0165954
897.098	0.0166145
897.176	0.0166705
897.254	0.0167191
897.332	0.0168523
897.410	0.0168199
897.488	0.0168148
897.567	0.0168396
897.645	0.0166966
897.723	0.0166024
897.801	0.0166007
897.879	0.0167516
897.957	0.0167548
898.035	0.0166405
898.113	0.0166695
898.192	0.0165575
898.270	0.0165767
898.348	0.0166171
898.426	0.0166509
898.504	0.0165434
898.582	0.0166380
898.660	0.0168145
898.738	0.0166161
898.817	0.0168128
898.895	0.0168443
898.973	0.0167559
899.051	0.0167783
899.129	0.0166286
899.207	0.0166779
899.285	0.0165633
899.363	0.0166418
899.442	0.0164098
899.520	0.0164308
899.598	0.0164327
899.676	0.0164520
899.754	0.0161876
899.832	0.0161909
899.910	0.0162008
899.988	0.0160145
900.067	0.0161658
900.145	0.0161283
900.223	0.0160535
900.301	0.0160745
900.379	0.0161794
900.457	0.0161777
900.535	0.0160425
900.613	0.0161380
900.692	0.0162997
900.770	0.0163205
900.848	0.0162461
900.926	0.0163007
901.004	0.0164602
901.082	0.0165125
901.160	0.0165613
901.238	0.0166064
901.317	0.0165813
901.395	0.0165559
901.473	0.0165315
901.551	0.0167157
901.629	0.0166904
901.707	0.0167571
901.785	0.0167825
901.863	0.0168336
901.942	0.0167673
902.020	0.0166676
902.098	0.0168036
902.176	0.0169667
902.254	0.0169922
902.332	0.0169044
902.410	0.0167196
902.488	0.0169128
902.567	0.0167085
902.645	0.0167339
902.723	0.0165762
902.801	0.0167111
902.879	0.0167352
902.957	0.0164789
903.035	0.0167181
903.113	0.0165586
903.192	0.0164038
903.270	0.0164314
903.348	0.0163943
903.426	0.0164970
903.504	0.0164429
903.582	0.0164663
903.660	0.0164711
903.738	0.0165147
903.817	0.0163957
903.895	0.0164870
903.973	0.0165301
904.051	0.0165289
904.129	0.0165105
904.207	0.0164219
904.285	0.0164925
904.363	0.0165135
904.442	0.0163966
904.520	0.0164147
904.598	0.0164094
904.676	0.0165296
904.754	0.0165907
904.832	0.0163368
904.910	0.0162269
904.988	0.0164393
905.067	0.0161913
905.145	0.0161899
905.223	0.0162363
905.301	0.0162271
905.379	0.0161737
905.457	0.0161845
905.535	0.0161696
905.613	0.0160208
905.692	0.0161813
905.770	0.0161645
905.848	0.0161518
905.926	0.0161094
906.004	0.0161666
906.082	0.0160774
906.160	0.0163071
906.238	0.0163396
906.317	0.0163400
906.395	0.0165410
906.473	0.0165636
906.551	0.0166760
906.629	0.0167802
906.707	0.0167957
906.785	0.0168596
906.863	0.0170439
906.942	0.0169894
907.020	0.0169208
907.098	0.0170244
907.176	0.0170185
907.254	0.0169612
907.332	0.0168808
907.410	0.0167862
907.488	0.0168572
907.567	0.0167776
907.645	0.0166674
907.723	0.0165222
907.801	0.0163833
907.879	0.0163239
907.957	0.0161713
908.035	0.0160343
908.113	0.0159341
908.192	0.0159898
908.270	0.0159129
908.348	0.0160669
908.426	0.0158735
908.504	0.0159747
908.582	0.0161604
908.660	0.0161482
908.738	0.0162176
908.817	0.0160896
908.895	0.0163571
908.973	0.0164375
909.051	0.0165001
909.129	0.0164448
909.207	0.0166897
909.285	0.0167972
909.363	0.0168295
909.442	0.0168949
909.520	0.0170373
909.598	0.0169553
909.676	0.0169704
909.754	0.0169810
909.832	0.0169975
909.910	0.0169692
909.988	0.0169202
910.067	0.0168073
910.145	0.0168951
910.223	0.0168396
910.301	0.0168404
910.379	0.0165836
910.457	0.0163833
910.535	0.0165293
910.613	0.0164891
910.692	0.0163567
910.770	0.0162722
910.848	0.0162685
910.926	0.0161392
911.004	0.0160094
911.082	0.0159721
911.160	0.0159184
911.238	0.0156928
911.317	0.0160708
911.395	0.0159320
911.473	0.0158674
911.551	0.0161319
911.629	0.0160951
911.707	0.0162234
911.785	0.0160870
911.863	0.0162639
911.942	0.0163905
912.020	0.0165056
912.098	0.0166796
912.176	0.0166425
912.254	0.0164664
912.332	0.0166209
912.410	0.0167573
912.488	0.0167893
912.567	0.0166504
912.645	0.0166498
912.723	0.0167597
912.801	0.0166833
912.879	0.0166304
912.957	0.0164914
913.035	0.0164932
913.113	0.0163658
913.192	0.0164842
913.270	0.0163550
913.348	0.0165367
913.426	0.0164349
913.504	0.0163570
913.582	0.0163618
913.660	0.0163244
913.738	0.0163409
913.817	0.0164842
913.895	0.0164615
913.973	0.0164944
914.051	0.0166533
914.129	0.0165131
914.207	0.0167598
914.285	0.0168185
914.363	0.0169328
914.442	0.0167862
914.520	0.0168948
914.598	0.0169563
914.676	0.0170055
914.754	0.0170474
914.832	0.0170897
914.910	0.0169659
914.988	0.0169605
915.067	0.0169714
915.145	0.0168252
915.223	0.0168952
915.301	0.0168238
915.379	0.0167352
915.457	0.0166959
915.535	0.0163770
915.613	0.0164816
915.692	0.0163864
915.770	0.0162814
915.848	0.0162008
915.926	0.0161121
916.004	0.0161363
916.082	0.0160795
916.160	0.0160582
916.238	0.0160345
916.317	0.0159679
916.395	0.0159822
916.473	0.0160497
916.551	0.0157908
916.629	0.0160334
916.707	0.0161984
916.785	0.0160824
916.863	0.0162039
916.942	0.0163078
917.020	0.0163939
917.098	0.0164201
917.176	0.0165546
917.254	0.0165850
917.332	0.0165482
917.410	0.0167871
917.488	0.0167732
917.567	0.0167863
917.645	0.0167384
917.723	0.0166840
917.801	0.0167811
917.879	0.0166601
917.957	0.0166240
918.035	0.0166554
918.113	0.0163928
918.192	0.0164551
918.270	0.0164781
918.348	0.0163857
918.426	0.0163273
918.504	0.0162762
918.582	0.0163339
918.660	0.0162689
918.738	0.0163155
918.817	0.0161667
918.895	0.0164116
918.973	0.0163853
919.051	0.0164107
919.129	0.0163355
919.207	0.0164363
919.285	0.0165089
919.363	0.0166447
919.442	0.0166576
919.520	0.0165655
919.598	0.0165714
919.676	0.0167513
919.754	0.0166898
919.832	0.0167449
919.910	0.0167455
