05/24/2022	20:18:04	Ver.	4.1	UNKNOWN
Optical Delay	599.988409	Delta X		0.078125	Sweeps	1	Scan Rate	0/0
Coordinates	Axis 1	NaN	Axis 2	NaN	Axis 3	NaN	Axis 4	NaN	Axis 5	NaN	Axis 6	0.000000
TX Power	0.000000	RX Power	0.000000

599.988	0.0167912
600.067	0.0166993
600.145	0.0167185
600.223	0.0168382
600.301	0.0169128
600.379	0.0166908
600.457	0.0168149
600.535	0.0168943
600.613	0.0166870
600.692	0.0169121
600.770	0.0168217
600.848	0.0167251
600.926	0.0168412
601.004	0.0169466
601.082	0.0167488
601.160	0.0168412
601.238	0.0167312
601.317	0.0167744
601.395	0.0168545
601.473	0.0168519
601.551	0.0167600
601.629	0.0167871
601.707	0.0168279
601.785	0.0168051
601.863	0.0168000
601.942	0.0168110
602.020	0.0167397
602.098	0.0167257
602.176	0.0167232
602.254	0.0168138
602.332	0.0168560
602.410	0.0169055
602.488	0.0167670
602.567	0.0167649
602.645	0.0168272
602.723	0.0167920
602.801	0.0167494
602.879	0.0169164
602.957	0.0168488
603.035	0.0167184
603.113	0.0168405
603.192	0.0167274
603.270	0.0166220
603.348	0.0167726
603.426	0.0167150
603.504	0.0167081
603.582	0.0168326
603.660	0.0168754
603.738	0.0166957
603.817	0.0169069
603.895	0.0167487
603.973	0.0166889
604.051	0.0168012
604.129	0.0166741
604.207	0.0168312
604.285	0.0168194
604.363	0.0169290
604.442	0.0168700
604.520	0.0167373
604.598	0.0166994
604.676	0.0168293
604.754	0.0168398
604.832	0.0168974
604.910	0.0169691
604.988	0.0168192
605.067	0.0167287
605.145	0.0166737
605.223	0.0168578
605.301	0.0167295
605.379	0.0167535
605.457	0.0168774
605.535	0.0168274
605.613	0.0167755
605.692	0.0167422
605.770	0.0167166
605.848	0.0167949
605.926	0.0167147
606.004	0.0167075
606.082	0.0168290
606.160	0.0168958
606.238	0.0167831
606.317	0.0167131
606.395	0.0168344
606.473	0.0167191
606.551	0.0166235
606.629	0.0167962
606.707	0.0169624
606.785	0.0168343
606.863	0.0166042
606.942	0.0165919
607.020	0.0167208
607.098	0.0167769
607.176	0.0168760
607.254	0.0168789
607.332	0.0166949
607.410	0.0166830
607.488	0.0165658
607.567	0.0166231
607.645	0.0167139
607.723	0.0169115
607.801	0.0167080
607.879	0.0168256
607.957	0.0166740
608.035	0.0167257
608.113	0.0167529
608.192	0.0167216
608.270	0.0168645
608.348	0.0167065
608.426	0.0167252
608.504	0.0168895
608.582	0.0167510
608.660	0.0169167
608.738	0.0165902
608.817	0.0167229
608.895	0.0167744
608.973	0.0167737
609.051	0.0166459
609.129	0.0167453
609.207	0.0167979
609.285	0.0167175
609.363	0.0166106
609.442	0.0167767
609.520	0.0166901
609.598	0.0167754
609.676	0.0168203
609.754	0.0167242
609.832	0.0167576
609.910	0.0168349
609.988	0.0168205
610.067	0.0167823
610.145	0.0167031
610.223	0.0166840
610.301	0.0167353
610.379	0.0167997
610.457	0.0168092
610.535	0.0168626
610.613	0.0168483
610.692	0.0168497
610.770	0.0167291
610.848	0.0167862
610.926	0.0167947
611.004	0.0168923
611.082	0.0168088
611.160	0.0166665
611.238	0.0168062
611.317	0.0170419
611.395	0.0168559
611.473	0.0169180
611.551	0.0167835
611.629	0.0167464
611.707	0.0166669
611.785	0.0167630
611.863	0.0167629
611.942	0.0166982
612.020	0.0167712
612.098	0.0167423
612.176	0.0167142
612.254	0.0168370
612.332	0.0169138
612.410	0.0168143
612.488	0.0167216
612.567	0.0167092
612.645	0.0168640
612.723	0.0166679
612.801	0.0166033
612.879	0.0167892
612.957	0.0167816
613.035	0.0169070
613.113	0.0168118
613.192	0.0168497
613.270	0.0169186
613.348	0.0167873
613.426	0.0167260
613.504	0.0166189
613.582	0.0167290
613.660	0.0169053
613.738	0.0168272
613.817	0.0166573
613.895	0.0167393
613.973	0.0168033
614.051	0.0167082
614.129	0.0167373
614.207	0.0167999
614.285	0.0168417
614.363	0.0168201
614.442	0.0167835
614.520	0.0168361
614.598	0.0168501
614.676	0.0168826
614.754	0.0167400
614.832	0.0168748
614.910	0.0166840
614.988	0.0167442
615.067	0.0169082
615.145	0.0167749
615.223	0.0166789
615.301	0.0168587
615.379	0.0168342
615.457	0.0169413
615.535	0.0168075
615.613	0.0167834
615.692	0.0169243
615.770	0.0169151
615.848	0.0167396
615.926	0.0166995
616.004	0.0168593
616.082	0.0168013
616.160	0.0168497
616.238	0.0166709
616.317	0.0168201
616.395	0.0168058
616.473	0.0168862
616.551	0.0166763
616.629	0.0167999
616.707	0.0166965
616.785	0.0167486
616.863	0.0168008
616.942	0.0168422
617.020	0.0166831
617.098	0.0167304
617.176	0.0167796
617.254	0.0167505
617.332	0.0166887
617.410	0.0168549
617.488	0.0166484
617.567	0.0167487
617.645	0.0168038
617.723	0.0167519
617.801	0.0167451
617.879	0.0167905
617.957	0.0168053
618.035	0.0168320
618.113	0.0166321
618.192	0.0167236
618.270	0.0168655
618.348	0.0166409
618.426	0.0166881
618.504	0.0168056
618.582	0.0168151
618.660	0.0168439
618.738	0.0168228
618.817	0.0166332
618.895	0.0168025
618.973	0.0168246
619.051	0.0167734
619.129	0.0168954
619.207	0.0167826
619.285	0.0168549
619.363	0.0169044
619.442	0.0168919
619.520	0.0167241
619.598	0.0167509
619.676	0.0168684
619.754	0.0168512
619.832	0.0165972
619.910	0.0166903
619.988	0.0168336
620.067	0.0168787
620.145	0.0168481
620.223	0.0166023
620.301	0.0167755
620.379	0.0168268
620.457	0.0167567
620.535	0.0167319
620.613	0.0167836
620.692	0.0168218
620.770	0.0168246
620.848	0.0168117
620.926	0.0167530
621.004	0.0166527
621.082	0.0168303
621.160	0.0168295
621.238	0.0168759
621.317	0.0166600
621.395	0.0168121
621.473	0.0168681
621.551	0.0170334
621.629	0.0168786
621.707	0.0168014
621.785	0.0168135
621.863	0.0168236
621.942	0.0168278
622.020	0.0166632
622.098	0.0168099
622.176	0.0168318
622.254	0.0167197
622.332	0.0168792
622.410	0.0167883
622.488	0.0167047
622.567	0.0167905
622.645	0.0166753
622.723	0.0167570
622.801	0.0168418
622.879	0.0168741
622.957	0.0167378
623.035	0.0166980
623.113	0.0167588
623.192	0.0167398
623.270	0.0168405
623.348	0.0168280
623.426	0.0167197
623.504	0.0167373
623.582	0.0167345
623.660	0.0167223
623.738	0.0166914
623.817	0.0167628
623.895	0.0167435
623.973	0.0168290
624.051	0.0167287
624.129	0.0167627
624.207	0.0166998
624.285	0.0166376
624.363	0.0168429
624.442	0.0167858
624.520	0.0166774
624.598	0.0167010
624.676	0.0166943
624.754	0.0168137
624.832	0.0167768
624.910	0.0168634
624.988	0.0168507
625.067	0.0167989
625.145	0.0167130
625.223	0.0168305
625.301	0.0167296
625.379	0.0168523
625.457	0.0168176
625.535	0.0168383
625.613	0.0167834
625.692	0.0166752
625.770	0.0167800
625.848	0.0169386
625.926	0.0167192
626.004	0.0168520
626.082	0.0167706
626.160	0.0169532
626.238	0.0169523
626.317	0.0168663
626.395	0.0167123
626.473	0.0170078
626.551	0.0168162
626.629	0.0168361
626.707	0.0168586
626.785	0.0167948
626.863	0.0167915
626.942	0.0168382
627.020	0.0169301
627.098	0.0168941
627.176	0.0170015
627.254	0.0168510
627.332	0.0167872
627.410	0.0168434
627.488	0.0167265
627.567	0.0167972
627.645	0.0168301
627.723	0.0169128
627.801	0.0168552
627.879	0.0166910
627.957	0.0167097
628.035	0.0169403
628.113	0.0167822
628.192	0.0167271
628.270	0.0167931
628.348	0.0168754
628.426	0.0167345
628.504	0.0166344
628.582	0.0168665
628.660	0.0168562
628.738	0.0166773
628.817	0.0167719
628.895	0.0168887
628.973	0.0168181
629.051	0.0167077
629.129	0.0166595
629.207	0.0168305
629.285	0.0168180
629.363	0.0166512
629.442	0.0167264
629.520	0.0169532
629.598	0.0168201
629.676	0.0168339
629.754	0.0168070
629.832	0.0166682
629.910	0.0167522
629.988	0.0167831
630.067	0.0167035
630.145	0.0166547
630.223	0.0167216
630.301	0.0167797
630.379	0.0168021
630.457	0.0167938
630.535	0.0166309
630.613	0.0166607
630.692	0.0168362
630.770	0.0167406
630.848	0.0167995
630.926	0.0167715
631.004	0.0167799
631.082	0.0169177
631.160	0.0167500
631.238	0.0167715
631.317	0.0168484
631.395	0.0167957
631.473	0.0167298
631.551	0.0168226
631.629	0.0168362
631.707	0.0167818
631.785	0.0165976
631.863	0.0168540
631.942	0.0167810
632.020	0.0167037
632.098	0.0167971
632.176	0.0168145
632.254	0.0168174
632.332	0.0169223
632.410	0.0167727
632.488	0.0168581
632.567	0.0168233
632.645	0.0168070
632.723	0.0169028
632.801	0.0168993
632.879	0.0167030
632.957	0.0168259
633.035	0.0167786
633.113	0.0167634
633.192	0.0167155
633.270	0.0168425
633.348	0.0169410
633.426	0.0167014
633.504	0.0168117
633.582	0.0169541
633.660	0.0168121
633.738	0.0167858
633.817	0.0168403
633.895	0.0167578
633.973	0.0168506
634.051	0.0167443
634.129	0.0168630
634.207	0.0167542
634.285	0.0167023
634.363	0.0169013
634.442	0.0167087
634.520	0.0168049
634.598	0.0165845
634.676	0.0167154
634.754	0.0168214
634.832	0.0168798
634.910	0.0167006
634.988	0.0165942
635.067	0.0168331
635.145	0.0167877
635.223	0.0167822
635.301	0.0167471
635.379	0.0166598
635.457	0.0167449
635.535	0.0167499
635.613	0.0168273
635.692	0.0168765
635.770	0.0168246
635.848	0.0167896
635.926	0.0168623
636.004	0.0167626
636.082	0.0168801
636.160	0.0166735
636.238	0.0167496
636.317	0.0168201
636.395	0.0168359
636.473	0.0166692
636.551	0.0167854
636.629	0.0168707
636.707	0.0167749
636.785	0.0167162
636.863	0.0168192
636.942	0.0167910
637.020	0.0167281
637.098	0.0169502
637.176	0.0168758
637.254	0.0169494
637.332	0.0166940
637.410	0.0167321
637.488	0.0167165
637.567	0.0168379
637.645	0.0168597
637.723	0.0169154
637.801	0.0169214
637.879	0.0167508
637.957	0.0168198
638.035	0.0167661
638.113	0.0168341
638.192	0.0168160
638.270	0.0168552
638.348	0.0167557
638.426	0.0168173
638.504	0.0168747
638.582	0.0168737
638.660	0.0169818
638.738	0.0168929
638.817	0.0168102
638.895	0.0168804
638.973	0.0167700
639.051	0.0167700
639.129	0.0168724
639.207	0.0168219
639.285	0.0167640
639.363	0.0168436
639.442	0.0169392
639.520	0.0170536
639.598	0.0168160
639.676	0.0167652
639.754	0.0167146
639.832	0.0168721
639.910	0.0168419
639.988	0.0168768
640.067	0.0167389
640.145	0.0168604
640.223	0.0169642
640.301	0.0168369
640.379	0.0167875
640.457	0.0168223
640.535	0.0168746
640.613	0.0166702
640.692	0.0168520
640.770	0.0168069
640.848	0.0169544
640.926	0.0168027
641.004	0.0167811
641.082	0.0166537
641.160	0.0167092
641.238	0.0168451
641.317	0.0166515
641.395	0.0168214
641.473	0.0168180
641.551	0.0167766
641.629	0.0167733
641.707	0.0168263
641.785	0.0168800
641.863	0.0168447
641.942	0.0168691
642.020	0.0167909
642.098	0.0168317
642.176	0.0168829
642.254	0.0168822
642.332	0.0168423
642.410	0.0168901
642.488	0.0168207
642.567	0.0167503
642.645	0.0168122
642.723	0.0167625
642.801	0.0167625
642.879	0.0168088
642.957	0.0167268
643.035	0.0167986
643.113	0.0169359
643.192	0.0167516
643.270	0.0168658
643.348	0.0169118
643.426	0.0167147
643.504	0.0167250
643.582	0.0166920
643.660	0.0166984
643.738	0.0169662
643.817	0.0170100
643.895	0.0169345
643.973	0.0168351
644.051	0.0167640
644.129	0.0168545
644.207	0.0167173
644.285	0.0167823
644.363	0.0167336
644.442	0.0168951
644.520	0.0168205
644.598	0.0167530
644.676	0.0167583
644.754	0.0168511
644.832	0.0168186
644.910	0.0167374
644.988	0.0167023
645.067	0.0167993
645.145	0.0169659
645.223	0.0167194
645.301	0.0169484
645.379	0.0169077
645.457	0.0169076
645.535	0.0169228
645.613	0.0167439
645.692	0.0166557
645.770	0.0169775
645.848	0.0168789
645.926	0.0167332
646.004	0.0167738
646.082	0.0167992
646.160	0.0168884
646.238	0.0168877
646.317	0.0166958
646.395	0.0167378
646.473	0.0168533
646.551	0.0168155
646.629	0.0167346
646.707	0.0166663
646.785	0.0167194
646.863	0.0168483
646.942	0.0168120
647.020	0.0167168
647.098	0.0167323
647.176	0.0167440
647.254	0.0168454
647.332	0.0168871
647.410	0.0168433
647.488	0.0167323
647.567	0.0169136
647.645	0.0168804
647.723	0.0167845
647.801	0.0169005
647.879	0.0169312
647.957	0.0168568
648.035	0.0168039
648.113	0.0168095
648.192	0.0168025
648.270	0.0168085
648.348	0.0167634
648.426	0.0168745
648.504	0.0168526
648.582	0.0167863
648.660	0.0167427
648.738	0.0168691
648.817	0.0168091
648.895	0.0168884
648.973	0.0168946
649.051	0.0167937
649.129	0.0169098
649.207	0.0168475
649.285	0.0168556
649.363	0.0169296
649.442	0.0167742
649.520	0.0166777
649.598	0.0168977
649.676	0.0170135
649.754	0.0168245
649.832	0.0168673
649.910	0.0167799
649.988	0.0167674
650.067	0.0168098
650.145	0.0168383
650.223	0.0168713
650.301	0.0167547
650.379	0.0167817
650.457	0.0169108
650.535	0.0168073
650.613	0.0168267
650.692	0.0167360
650.770	0.0168484
650.848	0.0169113
650.926	0.0169687
651.004	0.0167427
651.082	0.0168362
651.160	0.0166973
651.238	0.0168050
651.317	0.0167146
651.395	0.0166956
651.473	0.0167120
651.551	0.0168245
651.629	0.0167316
651.707	0.0168336
651.785	0.0168372
651.863	0.0167719
651.942	0.0168764
652.020	0.0168901
652.098	0.0168554
652.176	0.0167588
652.254	0.0167622
652.332	0.0168324
652.410	0.0168276
652.488	0.0169123
652.567	0.0168650
652.645	0.0169069
652.723	0.0169144
652.801	0.0168909
652.879	0.0167342
652.957	0.0169630
653.035	0.0168710
653.113	0.0167973
653.192	0.0170225
653.270	0.0168421
653.348	0.0169444
653.426	0.0169846
653.504	0.0170258
653.582	0.0168340
653.660	0.0169179
653.738	0.0169241
653.817	0.0166891
653.895	0.0167870
653.973	0.0169986
654.051	0.0166611
654.129	0.0166211
654.207	0.0166446
654.285	0.0166260
654.363	0.0164694
654.442	0.0166504
654.520	0.0164962
654.598	0.0165375
654.676	0.0165311
654.754	0.0163966
654.832	0.0163721
654.910	0.0163718
654.988	0.0164417
655.067	0.0165383
655.145	0.0166360
655.223	0.0167884
655.301	0.0168111
655.379	0.0169362
655.457	0.0168636
655.535	0.0171250
655.613	0.0170851
655.692	0.0170857
655.770	0.0171707
655.848	0.0172852
655.926	0.0174120
656.004	0.0172741
656.082	0.0173241
656.160	0.0173169
656.238	0.0173764
656.317	0.0175578
656.395	0.0173144
656.473	0.0172956
656.551	0.0171832
656.629	0.0170762
656.707	0.0170866
656.785	0.0169766
656.863	0.0167075
656.942	0.0167374
657.020	0.0165617
657.098	0.0165124
657.176	0.0164259
657.254	0.0164793
657.332	0.0163717
657.410	0.0165097
657.488	0.0163517
657.567	0.0163307
657.645	0.0162399
657.723	0.0162495
657.801	0.0163077
657.879	0.0163149
657.957	0.0163129
658.035	0.0162386
658.113	0.0162582
658.192	0.0164538
658.270	0.0165614
658.348	0.0166714
658.426	0.0167493
658.504	0.0167001
658.582	0.0168635
658.660	0.0168063
658.738	0.0168888
658.817	0.0168660
658.895	0.0169861
658.973	0.0168721
659.051	0.0169107
659.129	0.0168168
659.207	0.0168620
659.285	0.0169370
659.363	0.0168390
659.442	0.0169749
659.520	0.0170342
659.598	0.0170959
659.676	0.0172337
659.754	0.0171919
659.832	0.0172870
659.910	0.0173283
659.988	0.0171905
660.067	0.0172757
660.145	0.0172451
660.223	0.0172691
660.301	0.0172900
660.379	0.0172209
660.457	0.0171828
660.535	0.0170965
660.613	0.0168359
660.692	0.0168574
660.770	0.0166009
660.848	0.0164356
660.926	0.0163656
661.004	0.0162714
661.082	0.0162498
661.160	0.0161122
661.238	0.0162379
661.317	0.0162506
661.395	0.0162847
661.473	0.0164158
661.551	0.0165931
661.629	0.0166520
661.707	0.0165591
661.785	0.0167926
661.863	0.0169018
661.942	0.0169294
662.020	0.0169588
662.098	0.0170057
662.176	0.0169737
662.254	0.0169465
662.332	0.0169051
662.410	0.0168639
662.488	0.0171093
662.567	0.0171139
662.645	0.0171497
662.723	0.0171260
662.801	0.0172910
662.879	0.0172084
662.957	0.0171562
663.035	0.0171290
663.113	0.0170818
663.192	0.0168826
663.270	0.0168736
663.348	0.0167652
663.426	0.0167412
663.504	0.0167013
663.582	0.0165869
663.660	0.0165858
663.738	0.0165811
663.817	0.0163460
663.895	0.0165849
663.973	0.0166196
664.051	0.0166651
664.129	0.0165819
664.207	0.0165247
664.285	0.0166795
664.363	0.0168448
664.442	0.0167093
664.520	0.0166939
664.598	0.0167545
664.676	0.0168277
664.754	0.0166501
664.832	0.0164256
664.910	0.0165205
664.988	0.0164541
665.067	0.0163657
665.145	0.0161312
665.223	0.0162209
665.301	0.0162576
665.379	0.0163963
665.457	0.0163950
665.535	0.0164247
665.613	0.0166447
665.692	0.0166418
665.770	0.0169418
665.848	0.0171770
665.926	0.0171490
666.004	0.0171710
666.082	0.0174158
666.160	0.0176669
666.238	0.0176894
666.317	0.0177529
666.395	0.0178265
666.473	0.0177938
666.551	0.0178846
666.629	0.0177587
666.707	0.0177884
666.785	0.0174948
666.863	0.0173007
666.942	0.0171864
667.020	0.0170348
667.098	0.0168556
667.176	0.0168858
667.254	0.0167763
667.332	0.0166250
667.410	0.0166870
667.488	0.0165568
667.567	0.0164687
667.645	0.0164576
667.723	0.0164399
667.801	0.0165247
667.879	0.0162690
667.957	0.0163792
668.035	0.0163831
668.113	0.0162064
668.192	0.0162303
668.270	0.0162025
668.348	0.0162231
668.426	0.0160405
668.504	0.0161814
668.582	0.0160644
668.660	0.0161381
668.738	0.0161434
668.817	0.0160814
668.895	0.0162909
668.973	0.0161830
669.051	0.0163928
669.129	0.0165224
669.207	0.0166151
669.285	0.0166740
669.363	0.0167254
669.442	0.0166821
669.520	0.0168039
669.598	0.0165961
669.676	0.0167474
669.754	0.0169058
669.832	0.0168017
669.910	0.0169431
669.988	0.0170412
670.067	0.0170931
670.145	0.0173562
670.223	0.0174401
670.301	0.0178018
670.379	0.0178584
670.457	0.0179269
670.535	0.0180737
670.613	0.0182913
670.692	0.0182626
670.770	0.0182773
670.848	0.0182033
670.926	0.0180846
671.004	0.0179978
671.082	0.0179633
671.160	0.0177206
671.238	0.0176640
671.317	0.0175513
671.395	0.0172414
671.473	0.0170755
671.551	0.0168678
671.629	0.0169162
671.707	0.0165961
671.785	0.0164965
671.863	0.0163361
671.942	0.0160107
672.020	0.0159461
672.098	0.0156749
672.176	0.0155887
672.254	0.0153505
672.332	0.0151251
672.410	0.0150476
672.488	0.0149162
672.567	0.0149866
672.645	0.0150626
672.723	0.0151860
672.801	0.0154048
672.879	0.0158156
672.957	0.0162353
673.035	0.0165767
673.113	0.0169870
673.192	0.0172902
673.270	0.0176554
673.348	0.0178680
673.426	0.0179937
673.504	0.0179427
673.582	0.0179645
673.660	0.0179891
673.738	0.0177861
673.817	0.0176727
673.895	0.0174618
673.973	0.0171922
674.051	0.0172972
674.129	0.0170971
674.207	0.0168410
674.285	0.0169206
674.363	0.0169292
674.442	0.0169678
674.520	0.0169633
674.598	0.0167143
674.676	0.0167551
674.754	0.0167263
674.832	0.0167988
674.910	0.0165926
674.988	0.0165637
675.067	0.0164662
675.145	0.0164334
675.223	0.0164558
675.301	0.0164444
675.379	0.0166087
675.457	0.0168073
675.535	0.0170091
675.613	0.0172126
675.692	0.0172342
675.770	0.0174256
675.848	0.0175307
675.926	0.0175732
676.004	0.0175941
676.082	0.0174491
676.160	0.0172353
676.238	0.0172526
676.317	0.0170804
676.395	0.0170081
676.473	0.0167873
676.551	0.0165843
676.629	0.0165673
676.707	0.0163976
676.785	0.0162138
676.863	0.0160621
676.942	0.0160108
677.020	0.0159962
677.098	0.0161074
677.176	0.0160676
677.254	0.0160810
677.332	0.0160529
677.410	0.0161952
677.488	0.0163233
677.567	0.0165221
677.645	0.0165968
677.723	0.0168269
677.801	0.0169727
677.879	0.0170835
677.957	0.0173685
678.035	0.0173441
678.113	0.0173660
678.192	0.0173082
678.270	0.0173820
678.348	0.0172775
678.426	0.0172603
678.504	0.0169444
678.582	0.0167101
678.660	0.0164923
678.738	0.0160728
678.817	0.0157758
678.895	0.0153254
678.973	0.0152360
679.051	0.0152737
679.129	0.0151844
679.207	0.0153635
679.285	0.0154766
679.363	0.0158797
679.442	0.0163547
679.520	0.0168359
679.598	0.0174571
679.676	0.0179932
679.754	0.0183895
679.832	0.0189079
679.910	0.0189874
679.988	0.0189437
680.067	0.0186375
680.145	0.0185028
680.223	0.0182233
680.301	0.0178876
680.379	0.0174820
680.457	0.0171485
680.535	0.0171044
680.613	0.0168111
680.692	0.0168550
680.770	0.0166219
680.848	0.0167529
680.926	0.0169525
681.004	0.0168597
681.082	0.0169307
681.160	0.0168290
681.238	0.0166382
681.317	0.0165350
681.395	0.0163472
681.473	0.0161298
681.551	0.0159750
681.629	0.0158174
681.707	0.0156458
681.785	0.0155450
681.863	0.0155748
681.942	0.0157214
682.020	0.0159225
682.098	0.0160474
682.176	0.0163702
682.254	0.0167155
682.332	0.0170037
682.410	0.0172066
682.488	0.0174732
682.567	0.0176390
682.645	0.0174471
682.723	0.0173106
682.801	0.0170356
682.879	0.0166699
682.957	0.0163861
683.035	0.0159394
683.113	0.0156833
683.192	0.0154100
683.270	0.0150404
683.348	0.0148933
683.426	0.0147039
683.504	0.0149326
683.582	0.0151034
683.660	0.0151305
683.738	0.0154997
683.817	0.0158820
683.895	0.0162794
683.973	0.0167513
684.051	0.0172314
684.129	0.0176744
684.207	0.0181912
684.285	0.0186051
684.363	0.0189293
684.442	0.0190900
684.520	0.0192256
684.598	0.0193558
684.676	0.0191734
684.754	0.0190027
684.832	0.0187030
684.910	0.0183677
684.988	0.0182240
685.067	0.0177781
685.145	0.0175716
685.223	0.0172913
685.301	0.0169330
685.379	0.0167535
685.457	0.0168655
685.535	0.0167822
685.613	0.0168352
685.692	0.0168707
685.770	0.0167749
685.848	0.0169433
685.926	0.0171023
686.004	0.0170427
686.082	0.0170973
686.160	0.0171480
686.238	0.0172517
686.317	0.0172732
686.395	0.0173456
686.473	0.0174851
686.551	0.0175226
686.629	0.0173353
686.707	0.0174214
686.785	0.0174452
686.863	0.0170877
686.942	0.0169634
687.020	0.0167293
687.098	0.0164485
687.176	0.0163713
687.254	0.0157829
687.332	0.0155925
687.410	0.0153683
687.488	0.0150435
687.567	0.0147869
687.645	0.0145780
687.723	0.0143399
687.801	0.0139858
687.879	0.0137028
687.957	0.0133410
688.035	0.0130455
688.113	0.0126330
688.192	0.0120895
688.270	0.0119307
688.348	0.0116656
688.426	0.0116214
688.504	0.0117145
688.582	0.0120822
688.660	0.0126503
688.738	0.0132954
688.817	0.0142318
688.895	0.0153268
688.973	0.0163061
689.051	0.0178308
689.129	0.0188551
689.207	0.0197784
689.285	0.0207897
689.363	0.0216070
689.442	0.0221555
689.520	0.0226722
689.598	0.0231269
689.676	0.0235538
689.754	0.0238982
689.832	0.0242434
689.910	0.0244582
689.988	0.0246535
690.067	0.0248421
690.145	0.0248634
690.223	0.0246124
690.301	0.0242567
690.379	0.0239145
690.457	0.0233706
690.535	0.0222688
690.613	0.0213435
690.692	0.0201055
690.770	0.0187952
690.848	0.0176675
690.926	0.0165289
691.004	0.0152264
691.082	0.0142370
691.160	0.0132854
691.238	0.0126821
691.317	0.0120728
691.395	0.0117471
691.473	0.0112535
691.551	0.0110148
691.629	0.0106071
691.707	0.0101212
691.785	0.00991348
691.863	0.00966095
691.942	0.00965675
692.020	0.00935501
692.098	0.00916016
692.176	0.00939438
692.254	0.00936493
692.332	0.00983673
692.410	0.0104109
692.488	0.0110460
692.567	0.0117718
692.645	0.0125454
692.723	0.0132131
692.801	0.0140202
692.879	0.0148170
692.957	0.0155681
693.035	0.0162075
693.113	0.0165487
693.192	0.0169885
693.270	0.0172758
693.348	0.0175614
693.426	0.0177222
693.504	0.0179008
693.582	0.0180502
693.660	0.0182899
693.738	0.0184346
693.817	0.0187486
693.895	0.0191329
693.973	0.0195463
694.051	0.0199507
694.129	0.0204201
694.207	0.0210029
694.285	0.0216564
694.363	0.0220643
694.442	0.0227966
694.520	0.0233289
694.598	0.0238390
694.676	0.0243623
694.754	0.0247445
694.832	0.0246817
694.910	0.0248353
694.988	0.0246657
695.067	0.0242859
695.145	0.0238808
695.223	0.0231908
695.301	0.0224818
695.379	0.0217953
695.457	0.0209153
695.535	0.0199302
695.613	0.0191600
695.692	0.0182435
695.770	0.0172611
695.848	0.0163507
695.926	0.0153667
696.004	0.0146112
696.082	0.0137476
696.160	0.0127988
696.238	0.0119747
696.317	0.0111310
696.395	0.0104476
696.473	0.00974113
696.551	0.00905266
696.629	0.00877251
696.707	0.00851570
696.785	0.00841217
696.863	0.00853333
696.942	0.00903847
697.020	0.00958260
697.098	0.0104861
697.176	0.0114283
697.254	0.0124194
697.332	0.0134039
697.410	0.0142598
697.488	0.0152663
697.567	0.0159478
697.645	0.0165338
697.723	0.0172134
697.801	0.0175626
697.879	0.0176347
697.957	0.0177805
698.035	0.0177641
698.113	0.0175474
698.192	0.0176730
698.270	0.0176823
698.348	0.0175804
698.426	0.0174207
698.504	0.0171929
698.582	0.0170365
698.660	0.0167489
698.738	0.0166782
698.817	0.0164848
698.895	0.0162309
698.973	0.0158907
699.051	0.0156745
699.129	0.0155367
699.207	0.0155479
699.285	0.0155271
699.363	0.0157707
699.442	0.0160276
699.520	0.0165402
699.598	0.0170985
699.676	0.0177766
699.754	0.0184436
699.832	0.0192275
699.910	0.0199634
699.988	0.0206363
700.067	0.0211837
700.145	0.0217958
700.223	0.0221982
700.301	0.0226044
700.379	0.0227326
700.457	0.0228885
700.535	0.0230180
700.613	0.0229414
700.692	0.0228606
700.770	0.0227332
700.848	0.0223603
700.926	0.0221028
701.004	0.0219411
701.082	0.0214854
701.160	0.0210582
701.238	0.0203619
701.317	0.0199358
701.395	0.0192003
701.473	0.0185878
701.551	0.0178340
701.629	0.0171284
701.707	0.0165485
701.785	0.0156649
701.863	0.0149072
701.942	0.0141344
702.020	0.0133930
702.098	0.0125079
702.176	0.0118346
702.254	0.0110788
702.332	0.0105426
702.410	0.0100255
702.488	0.00981239
702.567	0.00984871
702.645	0.00987595
702.723	0.0103225
702.801	0.0106641
702.879	0.0113424
702.957	0.0119817
703.035	0.0125365
703.113	0.0131363
703.192	0.0137734
703.270	0.0140915
703.348	0.0142931
703.426	0.0145450
703.504	0.0144884
703.582	0.0146489
703.660	0.0145555
703.738	0.0143217
703.817	0.0144144
703.895	0.0144510
703.973	0.0145039
704.051	0.0144960
704.129	0.0147729
704.207	0.0150652
704.285	0.0153389
704.363	0.0156657
704.442	0.0160078
704.520	0.0162869
704.598	0.0166385
704.676	0.0170210
704.754	0.0172850
704.832	0.0176207
704.910	0.0178682
704.988	0.0181186
705.067	0.0184861
705.145	0.0190852
705.223	0.0195570
705.301	0.0199814
705.379	0.0206203
705.457	0.0212505
705.535	0.0218137
705.613	0.0224625
705.692	0.0229700
705.770	0.0233232
705.848	0.0235175
705.926	0.0236897
706.004	0.0240062
706.082	0.0237552
706.160	0.0236763
706.238	0.0235780
706.317	0.0232273
706.395	0.0227643
706.473	0.0220905
706.551	0.0215002
706.629	0.0208139
706.707	0.0199857
706.785	0.0193535
706.863	0.0185220
706.942	0.0177737
707.020	0.0170567
707.098	0.0164259
707.176	0.0156986
707.254	0.0150932
707.332	0.0145569
707.410	0.0141389
707.488	0.0137497
707.567	0.0133361
707.645	0.0129919
707.723	0.0128927
707.801	0.0126350
707.879	0.0124113
707.957	0.0122712
708.035	0.0123624
708.113	0.0123529
708.192	0.0123992
708.270	0.0125471
708.348	0.0127829
708.426	0.0129424
708.504	0.0130934
708.582	0.0135250
708.660	0.0137586
708.738	0.0139335
708.817	0.0141659
708.895	0.0141201
708.973	0.0142153
709.051	0.0140904
709.129	0.0139898
709.207	0.0140427
709.285	0.0139328
709.363	0.0135689
709.442	0.0136658
709.520	0.0135761
709.598	0.0136328
709.676	0.0139147
709.754	0.0140768
709.832	0.0142377
709.910	0.0146077
709.988	0.0149093
710.067	0.0151685
710.145	0.0154490
710.223	0.0158650
710.301	0.0162988
710.379	0.0164610
710.457	0.0169134
710.535	0.0172089
710.613	0.0176543
710.692	0.0181129
710.770	0.0187117
710.848	0.0191653
710.926	0.0197462
711.004	0.0202679
711.082	0.0209270
711.160	0.0214609
711.238	0.0220019
711.317	0.0224720
711.395	0.0227195
711.473	0.0230003
711.551	0.0230666
711.629	0.0232490
711.707	0.0230486
711.785	0.0225287
711.863	0.0220653
711.942	0.0217133
712.020	0.0209536
712.098	0.0203582
712.176	0.0196951
712.254	0.0190980
712.332	0.0185491
712.410	0.0181127
712.488	0.0175378
712.567	0.0173485
712.645	0.0172220
712.723	0.0170169
712.801	0.0169787
712.879	0.0169756
712.957	0.0170446
713.035	0.0171029
713.113	0.0171209
713.192	0.0171426
713.270	0.0171196
713.348	0.0170626
713.426	0.0170580
713.504	0.0166982
713.582	0.0166815
713.660	0.0161428
713.738	0.0160140
713.817	0.0157291
713.895	0.0152013
713.973	0.0148126
714.051	0.0142628
714.129	0.0139697
714.207	0.0135571
714.285	0.0133311
714.363	0.0127287
714.442	0.0124395
714.520	0.0123022
714.598	0.0117739
714.676	0.0117245
714.754	0.0116108
714.832	0.0113954
714.910	0.0116486
714.988	0.0117178
715.067	0.0116730
715.145	0.0116878
715.223	0.0120736
715.301	0.0123125
715.379	0.0126196
715.457	0.0131490
715.535	0.0136494
715.613	0.0141421
715.692	0.0145779
715.770	0.0151524
715.848	0.0157278
715.926	0.0163303
716.004	0.0168481
716.082	0.0174644
716.160	0.0178426
716.238	0.0182458
716.317	0.0186879
716.395	0.0188440
716.473	0.0190992
716.551	0.0194776
716.629	0.0198618
716.707	0.0200204
716.785	0.0202222
716.863	0.0203554
716.942	0.0203761
717.020	0.0206998
717.098	0.0208022
717.176	0.0207694
717.254	0.0209135
717.332	0.0207425
717.410	0.0204905
717.488	0.0206543
717.567	0.0204842
717.645	0.0201399
717.723	0.0199277
717.801	0.0196850
717.879	0.0193233
717.957	0.0190961
718.035	0.0189470
718.113	0.0186695
718.192	0.0184184
718.270	0.0183258
718.348	0.0179752
718.426	0.0179629
718.504	0.0178905
718.582	0.0178403
718.660	0.0176380
718.738	0.0176860
718.817	0.0175654
718.895	0.0173511
718.973	0.0174040
719.051	0.0172584
719.129	0.0172071
719.207	0.0170535
719.285	0.0169716
719.363	0.0168977
719.442	0.0165571
719.520	0.0165110
719.598	0.0162022
719.676	0.0158779
719.754	0.0157671
719.832	0.0154298
719.910	0.0150499
719.988	0.0146961
720.067	0.0143221
720.145	0.0140570
720.223	0.0138213
720.301	0.0133350
720.379	0.0132247
720.457	0.0133019
720.535	0.0130208
720.613	0.0127190
720.692	0.0129130
720.770	0.0126781
720.848	0.0129959
720.926	0.0130345
721.004	0.0130901
721.082	0.0135240
721.160	0.0136320
721.238	0.0139015
721.317	0.0141959
721.395	0.0145518
721.473	0.0148846
721.551	0.0152079
721.629	0.0156458
721.707	0.0159178
721.785	0.0162858
721.863	0.0163876
721.942	0.0166746
722.020	0.0168045
722.098	0.0172589
722.176	0.0172766
722.254	0.0171052
722.332	0.0174203
722.410	0.0175331
722.488	0.0178080
722.567	0.0177991
722.645	0.0180482
722.723	0.0182379
722.801	0.0183726
722.879	0.0184740
722.957	0.0187386
723.035	0.0189352
723.113	0.0189487
723.192	0.0192490
723.270	0.0191905
723.348	0.0192950
723.426	0.0194594
723.504	0.0194164
723.582	0.0192659
723.660	0.0194111
723.738	0.0195361
723.817	0.0195415
723.895	0.0195142
723.973	0.0193132
724.051	0.0193026
724.129	0.0192641
724.207	0.0190295
724.285	0.0191116
724.363	0.0191151
724.442	0.0188367
724.520	0.0186079
724.598	0.0184469
724.676	0.0181847
724.754	0.0177988
724.832	0.0175702
724.910	0.0171709
724.988	0.0167842
725.067	0.0164378
725.145	0.0162611
725.223	0.0161457
725.301	0.0159230
725.379	0.0155904
725.457	0.0153481
725.535	0.0152773
725.613	0.0152330
725.692	0.0152622
725.770	0.0150642
725.848	0.0149952
725.926	0.0149344
726.004	0.0149381
726.082	0.0149644
726.160	0.0150285
726.238	0.0151958
726.317	0.0153189
726.395	0.0153392
726.473	0.0152527
726.551	0.0154680
726.629	0.0153651
726.707	0.0154676
726.785	0.0156351
726.863	0.0155618
726.942	0.0157693
727.020	0.0159023
727.098	0.0158678
727.176	0.0158304
727.254	0.0158073
727.332	0.0157755
727.410	0.0156904
727.488	0.0157800
727.567	0.0156570
727.645	0.0155254
727.723	0.0155672
727.801	0.0154836
727.879	0.0154812
727.957	0.0156676
728.035	0.0156946
728.113	0.0158475
728.192	0.0159860
728.270	0.0160827
728.348	0.0165543
728.426	0.0166959
728.504	0.0169044
728.582	0.0169653
728.660	0.0173033
728.738	0.0173683
728.817	0.0177257
728.895	0.0179345
728.973	0.0179529
729.051	0.0181371
729.129	0.0180907
729.207	0.0183222
729.285	0.0184120
729.363	0.0182220
729.442	0.0183522
729.520	0.0183588
729.598	0.0182728
729.676	0.0182167
729.754	0.0182332
729.832	0.0182257
729.910	0.0181540
729.988	0.0180215
730.067	0.0180077
730.145	0.0180177
730.223	0.0178179
730.301	0.0177538
730.379	0.0175700
730.457	0.0173977
730.535	0.0174445
730.613	0.0175301
730.692	0.0176513
730.770	0.0174129
730.848	0.0175527
730.926	0.0173862
731.004	0.0174055
731.082	0.0175211
731.160	0.0173457
731.238	0.0173094
731.317	0.0173063
731.395	0.0172236
731.473	0.0171596
731.551	0.0169189
731.629	0.0166962
731.707	0.0167941
731.785	0.0166422
731.863	0.0166315
731.942	0.0166186
732.020	0.0164214
732.098	0.0164512
732.176	0.0165620
732.254	0.0164930
732.332	0.0162834
732.410	0.0162389
732.488	0.0162378
732.567	0.0162713
732.645	0.0161199
732.723	0.0161806
732.801	0.0160303
732.879	0.0160641
732.957	0.0158459
733.035	0.0157900
733.113	0.0158241
733.192	0.0156024
733.270	0.0155630
733.348	0.0154767
733.426	0.0154172
733.504	0.0153822
733.582	0.0155357
733.660	0.0154848
733.738	0.0155748
733.817	0.0157347
733.895	0.0157973
733.973	0.0158440
734.051	0.0160847
734.129	0.0161766
734.207	0.0162982
734.285	0.0164474
734.363	0.0165567
734.442	0.0168703
734.520	0.0168604
734.598	0.0169456
734.676	0.0170559
734.754	0.0171085
734.832	0.0173424
734.910	0.0172403
734.988	0.0172826
735.067	0.0173917
735.145	0.0173211
735.223	0.0172746
735.301	0.0169465
735.379	0.0169723
735.457	0.0169657
735.535	0.0169942
735.613	0.0168301
735.692	0.0167378
735.770	0.0167278
735.848	0.0166824
735.926	0.0166711
736.004	0.0165955
736.082	0.0166189
736.160	0.0167437
736.238	0.0169317
736.317	0.0171859
736.395	0.0172913
736.473	0.0175151
736.551	0.0175690
736.629	0.0178637
736.707	0.0177116
736.785	0.0179813
736.863	0.0181025
736.942	0.0181018
737.020	0.0181795
737.098	0.0182224
737.176	0.0179842
737.254	0.0180312
737.332	0.0180818
737.410	0.0177724
737.488	0.0177502
737.567	0.0176766
737.645	0.0176598
737.723	0.0173596
737.801	0.0171496
737.879	0.0171515
737.957	0.0169188
738.035	0.0168188
738.113	0.0167170
738.192	0.0165298
738.270	0.0164182
738.348	0.0164753
738.426	0.0162549
738.504	0.0162254
738.582	0.0163093
738.660	0.0162308
738.738	0.0161810
738.817	0.0160361
738.895	0.0159474
738.973	0.0160506
739.051	0.0160742
739.129	0.0158272
739.207	0.0159591
739.285	0.0160139
739.363	0.0159478
739.442	0.0160553
739.520	0.0159441
739.598	0.0160969
739.676	0.0160973
739.754	0.0162365
739.832	0.0163505
739.910	0.0163386
739.988	0.0163837
740.067	0.0163631
740.145	0.0164278
740.223	0.0164336
740.301	0.0164176
740.379	0.0164069
740.457	0.0163253
740.535	0.0163596
740.613	0.0164800
740.692	0.0164355
740.770	0.0162969
740.848	0.0161737
740.926	0.0161942
741.004	0.0161154
741.082	0.0162366
741.160	0.0161587
741.238	0.0160892
741.317	0.0161966
741.395	0.0163368
741.473	0.0164165
741.551	0.0165095
741.629	0.0165344
741.707	0.0165399
741.785	0.0168426
741.863	0.0170209
741.942	0.0171989
742.020	0.0174254
742.098	0.0177503
742.176	0.0178214
742.254	0.0179140
742.332	0.0180145
742.410	0.0179597
742.488	0.0181609
742.567	0.0181789
742.645	0.0181292
742.723	0.0179765
742.801	0.0178880
742.879	0.0177614
742.957	0.0177043
743.035	0.0175734
743.113	0.0173591
743.192	0.0172142
743.270	0.0171949
743.348	0.0170287
743.426	0.0168519
743.504	0.0168129
743.582	0.0168055
743.660	0.0166334
743.738	0.0166613
743.817	0.0164856
743.895	0.0163525
743.973	0.0163847
744.051	0.0163744
744.129	0.0162978
744.207	0.0162834
744.285	0.0163567
744.363	0.0163869
744.442	0.0164157
744.520	0.0164192
744.598	0.0164346
744.676	0.0165563
744.754	0.0165588
744.832	0.0166691
744.910	0.0167596
744.988	0.0167425
745.067	0.0168652
745.145	0.0168642
745.223	0.0168723
745.301	0.0169827
745.379	0.0169263
745.457	0.0169323
745.535	0.0169312
745.613	0.0167635
745.692	0.0167158
745.770	0.0165742
745.848	0.0165788
745.926	0.0165768
746.004	0.0164072
746.082	0.0164129
746.160	0.0161178
746.238	0.0160155
746.317	0.0160399
746.395	0.0160202
746.473	0.0159525
746.551	0.0158615
746.629	0.0160738
746.707	0.0161210
746.785	0.0160616
746.863	0.0163097
746.942	0.0163085
747.020	0.0165264
747.098	0.0165347
747.176	0.0168269
747.254	0.0167404
747.332	0.0169022
747.410	0.0170467
747.488	0.0172591
747.567	0.0173701
747.645	0.0174884
747.723	0.0174622
747.801	0.0173630
747.879	0.0176197
747.957	0.0176932
748.035	0.0177419
748.113	0.0178081
748.192	0.0176199
748.270	0.0176352
748.348	0.0176174
748.426	0.0174316
748.504	0.0173734
748.582	0.0172134
748.660	0.0171818
748.738	0.0171845
748.817	0.0168041
748.895	0.0167715
748.973	0.0166640
749.051	0.0167487
749.129	0.0165193
749.207	0.0165170
749.285	0.0165353
749.363	0.0164777
749.442	0.0162840
749.520	0.0163131
749.598	0.0163627
749.676	0.0163280
749.754	0.0163304
749.832	0.0162819
749.910	0.0164080
749.988	0.0165424
750.067	0.0164751
750.145	0.0165233
750.223	0.0165255
750.301	0.0167995
750.379	0.0168644
750.457	0.0167988
750.535	0.0168388
750.613	0.0169329
750.692	0.0170477
750.770	0.0169144
750.848	0.0170203
750.926	0.0170400
751.004	0.0168540
751.082	0.0167962
751.160	0.0168710
751.238	0.0166735
751.317	0.0164997
751.395	0.0166080
751.473	0.0164084
751.551	0.0162120
751.629	0.0163507
751.707	0.0162950
751.785	0.0162851
751.863	0.0161293
751.942	0.0162605
752.020	0.0164540
752.098	0.0165911
752.176	0.0165035
752.254	0.0166663
752.332	0.0167336
752.410	0.0168307
752.488	0.0170287
752.567	0.0170053
752.645	0.0171185
752.723	0.0172688
752.801	0.0172806
752.879	0.0173047
752.957	0.0173705
753.035	0.0174261
753.113	0.0174432
753.192	0.0174306
753.270	0.0173910
753.348	0.0174379
753.426	0.0172084
753.504	0.0172966
753.582	0.0173296
753.660	0.0172451
753.738	0.0170899
753.817	0.0170392
753.895	0.0170081
753.973	0.0169406
754.051	0.0169998
754.129	0.0167946
754.207	0.0166580
754.285	0.0165636
754.363	0.0165100
754.442	0.0164278
754.520	0.0164838
754.598	0.0165714
754.676	0.0166786
754.754	0.0164095
754.832	0.0164716
754.910	0.0165286
754.988	0.0164874
755.067	0.0164365
755.145	0.0165910
755.223	0.0166886
755.301	0.0166420
755.379	0.0166770
755.457	0.0167010
755.535	0.0166412
755.613	0.0168192
755.692	0.0169978
755.770	0.0168321
755.848	0.0171313
755.926	0.0170161
756.004	0.0169913
756.082	0.0170546
756.160	0.0169653
756.238	0.0169827
756.317	0.0169707
756.395	0.0170486
756.473	0.0168675
756.551	0.0167778
756.629	0.0167887
756.707	0.0166949
756.785	0.0165910
756.863	0.0165984
756.942	0.0165668
757.020	0.0164906
757.098	0.0163116
757.176	0.0164858
757.254	0.0164996
757.332	0.0163496
757.410	0.0162990
757.488	0.0163051
757.567	0.0163302
757.645	0.0165731
757.723	0.0164836
757.801	0.0165865
757.879	0.0166928
757.957	0.0165507
758.035	0.0166663
758.113	0.0166440
758.192	0.0168204
758.270	0.0168020
758.348	0.0168427
758.426	0.0168820
758.504	0.0170351
758.582	0.0169478
758.660	0.0169685
758.738	0.0170370
758.817	0.0170328
758.895	0.0170881
758.973	0.0171182
759.051	0.0171562
759.129	0.0171615
759.207	0.0170954
759.285	0.0171204
759.363	0.0170673
759.442	0.0170177
759.520	0.0170608
759.598	0.0170086
759.676	0.0170300
759.754	0.0169643
759.832	0.0170773
759.910	0.0167725
759.988	0.0169359
760.067	0.0168263
760.145	0.0168685
760.223	0.0168818
760.301	0.0167443
760.379	0.0168720
760.457	0.0167889
760.535	0.0167755
760.613	0.0169915
760.692	0.0170039
760.770	0.0169867
760.848	0.0168916
760.926	0.0169104
761.004	0.0169110
761.082	0.0170317
761.160	0.0170267
761.238	0.0168451
761.317	0.0169912
761.395	0.0168910
761.473	0.0169190
761.551	0.0168987
761.629	0.0168522
761.707	0.0167777
761.785	0.0167962
761.863	0.0168183
761.942	0.0166063
762.020	0.0165969
762.098	0.0166187
762.176	0.0165113
762.254	0.0165207
762.332	0.0164245
762.410	0.0164455
762.488	0.0164905
762.567	0.0166190
762.645	0.0164946
762.723	0.0165916
762.801	0.0166187
762.879	0.0166811
762.957	0.0168204
763.035	0.0166778
763.113	0.0170010
763.192	0.0170256
763.270	0.0169682
763.348	0.0170190
763.426	0.0169041
763.504	0.0170509
763.582	0.0170063
763.660	0.0169461
763.738	0.0170723
763.817	0.0170451
763.895	0.0169910
763.973	0.0168835
764.051	0.0169978
764.129	0.0168941
764.207	0.0169092
764.285	0.0167639
764.363	0.0166344
764.442	0.0166612
764.520	0.0165706
764.598	0.0165144
764.676	0.0164339
764.754	0.0165913
764.832	0.0163421
764.910	0.0162796
764.988	0.0163462
765.067	0.0163251
765.145	0.0163346
765.223	0.0163197
765.301	0.0162260
765.379	0.0162543
765.457	0.0163905
765.535	0.0164167
765.613	0.0165901
765.692	0.0164929
765.770	0.0166733
765.848	0.0166223
765.926	0.0166830
766.004	0.0167178
766.082	0.0167145
766.160	0.0168287
766.238	0.0168793
766.317	0.0169451
766.395	0.0170036
766.473	0.0171172
766.551	0.0172343
766.629	0.0171886
766.707	0.0170709
766.785	0.0172413
766.863	0.0169981
766.942	0.0170831
767.020	0.0170751
767.098	0.0170231
767.176	0.0169785
767.254	0.0169728
767.332	0.0170377
767.410	0.0170417
767.488	0.0169873
767.567	0.0170318
767.645	0.0170600
767.723	0.0169944
767.801	0.0169518
767.879	0.0170208
767.957	0.0171725
768.035	0.0169682
768.113	0.0170700
768.192	0.0170726
768.270	0.0171613
768.348	0.0170831
768.426	0.0171023
768.504	0.0172186
768.582	0.0170654
768.660	0.0170184
768.738	0.0170676
768.817	0.0168781
768.895	0.0168368
768.973	0.0169617
769.051	0.0168154
769.129	0.0170206
769.207	0.0167381
769.285	0.0167887
769.363	0.0168019
769.442	0.0167469
769.520	0.0169298
769.598	0.0167892
769.676	0.0168697
769.754	0.0166562
769.832	0.0166325
769.910	0.0167589
769.988	0.0166984
770.067	0.0163768
770.145	0.0164456
770.223	0.0164011
770.301	0.0164635
770.379	0.0162916
770.457	0.0162209
770.535	0.0163224
770.613	0.0164388
770.692	0.0163362
770.770	0.0162444
770.848	0.0162724
770.926	0.0163404
771.004	0.0162354
771.082	0.0162650
771.160	0.0164420
771.238	0.0163974
771.317	0.0164878
771.395	0.0165153
771.473	0.0163816
771.551	0.0164582
771.629	0.0165080
771.707	0.0165385
771.785	0.0167113
771.863	0.0168081
771.942	0.0166712
772.020	0.0166911
772.098	0.0167374
772.176	0.0167632
772.254	0.0169380
772.332	0.0168694
772.410	0.0169341
772.488	0.0170206
772.567	0.0170135
772.645	0.0170812
772.723	0.0170800
772.801	0.0170659
772.879	0.0170027
772.957	0.0172526
773.035	0.0170914
773.113	0.0169822
773.192	0.0168410
773.270	0.0170232
773.348	0.0171267
773.426	0.0170815
773.504	0.0170142
773.582	0.0168845
773.660	0.0171046
773.738	0.0170143
773.817	0.0171215
773.895	0.0171886
773.973	0.0170724
774.051	0.0171923
774.129	0.0172755
774.207	0.0171925
774.285	0.0173117
774.363	0.0171886
774.442	0.0172855
774.520	0.0172195
774.598	0.0171712
774.676	0.0170269
774.754	0.0171240
774.832	0.0168456
774.910	0.0168323
774.988	0.0169284
775.067	0.0166550
775.145	0.0164634
775.223	0.0165730
775.301	0.0164515
775.379	0.0163417
775.457	0.0163372
775.535	0.0163593
775.613	0.0164819
775.692	0.0162967
775.770	0.0163618
775.848	0.0162970
775.926	0.0162963
776.004	0.0163132
776.082	0.0165353
776.160	0.0166048
776.238	0.0165828
776.317	0.0165048
776.395	0.0165617
776.473	0.0166469
776.551	0.0166382
776.629	0.0166181
776.707	0.0167089
776.785	0.0167890
776.863	0.0168258
776.942	0.0167989
777.020	0.0168633
777.098	0.0168700
777.176	0.0168316
777.254	0.0168305
777.332	0.0170756
777.410	0.0169594
777.488	0.0168787
777.567	0.0167947
777.645	0.0168176
777.723	0.0166801
777.801	0.0165701
777.879	0.0166812
777.957	0.0165565
778.035	0.0166129
778.113	0.0165324
778.192	0.0164587
778.270	0.0164768
778.348	0.0166061
778.426	0.0167256
778.504	0.0168647
778.582	0.0166318
778.660	0.0167534
778.738	0.0167512
778.817	0.0168501
778.895	0.0168394
778.973	0.0168661
779.051	0.0169148
779.129	0.0168217
779.207	0.0166387
779.285	0.0166924
779.363	0.0168272
779.442	0.0167059
779.520	0.0167555
779.598	0.0167491
779.676	0.0166492
779.754	0.0167284
779.832	0.0166917
779.910	0.0166853
779.988	0.0167125
780.067	0.0167531
780.145	0.0167539
780.223	0.0167302
780.301	0.0168517
780.379	0.0167898
780.457	0.0166141
780.535	0.0167776
780.613	0.0168135
780.692	0.0167801
780.770	0.0168070
780.848	0.0168243
780.926	0.0167666
781.004	0.0168781
781.082	0.0170949
781.160	0.0168272
781.238	0.0169302
781.317	0.0169965
781.395	0.0170053
781.473	0.0169564
781.551	0.0170097
781.629	0.0169151
781.707	0.0169266
781.785	0.0168479
781.863	0.0168604
781.942	0.0169740
782.020	0.0170741
782.098	0.0171108
782.176	0.0170674
782.254	0.0171218
782.332	0.0172136
782.410	0.0171889
782.488	0.0172238
782.567	0.0171783
782.645	0.0172151
782.723	0.0172309
782.801	0.0172180
782.879	0.0170455
782.957	0.0170055
783.035	0.0171980
783.113	0.0168108
783.192	0.0166685
783.270	0.0166576
783.348	0.0167670
783.426	0.0166687
783.504	0.0164527
783.582	0.0165787
783.660	0.0164871
783.738	0.0163744
783.817	0.0163203
783.895	0.0161955
783.973	0.0161135
784.051	0.0160985
784.129	0.0161730
784.207	0.0160513
784.285	0.0161374
784.363	0.0162222
784.442	0.0161871
784.520	0.0160911
784.598	0.0161579
784.676	0.0161894
784.754	0.0164457
784.832	0.0163467
784.910	0.0162923
784.988	0.0163795
785.067	0.0163073
785.145	0.0164508
785.223	0.0165698
785.301	0.0167292
785.379	0.0167134
785.457	0.0167221
785.535	0.0168546
785.613	0.0169863
785.692	0.0171707
785.770	0.0172365
785.848	0.0170802
785.926	0.0171290
786.004	0.0174116
786.082	0.0175552
786.160	0.0175155
786.238	0.0175919
786.317	0.0176910
786.395	0.0175982
786.473	0.0174880
786.551	0.0174145
786.629	0.0174421
786.707	0.0173511
786.785	0.0173463
786.863	0.0171976
786.942	0.0170856
787.020	0.0171571
787.098	0.0171350
787.176	0.0169745
787.254	0.0170064
787.332	0.0167943
787.410	0.0168315
787.488	0.0167428
787.567	0.0167953
787.645	0.0167292
787.723	0.0164688
787.801	0.0164774
787.879	0.0165385
787.957	0.0163676
788.035	0.0162873
788.113	0.0161566
788.192	0.0162655
788.270	0.0161484
788.348	0.0160364
788.426	0.0160732
788.504	0.0160934
788.582	0.0160799
788.660	0.0159808
788.738	0.0161303
788.817	0.0160736
788.895	0.0160479
788.973	0.0161460
789.051	0.0162511
789.129	0.0164251
789.207	0.0164311
789.285	0.0164121
789.363	0.0164964
789.442	0.0166660
789.520	0.0165491
789.598	0.0165347
789.676	0.0167323
789.754	0.0166994
789.832	0.0165816
789.910	0.0168143
789.988	0.0168661
790.067	0.0168022
790.145	0.0168714
790.223	0.0170048
790.301	0.0170906
790.379	0.0171109
790.457	0.0169879
790.535	0.0171170
790.613	0.0173269
790.692	0.0172833
790.770	0.0173257
790.848	0.0174386
790.926	0.0173861
791.004	0.0175317
791.082	0.0174693
791.160	0.0174888
791.238	0.0175150
791.317	0.0174487
791.395	0.0174865
791.473	0.0175234
791.551	0.0174412
791.629	0.0174797
791.707	0.0173232
791.785	0.0172290
791.863	0.0171228
791.942	0.0171303
792.020	0.0171593
792.098	0.0170888
792.176	0.0170198
792.254	0.0168391
792.332	0.0169183
792.410	0.0167489
792.488	0.0166764
792.567	0.0166115
792.645	0.0165602
792.723	0.0164703
792.801	0.0163998
792.879	0.0163322
792.957	0.0163836
793.035	0.0163335
793.113	0.0163129
793.192	0.0163653
793.270	0.0162331
793.348	0.0162855
793.426	0.0161312
793.504	0.0162773
793.582	0.0161230
793.660	0.0162288
793.738	0.0163229
793.817	0.0161683
793.895	0.0161988
793.973	0.0163242
794.051	0.0163570
794.129	0.0160573
794.207	0.0161120
794.285	0.0160501
794.363	0.0162139
794.442	0.0163570
794.520	0.0161243
794.598	0.0162426
794.676	0.0163594
794.754	0.0163373
794.832	0.0163295
794.910	0.0164249
794.988	0.0165017
795.067	0.0164022
795.145	0.0165532
795.223	0.0166349
795.301	0.0165430
795.379	0.0165009
795.457	0.0165896
795.535	0.0167385
795.613	0.0168412
795.692	0.0167616
795.770	0.0168406
795.848	0.0168954
795.926	0.0170241
796.004	0.0171529
796.082	0.0172903
796.160	0.0171898
796.238	0.0174185
796.317	0.0175152
796.395	0.0174366
796.473	0.0176215
796.551	0.0177341
796.629	0.0177911
796.707	0.0177385
796.785	0.0176875
796.863	0.0178421
796.942	0.0177444
797.020	0.0177061
797.098	0.0177521
797.176	0.0177440
797.254	0.0177720
797.332	0.0175727
797.410	0.0174532
797.488	0.0174593
797.567	0.0174477
797.645	0.0173854
797.723	0.0172832
797.801	0.0172574
797.879	0.0170924
797.957	0.0170938
798.035	0.0170425
798.113	0.0168849
798.192	0.0167275
798.270	0.0166859
798.348	0.0166635
798.426	0.0166260
798.504	0.0164861
798.582	0.0164934
798.660	0.0163218
798.738	0.0162949
798.817	0.0163387
798.895	0.0162473
798.973	0.0162038
799.051	0.0161623
799.129	0.0161816
799.207	0.0158865
799.285	0.0158192
799.363	0.0159193
799.442	0.0159312
799.520	0.0159389
799.598	0.0160223
799.676	0.0158863
799.754	0.0158121
799.832	0.0157674
799.910	0.0160061
799.988	0.0157515
800.067	0.0157244
800.145	0.0157805
800.223	0.0159516
800.301	0.0160368
800.379	0.0159156
800.457	0.0159511
800.535	0.0161317
800.613	0.0162650
800.692	0.0162183
800.770	0.0163391
800.848	0.0164780
800.926	0.0165336
801.004	0.0165153
801.082	0.0165852
801.160	0.0168685
801.238	0.0170580
801.317	0.0172109
801.395	0.0172534
801.473	0.0173134
801.551	0.0173912
801.629	0.0174383
801.707	0.0176894
801.785	0.0177280
801.863	0.0178374
801.942	0.0178229
802.020	0.0178305
802.098	0.0178017
802.176	0.0179220
802.254	0.0179083
802.332	0.0176131
802.410	0.0179159
802.488	0.0178930
802.567	0.0177476
802.645	0.0177418
802.723	0.0175564
802.801	0.0175696
802.879	0.0176096
802.957	0.0173755
803.035	0.0172306
803.113	0.0171593
803.192	0.0170215
803.270	0.0171149
803.348	0.0169169
803.426	0.0168481
803.504	0.0168111
803.582	0.0167914
803.660	0.0166693
803.738	0.0166454
803.817	0.0165062
803.895	0.0164629
803.973	0.0163988
804.051	0.0164114
804.129	0.0163100
804.207	0.0162996
804.285	0.0163721
804.363	0.0163819
804.442	0.0162653
804.520	0.0163708
804.598	0.0162484
804.676	0.0162244
804.754	0.0164085
804.832	0.0162757
804.910	0.0161810
804.988	0.0161594
805.067	0.0160376
805.145	0.0160442
805.223	0.0160637
805.301	0.0159275
805.379	0.0159763
805.457	0.0159748
805.535	0.0159478
805.613	0.0158957
805.692	0.0159402
805.770	0.0159214
805.848	0.0158507
805.926	0.0160035
806.004	0.0162483
806.082	0.0162137
806.160	0.0162261
806.238	0.0164342
806.317	0.0165308
806.395	0.0165563
806.473	0.0165673
806.551	0.0166582
806.629	0.0169183
806.707	0.0168334
806.785	0.0169909
806.863	0.0171015
806.942	0.0170847
807.020	0.0172206
807.098	0.0171259
807.176	0.0172565
807.254	0.0174747
807.332	0.0173936
807.410	0.0174468
807.488	0.0176544
807.567	0.0176074
807.645	0.0174525
807.723	0.0175690
807.801	0.0177617
807.879	0.0175843
807.957	0.0176006
808.035	0.0174393
808.113	0.0174426
808.192	0.0176248
808.270	0.0175422
808.348	0.0173859
808.426	0.0173839
808.504	0.0172380
808.582	0.0172971
808.660	0.0171377
808.738	0.0171352
808.817	0.0169483
808.895	0.0169266
808.973	0.0167905
809.051	0.0168332
809.129	0.0168179
809.207	0.0166100
809.285	0.0167301
809.363	0.0167285
809.442	0.0168176
809.520	0.0167844
809.598	0.0168343
809.676	0.0167519
809.754	0.0168472
809.832	0.0165300
809.910	0.0166540
809.988	0.0166052
810.067	0.0166860
810.145	0.0165723
810.223	0.0164730
810.301	0.0165319
810.379	0.0164061
810.457	0.0163831
810.535	0.0163741
810.613	0.0161375
810.692	0.0160786
810.770	0.0160932
810.848	0.0160341
810.926	0.0161029
811.004	0.0159480
811.082	0.0159492
811.160	0.0159528
811.238	0.0158527
811.317	0.0159869
811.395	0.0160110
811.473	0.0159978
811.551	0.0159878
811.629	0.0161604
811.707	0.0160798
811.785	0.0161398
811.863	0.0163316
811.942	0.0163888
812.020	0.0164558
812.098	0.0166385
812.176	0.0167415
812.254	0.0168812
812.332	0.0169025
812.410	0.0170387
812.488	0.0170552
812.567	0.0170120
812.645	0.0171632
812.723	0.0172981
812.801	0.0172825
812.879	0.0174151
812.957	0.0173644
813.035	0.0174952
813.113	0.0173408
813.192	0.0173528
813.270	0.0175008
813.348	0.0175688
813.426	0.0174241
813.504	0.0174569
813.582	0.0174240
813.660	0.0173395
813.738	0.0173390
813.817	0.0173076
813.895	0.0171999
813.973	0.0171355
814.051	0.0172605
814.129	0.0171469
814.207	0.0170258
814.285	0.0170210
814.363	0.0170129
814.442	0.0169089
814.520	0.0167637
814.598	0.0168945
814.676	0.0168502
814.754	0.0167302
814.832	0.0168168
814.910	0.0167298
814.988	0.0167233
815.067	0.0167239
815.145	0.0167422
815.223	0.0164647
815.301	0.0165163
815.379	0.0167343
815.457	0.0166151
815.535	0.0167445
815.613	0.0166109
815.692	0.0164164
815.770	0.0166814
815.848	0.0166272
815.926	0.0165108
816.004	0.0167329
816.082	0.0166100
816.160	0.0165511
816.238	0.0165899
816.317	0.0167633
816.395	0.0166196
816.473	0.0164388
816.551	0.0165858
816.629	0.0165983
816.707	0.0164722
816.785	0.0163775
816.863	0.0163770
816.942	0.0163164
817.020	0.0162567
817.098	0.0162556
817.176	0.0162923
817.254	0.0162350
817.332	0.0162683
817.410	0.0163368
817.488	0.0163374
817.567	0.0164620
817.645	0.0163480
817.723	0.0164944
817.801	0.0166036
817.879	0.0164379
817.957	0.0166068
818.035	0.0167096
818.113	0.0167574
818.192	0.0167360
818.270	0.0167517
818.348	0.0169837
818.426	0.0168013
818.504	0.0167304
818.582	0.0169547
818.660	0.0169856
818.738	0.0170306
818.817	0.0169128
818.895	0.0170354
818.973	0.0169578
819.051	0.0169577
819.129	0.0170315
819.207	0.0170116
819.285	0.0170815
819.363	0.0170718
819.442	0.0169444
819.520	0.0170466
819.598	0.0169749
819.676	0.0169977
819.754	0.0171092
819.832	0.0171017
819.910	0.0170853
819.988	0.0171243
820.067	0.0170847
820.145	0.0170201
820.223	0.0169717
820.301	0.0169736
820.379	0.0170161
820.457	0.0169479
820.535	0.0169504
820.613	0.0169959
820.692	0.0169863
820.770	0.0168458
820.848	0.0169907
820.926	0.0171644
821.004	0.0168599
821.082	0.0170931
821.160	0.0168273
821.238	0.0167850
821.317	0.0169892
821.395	0.0168660
821.473	0.0167770
821.551	0.0166885
821.629	0.0167730
821.707	0.0168153
821.785	0.0167215
821.863	0.0165591
821.942	0.0165080
822.020	0.0166808
822.098	0.0165195
822.176	0.0165753
822.254	0.0164561
822.332	0.0165061
822.410	0.0164640
822.488	0.0165144
822.567	0.0165551
822.645	0.0165880
822.723	0.0164651
822.801	0.0163588
822.879	0.0164070
822.957	0.0165039
823.035	0.0165749
823.113	0.0165250
823.192	0.0166032
823.270	0.0166291
823.348	0.0165974
823.426	0.0164824
823.504	0.0165958
823.582	0.0167866
823.660	0.0166800
823.738	0.0167175
823.817	0.0167297
823.895	0.0166073
823.973	0.0166650
824.051	0.0166555
824.129	0.0166462
824.207	0.0166327
824.285	0.0166573
824.363	0.0166340
824.442	0.0167114
824.520	0.0166093
824.598	0.0166382
824.676	0.0167803
824.754	0.0166203
824.832	0.0166697
824.910	0.0164489
824.988	0.0167216
825.067	0.0167027
825.145	0.0166691
825.223	0.0166994
825.301	0.0166778
825.379	0.0167345
825.457	0.0168024
825.535	0.0165756
825.613	0.0166894
825.692	0.0167966
825.770	0.0167081
825.848	0.0168032
825.926	0.0168854
826.004	0.0168429
826.082	0.0169729
826.160	0.0170172
826.238	0.0169160
826.317	0.0172102
826.395	0.0171161
826.473	0.0169964
826.551	0.0171009
826.629	0.0170361
826.707	0.0170702
826.785	0.0169320
826.863	0.0171139
826.942	0.0171532
827.020	0.0171620
827.098	0.0171454
827.176	0.0172430
827.254	0.0171681
827.332	0.0170616
827.410	0.0172009
827.488	0.0170271
827.567	0.0171264
827.645	0.0170180
827.723	0.0170685
827.801	0.0169453
827.879	0.0169959
827.957	0.0169422
828.035	0.0168874
828.113	0.0170367
828.192	0.0169511
828.270	0.0168900
828.348	0.0168536
828.426	0.0167136
828.504	0.0166585
828.582	0.0166334
828.660	0.0166152
828.738	0.0165612
828.817	0.0165732
828.895	0.0166763
828.973	0.0165533
829.051	0.0164971
829.129	0.0165424
829.207	0.0165582
829.285	0.0165409
829.363	0.0165610
829.442	0.0164816
829.520	0.0165171
829.598	0.0164903
829.676	0.0164609
829.754	0.0164342
829.832	0.0163731
829.910	0.0162711
829.988	0.0164763
830.067	0.0165353
830.145	0.0164674
830.223	0.0163824
830.301	0.0164785
830.379	0.0165258
830.457	0.0164804
830.535	0.0165163
830.613	0.0165316
830.692	0.0165340
830.770	0.0165004
830.848	0.0165327
830.926	0.0165004
831.004	0.0164985
831.082	0.0165951
831.160	0.0166406
831.238	0.0166174
831.317	0.0166203
831.395	0.0167555
831.473	0.0168642
831.551	0.0167905
831.629	0.0168317
831.707	0.0169829
831.785	0.0170359
831.863	0.0170746
831.942	0.0170541
832.020	0.0171284
832.098	0.0171744
832.176	0.0172319
832.254	0.0172857
832.332	0.0173505
832.410	0.0173594
832.488	0.0173113
832.567	0.0174263
832.645	0.0173956
832.723	0.0173350
832.801	0.0173798
832.879	0.0173132
832.957	0.0172650
833.035	0.0173396
833.113	0.0171912
833.192	0.0173025
833.270	0.0173050
833.348	0.0170103
833.426	0.0169717
833.504	0.0171176
833.582	0.0171586
833.660	0.0170625
833.738	0.0170216
833.817	0.0169611
833.895	0.0168108
833.973	0.0169562
834.051	0.0169321
834.129	0.0169382
834.207	0.0168281
834.285	0.0167696
834.363	0.0167505
834.442	0.0166372
834.520	0.0166082
834.598	0.0166720
834.676	0.0165046
834.754	0.0165878
834.832	0.0165836
834.910	0.0163994
834.988	0.0163379
835.067	0.0164417
835.145	0.0163523
835.223	0.0162365
835.301	0.0164288
835.379	0.0164045
835.457	0.0163374
835.535	0.0162975
835.613	0.0162563
835.692	0.0164755
835.770	0.0162465
835.848	0.0164516
835.926	0.0164679
836.004	0.0163300
836.082	0.0164104
836.160	0.0165009
836.238	0.0164912
836.317	0.0164621
836.395	0.0164376
836.473	0.0164803
836.551	0.0163883
836.629	0.0165234
836.707	0.0164753
836.785	0.0165381
836.863	0.0164717
836.942	0.0165985
837.020	0.0167056
837.098	0.0165884
837.176	0.0167432
837.254	0.0168352
837.332	0.0168619
837.410	0.0169742
837.488	0.0170097
837.567	0.0170517
837.645	0.0169778
837.723	0.0169914
837.801	0.0171040
837.879	0.0170889
837.957	0.0171354
838.035	0.0171716
838.113	0.0172457
838.192	0.0172883
838.270	0.0172022
838.348	0.0172993
838.426	0.0171335
838.504	0.0171632
838.582	0.0171420
838.660	0.0172227
838.738	0.0172729
838.817	0.0171675
838.895	0.0171361
838.973	0.0170210
839.051	0.0171318
839.129	0.0170294
839.207	0.0168812
839.285	0.0171054
839.363	0.0169182
839.442	0.0170249
839.520	0.0168923
839.598	0.0168159
839.676	0.0167684
839.754	0.0169231
839.832	0.0168021
839.910	0.0168116
839.988	0.0168652
840.067	0.0166730
840.145	0.0167158
840.223	0.0165601
840.301	0.0165581
840.379	0.0166661
840.457	0.0165110
840.535	0.0165712
840.613	0.0165186
840.692	0.0165224
840.770	0.0163378
840.848	0.0164353
840.926	0.0164256
841.004	0.0164389
841.082	0.0164803
841.160	0.0165559
841.238	0.0164507
841.317	0.0163379
841.395	0.0163720
841.473	0.0164245
841.551	0.0163901
841.629	0.0164302
841.707	0.0164698
841.785	0.0164127
841.863	0.0162960
841.942	0.0164164
842.020	0.0163940
842.098	0.0164423
842.176	0.0164153
842.254	0.0164414
842.332	0.0163110
842.410	0.0164987
842.488	0.0165184
842.567	0.0166076
842.645	0.0166953
842.723	0.0165807
842.801	0.0167723
842.879	0.0166784
842.957	0.0168022
843.035	0.0169084
843.113	0.0169275
843.192	0.0169588
843.270	0.0170050
843.348	0.0171484
843.426	0.0171096
843.504	0.0171841
843.582	0.0172712
843.660	0.0171820
843.738	0.0172569
843.817	0.0171778
843.895	0.0173624
843.973	0.0173139
844.051	0.0172751
844.129	0.0172984
844.207	0.0170782
844.285	0.0171194
844.363	0.0171165
844.442	0.0171250
844.520	0.0171973
844.598	0.0170640
844.676	0.0171267
844.754	0.0170347
844.832	0.0170583
844.910	0.0169642
844.988	0.0167886
845.067	0.0168175
845.145	0.0169202
845.223	0.0169178
845.301	0.0170790
845.379	0.0167106
845.457	0.0168687
845.535	0.0168883
845.613	0.0168282
845.692	0.0167381
845.770	0.0168340
845.848	0.0168166
845.926	0.0168525
846.004	0.0168291
846.082	0.0167957
846.160	0.0168370
846.238	0.0167980
846.317	0.0167609
846.395	0.0168225
846.473	0.0166958
846.551	0.0166304
846.629	0.0165882
846.707	0.0165520
846.785	0.0165816
846.863	0.0163995
846.942	0.0166548
847.020	0.0164524
847.098	0.0164383
847.176	0.0164059
847.254	0.0162679
847.332	0.0162518
847.410	0.0164474
847.488	0.0165041
847.567	0.0163184
847.645	0.0163385
847.723	0.0163251
847.801	0.0163436
847.879	0.0163320
847.957	0.0163998
848.035	0.0164213
848.113	0.0164936
848.192	0.0166069
848.270	0.0166824
848.348	0.0165627
848.426	0.0167216
848.504	0.0167566
848.582	0.0169386
848.660	0.0169338
848.738	0.0168443
848.817	0.0170356
848.895	0.0170544
848.973	0.0169498
849.051	0.0170539
849.129	0.0170543
849.207	0.0171239
849.285	0.0171130
849.363	0.0172948
849.442	0.0172322
849.520	0.0171384
849.598	0.0172771
849.676	0.0172821
849.754	0.0171307
849.832	0.0171398
849.910	0.0169942
849.988	0.0171268
850.067	0.0171811
850.145	0.0170204
850.223	0.0169109
850.301	0.0169783
850.379	0.0170020
850.457	0.0170415
850.535	0.0169167
850.613	0.0169199
850.692	0.0168446
850.770	0.0168605
850.848	0.0170969
850.926	0.0170132
851.004	0.0168523
851.082	0.0170078
851.160	0.0169995
851.238	0.0169170
851.317	0.0169176
851.395	0.0169036
851.473	0.0168562
851.551	0.0167529
851.629	0.0168739
851.707	0.0167235
851.785	0.0166345
851.863	0.0167464
851.942	0.0167678
852.020	0.0168341
852.098	0.0167418
852.176	0.0166582
852.254	0.0168080
852.332	0.0167030
852.410	0.0167169
852.488	0.0166618
852.567	0.0166132
852.645	0.0166197
852.723	0.0166238
852.801	0.0166019
852.879	0.0166156
852.957	0.0166351
853.035	0.0168628
853.113	0.0168373
853.192	0.0167336
853.270	0.0167033
853.348	0.0167399
853.426	0.0169209
853.504	0.0168124
853.582	0.0168951
853.660	0.0169566
853.738	0.0168129
853.817	0.0169347
853.895	0.0169006
853.973	0.0168488
854.051	0.0168317
854.129	0.0169026
854.207	0.0170072
854.285	0.0168980
854.363	0.0167754
854.442	0.0168639
854.520	0.0166697
854.598	0.0166587
854.676	0.0167852
854.754	0.0165853
854.832	0.0165886
854.910	0.0165302
854.988	0.0166727
855.067	0.0166237
855.145	0.0164353
855.223	0.0164178
855.301	0.0166016
855.379	0.0165464
855.457	0.0164874
855.535	0.0165646
855.613	0.0166908
855.692	0.0168524
855.770	0.0166168
855.848	0.0165655
855.926	0.0169144
856.004	0.0167955
856.082	0.0167836
856.160	0.0169891
856.238	0.0169467
856.317	0.0169111
856.395	0.0170222
856.473	0.0170004
856.551	0.0169815
856.629	0.0170515
856.707	0.0171626
856.785	0.0171605
856.863	0.0173161
856.942	0.0173981
857.020	0.0173266
857.098	0.0172322
857.176	0.0173299
857.254	0.0173595
857.332	0.0172181
857.410	0.0171978
857.488	0.0173395
857.567	0.0172437
857.645	0.0173406
857.723	0.0170674
857.801	0.0170749
857.879	0.0171114
857.957	0.0168423
858.035	0.0168298
858.113	0.0168530
858.192	0.0166116
858.270	0.0165431
858.348	0.0164655
858.426	0.0164156
858.504	0.0162946
858.582	0.0162672
858.660	0.0162238
858.738	0.0160417
858.817	0.0161725
858.895	0.0160575
858.973	0.0159849
859.051	0.0161726
859.129	0.0161355
859.207	0.0161163
859.285	0.0161038
859.363	0.0161459
859.442	0.0162706
859.520	0.0162709
859.598	0.0163098
859.676	0.0164861
859.754	0.0164705
859.832	0.0166342
859.910	0.0166183
859.988	0.0167715
860.067	0.0166795
860.145	0.0167218
860.223	0.0170070
860.301	0.0168729
860.379	0.0168264
860.457	0.0170956
860.535	0.0169489
860.613	0.0169921
860.692	0.0170557
860.770	0.0171494
860.848	0.0172505
860.926	0.0171980
861.004	0.0172392
861.082	0.0171255
861.160	0.0170368
861.238	0.0171939
861.317	0.0171675
861.395	0.0172421
861.473	0.0171947
861.551	0.0170773
861.629	0.0170175
861.707	0.0171278
861.785	0.0169886
861.863	0.0170226
861.942	0.0170847
862.020	0.0169012
862.098	0.0168459
862.176	0.0169403
862.254	0.0169057
862.332	0.0170116
862.410	0.0169329
862.488	0.0168495
862.567	0.0167898
862.645	0.0168153
862.723	0.0169639
862.801	0.0167875
862.879	0.0166576
862.957	0.0166469
863.035	0.0166958
863.113	0.0166006
863.192	0.0166164
863.270	0.0165174
863.348	0.0165015
863.426	0.0164954
863.504	0.0163663
863.582	0.0163730
863.660	0.0162135
863.738	0.0162871
863.817	0.0161091
863.895	0.0160000
863.973	0.0161163
864.051	0.0161284
864.129	0.0160712
864.207	0.0161363
864.285	0.0160638
864.363	0.0161203
864.442	0.0162164
864.520	0.0161777
864.598	0.0163062
864.676	0.0163917
864.754	0.0166496
864.832	0.0166051
864.910	0.0168136
864.988	0.0168768
865.067	0.0170345
865.145	0.0170776
865.223	0.0168388
865.301	0.0170231
865.379	0.0171323
865.457	0.0170051
865.535	0.0170737
865.613	0.0169577
865.692	0.0169975
865.770	0.0171207
865.848	0.0170017
865.926	0.0170556
866.004	0.0171297
866.082	0.0173029
866.160	0.0170518
866.238	0.0170937
866.317	0.0171227
866.395	0.0170576
866.473	0.0169085
866.551	0.0168213
866.629	0.0170336
866.707	0.0168254
866.785	0.0167889
866.863	0.0168606
866.942	0.0168836
867.020	0.0168367
867.098	0.0168389
867.176	0.0167687
867.254	0.0168098
867.332	0.0167583
867.410	0.0168620
867.488	0.0169352
867.567	0.0169282
867.645	0.0168478
867.723	0.0169676
867.801	0.0168631
867.879	0.0166768
867.957	0.0166487
868.035	0.0167628
868.113	0.0168611
868.192	0.0166784
868.270	0.0167308
868.348	0.0168335
868.426	0.0165098
868.504	0.0166259
868.582	0.0166908
868.660	0.0166095
868.738	0.0167245
868.817	0.0165564
868.895	0.0167523
868.973	0.0166830
869.051	0.0166183
869.129	0.0166268
869.207	0.0166670
869.285	0.0167146
869.363	0.0167020
869.442	0.0167703
869.520	0.0168343
869.598	0.0168146
869.676	0.0167479
869.754	0.0168148
869.832	0.0168601
869.910	0.0166210
869.988	0.0168194
870.067	0.0167345
870.145	0.0167219
870.223	0.0167264
870.301	0.0166889
870.379	0.0167518
870.457	0.0167548
870.535	0.0166724
870.613	0.0166750
870.692	0.0166637
870.770	0.0166754
870.848	0.0165993
870.926	0.0167213
871.004	0.0166158
871.082	0.0168390
871.160	0.0167226
871.238	0.0168628
871.317	0.0169362
871.395	0.0168840
871.473	0.0168687
871.551	0.0169302
871.629	0.0169363
871.707	0.0168754
871.785	0.0168593
871.863	0.0169458
871.942	0.0167865
872.020	0.0167922
872.098	0.0167000
872.176	0.0167124
872.254	0.0165728
872.332	0.0165106
872.410	0.0166566
872.488	0.0167815
872.567	0.0167062
872.645	0.0167428
872.723	0.0168001
872.801	0.0167689
872.879	0.0168995
872.957	0.0169151
873.035	0.0168732
873.113	0.0169891
873.192	0.0170259
873.270	0.0170027
873.348	0.0170009
873.426	0.0168677
873.504	0.0170190
873.582	0.0169081
873.660	0.0170399
873.738	0.0171167
873.817	0.0171016
873.895	0.0170910
873.973	0.0171465
874.051	0.0170234
874.129	0.0170822
874.207	0.0171278
874.285	0.0169812
874.363	0.0169636
874.442	0.0168827
874.520	0.0169430
874.598	0.0167384
874.676	0.0166892
874.754	0.0165491
874.832	0.0164065
874.910	0.0164836
874.988	0.0164445
875.067	0.0162997
875.145	0.0162022
875.223	0.0164195
875.301	0.0164134
875.379	0.0161905
875.457	0.0163138
875.535	0.0165719
875.613	0.0165354
875.692	0.0166161
875.770	0.0166317
875.848	0.0169484
875.926	0.0168365
876.004	0.0169067
876.082	0.0170489
876.160	0.0171250
876.238	0.0171227
876.317	0.0170231
876.395	0.0170688
876.473	0.0170848
876.551	0.0169176
876.629	0.0169725
876.707	0.0168558
876.785	0.0168172
876.863	0.0168606
876.942	0.0166956
877.020	0.0167518
877.098	0.0166341
877.176	0.0166551
877.254	0.0166940
877.332	0.0165193
877.410	0.0166629
877.488	0.0167171
877.567	0.0167526
877.645	0.0166939
877.723	0.0166447
877.801	0.0166980
877.879	0.0167980
877.957	0.0167258
878.035	0.0167688
878.113	0.0167977
878.192	0.0168116
878.270	0.0167668
878.348	0.0167891
878.426	0.0168721
878.504	0.0169408
878.582	0.0169421
878.660	0.0170221
878.738	0.0168197
878.817	0.0169594
878.895	0.0170426
878.973	0.0170049
879.051	0.0168979
879.129	0.0168732
879.207	0.0167187
879.285	0.0168275
879.363	0.0167443
879.442	0.0166086
879.520	0.0166416
879.598	0.0164700
879.676	0.0164191
879.754	0.0164307
879.832	0.0164852
879.910	0.0162309
879.988	0.0162524
880.067	0.0161078
880.145	0.0161378
880.223	0.0163362
880.301	0.0164168
880.379	0.0161790
880.457	0.0165483
880.535	0.0165476
880.613	0.0167456
880.692	0.0168720
880.770	0.0170412
880.848	0.0171726
880.926	0.0172057
881.004	0.0172996
881.082	0.0173027
881.160	0.0172932
881.238	0.0173495
881.317	0.0172561
881.395	0.0172712
881.473	0.0173779
881.551	0.0172308
881.629	0.0172267
881.707	0.0171084
881.785	0.0170864
881.863	0.0171194
881.942	0.0170704
882.020	0.0168316
882.098	0.0168672
882.176	0.0168761
882.254	0.0168507
882.332	0.0167347
882.410	0.0165899
882.488	0.0166232
882.567	0.0164453
882.645	0.0164453
882.723	0.0163366
882.801	0.0163135
882.879	0.0162557
882.957	0.0162290
883.035	0.0162152
883.113	0.0162763
883.192	0.0161220
883.270	0.0162580
883.348	0.0163262
883.426	0.0164560
883.504	0.0164153
883.582	0.0163616
883.660	0.0163724
883.738	0.0165606
883.817	0.0165322
883.895	0.0164012
883.973	0.0165411
884.051	0.0166798
884.129	0.0166595
884.207	0.0168029
884.285	0.0169102
884.363	0.0170776
884.442	0.0170430
884.520	0.0170173
884.598	0.0170840
884.676	0.0170750
884.754	0.0172341
884.832	0.0171394
884.910	0.0170881
884.988	0.0170733
885.067	0.0170523
885.145	0.0170796
885.223	0.0169277
885.301	0.0168172
885.379	0.0168368
885.457	0.0168307
885.535	0.0167109
885.613	0.0167525
885.692	0.0167484
885.770	0.0167132
885.848	0.0166776
885.926	0.0167847
886.004	0.0167198
886.082	0.0168011
886.160	0.0167669
886.238	0.0169223
886.317	0.0169728
886.395	0.0168716
886.473	0.0169991
886.551	0.0170907
886.629	0.0170132
886.707	0.0169908
886.785	0.0169053
886.863	0.0169405
886.942	0.0168277
887.020	0.0167451
887.098	0.0167707
887.176	0.0166372
887.254	0.0166418
887.332	0.0166071
887.410	0.0165339
887.488	0.0166331
887.567	0.0165797
887.645	0.0166422
887.723	0.0165662
887.801	0.0165179
887.879	0.0165342
887.957	0.0164084
888.035	0.0165482
888.113	0.0165149
888.192	0.0164713
888.270	0.0163679
888.348	0.0166088
888.426	0.0165292
888.504	0.0164974
888.582	0.0165783
888.660	0.0166585
888.738	0.0166015
888.817	0.0166891
888.895	0.0168166
888.973	0.0167160
889.051	0.0169421
889.129	0.0170118
889.207	0.0170673
889.285	0.0172570
889.363	0.0171819
889.442	0.0171004
889.520	0.0171941
889.598	0.0172729
889.676	0.0171780
889.754	0.0170868
889.832	0.0171789
889.910	0.0170708
889.988	0.0170984
890.067	0.0172041
890.145	0.0170623
890.223	0.0169703
890.301	0.0168526
890.379	0.0167764
890.457	0.0167578
890.535	0.0167757
890.613	0.0166836
890.692	0.0163755
890.770	0.0164064
890.848	0.0164925
890.926	0.0164802
891.004	0.0163679
891.082	0.0164217
891.160	0.0164927
891.238	0.0163566
891.317	0.0164950
891.395	0.0166254
891.473	0.0167428
891.551	0.0167308
891.629	0.0167696
891.707	0.0167930
891.785	0.0169164
891.863	0.0170449
891.942	0.0170329
892.020	0.0170512
892.098	0.0170245
892.176	0.0170650
892.254	0.0168472
892.332	0.0169088
892.410	0.0169801
892.488	0.0169957
892.567	0.0168132
892.645	0.0169177
892.723	0.0169705
892.801	0.0168793
892.879	0.0168655
892.957	0.0168234
893.035	0.0168600
893.113	0.0169818
893.192	0.0169648
893.270	0.0171429
893.348	0.0170265
893.426	0.0168954
893.504	0.0168811
893.582	0.0168404
893.660	0.0168948
893.738	0.0168820
893.817	0.0168692
893.895	0.0167506
893.973	0.0167008
894.051	0.0166295
894.129	0.0166480
894.207	0.0165023
894.285	0.0165442
894.363	0.0166196
894.442	0.0165904
894.520	0.0165861
894.598	0.0167530
894.676	0.0166698
894.754	0.0168239
894.832	0.0166305
894.910	0.0167830
894.988	0.0167889
895.067	0.0166922
895.145	0.0167633
895.223	0.0167851
895.301	0.0167715
895.379	0.0166521
895.457	0.0167825
895.535	0.0168859
895.613	0.0167062
895.692	0.0166501
895.770	0.0166161
895.848	0.0169009
895.926	0.0168613
896.004	0.0168246
896.082	0.0168491
896.160	0.0168869
896.238	0.0168672
896.317	0.0169245
896.395	0.0168217
896.473	0.0167867
896.551	0.0168182
896.629	0.0168259
896.707	0.0168138
896.785	0.0168549
896.863	0.0168805
896.942	0.0168127
897.020	0.0168675
897.098	0.0169718
897.176	0.0167879
897.254	0.0169298
897.332	0.0170052
897.410	0.0171574
897.488	0.0169950
897.567	0.0169064
897.645	0.0170026
897.723	0.0169978
897.801	0.0170217
897.879	0.0169610
897.957	0.0168553
898.035	0.0167468
898.113	0.0168266
898.192	0.0166747
898.270	0.0165889
898.348	0.0165857
898.426	0.0165439
898.504	0.0164787
898.582	0.0164447
898.660	0.0164433
898.738	0.0164771
898.817	0.0164308
898.895	0.0162843
898.973	0.0165076
899.051	0.0165514
899.129	0.0165569
899.207	0.0167954
899.285	0.0167316
899.363	0.0166832
899.442	0.0166718
899.520	0.0166534
899.598	0.0168445
899.676	0.0168012
899.754	0.0167252
899.832	0.0166976
899.910	0.0165892
899.988	0.0165491
900.067	0.0164960
900.145	0.0164040
900.223	0.0164562
900.301	0.0163805
900.379	0.0163694
900.457	0.0165346
900.535	0.0164777
900.613	0.0163577
900.692	0.0164861
900.770	0.0164259
900.848	0.0165918
900.926	0.0166729
901.004	0.0166325
901.082	0.0167831
901.160	0.0168782
901.238	0.0168880
901.317	0.0169160
901.395	0.0169555
901.473	0.0169125
901.551	0.0170485
901.629	0.0171129
901.707	0.0172033
901.785	0.0172437
901.863	0.0170512
901.942	0.0171516
902.020	0.0169239
902.098	0.0170843
902.176	0.0170195
902.254	0.0170042
902.332	0.0168266
902.410	0.0170591
902.488	0.0168626
902.567	0.0167892
902.645	0.0168290
902.723	0.0167252
902.801	0.0167361
902.879	0.0165200
902.957	0.0166866
903.035	0.0166104
903.113	0.0166428
903.192	0.0164942
903.270	0.0165215
903.348	0.0163521
903.426	0.0163495
903.504	0.0163060
903.582	0.0162168
903.660	0.0161042
903.738	0.0163306
903.817	0.0162408
903.895	0.0162563
903.973	0.0162170
904.051	0.0161578
904.129	0.0161382
904.207	0.0162653
904.285	0.0163568
904.363	0.0163775
904.442	0.0166447
904.520	0.0166085
904.598	0.0168047
904.676	0.0170029
904.754	0.0170075
904.832	0.0173294
904.910	0.0173637
904.988	0.0173074
905.067	0.0173788
905.145	0.0172594
905.223	0.0174653
905.301	0.0175389
905.379	0.0174910
905.457	0.0173613
905.535	0.0172337
905.613	0.0171952
905.692	0.0171567
905.770	0.0170887
905.848	0.0168284
905.926	0.0168420
906.004	0.0168009
906.082	0.0165705
906.160	0.0164478
906.238	0.0165480
906.317	0.0163609
906.395	0.0164317
906.473	0.0165177
906.551	0.0164227
906.629	0.0164592
906.707	0.0166029
906.785	0.0165472
906.863	0.0166776
906.942	0.0165729
907.020	0.0168517
907.098	0.0167590
907.176	0.0167868
907.254	0.0167719
907.332	0.0167614
907.410	0.0169102
907.488	0.0168774
907.567	0.0168787
907.645	0.0168998
907.723	0.0171149
907.801	0.0168559
907.879	0.0169846
907.957	0.0169257
908.035	0.0169179
908.113	0.0169239
908.192	0.0168914
908.270	0.0167854
908.348	0.0167864
908.426	0.0168517
908.504	0.0168736
908.582	0.0167701
908.660	0.0167696
908.738	0.0165408
908.817	0.0166022
908.895	0.0166705
908.973	0.0164255
909.051	0.0164238
909.129	0.0165240
909.207	0.0165056
909.285	0.0163686
909.363	0.0164632
909.442	0.0163303
909.520	0.0162440
909.598	0.0163773
909.676	0.0164962
909.754	0.0165990
909.832	0.0167161
909.910	0.0166933
909.988	0.0166001
910.067	0.0166625
910.145	0.0168310
910.223	0.0168810
910.301	0.0169190
910.379	0.0168967
910.457	0.0169418
910.535	0.0170139
910.613	0.0170424
910.692	0.0170523
910.770	0.0168049
910.848	0.0169811
910.926	0.0171227
911.004	0.0169035
911.082	0.0170184
911.160	0.0168674
911.238	0.0168742
911.317	0.0168282
911.395	0.0168326
911.473	0.0169964
911.551	0.0168021
911.629	0.0168037
911.707	0.0168348
911.785	0.0168663
911.863	0.0168739
911.942	0.0168047
912.020	0.0168963
912.098	0.0169988
912.176	0.0170171
912.254	0.0168787
912.332	0.0169069
912.410	0.0168239
912.488	0.0169952
912.567	0.0169441
912.645	0.0171127
912.723	0.0172627
912.801	0.0171940
912.879	0.0169466
912.957	0.0169934
913.035	0.0169824
913.113	0.0170436
913.192	0.0169403
913.270	0.0169415
913.348	0.0169212
913.426	0.0168739
913.504	0.0169431
913.582	0.0167125
913.660	0.0169156
913.738	0.0170246
913.817	0.0167045
913.895	0.0166395
913.973	0.0168043
914.051	0.0166246
914.129	0.0167969
914.207	0.0166900
914.285	0.0165649
914.363	0.0165541
914.442	0.0166482
914.520	0.0165231
914.598	0.0166025
914.676	0.0165816
914.754	0.0164390
914.832	0.0166800
914.910	0.0165880
914.988	0.0164234
915.067	0.0166086
915.145	0.0166495
915.223	0.0166662
915.301	0.0166759
915.379	0.0166644
915.457	0.0167365
915.535	0.0166097
915.613	0.0167123
915.692	0.0168131
915.770	0.0168616
915.848	0.0167838
915.926	0.0167339
916.004	0.0168492
916.082	0.0168576
916.160	0.0168785
916.238	0.0168332
916.317	0.0168223
916.395	0.0168496
916.473	0.0167480
916.551	0.0167395
916.629	0.0168098
916.707	0.0166821
916.785	0.0166168
916.863	0.0165917
916.942	0.0165049
917.020	0.0166041
917.098	0.0164961
917.176	0.0166016
917.254	0.0165192
917.332	0.0167233
917.410	0.0167510
917.488	0.0168368
917.567	0.0168821
917.645	0.0167906
917.723	0.0168134
917.801	0.0170572
917.879	0.0169373
917.957	0.0170924
918.035	0.0171819
918.113	0.0172099
918.192	0.0171347
918.270	0.0172079
918.348	0.0172151
918.426	0.0169874
918.504	0.0170928
918.582	0.0171317
918.660	0.0169059
918.738	0.0169139
918.817	0.0168990
918.895	0.0168496
918.973	0.0168040
919.051	0.0167470
919.129	0.0167671
919.207	0.0167161
919.285	0.0167784
919.363	0.0168262
919.442	0.0166258
919.520	0.0166133
919.598	0.0165775
919.676	0.0166118
919.754	0.0166832
919.832	0.0168172
919.910	0.0166670
