05/24/2022	20:22:29	Ver.	4.1	UNKNOWN
Optical Delay	599.981738	Delta X		0.078125	Sweeps	1	Scan Rate	0/0
Coordinates	Axis 1	NaN	Axis 2	NaN	Axis 3	NaN	Axis 4	NaN	Axis 5	NaN	Axis 6	0.000000
TX Power	0.000000	RX Power	0.000000

599.982	0.0165326
600.060	0.0165527
600.138	0.0165016
600.216	0.0165648
600.294	0.0166251
600.372	0.0165701
600.450	0.0166167
600.529	0.0164114
600.607	0.0165365
600.685	0.0166189
600.763	0.0165238
600.841	0.0164838
600.919	0.0163738
600.997	0.0164410
601.075	0.0165845
601.154	0.0164668
601.232	0.0165819
601.310	0.0166110
601.388	0.0165819
601.466	0.0165611
601.544	0.0165508
601.622	0.0166338
601.700	0.0165335
601.779	0.0165356
601.857	0.0166068
601.935	0.0164973
602.013	0.0164150
602.091	0.0165923
602.169	0.0164291
602.247	0.0164217
602.325	0.0166458
602.404	0.0164416
602.482	0.0164745
602.560	0.0164664
602.638	0.0165341
602.716	0.0165726
602.794	0.0164920
602.872	0.0166521
602.950	0.0165792
603.029	0.0164290
603.107	0.0164275
603.185	0.0165955
603.263	0.0164949
603.341	0.0164470
603.419	0.0166080
603.497	0.0165830
603.575	0.0164955
603.654	0.0163364
603.732	0.0164668
603.810	0.0164743
603.888	0.0165546
603.966	0.0164887
604.044	0.0166084
604.122	0.0164922
604.200	0.0163001
604.279	0.0164982
604.357	0.0164896
604.435	0.0163715
604.513	0.0165168
604.591	0.0164344
604.669	0.0163996
604.747	0.0164427
604.825	0.0164791
604.904	0.0163978
604.982	0.0164748
605.060	0.0164488
605.138	0.0165405
605.216	0.0165771
605.294	0.0164364
605.372	0.0166188
605.450	0.0166027
605.529	0.0166343
605.607	0.0165150
605.685	0.0164674
605.763	0.0164545
605.841	0.0165171
605.919	0.0164181
605.997	0.0165046
606.075	0.0164998
606.154	0.0164255
606.232	0.0166256
606.310	0.0164693
606.388	0.0165514
606.466	0.0164574
606.544	0.0164315
606.622	0.0166202
606.700	0.0165091
606.779	0.0165141
606.857	0.0164622
606.935	0.0164285
607.013	0.0164424
607.091	0.0164975
607.169	0.0166096
607.247	0.0166100
607.325	0.0166011
607.404	0.0164576
607.482	0.0164713
607.560	0.0164742
607.638	0.0165311
607.716	0.0163596
607.794	0.0164030
607.872	0.0165124
607.950	0.0164803
608.029	0.0166920
608.107	0.0165823
608.185	0.0165727
608.263	0.0164165
608.341	0.0162482
608.419	0.0165177
608.497	0.0165620
608.575	0.0165537
608.654	0.0165910
608.732	0.0165759
608.810	0.0163428
608.888	0.0164452
608.966	0.0165333
609.044	0.0164582
609.122	0.0165287
609.200	0.0164933
609.279	0.0166392
609.357	0.0165877
609.435	0.0164900
609.513	0.0164765
609.591	0.0165359
609.669	0.0165911
609.747	0.0165474
609.825	0.0166257
609.904	0.0166450
609.982	0.0166976
610.060	0.0166685
610.138	0.0166129
610.216	0.0164706
610.294	0.0165279
610.372	0.0164737
610.450	0.0166118
610.529	0.0166584
610.607	0.0167371
610.685	0.0165709
610.763	0.0164173
610.841	0.0166104
610.919	0.0165796
610.997	0.0167374
611.075	0.0164947
611.154	0.0165430
611.232	0.0166013
611.310	0.0165086
611.388	0.0165856
611.466	0.0164799
611.544	0.0165618
611.622	0.0166124
611.700	0.0165913
611.779	0.0166572
611.857	0.0165337
611.935	0.0165975
612.013	0.0165939
612.091	0.0165417
612.169	0.0165945
612.247	0.0167126
612.325	0.0165523
612.404	0.0165655
612.482	0.0166280
612.560	0.0164888
612.638	0.0166302
612.716	0.0164916
612.794	0.0165327
612.872	0.0164501
612.950	0.0166505
613.029	0.0164937
613.107	0.0165441
613.185	0.0163973
613.263	0.0166076
613.341	0.0166216
613.419	0.0165862
613.497	0.0166032
613.575	0.0166501
613.654	0.0165208
613.732	0.0165700
613.810	0.0165727
613.888	0.0166127
613.966	0.0166078
614.044	0.0166057
614.122	0.0165652
614.200	0.0165159
614.279	0.0166232
614.357	0.0165829
614.435	0.0166227
614.513	0.0165144
614.591	0.0164866
614.669	0.0166281
614.747	0.0164790
614.825	0.0165878
614.904	0.0166528
614.982	0.0165185
615.060	0.0166022
615.138	0.0164861
615.216	0.0165779
615.294	0.0164670
615.372	0.0166590
615.450	0.0165575
615.529	0.0164186
615.607	0.0166361
615.685	0.0165329
615.763	0.0164884
615.841	0.0166665
615.919	0.0165909
615.997	0.0164995
616.075	0.0165952
616.154	0.0165625
616.232	0.0166391
616.310	0.0167167
616.388	0.0165765
616.466	0.0165071
616.544	0.0165760
616.622	0.0166368
616.700	0.0165658
616.779	0.0164967
616.857	0.0164417
616.935	0.0164711
617.013	0.0166971
617.091	0.0165219
617.169	0.0166145
617.247	0.0165975
617.325	0.0164874
617.404	0.0166358
617.482	0.0165729
617.560	0.0165572
617.638	0.0164999
617.716	0.0165457
617.794	0.0164328
617.872	0.0166152
617.950	0.0166576
618.029	0.0166232
618.107	0.0166306
618.185	0.0165295
618.263	0.0163935
618.341	0.0165089
618.419	0.0164698
618.497	0.0166013
618.575	0.0165132
618.654	0.0166307
618.732	0.0166267
618.810	0.0166832
618.888	0.0164935
618.966	0.0166154
619.044	0.0165337
619.122	0.0164745
619.200	0.0166040
619.279	0.0166094
619.357	0.0165224
619.435	0.0165989
619.513	0.0166019
619.591	0.0165763
619.669	0.0164068
619.747	0.0165226
619.825	0.0165839
619.904	0.0166100
619.982	0.0165462
620.060	0.0165147
620.138	0.0164945
620.216	0.0166759
620.294	0.0165434
620.372	0.0163684
620.450	0.0165604
620.529	0.0165437
620.607	0.0165862
620.685	0.0165416
620.763	0.0164175
620.841	0.0164371
620.919	0.0165375
620.997	0.0165002
621.075	0.0165228
621.154	0.0163936
621.232	0.0164266
621.310	0.0164726
621.388	0.0166255
621.466	0.0164644
621.544	0.0163528
621.622	0.0164406
621.700	0.0165714
621.779	0.0165588
621.857	0.0165591
621.935	0.0165763
622.013	0.0164593
622.091	0.0164296
622.169	0.0165425
622.247	0.0165852
622.325	0.0164372
622.404	0.0164306
622.482	0.0164095
622.560	0.0163080
622.638	0.0164389
622.716	0.0165113
622.794	0.0165720
622.872	0.0164449
622.950	0.0166553
623.029	0.0164651
623.107	0.0164793
623.185	0.0164854
623.263	0.0164156
623.341	0.0165193
623.419	0.0165961
623.497	0.0165383
623.575	0.0165325
623.654	0.0164986
623.732	0.0166618
623.810	0.0165681
623.888	0.0166019
623.966	0.0165524
624.044	0.0164510
624.122	0.0165597
624.200	0.0166467
624.279	0.0164420
624.357	0.0164595
624.435	0.0164709
624.513	0.0165085
624.591	0.0164267
624.669	0.0164380
624.747	0.0164816
624.825	0.0164190
624.904	0.0165081
624.982	0.0164622
625.060	0.0163701
625.138	0.0165707
625.216	0.0165628
625.294	0.0163746
625.372	0.0166091
625.450	0.0164700
625.529	0.0165203
625.607	0.0164326
625.685	0.0164461
625.763	0.0163104
625.841	0.0164150
625.919	0.0164880
625.997	0.0165031
626.075	0.0163663
626.154	0.0164293
626.232	0.0165221
626.310	0.0164677
626.388	0.0164438
626.466	0.0165428
626.544	0.0164089
626.622	0.0165020
626.700	0.0165167
626.779	0.0164422
626.857	0.0162830
626.935	0.0164944
627.013	0.0165193
627.091	0.0164377
627.169	0.0162805
627.247	0.0165324
627.325	0.0165092
627.404	0.0164153
627.482	0.0164429
627.560	0.0163689
627.638	0.0164236
627.716	0.0165175
627.794	0.0164941
627.872	0.0165175
627.950	0.0163591
628.029	0.0163319
628.107	0.0164890
628.185	0.0164776
628.263	0.0163838
628.341	0.0163342
628.419	0.0163727
628.497	0.0164375
628.575	0.0164120
628.654	0.0163229
628.732	0.0163725
628.810	0.0164465
628.888	0.0164122
628.966	0.0163864
629.044	0.0164027
629.122	0.0164063
629.200	0.0164364
629.279	0.0164571
629.357	0.0164195
629.435	0.0165344
629.513	0.0164413
629.591	0.0165914
629.669	0.0164019
629.747	0.0164426
629.825	0.0164796
629.904	0.0165232
629.982	0.0164422
630.060	0.0164036
630.138	0.0164459
630.216	0.0163646
630.294	0.0164818
630.372	0.0165935
630.450	0.0164125
630.529	0.0163728
630.607	0.0165023
630.685	0.0165022
630.763	0.0164484
630.841	0.0164760
630.919	0.0164655
630.997	0.0164052
631.075	0.0165144
631.154	0.0164381
631.232	0.0163909
631.310	0.0165269
631.388	0.0163563
631.466	0.0165024
631.544	0.0164123
631.622	0.0163477
631.700	0.0165297
631.779	0.0164710
631.857	0.0165638
631.935	0.0164629
632.013	0.0164593
632.091	0.0164285
632.169	0.0166418
632.247	0.0165510
632.325	0.0163765
632.404	0.0164609
632.482	0.0166512
632.560	0.0165427
632.638	0.0163538
632.716	0.0166068
632.794	0.0163854
632.872	0.0165437
632.950	0.0165177
633.029	0.0164835
633.107	0.0164758
633.185	0.0164336
633.263	0.0164491
633.341	0.0165283
633.419	0.0164218
633.497	0.0165682
633.575	0.0164817
633.654	0.0163930
633.732	0.0165823
633.810	0.0164717
633.888	0.0164187
633.966	0.0165598
634.044	0.0165216
634.122	0.0166399
634.200	0.0165366
634.279	0.0165363
634.357	0.0166156
634.435	0.0166686
634.513	0.0165752
634.591	0.0165626
634.669	0.0166439
634.747	0.0165828
634.825	0.0164436
634.904	0.0166721
634.982	0.0166287
635.060	0.0167551
635.138	0.0168058
635.216	0.0166249
635.294	0.0167139
635.372	0.0166279
635.450	0.0165600
635.529	0.0164177
635.607	0.0166249
635.685	0.0167417
635.763	0.0165770
635.841	0.0165484
635.919	0.0164598
635.997	0.0163208
636.075	0.0164342
636.154	0.0164251
636.232	0.0164297
636.310	0.0163022
636.388	0.0163609
636.466	0.0163705
636.544	0.0162650
636.622	0.0163049
636.700	0.0163247
636.779	0.0163200
636.857	0.0164271
636.935	0.0164079
637.013	0.0164796
637.091	0.0165495
637.169	0.0166375
637.247	0.0166435
637.325	0.0166832
637.404	0.0167687
637.482	0.0168816
637.560	0.0168627
637.638	0.0168962
637.716	0.0169485
637.794	0.0171607
637.872	0.0170102
637.950	0.0170218
638.029	0.0171444
638.107	0.0171989
638.185	0.0169019
638.263	0.0169855
638.341	0.0170628
638.419	0.0169251
638.497	0.0167388
638.575	0.0167030
638.654	0.0166380
638.732	0.0166071
638.810	0.0163754
638.888	0.0162870
638.966	0.0163428
639.044	0.0163068
639.122	0.0160213
639.200	0.0161275
639.279	0.0159508
639.357	0.0160516
639.435	0.0159174
639.513	0.0159994
639.591	0.0159367
639.669	0.0159206
639.747	0.0159618
639.825	0.0159338
639.904	0.0161472
639.982	0.0163708
640.060	0.0162936
640.138	0.0162271
640.216	0.0163548
640.294	0.0163503
640.372	0.0165829
640.450	0.0166502
640.529	0.0165925
640.607	0.0166007
640.685	0.0167566
640.763	0.0167141
640.841	0.0167744
640.919	0.0168059
640.997	0.0168653
641.075	0.0169770
641.154	0.0169617
641.232	0.0169397
641.310	0.0170114
641.388	0.0170604
641.466	0.0169898
641.544	0.0172963
641.622	0.0171769
641.700	0.0170364
641.779	0.0170681
641.857	0.0170222
641.935	0.0169688
642.013	0.0169191
642.091	0.0168546
642.169	0.0167185
642.247	0.0166472
642.325	0.0166624
642.404	0.0164880
642.482	0.0163322
642.560	0.0162244
642.638	0.0161446
642.716	0.0160969
642.794	0.0158749
642.872	0.0157567
642.950	0.0157679
643.029	0.0158853
643.107	0.0158212
643.185	0.0157812
643.263	0.0158682
643.341	0.0158437
643.419	0.0158402
643.497	0.0160007
643.575	0.0161136
643.654	0.0160062
643.732	0.0162552
643.810	0.0162588
643.888	0.0162450
643.966	0.0164473
644.044	0.0165858
644.122	0.0167402
644.200	0.0167661
644.279	0.0169144
644.357	0.0169524
644.435	0.0170670
644.513	0.0170064
644.591	0.0171014
644.669	0.0171364
644.747	0.0172359
644.825	0.0172334
644.904	0.0171745
644.982	0.0172599
645.060	0.0173505
645.138	0.0171413
645.216	0.0171355
645.294	0.0170535
645.372	0.0171128
645.450	0.0169997
645.529	0.0169390
645.607	0.0168357
645.685	0.0168327
645.763	0.0167858
645.841	0.0166899
645.919	0.0165517
645.997	0.0165121
646.075	0.0163706
646.154	0.0163501
646.232	0.0162572
646.310	0.0162302
646.388	0.0161906
646.466	0.0159827
646.544	0.0159253
646.622	0.0157365
646.700	0.0155552
646.779	0.0155145
646.857	0.0154765
646.935	0.0153525
647.013	0.0155208
647.091	0.0154343
647.169	0.0154924
647.247	0.0157066
647.325	0.0154864
647.404	0.0156939
647.482	0.0158842
647.560	0.0159881
647.638	0.0160934
647.716	0.0163667
647.794	0.0164704
647.872	0.0168020
647.950	0.0168684
648.029	0.0170490
648.107	0.0172024
648.185	0.0172776
648.263	0.0173753
648.341	0.0174044
648.419	0.0176191
648.497	0.0176275
648.575	0.0175790
648.654	0.0175165
648.732	0.0173951
648.810	0.0174435
648.888	0.0174690
648.966	0.0173966
649.044	0.0171178
649.122	0.0170970
649.200	0.0170486
649.279	0.0168619
649.357	0.0168133
649.435	0.0167330
649.513	0.0165996
649.591	0.0166664
649.669	0.0165003
649.747	0.0164279
649.825	0.0163774
649.904	0.0161253
649.982	0.0162379
650.060	0.0162952
650.138	0.0160689
650.216	0.0159373
650.294	0.0158662
650.372	0.0158439
650.450	0.0157844
650.529	0.0156708
650.607	0.0157693
650.685	0.0156349
650.763	0.0156102
650.841	0.0156805
650.919	0.0156367
650.997	0.0156808
651.075	0.0156824
651.154	0.0156535
651.232	0.0156855
651.310	0.0158534
651.388	0.0159009
651.466	0.0159244
651.544	0.0161535
651.622	0.0162530
651.700	0.0164683
651.779	0.0165411
651.857	0.0166550
651.935	0.0167656
652.013	0.0168572
652.091	0.0169816
652.169	0.0170511
652.247	0.0171101
652.325	0.0171392
652.404	0.0170947
652.482	0.0172118
652.560	0.0171768
652.638	0.0172060
652.716	0.0171652
652.794	0.0169518
652.872	0.0168742
652.950	0.0170210
653.029	0.0167688
653.107	0.0168488
653.185	0.0167095
653.263	0.0167056
653.341	0.0166055
653.419	0.0165871
653.497	0.0163953
653.575	0.0165342
653.654	0.0165267
653.732	0.0165117
653.810	0.0163248
653.888	0.0164241
653.966	0.0162485
654.044	0.0160699
654.122	0.0162943
654.200	0.0162862
654.279	0.0162786
654.357	0.0162415
654.435	0.0162189
654.513	0.0163351
654.591	0.0162846
654.669	0.0163298
654.747	0.0164655
654.825	0.0163163
654.904	0.0162577
654.982	0.0163088
655.060	0.0164411
655.138	0.0162984
655.216	0.0164046
655.294	0.0163680
655.372	0.0163359
655.450	0.0163380
655.529	0.0162570
655.607	0.0161517
655.685	0.0160808
655.763	0.0161282
655.841	0.0160880
655.919	0.0162601
655.997	0.0161429
656.075	0.0160825
656.154	0.0160957
656.232	0.0162397
656.310	0.0162818
656.388	0.0161788
656.466	0.0161567
656.544	0.0163065
656.622	0.0165424
656.700	0.0164725
656.779	0.0166107
656.857	0.0166190
656.935	0.0166196
657.013	0.0167039
657.091	0.0167020
657.169	0.0166553
657.247	0.0168340
657.325	0.0168646
657.404	0.0168483
657.482	0.0168697
657.560	0.0170181
657.638	0.0168703
657.716	0.0167429
657.794	0.0168500
657.872	0.0168903
657.950	0.0168027
658.029	0.0168831
658.107	0.0168043
658.185	0.0168240
658.263	0.0167194
658.341	0.0167666
658.419	0.0165000
658.497	0.0165919
658.575	0.0163972
658.654	0.0165013
658.732	0.0164610
658.810	0.0164545
658.888	0.0163924
658.966	0.0164629
659.044	0.0164308
659.122	0.0164155
659.200	0.0164134
659.279	0.0163551
659.357	0.0162820
659.435	0.0163679
659.513	0.0164466
659.591	0.0165623
659.669	0.0163961
659.747	0.0164474
659.825	0.0165761
659.904	0.0163922
659.982	0.0164448
660.060	0.0164996
660.138	0.0165083
660.216	0.0164865
660.294	0.0164357
660.372	0.0164247
660.450	0.0164757
660.529	0.0163893
660.607	0.0164764
660.685	0.0163348
660.763	0.0163016
660.841	0.0163681
660.919	0.0164265
660.997	0.0162289
661.075	0.0163798
661.154	0.0162733
661.232	0.0162094
661.310	0.0163132
661.388	0.0162094
661.466	0.0159930
661.544	0.0159621
661.622	0.0160663
661.700	0.0160591
661.779	0.0160168
661.857	0.0159815
661.935	0.0161652
662.013	0.0162607
662.091	0.0163660
662.169	0.0167345
662.247	0.0169439
662.325	0.0169535
662.404	0.0172994
662.482	0.0174188
662.560	0.0176080
662.638	0.0177700
662.716	0.0177206
662.794	0.0176748
662.872	0.0176404
662.950	0.0174046
663.029	0.0171463
663.107	0.0169569
663.185	0.0166379
663.263	0.0163121
663.341	0.0161639
663.419	0.0159631
663.497	0.0158540
663.575	0.0158337
663.654	0.0156548
663.732	0.0157214
663.810	0.0160702
663.888	0.0160978
663.966	0.0161282
664.044	0.0163892
664.122	0.0164024
664.200	0.0164568
664.279	0.0164111
664.357	0.0165731
664.435	0.0164926
664.513	0.0164124
664.591	0.0165051
664.669	0.0163347
664.747	0.0164707
664.825	0.0164842
664.904	0.0164598
664.982	0.0164912
665.060	0.0167773
665.138	0.0169148
665.216	0.0169550
665.294	0.0171485
665.372	0.0171713
665.450	0.0172595
665.529	0.0170380
665.607	0.0170267
665.685	0.0169234
665.763	0.0167155
665.841	0.0166820
665.919	0.0163496
665.997	0.0163243
666.075	0.0161710
666.154	0.0159241
666.232	0.0158373
666.310	0.0159222
666.388	0.0159422
666.466	0.0159122
666.544	0.0159064
666.622	0.0159534
666.700	0.0159148
666.779	0.0159607
666.857	0.0158372
666.935	0.0157674
667.013	0.0156922
667.091	0.0154482
667.169	0.0154802
667.247	0.0154806
667.325	0.0153690
667.404	0.0155566
667.482	0.0155873
667.560	0.0158413
667.638	0.0161835
667.716	0.0164446
667.794	0.0166897
667.872	0.0171707
667.950	0.0176431
668.029	0.0179914
668.107	0.0182482
668.185	0.0184756
668.263	0.0186926
668.341	0.0188129
668.419	0.0190246
668.497	0.0189263
668.575	0.0188724
668.654	0.0186392
668.732	0.0184396
668.810	0.0181871
668.888	0.0179255
668.966	0.0174537
669.044	0.0171746
669.122	0.0169897
669.200	0.0166933
669.279	0.0162595
669.357	0.0157499
669.435	0.0153778
669.513	0.0152721
669.591	0.0147565
669.669	0.0144975
669.747	0.0142565
669.825	0.0139189
669.904	0.0136519
669.982	0.0136629
670.060	0.0136234
670.138	0.0134559
670.216	0.0134922
670.294	0.0136513
670.372	0.0139803
670.450	0.0143738
670.529	0.0147734
670.607	0.0151537
670.685	0.0156837
670.763	0.0163684
670.841	0.0169985
670.919	0.0175340
670.997	0.0182928
671.075	0.0187086
671.154	0.0192149
671.232	0.0195642
671.310	0.0197566
671.388	0.0198748
671.466	0.0198448
671.544	0.0196403
671.622	0.0194207
671.700	0.0187325
671.779	0.0182953
671.857	0.0178552
671.935	0.0172636
672.013	0.0167924
672.091	0.0160370
672.169	0.0158344
672.247	0.0154451
672.325	0.0150867
672.404	0.0148647
672.482	0.0147446
672.560	0.0148412
672.638	0.0146284
672.716	0.0145065
672.794	0.0148529
672.872	0.0149448
672.950	0.0151591
673.029	0.0152152
673.107	0.0153403
673.185	0.0156185
673.263	0.0158530
673.341	0.0160757
673.419	0.0163927
673.497	0.0166634
673.575	0.0169170
673.654	0.0175222
673.732	0.0177727
673.810	0.0177421
673.888	0.0180869
673.966	0.0182693
674.044	0.0182860
674.122	0.0183546
674.200	0.0183628
674.279	0.0181435
674.357	0.0178938
674.435	0.0174052
674.513	0.0171490
674.591	0.0168987
674.669	0.0165839
674.747	0.0161217
674.825	0.0157535
674.904	0.0155775
674.982	0.0153087
675.060	0.0152289
675.138	0.0151675
675.216	0.0150048
675.294	0.0148798
675.372	0.0148351
675.450	0.0147431
675.529	0.0147643
675.607	0.0147529
675.685	0.0145792
675.763	0.0145712
675.841	0.0147172
675.919	0.0149071
675.997	0.0149175
676.075	0.0152534
676.154	0.0155927
676.232	0.0159740
676.310	0.0165041
676.388	0.0169766
676.466	0.0174754
676.544	0.0179947
676.622	0.0182735
676.700	0.0186269
676.779	0.0188958
676.857	0.0190116
676.935	0.0189499
677.013	0.0189415
677.091	0.0186301
677.169	0.0186686
677.247	0.0184750
677.325	0.0183357
677.404	0.0181593
677.482	0.0181055
677.560	0.0178153
677.638	0.0178825
677.716	0.0177862
677.794	0.0176390
677.872	0.0174831
677.950	0.0172092
678.029	0.0170804
678.107	0.0167014
678.185	0.0162980
678.263	0.0157838
678.341	0.0153246
678.419	0.0147556
678.497	0.0143231
678.575	0.0140481
678.654	0.0137072
678.732	0.0136688
678.810	0.0135735
678.888	0.0136311
678.966	0.0137730
679.044	0.0141005
679.122	0.0143514
679.200	0.0148985
679.279	0.0149814
679.357	0.0152971
679.435	0.0155720
679.513	0.0158428
679.591	0.0159311
679.669	0.0160098
679.747	0.0158321
679.825	0.0159138
679.904	0.0160193
679.982	0.0162000
680.060	0.0163275
680.138	0.0164802
680.216	0.0170451
680.294	0.0174136
680.372	0.0177402
680.450	0.0181145
680.529	0.0186258
680.607	0.0190059
680.685	0.0193507
680.763	0.0194730
680.841	0.0194598
680.919	0.0194926
680.997	0.0193056
681.075	0.0190767
681.154	0.0187554
681.232	0.0186174
681.310	0.0181874
681.388	0.0180052
681.466	0.0176682
681.544	0.0174089
681.622	0.0171172
681.700	0.0169288
681.779	0.0166843
681.857	0.0162663
681.935	0.0159170
682.013	0.0155598
682.091	0.0153047
682.169	0.0148748
682.247	0.0146188
682.325	0.0144406
682.404	0.0143665
682.482	0.0142750
682.560	0.0141683
682.638	0.0143462
682.716	0.0145928
682.794	0.0148245
682.872	0.0150305
682.950	0.0153099
683.029	0.0155786
683.107	0.0155701
683.185	0.0159743
683.263	0.0161541
683.341	0.0162923
683.419	0.0161739
683.497	0.0162902
683.575	0.0162993
683.654	0.0164244
683.732	0.0162802
683.810	0.0162257
683.888	0.0161626
683.966	0.0160593
684.044	0.0158915
684.122	0.0159042
684.200	0.0160181
684.279	0.0159901
684.357	0.0160794
684.435	0.0161575
684.513	0.0163387
684.591	0.0165786
684.669	0.0168330
684.747	0.0170397
684.825	0.0174722
684.904	0.0177346
684.982	0.0180368
685.060	0.0181601
685.138	0.0183713
685.216	0.0185365
685.294	0.0186491
685.372	0.0184150
685.450	0.0183522
685.529	0.0182354
685.607	0.0179623
685.685	0.0176070
685.763	0.0174902
685.841	0.0171928
685.919	0.0170480
685.997	0.0167171
686.075	0.0166992
686.154	0.0166010
686.232	0.0166131
686.310	0.0165912
686.388	0.0165938
686.466	0.0167140
686.544	0.0166315
686.622	0.0165800
686.700	0.0163583
686.779	0.0162708
686.857	0.0161552
686.935	0.0160918
687.013	0.0157192
687.091	0.0155754
687.169	0.0155554
687.247	0.0153720
687.325	0.0154375
687.404	0.0152888
687.482	0.0154021
687.560	0.0152460
687.638	0.0153349
687.716	0.0152757
687.794	0.0152312
687.872	0.0152807
687.950	0.0150729
688.029	0.0150494
688.107	0.0149638
688.185	0.0148837
688.263	0.0150518
688.341	0.0152302
688.419	0.0156373
688.497	0.0160757
688.575	0.0166270
688.654	0.0171406
688.732	0.0176496
688.810	0.0181125
688.888	0.0185062
688.966	0.0188381
689.044	0.0191088
689.122	0.0189642
689.200	0.0187249
689.279	0.0186060
689.357	0.0181826
689.435	0.0177456
689.513	0.0173125
689.591	0.0170707
689.669	0.0164331
689.747	0.0160413
689.825	0.0159632
689.904	0.0156274
689.982	0.0153403
690.060	0.0154572
690.138	0.0155915
690.216	0.0154518
690.294	0.0155266
690.372	0.0155722
690.450	0.0157874
690.529	0.0159692
690.607	0.0160239
690.685	0.0158569
690.763	0.0160007
690.841	0.0160989
690.919	0.0161549
690.997	0.0159976
691.075	0.0160687
691.154	0.0161735
691.232	0.0161928
691.310	0.0162369
691.388	0.0164195
691.466	0.0162843
691.544	0.0163171
691.622	0.0165170
691.700	0.0164206
691.779	0.0166647
691.857	0.0166592
691.935	0.0169542
692.013	0.0170069
692.091	0.0171745
692.169	0.0172285
692.247	0.0175799
692.325	0.0179456
692.404	0.0183645
692.482	0.0185781
692.560	0.0186938
692.638	0.0189452
692.716	0.0192049
692.794	0.0191558
692.872	0.0191138
692.950	0.0189014
693.029	0.0188647
693.107	0.0184836
693.185	0.0181647
693.263	0.0178069
693.341	0.0171998
693.419	0.0168024
693.497	0.0162977
693.575	0.0158167
693.654	0.0152943
693.732	0.0149500
693.810	0.0144311
693.888	0.0142533
693.966	0.0139381
694.044	0.0137925
694.122	0.0138213
694.200	0.0138005
694.279	0.0140104
694.357	0.0140931
694.435	0.0145813
694.513	0.0147787
694.591	0.0153330
694.669	0.0156917
694.747	0.0158535
694.825	0.0161478
694.904	0.0161952
694.982	0.0164050
695.060	0.0161831
695.138	0.0160661
695.216	0.0158409
695.294	0.0158046
695.372	0.0156258
695.450	0.0158299
695.529	0.0157053
695.607	0.0157201
695.685	0.0160061
695.763	0.0162888
695.841	0.0164275
695.919	0.0168048
695.997	0.0169769
696.075	0.0170640
696.154	0.0171958
696.232	0.0173228
696.310	0.0173477
696.388	0.0173808
696.466	0.0173408
696.544	0.0173927
696.622	0.0173017
696.700	0.0173586
696.779	0.0174339
696.857	0.0174221
696.935	0.0174852
697.013	0.0175084
697.091	0.0175625
697.169	0.0175115
697.247	0.0173051
697.325	0.0170958
697.404	0.0170262
697.482	0.0167904
697.560	0.0163797
697.638	0.0161372
697.716	0.0158946
697.794	0.0157116
697.872	0.0157247
697.950	0.0156106
698.029	0.0157491
698.107	0.0159228
698.185	0.0162547
698.263	0.0164772
698.341	0.0167819
698.419	0.0171107
698.497	0.0174181
698.575	0.0177073
698.654	0.0179076
698.732	0.0180305
698.810	0.0182221
698.888	0.0183648
698.966	0.0185545
699.044	0.0186215
699.122	0.0186183
699.200	0.0188396
699.279	0.0189519
699.357	0.0191820
699.435	0.0193015
699.513	0.0193080
699.591	0.0192757
699.669	0.0191563
699.747	0.0189841
699.825	0.0186823
699.904	0.0180877
699.982	0.0176802
700.060	0.0166888
700.138	0.0161172
700.216	0.0152708
700.294	0.0145674
700.372	0.0137473
700.450	0.0129990
700.529	0.0123961
700.607	0.0122108
700.685	0.0118765
700.763	0.0116657
700.841	0.0115991
700.919	0.0118042
700.997	0.0121519
701.075	0.0123539
701.154	0.0126031
701.232	0.0130311
701.310	0.0133884
701.388	0.0138579
701.466	0.0142506
701.544	0.0147753
701.622	0.0149488
701.700	0.0153481
701.779	0.0155872
701.857	0.0158619
701.935	0.0160836
702.013	0.0162253
702.091	0.0164121
702.169	0.0166215
702.247	0.0167376
702.325	0.0166962
702.404	0.0169683
702.482	0.0171721
702.560	0.0172736
702.638	0.0175658
702.716	0.0177261
702.794	0.0180484
702.872	0.0184692
702.950	0.0187469
703.029	0.0188507
703.107	0.0190992
703.185	0.0193318
703.263	0.0194525
703.341	0.0192158
703.419	0.0191352
703.497	0.0190141
703.575	0.0190269
703.654	0.0188011
703.732	0.0185578
703.810	0.0182234
703.888	0.0182754
703.966	0.0181048
704.044	0.0180135
704.122	0.0177462
704.200	0.0177143
704.279	0.0176285
704.357	0.0176528
704.435	0.0175750
704.513	0.0174918
704.591	0.0173893
704.669	0.0173777
704.747	0.0172219
704.825	0.0172616
704.904	0.0171859
704.982	0.0171537
705.060	0.0171543
705.138	0.0170826
705.216	0.0170383
705.294	0.0171399
705.372	0.0173151
705.450	0.0174591
705.529	0.0173088
705.607	0.0173565
705.685	0.0173761
705.763	0.0171033
705.841	0.0167935
705.919	0.0165324
705.997	0.0163573
706.075	0.0161131
706.154	0.0155947
706.232	0.0150791
706.310	0.0146236
706.388	0.0142388
706.466	0.0140389
706.544	0.0136845
706.622	0.0132203
706.700	0.0131371
706.779	0.0128651
706.857	0.0127635
706.935	0.0128194
707.013	0.0126306
707.091	0.0126862
707.169	0.0129787
707.247	0.0131761
707.325	0.0132211
707.404	0.0133482
707.482	0.0136991
707.560	0.0138582
707.638	0.0143330
707.716	0.0145848
707.794	0.0149911
707.872	0.0152821
707.950	0.0155573
708.029	0.0158398
708.107	0.0161225
708.185	0.0163892
708.263	0.0167062
708.341	0.0170917
708.419	0.0171892
708.497	0.0175067
708.575	0.0177525
708.654	0.0178717
708.732	0.0181796
708.810	0.0185251
708.888	0.0186047
708.966	0.0187085
709.044	0.0190997
709.122	0.0191198
709.200	0.0192266
709.279	0.0194765
709.357	0.0195956
709.435	0.0198021
709.513	0.0198659
709.591	0.0198679
709.669	0.0199481
709.747	0.0198767
709.825	0.0196380
709.904	0.0195080
709.982	0.0193328
710.060	0.0190312
710.138	0.0185944
710.216	0.0182113
710.294	0.0177398
710.372	0.0172795
710.450	0.0169336
710.529	0.0164651
710.607	0.0162006
710.685	0.0158568
710.763	0.0156635
710.841	0.0155921
710.919	0.0156570
710.997	0.0155349
711.075	0.0155884
711.154	0.0157493
711.232	0.0160178
711.310	0.0162672
711.388	0.0163534
711.466	0.0164823
711.544	0.0167850
711.622	0.0168390
711.700	0.0169360
711.779	0.0171317
711.857	0.0169395
711.935	0.0168703
712.013	0.0169531
712.091	0.0167763
712.169	0.0166679
712.247	0.0165400
712.325	0.0163906
712.404	0.0162259
712.482	0.0160293
712.560	0.0158511
712.638	0.0157063
712.716	0.0154834
712.794	0.0155567
712.872	0.0151402
712.950	0.0150938
713.029	0.0149921
713.107	0.0148923
713.185	0.0145230
713.263	0.0144580
713.341	0.0143654
713.419	0.0141502
713.497	0.0141690
713.575	0.0141112
713.654	0.0140031
713.732	0.0140398
713.810	0.0140096
713.888	0.0141936
713.966	0.0141171
714.044	0.0143969
714.122	0.0146561
714.200	0.0147252
714.279	0.0149718
714.357	0.0152554
714.435	0.0154589
714.513	0.0157214
714.591	0.0158437
714.669	0.0161664
714.747	0.0164024
714.825	0.0167279
714.904	0.0169422
714.982	0.0172272
715.060	0.0174072
715.138	0.0176378
715.216	0.0180209
715.294	0.0182076
715.372	0.0185971
715.450	0.0187888
715.529	0.0188374
715.607	0.0190732
715.685	0.0192500
715.763	0.0192691
715.841	0.0193018
715.919	0.0193446
715.997	0.0194066
716.075	0.0193929
716.154	0.0191796
716.232	0.0191819
716.310	0.0190662
716.388	0.0189542
716.466	0.0187342
716.544	0.0185394
716.622	0.0183124
716.700	0.0177795
716.779	0.0174958
716.857	0.0172057
716.935	0.0169276
717.013	0.0164466
717.091	0.0160743
717.169	0.0157328
717.247	0.0154528
717.325	0.0154906
717.404	0.0151305
717.482	0.0150372
717.560	0.0151060
717.638	0.0151879
717.716	0.0152813
717.794	0.0155579
717.872	0.0157371
717.950	0.0159137
718.029	0.0160443
718.107	0.0163993
718.185	0.0165982
718.263	0.0168498
718.341	0.0170948
718.419	0.0171571
718.497	0.0173466
718.575	0.0172916
718.654	0.0172961
718.732	0.0173472
718.810	0.0173254
718.888	0.0171816
718.966	0.0169960
719.044	0.0168869
719.122	0.0167336
719.200	0.0163829
719.279	0.0161997
719.357	0.0160559
719.435	0.0157137
719.513	0.0156528
719.591	0.0154367
719.669	0.0152621
719.747	0.0152008
719.825	0.0150246
719.904	0.0149974
719.982	0.0147733
720.060	0.0149776
720.138	0.0149151
720.216	0.0149149
720.294	0.0149820
720.372	0.0150060
720.450	0.0150976
720.529	0.0150657
720.607	0.0151134
720.685	0.0152962
720.763	0.0151877
720.841	0.0150551
720.919	0.0152460
720.997	0.0151836
721.075	0.0151220
721.154	0.0151112
721.232	0.0151589
721.310	0.0153254
721.388	0.0152531
721.466	0.0153043
721.544	0.0156377
721.622	0.0157105
721.700	0.0158986
721.779	0.0160577
721.857	0.0164145
721.935	0.0165715
722.013	0.0169222
722.091	0.0169897
722.169	0.0171703
722.247	0.0176205
722.325	0.0178822
722.404	0.0182876
722.482	0.0184122
722.560	0.0188335
722.638	0.0190788
722.716	0.0191873
722.794	0.0195918
722.872	0.0194615
722.950	0.0195048
723.029	0.0194289
723.107	0.0191505
723.185	0.0189677
723.263	0.0188715
723.341	0.0183799
723.419	0.0179770
723.497	0.0177075
723.575	0.0172981
723.654	0.0171011
723.732	0.0166835
723.810	0.0162722
723.888	0.0162373
723.966	0.0160445
724.044	0.0157352
724.122	0.0158573
724.200	0.0158937
724.279	0.0157636
724.357	0.0158710
724.435	0.0161281
724.513	0.0161227
724.591	0.0163031
724.669	0.0164135
724.747	0.0164490
724.825	0.0166364
724.904	0.0167337
724.982	0.0168156
725.060	0.0168047
725.138	0.0170407
725.216	0.0170522
725.294	0.0172866
725.372	0.0172669
725.450	0.0171329
725.529	0.0170377
725.607	0.0169453
725.685	0.0169111
725.763	0.0167064
725.841	0.0165768
725.919	0.0163255
725.997	0.0161055
726.075	0.0158919
726.154	0.0157668
726.232	0.0154868
726.310	0.0154571
726.388	0.0153845
726.466	0.0152469
726.544	0.0150700
726.622	0.0149476
726.700	0.0151763
726.779	0.0150391
726.857	0.0150366
726.935	0.0151322
727.013	0.0151018
727.091	0.0149238
727.169	0.0150655
727.247	0.0149330
727.325	0.0148142
727.404	0.0149287
727.482	0.0148171
727.560	0.0148834
727.638	0.0147812
727.716	0.0148223
727.794	0.0149123
727.872	0.0148155
727.950	0.0151076
728.029	0.0152915
728.107	0.0153309
728.185	0.0153802
728.263	0.0156213
728.341	0.0157657
728.419	0.0158125
728.497	0.0161362
728.575	0.0163691
728.654	0.0164637
728.732	0.0166785
728.810	0.0168890
728.888	0.0171369
728.966	0.0172728
729.044	0.0175118
729.122	0.0178738
729.200	0.0179824
729.279	0.0181646
729.357	0.0184489
729.435	0.0185800
729.513	0.0187503
729.591	0.0189000
729.669	0.0187990
729.747	0.0188149
729.825	0.0188450
729.904	0.0185981
729.982	0.0185621
730.060	0.0183245
730.138	0.0180533
730.216	0.0177492
730.294	0.0176024
730.372	0.0175776
730.450	0.0173019
730.529	0.0171602
730.607	0.0169839
730.685	0.0170483
730.763	0.0168085
730.841	0.0167874
730.919	0.0167770
730.997	0.0168363
731.075	0.0169608
731.154	0.0169159
731.232	0.0170251
731.310	0.0169589
731.388	0.0170441
731.466	0.0170442
731.544	0.0170341
731.622	0.0171980
731.700	0.0169582
731.779	0.0170035
731.857	0.0170290
731.935	0.0169015
732.013	0.0166644
732.091	0.0165706
732.169	0.0163560
732.247	0.0162975
732.325	0.0161407
732.404	0.0159085
732.482	0.0160690
732.560	0.0159191
732.638	0.0156798
732.716	0.0156792
732.794	0.0156625
732.872	0.0155332
732.950	0.0154653
733.029	0.0154555
733.107	0.0154899
733.185	0.0155142
733.263	0.0155416
733.341	0.0154628
733.419	0.0154935
733.497	0.0154461
733.575	0.0156046
733.654	0.0156380
733.732	0.0157063
733.810	0.0156059
733.888	0.0156348
733.966	0.0155727
734.044	0.0155992
734.122	0.0153380
734.200	0.0156376
734.279	0.0154001
734.357	0.0153237
734.435	0.0152477
734.513	0.0152657
734.591	0.0152191
734.669	0.0153536
734.747	0.0152965
734.825	0.0153439
734.904	0.0153067
734.982	0.0154449
735.060	0.0154940
735.138	0.0156403
735.216	0.0157578
735.294	0.0159052
735.372	0.0161577
735.450	0.0161435
735.529	0.0164238
735.607	0.0166074
735.685	0.0167473
735.763	0.0170711
735.841	0.0173174
735.919	0.0173920
735.997	0.0176067
736.075	0.0179061
736.154	0.0179257
736.232	0.0180924
736.310	0.0183396
736.388	0.0183232
736.466	0.0184975
736.544	0.0183067
736.622	0.0184587
736.700	0.0184196
736.779	0.0183151
736.857	0.0181464
736.935	0.0181332
737.013	0.0180082
737.091	0.0178001
737.169	0.0175628
737.247	0.0173870
737.325	0.0173451
737.404	0.0171622
737.482	0.0170177
737.560	0.0169453
737.638	0.0169929
737.716	0.0169604
737.794	0.0167751
737.872	0.0168264
737.950	0.0168324
738.029	0.0169146
738.107	0.0169419
738.185	0.0171075
738.263	0.0170373
738.341	0.0169376
738.419	0.0170945
738.497	0.0171544
738.575	0.0171294
738.654	0.0170891
738.732	0.0169546
738.810	0.0170667
738.888	0.0169180
738.966	0.0166710
739.044	0.0165329
739.122	0.0165829
739.200	0.0163648
739.279	0.0161823
739.357	0.0158617
739.435	0.0158800
739.513	0.0157610
739.591	0.0156048
739.669	0.0154318
739.747	0.0153519
739.825	0.0154140
739.904	0.0151292
739.982	0.0149648
740.060	0.0150758
740.138	0.0152710
740.216	0.0152596
740.294	0.0152489
740.372	0.0152435
740.450	0.0153139
740.529	0.0153699
740.607	0.0154314
740.685	0.0154280
740.763	0.0153732
740.841	0.0155399
740.919	0.0154929
740.997	0.0155725
741.075	0.0155682
741.154	0.0155750
741.232	0.0156925
741.310	0.0156940
741.388	0.0157285
741.466	0.0157439
741.544	0.0159027
741.622	0.0159984
741.700	0.0160214
741.779	0.0161280
741.857	0.0163635
741.935	0.0164070
742.013	0.0164837
742.091	0.0165684
742.169	0.0167473
742.247	0.0168105
742.325	0.0169003
742.404	0.0170071
742.482	0.0171240
742.560	0.0170237
742.638	0.0170734
742.716	0.0172084
742.794	0.0171586
742.872	0.0170864
742.950	0.0172593
743.029	0.0172929
743.107	0.0173480
743.185	0.0173103
743.263	0.0174291
743.341	0.0173830
743.419	0.0173817
743.497	0.0175044
743.575	0.0174873
743.654	0.0174744
743.732	0.0172565
743.810	0.0173088
743.888	0.0171736
743.966	0.0171320
744.044	0.0169703
744.122	0.0169656
744.200	0.0168911
744.279	0.0168391
744.357	0.0168652
744.435	0.0167992
744.513	0.0167735
744.591	0.0167197
744.669	0.0168818
744.747	0.0167459
744.825	0.0167592
744.904	0.0168803
744.982	0.0168254
745.060	0.0169012
745.138	0.0170091
745.216	0.0170557
745.294	0.0169386
745.372	0.0170805
745.450	0.0170409
745.529	0.0170140
745.607	0.0171053
745.685	0.0168495
745.763	0.0168600
745.841	0.0169299
745.919	0.0167565
745.997	0.0166543
746.075	0.0166345
746.154	0.0165411
746.232	0.0165720
746.310	0.0163070
746.388	0.0163274
746.466	0.0162698
746.544	0.0162107
746.622	0.0162646
746.700	0.0161889
746.779	0.0161656
746.857	0.0160122
746.935	0.0160858
747.013	0.0160838
747.091	0.0158690
747.169	0.0159803
747.247	0.0160386
747.325	0.0158271
747.404	0.0157281
747.482	0.0156556
747.560	0.0156200
747.638	0.0156786
747.716	0.0155680
747.794	0.0154797
747.872	0.0154427
747.950	0.0155154
748.029	0.0155426
748.107	0.0153079
748.185	0.0154221
748.263	0.0155573
748.341	0.0155932
748.419	0.0155853
748.497	0.0156284
748.575	0.0157423
748.654	0.0157363
748.732	0.0159243
748.810	0.0157719
748.888	0.0160006
748.966	0.0160817
749.044	0.0159976
749.122	0.0162706
749.200	0.0164576
749.279	0.0164857
749.357	0.0164999
749.435	0.0166688
749.513	0.0166880
749.591	0.0168634
749.669	0.0169065
749.747	0.0168498
749.825	0.0168073
749.904	0.0168566
749.982	0.0169759
750.060	0.0171115
750.138	0.0170987
750.216	0.0170642
750.294	0.0170008
750.372	0.0171488
750.450	0.0171719
750.529	0.0172237
750.607	0.0173148
750.685	0.0172566
750.763	0.0171657
750.841	0.0172244
750.919	0.0173769
750.997	0.0171642
751.075	0.0171819
751.154	0.0172323
751.232	0.0171843
751.310	0.0170887
751.388	0.0171539
751.466	0.0170290
751.544	0.0170721
751.622	0.0171095
751.700	0.0168964
751.779	0.0169003
751.857	0.0169302
751.935	0.0167822
752.013	0.0169007
752.091	0.0168956
752.169	0.0169142
752.247	0.0169125
752.325	0.0167898
752.404	0.0168549
752.482	0.0168853
752.560	0.0168762
752.638	0.0167098
752.716	0.0168920
752.794	0.0169758
752.872	0.0168784
752.950	0.0168591
753.029	0.0169171
753.107	0.0167649
753.185	0.0167177
753.263	0.0167298
753.341	0.0165198
753.419	0.0165704
753.497	0.0166264
753.575	0.0164347
753.654	0.0163291
753.732	0.0163319
753.810	0.0162360
753.888	0.0162146
753.966	0.0162104
754.044	0.0159892
754.122	0.0158429
754.200	0.0158894
754.279	0.0157449
754.357	0.0156319
754.435	0.0157198
754.513	0.0157486
754.591	0.0156055
754.669	0.0156038
754.747	0.0155656
754.825	0.0154941
754.904	0.0154777
754.982	0.0155431
755.060	0.0156786
755.138	0.0155614
755.216	0.0156663
755.294	0.0158101
755.372	0.0157525
755.450	0.0156362
755.529	0.0157036
755.607	0.0158137
755.685	0.0158355
755.763	0.0158962
755.841	0.0159856
755.919	0.0158810
755.997	0.0159974
756.075	0.0161954
756.154	0.0161867
756.232	0.0161210
756.310	0.0162651
756.388	0.0162143
756.466	0.0163319
756.544	0.0164509
756.622	0.0164265
756.700	0.0164964
756.779	0.0165710
756.857	0.0166243
756.935	0.0167403
757.013	0.0167562
757.091	0.0169500
757.169	0.0168777
757.247	0.0168951
757.325	0.0170377
757.404	0.0169579
757.482	0.0170238
757.560	0.0172127
757.638	0.0172652
757.716	0.0170308
757.794	0.0172242
757.872	0.0172649
757.950	0.0173650
758.029	0.0172145
758.107	0.0173880
758.185	0.0172093
758.263	0.0171921
758.341	0.0174130
758.419	0.0172844
758.497	0.0171880
758.575	0.0173471
758.654	0.0170877
758.732	0.0171227
758.810	0.0171762
758.888	0.0171468
758.966	0.0170413
759.044	0.0170827
759.122	0.0170489
759.200	0.0169679
759.279	0.0169833
759.357	0.0168476
759.435	0.0167520
759.513	0.0168311
759.591	0.0167915
759.669	0.0167530
759.747	0.0167491
759.825	0.0166936
759.904	0.0166729
759.982	0.0165658
760.060	0.0165165
760.138	0.0166449
760.216	0.0164915
760.294	0.0164675
760.372	0.0163964
760.450	0.0162689
760.529	0.0163491
760.607	0.0162802
760.685	0.0162493
760.763	0.0162209
760.841	0.0160617
760.919	0.0161770
760.997	0.0161300
761.075	0.0159947
761.154	0.0160390
761.232	0.0160783
761.310	0.0160387
761.388	0.0158992
761.466	0.0159361
761.544	0.0160030
761.622	0.0158465
761.700	0.0159391
761.779	0.0159209
761.857	0.0159684
761.935	0.0157899
762.013	0.0156135
762.091	0.0157343
762.169	0.0158720
762.247	0.0158736
762.325	0.0157947
762.404	0.0157162
762.482	0.0157584
762.560	0.0159015
762.638	0.0159102
762.716	0.0159222
762.794	0.0159499
762.872	0.0160193
762.950	0.0160846
763.029	0.0160303
763.107	0.0160954
763.185	0.0160990
763.263	0.0161077
763.341	0.0160662
763.419	0.0161124
763.497	0.0159451
763.575	0.0160812
763.654	0.0162868
763.732	0.0163115
763.810	0.0162801
763.888	0.0162816
763.966	0.0163241
764.044	0.0163586
764.122	0.0164206
764.200	0.0165855
764.279	0.0164627
764.357	0.0166913
764.435	0.0167840
764.513	0.0168037
764.591	0.0168953
764.669	0.0170605
764.747	0.0170900
764.825	0.0170789
764.904	0.0171806
764.982	0.0171784
765.060	0.0171552
765.138	0.0174229
765.216	0.0173013
765.294	0.0173949
765.372	0.0174901
765.450	0.0172337
765.529	0.0173418
765.607	0.0172591
765.685	0.0173379
765.763	0.0173251
765.841	0.0172600
765.919	0.0171651
765.997	0.0171235
766.075	0.0169006
766.154	0.0169855
766.232	0.0168476
766.310	0.0169118
766.388	0.0169067
766.466	0.0167435
766.544	0.0166584
766.622	0.0166470
766.700	0.0165878
766.779	0.0165335
766.857	0.0164930
766.935	0.0165925
767.013	0.0165430
767.091	0.0166692
767.169	0.0165681
767.247	0.0165274
767.325	0.0165102
767.404	0.0166422
767.482	0.0166177
767.560	0.0165902
767.638	0.0165949
767.716	0.0165926
767.794	0.0165232
767.872	0.0166284
767.950	0.0166207
768.029	0.0165099
768.107	0.0163779
768.185	0.0164503
768.263	0.0163621
768.341	0.0163828
768.419	0.0162923
768.497	0.0163107
768.575	0.0160160
768.654	0.0160868
768.732	0.0158938
768.810	0.0158393
768.888	0.0157713
768.966	0.0157241
769.044	0.0157528
769.122	0.0156666
769.200	0.0155698
769.279	0.0154858
769.357	0.0155101
769.435	0.0156704
769.513	0.0156526
769.591	0.0157327
769.669	0.0156184
769.747	0.0156735
769.825	0.0159651
769.904	0.0159824
769.982	0.0160458
770.060	0.0160124
770.138	0.0162146
770.216	0.0163386
770.294	0.0163767
770.372	0.0164383
770.450	0.0164099
770.529	0.0165155
770.607	0.0166434
770.685	0.0165804
770.763	0.0166972
770.841	0.0166525
770.919	0.0166939
770.997	0.0167633
771.075	0.0167007
771.154	0.0167365
771.232	0.0166759
771.310	0.0167592
771.388	0.0167761
771.466	0.0167500
771.544	0.0166896
771.622	0.0168143
771.700	0.0167612
771.779	0.0166273
771.857	0.0168606
771.935	0.0167158
772.013	0.0167564
772.091	0.0167781
772.169	0.0167500
772.247	0.0168376
772.325	0.0167307
772.404	0.0168161
772.482	0.0169862
772.560	0.0169602
772.638	0.0170012
772.716	0.0170778
772.794	0.0170274
772.872	0.0170606
772.950	0.0172039
773.029	0.0171281
773.107	0.0172390
773.185	0.0171724
773.263	0.0173190
773.341	0.0172419
773.419	0.0171711
773.497	0.0172196
773.575	0.0171765
773.654	0.0171581
773.732	0.0172839
773.810	0.0171958
773.888	0.0172232
773.966	0.0171836
774.044	0.0170711
774.122	0.0170271
774.200	0.0169822
774.279	0.0169955
774.357	0.0168909
774.435	0.0168355
774.513	0.0167561
774.591	0.0165525
774.669	0.0164560
774.747	0.0163336
774.825	0.0162981
774.904	0.0161926
774.982	0.0161111
775.060	0.0160843
775.138	0.0160777
775.216	0.0159518
775.294	0.0159948
775.372	0.0159850
775.450	0.0158015
775.529	0.0157919
775.607	0.0159159
775.685	0.0158711
775.763	0.0159039
775.841	0.0157936
775.919	0.0158862
775.997	0.0157520
776.075	0.0157702
776.154	0.0158463
776.232	0.0156233
776.310	0.0158173
776.388	0.0158919
776.466	0.0159011
776.544	0.0158952
776.622	0.0158249
776.700	0.0160733
776.779	0.0160799
776.857	0.0161940
776.935	0.0161714
777.013	0.0161372
777.091	0.0163108
777.169	0.0163334
777.247	0.0163377
777.325	0.0164873
777.404	0.0164724
777.482	0.0166007
777.560	0.0166551
777.638	0.0167950
777.716	0.0169019
777.794	0.0167972
777.872	0.0167809
777.950	0.0167379
778.029	0.0168336
778.107	0.0168639
778.185	0.0168099
778.263	0.0167242
778.341	0.0166528
778.419	0.0167037
778.497	0.0165630
778.575	0.0165579
778.654	0.0165627
778.732	0.0166324
778.810	0.0165438
778.888	0.0166476
778.966	0.0165220
779.044	0.0166474
779.122	0.0165989
779.200	0.0166740
779.279	0.0166904
779.357	0.0167246
779.435	0.0166384
779.513	0.0168475
779.591	0.0167973
779.669	0.0168851
779.747	0.0166743
779.825	0.0167774
779.904	0.0167268
779.982	0.0168376
780.060	0.0168151
780.138	0.0167400
780.216	0.0168320
780.294	0.0168861
780.372	0.0169159
780.450	0.0169447
780.529	0.0168227
780.607	0.0168616
780.685	0.0170109
780.763	0.0167871
780.841	0.0167415
780.919	0.0169576
780.997	0.0168510
781.075	0.0166445
781.154	0.0168302
781.232	0.0167463
781.310	0.0166795
781.388	0.0167081
781.466	0.0167442
781.544	0.0167937
781.622	0.0167318
781.700	0.0165764
781.779	0.0167175
781.857	0.0167691
781.935	0.0165498
782.013	0.0164409
782.091	0.0165092
782.169	0.0165779
782.247	0.0164074
782.325	0.0164199
782.404	0.0164418
782.482	0.0163963
782.560	0.0161720
782.638	0.0163366
782.716	0.0162180
782.794	0.0162953
782.872	0.0162904
782.950	0.0161191
783.029	0.0162634
783.107	0.0161037
783.185	0.0161961
783.263	0.0160659
783.341	0.0161593
783.419	0.0162362
783.497	0.0160729
783.575	0.0160847
783.654	0.0161841
783.732	0.0162124
783.810	0.0160244
783.888	0.0159604
783.966	0.0161277
784.044	0.0161559
784.122	0.0160899
784.200	0.0161301
784.279	0.0160270
784.357	0.0162017
784.435	0.0162003
784.513	0.0160754
784.591	0.0161060
784.669	0.0161590
784.747	0.0164291
784.825	0.0163326
784.904	0.0164115
784.982	0.0163915
785.060	0.0162407
785.138	0.0162988
785.216	0.0163686
785.294	0.0165874
785.372	0.0165007
785.450	0.0165363
785.529	0.0165921
785.607	0.0164972
785.685	0.0165593
785.763	0.0166182
785.841	0.0167494
785.919	0.0166913
785.997	0.0167611
786.075	0.0167891
786.154	0.0167894
786.232	0.0169384
786.310	0.0169054
786.388	0.0169012
786.466	0.0170401
786.544	0.0170659
786.622	0.0170762
786.700	0.0170769
786.779	0.0170104
786.857	0.0168780
786.935	0.0169878
787.013	0.0170737
787.091	0.0169981
787.169	0.0168057
787.247	0.0168170
787.325	0.0168353
787.404	0.0168472
787.482	0.0167535
787.560	0.0168082
787.638	0.0167581
787.716	0.0167119
787.794	0.0165746
787.872	0.0166137
787.950	0.0166445
788.029	0.0166632
788.107	0.0166479
788.185	0.0165202
788.263	0.0167479
788.341	0.0165647
788.419	0.0166103
788.497	0.0166254
788.575	0.0164332
788.654	0.0165257
788.732	0.0166262
788.810	0.0166441
788.888	0.0165081
788.966	0.0165273
789.044	0.0164445
789.122	0.0165667
789.200	0.0164998
789.279	0.0166154
789.357	0.0165388
789.435	0.0163734
789.513	0.0162910
789.591	0.0164959
789.669	0.0163767
789.747	0.0165466
789.825	0.0163975
789.904	0.0162318
789.982	0.0164564
790.060	0.0164671
790.138	0.0163800
790.216	0.0162373
790.294	0.0161010
790.372	0.0162322
790.450	0.0163707
790.529	0.0163048
790.607	0.0163614
790.685	0.0161979
790.763	0.0161263
790.841	0.0161644
790.919	0.0162896
790.997	0.0161726
791.075	0.0161317
791.154	0.0161427
791.232	0.0160825
791.310	0.0160753
791.388	0.0161247
791.466	0.0161292
791.544	0.0162599
791.622	0.0162656
791.700	0.0161558
791.779	0.0161770
791.857	0.0162538
791.935	0.0161158
792.013	0.0160490
792.091	0.0163854
792.169	0.0162981
792.247	0.0162772
792.325	0.0164069
792.404	0.0165021
792.482	0.0164724
792.560	0.0165620
792.638	0.0166309
792.716	0.0166699
792.794	0.0167864
792.872	0.0167698
792.950	0.0169003
793.029	0.0167154
793.107	0.0168924
793.185	0.0169630
793.263	0.0169268
793.341	0.0167825
793.419	0.0168246
793.497	0.0169524
793.575	0.0168855
793.654	0.0168318
793.732	0.0169170
793.810	0.0170770
793.888	0.0166334
793.966	0.0167639
794.044	0.0167803
794.122	0.0166992
794.200	0.0167128
794.279	0.0168770
794.357	0.0168430
794.435	0.0167390
794.513	0.0168628
794.591	0.0169228
794.669	0.0168128
794.747	0.0169481
794.825	0.0168057
794.904	0.0167960
794.982	0.0169897
795.060	0.0167889
795.138	0.0167223
795.216	0.0167561
795.294	0.0168701
795.372	0.0168932
795.450	0.0167118
795.529	0.0166592
795.607	0.0166493
795.685	0.0165593
795.763	0.0166348
795.841	0.0166022
795.919	0.0166959
795.997	0.0165710
796.075	0.0165823
796.154	0.0166111
796.232	0.0164527
796.310	0.0162907
796.388	0.0164332
796.466	0.0163254
796.544	0.0162522
796.622	0.0162434
796.700	0.0159830
796.779	0.0162072
796.857	0.0161904
796.935	0.0160685
797.013	0.0159979
797.091	0.0160403
797.169	0.0161526
797.247	0.0161855
797.325	0.0160353
797.404	0.0159471
797.482	0.0161088
797.560	0.0160529
797.638	0.0161125
797.716	0.0161900
797.794	0.0162331
797.872	0.0162067
797.950	0.0161843
798.029	0.0163575
798.107	0.0164354
798.185	0.0163529
798.263	0.0164288
798.341	0.0164613
798.419	0.0164645
798.497	0.0164267
798.575	0.0165066
798.654	0.0165398
798.732	0.0165153
798.810	0.0166284
798.888	0.0165149
798.966	0.0165121
799.044	0.0166331
799.122	0.0165709
799.200	0.0166451
799.279	0.0166260
799.357	0.0166399
799.435	0.0165468
799.513	0.0166892
799.591	0.0166367
799.669	0.0167049
799.747	0.0167613
799.825	0.0167069
799.904	0.0167558
799.982	0.0167538
800.060	0.0166424
800.138	0.0167943
800.216	0.0167751
800.294	0.0167527
800.372	0.0169353
800.450	0.0167548
800.529	0.0167107
800.607	0.0165951
800.685	0.0166422
800.763	0.0167217
800.841	0.0167579
800.919	0.0167920
800.997	0.0168134
801.075	0.0168136
801.154	0.0167137
801.232	0.0166064
801.310	0.0167311
801.388	0.0167165
801.466	0.0166883
801.544	0.0167225
801.622	0.0167318
801.700	0.0167574
801.779	0.0167055
801.857	0.0168513
801.935	0.0167632
802.013	0.0167287
802.091	0.0166442
802.169	0.0165915
802.247	0.0166544
802.325	0.0166573
802.404	0.0166541
802.482	0.0165542
802.560	0.0166087
802.638	0.0164391
802.716	0.0163615
802.794	0.0162943
802.872	0.0162825
802.950	0.0163112
803.029	0.0163216
803.107	0.0161501
803.185	0.0161750
803.263	0.0160983
803.341	0.0161186
803.419	0.0161375
803.497	0.0160641
803.575	0.0159350
803.654	0.0160835
803.732	0.0160178
803.810	0.0159003
803.888	0.0160732
803.966	0.0159605
804.044	0.0160291
804.122	0.0161005
804.200	0.0159865
804.279	0.0160844
804.357	0.0160952
804.435	0.0161819
804.513	0.0161889
804.591	0.0162773
804.669	0.0162141
804.747	0.0162213
804.825	0.0164030
804.904	0.0163889
804.982	0.0163351
805.060	0.0164049
805.138	0.0165424
805.216	0.0166758
805.294	0.0166286
805.372	0.0165504
805.450	0.0167759
805.529	0.0167791
805.607	0.0168631
805.685	0.0168512
805.763	0.0170255
805.841	0.0169723
805.919	0.0170020
805.997	0.0170244
806.075	0.0170032
806.154	0.0170086
806.232	0.0168607
806.310	0.0169099
806.388	0.0170535
806.466	0.0168726
806.544	0.0168675
806.622	0.0166727
806.700	0.0167455
806.779	0.0167617
806.857	0.0166399
806.935	0.0166557
807.013	0.0166515
807.091	0.0165120
807.169	0.0165650
807.247	0.0165597
807.325	0.0165527
807.404	0.0164314
807.482	0.0164284
807.560	0.0164452
807.638	0.0163855
807.716	0.0165567
807.794	0.0165347
807.872	0.0164913
807.950	0.0164993
808.029	0.0166342
808.107	0.0164716
808.185	0.0164014
808.263	0.0163381
808.341	0.0163531
808.419	0.0164643
808.497	0.0164030
808.575	0.0162797
808.654	0.0164112
808.732	0.0163042
808.810	0.0162564
808.888	0.0163207
808.966	0.0162725
809.044	0.0161977
809.122	0.0163664
809.200	0.0163129
809.279	0.0164782
809.357	0.0163126
809.435	0.0163586
809.513	0.0165108
809.591	0.0163735
809.669	0.0163787
809.747	0.0163877
809.825	0.0164245
809.904	0.0165330
809.982	0.0164439
810.060	0.0163230
810.138	0.0163854
810.216	0.0162794
810.294	0.0163643
810.372	0.0163809
810.450	0.0163895
810.529	0.0161679
810.607	0.0162138
810.685	0.0163103
810.763	0.0162653
810.841	0.0162020
810.919	0.0164241
810.997	0.0162521
811.075	0.0163305
811.154	0.0162698
811.232	0.0165359
811.310	0.0165604
811.388	0.0165596
811.466	0.0166734
811.544	0.0166086
811.622	0.0168064
811.700	0.0166850
811.779	0.0168447
811.857	0.0169952
811.935	0.0168465
812.013	0.0170180
812.091	0.0170195
812.169	0.0169912
812.247	0.0170972
812.325	0.0170415
812.404	0.0168940
812.482	0.0170541
812.560	0.0170641
812.638	0.0169958
812.716	0.0171350
812.794	0.0169771
812.872	0.0169911
812.950	0.0169634
813.029	0.0168027
813.107	0.0168923
813.185	0.0168176
813.263	0.0168394
813.341	0.0167632
813.419	0.0166711
813.497	0.0166382
813.575	0.0166682
813.654	0.0165280
813.732	0.0164935
813.810	0.0165720
813.888	0.0162665
813.966	0.0163192
814.044	0.0163879
814.122	0.0161832
814.200	0.0162009
814.279	0.0162348
814.357	0.0162338
814.435	0.0161465
814.513	0.0160943
814.591	0.0161871
814.669	0.0162170
814.747	0.0161014
814.825	0.0161053
814.904	0.0162275
814.982	0.0163001
815.060	0.0163123
815.138	0.0163012
815.216	0.0163798
815.294	0.0163244
815.372	0.0164163
815.450	0.0163514
815.529	0.0162462
815.607	0.0164282
815.685	0.0164405
815.763	0.0164977
815.841	0.0164446
815.919	0.0164570
815.997	0.0164021
816.075	0.0164759
816.154	0.0164103
816.232	0.0165766
816.310	0.0163601
816.388	0.0164623
816.466	0.0164444
816.544	0.0164441
816.622	0.0165591
816.700	0.0163675
816.779	0.0162691
816.857	0.0163605
816.935	0.0165186
817.013	0.0164698
817.091	0.0162567
817.169	0.0163653
817.247	0.0164158
817.325	0.0163921
817.404	0.0164568
817.482	0.0163445
817.560	0.0165311
817.638	0.0164880
817.716	0.0163856
817.794	0.0165276
817.872	0.0164841
817.950	0.0165518
818.029	0.0165398
818.107	0.0164605
818.185	0.0165316
818.263	0.0166696
818.341	0.0165417
818.419	0.0164941
818.497	0.0166622
818.575	0.0166642
818.654	0.0165803
818.732	0.0167377
818.810	0.0165967
818.888	0.0166094
818.966	0.0166673
819.044	0.0168029
819.122	0.0168430
819.200	0.0170088
819.279	0.0168834
819.357	0.0168938
819.435	0.0169794
819.513	0.0169081
819.591	0.0168624
819.669	0.0168101
819.747	0.0167716
819.825	0.0168542
819.904	0.0166911
819.982	0.0165841
820.060	0.0166212
820.138	0.0164564
820.216	0.0164691
820.294	0.0163735
820.372	0.0164398
820.450	0.0163874
820.529	0.0164735
820.607	0.0163469
820.685	0.0163413
820.763	0.0162207
820.841	0.0161842
820.919	0.0162404
820.997	0.0162811
821.075	0.0163851
821.154	0.0163207
821.232	0.0161650
821.310	0.0163477
821.388	0.0162950
821.466	0.0163686
821.544	0.0162968
821.622	0.0164639
821.700	0.0164676
821.779	0.0164815
821.857	0.0164176
821.935	0.0164394
822.013	0.0164742
822.091	0.0166247
822.169	0.0164938
822.247	0.0165491
822.325	0.0164831
822.404	0.0164397
822.482	0.0165493
822.560	0.0165120
822.638	0.0166628
822.716	0.0164784
822.794	0.0163807
822.872	0.0163562
822.950	0.0164157
823.029	0.0163320
823.107	0.0164224
823.185	0.0163110
823.263	0.0163174
823.341	0.0164618
823.419	0.0163763
823.497	0.0162357
823.575	0.0162447
823.654	0.0162563
823.732	0.0162402
823.810	0.0163948
823.888	0.0164046
823.966	0.0163468
824.044	0.0163855
824.122	0.0163995
824.200	0.0162711
824.279	0.0163908
824.357	0.0163036
824.435	0.0163857
824.513	0.0164348
824.591	0.0164136
824.669	0.0164620
824.747	0.0165150
824.825	0.0165182
824.904	0.0164673
824.982	0.0164879
825.060	0.0165835
825.138	0.0167099
825.216	0.0167262
825.294	0.0166769
825.372	0.0167870
825.450	0.0165945
825.529	0.0168186
825.607	0.0168661
825.685	0.0167339
825.763	0.0166922
825.841	0.0168688
825.919	0.0169880
825.997	0.0168389
826.075	0.0170350
826.154	0.0169812
826.232	0.0170292
826.310	0.0168626
826.388	0.0169505
826.466	0.0169076
826.544	0.0169800
826.622	0.0168185
826.700	0.0167741
826.779	0.0166884
826.857	0.0166614
826.935	0.0165948
827.013	0.0165591
827.091	0.0165418
827.169	0.0164661
827.247	0.0164837
827.325	0.0165018
827.404	0.0163993
827.482	0.0163896
827.560	0.0163268
827.638	0.0163197
827.716	0.0163432
827.794	0.0163868
827.872	0.0164243
827.950	0.0164218
828.029	0.0164304
828.107	0.0163979
828.185	0.0164941
828.263	0.0163621
828.341	0.0164021
828.419	0.0163775
828.497	0.0163898
828.575	0.0163315
828.654	0.0163631
828.732	0.0163719
828.810	0.0163436
828.888	0.0163359
828.966	0.0163399
829.044	0.0162298
829.122	0.0162564
829.200	0.0162988
829.279	0.0163209
829.357	0.0163742
829.435	0.0162540
829.513	0.0163731
829.591	0.0163994
829.669	0.0163218
829.747	0.0164730
829.825	0.0164719
829.904	0.0163523
829.982	0.0164902
830.060	0.0162829
830.138	0.0163487
830.216	0.0163972
830.294	0.0164735
830.372	0.0165166
830.450	0.0163842
830.529	0.0164230
830.607	0.0165255
830.685	0.0165435
830.763	0.0165800
830.841	0.0165505
830.919	0.0165611
830.997	0.0164774
831.075	0.0166274
831.154	0.0166540
831.232	0.0165067
831.310	0.0165777
831.388	0.0166879
831.466	0.0166336
831.544	0.0165962
831.622	0.0166287
831.700	0.0168285
831.779	0.0167307
831.857	0.0167883
831.935	0.0167551
832.013	0.0165890
832.091	0.0167830
832.169	0.0168296
832.247	0.0165627
832.325	0.0167738
832.404	0.0166856
832.482	0.0167355
832.560	0.0166602
832.638	0.0168475
832.716	0.0168474
832.794	0.0167208
832.872	0.0166885
832.950	0.0168416
833.029	0.0167206
833.107	0.0164411
833.185	0.0167305
833.263	0.0166867
833.341	0.0167246
833.419	0.0166061
833.497	0.0166527
833.575	0.0164433
833.654	0.0164966
833.732	0.0165051
833.810	0.0165069
833.888	0.0163129
833.966	0.0164028
834.044	0.0164394
834.122	0.0163321
834.200	0.0164102
834.279	0.0162397
834.357	0.0163110
834.435	0.0162830
834.513	0.0162621
834.591	0.0163498
834.669	0.0164836
834.747	0.0164482
834.825	0.0164774
834.904	0.0163739
834.982	0.0165878
835.060	0.0166341
835.138	0.0166441
835.216	0.0166710
835.294	0.0165626
835.372	0.0166922
835.450	0.0166936
835.529	0.0165973
835.607	0.0165112
835.685	0.0166433
835.763	0.0164994
835.841	0.0166101
835.919	0.0165900
835.997	0.0166268
836.075	0.0164577
836.154	0.0165435
836.232	0.0164133
836.310	0.0164692
836.388	0.0163828
836.466	0.0164143
836.544	0.0164381
836.622	0.0163583
836.700	0.0162807
836.779	0.0163911
836.857	0.0163430
836.935	0.0162740
837.013	0.0163224
837.091	0.0163130
837.169	0.0162871
837.247	0.0161975
837.325	0.0162263
837.404	0.0162138
837.482	0.0162125
837.560	0.0162097
837.638	0.0161218
837.716	0.0161903
837.794	0.0161614
837.872	0.0160974
837.950	0.0162840
838.029	0.0163087
838.107	0.0164104
838.185	0.0162351
838.263	0.0163428
838.341	0.0164397
838.419	0.0163803
838.497	0.0163951
838.575	0.0165639
838.654	0.0165617
838.732	0.0166879
838.810	0.0167504
838.888	0.0167560
838.966	0.0168108
839.044	0.0168564
839.122	0.0168260
839.200	0.0168587
839.279	0.0167697
839.357	0.0168627
839.435	0.0170505
839.513	0.0168654
839.591	0.0168324
839.669	0.0167705
839.747	0.0168491
839.825	0.0168521
839.904	0.0168475
839.982	0.0168690
840.060	0.0167032
840.138	0.0165939
840.216	0.0165636
840.294	0.0166600
840.372	0.0166183
840.450	0.0164116
840.529	0.0164926
840.607	0.0165693
840.685	0.0164097
840.763	0.0163660
840.841	0.0164964
840.919	0.0164097
840.997	0.0162405
841.075	0.0162439
841.154	0.0163437
841.232	0.0163190
841.310	0.0163145
841.388	0.0164483
841.466	0.0162911
841.544	0.0163107
841.622	0.0163366
841.700	0.0163495
841.779	0.0163308
841.857	0.0164437
841.935	0.0163459
842.013	0.0163895
842.091	0.0163168
842.169	0.0164806
842.247	0.0164209
842.325	0.0163139
842.404	0.0164350
842.482	0.0166003
842.560	0.0164680
842.638	0.0165025
842.716	0.0164109
842.794	0.0166435
842.872	0.0166875
842.950	0.0163317
843.029	0.0165279
843.107	0.0165990
843.185	0.0165331
843.263	0.0165602
843.341	0.0164921
843.419	0.0166090
843.497	0.0165607
843.575	0.0165169
843.654	0.0166090
843.732	0.0166024
843.810	0.0166457
843.888	0.0165796
843.966	0.0165944
844.044	0.0165818
844.122	0.0164790
844.200	0.0164610
844.279	0.0164123
844.357	0.0165415
844.435	0.0165025
844.513	0.0163956
844.591	0.0163818
844.669	0.0164084
844.747	0.0164392
844.825	0.0164802
844.904	0.0162906
844.982	0.0163821
845.060	0.0162329
845.138	0.0163017
845.216	0.0163208
845.294	0.0164104
845.372	0.0162398
845.450	0.0162489
845.529	0.0162674
845.607	0.0164379
845.685	0.0163076
845.763	0.0163149
845.841	0.0162374
845.919	0.0163988
845.997	0.0163631
846.075	0.0164472
846.154	0.0164092
846.232	0.0164732
846.310	0.0163660
846.388	0.0163180
846.466	0.0165186
846.544	0.0164972
846.622	0.0164019
846.700	0.0165482
846.779	0.0165540
846.857	0.0165613
846.935	0.0165498
847.013	0.0164767
847.091	0.0164716
847.169	0.0163845
847.247	0.0164417
847.325	0.0165020
847.404	0.0165260
847.482	0.0166418
847.560	0.0165995
847.638	0.0167637
847.716	0.0167657
847.794	0.0166129
847.872	0.0166982
847.950	0.0167535
848.029	0.0167730
848.107	0.0168205
848.185	0.0167892
848.263	0.0167667
848.341	0.0168105
848.419	0.0167142
848.497	0.0168805
848.575	0.0168059
848.654	0.0168447
848.732	0.0167044
848.810	0.0166779
848.888	0.0167570
848.966	0.0166946
849.044	0.0166940
849.122	0.0165928
849.200	0.0166901
849.279	0.0167040
849.357	0.0168629
849.435	0.0165404
849.513	0.0166105
849.591	0.0165309
849.669	0.0165295
849.747	0.0164640
849.825	0.0165447
849.904	0.0165305
849.982	0.0163110
850.060	0.0163792
850.138	0.0163710
850.216	0.0161712
850.294	0.0163008
850.372	0.0162489
850.450	0.0160940
850.529	0.0161411
850.607	0.0161142
850.685	0.0161215
850.763	0.0161129
850.841	0.0163281
850.919	0.0161445
850.997	0.0160811
851.075	0.0161530
851.154	0.0161449
851.232	0.0161111
851.310	0.0162363
851.388	0.0162544
851.466	0.0164285
851.544	0.0163982
851.622	0.0163378
851.700	0.0165730
851.779	0.0165909
851.857	0.0164579
851.935	0.0165663
852.013	0.0164294
852.091	0.0166935
852.169	0.0167293
852.247	0.0166927
852.325	0.0167477
852.404	0.0167041
852.482	0.0167597
852.560	0.0168788
852.638	0.0167619
852.716	0.0167936
852.794	0.0168432
852.872	0.0167937
852.950	0.0168434
853.029	0.0167748
853.107	0.0167414
853.185	0.0166057
853.263	0.0167112
853.341	0.0166086
853.419	0.0165440
853.497	0.0166081
853.575	0.0165711
853.654	0.0165969
853.732	0.0166414
853.810	0.0166243
853.888	0.0166139
853.966	0.0167696
854.044	0.0166679
854.122	0.0164656
854.200	0.0167352
854.279	0.0165924
854.357	0.0166312
854.435	0.0164920
854.513	0.0163985
854.591	0.0164723
854.669	0.0164438
854.747	0.0165044
854.825	0.0163166
854.904	0.0163467
854.982	0.0163450
855.060	0.0164871
855.138	0.0164812
855.216	0.0162907
855.294	0.0163995
855.372	0.0163843
855.450	0.0164931
855.529	0.0166457
855.607	0.0164965
855.685	0.0165089
855.763	0.0165607
855.841	0.0166991
855.919	0.0165923
855.997	0.0165095
856.075	0.0165559
856.154	0.0165988
856.232	0.0166245
856.310	0.0163725
856.388	0.0163844
856.466	0.0166653
856.544	0.0164288
856.622	0.0165794
856.700	0.0166763
856.779	0.0166085
856.857	0.0164510
856.935	0.0165768
857.013	0.0165111
857.091	0.0166046
857.169	0.0165754
857.247	0.0165386
857.325	0.0164087
857.404	0.0164812
857.482	0.0164172
857.560	0.0165103
857.638	0.0164484
857.716	0.0163296
857.794	0.0164773
857.872	0.0163578
857.950	0.0162387
858.029	0.0163003
858.107	0.0163406
858.185	0.0163309
858.263	0.0164152
858.341	0.0165455
858.419	0.0163885
858.497	0.0164194
858.575	0.0165409
858.654	0.0166600
858.732	0.0164452
858.810	0.0165037
858.888	0.0165915
858.966	0.0164377
859.044	0.0163957
859.122	0.0164993
859.200	0.0164986
859.279	0.0164823
859.357	0.0164478
859.435	0.0164220
859.513	0.0165018
859.591	0.0166563
859.669	0.0167069
859.747	0.0165619
859.825	0.0166106
859.904	0.0165997
859.982	0.0168322
860.060	0.0168007
860.138	0.0166766
860.216	0.0167492
860.294	0.0168060
860.372	0.0168472
860.450	0.0166613
860.529	0.0167706
860.607	0.0165810
860.685	0.0165675
860.763	0.0165786
860.841	0.0165161
860.919	0.0166614
860.997	0.0165741
861.075	0.0165266
861.154	0.0164142
861.232	0.0163521
861.310	0.0162839
861.388	0.0161913
861.466	0.0163091
861.544	0.0162744
861.622	0.0162065
861.700	0.0163187
861.779	0.0163802
861.857	0.0162774
861.935	0.0162482
862.013	0.0163155
862.091	0.0165028
862.169	0.0164965
862.247	0.0163207
862.325	0.0164381
862.404	0.0166140
862.482	0.0165852
862.560	0.0167413
862.638	0.0167159
862.716	0.0166235
862.794	0.0168201
862.872	0.0168652
862.950	0.0167427
863.029	0.0168227
863.107	0.0167203
863.185	0.0164729
863.263	0.0165376
863.341	0.0164698
863.419	0.0163499
863.497	0.0163473
863.575	0.0162793
863.654	0.0162573
863.732	0.0161091
863.810	0.0160703
863.888	0.0162445
863.966	0.0161248
864.044	0.0160707
864.122	0.0163347
864.200	0.0160767
864.279	0.0161758
864.357	0.0162479
864.435	0.0162959
864.513	0.0162981
864.591	0.0163931
864.669	0.0164386
864.747	0.0164194
864.825	0.0165577
864.904	0.0165553
864.982	0.0165309
865.060	0.0169113
865.138	0.0167474
865.216	0.0166539
865.294	0.0166839
865.372	0.0167075
865.450	0.0167841
865.529	0.0167429
865.607	0.0167227
865.685	0.0165108
865.763	0.0166095
865.841	0.0166663
865.919	0.0165044
865.997	0.0164963
866.075	0.0163831
866.154	0.0163797
866.232	0.0163240
866.310	0.0162253
866.388	0.0163245
866.466	0.0163430
866.544	0.0162704
866.622	0.0162964
866.700	0.0163576
866.779	0.0163500
866.857	0.0164259
866.935	0.0163441
867.013	0.0165655
867.091	0.0164298
867.169	0.0165482
867.247	0.0166485
867.325	0.0165948
867.404	0.0165200
867.482	0.0165821
867.560	0.0165485
867.638	0.0167258
867.716	0.0167412
867.794	0.0165234
867.872	0.0166394
867.950	0.0167719
868.029	0.0167848
868.107	0.0167496
868.185	0.0167797
868.263	0.0168319
868.341	0.0168078
868.419	0.0167159
868.497	0.0167749
868.575	0.0167797
868.654	0.0167722
868.732	0.0167200
868.810	0.0167150
868.888	0.0165490
868.966	0.0165827
869.044	0.0166155
869.122	0.0165348
869.200	0.0165390
869.279	0.0165307
869.357	0.0165304
869.435	0.0165372
869.513	0.0164945
869.591	0.0165752
869.669	0.0165627
869.747	0.0164463
869.825	0.0163557
869.904	0.0162789
869.982	0.0162638
870.060	0.0161541
870.138	0.0161828
870.216	0.0160587
870.294	0.0160142
870.372	0.0160300
870.450	0.0160422
870.529	0.0161807
870.607	0.0161368
870.685	0.0161612
870.763	0.0162560
870.841	0.0163815
870.919	0.0164199
870.997	0.0164394
871.075	0.0164862
871.154	0.0165564
871.232	0.0165394
871.310	0.0166953
871.388	0.0166544
871.466	0.0166801
871.544	0.0165810
871.622	0.0165700
871.700	0.0166542
871.779	0.0166636
871.857	0.0165157
871.935	0.0166740
872.013	0.0167471
872.091	0.0166755
872.169	0.0167622
872.247	0.0168257
872.325	0.0167392
872.404	0.0168112
872.482	0.0167735
872.560	0.0168657
872.638	0.0170335
872.716	0.0169844
872.794	0.0167442
872.872	0.0166976
872.950	0.0168692
873.029	0.0167350
873.107	0.0168114
873.185	0.0166602
873.263	0.0166277
873.341	0.0165749
873.419	0.0166823
873.497	0.0166621
873.575	0.0167053
873.654	0.0165511
873.732	0.0164465
873.810	0.0166966
873.888	0.0165821
873.966	0.0165707
874.044	0.0163762
874.122	0.0163808
874.200	0.0164570
874.279	0.0164870
874.357	0.0164558
874.435	0.0163838
874.513	0.0164347
874.591	0.0164594
874.669	0.0164461
874.747	0.0164823
874.825	0.0165356
874.904	0.0165096
874.982	0.0165994
875.060	0.0166747
875.138	0.0166566
875.216	0.0166251
875.294	0.0166358
875.372	0.0167078
875.450	0.0167514
875.529	0.0167254
875.607	0.0166833
875.685	0.0166618
875.763	0.0165224
875.841	0.0164804
875.919	0.0165029
875.997	0.0164874
876.075	0.0163537
876.154	0.0163548
876.232	0.0164828
876.310	0.0165467
876.388	0.0164524
876.466	0.0165274
876.544	0.0164574
876.622	0.0165351
876.700	0.0166531
876.779	0.0165415
876.857	0.0165299
876.935	0.0164745
877.013	0.0166992
877.091	0.0166901
877.169	0.0165131
877.247	0.0165807
877.325	0.0166378
877.404	0.0164172
877.482	0.0164254
877.560	0.0164674
877.638	0.0164653
877.716	0.0164001
877.794	0.0164500
877.872	0.0164392
877.950	0.0164079
878.029	0.0163516
878.107	0.0164999
878.185	0.0164575
878.263	0.0165689
878.341	0.0164426
878.419	0.0164903
878.497	0.0165938
878.575	0.0165898
878.654	0.0165184
878.732	0.0164324
878.810	0.0166895
878.888	0.0166375
878.966	0.0165800
879.044	0.0166125
879.122	0.0165299
879.200	0.0167228
879.279	0.0166624
879.357	0.0166037
879.435	0.0165504
879.513	0.0166565
879.591	0.0165139
879.669	0.0166238
879.747	0.0165147
879.825	0.0166275
879.904	0.0165523
879.982	0.0165114
880.060	0.0165279
880.138	0.0165096
880.216	0.0166451
880.294	0.0165810
880.372	0.0165611
880.450	0.0167800
880.529	0.0168007
880.607	0.0167442
880.685	0.0167792
880.763	0.0167802
880.841	0.0168020
880.919	0.0167136
880.997	0.0167793
881.075	0.0165894
881.154	0.0166791
881.232	0.0165514
881.310	0.0164487
881.388	0.0165413
881.466	0.0164668
881.544	0.0164099
881.622	0.0165409
881.700	0.0165689
881.779	0.0165015
881.857	0.0164245
881.935	0.0165080
882.013	0.0165432
882.091	0.0164247
882.169	0.0164185
882.247	0.0162794
882.325	0.0163046
882.404	0.0163690
882.482	0.0163119
882.560	0.0162682
882.638	0.0162009
882.716	0.0162365
882.794	0.0162630
882.872	0.0163180
882.950	0.0163930
883.029	0.0163624
883.107	0.0164579
883.185	0.0163593
883.263	0.0164716
883.341	0.0165415
883.419	0.0164639
883.497	0.0166917
883.575	0.0165846
883.654	0.0166580
883.732	0.0164951
883.810	0.0163526
883.888	0.0165359
883.966	0.0166167
884.044	0.0165055
884.122	0.0165360
884.200	0.0165305
884.279	0.0167252
884.357	0.0167403
884.435	0.0166383
884.513	0.0165955
884.591	0.0166642
884.669	0.0166769
884.747	0.0165530
884.825	0.0165412
884.904	0.0166787
884.982	0.0165699
885.060	0.0164550
885.138	0.0164487
885.216	0.0164555
885.294	0.0161857
885.372	0.0163256
885.450	0.0162005
885.529	0.0163251
885.607	0.0162288
885.685	0.0163264
885.763	0.0162875
885.841	0.0161904
885.919	0.0162933
885.997	0.0161207
886.075	0.0163645
886.154	0.0164104
886.232	0.0164996
886.310	0.0164386
886.388	0.0165321
886.466	0.0166857
886.544	0.0166835
886.622	0.0167587
886.700	0.0167714
886.779	0.0167552
886.857	0.0167707
886.935	0.0166403
887.013	0.0166638
887.091	0.0165681
887.169	0.0165914
887.247	0.0166247
887.325	0.0167179
887.404	0.0167139
887.482	0.0167651
887.560	0.0167028
887.638	0.0168146
887.716	0.0168105
887.794	0.0165944
887.872	0.0165038
887.950	0.0167409
888.029	0.0167367
888.107	0.0165910
888.185	0.0165932
888.263	0.0165901
888.341	0.0165137
888.419	0.0164329
888.497	0.0164534
888.575	0.0163784
888.654	0.0163909
888.732	0.0164101
888.810	0.0164630
888.888	0.0164707
888.966	0.0163924
889.044	0.0164712
889.122	0.0164548
889.200	0.0163974
889.279	0.0162746
889.357	0.0163493
889.435	0.0163050
889.513	0.0164355
889.591	0.0164040
889.669	0.0163070
889.747	0.0164157
889.825	0.0164067
889.904	0.0164902
889.982	0.0164299
890.060	0.0164388
890.138	0.0165093
890.216	0.0165137
890.294	0.0164783
890.372	0.0165298
890.450	0.0164713
890.529	0.0162650
890.607	0.0163669
890.685	0.0165250
890.763	0.0165733
890.841	0.0164695
890.919	0.0165550
890.997	0.0165905
891.075	0.0165960
891.154	0.0166179
891.232	0.0167225
891.310	0.0166283
891.388	0.0167109
891.466	0.0169063
891.544	0.0169328
891.622	0.0168824
891.700	0.0168068
891.779	0.0168434
891.857	0.0167726
891.935	0.0165051
892.013	0.0166470
892.091	0.0165378
892.169	0.0163244
892.247	0.0164068
892.325	0.0164293
892.404	0.0163761
892.482	0.0162032
892.560	0.0164020
892.638	0.0163829
892.716	0.0163276
892.794	0.0163350
892.872	0.0164958
892.950	0.0165340
893.029	0.0165887
893.107	0.0165813
893.185	0.0166322
893.263	0.0166962
893.341	0.0166311
893.419	0.0167849
893.497	0.0167059
893.575	0.0166657
893.654	0.0167157
893.732	0.0166228
893.810	0.0166334
893.888	0.0166767
893.966	0.0166589
894.044	0.0166285
894.122	0.0165403
894.200	0.0165268
894.279	0.0167147
894.357	0.0166954
894.435	0.0167895
894.513	0.0165551
894.591	0.0166406
894.669	0.0167696
894.747	0.0166418
894.825	0.0166106
894.904	0.0166897
894.982	0.0166548
895.060	0.0165826
895.138	0.0166351
895.216	0.0165776
895.294	0.0166090
895.372	0.0165955
895.450	0.0165630
895.529	0.0164804
895.607	0.0164117
895.685	0.0164158
895.763	0.0164869
895.841	0.0165405
895.919	0.0165736
895.997	0.0166340
896.075	0.0166587
896.154	0.0166243
896.232	0.0165710
896.310	0.0166610
896.388	0.0165518
896.466	0.0166383
896.544	0.0165346
896.622	0.0165464
896.700	0.0165672
896.779	0.0164802
896.857	0.0163950
896.935	0.0164121
897.013	0.0164095
897.091	0.0164539
897.169	0.0164758
897.247	0.0165614
897.325	0.0164958
897.404	0.0167210
897.482	0.0167744
897.560	0.0164977
897.638	0.0166041
897.716	0.0165428
897.794	0.0166344
897.872	0.0167355
897.950	0.0166279
898.029	0.0167310
898.107	0.0166987
898.185	0.0167294
898.263	0.0165295
898.341	0.0165321
898.419	0.0165063
898.497	0.0165336
898.575	0.0166724
898.654	0.0166238
898.732	0.0164331
898.810	0.0166319
898.888	0.0166562
898.966	0.0164859
899.044	0.0164682
899.122	0.0165353
899.200	0.0165321
899.279	0.0164671
899.357	0.0164471
899.435	0.0164125
899.513	0.0164082
899.591	0.0165044
899.669	0.0165789
899.747	0.0164880
899.825	0.0164895
899.904	0.0166343
899.982	0.0167230
900.060	0.0165697
900.138	0.0167343
900.216	0.0166011
900.294	0.0168014
900.372	0.0168362
900.450	0.0166962
900.529	0.0169321
900.607	0.0168973
900.685	0.0166904
900.763	0.0166189
900.841	0.0166091
900.919	0.0165398
900.997	0.0165004
901.075	0.0164685
901.154	0.0165700
901.232	0.0164494
901.310	0.0164735
901.388	0.0163374
901.466	0.0164594
901.544	0.0163363
901.622	0.0163129
901.700	0.0163453
901.779	0.0163068
901.857	0.0163297
901.935	0.0162730
902.013	0.0163125
902.091	0.0162811
902.169	0.0164058
902.247	0.0163352
902.325	0.0164146
902.404	0.0164223
902.482	0.0164236
902.560	0.0164400
902.638	0.0164986
902.716	0.0166669
902.794	0.0167651
902.872	0.0164915
902.950	0.0165619
903.029	0.0166567
903.107	0.0166292
903.185	0.0167481
903.263	0.0166481
903.341	0.0167042
903.419	0.0166145
903.497	0.0167175
903.575	0.0167819
903.654	0.0165958
903.732	0.0166619
903.810	0.0166836
903.888	0.0165699
903.966	0.0166631
904.044	0.0166582
904.122	0.0167267
904.200	0.0166356
904.279	0.0166898
904.357	0.0166703
904.435	0.0165961
904.513	0.0166648
904.591	0.0166348
904.669	0.0167391
904.747	0.0166972
904.825	0.0166779
904.904	0.0165524
904.982	0.0165749
905.060	0.0163433
905.138	0.0163428
905.216	0.0163211
905.294	0.0162650
905.372	0.0161587
905.450	0.0163268
905.529	0.0161808
905.607	0.0160135
905.685	0.0161012
905.763	0.0161795
905.841	0.0163713
905.919	0.0162107
905.997	0.0163604
906.075	0.0162898
906.154	0.0163963
906.232	0.0165622
906.310	0.0163741
906.388	0.0165985
906.466	0.0166692
906.544	0.0166156
906.622	0.0167489
906.700	0.0168250
906.779	0.0166938
906.857	0.0167228
906.935	0.0167813
907.013	0.0167323
907.091	0.0165420
907.169	0.0166600
907.247	0.0167118
907.325	0.0165419
907.404	0.0165546
907.482	0.0164065
907.560	0.0164867
907.638	0.0163979
907.716	0.0162913
907.794	0.0164264
907.872	0.0163471
907.950	0.0163210
908.029	0.0163171
908.107	0.0163568
908.185	0.0163408
908.263	0.0163812
908.341	0.0162420
908.419	0.0164916
908.497	0.0163287
908.575	0.0161524
908.654	0.0164169
908.732	0.0161685
908.810	0.0163085
908.888	0.0163903
908.966	0.0163415
909.044	0.0163368
909.122	0.0163251
909.200	0.0165443
909.279	0.0164058
909.357	0.0166479
909.435	0.0166661
909.513	0.0166521
909.591	0.0166421
909.669	0.0165469
909.747	0.0166781
909.825	0.0167566
909.904	0.0168988
909.982	0.0166052
910.060	0.0169071
910.138	0.0169160
910.216	0.0167022
910.294	0.0167608
910.372	0.0167259
910.450	0.0168895
910.529	0.0167096
910.607	0.0166768
910.685	0.0166961
910.763	0.0166466
910.841	0.0165447
910.919	0.0166592
910.997	0.0166229
911.075	0.0165488
911.154	0.0163804
911.232	0.0164252
911.310	0.0164558
911.388	0.0164745
911.466	0.0164704
911.544	0.0163651
911.622	0.0161752
911.700	0.0162568
911.779	0.0162965
911.857	0.0162970
911.935	0.0163796
912.013	0.0164236
912.091	0.0164651
912.169	0.0163489
912.247	0.0164433
912.325	0.0163933
912.404	0.0164040
912.482	0.0164650
912.560	0.0165120
912.638	0.0165041
912.716	0.0163747
912.794	0.0166257
912.872	0.0166196
912.950	0.0165337
913.029	0.0163866
913.107	0.0165617
913.185	0.0164752
913.263	0.0164999
913.341	0.0164701
913.419	0.0165732
913.497	0.0163956
913.575	0.0164445
913.654	0.0164317
913.732	0.0163302
913.810	0.0164045
913.888	0.0163787
913.966	0.0164391
914.044	0.0163262
914.122	0.0164657
914.200	0.0162814
914.279	0.0163377
914.357	0.0163829
914.435	0.0163072
914.513	0.0162399
914.591	0.0163986
914.669	0.0164594
914.747	0.0165570
914.825	0.0165657
914.904	0.0164809
914.982	0.0165342
915.060	0.0165215
915.138	0.0163986
915.216	0.0165473
915.294	0.0165588
915.372	0.0166146
915.450	0.0164722
915.529	0.0164496
915.607	0.0165617
915.685	0.0166238
915.763	0.0165965
915.841	0.0166121
915.919	0.0167187
915.997	0.0167271
916.075	0.0166576
916.154	0.0166435
916.232	0.0168258
916.310	0.0167998
916.388	0.0167369
916.466	0.0168208
916.544	0.0166492
916.622	0.0167168
916.700	0.0167979
916.779	0.0167048
916.857	0.0166138
916.935	0.0167294
917.013	0.0168563
917.091	0.0168420
917.169	0.0167156
917.247	0.0167252
917.325	0.0165880
917.404	0.0165762
917.482	0.0165254
917.560	0.0165788
917.638	0.0164028
917.716	0.0163560
917.794	0.0164140
917.872	0.0163286
917.950	0.0163310
918.029	0.0162852
918.107	0.0162439
918.185	0.0163195
918.263	0.0162370
918.341	0.0164008
918.419	0.0163841
918.497	0.0162637
918.575	0.0162992
918.654	0.0163197
918.732	0.0164225
918.810	0.0162907
918.888	0.0162663
918.966	0.0163812
919.044	0.0163303
919.122	0.0163273
919.200	0.0163676
919.279	0.0163833
919.357	0.0164378
919.435	0.0165968
919.513	0.0164413
919.591	0.0163854
919.669	0.0164651
919.747	0.0164783
919.825	0.0165510
919.904	0.0165534
