05/24/2022	20:23:19	Ver.	4.1	UNKNOWN
Optical Delay	599.988409	Delta X		0.078125	Sweeps	1	Scan Rate	0/0
Coordinates	Axis 1	NaN	Axis 2	NaN	Axis 3	NaN	Axis 4	NaN	Axis 5	NaN	Axis 6	0.000000
TX Power	0.000000	RX Power	0.000000

599.988	0.0158859
600.067	0.0159162
600.145	0.0158871
600.223	0.0160239
600.301	0.0159819
600.379	0.0159637
600.457	0.0158137
600.535	0.0158430
600.613	0.0159561
600.692	0.0159319
600.770	0.0158488
600.848	0.0158389
600.926	0.0159817
601.004	0.0158913
601.082	0.0158511
601.160	0.0160050
601.238	0.0160131
601.317	0.0159783
601.395	0.0159297
601.473	0.0158262
601.551	0.0159103
601.629	0.0159215
601.707	0.0158717
601.785	0.0157967
601.863	0.0159122
601.942	0.0159747
602.020	0.0158195
602.098	0.0158854
602.176	0.0158681
602.254	0.0157649
602.332	0.0158795
602.410	0.0159149
602.488	0.0159238
602.567	0.0158745
602.645	0.0158157
602.723	0.0159573
602.801	0.0159035
602.879	0.0158244
602.957	0.0158660
603.035	0.0158548
603.113	0.0159583
603.192	0.0159678
603.270	0.0158198
603.348	0.0157222
603.426	0.0158909
603.504	0.0160097
603.582	0.0159184
603.660	0.0158616
603.738	0.0158785
603.817	0.0157684
603.895	0.0160191
603.973	0.0159669
604.051	0.0159156
604.129	0.0158730
604.207	0.0158788
604.285	0.0159556
604.363	0.0157449
604.442	0.0159372
604.520	0.0160011
604.598	0.0157808
604.676	0.0157793
604.754	0.0160067
604.832	0.0157253
604.910	0.0159115
604.988	0.0158684
605.067	0.0157888
605.145	0.0160949
605.223	0.0160121
605.301	0.0159248
605.379	0.0159040
605.457	0.0158366
605.535	0.0159010
605.613	0.0158990
605.692	0.0159694
605.770	0.0159706
605.848	0.0158510
605.926	0.0158315
606.004	0.0157985
606.082	0.0158227
606.160	0.0159851
606.238	0.0159514
606.317	0.0159576
606.395	0.0159041
606.473	0.0158723
606.551	0.0158291
606.629	0.0159664
606.707	0.0159071
606.785	0.0158756
606.863	0.0159690
606.942	0.0157281
607.020	0.0159497
607.098	0.0159630
607.176	0.0159589
607.254	0.0160210
607.332	0.0159267
607.410	0.0158804
607.488	0.0158171
607.567	0.0158721
607.645	0.0159407
607.723	0.0160097
607.801	0.0158556
607.879	0.0158652
607.957	0.0160352
608.035	0.0159277
608.113	0.0158216
608.192	0.0159566
608.270	0.0159535
608.348	0.0158951
608.426	0.0159402
608.504	0.0158653
608.582	0.0159227
608.660	0.0159940
608.738	0.0157816
608.817	0.0159374
608.895	0.0159443
608.973	0.0159368
609.051	0.0158700
609.129	0.0158585
609.207	0.0159252
609.285	0.0160372
609.363	0.0158940
609.442	0.0159248
609.520	0.0158859
609.598	0.0158935
609.676	0.0158340
609.754	0.0159071
609.832	0.0158629
609.910	0.0158375
609.988	0.0158990
610.067	0.0159549
610.145	0.0159142
610.223	0.0159654
610.301	0.0159077
610.379	0.0158454
610.457	0.0159669
610.535	0.0159531
610.613	0.0159088
610.692	0.0159750
610.770	0.0159173
610.848	0.0159161
610.926	0.0159061
611.004	0.0159993
611.082	0.0160107
611.160	0.0160091
611.238	0.0159947
611.317	0.0159908
611.395	0.0159652
611.473	0.0159857
611.551	0.0158798
611.629	0.0159698
611.707	0.0158828
611.785	0.0157863
611.863	0.0159271
611.942	0.0159624
612.020	0.0159058
612.098	0.0158611
612.176	0.0158339
612.254	0.0158875
612.332	0.0158551
612.410	0.0158274
612.488	0.0159406
612.567	0.0158963
612.645	0.0159059
612.723	0.0160060
612.801	0.0159464
612.879	0.0159735
612.957	0.0159866
613.035	0.0158747
613.113	0.0158306
613.192	0.0156224
613.270	0.0158961
613.348	0.0158261
613.426	0.0157116
613.504	0.0159266
613.582	0.0160436
613.660	0.0157738
613.738	0.0158260
613.817	0.0158045
613.895	0.0158604
613.973	0.0159308
614.051	0.0157413
614.129	0.0158369
614.207	0.0156958
614.285	0.0159098
614.363	0.0159032
614.442	0.0158027
614.520	0.0157913
614.598	0.0159306
614.676	0.0159274
614.754	0.0160002
614.832	0.0158974
614.910	0.0157456
614.988	0.0158591
615.067	0.0159299
615.145	0.0158447
615.223	0.0157549
615.301	0.0157731
615.379	0.0159327
615.457	0.0158987
615.535	0.0158075
615.613	0.0159595
615.692	0.0158652
615.770	0.0157874
615.848	0.0158871
615.926	0.0158782
616.004	0.0158463
616.082	0.0158784
616.160	0.0159695
616.238	0.0157678
616.317	0.0158313
616.395	0.0158812
616.473	0.0157693
616.551	0.0157976
616.629	0.0159280
616.707	0.0160135
616.785	0.0158410
616.863	0.0157350
616.942	0.0158604
617.020	0.0158415
617.098	0.0158042
617.176	0.0158198
617.254	0.0157901
617.332	0.0158394
617.410	0.0157638
617.488	0.0157791
617.567	0.0159012
617.645	0.0159489
617.723	0.0158748
617.801	0.0158032
617.879	0.0157489
617.957	0.0160204
618.035	0.0159209
618.113	0.0158560
618.192	0.0157091
618.270	0.0158636
618.348	0.0158658
618.426	0.0159022
618.504	0.0158225
618.582	0.0159133
618.660	0.0159217
618.738	0.0159537
618.817	0.0158852
618.895	0.0158434
618.973	0.0157610
619.051	0.0157976
619.129	0.0159518
619.207	0.0159683
619.285	0.0159140
619.363	0.0158433
619.442	0.0158531
619.520	0.0158827
619.598	0.0159008
619.676	0.0158081
619.754	0.0158118
619.832	0.0158150
619.910	0.0158606
619.988	0.0157499
620.067	0.0158611
620.145	0.0157603
620.223	0.0158366
620.301	0.0159304
620.379	0.0157761
620.457	0.0158684
620.535	0.0158302
620.613	0.0157681
620.692	0.0157745
620.770	0.0157333
620.848	0.0158741
620.926	0.0157137
621.004	0.0158961
621.082	0.0160015
621.160	0.0158501
621.238	0.0158739
621.317	0.0158584
621.395	0.0157529
621.473	0.0158044
621.551	0.0158073
621.629	0.0158674
621.707	0.0158340
621.785	0.0158295
621.863	0.0159299
621.942	0.0158482
622.020	0.0158318
622.098	0.0157934
622.176	0.0159199
622.254	0.0159018
622.332	0.0158792
622.410	0.0160621
622.488	0.0158445
622.567	0.0159795
622.645	0.0158951
622.723	0.0157194
622.801	0.0158699
622.879	0.0159299
622.957	0.0158616
623.035	0.0157599
623.113	0.0158746
623.192	0.0158794
623.270	0.0160241
623.348	0.0159881
623.426	0.0159126
623.504	0.0160327
623.582	0.0157645
623.660	0.0158747
623.738	0.0159629
623.817	0.0157321
623.895	0.0157731
623.973	0.0158534
624.051	0.0158324
624.129	0.0158252
624.207	0.0158344
624.285	0.0159646
624.363	0.0159344
624.442	0.0158991
624.520	0.0158686
624.598	0.0157859
624.676	0.0158794
624.754	0.0159229
624.832	0.0157453
624.910	0.0160099
624.988	0.0160353
625.067	0.0159655
625.145	0.0159265
625.223	0.0160082
625.301	0.0160875
625.379	0.0160686
625.457	0.0158972
625.535	0.0159014
625.613	0.0158127
625.692	0.0159116
625.770	0.0161648
625.848	0.0158386
625.926	0.0158619
626.004	0.0159710
626.082	0.0158819
626.160	0.0158839
626.238	0.0158973
626.317	0.0159489
626.395	0.0158743
626.473	0.0158745
626.551	0.0158661
626.629	0.0158862
626.707	0.0159720
626.785	0.0159619
626.863	0.0158879
626.942	0.0159068
627.020	0.0158230
627.098	0.0157968
627.176	0.0160143
627.254	0.0159689
627.332	0.0158481
627.410	0.0159467
627.488	0.0159117
627.567	0.0159667
627.645	0.0159384
627.723	0.0158890
627.801	0.0159599
627.879	0.0158686
627.957	0.0158578
628.035	0.0158103
628.113	0.0159418
628.192	0.0159623
628.270	0.0159360
628.348	0.0159042
628.426	0.0158317
628.504	0.0157573
628.582	0.0158778
628.660	0.0160004
628.738	0.0159012
628.817	0.0160728
628.895	0.0159151
628.973	0.0157990
629.051	0.0158468
629.129	0.0159358
629.207	0.0159765
629.285	0.0159002
629.363	0.0158665
629.442	0.0159054
629.520	0.0158583
629.598	0.0159632
629.676	0.0159224
629.754	0.0158279
629.832	0.0158398
629.910	0.0158255
629.988	0.0159402
630.067	0.0159086
630.145	0.0159133
630.223	0.0158264
630.301	0.0158875
630.379	0.0159200
630.457	0.0159529
630.535	0.0158215
630.613	0.0159552
630.692	0.0158100
630.770	0.0158997
630.848	0.0160377
630.926	0.0159046
631.004	0.0159370
631.082	0.0158860
631.160	0.0160307
631.238	0.0159114
631.317	0.0160055
631.395	0.0160739
631.473	0.0158468
631.551	0.0158755
631.629	0.0159481
631.707	0.0160398
631.785	0.0160535
631.863	0.0159294
631.942	0.0159253
632.020	0.0156863
632.098	0.0158816
632.176	0.0159872
632.254	0.0157770
632.332	0.0158416
632.410	0.0158196
632.488	0.0157240
632.567	0.0159043
632.645	0.0157848
632.723	0.0156781
632.801	0.0156203
632.879	0.0156670
632.957	0.0156054
633.035	0.0156351
633.113	0.0157124
633.192	0.0155933
633.270	0.0156546
633.348	0.0156905
633.426	0.0157142
633.504	0.0157474
633.582	0.0158628
633.660	0.0158971
633.738	0.0160853
633.817	0.0159358
633.895	0.0160540
633.973	0.0162058
634.051	0.0161959
634.129	0.0163091
634.207	0.0162937
634.285	0.0161942
634.363	0.0162728
634.442	0.0162883
634.520	0.0163649
634.598	0.0163712
634.676	0.0163905
634.754	0.0164105
634.832	0.0162247
634.910	0.0160666
634.988	0.0161770
635.067	0.0160077
635.145	0.0160155
635.223	0.0159480
635.301	0.0157037
635.379	0.0157290
635.457	0.0157168
635.535	0.0156993
635.613	0.0155915
635.692	0.0153685
635.770	0.0153759
635.848	0.0152626
635.926	0.0153569
636.004	0.0153242
636.082	0.0152469
636.160	0.0152968
636.238	0.0152480
636.317	0.0154492
636.395	0.0154724
636.473	0.0153381
636.551	0.0155280
636.629	0.0155436
636.707	0.0156547
636.785	0.0156407
636.863	0.0157095
636.942	0.0157536
637.020	0.0158167
637.098	0.0160020
637.176	0.0160877
637.254	0.0160590
637.332	0.0162240
637.410	0.0161216
637.488	0.0162468
637.567	0.0161697
637.645	0.0162192
637.723	0.0163480
637.801	0.0163888
637.879	0.0164199
637.957	0.0163737
638.035	0.0164246
638.113	0.0163703
638.192	0.0163997
638.270	0.0163125
638.348	0.0162522
638.426	0.0163323
638.504	0.0161497
638.582	0.0161802
638.660	0.0161237
638.738	0.0160358
638.817	0.0159587
638.895	0.0158351
638.973	0.0157024
639.051	0.0155620
639.129	0.0154965
639.207	0.0152916
639.285	0.0152359
639.363	0.0152786
639.442	0.0152045
639.520	0.0151495
639.598	0.0152354
639.676	0.0150622
639.754	0.0149816
639.832	0.0151156
639.910	0.0151447
639.988	0.0151261
640.067	0.0152628
640.145	0.0152785
640.223	0.0153465
640.301	0.0154773
640.379	0.0155932
640.457	0.0157257
640.535	0.0156976
640.613	0.0158464
640.692	0.0160587
640.770	0.0159854
640.848	0.0162386
640.926	0.0162354
641.004	0.0163058
641.082	0.0165120
641.160	0.0165218
641.238	0.0166042
641.317	0.0165544
641.395	0.0165561
641.473	0.0165984
641.551	0.0165625
641.629	0.0165279
641.707	0.0166062
641.785	0.0165375
641.863	0.0165365
641.942	0.0164938
642.020	0.0161957
642.098	0.0163656
642.176	0.0163380
642.254	0.0162329
642.332	0.0161831
642.410	0.0161369
642.488	0.0159254
642.567	0.0158832
642.645	0.0156945
642.723	0.0155566
642.801	0.0155544
642.879	0.0154861
642.957	0.0152465
643.035	0.0151327
643.113	0.0151221
643.192	0.0149087
643.270	0.0150108
643.348	0.0148310
643.426	0.0147728
643.504	0.0148775
643.582	0.0147165
643.660	0.0147344
643.738	0.0148321
643.817	0.0148161
643.895	0.0149277
643.973	0.0150367
644.051	0.0153076
644.129	0.0154066
644.207	0.0155746
644.285	0.0156726
644.363	0.0158224
644.442	0.0160339
644.520	0.0163795
644.598	0.0162997
644.676	0.0164494
644.754	0.0166057
644.832	0.0166602
644.910	0.0168399
644.988	0.0169542
645.067	0.0169041
645.145	0.0167840
645.223	0.0168916
645.301	0.0168278
645.379	0.0167487
645.457	0.0167117
645.535	0.0167185
645.613	0.0165684
645.692	0.0163594
645.770	0.0164269
645.848	0.0164180
645.926	0.0162709
646.004	0.0162422
646.082	0.0160455
646.160	0.0160172
646.238	0.0159083
646.317	0.0158479
646.395	0.0158742
646.473	0.0156994
646.551	0.0157014
646.629	0.0154983
646.707	0.0153657
646.785	0.0154337
646.863	0.0152438
646.942	0.0152271
647.020	0.0151919
647.098	0.0151664
647.176	0.0149981
647.254	0.0149795
647.332	0.0150922
647.410	0.0151697
647.488	0.0150360
647.567	0.0149911
647.645	0.0150250
647.723	0.0151342
647.801	0.0151371
647.879	0.0152919
647.957	0.0154536
648.035	0.0154536
648.113	0.0155961
648.192	0.0158719
648.270	0.0157707
648.348	0.0160474
648.426	0.0162434
648.504	0.0163774
648.582	0.0162588
648.660	0.0165171
648.738	0.0164991
648.817	0.0166067
648.895	0.0166444
648.973	0.0166857
649.051	0.0166533
649.129	0.0167596
649.207	0.0165407
649.285	0.0166724
649.363	0.0166324
649.442	0.0164916
649.520	0.0164535
649.598	0.0162711
649.676	0.0162379
649.754	0.0161307
649.832	0.0159816
649.910	0.0161140
649.988	0.0159038
650.067	0.0157900
650.145	0.0157888
650.223	0.0155380
650.301	0.0157373
650.379	0.0155700
650.457	0.0155040
650.535	0.0155708
650.613	0.0156898
650.692	0.0155958
650.770	0.0156295
650.848	0.0157174
650.926	0.0156507
651.004	0.0156858
651.082	0.0159530
651.160	0.0157679
651.238	0.0159218
651.317	0.0158350
651.395	0.0158598
651.473	0.0159608
651.551	0.0158997
651.629	0.0159580
651.707	0.0158517
651.785	0.0157799
651.863	0.0157620
651.942	0.0158057
652.020	0.0157042
652.098	0.0157637
652.176	0.0157684
652.254	0.0156380
652.332	0.0156139
652.410	0.0156147
652.488	0.0155566
652.567	0.0155875
652.645	0.0156277
652.723	0.0156773
652.801	0.0156107
652.879	0.0156651
652.957	0.0159398
653.035	0.0157496
653.113	0.0157182
653.192	0.0156920
653.270	0.0157956
653.348	0.0158204
653.426	0.0158405
653.504	0.0159919
653.582	0.0159909
653.660	0.0160445
653.738	0.0159721
653.817	0.0159657
653.895	0.0159888
653.973	0.0159755
654.051	0.0159743
654.129	0.0159946
654.207	0.0159440
654.285	0.0160089
654.363	0.0160257
654.442	0.0160217
654.520	0.0161752
654.598	0.0163113
654.676	0.0160447
654.754	0.0161192
654.832	0.0160648
654.910	0.0160873
654.988	0.0159943
655.067	0.0161050
655.145	0.0158746
655.223	0.0159373
655.301	0.0159454
655.379	0.0159051
655.457	0.0159910
655.535	0.0160754
655.613	0.0159546
655.692	0.0159068
655.770	0.0159308
655.848	0.0160662
655.926	0.0159696
656.004	0.0160001
656.082	0.0159157
656.160	0.0159508
656.238	0.0159814
656.317	0.0160532
656.395	0.0160191
656.473	0.0159039
656.551	0.0160305
656.629	0.0159220
656.707	0.0158963
656.785	0.0158405
656.863	0.0157366
656.942	0.0156152
657.020	0.0156531
657.098	0.0156516
657.176	0.0155666
657.254	0.0155223
657.332	0.0153657
657.410	0.0156157
657.488	0.0155085
657.567	0.0154381
657.645	0.0155287
657.723	0.0153609
657.801	0.0154935
657.879	0.0154870
657.957	0.0155965
658.035	0.0156480
658.113	0.0155357
658.192	0.0156190
658.270	0.0157574
658.348	0.0157555
658.426	0.0158140
658.504	0.0158955
658.582	0.0160903
658.660	0.0161862
658.738	0.0162440
658.817	0.0163268
658.895	0.0163941
658.973	0.0165439
659.051	0.0165931
659.129	0.0164093
659.207	0.0164001
659.285	0.0165578
659.363	0.0163677
659.442	0.0163107
659.520	0.0161379
659.598	0.0159106
659.676	0.0158495
659.754	0.0156841
659.832	0.0156473
659.910	0.0155261
659.988	0.0154128
660.067	0.0153892
660.145	0.0153584
660.223	0.0155151
660.301	0.0156038
660.379	0.0157116
660.457	0.0159311
660.535	0.0162309
660.613	0.0162960
660.692	0.0165347
660.770	0.0166739
660.848	0.0166881
660.926	0.0168909
661.004	0.0167979
661.082	0.0167450
661.160	0.0166307
661.238	0.0163984
661.317	0.0160701
661.395	0.0158797
661.473	0.0156174
661.551	0.0151140
661.629	0.0150400
661.707	0.0148460
661.785	0.0146761
661.863	0.0147603
661.942	0.0147285
662.020	0.0148059
662.098	0.0148775
662.176	0.0151406
662.254	0.0154722
662.332	0.0153589
662.410	0.0156675
662.488	0.0157833
662.567	0.0158007
662.645	0.0159694
662.723	0.0161552
662.801	0.0160257
662.879	0.0161110
662.957	0.0162673
663.035	0.0162626
663.113	0.0161555
663.192	0.0163345
663.270	0.0165604
663.348	0.0165384
663.426	0.0164412
663.504	0.0167332
663.582	0.0168057
663.660	0.0167682
663.738	0.0166155
663.817	0.0165001
663.895	0.0163045
663.973	0.0163667
664.051	0.0161813
664.129	0.0159330
664.207	0.0157033
664.285	0.0154432
664.363	0.0153655
664.442	0.0152930
664.520	0.0153261
664.598	0.0151967
664.676	0.0152892
664.754	0.0154595
664.832	0.0155579
664.910	0.0156005
664.988	0.0158474
665.067	0.0160122
665.145	0.0160419
665.223	0.0159689
665.301	0.0158131
665.379	0.0156918
665.457	0.0155770
665.535	0.0153273
665.613	0.0152595
665.692	0.0151194
665.770	0.0149978
665.848	0.0149330
665.926	0.0148804
666.004	0.0151239
666.082	0.0154092
666.160	0.0156119
666.238	0.0160294
666.317	0.0163535
666.395	0.0167199
666.473	0.0168403
666.551	0.0171925
666.629	0.0175673
666.707	0.0176837
666.785	0.0176534
666.863	0.0176855
666.942	0.0177531
667.020	0.0177312
667.098	0.0176608
667.176	0.0174683
667.254	0.0171090
667.332	0.0168134
667.410	0.0164722
667.488	0.0159752
667.567	0.0156786
667.645	0.0153124
667.723	0.0148846
667.801	0.0144695
667.879	0.0142236
667.957	0.0139154
668.035	0.0136652
668.113	0.0134036
668.192	0.0135052
668.270	0.0134885
668.348	0.0134565
668.426	0.0135201
668.504	0.0135239
668.582	0.0137341
668.660	0.0138271
668.738	0.0139966
668.817	0.0143198
668.895	0.0146144
668.973	0.0148798
669.051	0.0153331
669.129	0.0156927
669.207	0.0160572
669.285	0.0166776
669.363	0.0173999
669.442	0.0180529
669.520	0.0184958
669.598	0.0190674
669.676	0.0194632
669.754	0.0195482
669.832	0.0196819
669.910	0.0196802
669.988	0.0193748
670.067	0.0190096
670.145	0.0185199
670.223	0.0179975
670.301	0.0173850
670.379	0.0168609
670.457	0.0163673
670.535	0.0158935
670.613	0.0152609
670.692	0.0148257
670.770	0.0145843
670.848	0.0142109
670.926	0.0139565
671.004	0.0137416
671.082	0.0135936
671.160	0.0134016
671.238	0.0132913
671.317	0.0132632
671.395	0.0132433
671.473	0.0133224
671.551	0.0134061
671.629	0.0136186
671.707	0.0141091
671.785	0.0143939
671.863	0.0149100
671.942	0.0154255
672.020	0.0160464
672.098	0.0164735
672.176	0.0172273
672.254	0.0174194
672.332	0.0179049
672.410	0.0179675
672.488	0.0180149
672.567	0.0177929
672.645	0.0176786
672.723	0.0173145
672.801	0.0169276
672.879	0.0165901
672.957	0.0163035
673.035	0.0159082
673.113	0.0156075
673.192	0.0154184
673.270	0.0152134
673.348	0.0152021
673.426	0.0151620
673.504	0.0152792
673.582	0.0153867
673.660	0.0155686
673.738	0.0157742
673.817	0.0158477
673.895	0.0157946
673.973	0.0160322
674.051	0.0161232
674.129	0.0159090
674.207	0.0158362
674.285	0.0157599
674.363	0.0156775
674.442	0.0153062
674.520	0.0152943
674.598	0.0151254
674.676	0.0149932
674.754	0.0150639
674.832	0.0153036
674.910	0.0151980
674.988	0.0154409
675.067	0.0156900
675.145	0.0159882
675.223	0.0162687
675.301	0.0166010
675.379	0.0169637
675.457	0.0171972
675.535	0.0173746
675.613	0.0175659
675.692	0.0176658
675.770	0.0177614
675.848	0.0175011
675.926	0.0174911
676.004	0.0173851
676.082	0.0172472
676.160	0.0170657
676.238	0.0168883
676.317	0.0165677
676.395	0.0163847
676.473	0.0163097
676.551	0.0163262
676.629	0.0160825
676.707	0.0159449
676.785	0.0156654
676.863	0.0154536
676.942	0.0150583
677.020	0.0148282
677.098	0.0143778
677.176	0.0140524
677.254	0.0137541
677.332	0.0133409
677.410	0.0132353
677.488	0.0131370
677.567	0.0131562
677.645	0.0133402
677.723	0.0135295
677.801	0.0138395
677.879	0.0144658
677.957	0.0147163
678.035	0.0153336
678.113	0.0157582
678.192	0.0159625
678.270	0.0162045
678.348	0.0165024
678.426	0.0165492
678.504	0.0164513
678.582	0.0164938
678.660	0.0164018
678.738	0.0164014
678.817	0.0165435
678.895	0.0164964
678.973	0.0166877
679.051	0.0169521
679.129	0.0171596
679.207	0.0174310
679.285	0.0178622
679.363	0.0180035
679.442	0.0181930
679.520	0.0184237
679.598	0.0186105
679.676	0.0185633
679.754	0.0185622
679.832	0.0184152
679.910	0.0182231
679.988	0.0179397
680.067	0.0175375
680.145	0.0170827
680.223	0.0166128
680.301	0.0163147
680.379	0.0158366
680.457	0.0152847
680.535	0.0148405
680.613	0.0143860
680.692	0.0140766
680.770	0.0138695
680.848	0.0137003
680.926	0.0135884
681.004	0.0135244
681.082	0.0134288
681.160	0.0135994
681.238	0.0136886
681.317	0.0139712
681.395	0.0139667
681.473	0.0141454
681.551	0.0144294
681.629	0.0147571
681.707	0.0149393
681.785	0.0152911
681.863	0.0154182
681.942	0.0155267
682.020	0.0158869
682.098	0.0159966
682.176	0.0161029
682.254	0.0161438
682.332	0.0161086
682.410	0.0161009
682.488	0.0158343
682.567	0.0158228
682.645	0.0157688
682.723	0.0155397
682.801	0.0151849
682.879	0.0151603
682.957	0.0150623
683.035	0.0151817
683.113	0.0152728
683.192	0.0154402
683.270	0.0156078
683.348	0.0161718
683.426	0.0165857
683.504	0.0171194
683.582	0.0175514
683.660	0.0179607
683.738	0.0181818
683.817	0.0186301
683.895	0.0189129
683.973	0.0190403
684.051	0.0189454
684.129	0.0189903
684.207	0.0188421
684.285	0.0183806
684.363	0.0180025
684.442	0.0177540
684.520	0.0172958
684.598	0.0167695
684.676	0.0163503
684.754	0.0158876
684.832	0.0156470
684.910	0.0151802
684.988	0.0150593
685.067	0.0147431
685.145	0.0144800
685.223	0.0145569
685.301	0.0142790
685.379	0.0142557
685.457	0.0141690
685.535	0.0140921
685.613	0.0141962
685.692	0.0141418
685.770	0.0140849
685.848	0.0139661
685.926	0.0140340
686.004	0.0140071
686.082	0.0141104
686.160	0.0142516
686.238	0.0142015
686.317	0.0142918
686.395	0.0145401
686.473	0.0148666
686.551	0.0150948
686.629	0.0153586
686.707	0.0154781
686.785	0.0158456
686.863	0.0160794
686.942	0.0162753
687.020	0.0165379
687.098	0.0169771
687.176	0.0170512
687.254	0.0170532
687.332	0.0172066
687.410	0.0173144
687.488	0.0173200
687.567	0.0172172
687.645	0.0173823
687.723	0.0171858
687.801	0.0172752
687.879	0.0172469
687.957	0.0170909
688.035	0.0170985
688.113	0.0170187
688.192	0.0167184
688.270	0.0168314
688.348	0.0166114
688.426	0.0164889
688.504	0.0164468
688.582	0.0164539
688.660	0.0162523
688.738	0.0162639
688.817	0.0160863
688.895	0.0158854
688.973	0.0155907
689.051	0.0153671
689.129	0.0152325
689.207	0.0146661
689.285	0.0143900
689.363	0.0142679
689.442	0.0140105
689.520	0.0139805
689.598	0.0137113
689.676	0.0137669
689.754	0.0138409
689.832	0.0140098
689.910	0.0143907
689.988	0.0147932
690.067	0.0152152
690.145	0.0157671
690.223	0.0162270
690.301	0.0166833
690.379	0.0170515
690.457	0.0174203
690.535	0.0177949
690.613	0.0179710
690.692	0.0182780
690.770	0.0183085
690.848	0.0185209
690.926	0.0183655
691.004	0.0181193
691.082	0.0180344
691.160	0.0180984
691.238	0.0178966
691.317	0.0173978
691.395	0.0170284
691.473	0.0170219
691.551	0.0166534
691.629	0.0164018
691.707	0.0161379
691.785	0.0155782
691.863	0.0155093
691.942	0.0151835
692.020	0.0150498
692.098	0.0146397
692.176	0.0145228
692.254	0.0143536
692.332	0.0141016
692.410	0.0137594
692.488	0.0137759
692.567	0.0137300
692.645	0.0135530
692.723	0.0132313
692.801	0.0132770
692.879	0.0133956
692.957	0.0136454
693.035	0.0136128
693.113	0.0139524
693.192	0.0141109
693.270	0.0142930
693.348	0.0144238
693.426	0.0148871
693.504	0.0151790
693.582	0.0153667
693.660	0.0155785
693.738	0.0159753
693.817	0.0161017
693.895	0.0161310
693.973	0.0165602
694.051	0.0168353
694.129	0.0169315
694.207	0.0170595
694.285	0.0172295
694.363	0.0174237
694.442	0.0175720
694.520	0.0175369
694.598	0.0175665
694.676	0.0174900
694.754	0.0172488
694.832	0.0171661
694.910	0.0171844
694.988	0.0169444
695.067	0.0168753
695.145	0.0166537
695.223	0.0165871
695.301	0.0165337
695.379	0.0164745
695.457	0.0164631
695.535	0.0168272
695.613	0.0168612
695.692	0.0169084
695.770	0.0169466
695.848	0.0169779
695.926	0.0170450
696.004	0.0169492
696.082	0.0167822
696.160	0.0165861
696.238	0.0161406
696.317	0.0157710
696.395	0.0153328
696.473	0.0149854
696.551	0.0144624
696.629	0.0140842
696.707	0.0139518
696.785	0.0139245
696.863	0.0140321
696.942	0.0141645
697.020	0.0143858
697.098	0.0148763
697.176	0.0152568
697.254	0.0157931
697.332	0.0161468
697.410	0.0167604
697.488	0.0170723
697.567	0.0175047
697.645	0.0176028
697.723	0.0175697
697.801	0.0175449
697.879	0.0173389
697.957	0.0172549
698.035	0.0169434
698.113	0.0166389
698.192	0.0164674
698.270	0.0161818
698.348	0.0160611
698.426	0.0158452
698.504	0.0156497
698.582	0.0154585
698.660	0.0152139
698.738	0.0150520
698.817	0.0148759
698.895	0.0146917
698.973	0.0145174
699.051	0.0144410
699.129	0.0143803
699.207	0.0142529
699.285	0.0140617
699.363	0.0141783
699.442	0.0142166
699.520	0.0142133
699.598	0.0144786
699.676	0.0143520
699.754	0.0145937
699.832	0.0145920
699.910	0.0147150
699.988	0.0148577
700.067	0.0149185
700.145	0.0151207
700.223	0.0152799
700.301	0.0153278
700.379	0.0153688
700.457	0.0156071
700.535	0.0155495
700.613	0.0156774
700.692	0.0158144
700.770	0.0161077
700.848	0.0162723
700.926	0.0164234
701.004	0.0166906
701.082	0.0169952
701.160	0.0171526
701.238	0.0172868
701.317	0.0173659
701.395	0.0174467
701.473	0.0175134
701.551	0.0174536
701.629	0.0172549
701.707	0.0172083
701.785	0.0169751
701.863	0.0167984
701.942	0.0165939
702.020	0.0164825
702.098	0.0162198
702.176	0.0161222
702.254	0.0161070
702.332	0.0160733
702.410	0.0160672
702.488	0.0163956
702.567	0.0165150
702.645	0.0166212
702.723	0.0168356
702.801	0.0170592
702.879	0.0171338
702.957	0.0172769
703.035	0.0175311
703.113	0.0175182
703.192	0.0175032
703.270	0.0175473
703.348	0.0176453
703.426	0.0175330
703.504	0.0173500
703.582	0.0172287
703.660	0.0171929
703.738	0.0170280
703.817	0.0167231
703.895	0.0166348
703.973	0.0166459
704.051	0.0163142
704.129	0.0160604
704.207	0.0157140
704.285	0.0153886
704.363	0.0151329
704.442	0.0147696
704.520	0.0146780
704.598	0.0144000
704.676	0.0141101
704.754	0.0138176
704.832	0.0136298
704.910	0.0133263
704.988	0.0132658
705.067	0.0131349
705.145	0.0131916
705.223	0.0130291
705.301	0.0131705
705.379	0.0132011
705.457	0.0134116
705.535	0.0134321
705.613	0.0137872
705.692	0.0138607
705.770	0.0139230
705.848	0.0142931
705.926	0.0143471
706.004	0.0144401
706.082	0.0145164
706.160	0.0146865
706.238	0.0146257
706.317	0.0145956
706.395	0.0146611
706.473	0.0146436
706.551	0.0148203
706.629	0.0151154
706.707	0.0152750
706.785	0.0156200
706.863	0.0159784
706.942	0.0162513
707.020	0.0166766
707.098	0.0170758
707.176	0.0174942
707.254	0.0178443
707.332	0.0181374
707.410	0.0185517
707.488	0.0188759
707.567	0.0191154
707.645	0.0194604
707.723	0.0195271
707.801	0.0196072
707.879	0.0196313
707.957	0.0195159
708.035	0.0192811
708.113	0.0190031
708.192	0.0186723
708.270	0.0183283
708.348	0.0178286
708.426	0.0172856
708.504	0.0168375
708.582	0.0163365
708.660	0.0158965
708.738	0.0156463
708.817	0.0152397
708.895	0.0151708
708.973	0.0150498
709.051	0.0150327
709.129	0.0150834
709.207	0.0150712
709.285	0.0151999
709.363	0.0153187
709.442	0.0156105
709.520	0.0158113
709.598	0.0159808
709.676	0.0160881
709.754	0.0163994
709.832	0.0164194
709.910	0.0168008
709.988	0.0167709
710.067	0.0166639
710.145	0.0167582
710.223	0.0167179
710.301	0.0167522
710.379	0.0166450
710.457	0.0165085
710.535	0.0163047
710.613	0.0160312
710.692	0.0157575
710.770	0.0156117
710.848	0.0154106
710.926	0.0151666
711.004	0.0148254
711.082	0.0148103
711.160	0.0145144
711.238	0.0143301
711.317	0.0142452
711.395	0.0140366
711.473	0.0138210
711.551	0.0138824
711.629	0.0136700
711.707	0.0135376
711.785	0.0133419
711.863	0.0134681
711.942	0.0132604
712.020	0.0131461
712.098	0.0131629
712.176	0.0130910
712.254	0.0132231
712.332	0.0133206
712.410	0.0135381
712.488	0.0137273
712.567	0.0139476
712.645	0.0141660
712.723	0.0144345
712.801	0.0148020
712.879	0.0151299
712.957	0.0153873
713.035	0.0156152
713.113	0.0158685
713.192	0.0160549
713.270	0.0163840
713.348	0.0166467
713.426	0.0170313
713.504	0.0170224
713.582	0.0172146
713.660	0.0176020
713.738	0.0179037
713.817	0.0181365
713.895	0.0182426
713.973	0.0185617
714.051	0.0186814
714.129	0.0189282
714.207	0.0192632
714.285	0.0192869
714.363	0.0194680
714.442	0.0196434
714.520	0.0196447
714.598	0.0195100
714.676	0.0194546
714.754	0.0192444
714.832	0.0188348
714.910	0.0182681
714.988	0.0178458
715.067	0.0174875
715.145	0.0168456
715.223	0.0163003
715.301	0.0157906
715.379	0.0153287
715.457	0.0148627
715.535	0.0145745
715.613	0.0141762
715.692	0.0139946
715.770	0.0139160
715.848	0.0139774
715.926	0.0139865
716.004	0.0140334
716.082	0.0142437
716.160	0.0144120
716.238	0.0146867
716.317	0.0147601
716.395	0.0150903
716.473	0.0153166
716.551	0.0152988
716.629	0.0155173
716.707	0.0159618
716.785	0.0161519
716.863	0.0160777
716.942	0.0160464
717.020	0.0160627
717.098	0.0159421
717.176	0.0160355
717.254	0.0160197
717.332	0.0158533
717.410	0.0158435
717.488	0.0157713
717.567	0.0155283
717.645	0.0156374
717.723	0.0154926
717.801	0.0154083
717.879	0.0152675
717.957	0.0153101
718.035	0.0152389
718.113	0.0151316
718.192	0.0150174
718.270	0.0151862
718.348	0.0148943
718.426	0.0148377
718.504	0.0147577
718.582	0.0147631
718.660	0.0146843
718.738	0.0145278
718.817	0.0144283
718.895	0.0144260
718.973	0.0144975
719.051	0.0144019
719.129	0.0144582
719.207	0.0144764
719.285	0.0145092
719.363	0.0146492
719.442	0.0145729
719.520	0.0146970
719.598	0.0149216
719.676	0.0149627
719.754	0.0152326
719.832	0.0153355
719.910	0.0155772
719.988	0.0156458
720.067	0.0159367
720.145	0.0163083
720.223	0.0165267
720.301	0.0166100
720.379	0.0168272
720.457	0.0170163
720.535	0.0173238
720.613	0.0174885
720.692	0.0176167
720.770	0.0178042
720.848	0.0180018
720.926	0.0181201
721.004	0.0183490
721.082	0.0184148
721.160	0.0184889
721.238	0.0184696
721.317	0.0186732
721.395	0.0185220
721.473	0.0184314
721.551	0.0182964
721.629	0.0180742
721.707	0.0176984
721.785	0.0173900
721.863	0.0170061
721.942	0.0166185
722.020	0.0161236
722.098	0.0158489
722.176	0.0154829
722.254	0.0151781
722.332	0.0148734
722.410	0.0146742
722.488	0.0144256
722.567	0.0144018
722.645	0.0144326
722.723	0.0146594
722.801	0.0148592
722.879	0.0149064
722.957	0.0150386
723.035	0.0153343
723.113	0.0154390
723.192	0.0156900
723.270	0.0159061
723.348	0.0159528
723.426	0.0161294
723.504	0.0162324
723.582	0.0162319
723.660	0.0162933
723.738	0.0163979
723.817	0.0162366
723.895	0.0162363
723.973	0.0160870
724.051	0.0158070
724.129	0.0157549
724.207	0.0157223
724.285	0.0156191
724.363	0.0154541
724.442	0.0154726
724.520	0.0153674
724.598	0.0153300
724.676	0.0151760
724.754	0.0151813
724.832	0.0153009
724.910	0.0153766
724.988	0.0152013
725.067	0.0152385
725.145	0.0152301
725.223	0.0151386
725.301	0.0151824
725.379	0.0150564
725.457	0.0152206
725.535	0.0149550
725.613	0.0149827
725.692	0.0148582
725.770	0.0146501
725.848	0.0148322
725.926	0.0147552
726.004	0.0146181
726.082	0.0144337
726.160	0.0145608
726.238	0.0144508
726.317	0.0146220
726.395	0.0146464
726.473	0.0146670
726.551	0.0149076
726.629	0.0149378
726.707	0.0152094
726.785	0.0153666
726.863	0.0155801
726.942	0.0157965
727.020	0.0159425
727.098	0.0161074
727.176	0.0164723
727.254	0.0166697
727.332	0.0169267
727.410	0.0169826
727.488	0.0171996
727.567	0.0173318
727.645	0.0174954
727.723	0.0177197
727.801	0.0176578
727.879	0.0178648
727.957	0.0178575
728.035	0.0178300
728.113	0.0177343
728.192	0.0177978
728.270	0.0175452
728.348	0.0174083
728.426	0.0172775
728.504	0.0170420
728.582	0.0169296
728.660	0.0167915
728.738	0.0165739
728.817	0.0163905
728.895	0.0161675
728.973	0.0160883
729.051	0.0160338
729.129	0.0160147
729.207	0.0159200
729.285	0.0158112
729.363	0.0158688
729.442	0.0158383
729.520	0.0158974
729.598	0.0160091
729.676	0.0160147
729.754	0.0159985
729.832	0.0160511
729.910	0.0162533
729.988	0.0163558
730.067	0.0163918
730.145	0.0164361
730.223	0.0162678
730.301	0.0164052
730.379	0.0162447
730.457	0.0162728
730.535	0.0162772
730.613	0.0160899
730.692	0.0160851
730.770	0.0158418
730.848	0.0157789
730.926	0.0156455
731.004	0.0155556
731.082	0.0155734
731.160	0.0153371
731.238	0.0154284
731.317	0.0153650
731.395	0.0152415
731.473	0.0151554
731.551	0.0152107
731.629	0.0150589
731.707	0.0151972
731.785	0.0152753
731.863	0.0152480
731.942	0.0153072
732.020	0.0150011
732.098	0.0149747
732.176	0.0149242
732.254	0.0149172
732.332	0.0148815
732.410	0.0146114
732.488	0.0144987
732.567	0.0145832
732.645	0.0145721
732.723	0.0146091
732.801	0.0145981
732.879	0.0145554
732.957	0.0145946
733.035	0.0146639
733.113	0.0146474
733.192	0.0147458
733.270	0.0148180
733.348	0.0149698
733.426	0.0150015
733.504	0.0150690
733.582	0.0151129
733.660	0.0153687
733.738	0.0155398
733.817	0.0155160
733.895	0.0158112
733.973	0.0158691
734.051	0.0161044
734.129	0.0162811
734.207	0.0163579
734.285	0.0166788
734.363	0.0167638
734.442	0.0170767
734.520	0.0173244
734.598	0.0174731
734.676	0.0175129
734.754	0.0176413
734.832	0.0176732
734.910	0.0178679
734.988	0.0178635
735.067	0.0178657
735.145	0.0177706
735.223	0.0177966
735.301	0.0175481
735.379	0.0173702
735.457	0.0171806
735.535	0.0169079
735.613	0.0167889
735.692	0.0164764
735.770	0.0163995
735.848	0.0162089
735.926	0.0162448
736.004	0.0158462
736.082	0.0157275
736.160	0.0157376
736.238	0.0157364
736.317	0.0158213
736.395	0.0158617
736.473	0.0158453
736.551	0.0159074
736.629	0.0161124
736.707	0.0161083
736.785	0.0162864
736.863	0.0163407
736.942	0.0162824
737.020	0.0163594
737.098	0.0163802
737.176	0.0164537
737.254	0.0164062
737.332	0.0163654
737.410	0.0162724
737.488	0.0163239
737.567	0.0160974
737.645	0.0159562
737.723	0.0159140
737.801	0.0157301
737.879	0.0157850
737.957	0.0155746
738.035	0.0154045
738.113	0.0152910
738.192	0.0152931
738.270	0.0150921
738.348	0.0150026
738.426	0.0150849
738.504	0.0150275
738.582	0.0149673
738.660	0.0150047
738.738	0.0149278
738.817	0.0148473
738.895	0.0149161
738.973	0.0149072
739.051	0.0147710
739.129	0.0147435
739.207	0.0148553
739.285	0.0147964
739.363	0.0147492
739.442	0.0146812
739.520	0.0147080
739.598	0.0146352
739.676	0.0146373
739.754	0.0145757
739.832	0.0146430
739.910	0.0146338
739.988	0.0147109
740.067	0.0147447
740.145	0.0148997
740.223	0.0149869
740.301	0.0151151
740.379	0.0153258
740.457	0.0155207
740.535	0.0155491
740.613	0.0155291
740.692	0.0157839
740.770	0.0159415
740.848	0.0160199
740.926	0.0160756
741.004	0.0161909
741.082	0.0165013
741.160	0.0166447
741.238	0.0167865
741.317	0.0169978
741.395	0.0169056
741.473	0.0172025
741.551	0.0171869
741.629	0.0172971
741.707	0.0174477
741.785	0.0175970
741.863	0.0176129
741.942	0.0175387
742.020	0.0174953
742.098	0.0174109
742.176	0.0174311
742.254	0.0172850
742.332	0.0170831
742.410	0.0170053
742.488	0.0167136
742.567	0.0167273
742.645	0.0165914
742.723	0.0164373
742.801	0.0163499
742.879	0.0162844
742.957	0.0161741
743.035	0.0160802
743.113	0.0160847
743.192	0.0160503
743.270	0.0160957
743.348	0.0161480
743.426	0.0161773
743.504	0.0163490
743.582	0.0161163
743.660	0.0160576
743.738	0.0161564
743.817	0.0160053
743.895	0.0160645
743.973	0.0160876
744.051	0.0160499
744.129	0.0159023
744.207	0.0157656
744.285	0.0157000
744.363	0.0156332
744.442	0.0155676
744.520	0.0155843
744.598	0.0155210
744.676	0.0154919
744.754	0.0154787
744.832	0.0152852
744.910	0.0153632
744.988	0.0153578
745.067	0.0153745
745.145	0.0152904
745.223	0.0153175
745.301	0.0154165
745.379	0.0152969
745.457	0.0153613
745.535	0.0153572
745.613	0.0153864
745.692	0.0153866
745.770	0.0153703
745.848	0.0154532
745.926	0.0153476
746.004	0.0154198
746.082	0.0153708
746.160	0.0154092
746.238	0.0153374
746.317	0.0152858
746.395	0.0153096
746.473	0.0152581
746.551	0.0152547
746.629	0.0151777
746.707	0.0152273
746.785	0.0153059
746.863	0.0154364
746.942	0.0153938
747.020	0.0153047
747.098	0.0155708
747.176	0.0155908
747.254	0.0156053
747.332	0.0154816
747.410	0.0156036
747.488	0.0156134
747.567	0.0157885
747.645	0.0158148
747.723	0.0157711
747.801	0.0157654
747.879	0.0158319
747.957	0.0157658
748.035	0.0159602
748.113	0.0159795
748.192	0.0158591
748.270	0.0160400
748.348	0.0162193
748.426	0.0163191
748.504	0.0161956
748.582	0.0163662
748.660	0.0162458
748.738	0.0164851
748.817	0.0165590
748.895	0.0164641
748.973	0.0165503
749.051	0.0166905
749.129	0.0166837
749.207	0.0166854
749.285	0.0166790
749.363	0.0165536
749.442	0.0164346
749.520	0.0164791
749.598	0.0164433
749.676	0.0164819
749.754	0.0164553
749.832	0.0163042
749.910	0.0163450
749.988	0.0163583
750.067	0.0161497
750.145	0.0162715
750.223	0.0163489
750.301	0.0163187
750.379	0.0163289
750.457	0.0163416
750.535	0.0164058
750.613	0.0164428
750.692	0.0165192
750.770	0.0164608
750.848	0.0165449
750.926	0.0164100
751.004	0.0164130
751.082	0.0164638
751.160	0.0163570
751.238	0.0164630
751.317	0.0163599
751.395	0.0162013
751.473	0.0161877
751.551	0.0162133
751.629	0.0159615
751.707	0.0160170
751.785	0.0160312
751.863	0.0159174
751.942	0.0157761
752.020	0.0155882
752.098	0.0156606
752.176	0.0156556
752.254	0.0155389
752.332	0.0155700
752.410	0.0154559
752.488	0.0153908
752.567	0.0151947
752.645	0.0153469
752.723	0.0153223
752.801	0.0153460
752.879	0.0152114
752.957	0.0151934
753.035	0.0151370
753.113	0.0150421
753.192	0.0151067
753.270	0.0150618
753.348	0.0150221
753.426	0.0150957
753.504	0.0150661
753.582	0.0151056
753.660	0.0151327
753.738	0.0150930
753.817	0.0152434
753.895	0.0154014
753.973	0.0153412
754.051	0.0153872
754.129	0.0154079
754.207	0.0152957
754.285	0.0154883
754.363	0.0155105
754.442	0.0153028
754.520	0.0155240
754.598	0.0155211
754.676	0.0155922
754.754	0.0155493
754.832	0.0156339
754.910	0.0156951
754.988	0.0155983
755.067	0.0157368
755.145	0.0157733
755.223	0.0158277
755.301	0.0157523
755.379	0.0159695
755.457	0.0161485
755.535	0.0160794
755.613	0.0160680
755.692	0.0161333
755.770	0.0162292
755.848	0.0162878
755.926	0.0163053
756.004	0.0163429
756.082	0.0164974
756.160	0.0165418
756.238	0.0165096
756.317	0.0165936
756.395	0.0165517
756.473	0.0164993
756.551	0.0164027
756.629	0.0166618
756.707	0.0165504
756.785	0.0164962
756.863	0.0166158
756.942	0.0165704
757.020	0.0164756
757.098	0.0165388
757.176	0.0165290
757.254	0.0164740
757.332	0.0166754
757.410	0.0165334
757.488	0.0165352
757.567	0.0165794
757.645	0.0165453
757.723	0.0166985
757.801	0.0166261
757.879	0.0164571
757.957	0.0164172
758.035	0.0165054
758.113	0.0164737
758.192	0.0163899
758.270	0.0162579
758.348	0.0162327
758.426	0.0162364
758.504	0.0163083
758.582	0.0161823
758.660	0.0160679
758.738	0.0160242
758.817	0.0160661
758.895	0.0158996
758.973	0.0159286
759.051	0.0158701
759.129	0.0158688
759.207	0.0157679
759.285	0.0157270
759.363	0.0157785
759.442	0.0156421
759.520	0.0155658
759.598	0.0154652
759.676	0.0154227
759.754	0.0152985
759.832	0.0153362
759.910	0.0153689
759.988	0.0151742
760.067	0.0153136
760.145	0.0152423
760.223	0.0151088
760.301	0.0150957
760.379	0.0151019
760.457	0.0151402
760.535	0.0153118
760.613	0.0152847
760.692	0.0153987
760.770	0.0152601
760.848	0.0153210
760.926	0.0153876
761.004	0.0153402
761.082	0.0153631
761.160	0.0155446
761.238	0.0155042
761.317	0.0154682
761.395	0.0153275
761.473	0.0154198
761.551	0.0154147
761.629	0.0155827
761.707	0.0156561
761.785	0.0154817
761.863	0.0153761
761.942	0.0154384
762.020	0.0155121
762.098	0.0156317
762.176	0.0156995
762.254	0.0156201
762.332	0.0156615
762.410	0.0157542
762.488	0.0159028
762.567	0.0159639
762.645	0.0160857
762.723	0.0160701
762.801	0.0160612
762.879	0.0163635
762.957	0.0162144
763.035	0.0163911
763.113	0.0163985
763.192	0.0162688
763.270	0.0162852
763.348	0.0163775
763.426	0.0163823
763.504	0.0164741
763.582	0.0165596
763.660	0.0163821
763.738	0.0164659
763.817	0.0166242
763.895	0.0165987
763.973	0.0164590
764.051	0.0166408
764.129	0.0165413
764.207	0.0165865
764.285	0.0166735
764.363	0.0165395
764.442	0.0164826
764.520	0.0164795
764.598	0.0165248
764.676	0.0164783
764.754	0.0163766
764.832	0.0163045
764.910	0.0163040
764.988	0.0163372
765.067	0.0162171
765.145	0.0162370
765.223	0.0161189
765.301	0.0160845
765.379	0.0161835
765.457	0.0161334
765.535	0.0160273
765.613	0.0161102
765.692	0.0161243
765.770	0.0162343
765.848	0.0161530
765.926	0.0161816
766.004	0.0162225
766.082	0.0162421
766.160	0.0161480
766.238	0.0161227
766.317	0.0161467
766.395	0.0160945
766.473	0.0160493
766.551	0.0159793
766.629	0.0159478
766.707	0.0159846
766.785	0.0158915
766.863	0.0158638
766.942	0.0157347
767.020	0.0157471
767.098	0.0157361
767.176	0.0155312
767.254	0.0154668
767.332	0.0152126
767.410	0.0152129
767.488	0.0151675
767.567	0.0150127
767.645	0.0149261
767.723	0.0150041
767.801	0.0149693
767.879	0.0149354
767.957	0.0149527
768.035	0.0149365
768.113	0.0149629
768.192	0.0150012
768.270	0.0151533
768.348	0.0150987
768.426	0.0151984
768.504	0.0151605
768.582	0.0152812
768.660	0.0152293
768.738	0.0153798
768.817	0.0153397
768.895	0.0153272
768.973	0.0154913
769.051	0.0155730
769.129	0.0155647
769.207	0.0155573
769.285	0.0155406
769.363	0.0157710
769.442	0.0156706
769.520	0.0156540
769.598	0.0159646
769.676	0.0157925
769.754	0.0158591
769.832	0.0160101
769.910	0.0160593
769.988	0.0160685
770.067	0.0161899
770.145	0.0161237
770.223	0.0162280
770.301	0.0163208
770.379	0.0161908
770.457	0.0163153
770.535	0.0164138
770.613	0.0162749
770.692	0.0163879
770.770	0.0162981
770.848	0.0163663
770.926	0.0164819
771.004	0.0164797
771.082	0.0163707
771.160	0.0165790
771.238	0.0167006
771.317	0.0167285
771.395	0.0166723
771.473	0.0167592
771.551	0.0165765
771.629	0.0167599
771.707	0.0167761
771.785	0.0167548
771.863	0.0166757
771.942	0.0166399
772.020	0.0166816
772.098	0.0166594
772.176	0.0164683
772.254	0.0164850
772.332	0.0165076
772.410	0.0165092
772.488	0.0163980
772.567	0.0162576
772.645	0.0162132
772.723	0.0162402
772.801	0.0161926
772.879	0.0159731
772.957	0.0160873
773.035	0.0159872
773.113	0.0158965
773.192	0.0157792
773.270	0.0157531
773.348	0.0155840
773.426	0.0156489
773.504	0.0155170
773.582	0.0155231
773.660	0.0153544
773.738	0.0153568
773.817	0.0150945
773.895	0.0150684
773.973	0.0150761
774.051	0.0150169
774.129	0.0150031
774.207	0.0151222
774.285	0.0149474
774.363	0.0151551
774.442	0.0151908
774.520	0.0151009
774.598	0.0151005
774.676	0.0151760
774.754	0.0150774
774.832	0.0152670
774.910	0.0153576
774.988	0.0153863
775.067	0.0152364
775.145	0.0153864
775.223	0.0154237
775.301	0.0156118
775.379	0.0156523
775.457	0.0157213
775.535	0.0157927
775.613	0.0157364
775.692	0.0158592
775.770	0.0158230
775.848	0.0158708
775.926	0.0158843
776.004	0.0158950
776.082	0.0160049
776.160	0.0159827
776.238	0.0159451
776.317	0.0159426
776.395	0.0159224
776.473	0.0159048
776.551	0.0158928
776.629	0.0158089
776.707	0.0160710
776.785	0.0158741
776.863	0.0158829
776.942	0.0157838
777.020	0.0158449
777.098	0.0158535
777.176	0.0158843
777.254	0.0158825
777.332	0.0159774
777.410	0.0159671
777.488	0.0159351
777.567	0.0159190
777.645	0.0158869
777.723	0.0158779
777.801	0.0159926
777.879	0.0159828
777.957	0.0158886
778.035	0.0158677
778.113	0.0160638
778.192	0.0161096
778.270	0.0160729
778.348	0.0161504
778.426	0.0161609
778.504	0.0162837
778.582	0.0162788
778.660	0.0165415
778.738	0.0164204
778.817	0.0164605
778.895	0.0165510
778.973	0.0165255
779.051	0.0164678
779.129	0.0166140
779.207	0.0164870
779.285	0.0163448
779.363	0.0165304
779.442	0.0165784
779.520	0.0164118
779.598	0.0162984
779.676	0.0161727
779.754	0.0161478
779.832	0.0161723
779.910	0.0162151
779.988	0.0161256
780.067	0.0161166
780.145	0.0161589
780.223	0.0160710
780.301	0.0161192
780.379	0.0161097
780.457	0.0158712
780.535	0.0158400
780.613	0.0157151
780.692	0.0157295
780.770	0.0158481
780.848	0.0156644
780.926	0.0157246
781.004	0.0155212
781.082	0.0156764
781.160	0.0154465
781.238	0.0153969
781.317	0.0154202
781.395	0.0153660
781.473	0.0154906
781.551	0.0154308
781.629	0.0153832
781.707	0.0152773
781.785	0.0152480
781.863	0.0153272
781.942	0.0152521
782.020	0.0153234
782.098	0.0153203
782.176	0.0153783
782.254	0.0153767
782.332	0.0152670
782.410	0.0153314
782.488	0.0153838
782.567	0.0154576
782.645	0.0154694
782.723	0.0154749
782.801	0.0155528
782.879	0.0154911
782.957	0.0154173
783.035	0.0156220
783.113	0.0156794
783.192	0.0157822
783.270	0.0156448
783.348	0.0158097
783.426	0.0157798
783.504	0.0158067
783.582	0.0158241
783.660	0.0157740
783.738	0.0158688
783.817	0.0157362
783.895	0.0159419
783.973	0.0157948
784.051	0.0158138
784.129	0.0159281
784.207	0.0157328
784.285	0.0158102
784.363	0.0158704
784.442	0.0158308
784.520	0.0157692
784.598	0.0160365
784.676	0.0159515
784.754	0.0160699
784.832	0.0161405
784.910	0.0162029
784.988	0.0161674
785.067	0.0161653
785.145	0.0161559
785.223	0.0162080
785.301	0.0161670
785.379	0.0162243
785.457	0.0161818
785.535	0.0163496
785.613	0.0163707
785.692	0.0161943
785.770	0.0162703
785.848	0.0163589
785.926	0.0163635
786.004	0.0163717
786.082	0.0163094
786.160	0.0163387
786.238	0.0162861
786.317	0.0162454
786.395	0.0162814
786.473	0.0163854
786.551	0.0162746
786.629	0.0163659
786.707	0.0162938
786.785	0.0162701
786.863	0.0162907
786.942	0.0164642
787.020	0.0162682
787.098	0.0164018
787.176	0.0162990
787.254	0.0162469
787.332	0.0161385
787.410	0.0161317
787.488	0.0161666
787.567	0.0160707
787.645	0.0160032
787.723	0.0159132
787.801	0.0158048
787.879	0.0159045
787.957	0.0157829
788.035	0.0157346
788.113	0.0156767
788.192	0.0156805
788.270	0.0156767
788.348	0.0154597
788.426	0.0155830
788.504	0.0155014
788.582	0.0155478
788.660	0.0153824
788.738	0.0154788
788.817	0.0155396
788.895	0.0153956
788.973	0.0154166
789.051	0.0155388
789.129	0.0154401
789.207	0.0153600
789.285	0.0153453
789.363	0.0153986
789.442	0.0153324
789.520	0.0154967
789.598	0.0155267
789.676	0.0154553
789.754	0.0154411
789.832	0.0154785
789.910	0.0154161
789.988	0.0155190
790.067	0.0155427
790.145	0.0155669
790.223	0.0156342
790.301	0.0155393
790.379	0.0156531
790.457	0.0156972
790.535	0.0157648
790.613	0.0158833
790.692	0.0157778
790.770	0.0158588
790.848	0.0159261
790.926	0.0160602
791.004	0.0160246
791.082	0.0160423
791.160	0.0160033
791.238	0.0160335
791.317	0.0160455
791.395	0.0160983
791.473	0.0159924
791.551	0.0159680
791.629	0.0160249
791.707	0.0161250
791.785	0.0160581
791.863	0.0160726
791.942	0.0160393
792.020	0.0161539
792.098	0.0161919
792.176	0.0159563
792.254	0.0159786
792.332	0.0160764
792.410	0.0160376
792.488	0.0161572
792.567	0.0161304
792.645	0.0160709
792.723	0.0161012
792.801	0.0160921
792.879	0.0160448
792.957	0.0160780
793.035	0.0160541
793.113	0.0161194
793.192	0.0161108
793.270	0.0159099
793.348	0.0159675
793.426	0.0160117
793.504	0.0162482
793.582	0.0162327
793.660	0.0162479
793.738	0.0162251
793.817	0.0163100
793.895	0.0162787
793.973	0.0163332
794.051	0.0161991
794.129	0.0162764
794.207	0.0160993
794.285	0.0164182
794.363	0.0161501
794.442	0.0160822
794.520	0.0162531
794.598	0.0161509
794.676	0.0161815
794.754	0.0160947
794.832	0.0159232
794.910	0.0159863
794.988	0.0159521
795.067	0.0158092
795.145	0.0158567
795.223	0.0157978
795.301	0.0155399
795.379	0.0154990
795.457	0.0155549
795.535	0.0154307
795.613	0.0153281
795.692	0.0153066
795.770	0.0152971
795.848	0.0151692
795.926	0.0152721
796.004	0.0152367
796.082	0.0151559
796.160	0.0152285
796.238	0.0152792
796.317	0.0153089
796.395	0.0153165
796.473	0.0153323
796.551	0.0154389
796.629	0.0154475
796.707	0.0155704
796.785	0.0155488
796.863	0.0156883
796.942	0.0155926
797.020	0.0158330
797.098	0.0157682
797.176	0.0159048
797.254	0.0158895
797.332	0.0159541
797.410	0.0159647
797.488	0.0159215
797.567	0.0160464
797.645	0.0159482
797.723	0.0159544
797.801	0.0159115
797.879	0.0159368
797.957	0.0158229
798.035	0.0159289
798.113	0.0159666
798.192	0.0159521
798.270	0.0158448
798.348	0.0158640
798.426	0.0159177
798.504	0.0158224
798.582	0.0159724
798.660	0.0160203
798.738	0.0160196
798.817	0.0159608
798.895	0.0160400
798.973	0.0159878
799.051	0.0160020
799.129	0.0160623
799.207	0.0160492
799.285	0.0161177
799.363	0.0161739
799.442	0.0161577
799.520	0.0161132
799.598	0.0161343
799.676	0.0162397
799.754	0.0160411
799.832	0.0161640
799.910	0.0162426
799.988	0.0161381
800.067	0.0159976
800.145	0.0161095
800.223	0.0160518
800.301	0.0161613
800.379	0.0159985
800.457	0.0160855
800.535	0.0159782
800.613	0.0159126
800.692	0.0160114
800.770	0.0161520
800.848	0.0160387
800.926	0.0160051
801.004	0.0159480
801.082	0.0159770
801.160	0.0159365
801.238	0.0160217
801.317	0.0159533
801.395	0.0159447
801.473	0.0159573
801.551	0.0159089
801.629	0.0158765
801.707	0.0159190
801.785	0.0157761
801.863	0.0156099
801.942	0.0157641
802.020	0.0157309
802.098	0.0157633
802.176	0.0156297
802.254	0.0155241
802.332	0.0156660
802.410	0.0155860
802.488	0.0155752
802.567	0.0155721
802.645	0.0155830
802.723	0.0156470
802.801	0.0156740
802.879	0.0156181
802.957	0.0155953
803.035	0.0157087
803.113	0.0158689
803.192	0.0157882
803.270	0.0157624
803.348	0.0160114
803.426	0.0158576
803.504	0.0157239
803.582	0.0159899
803.660	0.0160918
803.738	0.0159533
803.817	0.0159137
803.895	0.0161877
803.973	0.0160159
804.051	0.0161171
804.129	0.0161297
804.207	0.0162492
804.285	0.0161597
804.363	0.0162225
804.442	0.0162086
804.520	0.0160949
804.598	0.0161459
804.676	0.0161129
804.754	0.0160935
804.832	0.0160147
804.910	0.0159856
804.988	0.0158882
805.067	0.0158940
805.145	0.0160216
805.223	0.0160157
805.301	0.0160036
805.379	0.0157814
805.457	0.0158672
805.535	0.0158371
805.613	0.0158285
805.692	0.0158404
805.770	0.0158830
805.848	0.0159120
805.926	0.0158839
806.004	0.0158679
806.082	0.0159723
806.160	0.0159549
806.238	0.0157911
806.317	0.0157924
806.395	0.0159729
806.473	0.0159408
806.551	0.0157806
806.629	0.0158882
806.707	0.0158955
806.785	0.0159045
806.863	0.0157906
806.942	0.0157121
807.020	0.0158819
807.098	0.0159888
807.176	0.0158035
807.254	0.0158826
807.332	0.0159123
807.410	0.0157797
807.488	0.0159381
807.567	0.0158775
807.645	0.0158235
807.723	0.0158063
807.801	0.0160867
807.879	0.0158820
807.957	0.0158981
808.035	0.0159627
808.113	0.0159254
808.192	0.0158454
808.270	0.0159159
808.348	0.0158813
808.426	0.0158493
808.504	0.0158783
808.582	0.0158490
808.660	0.0158444
808.738	0.0158155
808.817	0.0157837
808.895	0.0157697
808.973	0.0158141
809.051	0.0158016
809.129	0.0157508
809.207	0.0158576
809.285	0.0157128
809.363	0.0157184
809.442	0.0157901
809.520	0.0157246
809.598	0.0158415
809.676	0.0158481
809.754	0.0158556
809.832	0.0159236
809.910	0.0158610
809.988	0.0158955
810.067	0.0158772
810.145	0.0160670
810.223	0.0159851
810.301	0.0159914
810.379	0.0160132
810.457	0.0161235
810.535	0.0161723
810.613	0.0160934
810.692	0.0161771
810.770	0.0162827
810.848	0.0162587
810.926	0.0162726
811.004	0.0160728
811.082	0.0162096
811.160	0.0162350
811.238	0.0161974
811.317	0.0162469
811.395	0.0160740
811.473	0.0161015
811.551	0.0160947
811.629	0.0161297
811.707	0.0159571
811.785	0.0159277
811.863	0.0158795
811.942	0.0159225
812.020	0.0157944
812.098	0.0158246
812.176	0.0157555
812.254	0.0156838
812.332	0.0157066
812.410	0.0157525
812.488	0.0156974
812.567	0.0156398
812.645	0.0158066
812.723	0.0157729
812.801	0.0156438
812.879	0.0156349
812.957	0.0155594
813.035	0.0156599
813.113	0.0155909
813.192	0.0156157
813.270	0.0156238
813.348	0.0156625
813.426	0.0155793
813.504	0.0156689
813.582	0.0157011
813.660	0.0156861
813.738	0.0157169
813.817	0.0156970
813.895	0.0157205
813.973	0.0156361
814.051	0.0158858
814.129	0.0159059
814.207	0.0158793
814.285	0.0158886
814.363	0.0157332
814.442	0.0157942
814.520	0.0159544
814.598	0.0158427
814.676	0.0158302
814.754	0.0158971
814.832	0.0158815
814.910	0.0158194
814.988	0.0157653
815.067	0.0157603
815.145	0.0157738
815.223	0.0157816
815.301	0.0157860
815.379	0.0157088
815.457	0.0155164
815.535	0.0156562
815.613	0.0154779
815.692	0.0156123
815.770	0.0158626
815.848	0.0158389
815.926	0.0156336
816.004	0.0157573
816.082	0.0158167
816.160	0.0157780
816.238	0.0159990
816.317	0.0159315
816.395	0.0160285
816.473	0.0159243
816.551	0.0160273
816.629	0.0161741
816.707	0.0160554
816.785	0.0162186
816.863	0.0161134
816.942	0.0161079
817.020	0.0160951
817.098	0.0161773
817.176	0.0161497
817.254	0.0161668
817.332	0.0162723
817.410	0.0163410
817.488	0.0164114
817.567	0.0163416
817.645	0.0163183
817.723	0.0162282
817.801	0.0163529
817.879	0.0162819
817.957	0.0163358
818.035	0.0163657
818.113	0.0162521
818.192	0.0162167
818.270	0.0160373
818.348	0.0161423
818.426	0.0159649
818.504	0.0159978
818.582	0.0158673
818.660	0.0158050
818.738	0.0158829
818.817	0.0156715
818.895	0.0157263
818.973	0.0156640
819.051	0.0156277
819.129	0.0155071
819.207	0.0155510
819.285	0.0153850
819.363	0.0153657
819.442	0.0154933
819.520	0.0154415
819.598	0.0153901
819.676	0.0152744
819.754	0.0154484
819.832	0.0155637
819.910	0.0155262
819.988	0.0155302
820.067	0.0155231
820.145	0.0155856
820.223	0.0156442
820.301	0.0157828
820.379	0.0158724
820.457	0.0157555
820.535	0.0157562
820.613	0.0158727
820.692	0.0158247
820.770	0.0158508
820.848	0.0158826
820.926	0.0159759
821.004	0.0158561
821.082	0.0157557
821.160	0.0158589
821.238	0.0159765
821.317	0.0159603
821.395	0.0159481
821.473	0.0158457
821.551	0.0158542
821.629	0.0159294
821.707	0.0159745
821.785	0.0158569
821.863	0.0158707
821.942	0.0159647
822.020	0.0159198
822.098	0.0159340
822.176	0.0158297
822.254	0.0159396
822.332	0.0159913
822.410	0.0158932
822.488	0.0158765
822.567	0.0158633
822.645	0.0159006
822.723	0.0159476
822.801	0.0159519
822.879	0.0160796
822.957	0.0159177
823.035	0.0159654
823.113	0.0160348
823.192	0.0160287
823.270	0.0158321
823.348	0.0162305
823.426	0.0161133
823.504	0.0160593
823.582	0.0159409
823.660	0.0160230
823.738	0.0162418
823.817	0.0163328
823.895	0.0159673
823.973	0.0162002
824.051	0.0162217
824.129	0.0162045
824.207	0.0161364
824.285	0.0161620
824.363	0.0163586
824.442	0.0162489
824.520	0.0161792
824.598	0.0160542
824.676	0.0161508
824.754	0.0161771
824.832	0.0161346
824.910	0.0160680
824.988	0.0160040
825.067	0.0159360
825.145	0.0159338
825.223	0.0159953
825.301	0.0157345
825.379	0.0157182
825.457	0.0157029
825.535	0.0158543
825.613	0.0156990
825.692	0.0156136
825.770	0.0155499
825.848	0.0155650
825.926	0.0156688
826.004	0.0155853
826.082	0.0155712
826.160	0.0157209
826.238	0.0156027
826.317	0.0157229
826.395	0.0156824
826.473	0.0156966
826.551	0.0157224
826.629	0.0156610
826.707	0.0156799
826.785	0.0157246
826.863	0.0157250
826.942	0.0157990
827.020	0.0158309
827.098	0.0158215
827.176	0.0158042
827.254	0.0156598
827.332	0.0157939
827.410	0.0157519
827.488	0.0158829
827.567	0.0158831
827.645	0.0158195
827.723	0.0156040
827.801	0.0157515
827.879	0.0158562
827.957	0.0157858
828.035	0.0159285
828.113	0.0158081
828.192	0.0157748
828.270	0.0157120
828.348	0.0157085
828.426	0.0158139
828.504	0.0157705
828.582	0.0156427
828.660	0.0157419
828.738	0.0157028
828.817	0.0157455
828.895	0.0157430
828.973	0.0157334
829.051	0.0156378
829.129	0.0155846
829.207	0.0158311
829.285	0.0158982
829.363	0.0157742
829.442	0.0157357
829.520	0.0157518
829.598	0.0158401
829.676	0.0157285
829.754	0.0157954
829.832	0.0158421
829.910	0.0157673
829.988	0.0158084
830.067	0.0158105
830.145	0.0158468
830.223	0.0158120
830.301	0.0158742
830.379	0.0158879
830.457	0.0158752
830.535	0.0159006
830.613	0.0159489
830.692	0.0161929
830.770	0.0160412
830.848	0.0159574
830.926	0.0159756
831.004	0.0160380
831.082	0.0160516
831.160	0.0161188
831.238	0.0161905
831.317	0.0161005
831.395	0.0161283
831.473	0.0161166
831.551	0.0161723
831.629	0.0161206
831.707	0.0162063
831.785	0.0160641
831.863	0.0161214
831.942	0.0161081
832.020	0.0158359
832.098	0.0161828
832.176	0.0159806
832.254	0.0159241
832.332	0.0159211
832.410	0.0159319
832.488	0.0159500
832.567	0.0159352
832.645	0.0158935
832.723	0.0158352
832.801	0.0160623
832.879	0.0158903
832.957	0.0159016
833.035	0.0158328
833.113	0.0157832
833.192	0.0157572
833.270	0.0157986
833.348	0.0157500
833.426	0.0158299
833.504	0.0158290
833.582	0.0155965
833.660	0.0156253
833.738	0.0155981
833.817	0.0156808
833.895	0.0155278
833.973	0.0156612
834.051	0.0155261
834.129	0.0155947
834.207	0.0155291
834.285	0.0154929
834.363	0.0155704
834.442	0.0155579
834.520	0.0155615
834.598	0.0155103
834.676	0.0154464
834.754	0.0155898
834.832	0.0157114
834.910	0.0157258
834.988	0.0156272
835.067	0.0158422
835.145	0.0158357
835.223	0.0158382
835.301	0.0158701
835.379	0.0158860
835.457	0.0158974
835.535	0.0159823
835.613	0.0159962
835.692	0.0159917
835.770	0.0159908
835.848	0.0160318
835.926	0.0159874
836.004	0.0160957
836.082	0.0160353
836.160	0.0159528
836.238	0.0160143
836.317	0.0160041
836.395	0.0161085
836.473	0.0159767
836.551	0.0160013
836.629	0.0158704
836.707	0.0158581
836.785	0.0160091
836.863	0.0159022
836.942	0.0157752
837.020	0.0158804
837.098	0.0159760
837.176	0.0159561
837.254	0.0160157
837.332	0.0158485
837.410	0.0159568
837.488	0.0158942
837.567	0.0159163
837.645	0.0160231
837.723	0.0157957
837.801	0.0158366
837.879	0.0158707
837.957	0.0158447
838.035	0.0159676
838.113	0.0160329
838.192	0.0158324
838.270	0.0156780
838.348	0.0157969
838.426	0.0159130
838.504	0.0157744
838.582	0.0157868
838.660	0.0157041
838.738	0.0157445
838.817	0.0157754
838.895	0.0158368
838.973	0.0158076
839.051	0.0158324
839.129	0.0158657
839.207	0.0158883
839.285	0.0158932
839.363	0.0159792
839.442	0.0159852
839.520	0.0159434
839.598	0.0158467
839.676	0.0159370
839.754	0.0160008
839.832	0.0160453
839.910	0.0159409
839.988	0.0160065
840.067	0.0161791
840.145	0.0159481
840.223	0.0161941
840.301	0.0161166
840.379	0.0160665
840.457	0.0160857
840.535	0.0162022
840.613	0.0162844
840.692	0.0161810
840.770	0.0159983
840.848	0.0160545
840.926	0.0161304
841.004	0.0160930
841.082	0.0160157
841.160	0.0160017
841.238	0.0160183
841.317	0.0158273
841.395	0.0157880
841.473	0.0158915
841.551	0.0157448
841.629	0.0157858
841.707	0.0157675
841.785	0.0158126
841.863	0.0156051
841.942	0.0156573
842.020	0.0155871
842.098	0.0157558
842.176	0.0156430
842.254	0.0155838
842.332	0.0156422
842.410	0.0156538
842.488	0.0155212
842.567	0.0155380
842.645	0.0157228
842.723	0.0157388
842.801	0.0156555
842.879	0.0157226
842.957	0.0155983
843.035	0.0156045
843.113	0.0155344
843.192	0.0155635
843.270	0.0157468
843.348	0.0157057
843.426	0.0158368
843.504	0.0158742
843.582	0.0158633
843.660	0.0157436
843.738	0.0157967
843.817	0.0157998
843.895	0.0159492
843.973	0.0158259
844.051	0.0158959
844.129	0.0159060
844.207	0.0159317
844.285	0.0160254
844.363	0.0159260
844.442	0.0161115
844.520	0.0159432
844.598	0.0159912
844.676	0.0161536
844.754	0.0161537
844.832	0.0161119
844.910	0.0160034
844.988	0.0161640
845.067	0.0162542
845.145	0.0161427
845.223	0.0160786
845.301	0.0162366
845.379	0.0163615
845.457	0.0162677
845.535	0.0160446
845.613	0.0162328
845.692	0.0162697
845.770	0.0160611
845.848	0.0161230
845.926	0.0160944
846.004	0.0162309
846.082	0.0159565
846.160	0.0160610
846.238	0.0159721
846.317	0.0160604
846.395	0.0159571
846.473	0.0159450
846.551	0.0159039
846.629	0.0159999
846.707	0.0159552
846.785	0.0158292
846.863	0.0158659
846.942	0.0160219
847.020	0.0157732
847.098	0.0156416
847.176	0.0158749
847.254	0.0157140
847.332	0.0155391
847.410	0.0157854
847.488	0.0158380
847.567	0.0157621
847.645	0.0156772
847.723	0.0157642
847.801	0.0157125
847.879	0.0157990
847.957	0.0157097
848.035	0.0157472
848.113	0.0158405
848.192	0.0159190
848.270	0.0158826
848.348	0.0158190
848.426	0.0159251
848.504	0.0158403
848.582	0.0159530
848.660	0.0158224
848.738	0.0158619
848.817	0.0159492
848.895	0.0158556
848.973	0.0159486
849.051	0.0157419
849.129	0.0157851
849.207	0.0158348
849.285	0.0159428
849.363	0.0160123
849.442	0.0158665
849.520	0.0156491
849.598	0.0158277
849.676	0.0158216
849.754	0.0158685
849.832	0.0156996
849.910	0.0158909
849.988	0.0157832
850.067	0.0157565
850.145	0.0157384
850.223	0.0158403
850.301	0.0157980
850.379	0.0158855
850.457	0.0156932
850.535	0.0157819
850.613	0.0159185
850.692	0.0158234
850.770	0.0157116
850.848	0.0158730
850.926	0.0159674
851.004	0.0159336
851.082	0.0157112
851.160	0.0158141
851.238	0.0158451
851.317	0.0157734
851.395	0.0158650
851.473	0.0159263
851.551	0.0156824
851.629	0.0157507
851.707	0.0158808
851.785	0.0160379
851.863	0.0157944
851.942	0.0159045
852.020	0.0158990
852.098	0.0158581
852.176	0.0159029
852.254	0.0160380
852.332	0.0159569
852.410	0.0161105
852.488	0.0160305
852.567	0.0160115
852.645	0.0161905
852.723	0.0159775
852.801	0.0159743
852.879	0.0159873
852.957	0.0159711
853.035	0.0159019
853.113	0.0159276
853.192	0.0159146
853.270	0.0157714
853.348	0.0158156
853.426	0.0158839
853.504	0.0159455
853.582	0.0158643
853.660	0.0158351
853.738	0.0158965
853.817	0.0160277
853.895	0.0160229
853.973	0.0160156
854.051	0.0159707
854.129	0.0159390
854.207	0.0162485
854.285	0.0160412
854.363	0.0160468
854.442	0.0158865
854.520	0.0159772
854.598	0.0158376
854.676	0.0157912
854.754	0.0158900
854.832	0.0159137
854.910	0.0158488
854.988	0.0159335
855.067	0.0157813
855.145	0.0158460
855.223	0.0158812
855.301	0.0159610
855.379	0.0158265
855.457	0.0159403
855.535	0.0158224
855.613	0.0158496
855.692	0.0158688
855.770	0.0157658
855.848	0.0158280
855.926	0.0158093
856.004	0.0157366
856.082	0.0157030
856.160	0.0155791
856.238	0.0155694
856.317	0.0155472
856.395	0.0157085
856.473	0.0158028
856.551	0.0157503
856.629	0.0157906
856.707	0.0157117
856.785	0.0157530
856.863	0.0158713
856.942	0.0158535
857.020	0.0158939
857.098	0.0158053
857.176	0.0158103
857.254	0.0158538
857.332	0.0158203
857.410	0.0158479
857.488	0.0158057
857.567	0.0157751
857.645	0.0156883
857.723	0.0158011
857.801	0.0158341
857.879	0.0155952
857.957	0.0156305
858.035	0.0157993
858.113	0.0157678
858.192	0.0157720
858.270	0.0158585
858.348	0.0160740
858.426	0.0159645
858.504	0.0159152
858.582	0.0160681
858.660	0.0161119
858.738	0.0160294
858.817	0.0159096
858.895	0.0160288
858.973	0.0159818
859.051	0.0160430
859.129	0.0159860
859.207	0.0159267
859.285	0.0159944
859.363	0.0159687
859.442	0.0160505
859.520	0.0159650
859.598	0.0158386
859.676	0.0159289
859.754	0.0159258
859.832	0.0157262
859.910	0.0159651
859.988	0.0159671
860.067	0.0157749
860.145	0.0157072
860.223	0.0157354
860.301	0.0160262
860.379	0.0159534
860.457	0.0159350
860.535	0.0160332
860.613	0.0159673
860.692	0.0159351
860.770	0.0160539
860.848	0.0159962
860.926	0.0160394
861.004	0.0160028
861.082	0.0161933
861.160	0.0162202
861.238	0.0162034
861.317	0.0161278
861.395	0.0161749
861.473	0.0160770
861.551	0.0161552
861.629	0.0159489
861.707	0.0160160
861.785	0.0159576
861.863	0.0158747
861.942	0.0158223
862.020	0.0158353
862.098	0.0156746
862.176	0.0156273
862.254	0.0157008
862.332	0.0156940
862.410	0.0156380
862.488	0.0155895
862.567	0.0155431
862.645	0.0155736
862.723	0.0155717
862.801	0.0156712
862.879	0.0154874
862.957	0.0155669
863.035	0.0156690
863.113	0.0155870
863.192	0.0155585
863.270	0.0157509
863.348	0.0158257
863.426	0.0158024
863.504	0.0157740
863.582	0.0159883
863.660	0.0160464
863.738	0.0162091
863.817	0.0161768
863.895	0.0162318
863.973	0.0161350
864.051	0.0163040
864.129	0.0162435
864.207	0.0160721
864.285	0.0161019
864.363	0.0160507
864.442	0.0159572
864.520	0.0159406
864.598	0.0158070
864.676	0.0158692
864.754	0.0158858
864.832	0.0158042
864.910	0.0156953
864.988	0.0156387
865.067	0.0157662
865.145	0.0157745
865.223	0.0157819
865.301	0.0157949
865.379	0.0160062
865.457	0.0159419
865.535	0.0159150
865.613	0.0162003
865.692	0.0159789
865.770	0.0159904
865.848	0.0160649
865.926	0.0159323
866.004	0.0159248
866.082	0.0158624
866.160	0.0160858
866.238	0.0161019
866.317	0.0159573
866.395	0.0159445
866.473	0.0159158
866.551	0.0159602
866.629	0.0159866
866.707	0.0160841
866.785	0.0159665
866.863	0.0161597
866.942	0.0160007
867.020	0.0159518
867.098	0.0160091
867.176	0.0160625
867.254	0.0161916
867.332	0.0159564
867.410	0.0160188
867.488	0.0161391
867.567	0.0160536
867.645	0.0159859
867.723	0.0158199
867.801	0.0160072
867.879	0.0159689
867.957	0.0158544
868.035	0.0158328
868.113	0.0157996
868.192	0.0157324
868.270	0.0156972
868.348	0.0157335
868.426	0.0157628
868.504	0.0157765
868.582	0.0157049
868.660	0.0157883
868.738	0.0157109
868.817	0.0155913
868.895	0.0157945
868.973	0.0157057
869.051	0.0157191
869.129	0.0157724
869.207	0.0157204
869.285	0.0158867
869.363	0.0158972
869.442	0.0157629
869.520	0.0159576
869.598	0.0159868
869.676	0.0159624
869.754	0.0160233
869.832	0.0160080
869.910	0.0160294
869.988	0.0160393
870.067	0.0161182
870.145	0.0160936
870.223	0.0160400
870.301	0.0160147
870.379	0.0158332
870.457	0.0160180
870.535	0.0160921
870.613	0.0159110
870.692	0.0158607
870.770	0.0159164
870.848	0.0158497
870.926	0.0157879
871.004	0.0159018
871.082	0.0159941
871.160	0.0159029
871.238	0.0158843
871.317	0.0159213
871.395	0.0159357
871.473	0.0158673
871.551	0.0160889
871.629	0.0158244
871.707	0.0159393
871.785	0.0160251
871.863	0.0159844
871.942	0.0159263
872.020	0.0158215
872.098	0.0157868
872.176	0.0158212
872.254	0.0158367
872.332	0.0156470
872.410	0.0157096
872.488	0.0156030
872.567	0.0156361
872.645	0.0156506
872.723	0.0157790
872.801	0.0157790
872.879	0.0156246
872.957	0.0156230
873.035	0.0158384
873.113	0.0158569
873.192	0.0159051
873.270	0.0158462
873.348	0.0159674
873.426	0.0160655
873.504	0.0160122
873.582	0.0161663
873.660	0.0162273
873.738	0.0160823
873.817	0.0160548
873.895	0.0162719
873.973	0.0163630
874.051	0.0162863
874.129	0.0162149
874.207	0.0161525
874.285	0.0162189
874.363	0.0160411
874.442	0.0158853
874.520	0.0159711
874.598	0.0159963
874.676	0.0158083
874.754	0.0157830
874.832	0.0156662
874.910	0.0157799
874.988	0.0158576
875.067	0.0157473
875.145	0.0158808
875.223	0.0159271
875.301	0.0158192
875.379	0.0159966
875.457	0.0160065
875.535	0.0159039
875.613	0.0161621
875.692	0.0160035
875.770	0.0159724
875.848	0.0159673
875.926	0.0161404
876.004	0.0159491
876.082	0.0159269
876.160	0.0159390
876.238	0.0159019
876.317	0.0158862
876.395	0.0159732
876.473	0.0159223
876.551	0.0159675
876.629	0.0156985
876.707	0.0158053
876.785	0.0157720
876.863	0.0157283
876.942	0.0157234
877.020	0.0157880
877.098	0.0155932
877.176	0.0157800
877.254	0.0156508
877.332	0.0155086
877.410	0.0156436
877.488	0.0156405
877.567	0.0155988
877.645	0.0155594
877.723	0.0157499
877.801	0.0157188
877.879	0.0156834
877.957	0.0157629
878.035	0.0157107
878.113	0.0157644
878.192	0.0158241
878.270	0.0158297
878.348	0.0157135
878.426	0.0157821
878.504	0.0158895
878.582	0.0158882
878.660	0.0159337
878.738	0.0160986
878.817	0.0160474
878.895	0.0160175
878.973	0.0161864
879.051	0.0161297
879.129	0.0162116
879.207	0.0160882
879.285	0.0160754
879.363	0.0162586
879.442	0.0162061
879.520	0.0161526
879.598	0.0161103
879.676	0.0161594
879.754	0.0162525
879.832	0.0160387
879.910	0.0162054
879.988	0.0161825
880.067	0.0160916
880.145	0.0161594
880.223	0.0161027
880.301	0.0160006
880.379	0.0160668
880.457	0.0159890
880.535	0.0159136
880.613	0.0158948
880.692	0.0158347
880.770	0.0157592
880.848	0.0156992
880.926	0.0157124
881.004	0.0156906
881.082	0.0154765
881.160	0.0155116
881.238	0.0154155
881.317	0.0154633
881.395	0.0155417
881.473	0.0155307
881.551	0.0155695
881.629	0.0156017
881.707	0.0156083
881.785	0.0154729
881.863	0.0156334
881.942	0.0156497
882.020	0.0158134
882.098	0.0157800
882.176	0.0158149
882.254	0.0159055
882.332	0.0159400
882.410	0.0159402
882.488	0.0160287
882.567	0.0159705
882.645	0.0160197
882.723	0.0160879
882.801	0.0159829
882.879	0.0161551
882.957	0.0161532
883.035	0.0161718
883.113	0.0162442
883.192	0.0162099
883.270	0.0161206
883.348	0.0162405
883.426	0.0162691
883.504	0.0160205
883.582	0.0161670
883.660	0.0162505
883.738	0.0160647
883.817	0.0161015
883.895	0.0161290
883.973	0.0160761
884.051	0.0159913
884.129	0.0159445
884.207	0.0159749
884.285	0.0158334
884.363	0.0157979
884.442	0.0159961
884.520	0.0158322
884.598	0.0158551
884.676	0.0158162
884.754	0.0156837
884.832	0.0156352
884.910	0.0158295
884.988	0.0156437
885.067	0.0156801
885.145	0.0158157
885.223	0.0157420
885.301	0.0157021
885.379	0.0158089
885.457	0.0158463
885.535	0.0157864
885.613	0.0157088
885.692	0.0157481
885.770	0.0158832
885.848	0.0159159
885.926	0.0160324
886.004	0.0160699
886.082	0.0158129
886.160	0.0160172
886.238	0.0160760
886.317	0.0159481
886.395	0.0159352
886.473	0.0159181
886.551	0.0159721
886.629	0.0158714
886.707	0.0159187
886.785	0.0158572
886.863	0.0160517
886.942	0.0158821
887.020	0.0160294
887.098	0.0160357
887.176	0.0159472
887.254	0.0159901
887.332	0.0160684
887.410	0.0160816
887.488	0.0161683
887.567	0.0161420
887.645	0.0160035
887.723	0.0160573
887.801	0.0161967
887.879	0.0160972
887.957	0.0158963
888.035	0.0159750
888.113	0.0160327
888.192	0.0158557
888.270	0.0157782
888.348	0.0159548
888.426	0.0156760
888.504	0.0158369
888.582	0.0160023
888.660	0.0158166
888.738	0.0158413
888.817	0.0160261
888.895	0.0159064
888.973	0.0159319
889.051	0.0161274
889.129	0.0161240
889.207	0.0160527
889.285	0.0160340
889.363	0.0159664
889.442	0.0160058
889.520	0.0160917
889.598	0.0160896
889.676	0.0159850
889.754	0.0159322
889.832	0.0158855
889.910	0.0158328
889.988	0.0158250
890.067	0.0158124
890.145	0.0158359
890.223	0.0157346
890.301	0.0158400
890.379	0.0158441
890.457	0.0157671
890.535	0.0157861
890.613	0.0158334
890.692	0.0158546
890.770	0.0159060
890.848	0.0159659
890.926	0.0157623
891.004	0.0158635
891.082	0.0158609
891.160	0.0159539
891.238	0.0158636
891.317	0.0159168
891.395	0.0160380
891.473	0.0159899
891.551	0.0159213
891.629	0.0158965
891.707	0.0158918
891.785	0.0158752
891.863	0.0157979
891.942	0.0158322
892.020	0.0158198
892.098	0.0159552
892.176	0.0158301
892.254	0.0158663
892.332	0.0158051
892.410	0.0158521
892.488	0.0158639
892.567	0.0157732
892.645	0.0157697
892.723	0.0158157
892.801	0.0159200
892.879	0.0157780
892.957	0.0158376
893.035	0.0158178
893.113	0.0156291
893.192	0.0157529
893.270	0.0158006
893.348	0.0158080
893.426	0.0159195
893.504	0.0158601
893.582	0.0159681
893.660	0.0158755
893.738	0.0158735
893.817	0.0157339
893.895	0.0159518
893.973	0.0158344
894.051	0.0159811
894.129	0.0161067
894.207	0.0159986
894.285	0.0159240
894.363	0.0161364
894.442	0.0160522
894.520	0.0161221
894.598	0.0160148
894.676	0.0159431
894.754	0.0159241
894.832	0.0159020
894.910	0.0159370
894.988	0.0157674
895.067	0.0158707
895.145	0.0157071
895.223	0.0157550
895.301	0.0157017
895.379	0.0157762
895.457	0.0157192
895.535	0.0158662
895.613	0.0157467
895.692	0.0157479
895.770	0.0158215
895.848	0.0158476
895.926	0.0159245
896.004	0.0158638
896.082	0.0158409
896.160	0.0159383
896.238	0.0159507
896.317	0.0159792
896.395	0.0161005
896.473	0.0159724
896.551	0.0159353
896.629	0.0158940
896.707	0.0160318
896.785	0.0159732
896.863	0.0160065
896.942	0.0160035
897.020	0.0158939
897.098	0.0159763
897.176	0.0160365
897.254	0.0159668
897.332	0.0158575
897.410	0.0160173
897.488	0.0159337
897.567	0.0159487
897.645	0.0158690
897.723	0.0160650
897.801	0.0158825
897.879	0.0157001
897.957	0.0158260
898.035	0.0157899
898.113	0.0158907
898.192	0.0158978
898.270	0.0156883
898.348	0.0157767
898.426	0.0158940
898.504	0.0158517
898.582	0.0160645
898.660	0.0160246
898.738	0.0157504
898.817	0.0158705
898.895	0.0158729
898.973	0.0159223
899.051	0.0160147
899.129	0.0158929
899.207	0.0160071
899.285	0.0159061
899.363	0.0158723
899.442	0.0159274
899.520	0.0158827
899.598	0.0159212
899.676	0.0159235
899.754	0.0158824
899.832	0.0158065
899.910	0.0157404
899.988	0.0156928
900.067	0.0156557
900.145	0.0154877
900.223	0.0155861
900.301	0.0155856
900.379	0.0156509
900.457	0.0156163
900.535	0.0155549
900.613	0.0156716
900.692	0.0156422
900.770	0.0156478
900.848	0.0158447
900.926	0.0157450
901.004	0.0158125
901.082	0.0159255
901.160	0.0159763
901.238	0.0160404
901.317	0.0159731
901.395	0.0158874
901.473	0.0159451
901.551	0.0159492
901.629	0.0159080
901.707	0.0159921
901.785	0.0160538
901.863	0.0159498
901.942	0.0160069
902.020	0.0159834
902.098	0.0160500
902.176	0.0159643
902.254	0.0159652
902.332	0.0160931
902.410	0.0160515
902.488	0.0159182
902.567	0.0160431
902.645	0.0160670
902.723	0.0160207
902.801	0.0159689
902.879	0.0160635
902.957	0.0160331
903.035	0.0159187
903.113	0.0159554
903.192	0.0158793
903.270	0.0158552
903.348	0.0160711
903.426	0.0159910
903.504	0.0157539
903.582	0.0159309
903.660	0.0157835
903.738	0.0158524
903.817	0.0156105
903.895	0.0157704
903.973	0.0157623
904.051	0.0158776
904.129	0.0158926
904.207	0.0158086
904.285	0.0158841
904.363	0.0158833
904.442	0.0158194
904.520	0.0158675
904.598	0.0160096
904.676	0.0159435
904.754	0.0161340
904.832	0.0160496
904.910	0.0160973
904.988	0.0160134
905.067	0.0159415
905.145	0.0160225
905.223	0.0159866
905.301	0.0160946
905.379	0.0158948
905.457	0.0159219
905.535	0.0158582
905.613	0.0158771
905.692	0.0158298
905.770	0.0158472
905.848	0.0157539
905.926	0.0157511
906.004	0.0157504
906.082	0.0156885
906.160	0.0158377
906.238	0.0157430
906.317	0.0157023
906.395	0.0157561
906.473	0.0156695
906.551	0.0156425
906.629	0.0157051
906.707	0.0155927
906.785	0.0155153
906.863	0.0155941
906.942	0.0155810
907.020	0.0155844
907.098	0.0154756
907.176	0.0155866
907.254	0.0156699
907.332	0.0157867
907.410	0.0156955
907.488	0.0156689
907.567	0.0157507
907.645	0.0158308
907.723	0.0159278
907.801	0.0160004
907.879	0.0160481
907.957	0.0160835
908.035	0.0161185
908.113	0.0161750
908.192	0.0161571
908.270	0.0162891
908.348	0.0161569
908.426	0.0161449
908.504	0.0161929
908.582	0.0162437
908.660	0.0161838
908.738	0.0161613
908.817	0.0162150
908.895	0.0161553
908.973	0.0160986
909.051	0.0161295
909.129	0.0162489
909.207	0.0159932
909.285	0.0160286
909.363	0.0160888
909.442	0.0160349
909.520	0.0158446
909.598	0.0160582
909.676	0.0158530
909.754	0.0158585
909.832	0.0157365
909.910	0.0158738
909.988	0.0158537
910.067	0.0158260
910.145	0.0156311
910.223	0.0156780
910.301	0.0156650
910.379	0.0157494
910.457	0.0156631
910.535	0.0156203
910.613	0.0157851
910.692	0.0159052
910.770	0.0157757
910.848	0.0158038
910.926	0.0158276
911.004	0.0161064
911.082	0.0159361
911.160	0.0158167
911.238	0.0157622
911.317	0.0158761
911.395	0.0158837
911.473	0.0159066
911.551	0.0158600
911.629	0.0159160
911.707	0.0159023
911.785	0.0158643
911.863	0.0159771
911.942	0.0159269
912.020	0.0158064
912.098	0.0158234
912.176	0.0158565
912.254	0.0158749
912.332	0.0158186
912.410	0.0156451
912.488	0.0155878
912.567	0.0157850
912.645	0.0157598
912.723	0.0158143
912.801	0.0157309
912.879	0.0157018
912.957	0.0158288
913.035	0.0159793
913.113	0.0158491
913.192	0.0159278
913.270	0.0159404
913.348	0.0159586
913.426	0.0158871
913.504	0.0158049
913.582	0.0157619
913.660	0.0158693
913.738	0.0158244
913.817	0.0158501
913.895	0.0158742
913.973	0.0158076
914.051	0.0158969
914.129	0.0157790
914.207	0.0159480
914.285	0.0159681
914.363	0.0160538
914.442	0.0159318
914.520	0.0160039
914.598	0.0160244
914.676	0.0160763
914.754	0.0160510
914.832	0.0158859
914.910	0.0160827
914.988	0.0160267
915.067	0.0161001
915.145	0.0160436
915.223	0.0161932
915.301	0.0161151
915.379	0.0160545
915.457	0.0160440
915.535	0.0160631
915.613	0.0160289
915.692	0.0160910
915.770	0.0160150
915.848	0.0158804
915.926	0.0159654
916.004	0.0160155
916.082	0.0159715
916.160	0.0158167
916.238	0.0158793
916.317	0.0159549
916.395	0.0158207
916.473	0.0158816
916.551	0.0158078
916.629	0.0157809
916.707	0.0156673
916.785	0.0157700
916.863	0.0157310
916.942	0.0158171
917.020	0.0157529
917.098	0.0157784
917.176	0.0156943
917.254	0.0156676
917.332	0.0157085
917.410	0.0157605
917.488	0.0156956
917.567	0.0158296
917.645	0.0157553
917.723	0.0157533
917.801	0.0158263
917.879	0.0158289
917.957	0.0158881
918.035	0.0157417
918.113	0.0158250
918.192	0.0158565
918.270	0.0159493
918.348	0.0158202
918.426	0.0159897
918.504	0.0160199
918.582	0.0158759
918.660	0.0158807
918.738	0.0160341
918.817	0.0159467
918.895	0.0159473
918.973	0.0159373
919.051	0.0159080
919.129	0.0159238
919.207	0.0158755
919.285	0.0159013
919.363	0.0160506
919.442	0.0159134
919.520	0.0157761
919.598	0.0160082
919.676	0.0158263
919.754	0.0158472
919.832	0.0159232
919.910	0.0159528
