05/24/2022	20:28:10	Ver.	4.1	UNKNOWN
Optical Delay	599.981738	Delta X		0.078125	Sweeps	1	Scan Rate	0/0
Coordinates	Axis 1	NaN	Axis 2	NaN	Axis 3	NaN	Axis 4	NaN	Axis 5	NaN	Axis 6	0.000000
TX Power	0.000000	RX Power	0.000000

599.982	0.0161766
600.060	0.0161310
600.138	0.0162250
600.216	0.0162330
600.294	0.0159517
600.372	0.0162191
600.450	0.0162059
600.529	0.0161912
600.607	0.0163251
600.685	0.0160847
600.763	0.0161135
600.841	0.0161949
600.919	0.0162328
600.997	0.0161649
601.075	0.0161282
601.154	0.0161026
601.232	0.0162442
601.310	0.0161897
601.388	0.0159724
601.466	0.0162006
601.544	0.0160521
601.622	0.0161964
601.700	0.0161102
601.779	0.0161693
601.857	0.0162296
601.935	0.0160918
602.013	0.0160479
602.091	0.0160756
602.169	0.0160402
602.247	0.0161876
602.325	0.0161143
602.404	0.0160398
602.482	0.0160944
602.560	0.0161636
602.638	0.0161152
602.716	0.0159955
602.794	0.0161200
602.872	0.0161295
602.950	0.0161147
603.029	0.0160710
603.107	0.0160729
603.185	0.0160480
603.263	0.0162495
603.341	0.0160879
603.419	0.0160989
603.497	0.0161239
603.575	0.0162761
603.654	0.0162193
603.732	0.0160462
603.810	0.0162010
603.888	0.0161342
603.966	0.0160185
604.044	0.0161679
604.122	0.0162157
604.200	0.0161377
604.279	0.0161747
604.357	0.0161388
604.435	0.0160760
604.513	0.0160831
604.591	0.0161819
604.669	0.0161126
604.747	0.0161433
604.825	0.0162050
604.904	0.0160680
604.982	0.0162443
605.060	0.0162455
605.138	0.0162419
605.216	0.0160819
605.294	0.0160162
605.372	0.0161080
605.450	0.0161240
605.529	0.0161882
605.607	0.0161580
605.685	0.0160939
605.763	0.0159903
605.841	0.0161517
605.919	0.0160970
605.997	0.0163211
606.075	0.0161912
606.154	0.0160706
606.232	0.0160846
606.310	0.0162462
606.388	0.0161710
606.466	0.0162041
606.544	0.0162354
606.622	0.0161032
606.700	0.0161816
606.779	0.0161776
606.857	0.0163045
606.935	0.0162410
607.013	0.0161458
607.091	0.0161409
607.169	0.0161951
607.247	0.0160179
607.325	0.0161128
607.404	0.0161542
607.482	0.0161643
607.560	0.0160863
607.638	0.0160634
607.716	0.0160412
607.794	0.0161346
607.872	0.0161378
607.950	0.0161826
608.029	0.0162541
608.107	0.0162247
608.185	0.0161256
608.263	0.0161754
608.341	0.0161335
608.419	0.0161266
608.497	0.0161268
608.575	0.0161456
608.654	0.0160998
608.732	0.0161060
608.810	0.0161916
608.888	0.0162364
608.966	0.0162150
609.044	0.0160419
609.122	0.0160448
609.200	0.0161945
609.279	0.0162373
609.357	0.0161042
609.435	0.0161060
609.513	0.0161205
609.591	0.0160487
609.669	0.0161646
609.747	0.0163042
609.825	0.0161615
609.904	0.0162365
609.982	0.0162009
610.060	0.0161758
610.138	0.0163129
610.216	0.0162064
610.294	0.0161585
610.372	0.0160948
610.450	0.0161238
610.529	0.0162759
610.607	0.0162064
610.685	0.0161974
610.763	0.0161895
610.841	0.0162891
610.919	0.0162608
610.997	0.0161059
611.075	0.0160588
611.154	0.0161613
611.232	0.0161900
611.310	0.0160404
611.388	0.0161796
611.466	0.0162128
611.544	0.0163036
611.622	0.0161703
611.700	0.0161681
611.779	0.0161892
611.857	0.0162540
611.935	0.0162500
612.013	0.0161736
612.091	0.0161420
612.169	0.0161230
612.247	0.0162658
612.325	0.0162270
612.404	0.0162488
612.482	0.0162193
612.560	0.0161588
612.638	0.0161399
612.716	0.0162019
612.794	0.0161015
612.872	0.0161764
612.950	0.0161285
613.029	0.0160758
613.107	0.0162009
613.185	0.0161539
613.263	0.0161411
613.341	0.0161935
613.419	0.0161010
613.497	0.0163344
613.575	0.0161456
613.654	0.0161769
613.732	0.0161825
613.810	0.0161554
613.888	0.0159932
613.966	0.0161718
614.044	0.0161309
614.122	0.0162234
614.200	0.0161823
614.279	0.0161840
614.357	0.0162232
614.435	0.0161401
614.513	0.0161324
614.591	0.0161069
614.669	0.0161823
614.747	0.0161947
614.825	0.0159993
614.904	0.0162813
614.982	0.0161945
615.060	0.0159898
615.138	0.0162359
615.216	0.0162084
615.294	0.0162305
615.372	0.0161693
615.450	0.0160960
615.529	0.0160848
615.607	0.0162605
615.685	0.0161914
615.763	0.0159560
615.841	0.0161085
615.919	0.0161462
615.997	0.0160689
616.075	0.0162041
616.154	0.0162280
616.232	0.0162196
616.310	0.0161260
616.388	0.0163118
616.466	0.0162144
616.544	0.0161314
616.622	0.0161743
616.700	0.0160447
616.779	0.0160764
616.857	0.0159501
616.935	0.0159040
617.013	0.0161224
617.091	0.0160592
617.169	0.0161649
617.247	0.0161672
617.325	0.0160790
617.404	0.0160532
617.482	0.0160357
617.560	0.0161178
617.638	0.0162639
617.716	0.0162055
617.794	0.0162254
617.872	0.0163296
617.950	0.0163864
618.029	0.0163078
618.107	0.0163851
618.185	0.0163441
618.263	0.0164503
618.341	0.0164848
618.419	0.0163444
618.497	0.0163107
618.575	0.0164144
618.654	0.0163004
618.732	0.0162749
618.810	0.0162601
618.888	0.0161961
618.966	0.0162469
619.044	0.0162910
619.122	0.0161012
619.200	0.0159463
619.279	0.0159689
619.357	0.0160588
619.435	0.0160967
619.513	0.0159106
619.591	0.0159396
619.669	0.0158621
619.747	0.0158393
619.825	0.0159396
619.904	0.0157442
619.982	0.0157625
620.060	0.0159683
620.138	0.0158848
620.216	0.0159068
620.294	0.0159218
620.372	0.0160385
620.450	0.0160687
620.529	0.0162911
620.607	0.0162685
620.685	0.0162907
620.763	0.0163836
620.841	0.0163575
620.919	0.0165526
620.997	0.0164970
621.075	0.0165578
621.154	0.0164919
621.232	0.0165227
621.310	0.0163682
621.388	0.0166249
621.466	0.0163759
621.544	0.0164191
621.622	0.0162469
621.700	0.0163868
621.779	0.0162888
621.857	0.0162850
621.935	0.0162309
622.013	0.0162727
622.091	0.0160571
622.169	0.0159589
622.247	0.0160591
622.325	0.0160347
622.404	0.0160648
622.482	0.0161154
622.560	0.0158685
622.638	0.0158590
622.716	0.0158285
622.794	0.0160346
622.872	0.0159911
622.950	0.0158655
623.029	0.0158983
623.107	0.0159403
623.185	0.0158603
623.263	0.0157494
623.341	0.0157800
623.419	0.0158161
623.497	0.0157637
623.575	0.0160236
623.654	0.0159069
623.732	0.0159424
623.810	0.0161502
623.888	0.0161998
623.966	0.0162032
624.044	0.0163681
624.122	0.0162124
624.200	0.0162956
624.279	0.0162541
624.357	0.0163200
624.435	0.0164247
624.513	0.0165221
624.591	0.0164066
624.669	0.0166059
624.747	0.0164766
624.825	0.0164700
624.904	0.0165635
624.982	0.0164321
625.060	0.0164797
625.138	0.0164584
625.216	0.0164555
625.294	0.0165031
625.372	0.0163558
625.450	0.0163815
625.529	0.0162999
625.607	0.0163205
625.685	0.0163029
625.763	0.0162881
625.841	0.0161018
625.919	0.0160652
625.997	0.0160504
626.075	0.0160560
626.154	0.0158311
626.232	0.0160007
626.310	0.0158016
626.388	0.0157761
626.466	0.0157906
626.544	0.0157058
626.622	0.0155651
626.700	0.0157670
626.779	0.0155470
626.857	0.0156436
626.935	0.0156212
627.013	0.0157731
627.091	0.0158483
627.169	0.0158192
627.247	0.0157326
627.325	0.0158025
627.404	0.0160450
627.482	0.0160984
627.560	0.0163373
627.638	0.0162162
627.716	0.0164214
627.794	0.0163143
627.872	0.0165204
627.950	0.0164964
628.029	0.0165576
628.107	0.0166376
628.185	0.0166609
628.263	0.0167568
628.341	0.0167877
628.419	0.0167793
628.497	0.0168068
628.575	0.0169246
628.654	0.0166551
628.732	0.0166738
628.810	0.0168467
628.888	0.0166717
628.966	0.0165459
629.044	0.0163825
629.122	0.0163895
629.200	0.0162778
629.279	0.0162054
629.357	0.0161746
629.435	0.0161402
629.513	0.0158700
629.591	0.0157189
629.669	0.0158257
629.747	0.0156152
629.825	0.0155074
629.904	0.0156445
629.982	0.0154664
630.060	0.0156302
630.138	0.0156197
630.216	0.0155717
630.294	0.0154229
630.372	0.0156480
630.450	0.0156194
630.529	0.0157275
630.607	0.0157718
630.685	0.0159149
630.763	0.0159111
630.841	0.0161629
630.919	0.0162437
630.997	0.0162061
631.075	0.0163182
631.154	0.0163785
631.232	0.0166269
631.310	0.0165554
631.388	0.0165578
631.466	0.0164474
631.544	0.0164938
631.622	0.0166793
631.700	0.0165611
631.779	0.0164840
631.857	0.0166483
631.935	0.0167031
632.013	0.0165933
632.091	0.0166039
632.169	0.0164699
632.247	0.0164237
632.325	0.0163711
632.404	0.0163661
632.482	0.0163263
632.560	0.0161540
632.638	0.0162791
632.716	0.0163225
632.794	0.0162941
632.872	0.0160979
632.950	0.0161721
633.029	0.0162676
633.107	0.0159485
633.185	0.0160303
633.263	0.0161713
633.341	0.0161730
633.419	0.0160380
633.497	0.0159309
633.575	0.0159465
633.654	0.0159877
633.732	0.0159039
633.810	0.0158651
633.888	0.0158616
633.966	0.0159506
634.044	0.0159006
634.122	0.0157066
634.200	0.0158133
634.279	0.0158067
634.357	0.0158215
634.435	0.0158135
634.513	0.0158152
634.591	0.0159103
634.669	0.0159529
634.747	0.0160610
634.825	0.0159325
634.904	0.0159621
634.982	0.0161418
635.060	0.0161617
635.138	0.0162669
635.216	0.0163832
635.294	0.0165153
635.372	0.0163667
635.450	0.0164442
635.529	0.0166953
635.607	0.0165960
635.685	0.0166707
635.763	0.0166257
635.841	0.0165376
635.919	0.0166305
635.997	0.0165811
636.075	0.0165631
636.154	0.0165197
636.232	0.0163505
636.310	0.0161490
636.388	0.0161137
636.466	0.0160778
636.544	0.0160219
636.622	0.0160618
636.700	0.0160217
636.779	0.0158126
636.857	0.0158949
636.935	0.0158336
637.013	0.0158217
637.091	0.0157689
637.169	0.0158267
637.247	0.0160233
637.325	0.0158286
637.404	0.0159274
637.482	0.0158517
637.560	0.0158437
637.638	0.0158425
637.716	0.0161163
637.794	0.0160214
637.872	0.0160082
637.950	0.0159824
638.029	0.0160529
638.107	0.0161369
638.185	0.0162684
638.263	0.0162807
638.341	0.0161794
638.419	0.0162859
638.497	0.0162971
638.575	0.0162861
638.654	0.0162549
638.732	0.0162987
638.810	0.0162210
638.888	0.0162101
638.966	0.0162132
639.044	0.0161935
639.122	0.0161579
639.200	0.0162718
639.279	0.0160349
639.357	0.0160223
639.435	0.0161120
639.513	0.0160756
639.591	0.0159519
639.669	0.0161673
639.747	0.0163157
639.825	0.0161529
639.904	0.0163803
639.982	0.0163551
640.060	0.0163474
640.138	0.0162669
640.216	0.0165047
640.294	0.0163432
640.372	0.0163268
640.450	0.0164945
640.529	0.0163634
640.607	0.0162718
640.685	0.0162151
640.763	0.0162679
640.841	0.0160270
640.919	0.0161229
640.997	0.0159122
641.075	0.0159846
641.154	0.0160010
641.232	0.0160514
641.310	0.0158915
641.388	0.0160061
641.466	0.0159129
641.544	0.0158971
641.622	0.0159753
641.700	0.0159221
641.779	0.0158807
641.857	0.0160828
641.935	0.0159918
642.013	0.0160820
642.091	0.0161787
642.169	0.0160850
642.247	0.0162274
642.325	0.0162337
642.404	0.0161119
642.482	0.0162171
642.560	0.0161313
642.638	0.0162429
642.716	0.0162733
642.794	0.0163884
642.872	0.0162778
642.950	0.0163642
643.029	0.0162566
643.107	0.0162622
643.185	0.0162456
643.263	0.0163333
643.341	0.0162951
643.419	0.0164159
643.497	0.0162858
643.575	0.0162607
643.654	0.0162279
643.732	0.0162253
643.810	0.0163423
643.888	0.0161828
643.966	0.0162049
644.044	0.0162467
644.122	0.0161589
644.200	0.0160186
644.279	0.0160739
644.357	0.0159821
644.435	0.0160053
644.513	0.0158762
644.591	0.0159744
644.669	0.0159949
644.747	0.0160985
644.825	0.0160712
644.904	0.0161292
644.982	0.0161375
645.060	0.0161578
645.138	0.0161337
645.216	0.0161705
645.294	0.0162532
645.372	0.0162857
645.450	0.0161518
645.529	0.0160228
645.607	0.0162223
645.685	0.0163196
645.763	0.0163694
645.841	0.0161294
645.919	0.0162461
645.997	0.0161042
646.075	0.0160709
646.154	0.0161428
646.232	0.0161173
646.310	0.0160783
646.388	0.0161889
646.466	0.0161892
646.544	0.0161837
646.622	0.0160522
646.700	0.0161306
646.779	0.0161699
646.857	0.0160817
646.935	0.0162416
647.013	0.0161601
647.091	0.0160854
647.169	0.0161877
647.247	0.0161242
647.325	0.0163688
647.404	0.0161800
647.482	0.0162982
647.560	0.0162163
647.638	0.0162425
647.716	0.0161424
647.794	0.0161803
647.872	0.0163261
647.950	0.0161777
648.029	0.0160830
648.107	0.0161501
648.185	0.0161581
648.263	0.0161910
648.341	0.0161554
648.419	0.0162287
648.497	0.0161521
648.575	0.0162748
648.654	0.0162859
648.732	0.0162589
648.810	0.0161282
648.888	0.0162197
648.966	0.0161494
649.044	0.0162189
649.122	0.0161721
649.200	0.0162301
649.279	0.0162206
649.357	0.0161535
649.435	0.0161072
649.513	0.0162114
649.591	0.0161010
649.669	0.0161355
649.747	0.0161578
649.825	0.0161707
649.904	0.0161006
649.982	0.0159339
650.060	0.0160986
650.138	0.0160372
650.216	0.0161441
650.294	0.0160493
650.372	0.0160338
650.450	0.0161137
650.529	0.0160600
650.607	0.0160315
650.685	0.0161989
650.763	0.0161280
650.841	0.0162926
650.919	0.0162070
650.997	0.0162951
651.075	0.0164416
651.154	0.0161770
651.232	0.0163319
651.310	0.0163352
651.388	0.0164532
651.466	0.0163927
651.544	0.0162830
651.622	0.0162192
651.700	0.0161903
651.779	0.0162159
651.857	0.0160120
651.935	0.0161049
652.013	0.0158982
652.091	0.0158681
652.169	0.0158117
652.247	0.0158717
652.325	0.0158283
652.404	0.0158849
652.482	0.0158101
652.560	0.0158036
652.638	0.0159155
652.716	0.0161465
652.794	0.0161041
652.872	0.0162881
652.950	0.0165788
653.029	0.0164726
653.107	0.0167454
653.185	0.0168179
653.263	0.0170068
653.341	0.0171865
653.419	0.0170933
653.497	0.0170678
653.575	0.0171100
653.654	0.0168611
653.732	0.0166354
653.810	0.0166178
653.888	0.0163148
653.966	0.0162149
654.044	0.0159010
654.122	0.0156298
654.200	0.0154641
654.279	0.0151986
654.357	0.0150178
654.435	0.0149566
654.513	0.0148686
654.591	0.0149340
654.669	0.0149220
654.747	0.0149886
654.825	0.0151976
654.904	0.0154448
654.982	0.0154915
655.060	0.0158216
655.138	0.0159701
655.216	0.0162341
655.294	0.0167168
655.372	0.0169122
655.450	0.0171091
655.529	0.0172823
655.607	0.0175322
655.685	0.0177259
655.763	0.0176550
655.841	0.0176056
655.919	0.0176564
655.997	0.0176758
656.075	0.0174171
656.154	0.0172156
656.232	0.0170258
656.310	0.0167044
656.388	0.0164520
656.466	0.0161262
656.544	0.0157704
656.622	0.0155904
656.700	0.0151623
656.779	0.0150467
656.857	0.0148351
656.935	0.0146198
657.013	0.0146060
657.091	0.0146705
657.169	0.0145387
657.247	0.0145797
657.325	0.0147318
657.404	0.0149907
657.482	0.0150146
657.560	0.0152934
657.638	0.0158012
657.716	0.0159328
657.794	0.0161436
657.872	0.0165529
657.950	0.0167966
658.029	0.0169238
658.107	0.0172046
658.185	0.0173627
658.263	0.0174174
658.341	0.0175521
658.419	0.0176268
658.497	0.0175204
658.575	0.0174474
658.654	0.0172346
658.732	0.0170663
658.810	0.0171472
658.888	0.0167249
658.966	0.0164230
659.044	0.0163604
659.122	0.0160510
659.200	0.0157558
659.279	0.0157130
659.357	0.0155990
659.435	0.0154034
659.513	0.0154587
659.591	0.0153448
659.669	0.0153309
659.747	0.0155717
659.825	0.0154464
659.904	0.0156618
659.982	0.0157233
660.060	0.0158917
660.138	0.0159344
660.216	0.0160422
660.294	0.0161404
660.372	0.0161745
660.450	0.0161302
660.529	0.0160846
660.607	0.0162245
660.685	0.0161893
660.763	0.0160590
660.841	0.0160719
660.919	0.0161868
660.997	0.0161710
661.075	0.0161420
661.154	0.0161419
661.232	0.0159312
661.310	0.0162434
661.388	0.0161396
661.466	0.0162635
661.544	0.0162521
661.622	0.0162329
661.700	0.0161930
661.779	0.0161909
661.857	0.0162231
661.935	0.0160495
662.013	0.0158839
662.091	0.0157529
662.169	0.0157294
662.247	0.0155213
662.325	0.0153712
662.404	0.0152103
662.482	0.0154089
662.560	0.0153551
662.638	0.0151462
662.716	0.0153743
662.794	0.0155354
662.872	0.0156842
662.950	0.0159589
663.029	0.0163390
663.107	0.0166364
663.185	0.0170036
663.263	0.0172924
663.341	0.0175749
663.419	0.0177788
663.497	0.0181508
663.575	0.0182998
663.654	0.0184416
663.732	0.0185265
663.810	0.0184328
663.888	0.0183792
663.966	0.0183681
664.044	0.0179302
664.122	0.0176797
664.200	0.0173277
664.279	0.0169457
664.357	0.0164545
664.435	0.0160181
664.513	0.0154193
664.591	0.0147877
664.669	0.0144580
664.747	0.0141887
664.825	0.0136945
664.904	0.0133199
664.982	0.0131076
665.060	0.0130529
665.138	0.0128608
665.216	0.0127622
665.294	0.0129747
665.372	0.0129441
665.450	0.0130405
665.529	0.0132320
665.607	0.0134727
665.685	0.0137745
665.763	0.0140694
665.841	0.0147407
665.919	0.0153078
665.997	0.0157622
666.075	0.0163599
666.154	0.0170796
666.232	0.0178320
666.310	0.0183908
666.388	0.0189980
666.466	0.0195831
666.544	0.0200989
666.622	0.0203331
666.700	0.0204806
666.779	0.0204700
666.857	0.0204316
666.935	0.0201463
667.013	0.0199519
667.091	0.0193790
667.169	0.0186581
667.247	0.0181949
667.325	0.0175647
667.404	0.0170335
667.482	0.0164828
667.560	0.0160450
667.638	0.0156487
667.716	0.0152713
667.794	0.0150585
667.872	0.0147341
667.950	0.0146208
668.029	0.0145077
668.107	0.0143793
668.185	0.0142223
668.263	0.0140565
668.341	0.0137951
668.419	0.0134577
668.497	0.0133819
668.575	0.0132378
668.654	0.0130254
668.732	0.0128819
668.810	0.0129128
668.888	0.0132463
668.966	0.0134175
669.044	0.0137692
669.122	0.0143475
669.200	0.0148602
669.279	0.0155075
669.357	0.0161258
669.435	0.0167683
669.513	0.0174379
669.591	0.0179688
669.669	0.0183526
669.747	0.0187106
669.825	0.0187782
669.904	0.0187826
669.982	0.0188641
670.060	0.0186140
670.138	0.0183519
670.216	0.0181598
670.294	0.0175539
670.372	0.0173280
670.450	0.0168714
670.529	0.0162601
670.607	0.0160973
670.685	0.0155735
670.763	0.0153524
670.841	0.0151032
670.919	0.0149489
670.997	0.0151124
671.075	0.0150481
671.154	0.0152623
671.232	0.0155064
671.310	0.0157805
671.388	0.0162181
671.466	0.0166846
671.544	0.0169081
671.622	0.0172605
671.700	0.0175427
671.779	0.0177071
671.857	0.0177641
671.935	0.0177607
672.013	0.0176534
672.091	0.0176210
672.169	0.0174416
672.247	0.0172829
672.325	0.0169098
672.404	0.0165305
672.482	0.0164473
672.560	0.0161037
672.638	0.0159541
672.716	0.0155782
672.794	0.0153908
672.872	0.0149569
672.950	0.0148896
673.029	0.0146239
673.107	0.0143906
673.185	0.0142416
673.263	0.0140737
673.341	0.0139076
673.419	0.0138565
673.497	0.0137698
673.575	0.0140607
673.654	0.0141222
673.732	0.0143687
673.810	0.0146212
673.888	0.0149303
673.966	0.0153786
674.044	0.0157833
674.122	0.0160254
674.200	0.0163875
674.279	0.0169213
674.357	0.0171960
674.435	0.0174478
674.513	0.0178149
674.591	0.0181531
674.669	0.0181017
674.747	0.0184119
674.825	0.0186143
674.904	0.0184144
674.982	0.0182236
675.060	0.0181274
675.138	0.0179989
675.216	0.0176818
675.294	0.0172220
675.372	0.0169465
675.450	0.0165377
675.529	0.0164137
675.607	0.0159258
675.685	0.0157627
675.763	0.0154121
675.841	0.0153879
675.919	0.0151215
675.997	0.0151778
676.075	0.0150424
676.154	0.0148697
676.232	0.0147840
676.310	0.0148004
676.388	0.0147157
676.466	0.0148340
676.544	0.0147091
676.622	0.0147303
676.700	0.0147843
676.779	0.0151115
676.857	0.0152319
676.935	0.0154175
677.013	0.0158745
677.091	0.0161717
677.169	0.0166079
677.247	0.0170372
677.325	0.0173529
677.404	0.0177280
677.482	0.0178044
677.560	0.0180607
677.638	0.0179092
677.716	0.0179022
677.794	0.0178104
677.872	0.0175068
677.950	0.0172413
678.029	0.0168409
678.107	0.0163728
678.185	0.0160499
678.263	0.0156771
678.341	0.0154803
678.419	0.0152516
678.497	0.0150684
678.575	0.0149310
678.654	0.0147651
678.732	0.0146782
678.810	0.0146858
678.888	0.0148247
678.966	0.0149309
679.044	0.0154582
679.122	0.0156243
679.200	0.0159924
679.279	0.0162080
679.357	0.0166806
679.435	0.0170006
679.513	0.0175176
679.591	0.0177534
679.669	0.0180914
679.747	0.0182980
679.825	0.0183929
679.904	0.0183757
679.982	0.0182670
680.060	0.0179449
680.138	0.0176706
680.216	0.0171156
680.294	0.0165604
680.372	0.0161018
680.450	0.0154007
680.529	0.0150109
680.607	0.0144878
680.685	0.0141685
680.763	0.0138147
680.841	0.0136789
680.919	0.0134915
680.997	0.0134521
681.075	0.0133765
681.154	0.0135430
681.232	0.0135472
681.310	0.0136652
681.388	0.0139330
681.466	0.0141677
681.544	0.0145290
681.622	0.0147551
681.700	0.0149393
681.779	0.0151741
681.857	0.0154885
681.935	0.0158887
682.013	0.0163503
682.091	0.0166636
682.169	0.0172343
682.247	0.0173210
682.325	0.0177384
682.404	0.0181301
682.482	0.0183800
682.560	0.0187898
682.638	0.0189656
682.716	0.0190988
682.794	0.0192546
682.872	0.0192489
682.950	0.0192670
683.029	0.0191295
683.107	0.0189313
683.185	0.0187740
683.263	0.0185909
683.341	0.0182014
683.419	0.0178368
683.497	0.0172765
683.575	0.0168297
683.654	0.0166068
683.732	0.0163091
683.810	0.0157608
683.888	0.0152430
683.966	0.0150459
684.044	0.0147517
684.122	0.0143974
684.200	0.0140517
684.279	0.0138100
684.357	0.0136791
684.435	0.0134039
684.513	0.0133139
684.591	0.0134566
684.669	0.0137364
684.747	0.0138998
684.825	0.0141376
684.904	0.0143023
684.982	0.0146205
685.060	0.0148583
685.138	0.0150665
685.216	0.0154147
685.294	0.0155430
685.372	0.0156782
685.450	0.0157959
685.529	0.0157247
685.607	0.0157794
685.685	0.0158159
685.763	0.0156322
685.841	0.0157823
685.919	0.0159109
685.997	0.0158532
686.075	0.0160844
686.154	0.0163319
686.232	0.0165589
686.310	0.0168600
686.388	0.0168027
686.466	0.0169821
686.544	0.0169889
686.622	0.0169203
686.700	0.0167549
686.779	0.0168636
686.857	0.0165688
686.935	0.0164646
687.013	0.0162926
687.091	0.0162242
687.169	0.0164203
687.247	0.0165562
687.325	0.0166147
687.404	0.0169638
687.482	0.0171750
687.560	0.0176756
687.638	0.0177052
687.716	0.0179253
687.794	0.0181390
687.872	0.0180602
687.950	0.0179881
688.029	0.0178034
688.107	0.0176993
688.185	0.0175626
688.263	0.0171037
688.341	0.0167777
688.419	0.0166058
688.497	0.0163796
688.575	0.0160931
688.654	0.0158838
688.732	0.0158814
688.810	0.0156992
688.888	0.0157276
688.966	0.0155555
689.044	0.0155035
689.122	0.0153492
689.200	0.0154446
689.279	0.0153761
689.357	0.0151897
689.435	0.0151868
689.513	0.0150780
689.591	0.0148531
689.669	0.0147635
689.747	0.0145236
689.825	0.0145255
689.904	0.0144865
689.982	0.0144914
690.060	0.0145097
690.138	0.0144804
690.216	0.0146217
690.294	0.0147573
690.372	0.0149442
690.450	0.0151789
690.529	0.0155888
690.607	0.0157088
690.685	0.0159611
690.763	0.0161820
690.841	0.0162912
690.919	0.0165222
690.997	0.0167130
691.075	0.0167907
691.154	0.0167368
691.232	0.0168126
691.310	0.0169573
691.388	0.0169007
691.466	0.0168270
691.544	0.0166873
691.622	0.0165746
691.700	0.0166213
691.779	0.0165804
691.857	0.0163737
691.935	0.0161212
692.013	0.0161309
692.091	0.0161190
692.169	0.0161067
692.247	0.0160518
692.325	0.0160603
692.404	0.0162732
692.482	0.0163238
692.560	0.0163242
692.638	0.0163706
692.716	0.0166833
692.794	0.0167777
692.872	0.0169515
692.950	0.0168799
693.029	0.0170185
693.107	0.0170181
693.185	0.0171555
693.263	0.0170692
693.341	0.0170789
693.419	0.0170495
693.497	0.0171284
693.575	0.0170567
693.654	0.0169117
693.732	0.0168121
693.810	0.0167323
693.888	0.0167326
693.966	0.0164900
694.044	0.0164221
694.122	0.0161115
694.200	0.0161547
694.279	0.0160094
694.357	0.0158132
694.435	0.0157074
694.513	0.0156992
694.591	0.0157435
694.669	0.0157637
694.747	0.0156464
694.825	0.0157798
694.904	0.0158771
694.982	0.0158531
695.060	0.0158702
695.138	0.0160754
695.216	0.0161113
695.294	0.0160413
695.372	0.0163234
695.450	0.0164056
695.529	0.0165459
695.607	0.0164113
695.685	0.0163499
695.763	0.0163161
695.841	0.0162998
695.919	0.0162876
695.997	0.0160792
696.075	0.0160092
696.154	0.0157256
696.232	0.0156541
696.310	0.0155369
696.388	0.0153629
696.466	0.0151395
696.544	0.0150847
696.622	0.0150816
696.700	0.0150616
696.779	0.0150587
696.857	0.0151183
696.935	0.0151118
697.013	0.0152182
697.091	0.0152377
697.169	0.0153198
697.247	0.0153867
697.325	0.0153687
697.404	0.0155797
697.482	0.0157077
697.560	0.0156300
697.638	0.0156937
697.716	0.0159226
697.794	0.0160923
697.872	0.0160754
697.950	0.0161366
698.029	0.0162211
698.107	0.0163681
698.185	0.0164030
698.263	0.0164269
698.341	0.0165553
698.419	0.0165772
698.497	0.0166628
698.575	0.0169662
698.654	0.0170869
698.732	0.0171312
698.810	0.0172050
698.888	0.0172349
698.966	0.0175100
699.044	0.0174115
699.122	0.0173196
699.200	0.0174123
699.279	0.0173673
699.357	0.0172318
699.435	0.0172005
699.513	0.0170717
699.591	0.0169942
699.669	0.0171353
699.747	0.0170209
699.825	0.0168555
699.904	0.0166916
699.982	0.0167780
700.060	0.0168013
700.138	0.0164884
700.216	0.0163617
700.294	0.0162997
700.372	0.0161047
700.450	0.0160198
700.529	0.0158736
700.607	0.0156937
700.685	0.0154911
700.763	0.0154668
700.841	0.0155415
700.919	0.0154160
700.997	0.0154497
701.075	0.0154436
701.154	0.0155996
701.232	0.0156557
701.310	0.0156924
701.388	0.0157236
701.466	0.0159345
701.544	0.0159826
701.622	0.0159503
701.700	0.0159988
701.779	0.0159122
701.857	0.0157262
701.935	0.0158487
702.013	0.0158037
702.091	0.0156606
702.169	0.0156297
702.247	0.0156149
702.325	0.0156611
702.404	0.0156780
702.482	0.0155842
702.560	0.0156474
702.638	0.0157748
702.716	0.0157859
702.794	0.0158572
702.872	0.0161135
702.950	0.0161445
703.029	0.0160688
703.107	0.0162185
703.185	0.0161383
703.263	0.0161137
703.341	0.0159935
703.419	0.0160315
703.497	0.0159498
703.575	0.0159919
703.654	0.0159496
703.732	0.0158731
703.810	0.0157876
703.888	0.0158849
703.966	0.0158140
704.044	0.0159260
704.122	0.0158503
704.200	0.0158398
704.279	0.0157702
704.357	0.0159734
704.435	0.0159489
704.513	0.0160759
704.591	0.0160513
704.669	0.0161594
704.747	0.0161655
704.825	0.0163938
704.904	0.0165403
704.982	0.0165331
705.060	0.0165339
705.138	0.0165946
705.216	0.0169380
705.294	0.0170359
705.372	0.0169003
705.450	0.0167528
705.529	0.0169116
705.607	0.0168696
705.685	0.0167194
705.763	0.0167533
705.841	0.0165874
705.919	0.0164761
705.997	0.0164407
706.075	0.0163682
706.154	0.0162911
706.232	0.0162567
706.310	0.0161234
706.388	0.0161614
706.466	0.0160354
706.544	0.0161824
706.622	0.0160722
706.700	0.0161135
706.779	0.0163554
706.857	0.0163637
706.935	0.0164522
707.013	0.0165415
707.091	0.0166127
707.169	0.0167676
707.247	0.0169556
707.325	0.0168050
707.404	0.0167388
707.482	0.0166846
707.560	0.0165488
707.638	0.0164015
707.716	0.0163269
707.794	0.0161254
707.872	0.0158778
707.950	0.0158367
708.029	0.0157616
708.107	0.0157137
708.185	0.0155190
708.263	0.0156429
708.341	0.0155370
708.419	0.0155266
708.497	0.0154893
708.575	0.0154982
708.654	0.0156776
708.732	0.0157513
708.810	0.0157066
708.888	0.0156943
708.966	0.0157382
709.044	0.0156958
709.122	0.0157904
709.200	0.0158268
709.279	0.0158354
709.357	0.0159056
709.435	0.0160976
709.513	0.0160613
709.591	0.0163424
709.669	0.0162561
709.747	0.0162190
709.825	0.0161396
709.904	0.0161439
709.982	0.0161247
710.060	0.0161265
710.138	0.0160349
710.216	0.0160362
710.294	0.0159335
710.372	0.0159864
710.450	0.0158561
710.529	0.0158676
710.607	0.0158447
710.685	0.0159927
710.763	0.0161399
710.841	0.0162035
710.919	0.0161729
710.997	0.0159694
711.075	0.0161516
711.154	0.0162071
711.232	0.0161683
711.310	0.0160279
711.388	0.0162305
711.466	0.0160224
711.544	0.0161046
711.622	0.0159713
711.700	0.0159080
711.779	0.0162670
711.857	0.0163049
711.935	0.0162849
712.013	0.0162450
712.091	0.0163327
712.169	0.0164406
712.247	0.0163483
712.325	0.0163822
712.404	0.0164313
712.482	0.0163070
712.560	0.0162060
712.638	0.0161884
712.716	0.0162508
712.794	0.0162592
712.872	0.0163712
712.950	0.0165250
713.029	0.0163707
713.107	0.0164919
713.185	0.0166046
713.263	0.0166272
713.341	0.0166713
713.419	0.0168182
713.497	0.0168882
713.575	0.0168002
713.654	0.0168940
713.732	0.0169952
713.810	0.0168082
713.888	0.0167361
713.966	0.0165667
714.044	0.0165897
714.122	0.0164564
714.200	0.0163516
714.279	0.0162148
714.357	0.0159308
714.435	0.0159232
714.513	0.0159141
714.591	0.0159812
714.669	0.0156571
714.747	0.0159397
714.825	0.0159775
714.904	0.0157501
714.982	0.0158646
715.060	0.0159760
715.138	0.0157410
715.216	0.0157240
715.294	0.0157522
715.372	0.0157737
715.450	0.0157848
715.529	0.0158606
715.607	0.0157372
715.685	0.0158628
715.763	0.0160053
715.841	0.0159589
715.919	0.0159906
715.997	0.0160146
716.075	0.0162173
716.154	0.0163233
716.232	0.0163972
716.310	0.0164211
716.388	0.0163880
716.466	0.0163623
716.544	0.0165850
716.622	0.0165544
716.700	0.0165942
716.779	0.0165298
716.857	0.0167326
716.935	0.0165408
717.013	0.0165508
717.091	0.0164426
717.169	0.0164189
717.247	0.0162599
717.325	0.0161254
717.404	0.0160827
717.482	0.0157909
717.560	0.0157283
717.638	0.0156978
717.716	0.0153603
717.794	0.0153718
717.872	0.0151337
717.950	0.0152699
718.029	0.0152862
718.107	0.0152786
718.185	0.0152729
718.263	0.0154119
718.341	0.0155168
718.419	0.0156288
718.497	0.0157604
718.575	0.0158891
718.654	0.0158057
718.732	0.0160639
718.810	0.0160381
718.888	0.0161476
718.966	0.0162540
719.044	0.0160558
719.122	0.0162837
719.200	0.0162239
719.279	0.0161480
719.357	0.0162031
719.435	0.0162514
719.513	0.0161767
719.591	0.0161488
719.669	0.0162145
719.747	0.0163689
719.825	0.0163646
719.904	0.0163285
719.982	0.0165576
720.060	0.0165430
720.138	0.0166543
720.216	0.0167054
720.294	0.0168852
720.372	0.0168969
720.450	0.0169277
720.529	0.0169607
720.607	0.0168520
720.685	0.0168975
720.763	0.0168822
720.841	0.0168903
720.919	0.0168975
720.997	0.0167064
721.075	0.0165800
721.154	0.0165163
721.232	0.0164823
721.310	0.0163596
721.388	0.0163147
721.466	0.0163042
721.544	0.0162698
721.622	0.0164414
721.700	0.0163023
721.779	0.0160898
721.857	0.0163439
721.935	0.0163389
722.013	0.0161937
722.091	0.0162587
722.169	0.0160756
722.247	0.0161729
722.325	0.0162011
722.404	0.0161230
722.482	0.0162197
722.560	0.0161471
722.638	0.0161323
722.716	0.0159966
722.794	0.0161938
722.872	0.0162816
722.950	0.0161314
723.029	0.0161703
723.107	0.0161861
723.185	0.0160951
723.263	0.0162076
723.341	0.0161861
723.419	0.0160623
723.497	0.0159891
723.575	0.0158142
723.654	0.0157400
723.732	0.0157004
723.810	0.0154587
723.888	0.0154645
723.966	0.0154736
724.044	0.0156175
724.122	0.0155148
724.200	0.0154903
724.279	0.0155185
724.357	0.0155420
724.435	0.0156772
724.513	0.0156202
724.591	0.0155739
724.669	0.0156510
724.747	0.0156609
724.825	0.0155868
724.904	0.0156361
724.982	0.0154726
725.060	0.0153674
725.138	0.0153573
725.216	0.0153885
725.294	0.0153536
725.372	0.0152831
725.450	0.0154993
725.529	0.0155230
725.607	0.0153396
725.685	0.0153625
725.763	0.0154282
725.841	0.0157212
725.919	0.0157784
725.997	0.0158073
726.075	0.0159449
726.154	0.0161404
726.232	0.0162792
726.310	0.0163794
726.388	0.0164273
726.466	0.0166325
726.544	0.0166710
726.622	0.0168555
726.700	0.0167464
726.779	0.0170671
726.857	0.0170634
726.935	0.0172495
727.013	0.0172889
727.091	0.0173841
727.169	0.0174086
727.247	0.0174024
727.325	0.0174092
727.404	0.0173605
727.482	0.0173940
727.560	0.0173385
727.638	0.0172729
727.716	0.0171857
727.794	0.0171155
727.872	0.0169597
727.950	0.0169323
728.029	0.0167940
728.107	0.0166784
728.185	0.0165808
728.263	0.0163605
728.341	0.0162028
728.419	0.0162334
728.497	0.0161266
728.575	0.0160927
728.654	0.0160358
728.732	0.0159964
728.810	0.0160032
728.888	0.0159820
728.966	0.0159846
729.044	0.0160709
729.122	0.0160297
729.200	0.0161277
729.279	0.0161584
729.357	0.0161895
729.435	0.0161434
729.513	0.0160744
729.591	0.0161250
729.669	0.0160176
729.747	0.0159985
729.825	0.0160723
729.904	0.0158130
729.982	0.0156444
730.060	0.0156589
730.138	0.0154953
730.216	0.0154192
730.294	0.0154092
730.372	0.0154649
730.450	0.0153678
730.529	0.0152139
730.607	0.0152773
730.685	0.0152264
730.763	0.0153515
730.841	0.0155054
730.919	0.0155772
730.997	0.0156764
731.075	0.0157815
731.154	0.0157732
731.232	0.0159212
731.310	0.0159608
731.388	0.0161040
731.466	0.0160815
731.544	0.0159066
731.622	0.0158755
731.700	0.0159863
731.779	0.0158717
731.857	0.0159315
731.935	0.0157991
732.013	0.0158475
732.091	0.0156501
732.169	0.0156913
732.247	0.0158081
732.325	0.0157293
732.404	0.0157963
732.482	0.0157126
732.560	0.0158157
732.638	0.0157803
732.716	0.0158734
732.794	0.0159520
732.872	0.0159682
732.950	0.0160556
733.029	0.0160560
733.107	0.0160722
733.185	0.0160635
733.263	0.0162770
733.341	0.0162228
733.419	0.0163412
733.497	0.0165120
733.575	0.0165162
733.654	0.0165602
733.732	0.0166888
733.810	0.0167039
733.888	0.0166737
733.966	0.0169844
734.044	0.0171680
734.122	0.0171852
734.200	0.0172366
734.279	0.0172869
734.357	0.0172878
734.435	0.0171481
734.513	0.0172397
734.591	0.0171644
734.669	0.0168690
734.747	0.0171938
734.825	0.0169276
734.904	0.0167141
734.982	0.0165987
735.060	0.0166035
735.138	0.0165675
735.216	0.0163279
735.294	0.0163181
735.372	0.0162382
735.450	0.0161719
735.529	0.0161877
735.607	0.0160252
735.685	0.0158752
735.763	0.0158565
735.841	0.0159068
735.919	0.0158397
735.997	0.0159214
736.075	0.0159734
736.154	0.0160489
736.232	0.0160854
736.310	0.0159370
736.388	0.0159849
736.466	0.0160520
736.544	0.0160258
736.622	0.0160785
736.700	0.0162142
736.779	0.0160902
736.857	0.0159856
736.935	0.0161189
737.013	0.0161196
737.091	0.0159901
737.169	0.0160220
737.247	0.0159636
737.325	0.0161460
737.404	0.0158835
737.482	0.0158849
737.560	0.0156361
737.638	0.0158508
737.716	0.0157954
737.794	0.0157514
737.872	0.0156633
737.950	0.0157336
738.029	0.0158082
738.107	0.0156902
738.185	0.0158207
738.263	0.0158712
738.341	0.0159312
738.419	0.0158887
738.497	0.0160683
738.575	0.0160974
738.654	0.0161524
738.732	0.0161466
738.810	0.0161788
738.888	0.0162971
738.966	0.0161895
739.044	0.0162189
739.122	0.0160973
739.200	0.0161124
739.279	0.0160397
739.357	0.0159122
739.435	0.0158539
739.513	0.0158136
739.591	0.0157156
739.669	0.0157413
739.747	0.0158291
739.825	0.0157634
739.904	0.0156422
739.982	0.0157126
740.060	0.0158606
740.138	0.0157608
740.216	0.0157983
740.294	0.0159452
740.372	0.0159908
740.450	0.0160597
740.529	0.0162418
740.607	0.0162730
740.685	0.0163836
740.763	0.0165124
740.841	0.0166377
740.919	0.0167673
740.997	0.0167950
741.075	0.0168796
741.154	0.0169942
741.232	0.0171318
741.310	0.0169434
741.388	0.0171764
741.466	0.0172434
741.544	0.0171267
741.622	0.0170853
741.700	0.0171123
741.779	0.0170340
741.857	0.0169015
741.935	0.0168248
742.013	0.0167521
742.091	0.0167708
742.169	0.0165916
742.247	0.0163584
742.325	0.0163468
742.404	0.0162157
742.482	0.0161123
742.560	0.0161140
742.638	0.0159441
742.716	0.0160661
742.794	0.0159282
742.872	0.0160578
742.950	0.0157867
743.029	0.0157494
743.107	0.0157320
743.185	0.0158868
743.263	0.0159252
743.341	0.0159335
743.419	0.0158816
743.497	0.0159914
743.575	0.0161687
743.654	0.0160933
743.732	0.0161831
743.810	0.0162971
743.888	0.0162082
743.966	0.0162342
744.044	0.0162426
744.122	0.0164075
744.200	0.0162535
744.279	0.0162402
744.357	0.0163022
744.435	0.0162593
744.513	0.0162035
744.591	0.0162066
744.669	0.0160483
744.747	0.0159001
744.825	0.0160313
744.904	0.0159044
744.982	0.0159264
745.060	0.0158626
745.138	0.0158965
745.216	0.0158266
745.294	0.0156625
745.372	0.0158427
745.450	0.0157143
745.529	0.0159007
745.607	0.0158263
745.685	0.0158987
745.763	0.0159545
745.841	0.0161417
745.919	0.0159911
745.997	0.0160802
746.075	0.0162593
746.154	0.0160664
746.232	0.0160148
746.310	0.0161283
746.388	0.0161175
746.466	0.0160118
746.544	0.0159601
746.622	0.0159564
746.700	0.0158176
746.779	0.0159027
746.857	0.0158638
746.935	0.0159882
747.013	0.0157801
747.091	0.0157774
747.169	0.0158821
747.247	0.0157279
747.325	0.0157969
747.404	0.0158926
747.482	0.0158981
747.560	0.0158568
747.638	0.0158320
747.716	0.0160699
747.794	0.0159996
747.872	0.0161214
747.950	0.0161456
748.029	0.0161200
748.107	0.0162189
748.185	0.0164487
748.263	0.0165022
748.341	0.0164840
748.419	0.0165356
748.497	0.0166560
748.575	0.0169200
748.654	0.0168742
748.732	0.0168481
748.810	0.0169246
748.888	0.0169055
748.966	0.0168380
749.044	0.0168580
749.122	0.0167568
749.200	0.0166100
749.279	0.0166981
749.357	0.0166284
749.435	0.0164466
749.513	0.0165017
749.591	0.0164144
749.669	0.0163161
749.747	0.0162406
749.825	0.0162989
749.904	0.0160825
749.982	0.0160986
750.060	0.0160592
750.138	0.0161827
750.216	0.0161208
750.294	0.0161596
750.372	0.0161208
750.450	0.0162193
750.529	0.0161488
750.607	0.0162141
750.685	0.0163321
750.763	0.0163028
750.841	0.0163899
750.919	0.0163483
750.997	0.0163499
751.075	0.0164536
751.154	0.0164056
751.232	0.0164306
751.310	0.0165445
751.388	0.0163686
751.466	0.0162803
751.544	0.0164287
751.622	0.0163721
751.700	0.0162926
751.779	0.0161236
751.857	0.0161240
751.935	0.0161263
752.013	0.0160722
752.091	0.0159032
752.169	0.0158778
752.247	0.0158899
752.325	0.0158199
752.404	0.0158020
752.482	0.0156100
752.560	0.0156509
752.638	0.0155697
752.716	0.0155402
752.794	0.0156505
752.872	0.0157145
752.950	0.0157578
753.029	0.0157847
753.107	0.0157931
753.185	0.0157899
753.263	0.0157420
753.341	0.0159169
753.419	0.0158472
753.497	0.0158771
753.575	0.0158824
753.654	0.0158865
753.732	0.0158982
753.810	0.0159863
753.888	0.0158624
753.966	0.0158020
754.044	0.0158000
754.122	0.0158454
754.200	0.0158337
754.279	0.0159666
754.357	0.0158224
754.435	0.0158060
754.513	0.0158224
754.591	0.0158688
754.669	0.0159698
754.747	0.0160304
754.825	0.0158890
754.904	0.0159129
754.982	0.0160094
755.060	0.0161436
755.138	0.0161513
755.216	0.0161834
755.294	0.0162469
755.372	0.0163689
755.450	0.0162432
755.529	0.0163647
755.607	0.0165237
755.685	0.0164678
755.763	0.0165459
755.841	0.0166190
755.919	0.0166015
755.997	0.0167287
756.075	0.0166204
756.154	0.0167069
756.232	0.0167432
756.310	0.0168645
756.388	0.0167378
756.466	0.0167178
756.544	0.0167924
756.622	0.0167174
756.700	0.0165823
756.779	0.0164430
756.857	0.0164671
756.935	0.0164248
757.013	0.0162965
757.091	0.0162326
757.169	0.0162392
757.247	0.0162106
757.325	0.0161477
757.404	0.0161742
757.482	0.0161610
757.560	0.0161976
757.638	0.0160477
757.716	0.0162888
757.794	0.0163341
757.872	0.0163680
757.950	0.0163361
758.029	0.0162093
758.107	0.0163124
758.185	0.0163890
758.263	0.0165097
758.341	0.0165478
758.419	0.0163228
758.497	0.0163595
758.575	0.0164430
758.654	0.0162518
758.732	0.0164613
758.810	0.0163961
758.888	0.0162488
758.966	0.0161515
759.044	0.0163051
759.122	0.0161095
759.200	0.0158889
759.279	0.0160970
759.357	0.0158493
759.435	0.0158012
759.513	0.0159024
759.591	0.0157587
759.669	0.0156826
759.747	0.0158106
759.825	0.0156634
759.904	0.0157671
759.982	0.0158680
760.060	0.0157392
760.138	0.0157274
760.216	0.0158279
760.294	0.0159461
760.372	0.0158741
760.450	0.0159619
760.529	0.0159486
760.607	0.0159429
760.685	0.0157401
760.763	0.0157951
760.841	0.0157351
760.919	0.0156148
760.997	0.0156167
761.075	0.0155034
761.154	0.0154256
761.232	0.0153934
761.310	0.0154946
761.388	0.0154411
761.466	0.0152144
761.544	0.0152956
761.622	0.0154230
761.700	0.0154145
761.779	0.0155032
761.857	0.0154640
761.935	0.0155274
762.013	0.0156863
762.091	0.0159594
762.169	0.0156881
762.247	0.0159380
762.325	0.0161200
762.404	0.0161716
762.482	0.0161232
762.560	0.0164055
762.638	0.0164845
762.716	0.0166355
762.794	0.0166260
762.872	0.0168491
762.950	0.0169168
763.029	0.0169038
763.107	0.0170254
763.185	0.0171322
763.263	0.0172273
763.341	0.0171439
763.419	0.0171678
763.497	0.0171206
763.575	0.0170896
763.654	0.0168407
763.732	0.0169634
763.810	0.0169903
763.888	0.0168433
763.966	0.0167541
764.044	0.0165321
764.122	0.0168468
764.200	0.0165527
764.279	0.0164269
764.357	0.0163756
764.435	0.0162924
764.513	0.0162805
764.591	0.0160635
764.669	0.0160807
764.747	0.0160651
764.825	0.0160220
764.904	0.0161149
764.982	0.0159235
765.060	0.0160369
765.138	0.0158999
765.216	0.0160390
765.294	0.0161927
765.372	0.0161517
765.450	0.0159926
765.529	0.0161236
765.607	0.0160424
765.685	0.0162333
765.763	0.0161937
765.841	0.0162930
765.919	0.0162664
765.997	0.0164050
766.075	0.0163579
766.154	0.0162938
766.232	0.0162419
766.310	0.0163721
766.388	0.0162738
766.466	0.0162206
766.544	0.0160882
766.622	0.0162767
766.700	0.0162352
766.779	0.0158926
766.857	0.0159088
766.935	0.0158678
767.013	0.0157524
767.091	0.0157259
767.169	0.0156921
767.247	0.0156734
767.325	0.0157286
767.404	0.0157082
767.482	0.0157143
767.560	0.0157162
767.638	0.0157714
767.716	0.0158295
767.794	0.0157366
767.872	0.0158414
767.950	0.0157156
768.029	0.0158863
768.107	0.0158270
768.185	0.0157530
768.263	0.0157702
768.341	0.0158387
768.419	0.0157732
768.497	0.0157841
768.575	0.0156824
768.654	0.0157215
768.732	0.0157436
768.810	0.0159363
768.888	0.0159216
768.966	0.0159412
769.044	0.0160014
769.122	0.0158753
769.200	0.0158883
769.279	0.0161102
769.357	0.0162189
769.435	0.0160256
769.513	0.0159412
769.591	0.0159784
769.669	0.0160345
769.747	0.0160374
769.825	0.0161845
769.904	0.0162022
769.982	0.0161829
770.060	0.0161187
770.138	0.0162959
770.216	0.0163593
770.294	0.0163818
770.372	0.0164826
770.450	0.0165981
770.529	0.0166297
770.607	0.0166486
770.685	0.0167170
770.763	0.0167912
770.841	0.0167891
770.919	0.0169868
770.997	0.0168659
771.075	0.0167482
771.154	0.0169693
771.232	0.0166814
771.310	0.0167789
771.388	0.0166729
771.466	0.0165875
771.544	0.0163998
771.622	0.0164984
771.700	0.0165050
771.779	0.0164454
771.857	0.0164642
771.935	0.0163943
772.013	0.0162495
772.091	0.0163977
772.169	0.0163217
772.247	0.0162620
772.325	0.0163227
772.404	0.0163168
772.482	0.0163284
772.560	0.0164664
772.638	0.0163776
772.716	0.0162538
772.794	0.0163982
772.872	0.0164114
772.950	0.0162750
773.029	0.0163303
773.107	0.0164753
773.185	0.0162610
773.263	0.0162344
773.341	0.0163510
773.419	0.0163128
773.497	0.0162428
773.575	0.0161612
773.654	0.0162156
773.732	0.0161080
773.810	0.0159241
773.888	0.0159769
773.966	0.0160654
774.044	0.0159017
774.122	0.0157208
774.200	0.0158215
774.279	0.0156819
774.357	0.0156204
774.435	0.0156207
774.513	0.0155674
774.591	0.0154758
774.669	0.0154546
774.747	0.0155688
774.825	0.0157146
774.904	0.0156441
774.982	0.0156300
775.060	0.0158170
775.138	0.0156583
775.216	0.0158176
775.294	0.0158858
775.372	0.0158769
775.450	0.0158788
775.529	0.0158479
775.607	0.0159537
775.685	0.0158753
775.763	0.0159161
775.841	0.0158201
775.919	0.0160535
775.997	0.0160978
776.075	0.0160447
776.154	0.0160710
776.232	0.0161012
776.310	0.0160687
776.388	0.0161361
776.466	0.0162096
776.544	0.0161088
776.622	0.0161736
776.700	0.0161466
776.779	0.0162003
776.857	0.0162157
776.935	0.0162087
777.013	0.0161349
777.091	0.0162502
777.169	0.0160011
777.247	0.0161444
777.325	0.0160794
777.404	0.0162541
777.482	0.0163065
777.560	0.0162381
777.638	0.0162535
777.716	0.0162567
777.794	0.0163057
777.872	0.0165214
777.950	0.0165350
778.029	0.0164381
778.107	0.0166830
778.185	0.0165155
778.263	0.0165829
778.341	0.0166962
778.419	0.0165844
778.497	0.0164978
778.575	0.0165289
778.654	0.0165260
778.732	0.0164568
778.810	0.0165283
778.888	0.0164909
778.966	0.0164714
779.044	0.0164341
779.122	0.0163979
779.200	0.0164189
779.279	0.0162369
779.357	0.0163168
779.435	0.0162357
779.513	0.0163998
779.591	0.0163084
779.669	0.0162258
779.747	0.0164020
779.825	0.0161878
779.904	0.0160323
779.982	0.0161564
780.060	0.0162390
780.138	0.0161510
780.216	0.0162592
780.294	0.0162057
780.372	0.0161416
780.450	0.0162142
780.529	0.0162351
780.607	0.0161143
780.685	0.0162292
780.763	0.0160911
780.841	0.0161046
780.919	0.0160850
780.997	0.0160647
781.075	0.0158400
781.154	0.0157187
781.232	0.0159023
781.310	0.0157561
781.388	0.0157730
781.466	0.0156212
781.544	0.0154564
781.622	0.0154703
781.700	0.0155952
781.779	0.0155318
781.857	0.0154320
781.935	0.0154224
782.013	0.0156047
782.091	0.0157233
782.169	0.0156264
782.247	0.0157574
782.325	0.0157143
782.404	0.0159823
782.482	0.0159186
782.560	0.0159196
782.638	0.0159205
782.716	0.0160619
782.794	0.0158919
782.872	0.0159678
782.950	0.0160524
783.029	0.0160751
783.107	0.0158601
783.185	0.0159995
783.263	0.0161096
783.341	0.0160647
783.419	0.0159219
783.497	0.0160266
783.575	0.0160426
783.654	0.0162485
783.732	0.0160155
783.810	0.0161333
783.888	0.0163263
783.966	0.0161835
784.044	0.0161466
784.122	0.0164392
784.200	0.0164281
784.279	0.0164552
784.357	0.0164655
784.435	0.0165600
784.513	0.0166350
784.591	0.0163824
784.669	0.0162876
784.747	0.0163258
784.825	0.0164911
784.904	0.0163702
784.982	0.0163259
785.060	0.0163983
785.138	0.0162840
785.216	0.0162563
785.294	0.0164140
785.372	0.0163776
785.450	0.0163839
785.529	0.0165054
785.607	0.0162625
785.685	0.0162894
785.763	0.0163110
785.841	0.0162945
785.919	0.0162115
785.997	0.0160813
786.075	0.0161690
786.154	0.0160835
786.232	0.0159646
786.310	0.0160265
786.388	0.0160327
786.466	0.0160737
786.544	0.0160669
786.622	0.0159679
786.700	0.0158698
786.779	0.0159042
786.857	0.0159988
786.935	0.0160118
787.013	0.0160664
787.091	0.0160176
787.169	0.0160605
787.247	0.0160578
787.325	0.0160868
787.404	0.0160751
787.482	0.0160220
787.560	0.0162852
787.638	0.0161382
787.716	0.0161038
787.794	0.0162058
787.872	0.0162054
787.950	0.0163001
788.029	0.0163049
788.107	0.0163743
788.185	0.0162891
788.263	0.0161297
788.341	0.0162300
788.419	0.0162708
788.497	0.0162240
788.575	0.0161575
788.654	0.0161060
788.732	0.0161292
788.810	0.0161256
788.888	0.0161062
788.966	0.0161305
789.044	0.0161140
789.122	0.0160713
789.200	0.0161401
789.279	0.0160827
789.357	0.0160754
789.435	0.0161816
789.513	0.0161726
789.591	0.0162175
789.669	0.0161521
789.747	0.0163661
789.825	0.0163281
789.904	0.0162872
789.982	0.0162948
790.060	0.0163010
790.138	0.0161944
790.216	0.0161664
790.294	0.0162931
790.372	0.0161478
790.450	0.0162086
790.529	0.0160440
790.607	0.0159863
790.685	0.0159734
790.763	0.0161437
790.841	0.0160349
790.919	0.0158960
790.997	0.0160313
791.075	0.0160967
791.154	0.0159237
791.232	0.0159484
791.310	0.0160825
791.388	0.0160536
791.466	0.0160045
791.544	0.0159498
791.622	0.0160056
791.700	0.0160808
791.779	0.0161658
791.857	0.0160597
791.935	0.0161485
792.013	0.0162606
792.091	0.0163444
792.169	0.0161269
792.247	0.0162693
792.325	0.0162957
792.404	0.0162405
792.482	0.0161454
792.560	0.0162659
792.638	0.0162554
792.716	0.0161510
792.794	0.0162316
792.872	0.0161805
792.950	0.0161691
793.029	0.0161520
793.107	0.0163313
793.185	0.0161504
793.263	0.0160753
793.341	0.0161230
793.419	0.0161874
793.497	0.0161562
793.575	0.0161698
793.654	0.0161893
793.732	0.0162111
793.810	0.0160789
793.888	0.0161210
793.966	0.0162779
794.044	0.0161888
794.122	0.0162109
794.200	0.0162377
794.279	0.0162478
794.357	0.0162359
794.435	0.0161938
794.513	0.0163633
794.591	0.0164210
794.669	0.0163004
794.747	0.0162891
794.825	0.0164097
794.904	0.0163348
794.982	0.0164814
795.060	0.0164495
795.138	0.0163875
795.216	0.0163588
795.294	0.0165098
795.372	0.0164320
795.450	0.0162844
795.529	0.0163788
795.607	0.0164187
795.685	0.0164425
795.763	0.0163349
795.841	0.0162693
795.919	0.0161591
795.997	0.0162758
796.075	0.0162064
796.154	0.0161664
796.232	0.0161742
796.310	0.0160925
796.388	0.0161469
796.466	0.0161471
796.544	0.0159290
796.622	0.0160724
796.700	0.0161369
796.779	0.0160202
796.857	0.0161817
796.935	0.0161212
797.013	0.0160764
797.091	0.0160517
797.169	0.0160757
797.247	0.0160493
797.325	0.0160461
797.404	0.0160650
797.482	0.0159408
797.560	0.0158723
797.638	0.0158147
797.716	0.0158748
797.794	0.0160368
797.872	0.0158313
797.950	0.0159417
798.029	0.0160603
798.107	0.0157649
798.185	0.0157211
798.263	0.0158391
798.341	0.0159471
798.419	0.0157766
798.497	0.0159715
798.575	0.0160220
798.654	0.0159496
798.732	0.0159261
798.810	0.0160090
798.888	0.0158892
798.966	0.0159307
799.044	0.0159077
799.122	0.0160528
799.200	0.0161447
799.279	0.0161849
799.357	0.0160939
799.435	0.0160332
799.513	0.0162131
799.591	0.0162389
799.669	0.0161093
799.747	0.0162086
799.825	0.0162531
799.904	0.0163596
799.982	0.0164486
800.060	0.0163002
800.138	0.0163512
800.216	0.0164828
800.294	0.0164748
800.372	0.0164828
800.450	0.0164584
800.529	0.0162640
800.607	0.0163844
800.685	0.0164323
800.763	0.0162548
800.841	0.0163894
800.919	0.0163876
800.997	0.0163417
801.075	0.0162527
801.154	0.0162449
801.232	0.0161951
801.310	0.0163667
801.388	0.0162135
801.466	0.0162968
801.544	0.0163322
801.622	0.0163371
801.700	0.0161535
801.779	0.0162074
801.857	0.0163034
801.935	0.0163211
802.013	0.0162258
802.091	0.0162810
802.169	0.0163482
802.247	0.0162360
802.325	0.0163309
802.404	0.0163961
802.482	0.0163514
802.560	0.0163013
802.638	0.0163822
802.716	0.0164014
802.794	0.0164349
802.872	0.0161802
802.950	0.0163428
803.029	0.0161881
803.107	0.0162249
803.185	0.0161165
803.263	0.0160587
803.341	0.0160533
803.419	0.0161245
803.497	0.0160227
803.575	0.0161093
803.654	0.0158681
803.732	0.0159715
803.810	0.0159462
803.888	0.0159589
803.966	0.0159870
804.044	0.0159128
804.122	0.0158520
804.200	0.0160241
804.279	0.0161671
804.357	0.0160372
804.435	0.0160226
804.513	0.0160445
804.591	0.0161349
804.669	0.0160376
804.747	0.0161043
804.825	0.0161553
804.904	0.0161346
804.982	0.0161008
805.060	0.0159965
805.138	0.0160737
805.216	0.0160666
805.294	0.0160080
805.372	0.0160565
805.450	0.0160499
805.529	0.0159892
805.607	0.0158731
805.685	0.0160065
805.763	0.0160252
805.841	0.0162479
805.919	0.0161377
805.997	0.0159808
806.075	0.0159343
806.154	0.0159344
806.232	0.0159489
806.310	0.0160432
806.388	0.0159865
806.466	0.0160387
806.544	0.0160355
806.622	0.0158964
806.700	0.0158461
806.779	0.0160387
806.857	0.0160566
806.935	0.0160653
807.013	0.0161106
807.091	0.0160482
807.169	0.0159978
807.247	0.0161053
807.325	0.0162292
807.404	0.0161581
807.482	0.0162225
807.560	0.0162435
807.638	0.0162764
807.716	0.0162451
807.794	0.0161219
807.872	0.0161942
807.950	0.0162317
808.029	0.0163062
808.107	0.0161691
808.185	0.0160999
808.263	0.0162186
808.341	0.0162340
808.419	0.0161126
808.497	0.0161320
808.575	0.0162588
808.654	0.0162376
808.732	0.0162399
808.810	0.0163687
808.888	0.0163309
808.966	0.0162600
809.044	0.0163116
809.122	0.0164679
809.200	0.0164510
809.279	0.0164955
809.357	0.0164787
809.435	0.0164616
809.513	0.0165075
809.591	0.0164849
809.669	0.0165542
809.747	0.0165695
809.825	0.0165761
809.904	0.0165007
809.982	0.0165324
810.060	0.0163631
810.138	0.0163576
810.216	0.0165216
810.294	0.0164920
810.372	0.0163543
810.450	0.0162431
810.529	0.0162424
810.607	0.0161560
810.685	0.0162580
810.763	0.0162656
810.841	0.0160141
810.919	0.0161430
810.997	0.0159235
811.075	0.0160007
811.154	0.0160697
811.232	0.0159632
811.310	0.0159625
811.388	0.0159676
811.466	0.0158459
811.544	0.0159616
811.622	0.0159149
811.700	0.0159333
811.779	0.0159591
811.857	0.0159478
811.935	0.0161358
812.013	0.0158805
812.091	0.0159769
812.169	0.0160802
812.247	0.0161283
812.325	0.0160530
812.404	0.0159703
812.482	0.0161092
812.560	0.0159913
812.638	0.0159367
812.716	0.0160731
812.794	0.0160030
812.872	0.0160017
812.950	0.0160375
813.029	0.0160796
813.107	0.0160889
813.185	0.0159924
813.263	0.0159880
813.341	0.0159895
813.419	0.0159238
813.497	0.0160769
813.575	0.0161017
813.654	0.0160922
813.732	0.0159314
813.810	0.0159041
813.888	0.0160414
813.966	0.0160451
814.044	0.0160516
814.122	0.0159912
814.200	0.0160915
814.279	0.0161001
814.357	0.0159783
814.435	0.0162333
814.513	0.0162260
814.591	0.0162151
814.669	0.0162035
814.747	0.0162723
814.825	0.0163368
814.904	0.0163555
814.982	0.0163110
815.060	0.0163137
815.138	0.0162640
815.216	0.0164989
815.294	0.0163202
815.372	0.0163483
815.450	0.0164535
815.529	0.0163395
815.607	0.0164523
815.685	0.0163648
815.763	0.0164352
815.841	0.0163385
815.919	0.0163251
815.997	0.0164125
816.075	0.0164505
816.154	0.0163689
816.232	0.0162680
816.310	0.0163210
816.388	0.0163860
816.466	0.0162926
816.544	0.0163383
816.622	0.0163721
816.700	0.0162649
816.779	0.0162502
816.857	0.0163539
816.935	0.0162524
817.013	0.0161864
817.091	0.0162733
817.169	0.0162984
817.247	0.0163744
817.325	0.0162776
817.404	0.0162151
817.482	0.0163327
817.560	0.0163477
817.638	0.0162228
817.716	0.0161487
817.794	0.0163123
817.872	0.0162856
817.950	0.0162100
818.029	0.0161983
818.107	0.0161769
818.185	0.0160527
818.263	0.0160977
818.341	0.0159530
818.419	0.0159939
818.497	0.0159750
818.575	0.0159868
818.654	0.0159296
818.732	0.0159020
818.810	0.0158517
818.888	0.0159174
818.966	0.0158697
819.044	0.0158601
819.122	0.0158644
819.200	0.0159192
819.279	0.0159676
819.357	0.0159734
819.435	0.0159596
819.513	0.0159346
819.591	0.0160150
819.669	0.0160570
819.747	0.0161869
819.825	0.0161267
819.904	0.0161665
819.982	0.0160733
820.060	0.0160743
820.138	0.0160159
820.216	0.0161122
820.294	0.0161019
820.372	0.0159691
820.450	0.0160077
820.529	0.0161286
820.607	0.0160800
820.685	0.0160294
820.763	0.0160043
820.841	0.0161620
820.919	0.0161149
820.997	0.0160753
821.075	0.0159199
821.154	0.0159619
821.232	0.0160030
821.310	0.0160228
821.388	0.0161612
821.466	0.0160406
821.544	0.0161183
821.622	0.0159903
821.700	0.0161256
821.779	0.0163849
821.857	0.0161788
821.935	0.0161935
822.013	0.0162364
822.091	0.0163935
822.169	0.0162716
822.247	0.0162737
822.325	0.0164194
822.404	0.0164741
822.482	0.0163955
822.560	0.0164909
822.638	0.0164570
822.716	0.0164672
822.794	0.0163560
822.872	0.0163948
822.950	0.0164227
823.029	0.0163792
823.107	0.0163342
823.185	0.0163766
823.263	0.0163821
823.341	0.0163789
823.419	0.0161926
823.497	0.0163168
823.575	0.0162162
823.654	0.0164164
823.732	0.0163078
823.810	0.0162466
823.888	0.0161464
823.966	0.0163225
824.044	0.0162799
824.122	0.0162909
824.200	0.0161674
824.279	0.0162537
824.357	0.0161421
824.435	0.0162093
824.513	0.0161279
824.591	0.0160428
824.669	0.0161700
824.747	0.0162685
824.825	0.0162235
824.904	0.0163277
824.982	0.0161256
825.060	0.0160818
825.138	0.0161546
825.216	0.0161340
825.294	0.0160806
825.372	0.0160833
825.450	0.0158870
825.529	0.0159956
825.607	0.0159438
825.685	0.0159460
825.763	0.0158899
825.841	0.0158498
825.919	0.0158429
825.997	0.0159087
826.075	0.0159005
826.154	0.0158504
826.232	0.0158624
826.310	0.0158881
826.388	0.0159789
826.466	0.0159405
826.544	0.0159860
826.622	0.0160484
826.700	0.0161485
826.779	0.0160721
826.857	0.0160889
826.935	0.0160713
827.013	0.0161578
827.091	0.0161349
827.169	0.0160032
827.247	0.0161217
827.325	0.0159055
827.404	0.0160677
827.482	0.0161144
827.560	0.0158965
827.638	0.0158926
827.716	0.0158591
827.794	0.0158780
827.872	0.0158342
827.950	0.0158115
828.029	0.0158906
828.107	0.0158530
828.185	0.0157844
828.263	0.0158438
828.341	0.0158469
828.419	0.0157927
828.497	0.0158278
828.575	0.0159354
828.654	0.0158564
828.732	0.0159960
828.810	0.0161353
828.888	0.0159579
828.966	0.0161333
829.044	0.0161580
829.122	0.0162194
829.200	0.0161957
829.279	0.0163081
829.357	0.0163756
829.435	0.0164340
829.513	0.0165144
829.591	0.0164851
829.669	0.0163589
829.747	0.0163768
829.825	0.0163620
829.904	0.0163499
829.982	0.0165230
830.060	0.0163921
830.138	0.0162835
830.216	0.0163710
830.294	0.0164061
830.372	0.0164745
830.450	0.0163192
830.529	0.0161588
830.607	0.0162390
830.685	0.0161580
830.763	0.0161749
830.841	0.0162285
830.919	0.0161552
830.997	0.0161905
831.075	0.0163121
831.154	0.0161908
831.232	0.0163052
831.310	0.0162312
831.388	0.0161629
831.466	0.0162486
831.544	0.0161882
831.622	0.0162415
831.700	0.0161918
831.779	0.0162015
831.857	0.0161463
831.935	0.0162466
832.013	0.0161002
832.091	0.0160647
832.169	0.0161966
832.247	0.0162549
832.325	0.0161791
832.404	0.0160641
832.482	0.0161127
832.560	0.0159177
832.638	0.0159324
832.716	0.0159531
832.794	0.0159315
832.872	0.0159665
832.950	0.0157281
833.029	0.0158575
833.107	0.0158520
833.185	0.0156901
833.263	0.0159125
833.341	0.0159231
833.419	0.0158677
833.497	0.0159637
833.575	0.0160426
833.654	0.0160541
833.732	0.0161281
833.810	0.0160863
833.888	0.0161250
833.966	0.0160939
834.044	0.0161278
834.122	0.0163576
834.200	0.0162146
834.279	0.0161446
834.357	0.0162578
834.435	0.0162214
834.513	0.0162981
834.591	0.0162318
834.669	0.0161182
834.747	0.0162139
834.825	0.0163087
834.904	0.0161694
834.982	0.0161050
835.060	0.0161750
835.138	0.0161055
835.216	0.0162363
835.294	0.0160934
835.372	0.0162864
835.450	0.0162041
835.529	0.0160806
835.607	0.0161420
835.685	0.0161286
835.763	0.0161638
835.841	0.0162646
835.919	0.0161277
835.997	0.0161850
836.075	0.0162103
836.154	0.0160868
836.232	0.0162257
836.310	0.0162617
836.388	0.0163119
836.466	0.0162145
836.544	0.0162883
836.622	0.0162547
836.700	0.0163720
836.779	0.0163563
836.857	0.0163091
836.935	0.0163147
837.013	0.0162995
837.091	0.0164516
837.169	0.0163394
837.247	0.0162979
837.325	0.0164263
837.404	0.0164279
837.482	0.0162292
837.560	0.0163239
837.638	0.0163476
837.716	0.0162582
837.794	0.0164236
837.872	0.0163567
837.950	0.0163538
838.029	0.0164198
838.107	0.0162734
838.185	0.0162814
838.263	0.0164727
838.341	0.0163610
838.419	0.0161948
838.497	0.0163291
838.575	0.0163373
838.654	0.0162601
838.732	0.0163394
838.810	0.0163349
838.888	0.0162670
838.966	0.0163212
839.044	0.0163319
839.122	0.0164850
839.200	0.0162907
839.279	0.0162375
839.357	0.0161834
839.435	0.0162455
839.513	0.0162585
839.591	0.0161502
839.669	0.0160741
839.747	0.0159978
839.825	0.0160586
839.904	0.0160825
839.982	0.0160627
840.060	0.0159097
840.138	0.0161073
840.216	0.0158362
840.294	0.0158645
840.372	0.0159647
840.450	0.0159270
840.529	0.0158895
840.607	0.0159946
840.685	0.0159739
840.763	0.0160175
840.841	0.0160400
840.919	0.0160804
840.997	0.0159030
841.075	0.0160845
841.154	0.0160698
841.232	0.0161118
841.310	0.0160172
841.388	0.0161790
841.466	0.0160902
841.544	0.0160658
841.622	0.0161447
841.700	0.0161700
841.779	0.0160784
841.857	0.0160265
841.935	0.0162453
842.013	0.0161483
842.091	0.0161588
842.169	0.0161997
842.247	0.0162927
842.325	0.0160953
842.404	0.0162046
842.482	0.0161301
842.560	0.0162867
842.638	0.0162237
842.716	0.0161240
842.794	0.0162366
842.872	0.0162199
842.950	0.0163307
843.029	0.0164370
843.107	0.0162291
843.185	0.0162994
843.263	0.0163162
843.341	0.0163717
843.419	0.0163116
843.497	0.0163986
843.575	0.0163595
843.654	0.0161797
843.732	0.0163736
843.810	0.0162727
843.888	0.0163089
843.966	0.0164024
844.044	0.0162369
844.122	0.0163078
844.200	0.0162869
844.279	0.0161652
844.357	0.0162473
844.435	0.0161021
844.513	0.0160184
844.591	0.0160193
844.669	0.0162244
844.747	0.0162688
844.825	0.0161698
844.904	0.0160720
844.982	0.0161868
845.060	0.0162408
845.138	0.0162840
845.216	0.0162061
845.294	0.0161847
845.372	0.0162239
845.450	0.0162115
845.529	0.0162125
845.607	0.0163677
845.685	0.0162414
845.763	0.0162029
845.841	0.0162277
845.919	0.0162133
845.997	0.0162603
846.075	0.0161657
846.154	0.0162976
846.232	0.0162905
846.310	0.0163029
846.388	0.0162219
846.466	0.0161358
846.544	0.0161432
846.622	0.0160945
846.700	0.0161148
846.779	0.0160278
846.857	0.0161018
846.935	0.0161855
847.013	0.0160611
847.091	0.0158742
847.169	0.0160037
847.247	0.0160677
847.325	0.0160573
847.404	0.0160307
847.482	0.0160873
847.560	0.0160319
847.638	0.0160598
847.716	0.0161424
847.794	0.0160851
847.872	0.0161504
847.950	0.0159497
848.029	0.0160211
848.107	0.0161013
848.185	0.0160989
848.263	0.0160583
848.341	0.0159615
848.419	0.0160805
848.497	0.0159605
848.575	0.0161401
848.654	0.0161481
848.732	0.0161475
848.810	0.0159744
848.888	0.0161121
848.966	0.0161245
849.044	0.0160152
849.122	0.0160147
849.200	0.0161304
849.279	0.0161671
849.357	0.0162223
849.435	0.0161160
849.513	0.0160765
849.591	0.0160266
849.669	0.0161324
849.747	0.0160159
849.825	0.0160769
849.904	0.0162539
849.982	0.0163902
850.060	0.0162445
850.138	0.0163158
850.216	0.0161250
850.294	0.0161635
850.372	0.0161967
850.450	0.0160984
850.529	0.0161859
850.607	0.0162305
850.685	0.0161535
850.763	0.0161433
850.841	0.0162069
850.919	0.0160407
850.997	0.0160397
851.075	0.0161572
851.154	0.0160153
851.232	0.0160863
851.310	0.0160901
851.388	0.0160323
851.466	0.0161844
851.544	0.0161128
851.622	0.0161333
851.700	0.0161835
851.779	0.0161631
851.857	0.0161498
851.935	0.0161604
852.013	0.0162003
852.091	0.0161196
852.169	0.0162326
852.247	0.0161176
852.325	0.0161273
852.404	0.0160896
852.482	0.0162687
852.560	0.0162363
852.638	0.0162514
852.716	0.0162637
852.794	0.0162616
852.872	0.0160970
852.950	0.0162495
853.029	0.0164883
853.107	0.0163419
853.185	0.0162771
853.263	0.0162029
853.341	0.0160253
853.419	0.0162973
853.497	0.0163760
853.575	0.0163814
853.654	0.0161991
853.732	0.0162048
853.810	0.0162190
853.888	0.0161693
853.966	0.0159685
854.044	0.0161250
854.122	0.0161153
854.200	0.0160285
854.279	0.0160464
854.357	0.0161514
854.435	0.0159626
854.513	0.0160006
854.591	0.0161741
854.669	0.0162141
854.747	0.0162276
854.825	0.0161443
854.904	0.0162987
854.982	0.0163066
855.060	0.0161690
855.138	0.0161663
855.216	0.0164140
855.294	0.0163288
855.372	0.0163514
855.450	0.0162814
855.529	0.0162235
855.607	0.0162080
855.685	0.0161479
855.763	0.0160278
855.841	0.0160036
855.919	0.0160426
855.997	0.0161105
856.075	0.0160960
856.154	0.0158810
856.232	0.0158113
856.310	0.0159683
856.388	0.0160133
856.466	0.0159091
856.544	0.0158669
856.622	0.0159889
856.700	0.0160072
856.779	0.0160512
856.857	0.0159658
856.935	0.0159982
857.013	0.0161691
857.091	0.0162113
857.169	0.0161503
857.247	0.0161275
857.325	0.0162316
857.404	0.0161481
857.482	0.0162330
857.560	0.0162296
857.638	0.0162960
857.716	0.0162361
857.794	0.0161974
857.872	0.0163953
857.950	0.0165404
858.029	0.0164292
858.107	0.0162948
858.185	0.0163499
858.263	0.0165013
858.341	0.0164989
858.419	0.0164598
858.497	0.0164029
858.575	0.0163766
858.654	0.0162321
858.732	0.0162334
858.810	0.0162714
858.888	0.0161684
858.966	0.0160006
859.044	0.0161209
859.122	0.0161362
859.200	0.0160621
859.279	0.0161310
859.357	0.0161320
859.435	0.0161069
859.513	0.0160320
859.591	0.0162065
859.669	0.0162235
859.747	0.0162452
859.825	0.0162292
859.904	0.0162404
859.982	0.0162412
860.060	0.0161964
860.138	0.0160652
860.216	0.0162064
860.294	0.0161870
860.372	0.0161415
860.450	0.0159962
860.529	0.0161695
860.607	0.0161469
860.685	0.0161668
860.763	0.0163198
860.841	0.0162118
860.919	0.0162376
860.997	0.0162742
861.075	0.0162251
861.154	0.0162251
861.232	0.0162894
861.310	0.0164360
861.388	0.0164121
861.466	0.0162563
861.544	0.0162242
861.622	0.0162457
861.700	0.0161975
861.779	0.0162599
861.857	0.0161736
861.935	0.0159557
862.013	0.0158584
862.091	0.0159584
862.169	0.0159698
862.247	0.0157970
862.325	0.0158303
862.404	0.0157566
862.482	0.0158530
862.560	0.0159541
862.638	0.0159244
862.716	0.0157605
862.794	0.0160290
862.872	0.0158369
862.950	0.0159313
863.029	0.0161565
863.107	0.0162090
863.185	0.0162260
863.263	0.0162389
863.341	0.0163385
863.419	0.0163188
863.497	0.0163231
863.575	0.0164523
863.654	0.0162961
863.732	0.0163177
863.810	0.0162673
863.888	0.0162623
863.966	0.0163417
864.044	0.0163075
864.122	0.0160781
864.200	0.0162038
864.279	0.0161308
864.357	0.0160373
864.435	0.0161163
864.513	0.0160331
864.591	0.0160979
864.669	0.0160172
864.747	0.0158717
864.825	0.0160204
864.904	0.0160105
864.982	0.0159000
865.060	0.0159050
865.138	0.0159158
865.216	0.0159961
865.294	0.0160851
865.372	0.0161372
865.450	0.0161887
865.529	0.0160855
865.607	0.0162264
865.685	0.0162241
865.763	0.0163427
865.841	0.0165343
865.919	0.0164090
865.997	0.0165736
866.075	0.0163007
866.154	0.0164273
866.232	0.0164822
866.310	0.0163891
866.388	0.0162574
866.466	0.0163794
866.544	0.0162545
866.622	0.0163147
866.700	0.0162823
866.779	0.0162122
866.857	0.0161353
866.935	0.0163738
867.013	0.0160947
867.091	0.0161819
867.169	0.0162319
867.247	0.0159470
867.325	0.0160870
867.404	0.0160999
867.482	0.0161488
867.560	0.0160616
867.638	0.0159632
867.716	0.0160630
867.794	0.0160174
867.872	0.0161183
867.950	0.0160443
868.029	0.0160661
868.107	0.0161163
868.185	0.0161450
868.263	0.0161475
868.341	0.0161481
868.419	0.0161283
868.497	0.0161732
868.575	0.0161161
868.654	0.0162153
868.732	0.0161383
868.810	0.0160927
868.888	0.0162267
868.966	0.0162044
869.044	0.0161488
869.122	0.0160889
869.200	0.0160329
869.279	0.0162645
869.357	0.0162555
869.435	0.0162204
869.513	0.0161173
869.591	0.0161526
869.669	0.0161401
869.747	0.0160603
869.825	0.0159991
869.904	0.0159857
869.982	0.0159074
870.060	0.0158910
870.138	0.0159373
870.216	0.0158499
870.294	0.0159839
870.372	0.0158731
870.450	0.0159003
870.529	0.0161093
870.607	0.0161005
870.685	0.0161320
870.763	0.0162311
870.841	0.0163036
870.919	0.0162998
870.997	0.0163998
871.075	0.0165600
871.154	0.0164886
871.232	0.0166238
871.310	0.0165205
871.388	0.0164145
871.466	0.0166516
871.544	0.0164544
871.622	0.0162591
871.700	0.0164380
871.779	0.0162626
871.857	0.0160963
871.935	0.0161562
872.013	0.0160054
872.091	0.0159302
872.169	0.0159762
872.247	0.0159608
872.325	0.0160362
872.404	0.0158672
872.482	0.0157821
872.560	0.0159406
872.638	0.0159790
872.716	0.0159734
872.794	0.0159586
872.872	0.0159927
872.950	0.0159888
873.029	0.0161451
873.107	0.0162026
873.185	0.0161042
873.263	0.0162175
873.341	0.0162780
873.419	0.0163454
873.497	0.0163145
873.575	0.0161947
873.654	0.0163138
873.732	0.0163686
873.810	0.0163628
873.888	0.0165329
873.966	0.0163095
874.044	0.0163657
874.122	0.0164650
874.200	0.0163665
874.279	0.0163794
874.357	0.0164806
874.435	0.0163276
874.513	0.0163547
874.591	0.0165493
874.669	0.0163886
874.747	0.0163847
874.825	0.0163706
874.904	0.0163049
874.982	0.0162140
875.060	0.0163461
875.138	0.0161622
875.216	0.0162857
875.294	0.0162366
875.372	0.0160011
875.450	0.0159506
875.529	0.0161015
875.607	0.0160432
875.685	0.0159838
875.763	0.0159937
875.841	0.0159350
875.919	0.0158995
875.997	0.0158494
876.075	0.0159380
876.154	0.0158849
876.232	0.0158073
876.310	0.0159157
876.388	0.0160255
876.466	0.0159985
876.544	0.0160152
876.622	0.0161468
876.700	0.0161358
876.779	0.0160594
876.857	0.0162817
876.935	0.0161121
877.013	0.0161263
877.091	0.0163658
877.169	0.0162525
877.247	0.0161619
877.325	0.0162132
877.404	0.0162163
877.482	0.0161909
877.560	0.0160774
877.638	0.0161264
877.716	0.0160744
877.794	0.0160567
877.872	0.0160284
877.950	0.0160506
878.029	0.0160744
878.107	0.0158942
878.185	0.0161150
878.263	0.0159953
878.341	0.0160786
878.419	0.0160500
878.497	0.0161264
878.575	0.0159884
878.654	0.0159520
878.732	0.0161232
878.810	0.0160909
878.888	0.0160328
878.966	0.0160582
879.044	0.0162283
879.122	0.0162398
879.200	0.0162063
879.279	0.0163465
879.357	0.0162935
879.435	0.0162798
879.513	0.0164147
879.591	0.0164480
879.669	0.0163135
879.747	0.0163430
879.825	0.0164709
879.904	0.0163126
879.982	0.0162215
880.060	0.0162842
880.138	0.0162313
880.216	0.0160606
880.294	0.0160410
880.372	0.0162604
880.450	0.0159958
880.529	0.0162641
880.607	0.0161932
880.685	0.0161865
880.763	0.0161675
880.841	0.0162070
880.919	0.0161455
880.997	0.0161990
881.075	0.0161958
881.154	0.0160864
881.232	0.0160083
881.310	0.0161399
881.388	0.0161351
881.466	0.0161125
881.544	0.0161372
881.622	0.0159428
881.700	0.0159742
881.779	0.0159528
881.857	0.0160635
881.935	0.0161017
882.013	0.0161706
882.091	0.0162209
882.169	0.0162135
882.247	0.0162463
882.325	0.0162325
882.404	0.0161981
882.482	0.0162434
882.560	0.0163249
882.638	0.0163585
882.716	0.0162384
882.794	0.0162185
882.872	0.0162366
882.950	0.0163013
883.029	0.0160953
883.107	0.0160358
883.185	0.0162233
883.263	0.0160637
883.341	0.0161143
883.419	0.0160746
883.497	0.0159782
883.575	0.0159946
883.654	0.0160363
883.732	0.0161898
883.810	0.0161158
883.888	0.0160392
883.966	0.0161198
884.044	0.0159140
884.122	0.0161288
884.200	0.0163080
884.279	0.0163097
884.357	0.0161826
884.435	0.0162657
884.513	0.0162148
884.591	0.0162624
884.669	0.0163440
884.747	0.0161774
884.825	0.0162347
884.904	0.0162502
884.982	0.0163687
885.060	0.0163816
885.138	0.0160865
885.216	0.0160835
885.294	0.0162347
885.372	0.0161699
885.450	0.0160677
885.529	0.0162517
885.607	0.0162455
885.685	0.0161036
885.763	0.0161771
885.841	0.0161976
885.919	0.0160579
885.997	0.0161627
886.075	0.0160456
886.154	0.0160201
886.232	0.0160368
886.310	0.0160683
886.388	0.0160493
886.466	0.0161604
886.544	0.0160278
886.622	0.0162408
886.700	0.0162978
886.779	0.0161692
886.857	0.0162465
886.935	0.0162486
887.013	0.0163606
887.091	0.0164393
887.169	0.0163452
887.247	0.0164898
887.325	0.0164014
887.404	0.0162926
887.482	0.0164583
887.560	0.0163860
887.638	0.0162396
887.716	0.0164098
887.794	0.0163680
887.872	0.0161134
887.950	0.0161123
888.029	0.0161060
888.107	0.0162471
888.185	0.0160799
888.263	0.0162881
888.341	0.0161229
888.419	0.0160568
888.497	0.0162740
888.575	0.0161893
888.654	0.0161852
888.732	0.0162940
888.810	0.0162296
888.888	0.0163096
888.966	0.0162392
889.044	0.0162625
889.122	0.0162384
889.200	0.0163197
889.279	0.0162024
889.357	0.0162713
889.435	0.0162708
889.513	0.0162611
889.591	0.0162273
889.669	0.0161817
889.747	0.0161945
889.825	0.0162389
889.904	0.0162248
889.982	0.0161892
890.060	0.0161658
890.138	0.0161289
890.216	0.0162648
890.294	0.0161484
890.372	0.0161887
890.450	0.0161034
890.529	0.0160638
890.607	0.0160622
890.685	0.0162798
890.763	0.0162312
890.841	0.0162086
890.919	0.0160429
890.997	0.0159534
891.075	0.0161960
891.154	0.0161906
891.232	0.0160975
891.310	0.0160481
891.388	0.0161228
891.466	0.0162219
891.544	0.0160957
891.622	0.0161062
891.700	0.0161029
891.779	0.0162369
891.857	0.0163181
891.935	0.0163327
892.013	0.0162201
892.091	0.0161530
892.169	0.0162993
892.247	0.0162315
892.325	0.0161611
892.404	0.0163645
892.482	0.0161357
892.560	0.0160249
892.638	0.0161081
892.716	0.0161879
892.794	0.0160600
892.872	0.0160867
892.950	0.0161019
893.029	0.0161307
893.107	0.0161957
893.185	0.0160872
893.263	0.0159928
893.341	0.0162337
893.419	0.0161813
893.497	0.0161552
893.575	0.0162511
893.654	0.0161994
893.732	0.0160917
893.810	0.0160523
893.888	0.0162267
893.966	0.0163216
894.044	0.0161299
894.122	0.0163062
894.200	0.0164002
894.279	0.0162117
894.357	0.0162874
894.435	0.0163367
894.513	0.0164124
894.591	0.0162726
894.669	0.0162314
894.747	0.0163409
894.825	0.0162159
894.904	0.0163685
894.982	0.0163571
895.060	0.0162682
895.138	0.0161585
895.216	0.0161379
895.294	0.0163686
895.372	0.0161772
895.450	0.0162196
895.529	0.0163046
895.607	0.0162373
895.685	0.0161467
895.763	0.0162508
895.841	0.0162734
895.919	0.0161740
895.997	0.0161563
896.075	0.0161614
896.154	0.0162502
896.232	0.0162466
896.310	0.0162358
896.388	0.0162634
896.466	0.0161554
896.544	0.0162839
896.622	0.0162633
896.700	0.0162743
896.779	0.0161722
896.857	0.0163126
896.935	0.0162352
897.013	0.0164175
897.091	0.0163717
897.169	0.0162604
897.247	0.0162036
897.325	0.0160154
897.404	0.0161389
897.482	0.0160345
897.560	0.0161691
897.638	0.0161105
897.716	0.0160452
897.794	0.0160910
897.872	0.0161820
897.950	0.0159667
898.029	0.0158829
898.107	0.0159251
898.185	0.0160177
898.263	0.0160632
898.341	0.0158715
898.419	0.0160529
898.497	0.0160085
898.575	0.0159586
898.654	0.0160335
898.732	0.0160346
898.810	0.0160213
898.888	0.0162517
898.966	0.0162325
899.044	0.0162344
899.122	0.0162583
899.200	0.0161678
899.279	0.0161326
899.357	0.0161600
899.435	0.0161990
899.513	0.0162402
899.591	0.0163190
899.669	0.0163184
899.747	0.0162343
899.825	0.0161950
899.904	0.0162418
899.982	0.0162981
900.060	0.0162095
900.138	0.0161884
900.216	0.0162510
900.294	0.0161709
900.372	0.0162373
900.450	0.0161253
900.529	0.0161137
900.607	0.0160497
900.685	0.0160123
900.763	0.0161805
900.841	0.0161626
900.919	0.0161884
900.997	0.0161418
901.075	0.0161612
901.154	0.0161623
901.232	0.0160807
901.310	0.0161896
901.388	0.0162187
901.466	0.0161904
901.544	0.0162753
901.622	0.0161664
901.700	0.0161890
901.779	0.0162913
901.857	0.0161985
901.935	0.0161855
902.013	0.0162498
902.091	0.0161796
902.169	0.0161505
902.247	0.0163062
902.325	0.0162005
902.404	0.0163253
902.482	0.0162189
902.560	0.0162955
902.638	0.0162566
902.716	0.0162125
902.794	0.0162656
902.872	0.0161877
902.950	0.0161960
903.029	0.0162049
903.107	0.0161016
903.185	0.0160394
903.263	0.0159950
903.341	0.0160058
903.419	0.0161290
903.497	0.0160640
903.575	0.0160777
903.654	0.0159765
903.732	0.0159299
903.810	0.0160435
903.888	0.0160157
903.966	0.0160323
904.044	0.0159988
904.122	0.0160577
904.200	0.0161207
904.279	0.0160011
904.357	0.0159985
904.435	0.0161049
904.513	0.0162075
904.591	0.0159676
904.669	0.0160210
904.747	0.0160229
904.825	0.0162138
904.904	0.0161595
904.982	0.0160585
905.060	0.0160516
905.138	0.0161317
905.216	0.0160734
905.294	0.0159515
905.372	0.0160168
905.450	0.0160213
905.529	0.0159109
905.607	0.0159832
905.685	0.0161382
905.763	0.0160542
905.841	0.0159527
905.919	0.0160236
905.997	0.0161006
906.075	0.0160564
906.154	0.0161054
906.232	0.0160564
906.310	0.0161387
906.388	0.0162910
906.466	0.0160085
906.544	0.0161481
906.622	0.0162027
906.700	0.0160985
906.779	0.0161828
906.857	0.0162083
906.935	0.0162100
907.013	0.0162099
907.091	0.0161034
907.169	0.0161143
907.247	0.0161518
907.325	0.0160216
907.404	0.0159362
907.482	0.0161320
907.560	0.0160215
907.638	0.0159550
907.716	0.0162161
907.794	0.0161726
907.872	0.0161234
907.950	0.0163036
908.029	0.0162254
908.107	0.0161118
908.185	0.0161848
908.263	0.0161271
908.341	0.0161953
908.419	0.0162288
908.497	0.0163593
908.575	0.0161179
908.654	0.0162055
908.732	0.0163145
908.810	0.0162860
908.888	0.0162759
908.966	0.0161253
909.044	0.0162337
909.122	0.0161793
909.200	0.0161428
909.279	0.0160244
909.357	0.0159747
909.435	0.0159371
909.513	0.0161706
909.591	0.0161742
909.669	0.0162387
909.747	0.0160552
909.825	0.0161829
909.904	0.0161105
909.982	0.0161002
910.060	0.0161844
910.138	0.0162194
910.216	0.0162772
910.294	0.0162598
910.372	0.0162930
910.450	0.0161581
910.529	0.0163397
910.607	0.0162554
910.685	0.0161780
910.763	0.0163084
910.841	0.0161922
910.919	0.0162415
910.997	0.0162276
911.075	0.0162572
911.154	0.0162228
911.232	0.0161631
911.310	0.0162349
911.388	0.0162403
911.466	0.0161348
911.544	0.0162439
911.622	0.0160621
911.700	0.0158667
911.779	0.0161554
911.857	0.0160578
911.935	0.0159659
912.013	0.0159885
912.091	0.0161290
912.169	0.0159696
912.247	0.0157996
912.325	0.0160469
912.404	0.0161540
912.482	0.0159892
912.560	0.0158504
912.638	0.0160157
912.716	0.0159627
912.794	0.0159814
912.872	0.0161064
912.950	0.0161192
913.029	0.0160574
913.107	0.0161468
913.185	0.0162510
913.263	0.0161600
913.341	0.0163076
913.419	0.0162434
913.497	0.0163976
913.575	0.0162208
913.654	0.0163892
913.732	0.0162429
913.810	0.0163976
913.888	0.0164294
913.966	0.0164240
914.044	0.0163803
914.122	0.0162620
914.200	0.0161967
914.279	0.0162694
914.357	0.0162172
914.435	0.0162308
914.513	0.0162563
914.591	0.0161758
914.669	0.0161250
914.747	0.0161945
914.825	0.0160981
914.904	0.0161366
914.982	0.0159341
915.060	0.0161012
915.138	0.0161040
915.216	0.0159810
915.294	0.0159341
915.372	0.0158491
915.450	0.0160049
915.529	0.0159155
915.607	0.0160796
915.685	0.0161285
915.763	0.0160584
915.841	0.0159982
915.919	0.0160627
915.997	0.0160979
916.075	0.0163074
916.154	0.0162148
916.232	0.0163557
916.310	0.0164198
916.388	0.0162488
916.466	0.0162897
916.544	0.0163587
916.622	0.0164477
916.700	0.0163903
916.779	0.0163932
916.857	0.0164015
916.935	0.0163911
917.013	0.0162778
917.091	0.0162383
917.169	0.0162251
917.247	0.0163013
917.325	0.0162990
917.404	0.0163235
917.482	0.0161890
917.560	0.0161841
917.638	0.0162416
917.716	0.0162151
917.794	0.0161749
917.872	0.0161893
917.950	0.0162266
918.029	0.0161204
918.107	0.0162282
918.185	0.0161182
918.263	0.0160765
918.341	0.0161569
918.419	0.0161882
918.497	0.0161038
918.575	0.0161745
918.654	0.0161295
918.732	0.0161440
918.810	0.0160875
918.888	0.0160239
918.966	0.0161640
919.044	0.0161316
919.122	0.0162402
919.200	0.0161491
919.279	0.0160928
919.357	0.0160860
919.435	0.0161616
919.513	0.0160435
919.591	0.0159557
919.669	0.0160046
919.747	0.0160876
919.825	0.0159895
919.904	0.0159069
