05/24/2022	20:28:30	Ver.	4.1	UNKNOWN
Optical Delay	599.988409	Delta X		0.078125	Sweeps	1	Scan Rate	0/0
Coordinates	Axis 1	NaN	Axis 2	NaN	Axis 3	NaN	Axis 4	NaN	Axis 5	NaN	Axis 6	0.000000
TX Power	0.000000	RX Power	0.000000

599.988	0.0161050
600.067	0.0162473
600.145	0.0161600
600.223	0.0160713
600.301	0.0160715
600.379	0.0161512
600.457	0.0160918
600.535	0.0161002
600.613	0.0162215
600.692	0.0162049
600.770	0.0160971
600.848	0.0160060
600.926	0.0161928
601.004	0.0161804
601.082	0.0161565
601.160	0.0160477
601.238	0.0161357
601.317	0.0161218
601.395	0.0162302
601.473	0.0160310
601.551	0.0160909
601.629	0.0161672
601.707	0.0160403
601.785	0.0159527
601.863	0.0158992
601.942	0.0160869
602.020	0.0162212
602.098	0.0160344
602.176	0.0160526
602.254	0.0162048
602.332	0.0160814
602.410	0.0160243
602.488	0.0161486
602.567	0.0161210
602.645	0.0161095
602.723	0.0160174
602.801	0.0160577
602.879	0.0160830
602.957	0.0161211
603.035	0.0161062
603.113	0.0159834
603.192	0.0162247
603.270	0.0162084
603.348	0.0162122
603.426	0.0161912
603.504	0.0160924
603.582	0.0161139
603.660	0.0160852
603.738	0.0160065
603.817	0.0161716
603.895	0.0162202
603.973	0.0160558
604.051	0.0160449
604.129	0.0162653
604.207	0.0160742
604.285	0.0161189
604.363	0.0161004
604.442	0.0162720
604.520	0.0161919
604.598	0.0161368
604.676	0.0160725
604.754	0.0160278
604.832	0.0160846
604.910	0.0161579
604.988	0.0160897
605.067	0.0160651
605.145	0.0159659
605.223	0.0161360
605.301	0.0161618
605.379	0.0161008
605.457	0.0161060
605.535	0.0161065
605.613	0.0161690
605.692	0.0162041
605.770	0.0161071
605.848	0.0162738
605.926	0.0160854
606.004	0.0160912
606.082	0.0161342
606.160	0.0161710
606.238	0.0160838
606.317	0.0161647
606.395	0.0161455
606.473	0.0159819
606.551	0.0161870
606.629	0.0161278
606.707	0.0161746
606.785	0.0161359
606.863	0.0161472
606.942	0.0161592
607.020	0.0159344
607.098	0.0160894
607.176	0.0161360
607.254	0.0161030
607.332	0.0160423
607.410	0.0160912
607.488	0.0161407
607.567	0.0160257
607.645	0.0160791
607.723	0.0161288
607.801	0.0162201
607.879	0.0161827
607.957	0.0160483
608.035	0.0160764
608.113	0.0160549
608.192	0.0160703
608.270	0.0161227
608.348	0.0160623
608.426	0.0161512
608.504	0.0161468
608.582	0.0160857
608.660	0.0161475
608.738	0.0161890
608.817	0.0162291
608.895	0.0160493
608.973	0.0161658
609.051	0.0161813
609.129	0.0160298
609.207	0.0161195
609.285	0.0161066
609.363	0.0162605
609.442	0.0160156
609.520	0.0160404
609.598	0.0161627
609.676	0.0161810
609.754	0.0161320
609.832	0.0161668
609.910	0.0160852
609.988	0.0160999
610.067	0.0160449
610.145	0.0162252
610.223	0.0161986
610.301	0.0161221
610.379	0.0161259
610.457	0.0161388
610.535	0.0160989
610.613	0.0161003
610.692	0.0160517
610.770	0.0162259
610.848	0.0160520
610.926	0.0160425
611.004	0.0161440
611.082	0.0161426
611.160	0.0161485
611.238	0.0161239
611.317	0.0161819
611.395	0.0161629
611.473	0.0161994
611.551	0.0160921
611.629	0.0160212
611.707	0.0161023
611.785	0.0162386
611.863	0.0159589
611.942	0.0159722
612.020	0.0161874
612.098	0.0160433
612.176	0.0160529
612.254	0.0160886
612.332	0.0161358
612.410	0.0160271
612.488	0.0160306
612.567	0.0162124
612.645	0.0161115
612.723	0.0160276
612.801	0.0161053
612.879	0.0159893
612.957	0.0160729
613.035	0.0162096
613.113	0.0160399
613.192	0.0160430
613.270	0.0159857
613.348	0.0160392
613.426	0.0161086
613.504	0.0160524
613.582	0.0161304
613.660	0.0162029
613.738	0.0161018
613.817	0.0161765
613.895	0.0161121
613.973	0.0161389
614.051	0.0161932
614.129	0.0161279
614.207	0.0161769
614.285	0.0161663
614.363	0.0160934
614.442	0.0160592
614.520	0.0162123
614.598	0.0160388
614.676	0.0160445
614.754	0.0160556
614.832	0.0159715
614.910	0.0161549
614.988	0.0158215
615.067	0.0158887
615.145	0.0159847
615.223	0.0160674
615.301	0.0160951
615.379	0.0159057
615.457	0.0161105
615.535	0.0161069
615.613	0.0161195
615.692	0.0160609
615.770	0.0159299
615.848	0.0161250
615.926	0.0160435
616.004	0.0160889
616.082	0.0161014
616.160	0.0162349
616.238	0.0163164
616.317	0.0162247
616.395	0.0162656
616.473	0.0162845
616.551	0.0162712
616.629	0.0164217
616.707	0.0162961
616.785	0.0163670
616.863	0.0161976
616.942	0.0163075
617.020	0.0162668
617.098	0.0162188
617.176	0.0161486
617.254	0.0161272
617.332	0.0163058
617.410	0.0160818
617.488	0.0160153
617.567	0.0160635
617.645	0.0159924
617.723	0.0159551
617.801	0.0158916
617.879	0.0158704
617.957	0.0159605
618.035	0.0158024
618.113	0.0158542
618.192	0.0157916
618.270	0.0157014
618.348	0.0158961
618.426	0.0158446
618.504	0.0159055
618.582	0.0159106
618.660	0.0159557
618.738	0.0159711
618.817	0.0159699
618.895	0.0160442
618.973	0.0162411
619.051	0.0163347
619.129	0.0163023
619.207	0.0164334
619.285	0.0163901
619.363	0.0164436
619.442	0.0164889
619.520	0.0162614
619.598	0.0164565
619.676	0.0164128
619.754	0.0163640
619.832	0.0163420
619.910	0.0163524
619.988	0.0163753
620.067	0.0162984
620.145	0.0161893
620.223	0.0160426
620.301	0.0162047
620.379	0.0161412
620.457	0.0160185
620.535	0.0160997
620.613	0.0160561
620.692	0.0159615
620.770	0.0159367
620.848	0.0159041
620.926	0.0158602
621.004	0.0159489
621.082	0.0158143
621.160	0.0158823
621.238	0.0158202
621.317	0.0157494
621.395	0.0157812
621.473	0.0157347
621.551	0.0158661
621.629	0.0158569
621.707	0.0159465
621.785	0.0158333
621.863	0.0158939
621.942	0.0158025
622.020	0.0158267
622.098	0.0159861
622.176	0.0159782
622.254	0.0160360
622.332	0.0160288
622.410	0.0161256
622.488	0.0160993
622.567	0.0162482
622.645	0.0162526
622.723	0.0163028
622.801	0.0164039
622.879	0.0163528
622.957	0.0166177
623.035	0.0165227
623.113	0.0165244
623.192	0.0164194
623.270	0.0165955
623.348	0.0164737
623.426	0.0164456
623.504	0.0164755
623.582	0.0164965
623.660	0.0164711
623.738	0.0162998
623.817	0.0163641
623.895	0.0162807
623.973	0.0162123
624.051	0.0161974
624.129	0.0161211
624.207	0.0161506
624.285	0.0160555
624.363	0.0159032
624.442	0.0159531
624.520	0.0157268
624.598	0.0157941
624.676	0.0157413
624.754	0.0158331
624.832	0.0157215
624.910	0.0156924
624.988	0.0156584
625.067	0.0155654
625.145	0.0157169
625.223	0.0156675
625.301	0.0156946
625.379	0.0158264
625.457	0.0158372
625.535	0.0159171
625.613	0.0158710
625.692	0.0159628
625.770	0.0160320
625.848	0.0160729
625.926	0.0161782
626.004	0.0161872
626.082	0.0162888
626.160	0.0163171
626.238	0.0164365
626.317	0.0165053
626.395	0.0165623
626.473	0.0166457
626.551	0.0166575
626.629	0.0167063
626.707	0.0167699
626.785	0.0168300
626.863	0.0166841
626.942	0.0167287
627.020	0.0166759
627.098	0.0167628
627.176	0.0166911
627.254	0.0164724
627.332	0.0165375
627.410	0.0164632
627.488	0.0163060
627.567	0.0161762
627.645	0.0161127
627.723	0.0160564
627.801	0.0160057
627.879	0.0160095
627.957	0.0156607
628.035	0.0157222
628.113	0.0155793
628.192	0.0155701
628.270	0.0154899
628.348	0.0156026
628.426	0.0155054
628.504	0.0156149
628.582	0.0155421
628.660	0.0155886
628.738	0.0155602
628.817	0.0155989
628.895	0.0155485
628.973	0.0158381
629.051	0.0159715
629.129	0.0158465
629.207	0.0160182
629.285	0.0161187
629.363	0.0161475
629.442	0.0163964
629.520	0.0164343
629.598	0.0165178
629.676	0.0164269
629.754	0.0164715
629.832	0.0165575
629.910	0.0166600
629.988	0.0164775
630.067	0.0164524
630.145	0.0167086
630.223	0.0167027
630.301	0.0165984
630.379	0.0164096
630.457	0.0164347
630.535	0.0165622
630.613	0.0162862
630.692	0.0162100
630.770	0.0162824
630.848	0.0161283
630.926	0.0162495
631.004	0.0162289
631.082	0.0162674
631.160	0.0160868
631.238	0.0161696
631.317	0.0162160
631.395	0.0161254
631.473	0.0160323
631.551	0.0160821
631.629	0.0160448
631.707	0.0161466
631.785	0.0157545
631.863	0.0158191
631.942	0.0160939
632.020	0.0161230
632.098	0.0157956
632.176	0.0159209
632.254	0.0158031
632.332	0.0158369
632.410	0.0159555
632.488	0.0158738
632.567	0.0157676
632.645	0.0157674
632.723	0.0157413
632.801	0.0157938
632.879	0.0158328
632.957	0.0158472
633.035	0.0159304
633.113	0.0160643
633.192	0.0158958
633.270	0.0160158
633.348	0.0161620
633.426	0.0162088
633.504	0.0163042
633.582	0.0162431
633.660	0.0163626
633.738	0.0165116
633.817	0.0164144
633.895	0.0166097
633.973	0.0165592
634.051	0.0165176
634.129	0.0164734
634.207	0.0165542
634.285	0.0165066
634.363	0.0164504
634.442	0.0163231
634.520	0.0162206
634.598	0.0163778
634.676	0.0161789
634.754	0.0161083
634.832	0.0159757
634.910	0.0158411
634.988	0.0159505
635.067	0.0158664
635.145	0.0157635
635.223	0.0158292
635.301	0.0158229
635.379	0.0159389
635.457	0.0159238
635.535	0.0158624
635.613	0.0157896
635.692	0.0158321
635.770	0.0157903
635.848	0.0159604
635.926	0.0160430
636.004	0.0160212
636.082	0.0159461
636.160	0.0159737
636.238	0.0160030
636.317	0.0162292
636.395	0.0160018
636.473	0.0160780
636.551	0.0161284
636.629	0.0160703
636.707	0.0161726
636.785	0.0160896
636.863	0.0162875
636.942	0.0162587
637.020	0.0161982
637.098	0.0161360
637.176	0.0161560
637.254	0.0159562
637.332	0.0161453
637.410	0.0161861
637.488	0.0160024
637.567	0.0160505
637.645	0.0161817
637.723	0.0161593
637.801	0.0160619
637.879	0.0158455
637.957	0.0161431
638.035	0.0162090
638.113	0.0161915
638.192	0.0162425
638.270	0.0162560
638.348	0.0162852
638.426	0.0163506
638.504	0.0163538
638.582	0.0162834
638.660	0.0163205
638.738	0.0162676
638.817	0.0162731
638.895	0.0162412
638.973	0.0161692
639.051	0.0160174
639.129	0.0160505
639.207	0.0161452
639.285	0.0159818
639.363	0.0160492
639.442	0.0158623
639.520	0.0159290
639.598	0.0158409
639.676	0.0158689
639.754	0.0159487
639.832	0.0159228
639.910	0.0159150
639.988	0.0158392
640.067	0.0158831
640.145	0.0159666
640.223	0.0160429
640.301	0.0160306
640.379	0.0160951
640.457	0.0159509
640.535	0.0159621
640.613	0.0162351
640.692	0.0162099
640.770	0.0162351
640.848	0.0160302
640.926	0.0162386
641.004	0.0162051
641.082	0.0160236
641.160	0.0161380
641.238	0.0162716
641.317	0.0161905
641.395	0.0162211
641.473	0.0162918
641.551	0.0161198
641.629	0.0162358
641.707	0.0161479
641.785	0.0161000
641.863	0.0161272
641.942	0.0160882
642.020	0.0161790
642.098	0.0161089
642.176	0.0160851
642.254	0.0161410
642.332	0.0161366
642.410	0.0159390
642.488	0.0160931
642.567	0.0160026
642.645	0.0160699
642.723	0.0160646
642.801	0.0159727
642.879	0.0158737
642.957	0.0159299
643.035	0.0160234
643.113	0.0159901
643.192	0.0159361
643.270	0.0160960
643.348	0.0159889
643.426	0.0160983
643.504	0.0159828
643.582	0.0160730
643.660	0.0161288
643.738	0.0162314
643.817	0.0161800
643.895	0.0160706
643.973	0.0160672
644.051	0.0161784
644.129	0.0161659
644.207	0.0162529
644.285	0.0160189
644.363	0.0159444
644.442	0.0160538
644.520	0.0160481
644.598	0.0162621
644.676	0.0161112
644.754	0.0160493
644.832	0.0160929
644.910	0.0160324
644.988	0.0159782
645.067	0.0160952
645.145	0.0159397
645.223	0.0161391
645.301	0.0162125
645.379	0.0160166
645.457	0.0161630
645.535	0.0160873
645.613	0.0161962
645.692	0.0161063
645.770	0.0162326
645.848	0.0163385
645.926	0.0160560
646.004	0.0159860
646.082	0.0161203
646.160	0.0161404
646.238	0.0161174
646.317	0.0160954
646.395	0.0160139
646.473	0.0159373
646.551	0.0162446
646.629	0.0161060
646.707	0.0160925
646.785	0.0160263
646.863	0.0161433
646.942	0.0161372
647.020	0.0163670
647.098	0.0162038
647.176	0.0162532
647.254	0.0161787
647.332	0.0161672
647.410	0.0161819
647.488	0.0162764
647.567	0.0163033
647.645	0.0161201
647.723	0.0161298
647.801	0.0162034
647.879	0.0161456
647.957	0.0161771
648.035	0.0160744
648.113	0.0160884
648.192	0.0161826
648.270	0.0162089
648.348	0.0160902
648.426	0.0160410
648.504	0.0159821
648.582	0.0161162
648.660	0.0161459
648.738	0.0161200
648.817	0.0160635
648.895	0.0162861
648.973	0.0161520
649.051	0.0162627
649.129	0.0162513
649.207	0.0161797
649.285	0.0162323
649.363	0.0162571
649.442	0.0161844
649.520	0.0162203
649.598	0.0161105
649.676	0.0160361
649.754	0.0160457
649.832	0.0160075
649.910	0.0159496
649.988	0.0159512
650.067	0.0159058
650.145	0.0159450
650.223	0.0159372
650.301	0.0159825
650.379	0.0160254
650.457	0.0160342
650.535	0.0160199
650.613	0.0160119
650.692	0.0161069
650.770	0.0160782
650.848	0.0161696
650.926	0.0162512
651.004	0.0162256
651.082	0.0161559
651.160	0.0162359
651.238	0.0162841
651.317	0.0160907
651.395	0.0162667
651.473	0.0160551
651.551	0.0160038
651.629	0.0161283
651.707	0.0160754
651.785	0.0159425
651.863	0.0160239
651.942	0.0159874
652.020	0.0161454
652.098	0.0161850
652.176	0.0160787
652.254	0.0162780
652.332	0.0164323
652.410	0.0163947
652.488	0.0164962
652.567	0.0164777
652.645	0.0165907
652.723	0.0165835
652.801	0.0164409
652.879	0.0163727
652.957	0.0163986
653.035	0.0164593
653.113	0.0163614
653.192	0.0161864
653.270	0.0160793
653.348	0.0159959
653.426	0.0156622
653.504	0.0155345
653.582	0.0153841
653.660	0.0152967
653.738	0.0153101
653.817	0.0151637
653.895	0.0150880
653.973	0.0151035
654.051	0.0151021
654.129	0.0153769
654.207	0.0155590
654.285	0.0155482
654.363	0.0156303
654.442	0.0161066
654.520	0.0163904
654.598	0.0164736
654.676	0.0167310
654.754	0.0169492
654.832	0.0170773
654.910	0.0173918
654.988	0.0175157
655.067	0.0175977
655.145	0.0175409
655.223	0.0177454
655.301	0.0175443
655.379	0.0173940
655.457	0.0172223
655.535	0.0169724
655.613	0.0167924
655.692	0.0164906
655.770	0.0159824
655.848	0.0157391
655.926	0.0154451
656.004	0.0152565
656.082	0.0151548
656.160	0.0147231
656.238	0.0145985
656.317	0.0145344
656.395	0.0143926
656.473	0.0144733
656.551	0.0143619
656.629	0.0146848
656.707	0.0147614
656.785	0.0150501
656.863	0.0152955
656.942	0.0156203
657.020	0.0158604
657.098	0.0161472
657.176	0.0165855
657.254	0.0168008
657.332	0.0168709
657.410	0.0171735
657.488	0.0173364
657.567	0.0173921
657.645	0.0175206
657.723	0.0173747
657.801	0.0173223
657.879	0.0172208
657.957	0.0172752
658.035	0.0169058
658.113	0.0167598
658.192	0.0167244
658.270	0.0165281
658.348	0.0162878
658.426	0.0160085
658.504	0.0159602
658.582	0.0158144
658.660	0.0156263
658.738	0.0155233
658.817	0.0154766
658.895	0.0156196
658.973	0.0155899
659.051	0.0155910
659.129	0.0157159
659.207	0.0158173
659.285	0.0157383
659.363	0.0157737
659.442	0.0159512
659.520	0.0159221
659.598	0.0158676
659.676	0.0159813
659.754	0.0159824
659.832	0.0158138
659.910	0.0159148
659.988	0.0159178
660.067	0.0159949
660.145	0.0158845
660.223	0.0158497
660.301	0.0158631
660.379	0.0159877
660.457	0.0160319
660.535	0.0159829
660.613	0.0160445
660.692	0.0162614
660.770	0.0162514
660.848	0.0162833
660.926	0.0164214
661.004	0.0164016
661.082	0.0164756
661.160	0.0163386
661.238	0.0162469
661.317	0.0161928
661.395	0.0160881
661.473	0.0159438
661.551	0.0157442
661.629	0.0156228
661.707	0.0153728
661.785	0.0152537
661.863	0.0150876
661.942	0.0150990
662.020	0.0150291
662.098	0.0150469
662.176	0.0152441
662.254	0.0154194
662.332	0.0156440
662.410	0.0160784
662.488	0.0165720
662.567	0.0167904
662.645	0.0173394
662.723	0.0175781
662.801	0.0178694
662.879	0.0182803
662.957	0.0184689
663.035	0.0185034
663.113	0.0185380
663.192	0.0184590
663.270	0.0183656
663.348	0.0183607
663.426	0.0180527
663.504	0.0176260
663.582	0.0170956
663.660	0.0167988
663.738	0.0164291
663.817	0.0158469
663.895	0.0154832
663.973	0.0149799
664.051	0.0145300
664.129	0.0141801
664.207	0.0136528
664.285	0.0135053
664.363	0.0132963
664.442	0.0129474
664.520	0.0129608
664.598	0.0129149
664.676	0.0127576
664.754	0.0130924
664.832	0.0131413
664.910	0.0132869
664.988	0.0136880
665.067	0.0139294
665.145	0.0141805
665.223	0.0147913
665.301	0.0151460
665.379	0.0154269
665.457	0.0160186
665.535	0.0165874
665.613	0.0172894
665.692	0.0178256
665.770	0.0182235
665.848	0.0190252
665.926	0.0194286
666.004	0.0198687
666.082	0.0201338
666.160	0.0203911
666.238	0.0204348
666.317	0.0204024
666.395	0.0201807
666.473	0.0196943
666.551	0.0193149
666.629	0.0188674
666.707	0.0183085
666.785	0.0176800
666.863	0.0170255
666.942	0.0164658
667.020	0.0159846
667.098	0.0155976
667.176	0.0150861
667.254	0.0148265
667.332	0.0144629
667.410	0.0143202
667.488	0.0142112
667.567	0.0142492
667.645	0.0138349
667.723	0.0137001
667.801	0.0137592
667.879	0.0135153
667.957	0.0133077
668.035	0.0132140
668.113	0.0132597
668.192	0.0130104
668.270	0.0131197
668.348	0.0131728
668.426	0.0133427
668.504	0.0137029
668.582	0.0140829
668.660	0.0147085
668.738	0.0152512
668.817	0.0157289
668.895	0.0162875
668.973	0.0170087
669.051	0.0172601
669.129	0.0177168
669.207	0.0181252
669.285	0.0183594
669.363	0.0184682
669.442	0.0184476
669.520	0.0184890
669.598	0.0184245
669.676	0.0183670
669.754	0.0181219
669.832	0.0178991
669.910	0.0178194
669.988	0.0175635
670.067	0.0173030
670.145	0.0171284
670.223	0.0169507
670.301	0.0165251
670.379	0.0162152
670.457	0.0161181
670.535	0.0158350
670.613	0.0157556
670.692	0.0155183
670.770	0.0155896
670.848	0.0155458
670.926	0.0155992
671.004	0.0158295
671.082	0.0158285
671.160	0.0160148
671.238	0.0160800
671.317	0.0162847
671.395	0.0163627
671.473	0.0163884
671.551	0.0167162
671.629	0.0167001
671.707	0.0168388
671.785	0.0167262
671.863	0.0166504
671.942	0.0165875
672.020	0.0165479
672.098	0.0163914
672.176	0.0162583
672.254	0.0160968
672.332	0.0159029
672.410	0.0157224
672.488	0.0153656
672.567	0.0150411
672.645	0.0147978
672.723	0.0143707
672.801	0.0141253
672.879	0.0139423
672.957	0.0137926
673.035	0.0137012
673.113	0.0136752
673.192	0.0138006
673.270	0.0141116
673.348	0.0141087
673.426	0.0145936
673.504	0.0150468
673.582	0.0154274
673.660	0.0158560
673.738	0.0162334
673.817	0.0166862
673.895	0.0171767
673.973	0.0174252
674.051	0.0178139
674.129	0.0182002
674.207	0.0184721
674.285	0.0187380
674.363	0.0186458
674.442	0.0188503
674.520	0.0187751
674.598	0.0186387
674.676	0.0184395
674.754	0.0182050
674.832	0.0178875
674.910	0.0175447
674.988	0.0171770
675.067	0.0167053
675.145	0.0163326
675.223	0.0159629
675.301	0.0155614
675.379	0.0154461
675.457	0.0151854
675.535	0.0149793
675.613	0.0148706
675.692	0.0148085
675.770	0.0147027
675.848	0.0145745
675.926	0.0143635
676.004	0.0143717
676.082	0.0141993
676.160	0.0144710
676.238	0.0144742
676.317	0.0145225
676.395	0.0149088
676.473	0.0152117
676.551	0.0155440
676.629	0.0158378
676.707	0.0162713
676.785	0.0169238
676.863	0.0170625
676.942	0.0173594
677.020	0.0175072
677.098	0.0177337
677.176	0.0178696
677.254	0.0177768
677.332	0.0175953
677.410	0.0172886
677.488	0.0170010
677.567	0.0167928
677.645	0.0163754
677.723	0.0159113
677.801	0.0157281
677.879	0.0155843
677.957	0.0151740
678.035	0.0150964
678.113	0.0149081
678.192	0.0149251
678.270	0.0152018
678.348	0.0152598
678.426	0.0155466
678.504	0.0158593
678.582	0.0160395
678.660	0.0162640
678.738	0.0164298
678.817	0.0166805
678.895	0.0169077
678.973	0.0169046
679.051	0.0171407
679.129	0.0170631
679.207	0.0170210
679.285	0.0171648
679.363	0.0171485
679.442	0.0172144
679.520	0.0170867
679.598	0.0170757
679.676	0.0170309
679.754	0.0170226
679.832	0.0167882
679.910	0.0167052
679.988	0.0163931
680.067	0.0159890
680.145	0.0157017
680.223	0.0153375
680.301	0.0149638
680.379	0.0145889
680.457	0.0143031
680.535	0.0140321
680.613	0.0138503
680.692	0.0137019
680.770	0.0134505
680.848	0.0133876
680.926	0.0134364
681.004	0.0135590
681.082	0.0136993
681.160	0.0139916
681.238	0.0140846
681.317	0.0143706
681.395	0.0146889
681.473	0.0151138
681.551	0.0156583
681.629	0.0160022
681.707	0.0165178
681.785	0.0170517
681.863	0.0175056
681.942	0.0180962
682.020	0.0186435
682.098	0.0191054
682.176	0.0195302
682.254	0.0197628
682.332	0.0200163
682.410	0.0201338
682.488	0.0202193
682.567	0.0199339
682.645	0.0198207
682.723	0.0193724
682.801	0.0188996
682.879	0.0185229
682.957	0.0180280
683.035	0.0176448
683.113	0.0169770
683.192	0.0166429
683.270	0.0163953
683.348	0.0157880
683.426	0.0153268
683.504	0.0150435
683.582	0.0145013
683.660	0.0141280
683.738	0.0138068
683.817	0.0133356
683.895	0.0129648
683.973	0.0126792
684.051	0.0125661
684.129	0.0125123
684.207	0.0124373
684.285	0.0125776
684.363	0.0127437
684.442	0.0131773
684.520	0.0135393
684.598	0.0139510
684.676	0.0143958
684.754	0.0149203
684.832	0.0153876
684.910	0.0158437
684.988	0.0162692
685.067	0.0165549
685.145	0.0167937
685.223	0.0171368
685.301	0.0173693
685.379	0.0173340
685.457	0.0174269
685.535	0.0174545
685.613	0.0174467
685.692	0.0174409
685.770	0.0173849
685.848	0.0171524
685.926	0.0170007
686.004	0.0168063
686.082	0.0166352
686.160	0.0166314
686.238	0.0162574
686.317	0.0162214
686.395	0.0162158
686.473	0.0161000
686.551	0.0161562
686.629	0.0162586
686.707	0.0161868
686.785	0.0163641
686.863	0.0166610
686.942	0.0166883
687.020	0.0167926
687.098	0.0168941
687.176	0.0170235
687.254	0.0170673
687.332	0.0171864
687.410	0.0171944
687.488	0.0171893
687.567	0.0170028
687.645	0.0169197
687.723	0.0169772
687.801	0.0170354
687.879	0.0168139
687.957	0.0169405
688.035	0.0170506
688.113	0.0169698
688.192	0.0170662
688.270	0.0167645
688.348	0.0167164
688.426	0.0167252
688.504	0.0166734
688.582	0.0164184
688.660	0.0162366
688.738	0.0157993
688.817	0.0154892
688.895	0.0152817
688.973	0.0149841
689.051	0.0148184
689.129	0.0146230
689.207	0.0143127
689.285	0.0140604
689.363	0.0140350
689.442	0.0139433
689.520	0.0140025
689.598	0.0139848
689.676	0.0140594
689.754	0.0141315
689.832	0.0142474
689.910	0.0145963
689.988	0.0146352
690.067	0.0148914
690.145	0.0150882
690.223	0.0153526
690.301	0.0155408
690.379	0.0158326
690.457	0.0162341
690.535	0.0164084
690.613	0.0168147
690.692	0.0170080
690.770	0.0171960
690.848	0.0174911
690.926	0.0175704
691.004	0.0175030
691.082	0.0173783
691.160	0.0173640
691.238	0.0172351
691.317	0.0171141
691.395	0.0170299
691.473	0.0168915
691.551	0.0166573
691.629	0.0164251
691.707	0.0165340
691.785	0.0161643
691.863	0.0160178
691.942	0.0160893
692.020	0.0160429
692.098	0.0158711
692.176	0.0160245
692.254	0.0160841
692.332	0.0162463
692.410	0.0163539
692.488	0.0165356
692.567	0.0167000
692.645	0.0167461
692.723	0.0169019
692.801	0.0170373
692.879	0.0171020
692.957	0.0170235
693.035	0.0168839
693.113	0.0171545
693.192	0.0169166
693.270	0.0170161
693.348	0.0167109
693.426	0.0167107
693.504	0.0165992
693.582	0.0165722
693.660	0.0165226
693.738	0.0163940
693.817	0.0164374
693.895	0.0162939
693.973	0.0161613
694.051	0.0160475
694.129	0.0158920
694.207	0.0157755
694.285	0.0155339
694.363	0.0155778
694.442	0.0152573
694.520	0.0149689
694.598	0.0149013
694.676	0.0148589
694.754	0.0148502
694.832	0.0148676
694.910	0.0150078
694.988	0.0151056
695.067	0.0151201
695.145	0.0154208
695.223	0.0155232
695.301	0.0157947
695.379	0.0160413
695.457	0.0159784
695.535	0.0162244
695.613	0.0161524
695.692	0.0160732
695.770	0.0161085
695.848	0.0161043
695.926	0.0158904
696.004	0.0160045
696.082	0.0156165
696.160	0.0155213
696.238	0.0156624
696.317	0.0156349
696.395	0.0154492
696.473	0.0154378
696.551	0.0154354
696.629	0.0155215
696.707	0.0153335
696.785	0.0154510
696.863	0.0156584
696.942	0.0157139
697.020	0.0157608
697.098	0.0157424
697.176	0.0159112
697.254	0.0158672
697.332	0.0160820
697.410	0.0160745
697.488	0.0160796
697.567	0.0162919
697.645	0.0162828
697.723	0.0163160
697.801	0.0165462
697.879	0.0166114
697.957	0.0166234
698.035	0.0165027
698.113	0.0167250
698.192	0.0168206
698.270	0.0170057
698.348	0.0169455
698.426	0.0170992
698.504	0.0172312
698.582	0.0172701
698.660	0.0173303
698.738	0.0172914
698.817	0.0172652
698.895	0.0173129
698.973	0.0173869
699.051	0.0171663
699.129	0.0170635
699.207	0.0170049
699.285	0.0168655
699.363	0.0169801
699.442	0.0165473
699.520	0.0164330
699.598	0.0164870
699.676	0.0163609
699.754	0.0161740
699.832	0.0160033
699.910	0.0160328
699.988	0.0159248
700.067	0.0157176
700.145	0.0155490
700.223	0.0155460
700.301	0.0152959
700.379	0.0152634
700.457	0.0151235
700.535	0.0150277
700.613	0.0149554
700.692	0.0149735
700.770	0.0150303
700.848	0.0151061
700.926	0.0151283
701.004	0.0154129
701.082	0.0155629
701.160	0.0156655
701.238	0.0157785
701.317	0.0159584
701.395	0.0159512
701.473	0.0161472
701.551	0.0161092
701.629	0.0160982
701.707	0.0161275
701.785	0.0160253
701.863	0.0159277
701.942	0.0158836
702.020	0.0159999
702.098	0.0157780
702.176	0.0157949
702.254	0.0158668
702.332	0.0157278
702.410	0.0156820
702.488	0.0157223
702.567	0.0156357
702.645	0.0156784
702.723	0.0156197
702.801	0.0155818
702.879	0.0156156
702.957	0.0157368
703.035	0.0156728
703.113	0.0156966
703.192	0.0158043
703.270	0.0157722
703.348	0.0158835
703.426	0.0159837
703.504	0.0159845
703.582	0.0161756
703.660	0.0162746
703.738	0.0163170
703.817	0.0162727
703.895	0.0163795
703.973	0.0164970
704.051	0.0166429
704.129	0.0167075
704.207	0.0167553
704.285	0.0167352
704.363	0.0168786
704.442	0.0167577
704.520	0.0169229
704.598	0.0168542
704.676	0.0166251
704.754	0.0167270
704.832	0.0169062
704.910	0.0166526
704.988	0.0166723
705.067	0.0165811
705.145	0.0167894
705.223	0.0167447
705.301	0.0167360
705.379	0.0167908
705.457	0.0167617
705.535	0.0166724
705.613	0.0167324
705.692	0.0166862
705.770	0.0165829
705.848	0.0163454
705.926	0.0162162
706.004	0.0162369
706.082	0.0159237
706.160	0.0157523
706.238	0.0156268
706.317	0.0157361
706.395	0.0155051
706.473	0.0155403
706.551	0.0156307
706.629	0.0156670
706.707	0.0157870
706.785	0.0157627
706.863	0.0158602
706.942	0.0159031
707.020	0.0159603
707.098	0.0160775
707.176	0.0160415
707.254	0.0161631
707.332	0.0161726
707.410	0.0161259
707.488	0.0161494
707.567	0.0162366
707.645	0.0161558
707.723	0.0160280
707.801	0.0160915
707.879	0.0160538
707.957	0.0157896
708.035	0.0157419
708.113	0.0156226
708.192	0.0154971
708.270	0.0155016
708.348	0.0154823
708.426	0.0154900
708.504	0.0155390
708.582	0.0155412
708.660	0.0156302
708.738	0.0158164
708.817	0.0158069
708.895	0.0158662
708.973	0.0160304
709.051	0.0161206
709.129	0.0161250
709.207	0.0162360
709.285	0.0162677
709.363	0.0161765
709.442	0.0161679
709.520	0.0161133
709.598	0.0160531
709.676	0.0158986
709.754	0.0157562
709.832	0.0157455
709.910	0.0157190
709.988	0.0156590
710.067	0.0156501
710.145	0.0155317
710.223	0.0156483
710.301	0.0157264
710.379	0.0158686
710.457	0.0158234
710.535	0.0160004
710.613	0.0160684
710.692	0.0161255
710.770	0.0161707
710.848	0.0164549
710.926	0.0163513
711.004	0.0164365
711.082	0.0166060
711.160	0.0166013
711.238	0.0167753
711.317	0.0167136
711.395	0.0167249
711.473	0.0166301
711.551	0.0168241
711.629	0.0165985
711.707	0.0165356
711.785	0.0165371
711.863	0.0163465
711.942	0.0161734
712.020	0.0161229
712.098	0.0160854
712.176	0.0162113
712.254	0.0161036
712.332	0.0161138
712.410	0.0162216
712.488	0.0162096
712.567	0.0163295
712.645	0.0163445
712.723	0.0164479
712.801	0.0166427
712.879	0.0165047
712.957	0.0164944
713.035	0.0165031
713.113	0.0167674
713.192	0.0167239
713.270	0.0165141
713.348	0.0164122
713.426	0.0161288
713.504	0.0163037
713.582	0.0163194
713.660	0.0161059
713.738	0.0160663
713.817	0.0159329
713.895	0.0158757
713.973	0.0159600
714.051	0.0157914
714.129	0.0159851
714.207	0.0158249
714.285	0.0156815
714.363	0.0156720
714.442	0.0156402
714.520	0.0156274
714.598	0.0155357
714.676	0.0154945
714.754	0.0153999
714.832	0.0156202
714.910	0.0155843
714.988	0.0154794
715.067	0.0156707
715.145	0.0156910
715.223	0.0158227
715.301	0.0158615
715.379	0.0160843
715.457	0.0160948
715.535	0.0162873
715.613	0.0162116
715.692	0.0164679
715.770	0.0163196
715.848	0.0164864
715.926	0.0165354
716.004	0.0164533
716.082	0.0165608
716.160	0.0165802
716.238	0.0165703
716.317	0.0163943
716.395	0.0165466
716.473	0.0163770
716.551	0.0163660
716.629	0.0160989
716.707	0.0161153
716.785	0.0159402
716.863	0.0158109
716.942	0.0156293
717.020	0.0156520
717.098	0.0155970
717.176	0.0154507
717.254	0.0154214
717.332	0.0153917
717.410	0.0151154
717.488	0.0151496
717.567	0.0153154
717.645	0.0153960
717.723	0.0156637
717.801	0.0156499
717.879	0.0157278
717.957	0.0159753
718.035	0.0161341
718.113	0.0161086
718.192	0.0162358
718.270	0.0164484
718.348	0.0162747
718.426	0.0164430
718.504	0.0165094
718.582	0.0164467
718.660	0.0164382
718.738	0.0164811
718.817	0.0163881
718.895	0.0164762
718.973	0.0165005
719.051	0.0164325
719.129	0.0162875
719.207	0.0163554
719.285	0.0163922
719.363	0.0163107
719.442	0.0164479
719.520	0.0164242
719.598	0.0163014
719.676	0.0162600
719.754	0.0163972
719.832	0.0162646
719.910	0.0164031
719.988	0.0165168
720.067	0.0162238
720.145	0.0163555
720.223	0.0164531
720.301	0.0163936
720.379	0.0163329
720.457	0.0162873
720.535	0.0161711
720.613	0.0162192
720.692	0.0163290
720.770	0.0161466
720.848	0.0162208
720.926	0.0161832
721.004	0.0161334
721.082	0.0162307
721.160	0.0162366
721.238	0.0161557
721.317	0.0161770
721.395	0.0161646
721.473	0.0161837
721.551	0.0162006
721.629	0.0161806
721.707	0.0161758
721.785	0.0160659
721.863	0.0160750
721.942	0.0159575
722.020	0.0159647
722.098	0.0159430
722.176	0.0160009
722.254	0.0160004
722.332	0.0160299
722.410	0.0159571
722.488	0.0158979
722.567	0.0160863
722.645	0.0161641
722.723	0.0162572
722.801	0.0161805
722.879	0.0162180
722.957	0.0162904
723.035	0.0164194
723.113	0.0162880
723.192	0.0161273
723.270	0.0161926
723.348	0.0161310
723.426	0.0160315
723.504	0.0158704
723.582	0.0160167
723.660	0.0157722
723.738	0.0156724
723.817	0.0156817
723.895	0.0155811
723.973	0.0153871
724.051	0.0153217
724.129	0.0153288
724.207	0.0153209
724.285	0.0153111
724.363	0.0152327
724.442	0.0152690
724.520	0.0152032
724.598	0.0152849
724.676	0.0153123
724.754	0.0153207
724.832	0.0153598
724.910	0.0154237
724.988	0.0155029
725.067	0.0155935
725.145	0.0157270
725.223	0.0157777
725.301	0.0158610
725.379	0.0159679
725.457	0.0161308
725.535	0.0161273
725.613	0.0162317
725.692	0.0161989
725.770	0.0162541
725.848	0.0164690
725.926	0.0164925
726.004	0.0165102
726.082	0.0165898
726.160	0.0166824
726.238	0.0167558
726.317	0.0170391
726.395	0.0169928
726.473	0.0170794
726.551	0.0170219
726.629	0.0172116
726.707	0.0172751
726.785	0.0172973
726.863	0.0172900
726.942	0.0173003
727.020	0.0173001
727.098	0.0170840
727.176	0.0168940
727.254	0.0169428
727.332	0.0169196
727.410	0.0167751
727.488	0.0166068
727.567	0.0165012
727.645	0.0161482
727.723	0.0161127
727.801	0.0162144
727.879	0.0160912
727.957	0.0159378
728.035	0.0159898
728.113	0.0159622
728.192	0.0158791
728.270	0.0159303
728.348	0.0158652
728.426	0.0160999
728.504	0.0160793
728.582	0.0160282
728.660	0.0160658
728.738	0.0162306
728.817	0.0160914
728.895	0.0159748
728.973	0.0159937
729.051	0.0158007
729.129	0.0158562
729.207	0.0158538
729.285	0.0158447
729.363	0.0157533
729.442	0.0156408
729.520	0.0155608
729.598	0.0155898
729.676	0.0155749
729.754	0.0155242
729.832	0.0153764
729.910	0.0153250
729.988	0.0154738
730.067	0.0156010
730.145	0.0154978
730.223	0.0156992
730.301	0.0155414
730.379	0.0156635
730.457	0.0157579
730.535	0.0158433
730.613	0.0157864
730.692	0.0157700
730.770	0.0157552
730.848	0.0157949
730.926	0.0157370
731.004	0.0156367
731.082	0.0155844
731.160	0.0155727
731.238	0.0157047
731.317	0.0156582
731.395	0.0156612
731.473	0.0156896
731.551	0.0156766
731.629	0.0158158
731.707	0.0159959
731.785	0.0158489
731.863	0.0159280
731.942	0.0159156
732.020	0.0159544
732.098	0.0159743
732.176	0.0160310
732.254	0.0159838
732.332	0.0161742
732.410	0.0161629
732.488	0.0160436
732.567	0.0162140
732.645	0.0160313
732.723	0.0161660
732.801	0.0162737
732.879	0.0163815
732.957	0.0164410
733.035	0.0164725
733.113	0.0167015
733.192	0.0168025
733.270	0.0168955
733.348	0.0169341
733.426	0.0169874
733.504	0.0171907
733.582	0.0171664
733.660	0.0170438
733.738	0.0170516
733.817	0.0170889
733.895	0.0171228
733.973	0.0171024
734.051	0.0169367
734.129	0.0169033
734.207	0.0167529
734.285	0.0166441
734.363	0.0165949
734.442	0.0165334
734.520	0.0165375
734.598	0.0164688
734.676	0.0163307
734.754	0.0161465
734.832	0.0160270
734.910	0.0161057
734.988	0.0160272
735.067	0.0159578
735.145	0.0159853
735.223	0.0160044
735.301	0.0158533
735.379	0.0158924
735.457	0.0159239
735.535	0.0158361
735.613	0.0160242
735.692	0.0158934
735.770	0.0159203
735.848	0.0159966
735.926	0.0159448
736.004	0.0159375
736.082	0.0160663
736.160	0.0160104
736.238	0.0160782
736.317	0.0159016
736.395	0.0158845
736.473	0.0158878
736.551	0.0157841
736.629	0.0157742
736.707	0.0156557
736.785	0.0156062
736.863	0.0156676
736.942	0.0154499
737.020	0.0155083
737.098	0.0156672
737.176	0.0155721
737.254	0.0155370
737.332	0.0155463
737.410	0.0153784
737.488	0.0156503
737.567	0.0157070
737.645	0.0158209
737.723	0.0157578
737.801	0.0157702
737.879	0.0157599
737.957	0.0158476
738.035	0.0157414
738.113	0.0158237
738.192	0.0159972
738.270	0.0158553
738.348	0.0158729
738.426	0.0158661
738.504	0.0158391
738.582	0.0158781
738.660	0.0158247
738.738	0.0157600
738.817	0.0159103
738.895	0.0157473
738.973	0.0158686
739.051	0.0158150
739.129	0.0158056
739.207	0.0160247
739.285	0.0159972
739.363	0.0159837
739.442	0.0159393
739.520	0.0161313
739.598	0.0160371
739.676	0.0162573
739.754	0.0163754
739.832	0.0162844
739.910	0.0163327
739.988	0.0162740
740.067	0.0163905
740.145	0.0164310
740.223	0.0165222
740.301	0.0166000
740.379	0.0167024
740.457	0.0168455
740.535	0.0167715
740.613	0.0167918
740.692	0.0167940
740.770	0.0169434
740.848	0.0169357
740.926	0.0169026
741.004	0.0169794
741.082	0.0167896
741.160	0.0168960
741.238	0.0167532
741.317	0.0166573
741.395	0.0165161
741.473	0.0164919
741.551	0.0164359
741.629	0.0164407
741.707	0.0163770
741.785	0.0162231
741.863	0.0161546
741.942	0.0161149
742.020	0.0160535
742.098	0.0161788
742.176	0.0161805
742.254	0.0160428
742.332	0.0160749
742.410	0.0159527
742.488	0.0159461
742.567	0.0159098
742.645	0.0159586
742.723	0.0158880
742.801	0.0158649
742.879	0.0159396
742.957	0.0158930
743.035	0.0161104
743.113	0.0160050
743.192	0.0158280
743.270	0.0158337
743.348	0.0159886
743.426	0.0158492
743.504	0.0157730
743.582	0.0157359
743.660	0.0157693
743.738	0.0156823
743.817	0.0156025
743.895	0.0155971
743.973	0.0156618
744.051	0.0156170
744.129	0.0155772
744.207	0.0155914
744.285	0.0155746
744.363	0.0154826
744.442	0.0155725
744.520	0.0156802
744.598	0.0157921
744.676	0.0156973
744.754	0.0157571
744.832	0.0156951
744.910	0.0156382
744.988	0.0158138
745.067	0.0160983
745.145	0.0160120
745.223	0.0161532
745.301	0.0161425
745.379	0.0163128
745.457	0.0162498
745.535	0.0163705
745.613	0.0161475
745.692	0.0161954
745.770	0.0162447
745.848	0.0160927
745.926	0.0161393
746.004	0.0162378
746.082	0.0161044
746.160	0.0160732
746.238	0.0160032
746.317	0.0161216
746.395	0.0159600
746.473	0.0159645
746.551	0.0160145
746.629	0.0161032
746.707	0.0160133
746.785	0.0158920
746.863	0.0160365
746.942	0.0158810
747.020	0.0158844
747.098	0.0160066
747.176	0.0160964
747.254	0.0160941
747.332	0.0161504
747.410	0.0161170
747.488	0.0163030
747.567	0.0163596
747.645	0.0164120
747.723	0.0164727
747.801	0.0166500
747.879	0.0165862
747.957	0.0166438
748.035	0.0166897
748.113	0.0167065
748.192	0.0166084
748.270	0.0168241
748.348	0.0167407
748.426	0.0167371
748.504	0.0166991
748.582	0.0165600
748.660	0.0164304
748.738	0.0163584
748.817	0.0163518
748.895	0.0163004
748.973	0.0161817
749.051	0.0162432
749.129	0.0160564
749.207	0.0160770
749.285	0.0159525
749.363	0.0159214
749.442	0.0159825
749.520	0.0158208
749.598	0.0158832
749.676	0.0158887
749.754	0.0158293
749.832	0.0158286
749.910	0.0159046
749.988	0.0160262
750.067	0.0158138
750.145	0.0158823
750.223	0.0161723
750.301	0.0160440
750.379	0.0161086
750.457	0.0161724
750.535	0.0162269
750.613	0.0161900
750.692	0.0162695
750.770	0.0163431
750.848	0.0162547
750.926	0.0161431
751.004	0.0163142
751.082	0.0161316
751.160	0.0160461
751.238	0.0159328
751.317	0.0158413
751.395	0.0159549
751.473	0.0158504
751.551	0.0158413
751.629	0.0155386
751.707	0.0156903
751.785	0.0156597
751.863	0.0156039
751.942	0.0155419
752.020	0.0156984
752.098	0.0156776
752.176	0.0157165
752.254	0.0157418
752.332	0.0157001
752.410	0.0158570
752.488	0.0158938
752.567	0.0157378
752.645	0.0160141
752.723	0.0160249
752.801	0.0159335
752.879	0.0159578
752.957	0.0159698
753.035	0.0160223
753.113	0.0158604
753.192	0.0159402
753.270	0.0160136
753.348	0.0159349
753.426	0.0159247
753.504	0.0159245
753.582	0.0158028
753.660	0.0158946
753.738	0.0157906
753.817	0.0157156
753.895	0.0158141
753.973	0.0159369
754.051	0.0159630
754.129	0.0157556
754.207	0.0158295
754.285	0.0159105
754.363	0.0156866
754.442	0.0158617
754.520	0.0159406
754.598	0.0160035
754.676	0.0160466
754.754	0.0160700
754.832	0.0162360
754.910	0.0162531
754.988	0.0164177
755.067	0.0163574
755.145	0.0164796
755.223	0.0163776
755.301	0.0164668
755.379	0.0165675
755.457	0.0164664
755.535	0.0165645
755.613	0.0166374
755.692	0.0165756
755.770	0.0164431
755.848	0.0165428
755.926	0.0164376
756.004	0.0165277
756.082	0.0163480
756.160	0.0163541
756.238	0.0163375
756.317	0.0162701
756.395	0.0161118
756.473	0.0161469
756.551	0.0161374
756.629	0.0160381
756.707	0.0160751
756.785	0.0160888
756.863	0.0160482
756.942	0.0159470
757.020	0.0160889
757.098	0.0158719
757.176	0.0160787
757.254	0.0160360
757.332	0.0160107
757.410	0.0161406
757.488	0.0162199
757.567	0.0162167
757.645	0.0162267
757.723	0.0161164
757.801	0.0161479
757.879	0.0162168
757.957	0.0162045
758.035	0.0162550
758.113	0.0162403
758.192	0.0162005
758.270	0.0161594
758.348	0.0159688
758.426	0.0159978
758.504	0.0160113
758.582	0.0159803
758.660	0.0158420
758.738	0.0158658
758.817	0.0157967
758.895	0.0158352
758.973	0.0157181
759.051	0.0157980
759.129	0.0158060
759.207	0.0157297
759.285	0.0157552
759.363	0.0157516
759.442	0.0158321
759.520	0.0159211
759.598	0.0159591
759.676	0.0159438
759.754	0.0159779
759.832	0.0159515
759.910	0.0159551
759.988	0.0159684
760.067	0.0159338
760.145	0.0159702
760.223	0.0159315
760.301	0.0156597
760.379	0.0157770
760.457	0.0156707
760.535	0.0155081
760.613	0.0155278
760.692	0.0155727
760.770	0.0154356
760.848	0.0153090
760.926	0.0151470
761.004	0.0151868
761.082	0.0153089
761.160	0.0152188
761.238	0.0153842
761.317	0.0153260
761.395	0.0154265
761.473	0.0155019
761.551	0.0155222
761.629	0.0156972
761.707	0.0157864
761.785	0.0158140
761.863	0.0159203
761.942	0.0160766
762.020	0.0162647
762.098	0.0162943
762.176	0.0165279
762.254	0.0165320
762.332	0.0166637
762.410	0.0167139
762.488	0.0168958
762.567	0.0169086
762.645	0.0168990
762.723	0.0171248
762.801	0.0170307
762.879	0.0168810
762.957	0.0169299
763.035	0.0167333
763.113	0.0167974
763.192	0.0168000
763.270	0.0167239
763.348	0.0167119
763.426	0.0166665
763.504	0.0164803
763.582	0.0164183
763.660	0.0163573
763.738	0.0162407
763.817	0.0162993
763.895	0.0161827
763.973	0.0160436
764.051	0.0161663
764.129	0.0159582
764.207	0.0158852
764.285	0.0158392
764.363	0.0158416
764.442	0.0158786
764.520	0.0157780
764.598	0.0157546
764.676	0.0158582
764.754	0.0159441
764.832	0.0158774
764.910	0.0159869
764.988	0.0159060
765.067	0.0159982
765.145	0.0161351
765.223	0.0161090
765.301	0.0163565
765.379	0.0162118
765.457	0.0162041
765.535	0.0161737
765.613	0.0162690
765.692	0.0162516
765.770	0.0161479
765.848	0.0161747
765.926	0.0161868
766.004	0.0160368
766.082	0.0159589
766.160	0.0159786
766.238	0.0157851
766.317	0.0158336
766.395	0.0157101
766.473	0.0158491
766.551	0.0157388
766.629	0.0157052
766.707	0.0155886
766.785	0.0157253
766.863	0.0158205
766.942	0.0158612
767.020	0.0158601
767.098	0.0158520
767.176	0.0159572
767.254	0.0158064
767.332	0.0158432
767.410	0.0158157
767.488	0.0159148
767.567	0.0157275
767.645	0.0157164
767.723	0.0156912
767.801	0.0157864
767.879	0.0157047
767.957	0.0157417
768.035	0.0157320
768.113	0.0157377
768.192	0.0157266
768.270	0.0157906
768.348	0.0157378
768.426	0.0156819
768.504	0.0156130
768.582	0.0157766
768.660	0.0157047
768.738	0.0157993
768.817	0.0159495
768.895	0.0158600
768.973	0.0157417
769.051	0.0158296
769.129	0.0158733
769.207	0.0159724
769.285	0.0161848
769.363	0.0159521
769.442	0.0160854
769.520	0.0163058
769.598	0.0162321
769.676	0.0162504
769.754	0.0163071
769.832	0.0164366
769.910	0.0166221
769.988	0.0167007
770.067	0.0165665
770.145	0.0167130
770.223	0.0168182
770.301	0.0167052
770.379	0.0167270
770.457	0.0166758
770.535	0.0168102
770.613	0.0167504
770.692	0.0165665
770.770	0.0165543
770.848	0.0165086
770.926	0.0164943
771.004	0.0164803
771.082	0.0163647
771.160	0.0162720
771.238	0.0163688
771.317	0.0162528
771.395	0.0162878
771.473	0.0162612
771.551	0.0161214
771.629	0.0162595
771.707	0.0162905
771.785	0.0161913
771.863	0.0161259
771.942	0.0160515
772.020	0.0161639
772.098	0.0162149
772.176	0.0161269
772.254	0.0160811
772.332	0.0163372
772.410	0.0162926
772.488	0.0162184
772.567	0.0161859
772.645	0.0161750
772.723	0.0162505
772.801	0.0163255
772.879	0.0159468
772.957	0.0160452
773.035	0.0159393
773.113	0.0158447
773.192	0.0158675
773.270	0.0158591
773.348	0.0156118
773.426	0.0156126
773.504	0.0155836
773.582	0.0156189
773.660	0.0154694
773.738	0.0156200
773.817	0.0154837
773.895	0.0154126
773.973	0.0155820
774.051	0.0154510
774.129	0.0155053
774.207	0.0154821
774.285	0.0155846
774.363	0.0157099
774.442	0.0157713
774.520	0.0157326
774.598	0.0158752
774.676	0.0158958
774.754	0.0157645
774.832	0.0158268
774.910	0.0159157
774.988	0.0157578
775.067	0.0158400
775.145	0.0158397
775.223	0.0158974
775.301	0.0158506
775.379	0.0159657
775.457	0.0159561
775.535	0.0159870
775.613	0.0159720
775.692	0.0159295
775.770	0.0160690
775.848	0.0158871
775.926	0.0160181
776.004	0.0161108
776.082	0.0160514
776.160	0.0161806
776.238	0.0161147
776.317	0.0161989
776.395	0.0160932
776.473	0.0161872
776.551	0.0161350
776.629	0.0161511
776.707	0.0160023
776.785	0.0162041
776.863	0.0160930
776.942	0.0160403
777.020	0.0161151
777.098	0.0161860
777.176	0.0162015
777.254	0.0164429
777.332	0.0163367
777.410	0.0161811
777.488	0.0163103
777.567	0.0163976
777.645	0.0165126
777.723	0.0165576
777.801	0.0165571
777.879	0.0165790
777.957	0.0164637
778.035	0.0165001
778.113	0.0165305
778.192	0.0166254
778.270	0.0165445
778.348	0.0164845
778.426	0.0164236
778.504	0.0164259
778.582	0.0164854
778.660	0.0163422
778.738	0.0161846
778.817	0.0163116
778.895	0.0163921
778.973	0.0163180
779.051	0.0161890
779.129	0.0162350
779.207	0.0161785
779.285	0.0162090
779.363	0.0161880
779.442	0.0160435
779.520	0.0161519
779.598	0.0161894
779.676	0.0160217
779.754	0.0161539
779.832	0.0162281
779.910	0.0160416
779.988	0.0160231
780.067	0.0161248
780.145	0.0159584
780.223	0.0158833
780.301	0.0158887
780.379	0.0157809
780.457	0.0155733
780.535	0.0155795
780.613	0.0155782
780.692	0.0154556
780.770	0.0153473
780.848	0.0153426
780.926	0.0151829
781.004	0.0152707
781.082	0.0152113
781.160	0.0152909
781.238	0.0151789
781.317	0.0154112
781.395	0.0155226
781.473	0.0155891
781.551	0.0156826
781.629	0.0156284
781.707	0.0156416
781.785	0.0157715
781.863	0.0158546
781.942	0.0159401
782.020	0.0160002
782.098	0.0160606
782.176	0.0159476
782.254	0.0159570
782.332	0.0160638
782.410	0.0161633
782.488	0.0159065
782.567	0.0160294
782.645	0.0159013
782.723	0.0159365
782.801	0.0159963
782.879	0.0160326
782.957	0.0159653
783.035	0.0160230
783.113	0.0159995
783.192	0.0160092
783.270	0.0160836
783.348	0.0160294
783.426	0.0162068
783.504	0.0161289
783.582	0.0162793
783.660	0.0162547
783.738	0.0162067
783.817	0.0163479
783.895	0.0163242
783.973	0.0163534
784.051	0.0163370
784.129	0.0164863
784.207	0.0164442
784.285	0.0162749
784.363	0.0164996
784.442	0.0164980
784.520	0.0164853
784.598	0.0164334
784.676	0.0165031
784.754	0.0165159
784.832	0.0166097
784.910	0.0165224
784.988	0.0164205
785.067	0.0164863
785.145	0.0164056
785.223	0.0162859
785.301	0.0163026
785.379	0.0161449
785.457	0.0161547
785.535	0.0162309
785.613	0.0160050
785.692	0.0160881
785.770	0.0159926
785.848	0.0158448
785.926	0.0159149
786.004	0.0159817
786.082	0.0159936
786.160	0.0158299
786.238	0.0157687
786.317	0.0159647
786.395	0.0159143
786.473	0.0158157
786.551	0.0157927
786.629	0.0159593
786.707	0.0158118
786.785	0.0158114
786.863	0.0161320
786.942	0.0161984
787.020	0.0160703
787.098	0.0160961
787.176	0.0159927
787.254	0.0161124
787.332	0.0162025
787.410	0.0161753
787.488	0.0161207
787.567	0.0160414
787.645	0.0162315
787.723	0.0160548
787.801	0.0159867
787.879	0.0161893
787.957	0.0161909
788.035	0.0159740
788.113	0.0159370
788.192	0.0157867
788.270	0.0158349
788.348	0.0157995
788.426	0.0159361
788.504	0.0158903
788.582	0.0158806
788.660	0.0159328
788.738	0.0159496
788.817	0.0159847
788.895	0.0161082
788.973	0.0161388
789.051	0.0161950
789.129	0.0162388
789.207	0.0161895
789.285	0.0161230
789.363	0.0162576
789.442	0.0162400
789.520	0.0162276
789.598	0.0162283
789.676	0.0162040
789.754	0.0161509
789.832	0.0160059
789.910	0.0159375
789.988	0.0159348
790.067	0.0158902
790.145	0.0158773
790.223	0.0157342
790.301	0.0158743
790.379	0.0159029
790.457	0.0159603
790.535	0.0158488
790.613	0.0159728
790.692	0.0158969
790.770	0.0158761
790.848	0.0160073
790.926	0.0159066
791.004	0.0160369
791.082	0.0159747
791.160	0.0160504
791.238	0.0162074
791.317	0.0161110
791.395	0.0159679
791.473	0.0162035
791.551	0.0160602
791.629	0.0161150
791.707	0.0163041
791.785	0.0160786
791.863	0.0162878
791.942	0.0163108
792.020	0.0164718
792.098	0.0163261
792.176	0.0163455
792.254	0.0163001
792.332	0.0163435
792.410	0.0163537
792.488	0.0163443
792.567	0.0162836
792.645	0.0161754
792.723	0.0162410
792.801	0.0161267
792.879	0.0161274
792.957	0.0160700
793.035	0.0160231
793.113	0.0161234
793.192	0.0160444
793.270	0.0161153
793.348	0.0161438
793.426	0.0159414
793.504	0.0159039
793.582	0.0160686
793.660	0.0159768
793.738	0.0159927
793.817	0.0160806
793.895	0.0161064
793.973	0.0161203
794.051	0.0160544
794.129	0.0161711
794.207	0.0160772
794.285	0.0160347
794.363	0.0161378
794.442	0.0161800
794.520	0.0162450
794.598	0.0161853
794.676	0.0161969
794.754	0.0162719
794.832	0.0161601
794.910	0.0163023
794.988	0.0162585
795.067	0.0162373
795.145	0.0162178
795.223	0.0162158
795.301	0.0162173
795.379	0.0161359
795.457	0.0162205
795.535	0.0161800
795.613	0.0160788
795.692	0.0160659
795.770	0.0160065
795.848	0.0160760
795.926	0.0162275
796.004	0.0159074
796.082	0.0160799
796.160	0.0160573
796.238	0.0159381
796.317	0.0159064
796.395	0.0159205
796.473	0.0159235
796.551	0.0158727
796.629	0.0158726
796.707	0.0158271
796.785	0.0158186
796.863	0.0157459
796.942	0.0157247
797.020	0.0156324
797.098	0.0157829
797.176	0.0156057
797.254	0.0156911
797.332	0.0156741
797.410	0.0157411
797.488	0.0158495
797.567	0.0157992
797.645	0.0158419
797.723	0.0158241
797.801	0.0157638
797.879	0.0159599
797.957	0.0158453
798.035	0.0159389
798.113	0.0158480
798.192	0.0160064
798.270	0.0160197
798.348	0.0160702
798.426	0.0160681
798.504	0.0161171
798.582	0.0159445
798.660	0.0160598
798.738	0.0160332
798.817	0.0160304
798.895	0.0161681
798.973	0.0160204
799.051	0.0160013
799.129	0.0160973
799.207	0.0161814
799.285	0.0161902
799.363	0.0162875
799.442	0.0161627
799.520	0.0161760
799.598	0.0163545
799.676	0.0162564
799.754	0.0162318
799.832	0.0163220
799.910	0.0163454
799.988	0.0162773
800.067	0.0164867
800.145	0.0163216
800.223	0.0162611
800.301	0.0162731
800.379	0.0164170
800.457	0.0163081
800.535	0.0163092
800.613	0.0163979
800.692	0.0161437
800.770	0.0162112
800.848	0.0161230
800.926	0.0162363
801.004	0.0161430
801.082	0.0161392
801.160	0.0162021
801.238	0.0159696
801.317	0.0162077
801.395	0.0161749
801.473	0.0161427
801.551	0.0160825
801.629	0.0162369
801.707	0.0160730
801.785	0.0161378
801.863	0.0161101
801.942	0.0160857
802.020	0.0161785
802.098	0.0161749
802.176	0.0161029
802.254	0.0160249
802.332	0.0159613
802.410	0.0160524
802.488	0.0160629
802.567	0.0161282
802.645	0.0160506
802.723	0.0159609
802.801	0.0158782
802.879	0.0159453
802.957	0.0160809
803.035	0.0158804
803.113	0.0158772
803.192	0.0159965
803.270	0.0160375
803.348	0.0159737
803.426	0.0159576
803.504	0.0157957
803.582	0.0160388
803.660	0.0160279
803.738	0.0158889
803.817	0.0159562
803.895	0.0159539
803.973	0.0160416
804.051	0.0160473
804.129	0.0161418
804.207	0.0161023
804.285	0.0159922
804.363	0.0159599
804.442	0.0159554
804.520	0.0159052
804.598	0.0158692
804.676	0.0158981
804.754	0.0159090
804.832	0.0158765
804.910	0.0158968
804.988	0.0157983
805.067	0.0158021
805.145	0.0159390
805.223	0.0158241
805.301	0.0159425
805.379	0.0160576
805.457	0.0160048
805.535	0.0161240
805.613	0.0160526
805.692	0.0160010
805.770	0.0160661
805.848	0.0160701
805.926	0.0160793
806.004	0.0161162
806.082	0.0160649
806.160	0.0160593
806.238	0.0161633
806.317	0.0159669
806.395	0.0159770
806.473	0.0159106
806.551	0.0161807
806.629	0.0161070
806.707	0.0161511
806.785	0.0161803
806.863	0.0161452
806.942	0.0160821
807.020	0.0162000
807.098	0.0162257
807.176	0.0163503
807.254	0.0163105
807.332	0.0163812
807.410	0.0163636
807.488	0.0162018
807.567	0.0163023
807.645	0.0162088
807.723	0.0162631
807.801	0.0161928
807.879	0.0161393
807.957	0.0161446
808.035	0.0160783
808.113	0.0162402
808.192	0.0160580
808.270	0.0162070
808.348	0.0161340
808.426	0.0161019
808.504	0.0162518
808.582	0.0161483
808.660	0.0163281
808.738	0.0162391
808.817	0.0162884
808.895	0.0164178
808.973	0.0163503
809.051	0.0163377
809.129	0.0162661
809.207	0.0163015
809.285	0.0164751
809.363	0.0163861
809.442	0.0163203
809.520	0.0164460
809.598	0.0161887
809.676	0.0163503
809.754	0.0163728
809.832	0.0162257
809.910	0.0162084
809.988	0.0162143
810.067	0.0161641
810.145	0.0160763
810.223	0.0160735
810.301	0.0161995
810.379	0.0160475
810.457	0.0158957
810.535	0.0159413
810.613	0.0158639
810.692	0.0160976
810.770	0.0159367
810.848	0.0158067
810.926	0.0158786
811.004	0.0158073
811.082	0.0158474
811.160	0.0158102
811.238	0.0157021
811.317	0.0157098
811.395	0.0156379
811.473	0.0157491
811.551	0.0157690
811.629	0.0158455
811.707	0.0158025
811.785	0.0157825
811.863	0.0158646
811.942	0.0159671
812.020	0.0158184
812.098	0.0158542
812.176	0.0159505
812.254	0.0161529
812.332	0.0159060
812.410	0.0159289
812.488	0.0160361
812.567	0.0160684
812.645	0.0159145
812.723	0.0159294
812.801	0.0158770
812.879	0.0160169
812.957	0.0159723
813.035	0.0159514
813.113	0.0159563
813.192	0.0160546
813.270	0.0160944
813.348	0.0160131
813.426	0.0159150
813.504	0.0159762
813.582	0.0160217
813.660	0.0159187
813.738	0.0159830
813.817	0.0160130
813.895	0.0162278
813.973	0.0161003
814.051	0.0160805
814.129	0.0162321
814.207	0.0162997
814.285	0.0161525
814.363	0.0162075
814.442	0.0162305
814.520	0.0162578
814.598	0.0163876
814.676	0.0163300
814.754	0.0162682
814.832	0.0163617
814.910	0.0163865
814.988	0.0161976
815.067	0.0163034
815.145	0.0163611
815.223	0.0161553
815.301	0.0162569
815.379	0.0162364
815.457	0.0161433
815.535	0.0162545
815.613	0.0160895
815.692	0.0160692
815.770	0.0160806
815.848	0.0161346
815.926	0.0161115
816.004	0.0161201
816.082	0.0160192
816.160	0.0160623
816.238	0.0161605
816.317	0.0160876
816.395	0.0161270
816.473	0.0161588
816.551	0.0161368
816.629	0.0161983
816.707	0.0161974
816.785	0.0161816
816.863	0.0162519
816.942	0.0162434
817.020	0.0162551
817.098	0.0162443
817.176	0.0164314
817.254	0.0163966
817.332	0.0162122
817.410	0.0162506
817.488	0.0161978
817.567	0.0161470
817.645	0.0160413
817.723	0.0160294
817.801	0.0159673
817.879	0.0159513
817.957	0.0159715
818.035	0.0158920
818.113	0.0159111
818.192	0.0157516
818.270	0.0156724
818.348	0.0156295
818.426	0.0157550
818.504	0.0157386
818.582	0.0156616
818.660	0.0156170
818.738	0.0158220
818.817	0.0156786
818.895	0.0157926
818.973	0.0156832
819.051	0.0158385
819.129	0.0158765
819.207	0.0158834
819.285	0.0157851
819.363	0.0159285
819.442	0.0160603
819.520	0.0159826
819.598	0.0159705
819.676	0.0159938
819.754	0.0159748
819.832	0.0159589
819.910	0.0159758
819.988	0.0159470
820.067	0.0158031
820.145	0.0159814
820.223	0.0161010
820.301	0.0159381
820.379	0.0161251
820.457	0.0159920
820.535	0.0160919
820.613	0.0161913
820.692	0.0160618
820.770	0.0161568
820.848	0.0162370
820.926	0.0161761
821.004	0.0161098
821.082	0.0161241
821.160	0.0162048
821.238	0.0162698
821.317	0.0161377
821.395	0.0161545
821.473	0.0161911
821.551	0.0162064
821.629	0.0161189
821.707	0.0162279
821.785	0.0161565
821.863	0.0162083
821.942	0.0162009
822.020	0.0162508
822.098	0.0160416
822.176	0.0162047
822.254	0.0162849
822.332	0.0161494
822.410	0.0162772
822.488	0.0162374
822.567	0.0161555
822.645	0.0162868
822.723	0.0161876
822.801	0.0162373
822.879	0.0160410
822.957	0.0160882
823.035	0.0160123
823.113	0.0162065
823.192	0.0160452
823.270	0.0159828
823.348	0.0159874
823.426	0.0162083
823.504	0.0161533
823.582	0.0160267
823.660	0.0160143
823.738	0.0160670
823.817	0.0160751
823.895	0.0160264
823.973	0.0161305
824.051	0.0162116
824.129	0.0160677
824.207	0.0161320
824.285	0.0162236
824.363	0.0160534
824.442	0.0162426
824.520	0.0161598
824.598	0.0159937
824.676	0.0160769
824.754	0.0161890
824.832	0.0161559
824.910	0.0161084
824.988	0.0162354
825.067	0.0160782
825.145	0.0160938
825.223	0.0160886
825.301	0.0160738
825.379	0.0160339
825.457	0.0161456
825.535	0.0160069
825.613	0.0159396
825.692	0.0158663
825.770	0.0159837
825.848	0.0157919
825.926	0.0157483
826.004	0.0157969
826.082	0.0159008
826.160	0.0158427
826.238	0.0157462
826.317	0.0158950
826.395	0.0160143
826.473	0.0158548
826.551	0.0158185
826.629	0.0158360
826.707	0.0159373
826.785	0.0160444
826.863	0.0159305
826.942	0.0160022
827.020	0.0158791
827.098	0.0158617
827.176	0.0159785
827.254	0.0159003
827.332	0.0158191
827.410	0.0159935
827.488	0.0158012
827.567	0.0157140
827.645	0.0158897
827.723	0.0158406
827.801	0.0157855
827.879	0.0158877
827.957	0.0158850
828.035	0.0159056
828.113	0.0158973
828.192	0.0157915
828.270	0.0159081
828.348	0.0159908
828.426	0.0161462
828.504	0.0161501
828.582	0.0160321
828.660	0.0160660
828.738	0.0162137
828.817	0.0161707
828.895	0.0163084
828.973	0.0164178
829.051	0.0163086
829.129	0.0163042
829.207	0.0165378
829.285	0.0164632
829.363	0.0164541
829.442	0.0165083
829.520	0.0164794
829.598	0.0163749
829.676	0.0164413
829.754	0.0165199
829.832	0.0163786
829.910	0.0164711
829.988	0.0165289
830.067	0.0164233
830.145	0.0163428
830.223	0.0163248
830.301	0.0162612
830.379	0.0163942
830.457	0.0163256
830.535	0.0162477
830.613	0.0162672
830.692	0.0162148
830.770	0.0161523
830.848	0.0161986
830.926	0.0162802
831.004	0.0161759
831.082	0.0161932
831.160	0.0160970
831.238	0.0160538
831.317	0.0160466
831.395	0.0160149
831.473	0.0160303
831.551	0.0161877
831.629	0.0159768
831.707	0.0161003
831.785	0.0160579
831.863	0.0160719
831.942	0.0160496
832.020	0.0160978
832.098	0.0159847
832.176	0.0161163
832.254	0.0161903
832.332	0.0159017
832.410	0.0160129
832.488	0.0159019
832.567	0.0159389
832.645	0.0159566
832.723	0.0158981
832.801	0.0158112
832.879	0.0158001
832.957	0.0158080
833.035	0.0159203
833.113	0.0159270
833.192	0.0158672
833.270	0.0158183
833.348	0.0159172
833.426	0.0158541
833.504	0.0158659
833.582	0.0159198
833.660	0.0160962
833.738	0.0159808
833.817	0.0160313
833.895	0.0161830
833.973	0.0159705
834.051	0.0159708
834.129	0.0161082
834.207	0.0160454
834.285	0.0160471
834.363	0.0160947
834.442	0.0160674
834.520	0.0160304
834.598	0.0161407
834.676	0.0160397
834.754	0.0159512
834.832	0.0159113
834.910	0.0160241
834.988	0.0160383
835.067	0.0161193
835.145	0.0160688
835.223	0.0158926
835.301	0.0158700
835.379	0.0159779
835.457	0.0159911
835.535	0.0160811
835.613	0.0160340
835.692	0.0160044
835.770	0.0161246
835.848	0.0160137
835.926	0.0159852
836.004	0.0159298
836.082	0.0160901
836.160	0.0161764
836.238	0.0159542
836.317	0.0160799
836.395	0.0161673
836.473	0.0162844
836.551	0.0162418
836.629	0.0163275
836.707	0.0164536
836.785	0.0164807
836.863	0.0164532
836.942	0.0164259
837.020	0.0164056
837.098	0.0164864
837.176	0.0166117
837.254	0.0164321
837.332	0.0164603
837.410	0.0164536
837.488	0.0163132
837.567	0.0163181
837.645	0.0164902
837.723	0.0162595
837.801	0.0163142
837.879	0.0161515
837.957	0.0162351
838.035	0.0160179
838.113	0.0161580
838.192	0.0160863
838.270	0.0160250
838.348	0.0159819
838.426	0.0160634
838.504	0.0159953
838.582	0.0160262
838.660	0.0160695
838.738	0.0159599
838.817	0.0158331
838.895	0.0157805
838.973	0.0160516
839.051	0.0159142
839.129	0.0160143
839.207	0.0159650
839.285	0.0160077
839.363	0.0158887
839.442	0.0160428
839.520	0.0160480
839.598	0.0158952
839.676	0.0159723
839.754	0.0160429
839.832	0.0159326
839.910	0.0160829
839.988	0.0159948
840.067	0.0157809
840.145	0.0160568
840.223	0.0157911
840.301	0.0159382
840.379	0.0160242
840.457	0.0158788
840.535	0.0159034
840.613	0.0158672
840.692	0.0157551
840.770	0.0158690
840.848	0.0157767
840.926	0.0158327
841.004	0.0157804
841.082	0.0157259
841.160	0.0158424
841.238	0.0159294
841.317	0.0159863
841.395	0.0159240
841.473	0.0160452
841.551	0.0159372
841.629	0.0159676
841.707	0.0161240
841.785	0.0161542
841.863	0.0161434
841.942	0.0160889
842.020	0.0161304
842.098	0.0161001
842.176	0.0161272
842.254	0.0161694
842.332	0.0162865
842.410	0.0161444
842.488	0.0161543
842.567	0.0162859
842.645	0.0161298
842.723	0.0161076
842.801	0.0160789
842.879	0.0161503
842.957	0.0160868
843.035	0.0161107
843.113	0.0160697
843.192	0.0160520
843.270	0.0161192
843.348	0.0161317
843.426	0.0160239
843.504	0.0160264
843.582	0.0160521
843.660	0.0161985
843.738	0.0161819
843.817	0.0161773
843.895	0.0161202
843.973	0.0160994
844.051	0.0161750
844.129	0.0162095
844.207	0.0162405
844.285	0.0162827
844.363	0.0161228
844.442	0.0163831
844.520	0.0162691
844.598	0.0162867
844.676	0.0163005
844.754	0.0162216
844.832	0.0161131
844.910	0.0160415
844.988	0.0161115
845.067	0.0162356
845.145	0.0159996
845.223	0.0160532
845.301	0.0159055
845.379	0.0159290
845.457	0.0159602
845.535	0.0159783
845.613	0.0158260
845.692	0.0159438
845.770	0.0160281
845.848	0.0159473
845.926	0.0159958
846.004	0.0159997
846.082	0.0159065
846.160	0.0160076
846.238	0.0160354
846.317	0.0159536
846.395	0.0159996
846.473	0.0161099
846.551	0.0159936
846.629	0.0160146
846.707	0.0160205
846.785	0.0159891
846.863	0.0160019
846.942	0.0160841
847.020	0.0158958
847.098	0.0160768
847.176	0.0161394
847.254	0.0160968
847.332	0.0158772
847.410	0.0159735
847.488	0.0159840
847.567	0.0159234
847.645	0.0159329
847.723	0.0158730
847.801	0.0157841
847.879	0.0159216
847.957	0.0157144
848.035	0.0158490
848.113	0.0157452
848.192	0.0158995
848.270	0.0157767
848.348	0.0158450
848.426	0.0160376
848.504	0.0159043
848.582	0.0159061
848.660	0.0158746
848.738	0.0161373
848.817	0.0161408
848.895	0.0159451
848.973	0.0161390
849.051	0.0161179
849.129	0.0161844
849.207	0.0161491
849.285	0.0161749
849.363	0.0163460
849.442	0.0162614
849.520	0.0162245
849.598	0.0162132
849.676	0.0161488
849.754	0.0160653
849.832	0.0161456
849.910	0.0161658
849.988	0.0160553
850.067	0.0160656
850.145	0.0161033
850.223	0.0161613
850.301	0.0161295
850.379	0.0161519
850.457	0.0161246
850.535	0.0159815
850.613	0.0159852
850.692	0.0160405
850.770	0.0161049
850.848	0.0161259
850.926	0.0161879
851.004	0.0159808
851.082	0.0159612
851.160	0.0161350
851.238	0.0161468
851.317	0.0161451
851.395	0.0162344
851.473	0.0162020
851.551	0.0161554
851.629	0.0162536
851.707	0.0161445
851.785	0.0161731
851.863	0.0162266
851.942	0.0161904
852.020	0.0161912
852.098	0.0159658
852.176	0.0163071
852.254	0.0162159
852.332	0.0164069
852.410	0.0161918
852.488	0.0163060
852.567	0.0162970
852.645	0.0162574
852.723	0.0162544
852.801	0.0162145
852.879	0.0161603
852.957	0.0162286
853.035	0.0161844
853.113	0.0162650
853.192	0.0160616
853.270	0.0160352
853.348	0.0161082
853.426	0.0159331
853.504	0.0159360
853.582	0.0160828
853.660	0.0160013
853.738	0.0157990
853.817	0.0158978
853.895	0.0161530
853.973	0.0160383
854.051	0.0159956
854.129	0.0160655
854.207	0.0161835
854.285	0.0161979
854.363	0.0162881
854.442	0.0161357
854.520	0.0162183
854.598	0.0163510
854.676	0.0163762
854.754	0.0161652
854.832	0.0162824
854.910	0.0161620
854.988	0.0160933
855.067	0.0161858
855.145	0.0160941
855.223	0.0160343
855.301	0.0159257
855.379	0.0159094
855.457	0.0157439
855.535	0.0157100
855.613	0.0158195
855.692	0.0158826
855.770	0.0157302
855.848	0.0158425
855.926	0.0157880
856.004	0.0157449
856.082	0.0159052
856.160	0.0158612
856.238	0.0157929
856.317	0.0159492
856.395	0.0159265
856.473	0.0159097
856.551	0.0160112
856.629	0.0160028
856.707	0.0160123
856.785	0.0160098
856.863	0.0161533
856.942	0.0162613
857.020	0.0161607
857.098	0.0162038
857.176	0.0162586
857.254	0.0164851
857.332	0.0164148
857.410	0.0162634
857.488	0.0162846
857.567	0.0164970
857.645	0.0164565
857.723	0.0163417
857.801	0.0164249
857.879	0.0165340
857.957	0.0164802
858.035	0.0164162
858.113	0.0162856
858.192	0.0162133
858.270	0.0161945
858.348	0.0162251
858.426	0.0162239
858.504	0.0160663
858.582	0.0161575
858.660	0.0161347
858.738	0.0160226
858.817	0.0160111
858.895	0.0161074
858.973	0.0161388
859.051	0.0160940
859.129	0.0159944
859.207	0.0160303
859.285	0.0161664
859.363	0.0160320
859.442	0.0161588
859.520	0.0160693
859.598	0.0161359
859.676	0.0161021
859.754	0.0160456
859.832	0.0161385
859.910	0.0161249
859.988	0.0161593
860.067	0.0159693
860.145	0.0160643
860.223	0.0162867
860.301	0.0162021
860.379	0.0162979
860.457	0.0163409
860.535	0.0163258
860.613	0.0162714
860.692	0.0162808
860.770	0.0164630
860.848	0.0163764
860.926	0.0163931
861.004	0.0163126
861.082	0.0161680
861.160	0.0161243
861.238	0.0161819
861.317	0.0161864
861.395	0.0161561
861.473	0.0161716
861.551	0.0161285
861.629	0.0159509
861.707	0.0159252
861.785	0.0159993
861.863	0.0158524
861.942	0.0160472
862.020	0.0160828
862.098	0.0158571
862.176	0.0160255
862.254	0.0159408
862.332	0.0158312
862.410	0.0159830
862.488	0.0159308
862.567	0.0158767
862.645	0.0160027
862.723	0.0160312
862.801	0.0159362
862.879	0.0158822
862.957	0.0161137
863.035	0.0161668
863.113	0.0160171
863.192	0.0160882
863.270	0.0161005
863.348	0.0160528
863.426	0.0162257
863.504	0.0161803
863.582	0.0162178
863.660	0.0160520
863.738	0.0161114
863.817	0.0160574
863.895	0.0160449
863.973	0.0160194
864.051	0.0160509
864.129	0.0159392
864.207	0.0159399
864.285	0.0158511
864.363	0.0159386
864.442	0.0158138
864.520	0.0158505
864.598	0.0159050
864.676	0.0159962
864.754	0.0159747
864.832	0.0160266
864.910	0.0160296
864.988	0.0162061
865.067	0.0162087
865.145	0.0163548
865.223	0.0164553
865.301	0.0164780
865.379	0.0164752
865.457	0.0164840
865.535	0.0165348
865.613	0.0164397
865.692	0.0165421
865.770	0.0165329
865.848	0.0163828
865.926	0.0163560
866.004	0.0165453
866.082	0.0164183
866.160	0.0163322
866.238	0.0163884
866.317	0.0163804
866.395	0.0163440
866.473	0.0163644
866.551	0.0161991
866.629	0.0161528
866.707	0.0160252
866.785	0.0161900
866.863	0.0160898
866.942	0.0160195
867.020	0.0159017
867.098	0.0159452
867.176	0.0159701
867.254	0.0159051
867.332	0.0158949
867.410	0.0158935
867.488	0.0158482
867.567	0.0159244
867.645	0.0157745
867.723	0.0159129
867.801	0.0160311
867.879	0.0158448
867.957	0.0160176
868.035	0.0159922
868.113	0.0159654
868.192	0.0161083
868.270	0.0161272
868.348	0.0162604
868.426	0.0162565
868.504	0.0163839
868.582	0.0163514
868.660	0.0162858
868.738	0.0164400
868.817	0.0164477
868.895	0.0164333
868.973	0.0162448
869.051	0.0161433
869.129	0.0162637
869.207	0.0162281
869.285	0.0160868
869.363	0.0159821
869.442	0.0159346
869.520	0.0159239
869.598	0.0158201
869.676	0.0157956
869.754	0.0156890
869.832	0.0157965
869.910	0.0157843
869.988	0.0158539
870.067	0.0158847
870.145	0.0158887
870.223	0.0160531
870.301	0.0160212
870.379	0.0160645
870.457	0.0160583
870.535	0.0161495
870.613	0.0161399
870.692	0.0161774
870.770	0.0161872
870.848	0.0162006
870.926	0.0160497
871.004	0.0161115
871.082	0.0160394
871.160	0.0160007
871.238	0.0161015
871.317	0.0162300
871.395	0.0161597
871.473	0.0159927
871.551	0.0161178
871.629	0.0159250
871.707	0.0160365
871.785	0.0158398
871.863	0.0159219
871.942	0.0159525
872.020	0.0158441
872.098	0.0158290
872.176	0.0157891
872.254	0.0157738
872.332	0.0157476
872.410	0.0158781
872.488	0.0159148
872.567	0.0159399
872.645	0.0158798
872.723	0.0159365
872.801	0.0158662
872.879	0.0160157
872.957	0.0161179
873.035	0.0163034
873.113	0.0164542
873.192	0.0162019
873.270	0.0162744
873.348	0.0162769
873.426	0.0164274
873.504	0.0164996
873.582	0.0164800
873.660	0.0165146
873.738	0.0163720
873.817	0.0164685
873.895	0.0164245
873.973	0.0164233
874.051	0.0164483
874.129	0.0163803
874.207	0.0165207
874.285	0.0163090
874.363	0.0161781
874.442	0.0162425
874.520	0.0161179
874.598	0.0160074
874.676	0.0162062
874.754	0.0160424
874.832	0.0159685
874.910	0.0159155
874.988	0.0160589
875.067	0.0160280
875.145	0.0159109
875.223	0.0158379
875.301	0.0157223
875.379	0.0157574
875.457	0.0158694
875.535	0.0157409
875.613	0.0157117
875.692	0.0156815
875.770	0.0159187
875.848	0.0158404
875.926	0.0157939
876.004	0.0158779
876.082	0.0160822
876.160	0.0159908
876.238	0.0160036
876.317	0.0159573
876.395	0.0161489
876.473	0.0162243
876.551	0.0163508
876.629	0.0162508
876.707	0.0163692
876.785	0.0163379
876.863	0.0163595
876.942	0.0163604
877.020	0.0161897
877.098	0.0161885
877.176	0.0162077
877.254	0.0161356
877.332	0.0159711
877.410	0.0159111
877.488	0.0160123
877.567	0.0158804
877.645	0.0158358
877.723	0.0158389
877.801	0.0159068
877.879	0.0159418
877.957	0.0158288
878.035	0.0158587
878.113	0.0160143
878.192	0.0159292
878.270	0.0160316
878.348	0.0160007
878.426	0.0158231
878.504	0.0159745
878.582	0.0160487
878.660	0.0162657
878.738	0.0161708
878.817	0.0161819
878.895	0.0161439
878.973	0.0162019
879.051	0.0161553
879.129	0.0162130
879.207	0.0162761
879.285	0.0162611
879.363	0.0162612
879.442	0.0163188
879.520	0.0163124
879.598	0.0162409
879.676	0.0162825
879.754	0.0161673
879.832	0.0162074
879.910	0.0161631
879.988	0.0162271
880.067	0.0162613
880.145	0.0161880
880.223	0.0162684
880.301	0.0162408
880.379	0.0161317
880.457	0.0162173
880.535	0.0162498
880.613	0.0161720
880.692	0.0162519
880.770	0.0161142
880.848	0.0161726
880.926	0.0161414
881.004	0.0162357
881.082	0.0160869
881.160	0.0161961
881.238	0.0161958
881.317	0.0161590
881.395	0.0162489
881.473	0.0162009
881.551	0.0162488
881.629	0.0162948
881.707	0.0162500
881.785	0.0162464
881.863	0.0163007
881.942	0.0161016
882.020	0.0161456
882.098	0.0162937
882.176	0.0162283
882.254	0.0162617
882.332	0.0163484
882.410	0.0162416
882.488	0.0162476
882.567	0.0162527
882.645	0.0161848
882.723	0.0161792
882.801	0.0161758
882.879	0.0161538
882.957	0.0160762
883.035	0.0160468
883.113	0.0160159
883.192	0.0160483
883.270	0.0159350
883.348	0.0159161
883.426	0.0159750
883.504	0.0159695
883.582	0.0159583
883.660	0.0159644
883.738	0.0161204
883.817	0.0160273
883.895	0.0159145
883.973	0.0161326
884.051	0.0161900
884.129	0.0161219
884.207	0.0160835
884.285	0.0161852
884.363	0.0161411
884.442	0.0163219
884.520	0.0160275
884.598	0.0160362
884.676	0.0159999
884.754	0.0160806
884.832	0.0161931
884.910	0.0160967
884.988	0.0159901
885.067	0.0160911
885.145	0.0161430
885.223	0.0160182
885.301	0.0159958
885.379	0.0160710
885.457	0.0162145
885.535	0.0159991
885.613	0.0160635
885.692	0.0160545
885.770	0.0159637
885.848	0.0160508
885.926	0.0159244
886.004	0.0159641
886.082	0.0159002
886.160	0.0160135
886.238	0.0160321
886.317	0.0159786
886.395	0.0159794
886.473	0.0161392
886.551	0.0160893
886.629	0.0161301
886.707	0.0160859
886.785	0.0162749
886.863	0.0161930
886.942	0.0162097
887.020	0.0162766
887.098	0.0162375
887.176	0.0162774
887.254	0.0163719
887.332	0.0162516
887.410	0.0162407
887.488	0.0162302
887.567	0.0162399
887.645	0.0161493
887.723	0.0162123
887.801	0.0163076
887.879	0.0161105
887.957	0.0160579
888.035	0.0161528
888.113	0.0162194
888.192	0.0161768
888.270	0.0160008
888.348	0.0160777
888.426	0.0160686
888.504	0.0162226
888.582	0.0163615
888.660	0.0161738
888.738	0.0162111
888.817	0.0162334
888.895	0.0162110
888.973	0.0163847
889.051	0.0163474
889.129	0.0163746
889.207	0.0163091
889.285	0.0161628
889.363	0.0162635
889.442	0.0162265
889.520	0.0162574
889.598	0.0162460
889.676	0.0162634
889.754	0.0161959
889.832	0.0161674
889.910	0.0160722
889.988	0.0161569
890.067	0.0160312
890.145	0.0160355
890.223	0.0160952
890.301	0.0159457
890.379	0.0160620
890.457	0.0159850
890.535	0.0160284
890.613	0.0160081
890.692	0.0160450
890.770	0.0159145
890.848	0.0159081
890.926	0.0157964
891.004	0.0158917
891.082	0.0159423
891.160	0.0159758
891.238	0.0161372
891.317	0.0159934
891.395	0.0159951
891.473	0.0158741
891.551	0.0160536
891.629	0.0160809
891.707	0.0161365
891.785	0.0159795
891.863	0.0160371
891.942	0.0160637
892.020	0.0160502
892.098	0.0161201
892.176	0.0160756
892.254	0.0160257
892.332	0.0160910
892.410	0.0161150
892.488	0.0161589
892.567	0.0162098
892.645	0.0161882
892.723	0.0162080
892.801	0.0160442
892.879	0.0161288
892.957	0.0162120
893.035	0.0161765
893.113	0.0162022
893.192	0.0159772
893.270	0.0162464
893.348	0.0162389
893.426	0.0160570
893.504	0.0160706
893.582	0.0161252
893.660	0.0160680
893.738	0.0160700
893.817	0.0160040
893.895	0.0160388
893.973	0.0161271
894.051	0.0162042
894.129	0.0161185
894.207	0.0161153
894.285	0.0161813
894.363	0.0159822
894.442	0.0161681
894.520	0.0162954
894.598	0.0163494
894.676	0.0163322
894.754	0.0162230
894.832	0.0161297
894.910	0.0162025
894.988	0.0162415
895.067	0.0162137
895.145	0.0162395
895.223	0.0162557
895.301	0.0160903
895.379	0.0162689
895.457	0.0162203
895.535	0.0161616
895.613	0.0162054
895.692	0.0160463
895.770	0.0161553
895.848	0.0161033
895.926	0.0160416
896.004	0.0162287
896.082	0.0161462
896.160	0.0161105
896.238	0.0160973
896.317	0.0160237
896.395	0.0161198
896.473	0.0160379
896.551	0.0161744
896.629	0.0160895
896.707	0.0161304
896.785	0.0161066
896.863	0.0161420
896.942	0.0160678
897.020	0.0160516
897.098	0.0160947
897.176	0.0161191
897.254	0.0161832
897.332	0.0161207
897.410	0.0160041
897.488	0.0160387
897.567	0.0160902
897.645	0.0159579
897.723	0.0159361
897.801	0.0161327
897.879	0.0159972
897.957	0.0160048
898.035	0.0158849
898.113	0.0159112
898.192	0.0158812
898.270	0.0160818
898.348	0.0158318
898.426	0.0158695
898.504	0.0160523
898.582	0.0160232
898.660	0.0160948
898.738	0.0160283
898.817	0.0160593
898.895	0.0161445
898.973	0.0159904
899.051	0.0161022
899.129	0.0161734
899.207	0.0161308
899.285	0.0160454
899.363	0.0161728
899.442	0.0161260
899.520	0.0159663
899.598	0.0159461
899.676	0.0159973
899.754	0.0159320
899.832	0.0159118
899.910	0.0158706
899.988	0.0159742
900.067	0.0160079
900.145	0.0159147
900.223	0.0159723
900.301	0.0159215
900.379	0.0158765
900.457	0.0160920
900.535	0.0159626
900.613	0.0161446
900.692	0.0162037
900.770	0.0161251
900.848	0.0161533
900.926	0.0161037
901.004	0.0161032
901.082	0.0160773
901.160	0.0162996
901.238	0.0162293
901.317	0.0161031
901.395	0.0162247
901.473	0.0162000
901.551	0.0161398
901.629	0.0161255
901.707	0.0162233
901.785	0.0162987
901.863	0.0162228
901.942	0.0162595
902.020	0.0162989
902.098	0.0161627
902.176	0.0161964
902.254	0.0162946
902.332	0.0162466
902.410	0.0160880
902.488	0.0161326
902.567	0.0161532
902.645	0.0161101
902.723	0.0160728
902.801	0.0160977
902.879	0.0160616
902.957	0.0160993
903.035	0.0160229
903.113	0.0162384
903.192	0.0160139
903.270	0.0159831
903.348	0.0161694
903.426	0.0159018
903.504	0.0160026
903.582	0.0161015
903.660	0.0159679
903.738	0.0161038
903.817	0.0160001
903.895	0.0160494
903.973	0.0160174
904.051	0.0159824
904.129	0.0160235
904.207	0.0160509
904.285	0.0161084
904.363	0.0160910
904.442	0.0160944
904.520	0.0161377
904.598	0.0160548
904.676	0.0161165
904.754	0.0160561
904.832	0.0161336
904.910	0.0161621
904.988	0.0159856
905.067	0.0160120
905.145	0.0159735
905.223	0.0160612
905.301	0.0161205
905.379	0.0160719
905.457	0.0160604
905.535	0.0161494
905.613	0.0160117
905.692	0.0160931
905.770	0.0160405
905.848	0.0160445
905.926	0.0161323
906.004	0.0161249
906.082	0.0160699
906.160	0.0159382
906.238	0.0159917
906.317	0.0159707
906.395	0.0160780
906.473	0.0160980
906.551	0.0160482
906.629	0.0157450
906.707	0.0159892
906.785	0.0159319
906.863	0.0160109
906.942	0.0159456
907.020	0.0160389
907.098	0.0160078
907.176	0.0161750
907.254	0.0160880
907.332	0.0160199
907.410	0.0159541
907.488	0.0161867
907.567	0.0161172
907.645	0.0161970
907.723	0.0162011
907.801	0.0160639
907.879	0.0161395
907.957	0.0162129
908.035	0.0162920
908.113	0.0161472
908.192	0.0161330
908.270	0.0161985
908.348	0.0160606
908.426	0.0161475
908.504	0.0161833
908.582	0.0161211
908.660	0.0162366
908.738	0.0160297
908.817	0.0161660
908.895	0.0160230
908.973	0.0159938
909.051	0.0161194
909.129	0.0161863
909.207	0.0162344
909.285	0.0162821
909.363	0.0162962
909.442	0.0161607
909.520	0.0160950
909.598	0.0161607
909.676	0.0163570
909.754	0.0162350
909.832	0.0161898
909.910	0.0162614
909.988	0.0161745
910.067	0.0162063
910.145	0.0162682
910.223	0.0161362
910.301	0.0161755
910.379	0.0159769
910.457	0.0159686
910.535	0.0160923
910.613	0.0160593
910.692	0.0160839
910.770	0.0160480
910.848	0.0160016
910.926	0.0160814
911.004	0.0160154
911.082	0.0160120
911.160	0.0160596
911.238	0.0161189
911.317	0.0160716
911.395	0.0162212
911.473	0.0159777
911.551	0.0161155
911.629	0.0161407
911.707	0.0161317
911.785	0.0160735
911.863	0.0161572
911.942	0.0161535
912.020	0.0160645
912.098	0.0160423
912.176	0.0161783
912.254	0.0161554
912.332	0.0160637
912.410	0.0160947
912.488	0.0161550
912.567	0.0160709
912.645	0.0160451
912.723	0.0160217
912.801	0.0161382
912.879	0.0160216
912.957	0.0161074
913.035	0.0160635
913.113	0.0162370
913.192	0.0160907
913.270	0.0162296
913.348	0.0160397
913.426	0.0160909
913.504	0.0161488
913.582	0.0160602
913.660	0.0162877
913.738	0.0162488
913.817	0.0160488
913.895	0.0160513
913.973	0.0159602
914.051	0.0161742
914.129	0.0161585
914.207	0.0160355
914.285	0.0158796
914.363	0.0159629
914.442	0.0160656
914.520	0.0161329
914.598	0.0160895
914.676	0.0158736
914.754	0.0158850
914.832	0.0158871
914.910	0.0159574
914.988	0.0158720
915.067	0.0159726
915.145	0.0158430
915.223	0.0160263
915.301	0.0160901
915.379	0.0160320
915.457	0.0160577
915.535	0.0160240
915.613	0.0162363
915.692	0.0161335
915.770	0.0161057
915.848	0.0160580
915.926	0.0161295
916.004	0.0160934
916.082	0.0160793
916.160	0.0161890
916.238	0.0161842
916.317	0.0161214
916.395	0.0161021
916.473	0.0161860
916.551	0.0161253
916.629	0.0160030
916.707	0.0159957
916.785	0.0160824
916.863	0.0161446
916.942	0.0160397
917.020	0.0160534
917.098	0.0161102
917.176	0.0161221
917.254	0.0160694
917.332	0.0160611
917.410	0.0160214
917.488	0.0160522
917.567	0.0162536
917.645	0.0161498
917.723	0.0160784
917.801	0.0161230
917.879	0.0160171
917.957	0.0162280
918.035	0.0162677
918.113	0.0161707
918.192	0.0162963
918.270	0.0162193
918.348	0.0161453
918.426	0.0162384
918.504	0.0161800
918.582	0.0162135
918.660	0.0162963
918.738	0.0161457
918.817	0.0162636
918.895	0.0160732
918.973	0.0160049
919.051	0.0160763
919.129	0.0160030
919.207	0.0160504
919.285	0.0160176
919.363	0.0160384
919.442	0.0157395
919.520	0.0158558
919.598	0.0157812
919.676	0.0158083
919.754	0.0158888
919.832	0.0156522
919.910	0.0159368
