05/24/2022	20:31:30	Ver.	4.1	UNKNOWN
Optical Delay	599.981738	Delta X		0.078125	Sweeps	1	Scan Rate	0/0
Coordinates	Axis 1	NaN	Axis 2	NaN	Axis 3	NaN	Axis 4	NaN	Axis 5	NaN	Axis 6	0.000000
TX Power	0.000000	RX Power	0.000000

599.982	0.0165504
600.060	0.0166199
600.138	0.0165372
600.216	0.0165390
600.294	0.0164846
600.372	0.0165809
600.450	0.0165784
600.529	0.0165068
600.607	0.0164803
600.685	0.0165488
600.763	0.0167760
600.841	0.0164034
600.919	0.0164430
600.997	0.0165017
601.075	0.0164027
601.154	0.0164900
601.232	0.0164627
601.310	0.0165815
601.388	0.0164510
601.466	0.0163653
601.544	0.0164340
601.622	0.0164537
601.700	0.0165237
601.779	0.0165224
601.857	0.0164887
601.935	0.0165526
602.013	0.0166343
602.091	0.0165974
602.169	0.0164628
602.247	0.0164825
602.325	0.0165735
602.404	0.0167073
602.482	0.0168777
602.560	0.0167287
602.638	0.0165978
602.716	0.0165287
602.794	0.0166592
602.872	0.0166512
602.950	0.0166441
603.029	0.0166809
603.107	0.0166249
603.185	0.0165809
603.263	0.0165253
603.341	0.0164427
603.419	0.0163718
603.497	0.0164877
603.575	0.0164393
603.654	0.0164165
603.732	0.0162752
603.810	0.0163490
603.888	0.0163683
603.966	0.0162944
604.044	0.0163789
604.122	0.0163395
604.200	0.0164415
604.279	0.0163950
604.357	0.0163342
604.435	0.0162560
604.513	0.0163775
604.591	0.0163332
604.669	0.0163966
604.747	0.0164172
604.825	0.0165818
604.904	0.0166893
604.982	0.0167179
605.060	0.0166968
605.138	0.0167196
605.216	0.0167478
605.294	0.0166978
605.372	0.0167307
605.450	0.0165884
605.529	0.0166525
605.607	0.0167008
605.685	0.0166531
605.763	0.0166109
605.841	0.0166530
605.919	0.0164584
605.997	0.0165508
606.075	0.0165957
606.154	0.0165964
606.232	0.0166503
606.310	0.0165892
606.388	0.0164912
606.466	0.0165309
606.544	0.0164992
606.622	0.0165121
606.700	0.0164366
606.779	0.0163464
606.857	0.0164063
606.935	0.0164754
607.013	0.0163795
607.091	0.0163837
607.169	0.0163306
607.247	0.0162897
607.325	0.0162173
607.404	0.0162477
607.482	0.0162839
607.560	0.0163121
607.638	0.0163256
607.716	0.0163419
607.794	0.0162813
607.872	0.0162249
607.950	0.0163374
608.029	0.0164581
608.107	0.0164252
608.185	0.0164487
608.263	0.0164975
608.341	0.0164989
608.419	0.0165408
608.497	0.0166237
608.575	0.0165506
608.654	0.0165239
608.732	0.0166290
608.810	0.0165478
608.888	0.0165765
608.966	0.0167258
609.044	0.0165616
609.122	0.0166881
609.200	0.0167614
609.279	0.0166088
609.357	0.0167565
609.435	0.0168420
609.513	0.0165559
609.591	0.0166369
609.669	0.0166644
609.747	0.0166579
609.825	0.0164632
609.904	0.0167241
609.982	0.0165894
610.060	0.0165853
610.138	0.0164951
610.216	0.0165437
610.294	0.0163728
610.372	0.0164910
610.450	0.0163580
610.529	0.0163630
610.607	0.0163092
610.685	0.0162228
610.763	0.0162000
610.841	0.0163094
610.919	0.0161469
610.997	0.0161221
611.075	0.0160238
611.154	0.0161945
611.232	0.0162557
611.310	0.0161658
611.388	0.0160828
611.466	0.0162732
611.544	0.0162959
611.622	0.0163520
611.700	0.0164011
611.779	0.0164233
611.857	0.0165536
611.935	0.0164924
612.013	0.0165369
612.091	0.0166831
612.169	0.0165175
612.247	0.0165858
612.325	0.0167883
612.404	0.0167925
612.482	0.0168560
612.560	0.0169862
612.638	0.0168787
612.716	0.0169479
612.794	0.0168844
612.872	0.0167614
612.950	0.0168351
613.029	0.0168518
613.107	0.0169190
613.185	0.0167362
613.263	0.0166975
613.341	0.0167841
613.419	0.0167146
613.497	0.0163113
613.575	0.0163316
613.654	0.0164629
613.732	0.0163994
613.810	0.0164148
613.888	0.0164060
613.966	0.0161623
614.044	0.0162174
614.122	0.0159963
614.200	0.0161926
614.279	0.0162228
614.357	0.0160310
614.435	0.0160410
614.513	0.0160770
614.591	0.0160927
614.669	0.0161517
614.747	0.0161489
614.825	0.0162524
614.904	0.0162847
614.982	0.0162388
615.060	0.0163116
615.138	0.0164059
615.216	0.0164716
615.294	0.0165048
615.372	0.0165129
615.450	0.0165592
615.529	0.0165446
615.607	0.0167854
615.685	0.0167258
615.763	0.0165858
615.841	0.0166849
615.919	0.0166960
615.997	0.0167153
616.075	0.0167287
616.154	0.0166993
616.232	0.0166676
616.310	0.0166811
616.388	0.0165403
616.466	0.0166903
616.544	0.0165629
616.622	0.0165499
616.700	0.0166514
616.779	0.0165263
616.857	0.0164335
616.935	0.0165647
617.013	0.0165251
617.091	0.0163825
617.169	0.0165018
617.247	0.0164960
617.325	0.0165043
617.404	0.0164358
617.482	0.0163685
617.560	0.0165072
617.638	0.0164488
617.716	0.0165491
617.794	0.0164117
617.872	0.0163902
617.950	0.0164281
618.029	0.0163272
618.107	0.0163246
618.185	0.0164173
618.263	0.0162071
618.341	0.0163833
618.419	0.0164042
618.497	0.0163312
618.575	0.0161975
618.654	0.0162220
618.732	0.0163166
618.810	0.0163399
618.888	0.0162974
618.966	0.0163455
619.044	0.0164796
619.122	0.0162360
619.200	0.0165231
619.279	0.0165152
619.357	0.0165733
619.435	0.0165700
619.513	0.0166315
619.591	0.0166441
619.669	0.0167960
619.747	0.0168726
619.825	0.0169133
619.904	0.0170054
619.982	0.0168324
620.060	0.0168195
620.138	0.0167902
620.216	0.0166846
620.294	0.0167082
620.372	0.0167278
620.450	0.0165761
620.529	0.0164886
620.607	0.0163908
620.685	0.0164079
620.763	0.0164217
620.841	0.0163174
620.919	0.0163791
620.997	0.0161745
621.075	0.0161539
621.154	0.0163034
621.232	0.0164394
621.310	0.0162082
621.388	0.0162728
621.466	0.0164232
621.544	0.0163084
621.622	0.0163297
621.700	0.0163569
621.779	0.0164803
621.857	0.0165641
621.935	0.0166320
622.013	0.0164767
622.091	0.0165592
622.169	0.0166389
622.247	0.0166371
622.325	0.0167987
622.404	0.0167834
622.482	0.0166347
622.560	0.0166682
622.638	0.0166361
622.716	0.0165556
622.794	0.0165397
622.872	0.0165427
622.950	0.0165951
623.029	0.0164365
623.107	0.0164815
623.185	0.0164434
623.263	0.0165173
623.341	0.0162199
623.419	0.0162885
623.497	0.0163026
623.575	0.0162398
623.654	0.0165276
623.732	0.0163195
623.810	0.0162935
623.888	0.0163319
623.966	0.0164211
624.044	0.0164867
624.122	0.0166074
624.200	0.0165086
624.279	0.0165031
624.357	0.0166420
624.435	0.0167351
624.513	0.0167361
624.591	0.0166511
624.669	0.0168450
624.747	0.0167088
624.825	0.0167554
624.904	0.0167180
624.982	0.0167026
625.060	0.0166857
625.138	0.0167275
625.216	0.0166310
625.294	0.0164656
625.372	0.0164351
625.450	0.0164574
625.529	0.0164270
625.607	0.0163073
625.685	0.0162663
625.763	0.0164174
625.841	0.0164314
625.919	0.0162833
625.997	0.0161472
626.075	0.0162788
626.154	0.0163727
626.232	0.0163748
626.310	0.0163694
626.388	0.0163725
626.466	0.0164954
626.544	0.0165460
626.622	0.0165737
626.700	0.0165810
626.779	0.0165822
626.857	0.0166862
626.935	0.0166453
627.013	0.0166083
627.091	0.0166294
627.169	0.0166209
627.247	0.0165261
627.325	0.0165859
627.404	0.0166921
627.482	0.0166959
627.560	0.0167136
627.638	0.0166315
627.716	0.0164597
627.794	0.0165492
627.872	0.0165863
627.950	0.0165432
628.029	0.0163281
628.107	0.0164858
628.185	0.0164175
628.263	0.0164378
628.341	0.0164921
628.419	0.0163007
628.497	0.0164407
628.575	0.0164421
628.654	0.0165788
628.732	0.0164491
628.810	0.0164776
628.888	0.0165704
628.966	0.0165710
629.044	0.0164738
629.122	0.0166157
629.200	0.0165111
629.279	0.0166427
629.357	0.0165839
629.435	0.0165382
629.513	0.0166101
629.591	0.0166647
629.669	0.0166603
629.747	0.0165974
629.825	0.0166785
629.904	0.0165627
629.982	0.0165065
630.060	0.0164818
630.138	0.0164706
630.216	0.0164574
630.294	0.0163536
630.372	0.0164121
630.450	0.0164086
630.529	0.0165617
630.607	0.0164697
630.685	0.0165077
630.763	0.0164340
630.841	0.0164669
630.919	0.0164712
630.997	0.0164822
631.075	0.0164846
631.154	0.0164767
631.232	0.0165022
631.310	0.0165232
631.388	0.0164713
631.466	0.0165788
631.544	0.0167276
631.622	0.0165981
631.700	0.0165717
631.779	0.0167277
631.857	0.0165882
631.935	0.0165083
632.013	0.0166270
632.091	0.0164890
632.169	0.0166566
632.247	0.0166268
632.325	0.0164879
632.404	0.0165342
632.482	0.0165254
632.560	0.0165768
632.638	0.0165543
632.716	0.0165388
632.794	0.0165721
632.872	0.0164894
632.950	0.0164993
633.029	0.0164634
633.107	0.0164413
633.185	0.0163963
633.263	0.0164646
633.341	0.0163992
633.419	0.0163546
633.497	0.0163331
633.575	0.0164047
633.654	0.0163216
633.732	0.0163668
633.810	0.0163959
633.888	0.0163852
633.966	0.0164678
634.044	0.0164764
634.122	0.0166128
634.200	0.0166065
634.279	0.0166009
634.357	0.0166492
634.435	0.0166562
634.513	0.0165207
634.591	0.0166940
634.669	0.0167233
634.747	0.0167102
634.825	0.0167039
634.904	0.0166451
634.982	0.0167401
635.060	0.0166606
635.138	0.0165887
635.216	0.0166888
635.294	0.0165146
635.372	0.0165649
635.450	0.0163698
635.529	0.0165091
635.607	0.0163950
635.685	0.0163660
635.763	0.0163514
635.841	0.0164280
635.919	0.0162925
635.997	0.0163003
636.075	0.0163078
636.154	0.0163497
636.232	0.0163196
636.310	0.0163350
636.388	0.0163701
636.466	0.0164225
636.544	0.0164793
636.622	0.0163895
636.700	0.0164709
636.779	0.0166772
636.857	0.0166946
636.935	0.0165635
637.013	0.0166051
637.091	0.0167501
637.169	0.0167826
637.247	0.0166804
637.325	0.0166238
637.404	0.0166338
637.482	0.0166619
637.560	0.0164948
637.638	0.0165994
637.716	0.0165140
637.794	0.0165729
637.872	0.0164881
637.950	0.0166122
638.029	0.0166280
638.107	0.0165044
638.185	0.0164777
638.263	0.0166016
638.341	0.0164671
638.419	0.0165678
638.497	0.0165691
638.575	0.0166208
638.654	0.0165407
638.732	0.0167248
638.810	0.0165678
638.888	0.0167097
638.966	0.0167618
639.044	0.0166256
639.122	0.0165926
639.200	0.0165244
639.279	0.0167243
639.357	0.0167470
639.435	0.0165639
639.513	0.0165745
639.591	0.0164263
639.669	0.0164840
639.747	0.0164400
639.825	0.0164079
639.904	0.0164257
639.982	0.0164686
640.060	0.0164666
640.138	0.0164570
640.216	0.0163961
640.294	0.0163534
640.372	0.0165142
640.450	0.0164185
640.529	0.0164055
640.607	0.0165443
640.685	0.0164294
640.763	0.0165049
640.841	0.0165247
640.919	0.0167120
640.997	0.0164545
641.075	0.0164867
641.154	0.0166910
641.232	0.0165560
641.310	0.0165789
641.388	0.0165818
641.466	0.0165346
641.544	0.0166727
641.622	0.0165731
641.700	0.0165958
641.779	0.0166768
641.857	0.0165367
641.935	0.0166567
642.013	0.0166141
642.091	0.0167333
642.169	0.0166387
642.247	0.0166637
642.325	0.0165241
642.404	0.0165144
642.482	0.0165338
642.560	0.0166152
642.638	0.0165635
642.716	0.0165295
642.794	0.0165450
642.872	0.0165452
642.950	0.0163995
643.029	0.0164519
643.107	0.0165767
643.185	0.0166359
643.263	0.0165405
643.341	0.0166245
643.419	0.0165942
643.497	0.0166161
643.575	0.0166595
643.654	0.0164766
643.732	0.0165015
643.810	0.0165601
643.888	0.0166550
643.966	0.0165167
644.044	0.0165153
644.122	0.0163857
644.200	0.0162662
644.279	0.0163554
644.357	0.0163095
644.435	0.0162382
644.513	0.0163206
644.591	0.0163301
644.669	0.0162006
644.747	0.0162923
644.825	0.0164733
644.904	0.0163508
644.982	0.0163753
645.060	0.0163017
645.138	0.0164974
645.216	0.0164526
645.294	0.0166173
645.372	0.0166814
645.450	0.0167969
645.529	0.0169611
645.607	0.0168407
645.685	0.0168758
645.763	0.0169913
645.841	0.0171375
645.919	0.0170420
645.997	0.0170000
646.075	0.0169620
646.154	0.0170557
646.232	0.0170120
646.310	0.0168124
646.388	0.0168356
646.466	0.0166073
646.544	0.0163636
646.622	0.0164780
646.700	0.0163220
646.779	0.0161733
646.857	0.0161364
646.935	0.0159319
647.013	0.0158182
647.091	0.0156708
647.169	0.0157074
647.247	0.0158961
647.325	0.0159325
647.404	0.0157417
647.482	0.0158379
647.560	0.0159612
647.638	0.0162447
647.716	0.0162505
647.794	0.0164928
647.872	0.0166966
647.950	0.0168736
648.029	0.0170783
648.107	0.0174519
648.185	0.0176865
648.263	0.0177651
648.341	0.0177867
648.419	0.0177563
648.497	0.0179583
648.575	0.0179351
648.654	0.0178030
648.732	0.0178193
648.810	0.0175735
648.888	0.0172882
648.966	0.0170496
649.044	0.0168034
649.122	0.0164098
649.200	0.0161275
649.279	0.0158480
649.357	0.0155266
649.435	0.0152309
649.513	0.0149802
649.591	0.0148911
649.669	0.0146315
649.747	0.0145368
649.825	0.0146590
649.904	0.0145922
649.982	0.0147717
650.060	0.0147650
650.138	0.0151089
650.216	0.0153454
650.294	0.0156974
650.372	0.0160385
650.450	0.0163265
650.529	0.0165637
650.607	0.0170023
650.685	0.0173117
650.763	0.0176598
650.841	0.0179138
650.919	0.0180751
650.997	0.0184155
651.075	0.0184496
651.154	0.0183506
651.232	0.0185513
651.310	0.0183863
651.388	0.0182685
651.466	0.0180949
651.544	0.0178306
651.622	0.0177178
651.700	0.0174605
651.779	0.0171168
651.857	0.0168020
651.935	0.0164514
652.013	0.0163484
652.091	0.0162490
652.169	0.0160011
652.247	0.0157236
652.325	0.0156289
652.404	0.0154515
652.482	0.0152786
652.560	0.0153032
652.638	0.0152176
652.716	0.0151172
652.794	0.0150813
652.872	0.0152794
652.950	0.0150993
653.029	0.0151086
653.107	0.0153695
653.185	0.0152290
653.263	0.0154314
653.341	0.0154372
653.419	0.0154902
653.497	0.0158569
653.575	0.0161182
653.654	0.0161690
653.732	0.0164222
653.810	0.0167557
653.888	0.0170037
653.966	0.0173030
654.044	0.0174807
654.122	0.0177530
654.200	0.0179028
654.279	0.0179750
654.357	0.0182660
654.435	0.0182874
654.513	0.0182645
654.591	0.0182505
654.669	0.0183195
654.747	0.0181458
654.825	0.0179238
654.904	0.0177715
654.982	0.0173299
655.060	0.0170996
655.138	0.0168576
655.216	0.0165096
655.294	0.0162119
655.372	0.0157664
655.450	0.0153582
655.529	0.0151180
655.607	0.0148642
655.685	0.0147705
655.763	0.0146029
655.841	0.0145412
655.919	0.0145679
655.997	0.0147167
656.075	0.0147372
656.154	0.0149798
656.232	0.0152711
656.310	0.0156405
656.388	0.0159312
656.466	0.0163305
656.544	0.0166880
656.622	0.0171931
656.700	0.0172990
656.779	0.0177417
656.857	0.0180797
656.935	0.0182857
657.013	0.0184464
657.091	0.0183750
657.169	0.0185945
657.247	0.0184821
657.325	0.0183569
657.404	0.0181691
657.482	0.0181432
657.560	0.0176798
657.638	0.0175114
657.716	0.0173518
657.794	0.0169219
657.872	0.0167180
657.950	0.0163268
658.029	0.0159293
658.107	0.0156960
658.185	0.0154160
658.263	0.0151791
658.341	0.0151434
658.419	0.0147591
658.497	0.0146114
658.575	0.0145235
658.654	0.0145267
658.732	0.0144538
658.810	0.0144119
658.888	0.0145680
658.966	0.0146795
659.044	0.0148841
659.122	0.0151841
659.200	0.0155368
659.279	0.0156410
659.357	0.0160367
659.435	0.0164021
659.513	0.0166521
659.591	0.0171777
659.669	0.0175162
659.747	0.0176430
659.825	0.0180979
659.904	0.0182970
659.982	0.0185619
660.060	0.0187266
660.138	0.0189627
660.216	0.0190958
660.294	0.0191512
660.372	0.0192007
660.450	0.0190647
660.529	0.0190816
660.607	0.0186814
660.685	0.0187051
660.763	0.0185165
660.841	0.0182497
660.919	0.0180602
660.997	0.0176543
661.075	0.0174328
661.154	0.0170177
661.232	0.0166357
661.310	0.0162714
661.388	0.0159966
661.466	0.0157186
661.544	0.0155346
661.622	0.0151431
661.700	0.0149361
661.779	0.0146409
661.857	0.0143826
661.935	0.0142653
662.013	0.0141317
662.091	0.0140427
662.169	0.0139889
662.247	0.0138740
662.325	0.0139760
662.404	0.0140241
662.482	0.0140475
662.560	0.0142622
662.638	0.0144332
662.716	0.0146323
662.794	0.0147469
662.872	0.0149677
662.950	0.0152629
663.029	0.0154122
663.107	0.0157927
663.185	0.0162176
663.263	0.0166857
663.341	0.0169780
663.419	0.0174462
663.497	0.0178336
663.575	0.0183109
663.654	0.0186997
663.732	0.0188618
663.810	0.0191387
663.888	0.0196587
663.966	0.0195636
664.044	0.0198104
664.122	0.0198880
664.200	0.0195967
664.279	0.0195586
664.357	0.0192493
664.435	0.0189541
664.513	0.0187776
664.591	0.0183873
664.669	0.0179870
664.747	0.0174818
664.825	0.0173337
664.904	0.0169966
664.982	0.0167521
665.060	0.0165666
665.138	0.0164725
665.216	0.0164926
665.294	0.0164179
665.372	0.0162061
665.450	0.0162818
665.529	0.0160535
665.607	0.0160115
665.685	0.0159126
665.763	0.0157996
665.841	0.0157573
665.919	0.0156557
665.997	0.0153691
666.075	0.0151260
666.154	0.0149086
666.232	0.0146603
666.310	0.0145187
666.388	0.0143110
666.466	0.0141840
666.544	0.0140623
666.622	0.0140434
666.700	0.0139751
666.779	0.0139561
666.857	0.0139360
666.935	0.0140569
667.013	0.0141180
667.091	0.0142487
667.169	0.0144860
667.247	0.0147037
667.325	0.0150440
667.404	0.0154330
667.482	0.0159167
667.560	0.0161414
667.638	0.0166315
667.716	0.0171529
667.794	0.0176346
667.872	0.0182180
667.950	0.0186788
668.029	0.0191361
668.107	0.0193542
668.185	0.0198395
668.263	0.0200618
668.341	0.0203786
668.419	0.0203632
668.497	0.0205215
668.575	0.0206136
668.654	0.0204737
668.732	0.0199947
668.810	0.0197943
668.888	0.0191122
668.966	0.0186404
669.044	0.0180734
669.122	0.0173006
669.200	0.0167205
669.279	0.0159185
669.357	0.0152371
669.435	0.0147086
669.513	0.0143168
669.591	0.0137732
669.669	0.0136230
669.747	0.0133540
669.825	0.0134763
669.904	0.0137229
669.982	0.0138910
670.060	0.0144795
670.138	0.0149845
670.216	0.0155306
670.294	0.0161475
670.372	0.0165706
670.450	0.0173370
670.529	0.0179202
670.607	0.0181824
670.685	0.0184435
670.763	0.0187245
670.841	0.0182767
670.919	0.0182613
670.997	0.0177998
671.075	0.0172522
671.154	0.0168944
671.232	0.0160654
671.310	0.0155649
671.388	0.0151070
671.466	0.0147603
671.544	0.0143379
671.622	0.0139542
671.700	0.0138955
671.779	0.0140811
671.857	0.0142818
671.935	0.0144700
672.013	0.0146711
672.091	0.0150385
672.169	0.0155523
672.247	0.0158523
672.325	0.0159942
672.404	0.0161321
672.482	0.0163919
672.560	0.0166725
672.638	0.0165771
672.716	0.0168327
672.794	0.0169902
672.872	0.0169526
672.950	0.0171854
673.029	0.0174133
673.107	0.0175691
673.185	0.0177921
673.263	0.0182229
673.341	0.0183796
673.419	0.0187855
673.497	0.0188464
673.575	0.0191705
673.654	0.0191315
673.732	0.0192507
673.810	0.0192190
673.888	0.0190087
673.966	0.0189066
674.044	0.0185698
674.122	0.0181561
674.200	0.0176534
674.279	0.0172922
674.357	0.0168729
674.435	0.0163348
674.513	0.0158588
674.591	0.0155919
674.669	0.0152493
674.747	0.0150086
674.825	0.0147600
674.904	0.0144641
674.982	0.0142346
675.060	0.0140677
675.138	0.0141711
675.216	0.0141341
675.294	0.0141395
675.372	0.0141391
675.450	0.0141569
675.529	0.0143638
675.607	0.0145032
675.685	0.0147990
675.763	0.0149258
675.841	0.0151755
675.919	0.0155571
675.997	0.0159386
676.075	0.0163937
676.154	0.0167027
676.232	0.0170403
676.310	0.0173782
676.388	0.0178254
676.466	0.0180421
676.544	0.0181508
676.622	0.0184499
676.700	0.0186007
676.779	0.0185722
676.857	0.0186800
676.935	0.0184979
677.013	0.0182357
677.091	0.0182175
677.169	0.0180666
677.247	0.0178304
677.325	0.0176632
677.404	0.0172758
677.482	0.0170808
677.560	0.0170290
677.638	0.0167445
677.716	0.0164442
677.794	0.0164065
677.872	0.0159401
677.950	0.0157260
678.029	0.0154658
678.107	0.0153484
678.185	0.0150235
678.263	0.0149294
678.341	0.0147451
678.419	0.0145832
678.497	0.0148238
678.575	0.0145696
678.654	0.0147147
678.732	0.0150249
678.810	0.0152121
678.888	0.0155789
678.966	0.0158937
679.044	0.0162176
679.122	0.0165063
679.200	0.0167722
679.279	0.0170744
679.357	0.0173432
679.435	0.0175653
679.513	0.0177690
679.591	0.0179773
679.669	0.0179966
679.747	0.0181553
679.825	0.0181571
679.904	0.0180406
679.982	0.0178801
680.060	0.0180160
680.138	0.0177858
680.216	0.0175575
680.294	0.0173690
680.372	0.0170148
680.450	0.0168130
680.529	0.0162994
680.607	0.0160428
680.685	0.0156993
680.763	0.0154518
680.841	0.0151704
680.919	0.0149535
680.997	0.0146823
681.075	0.0145482
681.154	0.0146937
681.232	0.0146512
681.310	0.0150028
681.388	0.0152099
681.466	0.0152892
681.544	0.0158582
681.622	0.0163620
681.700	0.0169792
681.779	0.0172913
681.857	0.0177360
681.935	0.0181682
682.013	0.0184307
682.091	0.0186036
682.169	0.0187423
682.247	0.0188348
682.325	0.0188281
682.404	0.0186100
682.482	0.0182416
682.560	0.0179322
682.638	0.0176656
682.716	0.0171333
682.794	0.0166282
682.872	0.0162253
682.950	0.0158952
683.029	0.0156094
683.107	0.0152578
683.185	0.0152606
683.263	0.0150241
683.341	0.0149042
683.419	0.0148481
683.497	0.0149826
683.575	0.0151009
683.654	0.0153307
683.732	0.0152692
683.810	0.0155906
683.888	0.0158901
683.966	0.0159467
684.044	0.0161175
684.122	0.0163654
684.200	0.0165676
684.279	0.0167100
684.357	0.0167481
684.435	0.0169377
684.513	0.0168679
684.591	0.0169205
684.669	0.0169665
684.747	0.0168598
684.825	0.0168489
684.904	0.0166541
684.982	0.0165685
685.060	0.0165307
685.138	0.0164605
685.216	0.0164708
685.294	0.0163927
685.372	0.0163940
685.450	0.0162335
685.529	0.0164038
685.607	0.0165833
685.685	0.0167311
685.763	0.0168377
685.841	0.0169602
685.919	0.0170675
685.997	0.0172384
686.075	0.0172522
686.154	0.0172906
686.232	0.0173534
686.310	0.0173146
686.388	0.0171932
686.466	0.0170534
686.544	0.0168335
686.622	0.0167306
686.700	0.0165627
686.779	0.0162027
686.857	0.0160420
686.935	0.0160907
687.013	0.0160198
687.091	0.0159371
687.169	0.0159060
687.247	0.0159347
687.325	0.0160436
687.404	0.0161900
687.482	0.0162437
687.560	0.0163749
687.638	0.0162939
687.716	0.0165325
687.794	0.0165359
687.872	0.0164724
687.950	0.0163895
688.029	0.0165720
688.107	0.0164693
688.185	0.0163662
688.263	0.0164662
688.341	0.0163651
688.419	0.0163931
688.497	0.0165442
688.575	0.0167104
688.654	0.0168877
688.732	0.0168874
688.810	0.0170875
688.888	0.0172628
688.966	0.0173166
689.044	0.0175596
689.122	0.0174850
689.200	0.0175675
689.279	0.0176113
689.357	0.0174319
689.435	0.0173405
689.513	0.0172610
689.591	0.0171231
689.669	0.0168433
689.747	0.0167359
689.825	0.0165909
689.904	0.0165199
689.982	0.0163007
690.060	0.0163257
690.138	0.0160165
690.216	0.0159109
690.294	0.0158690
690.372	0.0155832
690.450	0.0153751
690.529	0.0153899
690.607	0.0151576
690.685	0.0150359
690.763	0.0150224
690.841	0.0150074
690.919	0.0150348
690.997	0.0152066
691.075	0.0152441
691.154	0.0153033
691.232	0.0154303
691.310	0.0155665
691.388	0.0158407
691.466	0.0158364
691.544	0.0162146
691.622	0.0164298
691.700	0.0165051
691.779	0.0167164
691.857	0.0169447
691.935	0.0170444
692.013	0.0171178
692.091	0.0172293
692.169	0.0173055
692.247	0.0176313
692.325	0.0175089
692.404	0.0175102
692.482	0.0177258
692.560	0.0177840
692.638	0.0176712
692.716	0.0176965
692.794	0.0178912
692.872	0.0176893
692.950	0.0178395
693.029	0.0176161
693.107	0.0176632
693.185	0.0177482
693.263	0.0177177
693.341	0.0177088
693.419	0.0177077
693.497	0.0178609
693.575	0.0177110
693.654	0.0176188
693.732	0.0177247
693.810	0.0173912
693.888	0.0173634
693.966	0.0172115
694.044	0.0169299
694.122	0.0167546
694.200	0.0164180
694.279	0.0162687
694.357	0.0160764
694.435	0.0156874
694.513	0.0154403
694.591	0.0153124
694.669	0.0151395
694.747	0.0149696
694.825	0.0148996
694.904	0.0148714
694.982	0.0148002
695.060	0.0149475
695.138	0.0151666
695.216	0.0152567
695.294	0.0153391
695.372	0.0155265
695.450	0.0156496
695.529	0.0159412
695.607	0.0158881
695.685	0.0160816
695.763	0.0162251
695.841	0.0160950
695.919	0.0163599
695.997	0.0162186
696.075	0.0163209
696.154	0.0163103
696.232	0.0161816
696.310	0.0161459
696.388	0.0158645
696.466	0.0160014
696.544	0.0158932
696.622	0.0159329
696.700	0.0159811
696.779	0.0159148
696.857	0.0161171
696.935	0.0161433
697.013	0.0161478
697.091	0.0162862
697.169	0.0161385
697.247	0.0163663
697.325	0.0165479
697.404	0.0164506
697.482	0.0167021
697.560	0.0167664
697.638	0.0168275
697.716	0.0170057
697.794	0.0171783
697.872	0.0173393
697.950	0.0174184
698.029	0.0174905
698.107	0.0177436
698.185	0.0179073
698.263	0.0180114
698.341	0.0181029
698.419	0.0181276
698.497	0.0181967
698.575	0.0181583
698.654	0.0180202
698.732	0.0179516
698.810	0.0180565
698.888	0.0178119
698.966	0.0178905
699.044	0.0175578
699.122	0.0175862
699.200	0.0173278
699.279	0.0172385
699.357	0.0171115
699.435	0.0169925
699.513	0.0167701
699.591	0.0166058
699.669	0.0165604
699.747	0.0164561
699.825	0.0162867
699.904	0.0161965
699.982	0.0159686
700.060	0.0159818
700.138	0.0158493
700.216	0.0157878
700.294	0.0157816
700.372	0.0155244
700.450	0.0155148
700.529	0.0154748
700.607	0.0156153
700.685	0.0155189
700.763	0.0155542
700.841	0.0153748
700.919	0.0153728
700.997	0.0153690
701.075	0.0153123
701.154	0.0152155
701.232	0.0154229
701.310	0.0151674
701.388	0.0153008
701.466	0.0153431
701.544	0.0153292
701.622	0.0155764
701.700	0.0156746
701.779	0.0157043
701.857	0.0158851
701.935	0.0160368
702.013	0.0161369
702.091	0.0161861
702.169	0.0163435
702.247	0.0164153
702.325	0.0163403
702.404	0.0162774
702.482	0.0164928
702.560	0.0165381
702.638	0.0166766
702.716	0.0166552
702.794	0.0168249
702.872	0.0167397
702.950	0.0167758
703.029	0.0170905
703.107	0.0171777
703.185	0.0172357
703.263	0.0174263
703.341	0.0175349
703.419	0.0176589
703.497	0.0175796
703.575	0.0175288
703.654	0.0175282
703.732	0.0175735
703.810	0.0174894
703.888	0.0174950
703.966	0.0175417
704.044	0.0173742
704.122	0.0172176
704.200	0.0173130
704.279	0.0171911
704.357	0.0171315
704.435	0.0170013
704.513	0.0169729
704.591	0.0169501
704.669	0.0168503
704.747	0.0168946
704.825	0.0167086
704.904	0.0168541
704.982	0.0166629
705.060	0.0164012
705.138	0.0164474
705.216	0.0163151
705.294	0.0163208
705.372	0.0162129
705.450	0.0163200
705.529	0.0161964
705.607	0.0162581
705.685	0.0164124
705.763	0.0162393
705.841	0.0163142
705.919	0.0162893
705.997	0.0164685
706.075	0.0165369
706.154	0.0162109
706.232	0.0163058
706.310	0.0164185
706.388	0.0162962
706.466	0.0163093
706.544	0.0161903
706.622	0.0162157
706.700	0.0160225
706.779	0.0160406
706.857	0.0159523
706.935	0.0158939
707.013	0.0159076
707.091	0.0159105
707.169	0.0160184
707.247	0.0159577
707.325	0.0161228
707.404	0.0162753
707.482	0.0163061
707.560	0.0163760
707.638	0.0164099
707.716	0.0164371
707.794	0.0165272
707.872	0.0164763
707.950	0.0164560
708.029	0.0164053
708.107	0.0164256
708.185	0.0163270
708.263	0.0162842
708.341	0.0162608
708.419	0.0163227
708.497	0.0162984
708.575	0.0162803
708.654	0.0163145
708.732	0.0162134
708.810	0.0162614
708.888	0.0161589
708.966	0.0161695
709.044	0.0163254
709.122	0.0162788
709.200	0.0162503
709.279	0.0162855
709.357	0.0163329
709.435	0.0164387
709.513	0.0164161
709.591	0.0164920
709.669	0.0167891
709.747	0.0170057
709.825	0.0169540
709.904	0.0169877
709.982	0.0171574
710.060	0.0171956
710.138	0.0172626
710.216	0.0172297
710.294	0.0172744
710.372	0.0169664
710.450	0.0170688
710.529	0.0169697
710.607	0.0169402
710.685	0.0170458
710.763	0.0169781
710.841	0.0167944
710.919	0.0168144
710.997	0.0167244
711.075	0.0166782
711.154	0.0167053
711.232	0.0166345
711.310	0.0164008
711.388	0.0164065
711.466	0.0162374
711.544	0.0163787
711.622	0.0164212
711.700	0.0164207
711.779	0.0162419
711.857	0.0164058
711.935	0.0164232
712.013	0.0165292
712.091	0.0165132
712.169	0.0165348
712.247	0.0165597
712.325	0.0166196
712.404	0.0165218
712.482	0.0164088
712.560	0.0165827
712.638	0.0165936
712.716	0.0164043
712.794	0.0164413
712.872	0.0164253
712.950	0.0165496
713.029	0.0164760
713.107	0.0165435
713.185	0.0165337
713.263	0.0164352
713.341	0.0165786
713.419	0.0166034
713.497	0.0165421
713.575	0.0165961
713.654	0.0165183
713.732	0.0164722
713.810	0.0165201
713.888	0.0164507
713.966	0.0164008
714.044	0.0164826
714.122	0.0164167
714.200	0.0164081
714.279	0.0163857
714.357	0.0163898
714.435	0.0163044
714.513	0.0163496
714.591	0.0163585
714.669	0.0163270
714.747	0.0162650
714.825	0.0163257
714.904	0.0162743
714.982	0.0161436
715.060	0.0161202
715.138	0.0162631
715.216	0.0160920
715.294	0.0160411
715.372	0.0160500
715.450	0.0161024
715.529	0.0160100
715.607	0.0159385
715.685	0.0160274
715.763	0.0161127
715.841	0.0161274
715.919	0.0160353
715.997	0.0161932
716.075	0.0162202
716.154	0.0161716
716.232	0.0162864
716.310	0.0164091
716.388	0.0164684
716.466	0.0165193
716.544	0.0166943
716.622	0.0168114
716.700	0.0168575
716.779	0.0169333
716.857	0.0171244
716.935	0.0172013
717.013	0.0170726
717.091	0.0169672
717.169	0.0171582
717.247	0.0169707
717.325	0.0169393
717.404	0.0168481
717.482	0.0168137
717.560	0.0169003
717.638	0.0166322
717.716	0.0166496
717.794	0.0166275
717.872	0.0166541
717.950	0.0166068
718.029	0.0166511
718.107	0.0165452
718.185	0.0165147
718.263	0.0165846
718.341	0.0166759
718.419	0.0166840
718.497	0.0166200
718.575	0.0165628
718.654	0.0167732
718.732	0.0168417
718.810	0.0167523
718.888	0.0166890
718.966	0.0166965
719.044	0.0167580
719.122	0.0166216
719.200	0.0166368
719.279	0.0166338
719.357	0.0166289
719.435	0.0166061
719.513	0.0167536
719.591	0.0166831
719.669	0.0166174
719.747	0.0167919
719.825	0.0167380
719.904	0.0165816
719.982	0.0165235
720.060	0.0163667
720.138	0.0165499
720.216	0.0164799
720.294	0.0162549
720.372	0.0163074
720.450	0.0162447
720.529	0.0160490
720.607	0.0161649
720.685	0.0160531
720.763	0.0161188
720.841	0.0161682
720.919	0.0161480
720.997	0.0161442
721.075	0.0162447
721.154	0.0162502
721.232	0.0163261
721.310	0.0165405
721.388	0.0165419
721.466	0.0165558
721.544	0.0167255
721.622	0.0167061
721.700	0.0167151
721.779	0.0167982
721.857	0.0167172
721.935	0.0168424
722.013	0.0165837
722.091	0.0165809
722.169	0.0165065
722.247	0.0163474
722.325	0.0163128
722.404	0.0162295
722.482	0.0162641
722.560	0.0161159
722.638	0.0161287
722.716	0.0160527
722.794	0.0160623
722.872	0.0161146
722.950	0.0162503
723.029	0.0163550
723.107	0.0163355
723.185	0.0165006
723.263	0.0164918
723.341	0.0164421
723.419	0.0165482
723.497	0.0166370
723.575	0.0167303
723.654	0.0166033
723.732	0.0165617
723.810	0.0166885
723.888	0.0165594
723.966	0.0165152
724.044	0.0165046
724.122	0.0164589
724.200	0.0164960
724.279	0.0164017
724.357	0.0165334
724.435	0.0165421
724.513	0.0165739
724.591	0.0167551
724.669	0.0166158
724.747	0.0166495
724.825	0.0167016
724.904	0.0168457
724.982	0.0168411
725.060	0.0168384
725.138	0.0168703
725.216	0.0168319
725.294	0.0167586
725.372	0.0169431
725.450	0.0167809
725.529	0.0166691
725.607	0.0167992
725.685	0.0168494
725.763	0.0167812
725.841	0.0167834
725.919	0.0166833
725.997	0.0166023
726.075	0.0165619
726.154	0.0166650
726.232	0.0166840
726.310	0.0165693
726.388	0.0165505
726.466	0.0167497
726.544	0.0165685
726.622	0.0166288
726.700	0.0165025
726.779	0.0166204
726.857	0.0165851
726.935	0.0166293
727.013	0.0164964
727.091	0.0165578
727.169	0.0165280
727.247	0.0164751
727.325	0.0164308
727.404	0.0165109
727.482	0.0164765
727.560	0.0163586
727.638	0.0164168
727.716	0.0164620
727.794	0.0163953
727.872	0.0163887
727.950	0.0163020
728.029	0.0164020
728.107	0.0163600
728.185	0.0162601
728.263	0.0161850
728.341	0.0163535
728.419	0.0162270
728.497	0.0162843
728.575	0.0162045
728.654	0.0162983
728.732	0.0163541
728.810	0.0163058
728.888	0.0163187
728.966	0.0161858
729.044	0.0161958
729.122	0.0162714
729.200	0.0163520
729.279	0.0163179
729.357	0.0164201
729.435	0.0162875
729.513	0.0163649
729.591	0.0161435
729.669	0.0162347
729.747	0.0163840
729.825	0.0162211
729.904	0.0162455
729.982	0.0161829
730.060	0.0161874
730.138	0.0162406
730.216	0.0164267
730.294	0.0162636
730.372	0.0163326
730.450	0.0164292
730.529	0.0164610
730.607	0.0165084
730.685	0.0165062
730.763	0.0163926
730.841	0.0165390
730.919	0.0166670
730.997	0.0165714
731.075	0.0166456
731.154	0.0167690
731.232	0.0165842
731.310	0.0166804
731.388	0.0167628
731.466	0.0165790
731.544	0.0167109
731.622	0.0167154
731.700	0.0167110
731.779	0.0167394
731.857	0.0167035
731.935	0.0166683
732.013	0.0167976
732.091	0.0167325
732.169	0.0167865
732.247	0.0168873
732.325	0.0168389
732.404	0.0168768
732.482	0.0169023
732.560	0.0169762
732.638	0.0169792
732.716	0.0168761
732.794	0.0168201
732.872	0.0167246
732.950	0.0166356
733.029	0.0166353
733.107	0.0166097
733.185	0.0166431
733.263	0.0163918
733.341	0.0164567
733.419	0.0163781
733.497	0.0163358
733.575	0.0163061
733.654	0.0162961
733.732	0.0163657
733.810	0.0164066
733.888	0.0162846
733.966	0.0163686
734.044	0.0165064
734.122	0.0165736
734.200	0.0164455
734.279	0.0164265
734.357	0.0164484
734.435	0.0165560
734.513	0.0166711
734.591	0.0165556
734.669	0.0165784
734.747	0.0163245
734.825	0.0165762
734.904	0.0165298
734.982	0.0165373
735.060	0.0163231
735.138	0.0164590
735.216	0.0164079
735.294	0.0164240
735.372	0.0163763
735.450	0.0162109
735.529	0.0162600
735.607	0.0162855
735.685	0.0162801
735.763	0.0163451
735.841	0.0163484
735.919	0.0161303
735.997	0.0162155
736.075	0.0164194
736.154	0.0164169
736.232	0.0162977
736.310	0.0163197
736.388	0.0163908
736.466	0.0165063
736.544	0.0164481
736.622	0.0166302
736.700	0.0165482
736.779	0.0167269
736.857	0.0166177
736.935	0.0165883
737.013	0.0167549
737.091	0.0167912
737.169	0.0168726
737.247	0.0168935
737.325	0.0168246
737.404	0.0168849
737.482	0.0167667
737.560	0.0167532
737.638	0.0168824
737.716	0.0167036
737.794	0.0166778
737.872	0.0166653
737.950	0.0165098
738.029	0.0165721
738.107	0.0165410
738.185	0.0164689
738.263	0.0164297
738.341	0.0164327
738.419	0.0163894
738.497	0.0164226
738.575	0.0163889
738.654	0.0162923
738.732	0.0163702
738.810	0.0164037
738.888	0.0163992
738.966	0.0165213
739.044	0.0164599
739.122	0.0165317
739.200	0.0164003
739.279	0.0165110
739.357	0.0165018
739.435	0.0166307
739.513	0.0165125
739.591	0.0165982
739.669	0.0165470
739.747	0.0164031
739.825	0.0165527
739.904	0.0165155
739.982	0.0165557
740.060	0.0164805
740.138	0.0163988
740.216	0.0164035
740.294	0.0163514
740.372	0.0164231
740.450	0.0163467
740.529	0.0162882
740.607	0.0164101
740.685	0.0165569
740.763	0.0164507
740.841	0.0164432
740.919	0.0165946
740.997	0.0164274
741.075	0.0165868
741.154	0.0167111
741.232	0.0167395
741.310	0.0168627
741.388	0.0168401
741.466	0.0168509
741.544	0.0168471
741.622	0.0168285
741.700	0.0168531
741.779	0.0168948
741.857	0.0169760
741.935	0.0169331
742.013	0.0169778
742.091	0.0168617
742.169	0.0168571
742.247	0.0168613
742.325	0.0166606
742.404	0.0167442
742.482	0.0166367
742.560	0.0167529
742.638	0.0168119
742.716	0.0166156
742.794	0.0164246
742.872	0.0164320
742.950	0.0164732
743.029	0.0163205
743.107	0.0165101
743.185	0.0163585
743.263	0.0164016
743.341	0.0163999
743.419	0.0163544
743.497	0.0162660
743.575	0.0165437
743.654	0.0164564
743.732	0.0164030
743.810	0.0163747
743.888	0.0163882
743.966	0.0165582
744.044	0.0164656
744.122	0.0162897
744.200	0.0163244
744.279	0.0164058
744.357	0.0163842
744.435	0.0163123
744.513	0.0162939
744.591	0.0163910
744.669	0.0163961
744.747	0.0163851
744.825	0.0163510
744.904	0.0163594
744.982	0.0164817
745.060	0.0163551
745.138	0.0161586
745.216	0.0163489
745.294	0.0163062
745.372	0.0164178
745.450	0.0163377
745.529	0.0163398
745.607	0.0164754
745.685	0.0161765
745.763	0.0163328
745.841	0.0163262
745.919	0.0163351
745.997	0.0162518
746.075	0.0162405
746.154	0.0163632
746.232	0.0163559
746.310	0.0164395
746.388	0.0165293
746.466	0.0163274
746.544	0.0164399
746.622	0.0164351
746.700	0.0164424
746.779	0.0164692
746.857	0.0165921
746.935	0.0165559
747.013	0.0164733
747.091	0.0165475
747.169	0.0165962
747.247	0.0166445
747.325	0.0166506
747.404	0.0167223
747.482	0.0167372
747.560	0.0166932
747.638	0.0165948
747.716	0.0167034
747.794	0.0167117
747.872	0.0169041
747.950	0.0166947
748.029	0.0166679
748.107	0.0166077
748.185	0.0167923
748.263	0.0168615
748.341	0.0169700
748.419	0.0168061
748.497	0.0167784
748.575	0.0168393
748.654	0.0169643
748.732	0.0168587
748.810	0.0168067
748.888	0.0168811
748.966	0.0168988
749.044	0.0168211
749.122	0.0168761
749.200	0.0167742
749.279	0.0168719
749.357	0.0166159
749.435	0.0165833
749.513	0.0166043
749.591	0.0164623
749.669	0.0165133
749.747	0.0166080
749.825	0.0165063
749.904	0.0163498
749.982	0.0162956
750.060	0.0162325
750.138	0.0163406
750.216	0.0163795
750.294	0.0163649
750.372	0.0164115
750.450	0.0164099
750.529	0.0164255
750.607	0.0164510
750.685	0.0164217
750.763	0.0164689
750.841	0.0165359
750.919	0.0165893
750.997	0.0165670
751.075	0.0165166
751.154	0.0166416
751.232	0.0165514
751.310	0.0165594
751.388	0.0163786
751.466	0.0164877
751.544	0.0165614
751.622	0.0164564
751.700	0.0163997
751.779	0.0163765
751.857	0.0163299
751.935	0.0162958
752.013	0.0162224
752.091	0.0161150
752.169	0.0161749
752.247	0.0161686
752.325	0.0162074
752.404	0.0162398
752.482	0.0161373
752.560	0.0160017
752.638	0.0161230
752.716	0.0162612
752.794	0.0162263
752.872	0.0162730
752.950	0.0163022
753.029	0.0162975
753.107	0.0164545
753.185	0.0164113
753.263	0.0164084
753.341	0.0165319
753.419	0.0166136
753.497	0.0165767
753.575	0.0165721
753.654	0.0165224
753.732	0.0166624
753.810	0.0165086
753.888	0.0165498
753.966	0.0165685
754.044	0.0165998
754.122	0.0165349
754.200	0.0166165
754.279	0.0165861
754.357	0.0166736
754.435	0.0165859
754.513	0.0164633
754.591	0.0166247
754.669	0.0167197
754.747	0.0164048
754.825	0.0166608
754.904	0.0167110
754.982	0.0168034
755.060	0.0166785
755.138	0.0166494
755.216	0.0167696
755.294	0.0166074
755.372	0.0167242
755.450	0.0169536
755.529	0.0168270
755.607	0.0168783
755.685	0.0169588
755.763	0.0167231
755.841	0.0167572
755.919	0.0167582
755.997	0.0168298
756.075	0.0168778
756.154	0.0168159
756.232	0.0167759
756.310	0.0167024
756.388	0.0168269
756.466	0.0168700
756.544	0.0167928
756.622	0.0167819
756.700	0.0168722
756.779	0.0167299
756.857	0.0167077
756.935	0.0168090
757.013	0.0167484
757.091	0.0168138
757.169	0.0168053
757.247	0.0165775
757.325	0.0166343
757.404	0.0164584
757.482	0.0165086
757.560	0.0164816
757.638	0.0162946
757.716	0.0164139
757.794	0.0163775
757.872	0.0162917
757.950	0.0163015
758.029	0.0163194
758.107	0.0161813
758.185	0.0163125
758.263	0.0161349
758.341	0.0163197
758.419	0.0162873
758.497	0.0162512
758.575	0.0162785
758.654	0.0163097
758.732	0.0162982
758.810	0.0162930
758.888	0.0163811
758.966	0.0162445
759.044	0.0162785
759.122	0.0163121
759.200	0.0164080
759.279	0.0163386
759.357	0.0162405
759.435	0.0162142
759.513	0.0162577
759.591	0.0163446
759.669	0.0163946
759.747	0.0163182
759.825	0.0164346
759.904	0.0165411
759.982	0.0165358
760.060	0.0163770
760.138	0.0164398
760.216	0.0164741
760.294	0.0166016
760.372	0.0165759
760.450	0.0165919
760.529	0.0165860
760.607	0.0167004
760.685	0.0166494
760.763	0.0166296
760.841	0.0165954
760.919	0.0167283
760.997	0.0166128
761.075	0.0166302
761.154	0.0167791
761.232	0.0167051
761.310	0.0167681
761.388	0.0165524
761.466	0.0167587
761.544	0.0167291
761.622	0.0167353
761.700	0.0167973
761.779	0.0167137
761.857	0.0167696
761.935	0.0166132
762.013	0.0168102
762.091	0.0167152
762.169	0.0166926
762.247	0.0165805
762.325	0.0165917
762.404	0.0165890
762.482	0.0164080
762.560	0.0164938
762.638	0.0165475
762.716	0.0164547
762.794	0.0164497
762.872	0.0164087
762.950	0.0164545
763.029	0.0163922
763.107	0.0165723
763.185	0.0165202
763.263	0.0163984
763.341	0.0164880
763.419	0.0165945
763.497	0.0166756
763.575	0.0165698
763.654	0.0166843
763.732	0.0167908
763.810	0.0165850
763.888	0.0167232
763.966	0.0166549
764.044	0.0167568
764.122	0.0167237
764.200	0.0167581
764.279	0.0167730
764.357	0.0167039
764.435	0.0166994
764.513	0.0168655
764.591	0.0168279
764.669	0.0169530
764.747	0.0168298
764.825	0.0167781
764.904	0.0168309
764.982	0.0169839
765.060	0.0167870
765.138	0.0169160
765.216	0.0166850
765.294	0.0165759
765.372	0.0166335
765.450	0.0166827
765.529	0.0165576
765.607	0.0165125
765.685	0.0165974
765.763	0.0165229
765.841	0.0163645
765.919	0.0162378
765.997	0.0161387
766.075	0.0161545
766.154	0.0162320
766.232	0.0161233
766.310	0.0162089
766.388	0.0163132
766.466	0.0163170
766.544	0.0162840
766.622	0.0161353
766.700	0.0160698
766.779	0.0163748
766.857	0.0163383
766.935	0.0162360
767.013	0.0162515
767.091	0.0163898
767.169	0.0164183
767.247	0.0164489
767.325	0.0162742
767.404	0.0162119
767.482	0.0163406
767.560	0.0163385
767.638	0.0164672
767.716	0.0163829
767.794	0.0163282
767.872	0.0163754
767.950	0.0163040
768.029	0.0163133
768.107	0.0161830
768.185	0.0163612
768.263	0.0163707
768.341	0.0163171
768.419	0.0163546
768.497	0.0164423
768.575	0.0162719
768.654	0.0163817
768.732	0.0165154
768.810	0.0164932
768.888	0.0165966
768.966	0.0164399
769.044	0.0165032
769.122	0.0168114
769.200	0.0167838
769.279	0.0167363
769.357	0.0167274
769.435	0.0168598
769.513	0.0169779
769.591	0.0167274
769.669	0.0168764
769.747	0.0168887
769.825	0.0168393
769.904	0.0169981
769.982	0.0169308
770.060	0.0168320
770.138	0.0168114
770.216	0.0168665
770.294	0.0168963
770.372	0.0168333
770.450	0.0168192
770.529	0.0167827
770.607	0.0166911
770.685	0.0168528
770.763	0.0168179
770.841	0.0167357
770.919	0.0167257
770.997	0.0166602
771.075	0.0167052
771.154	0.0166519
771.232	0.0166470
771.310	0.0165805
771.388	0.0165907
771.466	0.0165138
771.544	0.0165952
771.622	0.0164895
771.700	0.0162820
771.779	0.0164130
771.857	0.0163493
771.935	0.0163524
772.013	0.0163136
772.091	0.0162380
772.169	0.0162480
772.247	0.0163055
772.325	0.0161122
772.404	0.0160973
772.482	0.0161901
772.560	0.0162481
772.638	0.0163258
772.716	0.0162947
772.794	0.0163256
772.872	0.0163501
772.950	0.0163860
773.029	0.0164004
773.107	0.0163462
773.185	0.0165253
773.263	0.0165037
773.341	0.0164677
773.419	0.0164700
773.497	0.0165595
773.575	0.0163539
773.654	0.0163610
773.732	0.0164366
773.810	0.0164235
773.888	0.0163469
773.966	0.0164993
774.044	0.0161887
774.122	0.0163586
774.200	0.0163732
774.279	0.0162736
774.357	0.0162570
774.435	0.0161343
774.513	0.0162556
774.591	0.0161601
774.669	0.0162343
774.747	0.0162103
774.825	0.0163071
774.904	0.0162408
774.982	0.0162434
775.060	0.0162241
775.138	0.0164182
775.216	0.0164388
775.294	0.0163721
775.372	0.0164093
775.450	0.0164844
775.529	0.0165929
775.607	0.0165918
775.685	0.0165555
775.763	0.0166608
775.841	0.0167738
775.919	0.0165829
775.997	0.0166403
776.075	0.0166697
776.154	0.0166938
776.232	0.0166525
776.310	0.0166518
776.388	0.0166022
776.466	0.0165987
776.544	0.0166716
776.622	0.0167136
776.700	0.0165907
776.779	0.0167667
776.857	0.0166961
776.935	0.0166429
777.013	0.0166948
777.091	0.0166241
777.169	0.0165166
777.247	0.0164881
777.325	0.0163470
777.404	0.0165231
777.482	0.0164479
777.560	0.0164774
777.638	0.0163834
777.716	0.0164571
777.794	0.0164577
777.872	0.0165962
777.950	0.0165702
778.029	0.0165880
778.107	0.0166770
778.185	0.0167112
778.263	0.0167464
778.341	0.0168980
778.419	0.0167520
778.497	0.0167595
778.575	0.0169245
778.654	0.0168150
778.732	0.0166762
778.810	0.0166979
778.888	0.0166781
778.966	0.0167817
779.044	0.0165694
779.122	0.0166206
779.200	0.0165553
779.279	0.0166135
779.357	0.0164856
779.435	0.0165395
779.513	0.0163970
779.591	0.0163084
779.669	0.0163060
779.747	0.0162773
779.825	0.0162042
779.904	0.0163096
779.982	0.0162368
780.060	0.0162426
780.138	0.0163013
780.216	0.0162344
780.294	0.0161949
780.372	0.0163116
780.450	0.0163585
780.529	0.0163384
780.607	0.0163609
780.685	0.0163516
780.763	0.0164825
780.841	0.0164861
780.919	0.0163456
780.997	0.0164762
781.075	0.0166560
781.154	0.0164601
781.232	0.0166604
781.310	0.0165340
781.388	0.0164565
781.466	0.0164686
781.544	0.0164823
781.622	0.0164165
781.700	0.0163692
781.779	0.0165485
781.857	0.0163906
781.935	0.0162091
782.013	0.0163315
782.091	0.0162432
782.169	0.0162849
782.247	0.0163027
782.325	0.0163042
782.404	0.0164127
782.482	0.0165421
782.560	0.0165359
782.638	0.0165266
782.716	0.0165139
782.794	0.0166658
782.872	0.0165652
782.950	0.0167148
783.029	0.0166850
783.107	0.0165902
783.185	0.0166924
783.263	0.0167859
783.341	0.0166991
783.419	0.0167155
783.497	0.0166034
783.575	0.0167195
783.654	0.0166596
783.732	0.0165417
783.810	0.0166109
783.888	0.0164906
783.966	0.0167056
784.044	0.0166894
784.122	0.0164570
784.200	0.0163322
784.279	0.0164471
784.357	0.0166050
784.435	0.0165497
784.513	0.0165958
784.591	0.0165716
784.669	0.0164970
784.747	0.0165915
784.825	0.0166019
784.904	0.0165742
784.982	0.0166402
785.060	0.0165272
785.138	0.0167449
785.216	0.0166596
785.294	0.0167895
785.372	0.0168004
785.450	0.0168240
785.529	0.0166679
785.607	0.0166908
785.685	0.0169070
785.763	0.0169783
785.841	0.0168607
785.919	0.0167880
785.997	0.0168230
786.075	0.0167826
786.154	0.0167072
786.232	0.0168935
786.310	0.0168279
786.388	0.0167010
786.466	0.0166748
786.544	0.0166012
786.622	0.0165162
786.700	0.0166167
786.779	0.0165327
786.857	0.0163802
786.935	0.0163344
787.013	0.0164565
787.091	0.0163385
787.169	0.0162962
787.247	0.0161842
787.325	0.0160638
787.404	0.0160875
787.482	0.0160640
787.560	0.0160948
787.638	0.0160327
787.716	0.0160445
787.794	0.0161642
787.872	0.0160827
787.950	0.0161357
788.029	0.0161196
788.107	0.0160094
788.185	0.0160762
788.263	0.0162099
788.341	0.0162051
788.419	0.0161979
788.497	0.0163566
788.575	0.0163136
788.654	0.0164344
788.732	0.0163086
788.810	0.0164662
788.888	0.0166290
788.966	0.0164944
789.044	0.0165939
789.122	0.0167587
789.200	0.0167349
789.279	0.0168307
789.357	0.0166516
789.435	0.0168046
789.513	0.0168900
789.591	0.0166474
789.669	0.0166441
789.747	0.0167294
789.825	0.0166071
789.904	0.0166588
789.982	0.0166875
790.060	0.0166132
790.138	0.0165653
790.216	0.0168807
790.294	0.0166919
790.372	0.0167101
790.450	0.0167030
790.529	0.0168523
790.607	0.0166203
790.685	0.0166830
790.763	0.0166967
790.841	0.0167044
790.919	0.0167730
790.997	0.0166837
791.075	0.0166478
791.154	0.0165886
791.232	0.0167416
791.310	0.0167935
791.388	0.0166128
791.466	0.0167555
791.544	0.0164739
791.622	0.0165012
791.700	0.0166428
791.779	0.0165268
791.857	0.0164703
791.935	0.0165873
792.013	0.0164195
792.091	0.0163577
792.169	0.0163958
792.247	0.0162553
792.325	0.0163363
792.404	0.0164355
792.482	0.0163222
792.560	0.0163434
792.638	0.0161660
792.716	0.0161902
792.794	0.0161150
792.872	0.0162940
792.950	0.0161899
793.029	0.0162698
793.107	0.0163600
793.185	0.0164272
793.263	0.0164359
793.341	0.0164922
793.419	0.0164839
793.497	0.0165924
793.575	0.0165945
793.654	0.0165696
793.732	0.0165066
793.810	0.0164783
793.888	0.0164962
793.966	0.0165565
794.044	0.0164478
794.122	0.0165639
794.200	0.0166486
794.279	0.0165085
794.357	0.0165244
794.435	0.0165537
794.513	0.0166621
794.591	0.0166675
794.669	0.0166100
794.747	0.0165831
794.825	0.0166942
794.904	0.0167364
794.982	0.0166362
795.060	0.0166111
795.138	0.0166717
795.216	0.0165885
795.294	0.0166051
795.372	0.0166608
795.450	0.0165223
795.529	0.0165412
795.607	0.0166209
795.685	0.0165702
795.763	0.0165778
795.841	0.0164339
795.919	0.0165065
795.997	0.0165079
796.075	0.0163683
796.154	0.0163855
796.232	0.0163676
796.310	0.0163868
796.388	0.0163845
796.466	0.0162309
796.544	0.0161752
796.622	0.0164248
796.700	0.0163058
796.779	0.0162351
796.857	0.0162191
796.935	0.0163926
797.013	0.0163625
797.091	0.0164407
797.169	0.0164461
797.247	0.0162452
797.325	0.0162941
797.404	0.0163708
797.482	0.0163347
797.560	0.0163293
797.638	0.0162856
797.716	0.0163302
797.794	0.0163476
797.872	0.0163274
797.950	0.0165054
798.029	0.0163966
798.107	0.0162271
798.185	0.0163422
798.263	0.0162823
798.341	0.0162444
798.419	0.0164432
798.497	0.0164401
798.575	0.0163257
798.654	0.0164664
798.732	0.0164535
798.810	0.0163751
798.888	0.0163602
798.966	0.0162564
799.044	0.0162725
799.122	0.0164216
799.200	0.0164944
799.279	0.0163115
799.357	0.0163152
799.435	0.0163870
799.513	0.0162313
799.591	0.0164491
799.669	0.0164403
799.747	0.0163196
799.825	0.0164434
799.904	0.0164458
799.982	0.0163306
800.060	0.0166073
800.138	0.0164944
800.216	0.0164304
800.294	0.0166371
800.372	0.0167145
800.450	0.0166790
800.529	0.0167149
800.607	0.0166762
800.685	0.0167349
800.763	0.0167846
800.841	0.0167775
800.919	0.0167648
800.997	0.0167207
801.075	0.0168977
801.154	0.0170031
801.232	0.0167194
801.310	0.0167542
801.388	0.0166346
801.466	0.0166014
801.544	0.0165739
801.622	0.0164854
801.700	0.0163995
801.779	0.0163773
801.857	0.0164496
801.935	0.0165149
802.013	0.0165152
802.091	0.0164168
802.169	0.0162922
802.247	0.0163201
802.325	0.0162434
802.404	0.0162641
802.482	0.0163679
802.560	0.0163467
802.638	0.0163072
802.716	0.0163883
802.794	0.0162225
802.872	0.0162125
802.950	0.0164020
803.029	0.0163297
803.107	0.0163726
803.185	0.0163366
803.263	0.0164429
803.341	0.0162843
803.419	0.0164097
803.497	0.0163726
803.575	0.0163044
803.654	0.0164881
803.732	0.0165669
803.810	0.0163807
803.888	0.0165324
803.966	0.0163549
804.044	0.0164317
804.122	0.0163983
804.200	0.0163866
804.279	0.0162602
804.357	0.0162798
804.435	0.0163055
804.513	0.0162112
804.591	0.0162513
804.669	0.0161411
804.747	0.0161839
804.825	0.0162994
804.904	0.0161647
804.982	0.0162117
805.060	0.0161244
805.138	0.0161919
805.216	0.0162861
805.294	0.0163016
805.372	0.0164062
805.450	0.0163699
805.529	0.0165741
805.607	0.0165462
805.685	0.0166905
805.763	0.0165175
805.841	0.0164668
805.919	0.0167799
805.997	0.0167451
806.075	0.0167344
806.154	0.0168095
806.232	0.0166821
806.310	0.0167616
806.388	0.0167960
806.466	0.0168436
806.544	0.0168045
806.622	0.0167506
806.700	0.0168179
806.779	0.0168831
806.857	0.0167035
806.935	0.0167957
807.013	0.0167334
807.091	0.0166362
807.169	0.0165986
807.247	0.0167188
807.325	0.0166307
807.404	0.0166580
807.482	0.0165390
807.560	0.0164343
807.638	0.0165251
807.716	0.0165630
807.794	0.0163652
807.872	0.0164124
807.950	0.0164894
808.029	0.0165645
808.107	0.0165369
808.185	0.0165341
808.263	0.0165771
808.341	0.0163721
808.419	0.0163773
808.497	0.0163846
808.575	0.0165070
808.654	0.0164240
808.732	0.0165284
808.810	0.0164854
808.888	0.0164136
808.966	0.0163119
809.044	0.0163170
809.122	0.0164431
809.200	0.0163354
809.279	0.0163622
809.357	0.0164877
809.435	0.0164124
809.513	0.0164008
809.591	0.0164200
809.669	0.0164563
809.747	0.0165416
809.825	0.0163927
809.904	0.0165174
809.982	0.0165770
810.060	0.0165466
810.138	0.0165332
810.216	0.0165308
810.294	0.0165608
810.372	0.0166594
810.450	0.0165903
810.529	0.0165501
810.607	0.0165932
810.685	0.0165952
810.763	0.0165174
810.841	0.0165070
810.919	0.0165896
810.997	0.0164908
811.075	0.0166664
811.154	0.0166196
811.232	0.0164906
811.310	0.0164290
811.388	0.0166648
811.466	0.0165807
811.544	0.0165144
811.622	0.0164957
811.700	0.0164246
811.779	0.0165172
811.857	0.0164117
811.935	0.0162241
812.013	0.0164401
812.091	0.0165350
812.169	0.0163325
812.247	0.0163064
812.325	0.0165176
812.404	0.0165361
812.482	0.0163728
812.560	0.0163815
812.638	0.0162376
812.716	0.0164876
812.794	0.0164872
812.872	0.0163281
812.950	0.0163676
813.029	0.0165233
813.107	0.0165427
813.185	0.0164461
813.263	0.0164341
813.341	0.0165769
813.419	0.0166257
813.497	0.0165336
813.575	0.0166427
813.654	0.0164621
813.732	0.0164003
813.810	0.0165256
813.888	0.0165617
813.966	0.0164450
814.044	0.0165242
814.122	0.0163784
814.200	0.0165639
814.279	0.0166354
814.357	0.0165677
814.435	0.0164793
814.513	0.0165609
814.591	0.0166322
814.669	0.0165274
814.747	0.0165782
814.825	0.0165122
814.904	0.0166652
814.982	0.0164683
815.060	0.0165639
815.138	0.0165353
815.216	0.0164116
815.294	0.0165305
815.372	0.0165740
815.450	0.0165262
815.529	0.0165518
815.607	0.0165665
815.685	0.0166715
815.763	0.0167057
815.841	0.0167464
815.919	0.0165717
815.997	0.0167989
816.075	0.0168636
816.154	0.0167931
816.232	0.0166602
816.310	0.0167820
816.388	0.0167333
816.466	0.0166011
816.544	0.0166241
816.622	0.0167053
816.700	0.0166349
816.779	0.0165948
816.857	0.0164378
816.935	0.0165760
817.013	0.0166504
817.091	0.0164629
817.169	0.0164530
817.247	0.0164985
817.325	0.0165495
817.404	0.0163879
817.482	0.0164716
817.560	0.0164226
817.638	0.0165447
817.716	0.0164877
817.794	0.0166052
817.872	0.0165018
817.950	0.0164560
818.029	0.0164247
818.107	0.0164250
818.185	0.0165749
818.263	0.0164002
818.341	0.0163686
818.419	0.0164071
818.497	0.0164900
818.575	0.0164526
818.654	0.0165679
818.732	0.0165414
818.810	0.0163978
818.888	0.0166560
818.966	0.0165083
819.044	0.0166174
819.122	0.0164536
819.200	0.0164792
819.279	0.0165168
819.357	0.0165495
819.435	0.0164990
819.513	0.0164706
819.591	0.0164519
819.669	0.0165226
819.747	0.0165263
819.825	0.0165475
819.904	0.0163704
819.982	0.0164441
820.060	0.0164666
820.138	0.0164326
820.216	0.0164413
820.294	0.0164197
820.372	0.0164461
820.450	0.0165835
820.529	0.0163011
820.607	0.0163549
820.685	0.0165536
820.763	0.0165198
820.841	0.0165183
820.919	0.0164619
820.997	0.0166344
821.075	0.0164290
821.154	0.0164179
821.232	0.0164885
821.310	0.0164577
821.388	0.0164795
821.466	0.0165407
821.544	0.0163573
821.622	0.0166373
821.700	0.0164748
821.779	0.0164277
821.857	0.0164233
821.935	0.0162617
822.013	0.0164307
822.091	0.0165720
822.169	0.0163872
822.247	0.0164378
822.325	0.0165073
822.404	0.0164494
822.482	0.0164247
822.560	0.0164343
822.638	0.0164301
822.716	0.0163856
822.794	0.0163773
822.872	0.0164345
822.950	0.0164706
823.029	0.0164543
823.107	0.0164710
823.185	0.0164463
823.263	0.0165603
823.341	0.0166534
823.419	0.0166534
823.497	0.0165446
823.575	0.0165469
823.654	0.0166236
823.732	0.0166645
823.810	0.0167967
823.888	0.0165937
823.966	0.0164942
824.044	0.0167467
824.122	0.0167208
824.200	0.0166941
824.279	0.0165992
824.357	0.0165845
824.435	0.0166535
824.513	0.0166106
824.591	0.0166713
824.669	0.0166091
824.747	0.0165878
824.825	0.0165874
824.904	0.0166544
824.982	0.0166441
825.060	0.0165195
825.138	0.0166431
825.216	0.0166490
825.294	0.0167077
825.372	0.0167072
825.450	0.0165433
825.529	0.0165806
825.607	0.0166975
825.685	0.0166579
825.763	0.0164939
825.841	0.0165424
825.919	0.0164864
825.997	0.0165163
826.075	0.0164652
826.154	0.0165449
826.232	0.0164913
826.310	0.0165128
826.388	0.0165253
826.466	0.0163759
826.544	0.0165514
826.622	0.0164588
826.700	0.0165161
826.779	0.0165256
826.857	0.0163711
826.935	0.0165363
827.013	0.0166132
827.091	0.0164809
827.169	0.0164897
827.247	0.0165273
827.325	0.0164991
827.404	0.0164478
827.482	0.0164425
827.560	0.0165858
827.638	0.0166177
827.716	0.0164719
827.794	0.0163713
827.872	0.0165163
827.950	0.0164626
828.029	0.0164932
828.107	0.0164599
828.185	0.0164434
828.263	0.0164767
828.341	0.0163834
828.419	0.0164427
828.497	0.0165954
828.575	0.0163898
828.654	0.0165755
828.732	0.0164935
828.810	0.0164444
828.888	0.0161679
828.966	0.0162537
829.044	0.0165034
829.122	0.0164107
829.200	0.0162814
829.279	0.0163139
829.357	0.0162566
829.435	0.0164395
829.513	0.0161455
829.591	0.0160342
829.669	0.0161334
829.747	0.0161476
829.825	0.0161514
829.904	0.0162789
829.982	0.0164661
830.060	0.0161340
830.138	0.0162746
830.216	0.0165004
830.294	0.0164456
830.372	0.0164051
830.450	0.0162611
830.529	0.0164073
830.607	0.0166628
830.685	0.0165915
830.763	0.0165914
830.841	0.0165476
830.919	0.0165521
830.997	0.0167669
831.075	0.0166234
831.154	0.0165759
831.232	0.0167119
831.310	0.0165299
831.388	0.0166116
831.466	0.0167899
831.544	0.0166174
831.622	0.0166039
831.700	0.0166694
831.779	0.0167043
831.857	0.0166815
831.935	0.0165923
832.013	0.0166425
832.091	0.0166608
832.169	0.0165791
832.247	0.0165676
832.325	0.0164238
832.404	0.0165247
832.482	0.0165283
832.560	0.0164711
832.638	0.0163688
832.716	0.0163672
832.794	0.0165983
832.872	0.0164122
832.950	0.0165257
833.029	0.0164757
833.107	0.0164731
833.185	0.0166014
833.263	0.0167032
833.341	0.0166552
833.419	0.0165092
833.497	0.0165470
833.575	0.0165506
833.654	0.0164866
833.732	0.0167953
833.810	0.0165836
833.888	0.0165752
833.966	0.0164256
834.044	0.0164735
834.122	0.0165092
834.200	0.0165302
834.279	0.0165415
834.357	0.0163388
834.435	0.0164460
834.513	0.0164619
834.591	0.0164185
834.669	0.0163680
834.747	0.0164538
834.825	0.0162270
834.904	0.0164043
834.982	0.0163600
835.060	0.0165887
835.138	0.0164008
835.216	0.0164714
835.294	0.0164781
835.372	0.0164839
835.450	0.0165712
835.529	0.0165950
835.607	0.0165554
835.685	0.0164319
835.763	0.0164886
835.841	0.0165089
835.919	0.0164832
835.997	0.0164619
836.075	0.0164550
836.154	0.0164377
836.232	0.0164654
836.310	0.0165181
836.388	0.0164747
836.466	0.0164621
836.544	0.0164928
836.622	0.0164856
836.700	0.0164356
836.779	0.0164336
836.857	0.0164918
836.935	0.0163651
837.013	0.0163650
837.091	0.0165594
837.169	0.0164622
837.247	0.0165155
837.325	0.0163890
837.404	0.0163822
837.482	0.0164432
837.560	0.0165987
837.638	0.0163806
837.716	0.0164888
837.794	0.0164114
837.872	0.0164819
837.950	0.0165047
838.029	0.0165229
838.107	0.0163801
838.185	0.0165124
838.263	0.0164636
838.341	0.0165720
838.419	0.0166781
838.497	0.0164826
838.575	0.0166602
838.654	0.0166052
838.732	0.0165160
838.810	0.0166006
838.888	0.0165916
838.966	0.0166405
839.044	0.0166717
839.122	0.0167691
839.200	0.0167143
839.279	0.0166665
839.357	0.0166328
839.435	0.0166140
839.513	0.0166537
839.591	0.0167255
839.669	0.0167073
839.747	0.0167235
839.825	0.0166439
839.904	0.0166640
839.982	0.0166991
840.060	0.0167667
840.138	0.0166699
840.216	0.0165367
840.294	0.0165192
840.372	0.0166288
840.450	0.0166608
840.529	0.0165990
840.607	0.0167178
840.685	0.0166047
840.763	0.0165958
840.841	0.0166878
840.919	0.0166657
840.997	0.0166486
841.075	0.0166412
841.154	0.0166431
841.232	0.0166876
841.310	0.0167213
841.388	0.0165884
841.466	0.0166420
841.544	0.0165074
841.622	0.0165952
841.700	0.0165554
841.779	0.0165984
841.857	0.0164362
841.935	0.0165051
842.013	0.0165508
842.091	0.0166386
842.169	0.0165055
842.247	0.0164124
842.325	0.0165538
842.404	0.0165833
842.482	0.0166334
842.560	0.0164491
842.638	0.0164890
842.716	0.0165656
842.794	0.0166323
842.872	0.0164251
842.950	0.0163901
843.029	0.0164152
843.107	0.0165012
843.185	0.0164661
843.263	0.0163070
843.341	0.0164687
843.419	0.0163460
843.497	0.0163071
843.575	0.0163357
843.654	0.0164763
843.732	0.0163752
843.810	0.0163243
843.888	0.0163014
843.966	0.0164419
844.044	0.0163538
844.122	0.0163515
844.200	0.0164569
844.279	0.0163206
844.357	0.0163059
844.435	0.0165916
844.513	0.0164330
844.591	0.0164478
844.669	0.0166174
844.747	0.0164899
844.825	0.0164089
844.904	0.0165046
844.982	0.0162914
845.060	0.0164346
845.138	0.0164169
845.216	0.0164828
845.294	0.0163873
845.372	0.0164001
845.450	0.0164974
845.529	0.0164858
845.607	0.0164899
845.685	0.0164886
845.763	0.0164906
845.841	0.0165348
845.919	0.0163407
845.997	0.0165629
846.075	0.0166258
846.154	0.0166113
846.232	0.0165823
846.310	0.0166801
846.388	0.0166280
846.466	0.0167744
846.544	0.0165678
846.622	0.0165999
846.700	0.0168256
846.779	0.0166200
846.857	0.0165775
846.935	0.0166017
847.013	0.0165640
847.091	0.0166238
847.169	0.0166682
847.247	0.0166335
847.325	0.0166478
847.404	0.0166283
847.482	0.0166479
847.560	0.0166119
847.638	0.0165086
847.716	0.0165575
847.794	0.0166668
847.872	0.0166766
847.950	0.0166599
848.029	0.0166604
848.107	0.0167500
848.185	0.0167039
848.263	0.0167158
848.341	0.0167867
848.419	0.0168855
848.497	0.0168239
848.575	0.0169621
848.654	0.0169948
848.732	0.0168417
848.810	0.0168907
848.888	0.0167196
848.966	0.0167846
849.044	0.0167743
849.122	0.0167027
849.200	0.0167709
849.279	0.0166251
849.357	0.0167201
849.435	0.0165685
849.513	0.0166129
849.591	0.0164761
849.669	0.0163730
849.747	0.0164307
849.825	0.0164303
849.904	0.0163623
849.982	0.0163039
850.060	0.0163966
850.138	0.0162413
850.216	0.0161684
850.294	0.0162499
850.372	0.0162809
850.450	0.0162276
850.529	0.0161385
850.607	0.0161404
850.685	0.0161771
850.763	0.0162636
850.841	0.0162606
850.919	0.0160674
850.997	0.0161115
851.075	0.0162961
851.154	0.0162365
851.232	0.0162304
851.310	0.0161699
851.388	0.0163668
851.466	0.0164159
851.544	0.0162952
851.622	0.0164695
851.700	0.0164253
851.779	0.0164378
851.857	0.0165576
851.935	0.0166433
852.013	0.0166170
852.091	0.0166399
852.169	0.0166946
852.247	0.0166759
852.325	0.0166245
852.404	0.0166405
852.482	0.0164801
852.560	0.0165974
852.638	0.0166740
852.716	0.0165892
852.794	0.0163770
852.872	0.0164673
852.950	0.0163227
853.029	0.0163095
853.107	0.0162891
853.185	0.0162435
853.263	0.0163602
853.341	0.0163356
853.419	0.0163152
853.497	0.0162203
853.575	0.0164655
853.654	0.0163688
853.732	0.0163777
853.810	0.0164163
853.888	0.0164501
853.966	0.0166696
854.044	0.0166515
854.122	0.0165775
854.200	0.0166606
854.279	0.0166151
854.357	0.0166129
854.435	0.0167081
854.513	0.0167635
854.591	0.0166856
854.669	0.0167171
854.747	0.0167242
854.825	0.0165993
854.904	0.0166238
854.982	0.0167236
855.060	0.0167719
855.138	0.0168754
855.216	0.0167735
855.294	0.0168209
855.372	0.0168295
855.450	0.0167540
855.529	0.0168056
855.607	0.0167727
855.685	0.0166668
855.763	0.0166963
855.841	0.0166544
855.919	0.0166017
855.997	0.0166605
856.075	0.0164220
856.154	0.0164906
856.232	0.0164904
856.310	0.0165536
856.388	0.0165359
856.466	0.0163338
856.544	0.0164139
856.622	0.0163692
856.700	0.0164511
856.779	0.0164972
856.857	0.0165191
856.935	0.0163636
857.013	0.0164465
857.091	0.0163943
857.169	0.0164069
857.247	0.0164650
857.325	0.0165257
857.404	0.0163704
857.482	0.0163556
857.560	0.0164228
857.638	0.0164032
857.716	0.0164491
857.794	0.0162276
857.872	0.0163203
857.950	0.0161962
858.029	0.0163190
858.107	0.0162093
858.185	0.0162517
858.263	0.0162199
858.341	0.0160658
858.419	0.0160826
858.497	0.0160305
858.575	0.0159874
858.654	0.0159523
858.732	0.0160623
858.810	0.0162376
858.888	0.0161937
858.966	0.0162013
859.044	0.0161555
859.122	0.0160772
859.200	0.0160849
859.279	0.0160202
859.357	0.0162508
859.435	0.0163292
859.513	0.0164142
859.591	0.0163876
859.669	0.0165103
859.747	0.0166138
859.825	0.0166698
859.904	0.0166051
859.982	0.0167123
860.060	0.0167879
860.138	0.0168434
860.216	0.0168462
860.294	0.0168397
860.372	0.0169189
860.450	0.0168564
860.529	0.0167395
860.607	0.0167463
860.685	0.0165943
860.763	0.0166400
860.841	0.0164837
860.919	0.0163944
860.997	0.0163338
861.075	0.0161670
861.154	0.0162488
861.232	0.0161362
861.310	0.0162077
861.388	0.0161404
861.466	0.0162090
861.544	0.0163748
861.622	0.0162933
861.700	0.0164146
861.779	0.0164272
861.857	0.0164612
861.935	0.0165172
862.013	0.0167689
862.091	0.0167719
862.169	0.0168267
862.247	0.0169399
862.325	0.0170278
862.404	0.0170189
862.482	0.0169599
862.560	0.0168529
862.638	0.0168816
862.716	0.0167714
862.794	0.0166293
862.872	0.0166840
862.950	0.0167086
863.029	0.0165260
863.107	0.0163861
863.185	0.0163795
863.263	0.0163165
863.341	0.0161705
863.419	0.0162782
863.497	0.0162825
863.575	0.0163548
863.654	0.0165424
863.732	0.0164555
863.810	0.0165827
863.888	0.0168239
863.966	0.0167826
864.044	0.0166817
864.122	0.0167899
864.200	0.0167315
864.279	0.0168213
864.357	0.0166949
864.435	0.0168282
864.513	0.0167877
864.591	0.0167124
864.669	0.0167442
864.747	0.0167279
864.825	0.0167422
864.904	0.0167995
864.982	0.0165784
865.060	0.0167119
865.138	0.0166611
865.216	0.0166450
865.294	0.0165578
865.372	0.0166124
865.450	0.0165817
865.529	0.0164411
865.607	0.0163692
865.685	0.0163811
865.763	0.0163400
865.841	0.0162195
865.919	0.0160720
865.997	0.0160541
866.075	0.0159613
866.154	0.0159079
866.232	0.0159085
866.310	0.0159338
866.388	0.0159781
866.466	0.0157582
866.544	0.0159941
866.622	0.0158916
866.700	0.0161597
866.779	0.0161017
866.857	0.0162755
866.935	0.0162172
867.013	0.0163499
867.091	0.0163783
867.169	0.0163280
867.247	0.0165587
867.325	0.0165212
867.404	0.0167442
867.482	0.0166035
867.560	0.0168047
867.638	0.0168381
867.716	0.0169060
867.794	0.0169041
867.872	0.0169630
867.950	0.0169563
868.029	0.0170002
868.107	0.0169346
868.185	0.0170190
868.263	0.0169739
868.341	0.0169463
868.419	0.0169299
868.497	0.0168262
868.575	0.0168533
868.654	0.0167451
868.732	0.0167590
868.810	0.0166886
868.888	0.0166618
868.966	0.0165370
869.044	0.0165553
869.122	0.0164310
869.200	0.0164338
869.279	0.0164507
869.357	0.0164185
869.435	0.0165108
869.513	0.0165428
869.591	0.0165090
869.669	0.0165128
869.747	0.0165911
869.825	0.0166841
869.904	0.0166429
869.982	0.0166291
870.060	0.0166986
870.138	0.0168316
870.216	0.0167213
870.294	0.0168011
870.372	0.0167638
870.450	0.0168232
870.529	0.0167317
870.607	0.0166822
870.685	0.0167547
870.763	0.0166896
870.841	0.0166840
870.919	0.0167239
870.997	0.0167426
871.075	0.0165508
871.154	0.0166344
871.232	0.0166425
871.310	0.0166884
871.388	0.0166232
871.466	0.0165833
871.544	0.0166913
871.622	0.0165876
871.700	0.0165179
871.779	0.0165647
871.857	0.0163952
871.935	0.0164164
872.013	0.0163790
872.091	0.0164027
872.169	0.0163364
872.247	0.0163428
872.325	0.0162578
872.404	0.0162634
872.482	0.0161738
872.560	0.0160423
872.638	0.0160902
872.716	0.0161572
872.794	0.0163641
872.872	0.0164775
872.950	0.0162528
873.029	0.0162980
873.107	0.0164070
873.185	0.0163712
873.263	0.0164140
873.341	0.0164312
873.419	0.0165665
873.497	0.0164782
873.575	0.0165711
873.654	0.0164875
873.732	0.0163815
873.810	0.0165069
873.888	0.0164897
873.966	0.0164185
874.044	0.0162769
874.122	0.0161249
874.200	0.0162132
874.279	0.0161320
874.357	0.0161832
874.435	0.0161949
874.513	0.0161706
874.591	0.0160949
874.669	0.0161198
874.747	0.0161148
874.825	0.0161775
874.904	0.0162023
874.982	0.0162630
875.060	0.0163898
875.138	0.0163799
875.216	0.0163078
875.294	0.0165306
875.372	0.0164649
875.450	0.0165736
875.529	0.0168209
875.607	0.0166396
875.685	0.0167696
875.763	0.0165602
875.841	0.0167577
875.919	0.0167748
875.997	0.0166704
876.075	0.0168638
876.154	0.0167107
876.232	0.0166616
876.310	0.0166403
876.388	0.0165427
876.466	0.0165616
876.544	0.0166284
876.622	0.0165060
876.700	0.0163937
876.779	0.0164824
876.857	0.0162800
876.935	0.0164137
877.013	0.0165290
877.091	0.0164156
877.169	0.0165469
877.247	0.0165403
877.325	0.0165006
877.404	0.0166893
877.482	0.0166573
877.560	0.0166524
877.638	0.0166829
877.716	0.0167526
877.794	0.0166576
877.872	0.0168009
877.950	0.0167731
878.029	0.0168925
878.107	0.0167940
878.185	0.0167505
878.263	0.0167931
878.341	0.0166811
878.419	0.0166347
878.497	0.0167065
878.575	0.0165305
878.654	0.0165649
878.732	0.0164944
878.810	0.0164709
878.888	0.0164117
878.966	0.0164438
879.044	0.0164557
879.122	0.0164749
879.200	0.0165632
879.279	0.0164276
879.357	0.0165038
879.435	0.0164672
879.513	0.0164388
879.591	0.0163199
879.669	0.0163934
879.747	0.0164597
879.825	0.0163017
879.904	0.0162990
879.982	0.0164652
880.060	0.0164747
880.138	0.0164417
880.216	0.0162263
880.294	0.0162441
880.372	0.0162586
880.450	0.0163182
880.529	0.0164180
880.607	0.0163033
880.685	0.0164195
880.763	0.0163039
880.841	0.0163747
880.919	0.0164340
880.997	0.0163855
881.075	0.0161071
881.154	0.0161689
881.232	0.0162019
881.310	0.0161414
881.388	0.0162104
881.466	0.0161676
881.544	0.0161159
881.622	0.0161768
881.700	0.0160484
881.779	0.0162685
881.857	0.0161926
881.935	0.0160796
882.013	0.0162209
882.091	0.0162654
882.169	0.0161780
882.247	0.0161940
882.325	0.0161064
882.404	0.0162971
882.482	0.0163387
882.560	0.0162934
882.638	0.0163365
882.716	0.0164738
882.794	0.0163490
882.872	0.0163774
882.950	0.0164989
883.029	0.0164155
883.107	0.0165137
883.185	0.0165023
883.263	0.0166158
883.341	0.0166212
883.419	0.0165899
883.497	0.0165530
883.575	0.0165212
883.654	0.0166530
883.732	0.0166034
883.810	0.0166218
883.888	0.0164847
883.966	0.0166110
884.044	0.0167742
884.122	0.0165343
884.200	0.0166353
884.279	0.0167075
884.357	0.0166935
884.435	0.0166838
884.513	0.0166001
884.591	0.0165781
884.669	0.0168004
884.747	0.0165913
884.825	0.0166646
884.904	0.0168452
884.982	0.0168965
885.060	0.0166980
885.138	0.0167393
885.216	0.0167318
885.294	0.0167696
885.372	0.0168409
885.450	0.0170006
885.529	0.0169647
885.607	0.0168307
885.685	0.0168616
885.763	0.0168965
885.841	0.0168020
885.919	0.0168588
885.997	0.0168374
886.075	0.0167886
886.154	0.0167207
886.232	0.0166144
886.310	0.0165640
886.388	0.0165133
886.466	0.0166543
886.544	0.0165009
886.622	0.0163438
886.700	0.0164417
886.779	0.0163949
886.857	0.0163942
886.935	0.0164177
887.013	0.0164190
887.091	0.0165687
887.169	0.0165791
887.247	0.0166621
887.325	0.0165999
887.404	0.0164784
887.482	0.0165439
887.560	0.0164420
887.638	0.0164870
887.716	0.0164588
887.794	0.0164799
887.872	0.0165010
887.950	0.0164997
888.029	0.0164140
888.107	0.0163634
888.185	0.0163068
888.263	0.0161906
888.341	0.0162935
888.419	0.0162003
888.497	0.0162051
888.575	0.0161470
888.654	0.0162080
888.732	0.0161134
888.810	0.0162280
888.888	0.0162202
888.966	0.0161711
889.044	0.0161762
889.122	0.0162997
889.200	0.0163824
889.279	0.0164566
889.357	0.0163966
889.435	0.0164512
889.513	0.0163507
889.591	0.0164727
889.669	0.0165983
889.747	0.0165175
889.825	0.0165533
889.904	0.0165933
889.982	0.0166626
890.060	0.0165177
890.138	0.0166225
890.216	0.0167281
890.294	0.0166472
890.372	0.0164407
890.450	0.0164742
890.529	0.0164798
890.607	0.0163731
890.685	0.0163005
890.763	0.0162306
890.841	0.0163659
890.919	0.0163296
890.997	0.0162734
891.075	0.0163991
891.154	0.0163158
891.232	0.0163467
891.310	0.0163924
891.388	0.0162964
891.466	0.0164164
891.544	0.0165363
891.622	0.0164463
891.700	0.0165150
891.779	0.0166866
891.857	0.0166776
891.935	0.0168186
892.013	0.0166758
892.091	0.0168015
892.169	0.0169946
892.247	0.0169876
892.325	0.0168664
892.404	0.0168195
892.482	0.0169675
892.560	0.0170207
892.638	0.0170230
892.716	0.0170908
892.794	0.0169260
892.872	0.0169530
892.950	0.0167664
893.029	0.0166932
893.107	0.0168262
893.185	0.0167747
893.263	0.0165925
893.341	0.0165927
893.419	0.0166072
893.497	0.0166232
893.575	0.0165799
893.654	0.0166511
893.732	0.0165660
893.810	0.0165895
893.888	0.0166148
893.966	0.0164946
894.044	0.0167204
894.122	0.0166562
894.200	0.0166560
894.279	0.0166713
894.357	0.0165565
894.435	0.0165701
894.513	0.0165794
894.591	0.0166692
894.669	0.0165771
894.747	0.0165428
894.825	0.0165828
894.904	0.0164138
894.982	0.0164700
895.060	0.0166145
895.138	0.0165581
895.216	0.0164799
895.294	0.0164558
895.372	0.0164887
895.450	0.0165852
895.529	0.0165098
895.607	0.0163693
895.685	0.0162442
895.763	0.0164799
895.841	0.0162797
895.919	0.0162411
895.997	0.0162373
896.075	0.0162037
896.154	0.0161124
896.232	0.0159416
896.310	0.0160579
896.388	0.0161880
896.466	0.0160136
896.544	0.0159520
896.622	0.0158516
896.700	0.0159712
896.779	0.0162451
896.857	0.0159451
896.935	0.0160426
897.013	0.0161898
897.091	0.0162183
897.169	0.0162675
897.247	0.0164151
897.325	0.0161657
897.404	0.0163745
897.482	0.0165455
897.560	0.0163201
897.638	0.0163890
897.716	0.0165860
897.794	0.0166345
897.872	0.0165937
897.950	0.0165252
898.029	0.0166186
898.107	0.0165752
898.185	0.0165543
898.263	0.0166821
898.341	0.0166154
898.419	0.0165816
898.497	0.0165030
898.575	0.0166260
898.654	0.0166272
898.732	0.0166374
898.810	0.0167454
898.888	0.0166120
898.966	0.0166609
899.044	0.0166672
899.122	0.0166967
899.200	0.0166670
899.279	0.0166457
899.357	0.0168589
899.435	0.0168197
899.513	0.0166279
899.591	0.0167632
899.669	0.0166891
899.747	0.0166734
899.825	0.0166777
899.904	0.0166940
899.982	0.0167104
900.060	0.0167214
900.138	0.0167353
900.216	0.0165498
900.294	0.0166737
900.372	0.0167062
900.450	0.0166727
900.529	0.0167857
900.607	0.0167637
900.685	0.0166997
900.763	0.0166486
900.841	0.0165691
900.919	0.0168060
900.997	0.0168030
901.075	0.0167160
901.154	0.0167708
901.232	0.0168425
901.310	0.0167078
901.388	0.0167918
901.466	0.0167637
901.544	0.0166592
901.622	0.0165215
901.700	0.0166263
901.779	0.0165712
901.857	0.0166135
901.935	0.0165483
902.013	0.0164304
902.091	0.0164825
902.169	0.0163995
902.247	0.0163343
902.325	0.0164376
902.404	0.0163354
902.482	0.0162597
902.560	0.0163945
902.638	0.0162304
902.716	0.0162523
902.794	0.0162621
902.872	0.0163886
902.950	0.0161929
903.029	0.0163157
903.107	0.0162508
903.185	0.0162621
903.263	0.0163145
903.341	0.0162644
903.419	0.0163046
903.497	0.0163242
903.575	0.0164149
903.654	0.0162708
903.732	0.0162858
903.810	0.0163055
903.888	0.0162616
903.966	0.0162443
904.044	0.0162159
904.122	0.0162900
904.200	0.0162399
904.279	0.0163670
904.357	0.0163660
904.435	0.0164264
904.513	0.0163700
904.591	0.0164240
904.669	0.0163471
904.747	0.0163895
904.825	0.0163499
904.904	0.0163878
904.982	0.0164308
905.060	0.0164300
905.138	0.0164953
905.216	0.0163351
905.294	0.0163793
905.372	0.0163732
905.450	0.0164332
905.529	0.0163663
905.607	0.0163446
905.685	0.0163082
905.763	0.0164145
905.841	0.0163585
905.919	0.0163904
905.997	0.0163548
906.075	0.0164941
906.154	0.0165469
906.232	0.0163235
906.310	0.0165762
906.388	0.0165628
906.466	0.0164946
906.544	0.0167075
906.622	0.0166837
906.700	0.0165080
906.779	0.0166240
906.857	0.0167850
906.935	0.0166574
907.013	0.0166747
907.091	0.0166954
907.169	0.0167939
907.247	0.0168293
907.325	0.0167977
907.404	0.0166950
907.482	0.0166782
907.560	0.0168546
907.638	0.0168305
907.716	0.0167854
907.794	0.0167715
907.872	0.0168163
907.950	0.0168598
908.029	0.0169254
908.107	0.0167622
908.185	0.0168764
908.263	0.0168607
908.341	0.0168786
908.419	0.0168069
908.497	0.0167765
908.575	0.0167919
908.654	0.0168611
908.732	0.0167873
908.810	0.0168439
908.888	0.0166893
908.966	0.0167673
909.044	0.0166975
909.122	0.0166837
909.200	0.0167554
909.279	0.0166467
909.357	0.0166428
909.435	0.0165546
909.513	0.0165214
909.591	0.0165652
909.669	0.0165376
909.747	0.0163509
909.825	0.0165996
909.904	0.0164301
909.982	0.0164051
910.060	0.0163294
910.138	0.0164054
910.216	0.0163550
910.294	0.0163854
910.372	0.0163548
910.450	0.0163065
910.529	0.0162990
910.607	0.0163754
910.685	0.0163332
910.763	0.0162566
910.841	0.0163986
910.919	0.0163902
910.997	0.0163293
911.075	0.0163879
911.154	0.0162723
911.232	0.0162862
911.310	0.0162895
911.388	0.0162784
911.466	0.0163115
911.544	0.0163006
911.622	0.0163103
911.700	0.0162968
911.779	0.0163648
911.857	0.0163820
911.935	0.0162491
912.013	0.0162865
912.091	0.0163821
912.169	0.0161253
912.247	0.0161574
912.325	0.0162860
912.404	0.0161716
912.482	0.0162844
912.560	0.0162479
912.638	0.0164137
912.716	0.0163903
912.794	0.0163855
912.872	0.0163564
912.950	0.0162498
913.029	0.0164523
913.107	0.0164236
913.185	0.0165453
913.263	0.0165099
913.341	0.0165967
913.419	0.0166161
913.497	0.0165485
913.575	0.0165518
913.654	0.0167741
913.732	0.0167961
913.810	0.0166028
913.888	0.0165914
913.966	0.0166154
914.044	0.0166737
914.122	0.0168025
914.200	0.0167017
914.279	0.0167004
914.357	0.0166659
914.435	0.0166325
914.513	0.0165520
914.591	0.0165386
914.669	0.0167161
914.747	0.0166805
914.825	0.0166011
914.904	0.0166196
914.982	0.0167070
915.060	0.0166438
915.138	0.0167174
915.216	0.0166078
915.294	0.0165884
915.372	0.0166453
915.450	0.0167266
915.529	0.0167218
915.607	0.0166059
915.685	0.0165769
915.763	0.0167378
915.841	0.0166663
915.919	0.0167550
915.997	0.0166322
916.075	0.0166608
916.154	0.0166703
916.232	0.0166916
916.310	0.0165453
916.388	0.0167794
916.466	0.0167299
916.544	0.0165659
916.622	0.0166382
916.700	0.0166226
916.779	0.0166373
916.857	0.0164722
916.935	0.0165012
917.013	0.0163876
917.091	0.0163708
917.169	0.0163702
917.247	0.0164180
917.325	0.0162922
917.404	0.0162260
917.482	0.0160430
917.560	0.0162182
917.638	0.0161112
917.716	0.0160529
917.794	0.0161076
917.872	0.0163338
917.950	0.0162639
918.029	0.0162411
918.107	0.0163196
918.185	0.0162732
918.263	0.0163264
918.341	0.0162997
918.419	0.0163460
918.497	0.0162207
918.575	0.0163850
918.654	0.0164410
918.732	0.0163332
918.810	0.0162079
918.888	0.0161889
918.966	0.0162596
919.044	0.0163525
919.122	0.0162743
919.200	0.0161315
919.279	0.0161671
919.357	0.0162183
919.435	0.0162804
919.513	0.0161318
919.591	0.0162183
919.669	0.0163888
919.747	0.0163463
919.825	0.0163776
919.904	0.0162882
