05/24/2022	20:31:55	Ver.	4.1	UNKNOWN
Optical Delay	599.988409	Delta X		0.078125	Sweeps	1	Scan Rate	0/0
Coordinates	Axis 1	NaN	Axis 2	NaN	Axis 3	NaN	Axis 4	NaN	Axis 5	NaN	Axis 6	0.000000
TX Power	0.000000	RX Power	0.000000

599.988	0.0164048
600.067	0.0164887
600.145	0.0164477
600.223	0.0164263
600.301	0.0165544
600.379	0.0166580
600.457	0.0164631
600.535	0.0163632
600.613	0.0164945
600.692	0.0164561
600.770	0.0165781
600.848	0.0165215
600.926	0.0165196
601.004	0.0164363
601.082	0.0164287
601.160	0.0165877
601.238	0.0164597
601.317	0.0164784
601.395	0.0164849
601.473	0.0164875
601.551	0.0163836
601.629	0.0164861
601.707	0.0162965
601.785	0.0161433
601.863	0.0162467
601.942	0.0162315
602.020	0.0162210
602.098	0.0161532
602.176	0.0162168
602.254	0.0162290
602.332	0.0162748
602.410	0.0163086
602.488	0.0162595
602.567	0.0162901
602.645	0.0163449
602.723	0.0162972
602.801	0.0164043
602.879	0.0164793
602.957	0.0165627
603.035	0.0162701
603.113	0.0165616
603.192	0.0164040
603.270	0.0165463
603.348	0.0166743
603.426	0.0166557
603.504	0.0165247
603.582	0.0166326
603.660	0.0165421
603.738	0.0164942
603.817	0.0165980
603.895	0.0164714
603.973	0.0164460
604.051	0.0165763
604.129	0.0164450
604.207	0.0165559
604.285	0.0164590
604.363	0.0164912
604.442	0.0163601
604.520	0.0164377
604.598	0.0164478
604.676	0.0163757
604.754	0.0164954
604.832	0.0163680
604.910	0.0163524
604.988	0.0163266
605.067	0.0162394
605.145	0.0163387
605.223	0.0163287
605.301	0.0163600
605.379	0.0162297
605.457	0.0162502
605.535	0.0162122
605.613	0.0163686
605.692	0.0161624
605.770	0.0162590
605.848	0.0162620
605.926	0.0162067
606.004	0.0163098
606.082	0.0163700
606.160	0.0162014
606.238	0.0162475
606.317	0.0162673
606.395	0.0164375
606.473	0.0164719
606.551	0.0164584
606.629	0.0164774
606.707	0.0165679
606.785	0.0165440
606.863	0.0164710
606.942	0.0164470
607.020	0.0165405
607.098	0.0165247
607.176	0.0165635
607.254	0.0166758
607.332	0.0166631
607.410	0.0165618
607.488	0.0165649
607.567	0.0167040
607.645	0.0165335
607.723	0.0165103
607.801	0.0166070
607.879	0.0165990
607.957	0.0166068
608.035	0.0166373
608.113	0.0164036
608.192	0.0164942
608.270	0.0164558
608.348	0.0162402
608.426	0.0163957
608.504	0.0164021
608.582	0.0162791
608.660	0.0162717
608.738	0.0162995
608.817	0.0163416
608.895	0.0161147
608.973	0.0161195
609.051	0.0160474
609.129	0.0160835
609.207	0.0160606
609.285	0.0161665
609.363	0.0161758
609.442	0.0161480
609.520	0.0161049
609.598	0.0162050
609.676	0.0162740
609.754	0.0162699
609.832	0.0162104
609.910	0.0162413
609.988	0.0163179
610.067	0.0163773
610.145	0.0164014
610.223	0.0164300
610.301	0.0165085
610.379	0.0165865
610.457	0.0164389
610.535	0.0166199
610.613	0.0167193
610.692	0.0168375
610.770	0.0167031
610.848	0.0167169
610.926	0.0168514
611.004	0.0168713
611.082	0.0167811
611.160	0.0168353
611.238	0.0167579
611.317	0.0167160
611.395	0.0166738
611.473	0.0167527
611.551	0.0166952
611.629	0.0164481
611.707	0.0165001
611.785	0.0164148
611.863	0.0164711
611.942	0.0162128
612.020	0.0162596
612.098	0.0162194
612.176	0.0161443
612.254	0.0161148
612.332	0.0161741
612.410	0.0159534
612.488	0.0159129
612.567	0.0161838
612.645	0.0161443
612.723	0.0161082
612.801	0.0159361
612.879	0.0161514
612.957	0.0160616
613.035	0.0162719
613.113	0.0162247
613.192	0.0162675
613.270	0.0162447
613.348	0.0163735
613.426	0.0163926
613.504	0.0163131
613.582	0.0164352
613.660	0.0166069
613.738	0.0166460
613.817	0.0167030
613.895	0.0165276
613.973	0.0166025
614.051	0.0166087
614.129	0.0165717
614.207	0.0165976
614.285	0.0167403
614.363	0.0164928
614.442	0.0165064
614.520	0.0165829
614.598	0.0166059
614.676	0.0167075
614.754	0.0165372
614.832	0.0164651
614.910	0.0165802
614.988	0.0164645
615.067	0.0164117
615.145	0.0164085
615.223	0.0164784
615.301	0.0164218
615.379	0.0164894
615.457	0.0164760
615.535	0.0163531
615.613	0.0163373
615.692	0.0163547
615.770	0.0163389
615.848	0.0162914
615.926	0.0163821
616.004	0.0163264
616.082	0.0163782
616.160	0.0163508
616.238	0.0162055
616.317	0.0161962
616.395	0.0162323
616.473	0.0161867
616.551	0.0161689
616.629	0.0161572
616.707	0.0162394
616.785	0.0162710
616.863	0.0161135
616.942	0.0161656
617.020	0.0161382
617.098	0.0163368
617.176	0.0164735
617.254	0.0162457
617.332	0.0162124
617.410	0.0164475
617.488	0.0164594
617.567	0.0165112
617.645	0.0166525
617.723	0.0166690
617.801	0.0165902
617.879	0.0166708
617.957	0.0168616
618.035	0.0167355
618.113	0.0166037
618.192	0.0165211
618.270	0.0167636
618.348	0.0166280
618.426	0.0166458
618.504	0.0166055
618.582	0.0165015
618.660	0.0164388
618.738	0.0163976
618.817	0.0164619
618.895	0.0163171
618.973	0.0162674
619.051	0.0161882
619.129	0.0163080
619.207	0.0163453
619.285	0.0162056
619.363	0.0162024
619.442	0.0162210
619.520	0.0161519
619.598	0.0161302
619.676	0.0163654
619.754	0.0163015
619.832	0.0163913
619.910	0.0162957
619.988	0.0162008
620.067	0.0164592
620.145	0.0165263
620.223	0.0165728
620.301	0.0165072
620.379	0.0166115
620.457	0.0166801
620.535	0.0166853
620.613	0.0166192
620.692	0.0166661
620.770	0.0164747
620.848	0.0165472
620.926	0.0166711
621.004	0.0165380
621.082	0.0165314
621.160	0.0164757
621.238	0.0164053
621.317	0.0162159
621.395	0.0163732
621.473	0.0163950
621.551	0.0163313
621.629	0.0162301
621.707	0.0160887
621.785	0.0161708
621.863	0.0162624
621.942	0.0162018
622.020	0.0163795
622.098	0.0164019
622.176	0.0164251
622.254	0.0163436
622.332	0.0164268
622.410	0.0164774
622.488	0.0165119
622.567	0.0166134
622.645	0.0165062
622.723	0.0165883
622.801	0.0166650
622.879	0.0167686
622.957	0.0165547
623.035	0.0166441
623.113	0.0165194
623.192	0.0165503
623.270	0.0164708
623.348	0.0164838
623.426	0.0164170
623.504	0.0162083
623.582	0.0163100
623.660	0.0162100
623.738	0.0162457
623.817	0.0161699
623.895	0.0162304
623.973	0.0162042
624.051	0.0162720
624.129	0.0162830
624.207	0.0162532
624.285	0.0162643
624.363	0.0164804
624.442	0.0163151
624.520	0.0162490
624.598	0.0163604
624.676	0.0164697
624.754	0.0164240
624.832	0.0164265
624.910	0.0164507
624.988	0.0164364
625.067	0.0164966
625.145	0.0166708
625.223	0.0165598
625.301	0.0164285
625.379	0.0165340
625.457	0.0165512
625.535	0.0167259
625.613	0.0166151
625.692	0.0165461
625.770	0.0166383
625.848	0.0164560
625.926	0.0165501
626.004	0.0164317
626.082	0.0163416
626.160	0.0162370
626.238	0.0162852
626.317	0.0163029
626.395	0.0163029
626.473	0.0164038
626.551	0.0162293
626.629	0.0162762
626.707	0.0163491
626.785	0.0161261
626.863	0.0162745
626.942	0.0163844
627.020	0.0164144
627.098	0.0162236
627.176	0.0163242
627.254	0.0164774
627.332	0.0164338
627.410	0.0163246
627.488	0.0164383
627.567	0.0165157
627.645	0.0165481
627.723	0.0165465
627.801	0.0164668
627.879	0.0165148
627.957	0.0165110
628.035	0.0165386
628.113	0.0163593
628.192	0.0163850
628.270	0.0164485
628.348	0.0163592
628.426	0.0163738
628.504	0.0162837
628.582	0.0162523
628.660	0.0164198
628.738	0.0164163
628.817	0.0163063
628.895	0.0164375
628.973	0.0163479
629.051	0.0163169
629.129	0.0164832
629.207	0.0165079
629.285	0.0163354
629.363	0.0163712
629.442	0.0163988
629.520	0.0165641
629.598	0.0165276
629.676	0.0164523
629.754	0.0163693
629.832	0.0164344
629.910	0.0164896
629.988	0.0164547
630.067	0.0163249
630.145	0.0165454
630.223	0.0164806
630.301	0.0164763
630.379	0.0163842
630.457	0.0165538
630.535	0.0164486
630.613	0.0163916
630.692	0.0163464
630.770	0.0163196
630.848	0.0164860
630.926	0.0164901
631.004	0.0165236
631.082	0.0163792
631.160	0.0162971
631.238	0.0164417
631.317	0.0162605
631.395	0.0162640
631.473	0.0161764
631.551	0.0162630
631.629	0.0163118
631.707	0.0163381
631.785	0.0162981
631.863	0.0162932
631.942	0.0162872
632.020	0.0162890
632.098	0.0164236
632.176	0.0163887
632.254	0.0163237
632.332	0.0163725
632.410	0.0164192
632.488	0.0166235
632.567	0.0166927
632.645	0.0166030
632.723	0.0165274
632.801	0.0166495
632.879	0.0166692
632.957	0.0166131
633.035	0.0167316
633.113	0.0167848
633.192	0.0166814
633.270	0.0166843
633.348	0.0166021
633.426	0.0165625
633.504	0.0165089
633.582	0.0164462
633.660	0.0164194
633.738	0.0163577
633.817	0.0162352
633.895	0.0163725
633.973	0.0162948
634.051	0.0161089
634.129	0.0162365
634.207	0.0162141
634.285	0.0162621
634.363	0.0161979
634.442	0.0162360
634.520	0.0162321
634.598	0.0163490
634.676	0.0163472
634.754	0.0164032
634.832	0.0165123
634.910	0.0165172
634.988	0.0164762
635.067	0.0165572
635.145	0.0166759
635.223	0.0165866
635.301	0.0165872
635.379	0.0165883
635.457	0.0166496
635.535	0.0164467
635.613	0.0165402
635.692	0.0164870
635.770	0.0165134
635.848	0.0164775
635.926	0.0165201
636.004	0.0163886
636.082	0.0163317
636.160	0.0163033
636.238	0.0162926
636.317	0.0165199
636.395	0.0163415
636.473	0.0163641
636.551	0.0164366
636.629	0.0165508
636.707	0.0165379
636.785	0.0164395
636.863	0.0164763
636.942	0.0166805
637.020	0.0166836
637.098	0.0165203
637.176	0.0165739
637.254	0.0166656
637.332	0.0165662
637.410	0.0163688
637.488	0.0164548
637.567	0.0165359
637.645	0.0165807
637.723	0.0163532
637.801	0.0163493
637.879	0.0163026
637.957	0.0162604
638.035	0.0163597
638.113	0.0162366
638.192	0.0162999
638.270	0.0162191
638.348	0.0162785
638.426	0.0163725
638.504	0.0163708
638.582	0.0163332
638.660	0.0164769
638.738	0.0165213
638.817	0.0165029
638.895	0.0163441
638.973	0.0163117
639.051	0.0164207
639.129	0.0165259
639.207	0.0164539
639.285	0.0163589
639.363	0.0164449
639.442	0.0163927
639.520	0.0164024
639.598	0.0164371
639.676	0.0163742
639.754	0.0165211
639.832	0.0164937
639.910	0.0164378
639.988	0.0164385
640.067	0.0164825
640.145	0.0165501
640.223	0.0166568
640.301	0.0164204
640.379	0.0164157
640.457	0.0165317
640.535	0.0163596
640.613	0.0165011
640.692	0.0163840
640.770	0.0163515
640.848	0.0163244
640.926	0.0163367
641.004	0.0164267
641.082	0.0163873
641.160	0.0164693
641.238	0.0164267
641.317	0.0165122
641.395	0.0165273
641.473	0.0165506
641.551	0.0164182
641.629	0.0163549
641.707	0.0164848
641.785	0.0164805
641.863	0.0164576
641.942	0.0164518
642.020	0.0164046
642.098	0.0163817
642.176	0.0164185
642.254	0.0163808
642.332	0.0163284
642.410	0.0164292
642.488	0.0164252
642.567	0.0163555
642.645	0.0164395
642.723	0.0163980
642.801	0.0163524
642.879	0.0164030
642.957	0.0163841
643.035	0.0164470
643.113	0.0164799
643.192	0.0163673
643.270	0.0165023
643.348	0.0164025
643.426	0.0162751
643.504	0.0163129
643.582	0.0162835
643.660	0.0161129
643.738	0.0163130
643.817	0.0162623
643.895	0.0160926
643.973	0.0160436
644.051	0.0160229
644.129	0.0161129
644.207	0.0160849
644.285	0.0161698
644.363	0.0161893
644.442	0.0160758
644.520	0.0163117
644.598	0.0162219
644.676	0.0163219
644.754	0.0163494
644.832	0.0164734
644.910	0.0165318
644.988	0.0166882
645.067	0.0166445
645.145	0.0166868
645.223	0.0167704
645.301	0.0166426
645.379	0.0166920
645.457	0.0167319
645.535	0.0167668
645.613	0.0166443
645.692	0.0166273
645.770	0.0167467
645.848	0.0167096
645.926	0.0165164
646.004	0.0164496
646.082	0.0163490
646.160	0.0161511
646.238	0.0161275
646.317	0.0160551
646.395	0.0159035
646.473	0.0156867
646.551	0.0157546
646.629	0.0157639
646.707	0.0157069
646.785	0.0156136
646.863	0.0157108
646.942	0.0158756
647.020	0.0160193
647.098	0.0159645
647.176	0.0161444
647.254	0.0162724
647.332	0.0165582
647.410	0.0167419
647.488	0.0169025
647.567	0.0170825
647.645	0.0173635
647.723	0.0175135
647.801	0.0176215
647.879	0.0177048
647.957	0.0176580
648.035	0.0178217
648.113	0.0176770
648.192	0.0175363
648.270	0.0173772
648.348	0.0171210
648.426	0.0169158
648.504	0.0165067
648.582	0.0162480
648.660	0.0160763
648.738	0.0156484
648.817	0.0153818
648.895	0.0148956
648.973	0.0147936
649.051	0.0146438
649.129	0.0144148
649.207	0.0144566
649.285	0.0143369
649.363	0.0145088
649.442	0.0145871
649.520	0.0146548
649.598	0.0148604
649.676	0.0152233
649.754	0.0154501
649.832	0.0156841
649.910	0.0162186
649.988	0.0164268
650.067	0.0168889
650.145	0.0172617
650.223	0.0176205
650.301	0.0178738
650.379	0.0183109
650.457	0.0183967
650.535	0.0185069
650.613	0.0185140
650.692	0.0186018
650.770	0.0185280
650.848	0.0182864
650.926	0.0182498
651.004	0.0180635
651.082	0.0178545
651.160	0.0174151
651.238	0.0171999
651.317	0.0168136
651.395	0.0165560
651.473	0.0163882
651.551	0.0160879
651.629	0.0157650
651.707	0.0156644
651.785	0.0153821
651.863	0.0153165
651.942	0.0152163
652.020	0.0151303
652.098	0.0149403
652.176	0.0148242
652.254	0.0148438
652.332	0.0148502
652.410	0.0148111
652.488	0.0149873
652.567	0.0151696
652.645	0.0151444
652.723	0.0152358
652.801	0.0152842
652.879	0.0154446
652.957	0.0156971
653.035	0.0159220
653.113	0.0159824
653.192	0.0163917
653.270	0.0167062
653.348	0.0169298
653.426	0.0171814
653.504	0.0173452
653.582	0.0177362
653.660	0.0179312
653.738	0.0179484
653.817	0.0181168
653.895	0.0183531
653.973	0.0183510
654.051	0.0183742
654.129	0.0182554
654.207	0.0182372
654.285	0.0180101
654.363	0.0180349
654.442	0.0176955
654.520	0.0173686
654.598	0.0171365
654.676	0.0168028
654.754	0.0164954
654.832	0.0160050
654.910	0.0157352
654.988	0.0153716
655.067	0.0150190
655.145	0.0148653
655.223	0.0144903
655.301	0.0144490
655.379	0.0144173
655.457	0.0143433
655.535	0.0142731
655.613	0.0145636
655.692	0.0146822
655.770	0.0148908
655.848	0.0151304
655.926	0.0155498
656.004	0.0159856
656.082	0.0162602
656.160	0.0166748
656.238	0.0170095
656.317	0.0174545
656.395	0.0177945
656.473	0.0178687
656.551	0.0181207
656.629	0.0182631
656.707	0.0181664
656.785	0.0183408
656.863	0.0181698
656.942	0.0179655
657.020	0.0178055
657.098	0.0175684
657.176	0.0175021
657.254	0.0169341
657.332	0.0168820
657.410	0.0168312
657.488	0.0164848
657.567	0.0161097
657.645	0.0158949
657.723	0.0159246
657.801	0.0155818
657.879	0.0155294
657.957	0.0151833
658.035	0.0149644
658.113	0.0149024
658.192	0.0147250
658.270	0.0147483
658.348	0.0145658
658.426	0.0145779
658.504	0.0146268
658.582	0.0146983
658.660	0.0147005
658.738	0.0149681
658.817	0.0152644
658.895	0.0154600
658.973	0.0157141
659.051	0.0160469
659.129	0.0163998
659.207	0.0166462
659.285	0.0170687
659.363	0.0174239
659.442	0.0176740
659.520	0.0179262
659.598	0.0183157
659.676	0.0185260
659.754	0.0186836
659.832	0.0189797
659.910	0.0190724
659.988	0.0191669
660.067	0.0191354
660.145	0.0192468
660.223	0.0189066
660.301	0.0188434
660.379	0.0186451
660.457	0.0183642
660.535	0.0180828
660.613	0.0176560
660.692	0.0172381
660.770	0.0167641
660.848	0.0163840
660.926	0.0159066
661.004	0.0154606
661.082	0.0150885
661.160	0.0148270
661.238	0.0144778
661.317	0.0143069
661.395	0.0139093
661.473	0.0136748
661.551	0.0136570
661.629	0.0136106
661.707	0.0134901
661.785	0.0134224
661.863	0.0134810
661.942	0.0134225
662.020	0.0136530
662.098	0.0139025
662.176	0.0141707
662.254	0.0144576
662.332	0.0146904
662.410	0.0149477
662.488	0.0152917
662.567	0.0155561
662.645	0.0160361
662.723	0.0164242
662.801	0.0167246
662.879	0.0171504
662.957	0.0175773
663.035	0.0179858
663.113	0.0182485
663.192	0.0186370
663.270	0.0188774
663.348	0.0191328
663.426	0.0192755
663.504	0.0194856
663.582	0.0195982
663.660	0.0194329
663.738	0.0192989
663.817	0.0191874
663.895	0.0189178
663.973	0.0187089
664.051	0.0183976
664.129	0.0181358
664.207	0.0179547
664.285	0.0176875
664.363	0.0173341
664.442	0.0172163
664.520	0.0168324
664.598	0.0166958
664.676	0.0165431
664.754	0.0161764
664.832	0.0160527
664.910	0.0160943
664.988	0.0160171
665.067	0.0158467
665.145	0.0157436
665.223	0.0156768
665.301	0.0154916
665.379	0.0153575
665.457	0.0152417
665.535	0.0152026
665.613	0.0150827
665.692	0.0147240
665.770	0.0144973
665.848	0.0144774
665.926	0.0144155
666.004	0.0142439
666.082	0.0143104
666.160	0.0142004
666.238	0.0141822
666.317	0.0142524
666.395	0.0142226
666.473	0.0143911
666.551	0.0143803
666.629	0.0144782
666.707	0.0146545
666.785	0.0148032
666.863	0.0149686
666.942	0.0152241
667.020	0.0154157
667.098	0.0156021
667.176	0.0158919
667.254	0.0162025
667.332	0.0166398
667.410	0.0169582
667.488	0.0173945
667.567	0.0178278
667.645	0.0181238
667.723	0.0186056
667.801	0.0189481
667.879	0.0192950
667.957	0.0195161
668.035	0.0199387
668.113	0.0201290
668.192	0.0202065
668.270	0.0202858
668.348	0.0203584
668.426	0.0201152
668.504	0.0199268
668.582	0.0195740
668.660	0.0191928
668.738	0.0185930
668.817	0.0180388
668.895	0.0173893
668.973	0.0166539
669.051	0.0157471
669.129	0.0150224
669.207	0.0144165
669.285	0.0138255
669.363	0.0133195
669.442	0.0130148
669.520	0.0128500
669.598	0.0128529
669.676	0.0130096
669.754	0.0132135
669.832	0.0138337
669.910	0.0143321
669.988	0.0148559
670.067	0.0154698
670.145	0.0160265
670.223	0.0165142
670.301	0.0169887
670.379	0.0173144
670.457	0.0175273
670.535	0.0175859
670.613	0.0175076
670.692	0.0174161
670.770	0.0171466
670.848	0.0167925
670.926	0.0166009
671.004	0.0162387
671.082	0.0159839
671.160	0.0159021
671.238	0.0157537
671.317	0.0155492
671.395	0.0155110
671.473	0.0155379
671.551	0.0157362
671.629	0.0158608
671.707	0.0160294
671.785	0.0162394
671.863	0.0162992
671.942	0.0161385
672.020	0.0162937
672.098	0.0162460
672.176	0.0162040
672.254	0.0160668
672.332	0.0160304
672.410	0.0158865
672.488	0.0158813
672.567	0.0160363
672.645	0.0161368
672.723	0.0161333
672.801	0.0161748
672.879	0.0165646
672.957	0.0170402
673.035	0.0172189
673.113	0.0175491
673.192	0.0180122
673.270	0.0182648
673.348	0.0186331
673.426	0.0187856
673.504	0.0191449
673.582	0.0190691
673.660	0.0190958
673.738	0.0190641
673.817	0.0188607
673.895	0.0186848
673.973	0.0183697
674.051	0.0179935
674.129	0.0176262
674.207	0.0172278
674.285	0.0167923
674.363	0.0164435
674.442	0.0160222
674.520	0.0156824
674.598	0.0152737
674.676	0.0149445
674.754	0.0149178
674.832	0.0147330
674.910	0.0144486
674.988	0.0142226
675.067	0.0140684
675.145	0.0139843
675.223	0.0139259
675.301	0.0141014
675.379	0.0140992
675.457	0.0141187
675.535	0.0142787
675.613	0.0145739
675.692	0.0148161
675.770	0.0151653
675.848	0.0154002
675.926	0.0156852
676.004	0.0161148
676.082	0.0163224
676.160	0.0164848
676.238	0.0167749
676.317	0.0173348
676.395	0.0173668
676.473	0.0177126
676.551	0.0181345
676.629	0.0181946
676.707	0.0183120
676.785	0.0184477
676.863	0.0184845
676.942	0.0186000
677.020	0.0185766
677.098	0.0184712
677.176	0.0184251
677.254	0.0180337
677.332	0.0179001
677.410	0.0177120
677.488	0.0173650
677.567	0.0170109
677.645	0.0167035
677.723	0.0160351
677.801	0.0157725
677.879	0.0152872
677.957	0.0150506
678.035	0.0146251
678.113	0.0144469
678.192	0.0143401
678.270	0.0142049
678.348	0.0144676
678.426	0.0145295
678.504	0.0147144
678.582	0.0150787
678.660	0.0151541
678.738	0.0155851
678.817	0.0158272
678.895	0.0162551
678.973	0.0165387
679.051	0.0165528
679.129	0.0170660
679.207	0.0173054
679.285	0.0173029
679.363	0.0174873
679.442	0.0177213
679.520	0.0177865
679.598	0.0179520
679.676	0.0180196
679.754	0.0179163
679.832	0.0178767
679.910	0.0177112
679.988	0.0175797
680.067	0.0174445
680.145	0.0171420
680.223	0.0167996
680.301	0.0166446
680.379	0.0163084
680.457	0.0158231
680.535	0.0157343
680.613	0.0156176
680.692	0.0152383
680.770	0.0152615
680.848	0.0149381
680.926	0.0148866
681.004	0.0149783
681.082	0.0151537
681.160	0.0151665
681.238	0.0154764
681.317	0.0157600
681.395	0.0161020
681.473	0.0162920
681.551	0.0167171
681.629	0.0168616
681.707	0.0172147
681.785	0.0174170
681.863	0.0178162
681.942	0.0178716
682.020	0.0178709
682.098	0.0177991
682.176	0.0177312
682.254	0.0174836
682.332	0.0171550
682.410	0.0168092
682.488	0.0166040
682.567	0.0161748
682.645	0.0158337
682.723	0.0154420
682.801	0.0151620
682.879	0.0149228
682.957	0.0148663
683.035	0.0149240
683.113	0.0148457
683.192	0.0151769
683.270	0.0153547
683.348	0.0154794
683.426	0.0158269
683.504	0.0162797
683.582	0.0165205
683.660	0.0167898
683.738	0.0171094
683.817	0.0173727
683.895	0.0174054
683.973	0.0176631
684.051	0.0178468
684.129	0.0179151
684.207	0.0178246
684.285	0.0175961
684.363	0.0175463
684.442	0.0173275
684.520	0.0172361
684.598	0.0169556
684.676	0.0168721
684.754	0.0164986
684.832	0.0161862
684.910	0.0161164
684.988	0.0157758
685.067	0.0156610
685.145	0.0155589
685.223	0.0153070
685.301	0.0154041
685.379	0.0155948
685.457	0.0153792
685.535	0.0155811
685.613	0.0157579
685.692	0.0158587
685.770	0.0158948
685.848	0.0160270
685.926	0.0161975
686.004	0.0164949
686.082	0.0164403
686.160	0.0164750
686.238	0.0164845
686.317	0.0166775
686.395	0.0166919
686.473	0.0165129
686.551	0.0166118
686.629	0.0168328
686.707	0.0168343
686.785	0.0170029
686.863	0.0170425
686.942	0.0171867
687.020	0.0172693
687.098	0.0173109
687.176	0.0174194
687.254	0.0173560
687.332	0.0173455
687.410	0.0171961
687.488	0.0170867
687.567	0.0168746
687.645	0.0165509
687.723	0.0163910
687.801	0.0160450
687.879	0.0157027
687.957	0.0156263
688.035	0.0154691
688.113	0.0152773
688.192	0.0152228
688.270	0.0151769
688.348	0.0153202
688.426	0.0154886
688.504	0.0157930
688.582	0.0160405
688.660	0.0163087
688.738	0.0164925
688.817	0.0169053
688.895	0.0170321
688.973	0.0170564
689.051	0.0172733
689.129	0.0173433
689.207	0.0172302
689.285	0.0173593
689.363	0.0171710
689.442	0.0170377
689.520	0.0167884
689.598	0.0167678
689.676	0.0166045
689.754	0.0164091
689.832	0.0163760
689.910	0.0162299
689.988	0.0160835
690.067	0.0161240
690.145	0.0157809
690.223	0.0157238
690.301	0.0157515
690.379	0.0157646
690.457	0.0157575
690.535	0.0156054
690.613	0.0154934
690.692	0.0155268
690.770	0.0154274
690.848	0.0155042
690.926	0.0154276
691.004	0.0153992
691.082	0.0153870
691.160	0.0156071
691.238	0.0157272
691.317	0.0157105
691.395	0.0159691
691.473	0.0160932
691.551	0.0162004
691.629	0.0163800
691.707	0.0165434
691.785	0.0167604
691.863	0.0169003
691.942	0.0168706
692.020	0.0169586
692.098	0.0171910
692.176	0.0172151
692.254	0.0171733
692.332	0.0172494
692.410	0.0173183
692.488	0.0173780
692.567	0.0172601
692.645	0.0173853
692.723	0.0174637
692.801	0.0174047
692.879	0.0173587
692.957	0.0173279
693.035	0.0174622
693.113	0.0173594
693.192	0.0173123
693.270	0.0173484
693.348	0.0172297
693.426	0.0173783
693.504	0.0171349
693.582	0.0171836
693.660	0.0171106
693.738	0.0170557
693.817	0.0169691
693.895	0.0168282
693.973	0.0166922
694.051	0.0164403
694.129	0.0164282
694.207	0.0162972
694.285	0.0161341
694.363	0.0159435
694.442	0.0158354
694.520	0.0157056
694.598	0.0156624
694.676	0.0155634
694.754	0.0155760
694.832	0.0153792
694.910	0.0154900
694.988	0.0155486
695.067	0.0154865
695.145	0.0153871
695.223	0.0154063
695.301	0.0155055
695.379	0.0154643
695.457	0.0152210
695.535	0.0153719
695.613	0.0152632
695.692	0.0153705
695.770	0.0153172
695.848	0.0151937
695.926	0.0153865
696.004	0.0153357
696.082	0.0152126
696.160	0.0155608
696.238	0.0155656
696.317	0.0154859
696.395	0.0157447
696.473	0.0159480
696.551	0.0159061
696.629	0.0160832
696.707	0.0163033
696.785	0.0167111
696.863	0.0168700
696.942	0.0169235
697.020	0.0169693
697.098	0.0173754
697.176	0.0174012
697.254	0.0174457
697.332	0.0177744
697.410	0.0177141
697.488	0.0175838
697.567	0.0175723
697.645	0.0176460
697.723	0.0177119
697.801	0.0176250
697.879	0.0175685
697.957	0.0175114
698.035	0.0173753
698.113	0.0172002
698.192	0.0172115
698.270	0.0169777
698.348	0.0169775
698.426	0.0169576
698.504	0.0169876
698.582	0.0168769
698.660	0.0168445
698.738	0.0169318
698.817	0.0170178
698.895	0.0170021
698.973	0.0169273
699.051	0.0169472
699.129	0.0170535
699.207	0.0169769
699.285	0.0168725
699.363	0.0170834
699.442	0.0167839
699.520	0.0167798
699.598	0.0166808
699.676	0.0165881
699.754	0.0164432
699.832	0.0163634
699.910	0.0162738
699.988	0.0161291
700.067	0.0160930
700.145	0.0160303
700.223	0.0156845
700.301	0.0155993
700.379	0.0154618
700.457	0.0152555
700.535	0.0152116
700.613	0.0152036
700.692	0.0150161
700.770	0.0150157
700.848	0.0148719
700.926	0.0150183
701.004	0.0150209
701.082	0.0148571
701.160	0.0147259
701.238	0.0149114
701.317	0.0149840
701.395	0.0151375
701.473	0.0151375
701.551	0.0152066
701.629	0.0153735
701.707	0.0155860
701.785	0.0157814
701.863	0.0159052
701.942	0.0160566
702.020	0.0161391
702.098	0.0162688
702.176	0.0164758
702.254	0.0164825
702.332	0.0165517
702.410	0.0167752
702.488	0.0168745
702.567	0.0169476
702.645	0.0170360
702.723	0.0171499
702.801	0.0172588
702.879	0.0173856
702.957	0.0175636
703.035	0.0174561
703.113	0.0175294
703.192	0.0176714
703.270	0.0176777
703.348	0.0177206
703.426	0.0177767
703.504	0.0175618
703.582	0.0176344
703.660	0.0175011
703.738	0.0174844
703.817	0.0173268
703.895	0.0172515
703.973	0.0172677
704.051	0.0173112
704.129	0.0169955
704.207	0.0169617
704.285	0.0167790
704.363	0.0169232
704.442	0.0166851
704.520	0.0165617
704.598	0.0165224
704.676	0.0164989
704.754	0.0164610
704.832	0.0164121
704.910	0.0164529
704.988	0.0162269
705.067	0.0161803
705.145	0.0163483
705.223	0.0163545
705.301	0.0163307
705.379	0.0163825
705.457	0.0164053
705.535	0.0161804
705.613	0.0162692
705.692	0.0162679
705.770	0.0160741
705.848	0.0159234
705.926	0.0159116
706.004	0.0157139
706.082	0.0154967
706.160	0.0155186
706.238	0.0154720
706.317	0.0152197
706.395	0.0153089
706.473	0.0153019
706.551	0.0153893
706.629	0.0154776
706.707	0.0156649
706.785	0.0156172
706.863	0.0156899
706.942	0.0158151
707.020	0.0160838
707.098	0.0160328
707.176	0.0162001
707.254	0.0163601
707.332	0.0163321
707.410	0.0164184
707.488	0.0164882
707.567	0.0165478
707.645	0.0165785
707.723	0.0165143
707.801	0.0167104
707.879	0.0166222
707.957	0.0170214
708.035	0.0171255
708.113	0.0170252
708.192	0.0169234
708.270	0.0168939
708.348	0.0168309
708.426	0.0169244
708.504	0.0167263
708.582	0.0167194
708.660	0.0165699
708.738	0.0164758
708.817	0.0163921
708.895	0.0162455
708.973	0.0162574
709.051	0.0162950
709.129	0.0160475
709.207	0.0162535
709.285	0.0162985
709.363	0.0163340
709.442	0.0162867
709.520	0.0163625
709.598	0.0164368
709.676	0.0165440
709.754	0.0166205
709.832	0.0166911
709.910	0.0167511
709.988	0.0166992
710.067	0.0169778
710.145	0.0171147
710.223	0.0171811
710.301	0.0171181
710.379	0.0172415
710.457	0.0172880
710.535	0.0172637
710.613	0.0171829
710.692	0.0172694
710.770	0.0171255
710.848	0.0170953
710.926	0.0169284
711.004	0.0168291
711.082	0.0166650
711.160	0.0164680
711.238	0.0164246
711.317	0.0163014
711.395	0.0161415
711.473	0.0161227
711.551	0.0162268
711.629	0.0161114
711.707	0.0161373
711.785	0.0161763
711.863	0.0161361
711.942	0.0163106
712.020	0.0162331
712.098	0.0163433
712.176	0.0163565
712.254	0.0164140
712.332	0.0166369
712.410	0.0164493
712.488	0.0166738
712.567	0.0164848
712.645	0.0163778
712.723	0.0165591
712.801	0.0163733
712.879	0.0161657
712.957	0.0161417
713.035	0.0161675
713.113	0.0160440
713.192	0.0159628
713.270	0.0158330
713.348	0.0159167
713.426	0.0159888
713.504	0.0159251
713.582	0.0159970
713.660	0.0161057
713.738	0.0162344
713.817	0.0161717
713.895	0.0162683
713.973	0.0162179
714.051	0.0163525
714.129	0.0165398
714.207	0.0163859
714.285	0.0164258
714.363	0.0165791
714.442	0.0165382
714.520	0.0166140
714.598	0.0165965
714.676	0.0167255
714.754	0.0166687
714.832	0.0164893
714.910	0.0166679
714.988	0.0164695
715.067	0.0164230
715.145	0.0163453
715.223	0.0162910
715.301	0.0162397
715.379	0.0163489
715.457	0.0162115
715.535	0.0161389
715.613	0.0162718
715.692	0.0162949
715.770	0.0162658
715.848	0.0162182
715.926	0.0164979
716.004	0.0164857
716.082	0.0166526
716.160	0.0165979
716.238	0.0166651
716.317	0.0167072
716.395	0.0165565
716.473	0.0167258
716.551	0.0167500
716.629	0.0168099
716.707	0.0166913
716.785	0.0168530
716.863	0.0166580
716.942	0.0167194
717.020	0.0166601
717.098	0.0167592
717.176	0.0168094
717.254	0.0166721
717.332	0.0167375
717.410	0.0166739
717.488	0.0167162
717.567	0.0168148
717.645	0.0168163
717.723	0.0167689
717.801	0.0166968
717.879	0.0166963
717.957	0.0168511
718.035	0.0166946
718.113	0.0166893
718.192	0.0165163
718.270	0.0165054
718.348	0.0164936
718.426	0.0163716
718.504	0.0165101
718.582	0.0165939
718.660	0.0164808
718.738	0.0164103
718.817	0.0164276
718.895	0.0163840
718.973	0.0163911
719.051	0.0163912
719.129	0.0164590
719.207	0.0164919
719.285	0.0164162
719.363	0.0163654
719.442	0.0164013
719.520	0.0163464
719.598	0.0163683
719.676	0.0163551
719.754	0.0162819
719.832	0.0162062
719.910	0.0161654
719.988	0.0160909
720.067	0.0160918
720.145	0.0159538
720.223	0.0159099
720.301	0.0159251
720.379	0.0157986
720.457	0.0158665
720.535	0.0159856
720.613	0.0160735
720.692	0.0160204
720.770	0.0160204
720.848	0.0160842
720.926	0.0162582
721.004	0.0162850
721.082	0.0164589
721.160	0.0163665
721.238	0.0163079
721.317	0.0164407
721.395	0.0164832
721.473	0.0166223
721.551	0.0165513
721.629	0.0164912
721.707	0.0165303
721.785	0.0164092
721.863	0.0163268
721.942	0.0163725
722.020	0.0162128
722.098	0.0160667
722.176	0.0159754
722.254	0.0162252
722.332	0.0160500
722.410	0.0159624
722.488	0.0161818
722.567	0.0160295
722.645	0.0161315
722.723	0.0163689
722.801	0.0162529
722.879	0.0164580
722.957	0.0164864
723.035	0.0163784
723.113	0.0164869
723.192	0.0166982
723.270	0.0166273
723.348	0.0166132
723.426	0.0165419
723.504	0.0167044
723.582	0.0166284
723.660	0.0166280
723.738	0.0166312
723.817	0.0166595
723.895	0.0164249
723.973	0.0164513
724.051	0.0166959
724.129	0.0166383
724.207	0.0167649
724.285	0.0167250
724.363	0.0166730
724.442	0.0165893
724.520	0.0167017
724.598	0.0166502
724.676	0.0166770
724.754	0.0167301
724.832	0.0165811
724.910	0.0166607
724.988	0.0166228
725.067	0.0163759
725.145	0.0165522
725.223	0.0164828
725.301	0.0163117
725.379	0.0164371
725.457	0.0164225
725.535	0.0164955
725.613	0.0165136
725.692	0.0165933
725.770	0.0164128
725.848	0.0165469
725.926	0.0165092
726.004	0.0164232
726.082	0.0166119
726.160	0.0166164
726.238	0.0166469
726.317	0.0166905
726.395	0.0166361
726.473	0.0164902
726.551	0.0166489
726.629	0.0165779
726.707	0.0165176
726.785	0.0165137
726.863	0.0163155
726.942	0.0163751
727.020	0.0162807
727.098	0.0161325
727.176	0.0161012
727.254	0.0161634
727.332	0.0160577
727.410	0.0159881
727.488	0.0160220
727.567	0.0159655
727.645	0.0159464
727.723	0.0159951
727.801	0.0159904
727.879	0.0160126
727.957	0.0160746
728.035	0.0160410
728.113	0.0161591
728.192	0.0161969
728.270	0.0163773
728.348	0.0163474
728.426	0.0163475
728.504	0.0164053
728.582	0.0164951
728.660	0.0165782
728.738	0.0164337
728.817	0.0165555
728.895	0.0165141
728.973	0.0166397
729.051	0.0164548
729.129	0.0163701
729.207	0.0164276
729.285	0.0165884
729.363	0.0165280
729.442	0.0163622
729.520	0.0164585
729.598	0.0165132
729.676	0.0162890
729.754	0.0164890
729.832	0.0164339
729.910	0.0165394
729.988	0.0164515
730.067	0.0164336
730.145	0.0165260
730.223	0.0164811
730.301	0.0165623
730.379	0.0164392
730.457	0.0165027
730.535	0.0165967
730.613	0.0166554
730.692	0.0164941
730.770	0.0164759
730.848	0.0166552
730.926	0.0165549
731.004	0.0167995
731.082	0.0165194
731.160	0.0164771
731.238	0.0169016
731.317	0.0165084
731.395	0.0164294
731.473	0.0165688
731.551	0.0164502
731.629	0.0165203
731.707	0.0165509
731.785	0.0165850
731.863	0.0166129
731.942	0.0164272
732.020	0.0165462
732.098	0.0164008
732.176	0.0165536
732.254	0.0165854
732.332	0.0163628
732.410	0.0164795
732.488	0.0165744
732.567	0.0164542
732.645	0.0164294
732.723	0.0164758
732.801	0.0164427
732.879	0.0164830
732.957	0.0165852
733.035	0.0165445
733.113	0.0166357
733.192	0.0165950
733.270	0.0166651
733.348	0.0167274
733.426	0.0169169
733.504	0.0167490
733.582	0.0167702
733.660	0.0167549
733.738	0.0167460
733.817	0.0167483
733.895	0.0167165
733.973	0.0165881
734.051	0.0165784
734.129	0.0164649
734.207	0.0163934
734.285	0.0164371
734.363	0.0163355
734.442	0.0161600
734.520	0.0163702
734.598	0.0161766
734.676	0.0161151
734.754	0.0161997
734.832	0.0163243
734.910	0.0160906
734.988	0.0160958
735.067	0.0160982
735.145	0.0160916
735.223	0.0160416
735.301	0.0161658
735.379	0.0162173
735.457	0.0162437
735.535	0.0162200
735.613	0.0162601
735.692	0.0162526
735.770	0.0163435
735.848	0.0162565
735.926	0.0163810
736.004	0.0164107
736.082	0.0165138
736.160	0.0163880
736.238	0.0163300
736.317	0.0164839
736.395	0.0164275
736.473	0.0166595
736.551	0.0165614
736.629	0.0165382
736.707	0.0165145
736.785	0.0165739
736.863	0.0166090
736.942	0.0165643
737.020	0.0166702
737.098	0.0166344
737.176	0.0166470
737.254	0.0166771
737.332	0.0165686
737.410	0.0164804
737.488	0.0166558
737.567	0.0164391
737.645	0.0163538
737.723	0.0162498
737.801	0.0163753
737.879	0.0164316
737.957	0.0164225
738.035	0.0164268
738.113	0.0163507
738.192	0.0164464
738.270	0.0162381
738.348	0.0165192
738.426	0.0164519
738.504	0.0164669
738.582	0.0165212
738.660	0.0163656
738.738	0.0164349
738.817	0.0163316
738.895	0.0164942
738.973	0.0164995
739.051	0.0164670
739.129	0.0164005
739.207	0.0164410
739.285	0.0164135
739.363	0.0164401
739.442	0.0164027
739.520	0.0163425
739.598	0.0165099
739.676	0.0164353
739.754	0.0165575
739.832	0.0164058
739.910	0.0164690
739.988	0.0164566
740.067	0.0164762
740.145	0.0164629
740.223	0.0164652
740.301	0.0165111
740.379	0.0163074
740.457	0.0164301
740.535	0.0165802
740.613	0.0165550
740.692	0.0165705
740.770	0.0166686
740.848	0.0166322
740.926	0.0164784
741.004	0.0166479
741.082	0.0166752
741.160	0.0166446
741.238	0.0167679
741.317	0.0167770
741.395	0.0166046
741.473	0.0166611
741.551	0.0166042
741.629	0.0167162
741.707	0.0166420
741.785	0.0164719
741.863	0.0165674
741.942	0.0164326
742.020	0.0163816
742.098	0.0164534
742.176	0.0163352
742.254	0.0162711
742.332	0.0162765
742.410	0.0162446
742.488	0.0160658
742.567	0.0161865
742.645	0.0162718
742.723	0.0162405
742.801	0.0160999
742.879	0.0161097
742.957	0.0161791
743.035	0.0163309
743.113	0.0163831
743.192	0.0164218
743.270	0.0165374
743.348	0.0165511
743.426	0.0166033
743.504	0.0164514
743.582	0.0164001
743.660	0.0165830
743.738	0.0164693
743.817	0.0166389
743.895	0.0164733
743.973	0.0163611
744.051	0.0163711
744.129	0.0163701
744.207	0.0163471
744.285	0.0164499
744.363	0.0163326
744.442	0.0162535
744.520	0.0163662
744.598	0.0163444
744.676	0.0162444
744.754	0.0163869
744.832	0.0163091
744.910	0.0161961
744.988	0.0161951
745.067	0.0163322
745.145	0.0162369
745.223	0.0162307
745.301	0.0162456
745.379	0.0162275
745.457	0.0162487
745.535	0.0163882
745.613	0.0162278
745.692	0.0163876
745.770	0.0163374
745.848	0.0162581
745.926	0.0163771
746.004	0.0163196
746.082	0.0163551
746.160	0.0164298
746.238	0.0165082
746.317	0.0165082
746.395	0.0163757
746.473	0.0164081
746.551	0.0163873
746.629	0.0166034
746.707	0.0165775
746.785	0.0166649
746.863	0.0165420
746.942	0.0165591
747.020	0.0164745
747.098	0.0166367
747.176	0.0167261
747.254	0.0165056
747.332	0.0166107
747.410	0.0166164
747.488	0.0166887
747.567	0.0166675
747.645	0.0167586
747.723	0.0166361
747.801	0.0168347
747.879	0.0166940
747.957	0.0166112
748.035	0.0165974
748.113	0.0166174
748.192	0.0166500
748.270	0.0166215
748.348	0.0165555
748.426	0.0164368
748.504	0.0164259
748.582	0.0163577
748.660	0.0163215
748.738	0.0164812
748.817	0.0163136
748.895	0.0162998
748.973	0.0163300
749.051	0.0162951
749.129	0.0161680
749.207	0.0162894
749.285	0.0162086
749.363	0.0161455
749.442	0.0162195
749.520	0.0161733
749.598	0.0161636
749.676	0.0161967
749.754	0.0163192
749.832	0.0163355
749.910	0.0163106
749.988	0.0162865
750.067	0.0164489
750.145	0.0164320
750.223	0.0165611
750.301	0.0164040
750.379	0.0164116
750.457	0.0166257
750.535	0.0166241
750.613	0.0164532
750.692	0.0165622
750.770	0.0166140
750.848	0.0167162
750.926	0.0164203
751.004	0.0164127
751.082	0.0165709
751.160	0.0164024
751.238	0.0163480
751.317	0.0163046
751.395	0.0160927
751.473	0.0161083
751.551	0.0161578
751.629	0.0159855
751.707	0.0160107
751.785	0.0159334
751.863	0.0158689
751.942	0.0160275
752.020	0.0160375
752.098	0.0158730
752.176	0.0159634
752.254	0.0162641
752.332	0.0162693
752.410	0.0162123
752.488	0.0163791
752.567	0.0164777
752.645	0.0164764
752.723	0.0164472
752.801	0.0164872
752.879	0.0165197
752.957	0.0165191
753.035	0.0165771
753.113	0.0165894
753.192	0.0165148
753.270	0.0166494
753.348	0.0166082
753.426	0.0165353
753.504	0.0166768
753.582	0.0166634
753.660	0.0165740
753.738	0.0165994
753.817	0.0166470
753.895	0.0166189
753.973	0.0165372
754.051	0.0165874
754.129	0.0165474
754.207	0.0166173
754.285	0.0165331
754.363	0.0165013
754.442	0.0163805
754.520	0.0162819
754.598	0.0165443
754.676	0.0164644
754.754	0.0164223
754.832	0.0164280
754.910	0.0164753
754.988	0.0165794
755.067	0.0164041
755.145	0.0163941
755.223	0.0165276
755.301	0.0164303
755.379	0.0163613
755.457	0.0164864
755.535	0.0164413
755.613	0.0165524
755.692	0.0165361
755.770	0.0166293
755.848	0.0165797
755.926	0.0165659
756.004	0.0166995
756.082	0.0166915
756.160	0.0166493
756.238	0.0168029
756.317	0.0167273
756.395	0.0167909
756.473	0.0168668
756.551	0.0168193
756.629	0.0167345
756.707	0.0167867
756.785	0.0167812
756.863	0.0167124
756.942	0.0166504
757.020	0.0166068
757.098	0.0166602
757.176	0.0166096
757.254	0.0163464
757.332	0.0164140
757.410	0.0165221
757.488	0.0162573
757.567	0.0163295
757.645	0.0162627
757.723	0.0162753
757.801	0.0161923
757.879	0.0161634
757.957	0.0161418
758.035	0.0162256
758.113	0.0161885
758.192	0.0160500
758.270	0.0161440
758.348	0.0160732
758.426	0.0160358
758.504	0.0161620
758.582	0.0159033
758.660	0.0159781
758.738	0.0157466
758.817	0.0159737
758.895	0.0160437
758.973	0.0160869
759.051	0.0160747
759.129	0.0160407
759.207	0.0161293
759.285	0.0161743
759.363	0.0161634
759.442	0.0160923
759.520	0.0163665
759.598	0.0166000
759.676	0.0166605
759.754	0.0166239
759.832	0.0166879
759.910	0.0166420
759.988	0.0168190
760.067	0.0168431
760.145	0.0167450
760.223	0.0168842
760.301	0.0168941
760.379	0.0168668
760.457	0.0168056
760.535	0.0167197
760.613	0.0167635
760.692	0.0167997
760.770	0.0166957
760.848	0.0168295
760.926	0.0168205
761.004	0.0168123
761.082	0.0167080
761.160	0.0166819
761.238	0.0166924
761.317	0.0165125
761.395	0.0164687
761.473	0.0166299
761.551	0.0164745
761.629	0.0162255
761.707	0.0162620
761.785	0.0162694
761.863	0.0162760
761.942	0.0163322
762.020	0.0162325
762.098	0.0162712
762.176	0.0162438
762.254	0.0164057
762.332	0.0162505
762.410	0.0163065
762.488	0.0162952
762.567	0.0162910
762.645	0.0162448
762.723	0.0164181
762.801	0.0164154
762.879	0.0164787
762.957	0.0164011
763.035	0.0164471
763.113	0.0164317
763.192	0.0164954
763.270	0.0164616
763.348	0.0166108
763.426	0.0165424
763.504	0.0164028
763.582	0.0165192
763.660	0.0165691
763.738	0.0165658
763.817	0.0164754
763.895	0.0164509
763.973	0.0165576
764.051	0.0166728
764.129	0.0166403
764.207	0.0164929
764.285	0.0165174
764.363	0.0164791
764.442	0.0166498
764.520	0.0166908
764.598	0.0168120
764.676	0.0167422
764.754	0.0169273
764.832	0.0167233
764.910	0.0167163
764.988	0.0167676
765.067	0.0165688
765.145	0.0166177
765.223	0.0165515
765.301	0.0164896
765.379	0.0165137
765.457	0.0164478
765.535	0.0164606
765.613	0.0162740
765.692	0.0161514
765.770	0.0161592
765.848	0.0160911
765.926	0.0160444
766.004	0.0160057
766.082	0.0160640
766.160	0.0158318
766.238	0.0158582
766.317	0.0159881
766.395	0.0159550
766.473	0.0158409
766.551	0.0158984
766.629	0.0160335
766.707	0.0159843
766.785	0.0162252
766.863	0.0162747
766.942	0.0162987
767.020	0.0161421
767.098	0.0164154
767.176	0.0163625
767.254	0.0164237
767.332	0.0164870
767.410	0.0163154
767.488	0.0164135
767.567	0.0164803
767.645	0.0161906
767.723	0.0162538
767.801	0.0162770
767.879	0.0162213
767.957	0.0162826
768.035	0.0162798
768.113	0.0162690
768.192	0.0162354
768.270	0.0162298
768.348	0.0164167
768.426	0.0163747
768.504	0.0163728
768.582	0.0164268
768.660	0.0163125
768.738	0.0164536
768.817	0.0165427
768.895	0.0165035
768.973	0.0166314
769.051	0.0166490
769.129	0.0168131
769.207	0.0168661
769.285	0.0167510
769.363	0.0167165
769.442	0.0167858
769.520	0.0167239
769.598	0.0167896
769.676	0.0166480
769.754	0.0167431
769.832	0.0167133
769.910	0.0166918
769.988	0.0166376
770.067	0.0166785
770.145	0.0166954
770.223	0.0166251
770.301	0.0166390
770.379	0.0165627
770.457	0.0165467
770.535	0.0165634
770.613	0.0164140
770.692	0.0164890
770.770	0.0164520
770.848	0.0164501
770.926	0.0163909
771.004	0.0164961
771.082	0.0163457
771.160	0.0162539
771.238	0.0163531
771.317	0.0164114
771.395	0.0162962
771.473	0.0162030
771.551	0.0162858
771.629	0.0162904
771.707	0.0164910
771.785	0.0161448
771.863	0.0161234
771.942	0.0161530
772.020	0.0162756
772.098	0.0162427
772.176	0.0161110
772.254	0.0160947
772.332	0.0160576
772.410	0.0160609
772.488	0.0160569
772.567	0.0162547
772.645	0.0161752
772.723	0.0161287
772.801	0.0162295
772.879	0.0161246
772.957	0.0163002
773.035	0.0162872
773.113	0.0164718
773.192	0.0164623
773.270	0.0162895
773.348	0.0164575
773.426	0.0163868
773.504	0.0164275
773.582	0.0163911
773.660	0.0163927
773.738	0.0165359
773.817	0.0162960
773.895	0.0163457
773.973	0.0162881
774.051	0.0160585
774.129	0.0161436
774.207	0.0161626
774.285	0.0161742
774.363	0.0161002
774.442	0.0160926
774.520	0.0162395
774.598	0.0162154
774.676	0.0164201
774.754	0.0162792
774.832	0.0162690
774.910	0.0162232
774.988	0.0162066
775.067	0.0163473
775.145	0.0164128
775.223	0.0163474
775.301	0.0163072
775.379	0.0164289
775.457	0.0164256
775.535	0.0163059
775.613	0.0164679
775.692	0.0166044
775.770	0.0162955
775.848	0.0163252
775.926	0.0164863
776.004	0.0166118
776.082	0.0167011
776.160	0.0165353
776.238	0.0166837
776.317	0.0167210
776.395	0.0166708
776.473	0.0168533
776.551	0.0168333
776.629	0.0169136
776.707	0.0168744
776.785	0.0167821
776.863	0.0166891
776.942	0.0168728
777.020	0.0168616
777.098	0.0167756
777.176	0.0167839
777.254	0.0166985
777.332	0.0168534
777.410	0.0167036
777.488	0.0167451
777.567	0.0167844
777.645	0.0168664
777.723	0.0166228
777.801	0.0167211
777.879	0.0166721
777.957	0.0166676
778.035	0.0165504
778.113	0.0165446
778.192	0.0165455
778.270	0.0167489
778.348	0.0164835
778.426	0.0165717
778.504	0.0165160
778.582	0.0164162
778.660	0.0164951
778.738	0.0162881
778.817	0.0162740
778.895	0.0162355
778.973	0.0162760
779.051	0.0162870
779.129	0.0163771
779.207	0.0163792
779.285	0.0162011
779.363	0.0162152
779.442	0.0162997
779.520	0.0162129
779.598	0.0160821
779.676	0.0159299
779.754	0.0161513
779.832	0.0162877
779.910	0.0161003
779.988	0.0160617
780.067	0.0161267
780.145	0.0161958
780.223	0.0164277
780.301	0.0162916
780.379	0.0162206
780.457	0.0163113
780.535	0.0163746
780.613	0.0163467
780.692	0.0165047
780.770	0.0162141
780.848	0.0163834
780.926	0.0164639
781.004	0.0165190
781.082	0.0163519
781.160	0.0163586
781.238	0.0164101
781.317	0.0162615
781.395	0.0162983
781.473	0.0163071
781.551	0.0163651
781.629	0.0162792
781.707	0.0162647
781.785	0.0163412
781.863	0.0163103
781.942	0.0162856
782.020	0.0162008
782.098	0.0163288
782.176	0.0163680
782.254	0.0163955
782.332	0.0164930
782.410	0.0164495
782.488	0.0164989
782.567	0.0165071
782.645	0.0165500
782.723	0.0166390
782.801	0.0165058
782.879	0.0166185
782.957	0.0166177
783.035	0.0166846
783.113	0.0164973
783.192	0.0166331
783.270	0.0167212
783.348	0.0164937
783.426	0.0165890
783.504	0.0166490
783.582	0.0166275
783.660	0.0165221
783.738	0.0166598
783.817	0.0165872
783.895	0.0165597
783.973	0.0166248
784.051	0.0164413
784.129	0.0165411
784.207	0.0165147
784.285	0.0165185
784.363	0.0165336
784.442	0.0165688
784.520	0.0165422
784.598	0.0165942
784.676	0.0166265
784.754	0.0166100
784.832	0.0164803
784.910	0.0165958
784.988	0.0168034
785.067	0.0167768
785.145	0.0167512
785.223	0.0168164
785.301	0.0168626
785.379	0.0168274
785.457	0.0165541
785.535	0.0166742
785.613	0.0166495
785.692	0.0165294
785.770	0.0166153
785.848	0.0164209
785.926	0.0164391
786.004	0.0164616
786.082	0.0164471
786.160	0.0164760
786.238	0.0163457
786.317	0.0163242
786.395	0.0164069
786.473	0.0161966
786.551	0.0163406
786.629	0.0162844
786.707	0.0161166
786.785	0.0161122
786.863	0.0161822
786.942	0.0162635
787.020	0.0161641
787.098	0.0161867
787.176	0.0160801
787.254	0.0161298
787.332	0.0160252
787.410	0.0159663
787.488	0.0160748
787.567	0.0160148
787.645	0.0159093
787.723	0.0160741
787.801	0.0159409
787.879	0.0158852
787.957	0.0159930
788.035	0.0160262
788.113	0.0160958
788.192	0.0160698
788.270	0.0161185
788.348	0.0161069
788.426	0.0161929
788.504	0.0161229
788.582	0.0161747
788.660	0.0164267
788.738	0.0162804
788.817	0.0164094
788.895	0.0164953
788.973	0.0165421
789.051	0.0164974
789.129	0.0165218
789.207	0.0165538
789.285	0.0165434
789.363	0.0164992
789.442	0.0164948
789.520	0.0166666
789.598	0.0164203
789.676	0.0166488
789.754	0.0167409
789.832	0.0167058
789.910	0.0165970
789.988	0.0166309
790.067	0.0166475
790.145	0.0167305
790.223	0.0165312
790.301	0.0166525
790.379	0.0165425
790.457	0.0166100
790.535	0.0166701
790.613	0.0166249
790.692	0.0165997
790.770	0.0166177
790.848	0.0164889
790.926	0.0164321
791.004	0.0164958
791.082	0.0164449
791.160	0.0164702
791.238	0.0163929
791.317	0.0164165
791.395	0.0164731
791.473	0.0163544
791.551	0.0163467
791.629	0.0163960
791.707	0.0164359
791.785	0.0163128
791.863	0.0164079
791.942	0.0163685
792.020	0.0164390
792.098	0.0162926
792.176	0.0164021
792.254	0.0163681
792.332	0.0164148
792.410	0.0162623
792.488	0.0162763
792.567	0.0163860
792.645	0.0165432
792.723	0.0164729
792.801	0.0164162
792.879	0.0163692
792.957	0.0164195
793.035	0.0164593
793.113	0.0163373
793.192	0.0163876
793.270	0.0164315
793.348	0.0164428
793.426	0.0163667
793.504	0.0164573
793.582	0.0163453
793.660	0.0162265
793.738	0.0161517
793.817	0.0164045
793.895	0.0163202
793.973	0.0163073
794.051	0.0162989
794.129	0.0163117
794.207	0.0162966
794.285	0.0164247
794.363	0.0162203
794.442	0.0163517
794.520	0.0164985
794.598	0.0164604
794.676	0.0164231
794.754	0.0164747
794.832	0.0164014
794.910	0.0163416
794.988	0.0165371
795.067	0.0166482
795.145	0.0165466
795.223	0.0165028
795.301	0.0165065
795.379	0.0164412
795.457	0.0164697
795.535	0.0164001
795.613	0.0164559
795.692	0.0164375
795.770	0.0163638
795.848	0.0164943
795.926	0.0165212
796.004	0.0163486
796.082	0.0163166
796.160	0.0162510
796.238	0.0162318
796.317	0.0161931
796.395	0.0163299
796.473	0.0163524
796.551	0.0162563
796.629	0.0162451
796.707	0.0162826
796.785	0.0162426
796.863	0.0160358
796.942	0.0161526
797.020	0.0161305
797.098	0.0162672
797.176	0.0161420
797.254	0.0162734
797.332	0.0162805
797.410	0.0162188
797.488	0.0163144
797.567	0.0163213
797.645	0.0161794
797.723	0.0161285
797.801	0.0162965
797.879	0.0163593
797.957	0.0162381
798.035	0.0163962
798.113	0.0164343
798.192	0.0163579
798.270	0.0163566
798.348	0.0165013
798.426	0.0164955
798.504	0.0163349
798.582	0.0163829
798.660	0.0165381
798.738	0.0165948
798.817	0.0164558
798.895	0.0164290
798.973	0.0164050
799.051	0.0164151
799.129	0.0165212
799.207	0.0165269
799.285	0.0164747
799.363	0.0164371
799.442	0.0164696
799.520	0.0164037
799.598	0.0165154
799.676	0.0163585
799.754	0.0165874
799.832	0.0164289
799.910	0.0165150
799.988	0.0166332
800.067	0.0165548
800.145	0.0165160
800.223	0.0165060
800.301	0.0165331
800.379	0.0167323
800.457	0.0167463
800.535	0.0166254
800.613	0.0165783
800.692	0.0165170
800.770	0.0165936
800.848	0.0168520
800.926	0.0165847
801.004	0.0166351
801.082	0.0166014
801.160	0.0166332
801.238	0.0166204
801.317	0.0166588
801.395	0.0164684
801.473	0.0166102
801.551	0.0164861
801.629	0.0165090
801.707	0.0165073
801.785	0.0164246
801.863	0.0164354
801.942	0.0164226
802.020	0.0163303
802.098	0.0163766
802.176	0.0163712
802.254	0.0163631
802.332	0.0161332
802.410	0.0162611
802.488	0.0161359
802.567	0.0162551
802.645	0.0161835
802.723	0.0160602
802.801	0.0161760
802.879	0.0161687
802.957	0.0162057
803.035	0.0162064
803.113	0.0160462
803.192	0.0162952
803.270	0.0164554
803.348	0.0161773
803.426	0.0162077
803.504	0.0162375
803.582	0.0162097
803.660	0.0162701
803.738	0.0162611
803.817	0.0162639
803.895	0.0162971
803.973	0.0163915
804.051	0.0161275
804.129	0.0162605
804.207	0.0161974
804.285	0.0162590
804.363	0.0164171
804.442	0.0161842
804.520	0.0163577
804.598	0.0164142
804.676	0.0164323
804.754	0.0163757
804.832	0.0163866
804.910	0.0165484
804.988	0.0165453
805.067	0.0164032
805.145	0.0164700
805.223	0.0165548
805.301	0.0165475
805.379	0.0166810
805.457	0.0164903
805.535	0.0165456
805.613	0.0167175
805.692	0.0166837
805.770	0.0166057
805.848	0.0167617
805.926	0.0168060
806.004	0.0168018
806.082	0.0167015
806.160	0.0166579
806.238	0.0169077
806.317	0.0168024
806.395	0.0167522
806.473	0.0166607
806.551	0.0165955
806.629	0.0166029
806.707	0.0168185
806.785	0.0166659
806.863	0.0166874
806.942	0.0165959
807.020	0.0166188
807.098	0.0165893
807.176	0.0165482
807.254	0.0166110
807.332	0.0166199
807.410	0.0164316
807.488	0.0163732
807.567	0.0162573
807.645	0.0164008
807.723	0.0165280
807.801	0.0163093
807.879	0.0163212
807.957	0.0164931
808.035	0.0162688
808.113	0.0163083
808.192	0.0162047
808.270	0.0162379
808.348	0.0162366
808.426	0.0162851
808.504	0.0160643
808.582	0.0162077
808.660	0.0161376
808.738	0.0162045
808.817	0.0162840
808.895	0.0162100
808.973	0.0162315
809.051	0.0162576
809.129	0.0163233
809.207	0.0163760
809.285	0.0163816
809.363	0.0163755
809.442	0.0163849
809.520	0.0165385
809.598	0.0166147
809.676	0.0164143
809.754	0.0164773
809.832	0.0165641
809.910	0.0164257
809.988	0.0166644
810.067	0.0163178
810.145	0.0163278
810.223	0.0164306
810.301	0.0164749
810.379	0.0164184
810.457	0.0164019
810.535	0.0164085
810.613	0.0163924
810.692	0.0164500
810.770	0.0164477
810.848	0.0165074
810.926	0.0165276
811.004	0.0164884
811.082	0.0162454
811.160	0.0164050
811.238	0.0164332
811.317	0.0164001
811.395	0.0164671
811.473	0.0164700
811.551	0.0164810
811.629	0.0164648
811.707	0.0164571
811.785	0.0164012
811.863	0.0163342
811.942	0.0163676
812.020	0.0164933
812.098	0.0165424
812.176	0.0163292
812.254	0.0165236
812.332	0.0164085
812.410	0.0165160
812.488	0.0166160
812.567	0.0163944
812.645	0.0166274
812.723	0.0165141
812.801	0.0164227
812.879	0.0165021
812.957	0.0165543
813.035	0.0165150
813.113	0.0165234
813.192	0.0165425
813.270	0.0164686
813.348	0.0164459
813.426	0.0164088
813.504	0.0164858
813.582	0.0164622
813.660	0.0165685
813.738	0.0164679
813.817	0.0166569
813.895	0.0165689
813.973	0.0164197
814.051	0.0164658
814.129	0.0166712
814.207	0.0166402
814.285	0.0166312
814.363	0.0165087
814.442	0.0164993
814.520	0.0166231
814.598	0.0166076
814.676	0.0164409
814.754	0.0165728
814.832	0.0164217
814.910	0.0165439
814.988	0.0162364
815.067	0.0164944
815.145	0.0164500
815.223	0.0164723
815.301	0.0164101
815.379	0.0163875
815.457	0.0165255
815.535	0.0165279
815.613	0.0162952
815.692	0.0164008
815.770	0.0164552
815.848	0.0164766
815.926	0.0164833
816.004	0.0162716
816.082	0.0164471
816.160	0.0163739
816.238	0.0163347
816.317	0.0163871
816.395	0.0164571
816.473	0.0164287
816.551	0.0163647
816.629	0.0163729
816.707	0.0164264
816.785	0.0163493
816.863	0.0163193
816.942	0.0163666
817.020	0.0163990
817.098	0.0164529
817.176	0.0164442
817.254	0.0164503
817.332	0.0164180
817.410	0.0163806
817.488	0.0164393
817.567	0.0164947
817.645	0.0164384
817.723	0.0164309
817.801	0.0163933
817.879	0.0164577
817.957	0.0164053
818.035	0.0162451
818.113	0.0165135
818.192	0.0165367
818.270	0.0165083
818.348	0.0165205
818.426	0.0163943
818.504	0.0164147
818.582	0.0164400
818.660	0.0164280
818.738	0.0162942
818.817	0.0164907
818.895	0.0163673
818.973	0.0164791
819.051	0.0164725
819.129	0.0164103
819.207	0.0164915
819.285	0.0164896
819.363	0.0163849
819.442	0.0165672
819.520	0.0165733
819.598	0.0163973
819.676	0.0163499
819.754	0.0163900
819.832	0.0163768
819.910	0.0164216
819.988	0.0163708
820.067	0.0164476
820.145	0.0166455
820.223	0.0163982
820.301	0.0165156
820.379	0.0165858
820.457	0.0166904
820.535	0.0164414
820.613	0.0164263
820.692	0.0165211
820.770	0.0166111
820.848	0.0164766
820.926	0.0164597
821.004	0.0165376
821.082	0.0166498
821.160	0.0165013
821.238	0.0164406
821.317	0.0162952
821.395	0.0162592
821.473	0.0163792
821.551	0.0163393
821.629	0.0163572
821.707	0.0162002
821.785	0.0162270
821.863	0.0163744
821.942	0.0162874
822.020	0.0164346
822.098	0.0163613
822.176	0.0161827
822.254	0.0162337
822.332	0.0163044
822.410	0.0162867
822.488	0.0162231
822.567	0.0163610
822.645	0.0163291
822.723	0.0164140
822.801	0.0164279
822.879	0.0163958
822.957	0.0163303
823.035	0.0163854
823.113	0.0163644
823.192	0.0164043
823.270	0.0163299
823.348	0.0164453
823.426	0.0165242
823.504	0.0163955
823.582	0.0165256
823.660	0.0164240
823.738	0.0163598
823.817	0.0164207
823.895	0.0164481
823.973	0.0163309
824.051	0.0161910
824.129	0.0165124
824.207	0.0164257
824.285	0.0165346
824.363	0.0165750
824.442	0.0163660
824.520	0.0165336
824.598	0.0164209
824.676	0.0165221
824.754	0.0165135
824.832	0.0165046
824.910	0.0164489
824.988	0.0164521
825.067	0.0165010
825.145	0.0164561
825.223	0.0164566
825.301	0.0164178
825.379	0.0165166
825.457	0.0164433
825.535	0.0163581
825.613	0.0163122
825.692	0.0163993
825.770	0.0164321
825.848	0.0165728
825.926	0.0165276
826.004	0.0163544
826.082	0.0164249
826.160	0.0164794
826.238	0.0164068
826.317	0.0164328
826.395	0.0163771
826.473	0.0163680
826.551	0.0166018
826.629	0.0162962
826.707	0.0165092
826.785	0.0164404
826.863	0.0164880
826.942	0.0164837
827.020	0.0164260
827.098	0.0165308
827.176	0.0164388
827.254	0.0164528
827.332	0.0165900
827.410	0.0164084
827.488	0.0163766
827.567	0.0164919
827.645	0.0163799
827.723	0.0165406
827.801	0.0164857
827.879	0.0162808
827.957	0.0163424
828.035	0.0164187
828.113	0.0164448
828.192	0.0163768
828.270	0.0163716
828.348	0.0162634
828.426	0.0164364
828.504	0.0162855
828.582	0.0163406
828.660	0.0162824
828.738	0.0164232
828.817	0.0163577
828.895	0.0164013
828.973	0.0163303
829.051	0.0161258
829.129	0.0163539
829.207	0.0162815
829.285	0.0164077
829.363	0.0162988
829.442	0.0162494
829.520	0.0162206
829.598	0.0163931
829.676	0.0164129
829.754	0.0165134
829.832	0.0164290
829.910	0.0164539
829.988	0.0165340
830.067	0.0164536
830.145	0.0165141
830.223	0.0165047
830.301	0.0165065
830.379	0.0165798
830.457	0.0164805
830.535	0.0165553
830.613	0.0165289
830.692	0.0164816
830.770	0.0165629
830.848	0.0166026
830.926	0.0166779
831.004	0.0166106
831.082	0.0165962
831.160	0.0165611
831.238	0.0165112
831.317	0.0166511
831.395	0.0166401
831.473	0.0165723
831.551	0.0164750
831.629	0.0164714
831.707	0.0163316
831.785	0.0165295
831.863	0.0165493
831.942	0.0165633
832.020	0.0163674
832.098	0.0164173
832.176	0.0165065
832.254	0.0164027
832.332	0.0165197
832.410	0.0164279
832.488	0.0163117
832.567	0.0163431
832.645	0.0163657
832.723	0.0164223
832.801	0.0163494
832.879	0.0163393
832.957	0.0164916
833.035	0.0164615
833.113	0.0164551
833.192	0.0165409
833.270	0.0164091
833.348	0.0165663
833.426	0.0165369
833.504	0.0164464
833.582	0.0166125
833.660	0.0165514
833.738	0.0165289
833.817	0.0165242
833.895	0.0165688
833.973	0.0165273
834.051	0.0165119
834.129	0.0164278
834.207	0.0164367
834.285	0.0164165
834.363	0.0163664
834.442	0.0163460
834.520	0.0165589
834.598	0.0165037
834.676	0.0164389
834.754	0.0163618
834.832	0.0163126
834.910	0.0162744
834.988	0.0162762
835.067	0.0163071
835.145	0.0164303
835.223	0.0162497
835.301	0.0163255
835.379	0.0163493
835.457	0.0163374
835.535	0.0163689
835.613	0.0163904
835.692	0.0163326
835.770	0.0162868
835.848	0.0164034
835.926	0.0164776
836.004	0.0164564
836.082	0.0164361
836.160	0.0165218
836.238	0.0164066
836.317	0.0166064
836.395	0.0165321
836.473	0.0162735
836.551	0.0164867
836.629	0.0165137
836.707	0.0163415
836.785	0.0164394
836.863	0.0163824
836.942	0.0164381
837.020	0.0164761
837.098	0.0164826
837.176	0.0163704
837.254	0.0162069
837.332	0.0164566
837.410	0.0166323
837.488	0.0164606
837.567	0.0162885
837.645	0.0164344
837.723	0.0165108
837.801	0.0164428
837.879	0.0163805
837.957	0.0164041
838.035	0.0164901
838.113	0.0165935
838.192	0.0164146
838.270	0.0165797
838.348	0.0163631
838.426	0.0164127
838.504	0.0164393
838.582	0.0166445
838.660	0.0164313
838.738	0.0165205
838.817	0.0165057
838.895	0.0165339
838.973	0.0166069
839.051	0.0165759
839.129	0.0166045
839.207	0.0166757
839.285	0.0165687
839.363	0.0165758
839.442	0.0165567
839.520	0.0166258
839.598	0.0165451
839.676	0.0164789
839.754	0.0166957
839.832	0.0166544
839.910	0.0165438
839.988	0.0164522
840.067	0.0165536
840.145	0.0165604
840.223	0.0165694
840.301	0.0166748
840.379	0.0166480
840.457	0.0165754
840.535	0.0165417
840.613	0.0165626
840.692	0.0165501
840.770	0.0165462
840.848	0.0165322
840.926	0.0165603
841.004	0.0165508
841.082	0.0164112
841.160	0.0164823
841.238	0.0165755
841.317	0.0165065
841.395	0.0165682
841.473	0.0164687
841.551	0.0165331
841.629	0.0164583
841.707	0.0164871
841.785	0.0164908
841.863	0.0163902
841.942	0.0163374
842.020	0.0165148
842.098	0.0165163
842.176	0.0164570
842.254	0.0165031
842.332	0.0165007
842.410	0.0165205
842.488	0.0163811
842.567	0.0165168
842.645	0.0164604
842.723	0.0165083
842.801	0.0163564
842.879	0.0163353
842.957	0.0164382
843.035	0.0162771
843.113	0.0162684
843.192	0.0163316
843.270	0.0163695
843.348	0.0163441
843.426	0.0161887
843.504	0.0160970
843.582	0.0163211
843.660	0.0162366
843.738	0.0163260
843.817	0.0161151
843.895	0.0161751
843.973	0.0163943
844.051	0.0162770
844.129	0.0162500
844.207	0.0164151
844.285	0.0164183
844.363	0.0163718
844.442	0.0165720
844.520	0.0164293
844.598	0.0163934
844.676	0.0164514
844.754	0.0164648
844.832	0.0164417
844.910	0.0165086
844.988	0.0163857
845.067	0.0163013
845.145	0.0164030
845.223	0.0165170
845.301	0.0164056
845.379	0.0165639
845.457	0.0165311
845.535	0.0165182
845.613	0.0164685
845.692	0.0164317
845.770	0.0165572
845.848	0.0166096
845.926	0.0166268
846.004	0.0165443
846.082	0.0164297
846.160	0.0164354
846.238	0.0163984
846.317	0.0164386
846.395	0.0163873
846.473	0.0164692
846.551	0.0164365
846.629	0.0164494
846.707	0.0164481
846.785	0.0165073
846.863	0.0163617
846.942	0.0164274
847.020	0.0164809
847.098	0.0162769
847.176	0.0163121
847.254	0.0164298
847.332	0.0164598
847.410	0.0165585
847.488	0.0163792
847.567	0.0163512
847.645	0.0163726
847.723	0.0165683
847.801	0.0166002
847.879	0.0165620
847.957	0.0164376
848.035	0.0162425
848.113	0.0163457
848.192	0.0164581
848.270	0.0165991
848.348	0.0166045
848.426	0.0165294
848.504	0.0165229
848.582	0.0164629
848.660	0.0163786
848.738	0.0164650
848.817	0.0164204
848.895	0.0164095
848.973	0.0163616
849.051	0.0163239
849.129	0.0163801
849.207	0.0163336
849.285	0.0164651
849.363	0.0162572
849.442	0.0163485
849.520	0.0164133
849.598	0.0162701
849.676	0.0162914
849.754	0.0163372
849.832	0.0162543
849.910	0.0161161
849.988	0.0162359
850.067	0.0161800
850.145	0.0161301
850.223	0.0161131
850.301	0.0161894
850.379	0.0161913
850.457	0.0161888
850.535	0.0161108
850.613	0.0161511
850.692	0.0162092
850.770	0.0161256
850.848	0.0162018
850.926	0.0161601
851.004	0.0162183
851.082	0.0160926
851.160	0.0163604
851.238	0.0164076
851.317	0.0163599
851.395	0.0164349
851.473	0.0164264
851.551	0.0164793
851.629	0.0162938
851.707	0.0164294
851.785	0.0165961
851.863	0.0163647
851.942	0.0164514
852.020	0.0164421
852.098	0.0163974
852.176	0.0163384
852.254	0.0162777
852.332	0.0161458
852.410	0.0163263
852.488	0.0162225
852.567	0.0161414
852.645	0.0161961
852.723	0.0161919
852.801	0.0161143
852.879	0.0163267
852.957	0.0162193
853.035	0.0161874
853.113	0.0163374
853.192	0.0163350
853.270	0.0164565
853.348	0.0164685
853.426	0.0164632
853.504	0.0165987
853.582	0.0165322
853.660	0.0165768
853.738	0.0165220
853.817	0.0165384
853.895	0.0165778
853.973	0.0166273
854.051	0.0166254
854.129	0.0166906
854.207	0.0164362
854.285	0.0165504
854.363	0.0165810
854.442	0.0165539
854.520	0.0164922
854.598	0.0165845
854.676	0.0165456
854.754	0.0166421
854.832	0.0165744
854.910	0.0166236
854.988	0.0165607
855.067	0.0166917
855.145	0.0166180
855.223	0.0167393
855.301	0.0167504
855.379	0.0167166
855.457	0.0166832
855.535	0.0166818
855.613	0.0166295
855.692	0.0166628
855.770	0.0166649
855.848	0.0166156
855.926	0.0165421
856.004	0.0165182
856.082	0.0166407
856.160	0.0166863
856.238	0.0165291
856.317	0.0164872
856.395	0.0164688
856.473	0.0164316
856.551	0.0165143
856.629	0.0164017
856.707	0.0164314
856.785	0.0163371
856.863	0.0163012
856.942	0.0162375
857.020	0.0163877
857.098	0.0160406
857.176	0.0162843
857.254	0.0163166
857.332	0.0161426
857.410	0.0161590
857.488	0.0161308
857.567	0.0162355
857.645	0.0162014
857.723	0.0162060
857.801	0.0160983
857.879	0.0160564
857.957	0.0163103
858.035	0.0161139
858.113	0.0162852
858.192	0.0162724
858.270	0.0164040
858.348	0.0161317
858.426	0.0162061
858.504	0.0163012
858.582	0.0162749
858.660	0.0161019
858.738	0.0162251
858.817	0.0161530
858.895	0.0161935
858.973	0.0161709
859.051	0.0162923
859.129	0.0162514
859.207	0.0164077
859.285	0.0164016
859.363	0.0165871
859.442	0.0167337
859.520	0.0166213
859.598	0.0166416
859.676	0.0169189
859.754	0.0167686
859.832	0.0169405
859.910	0.0169847
859.988	0.0168301
860.067	0.0168696
860.145	0.0168790
860.223	0.0168977
860.301	0.0168474
860.379	0.0168208
860.457	0.0166976
860.535	0.0165784
860.613	0.0164742
860.692	0.0163486
860.770	0.0163264
860.848	0.0163337
860.926	0.0160832
861.004	0.0159892
861.082	0.0161565
861.160	0.0161462
861.238	0.0160606
861.317	0.0161180
861.395	0.0162428
861.473	0.0163612
861.551	0.0164241
861.629	0.0164473
861.707	0.0164115
861.785	0.0167681
861.863	0.0167756
861.942	0.0167255
862.020	0.0169451
862.098	0.0168940
862.176	0.0168378
862.254	0.0169352
862.332	0.0166963
862.410	0.0166953
862.488	0.0166873
862.567	0.0168298
862.645	0.0165999
862.723	0.0164558
862.801	0.0165662
862.879	0.0165094
862.957	0.0163721
863.035	0.0162334
863.113	0.0163221
863.192	0.0164298
863.270	0.0163013
863.348	0.0163497
863.426	0.0163342
863.504	0.0164935
863.582	0.0164384
863.660	0.0165005
863.738	0.0165169
863.817	0.0162941
863.895	0.0163737
863.973	0.0164766
864.051	0.0164239
864.129	0.0164155
864.207	0.0166463
864.285	0.0164747
864.363	0.0165063
864.442	0.0165586
864.520	0.0164930
864.598	0.0166451
864.676	0.0165884
864.754	0.0165612
864.832	0.0164632
864.910	0.0165542
864.988	0.0164770
865.067	0.0163700
865.145	0.0164888
865.223	0.0165179
865.301	0.0164568
865.379	0.0164227
865.457	0.0164339
865.535	0.0163182
865.613	0.0162558
865.692	0.0160102
865.770	0.0160866
865.848	0.0160307
865.926	0.0159293
866.004	0.0158501
866.082	0.0158475
866.160	0.0158027
866.238	0.0157642
866.317	0.0159796
866.395	0.0159511
866.473	0.0159835
866.551	0.0161327
866.629	0.0160886
866.707	0.0161294
866.785	0.0161526
866.863	0.0161629
866.942	0.0162563
867.020	0.0164256
867.098	0.0165311
867.176	0.0165316
867.254	0.0167287
867.332	0.0166663
867.410	0.0166172
867.488	0.0167254
867.567	0.0167152
867.645	0.0167387
867.723	0.0167655
867.801	0.0166194
867.879	0.0167467
867.957	0.0167789
868.035	0.0167545
868.113	0.0166179
868.192	0.0165392
868.270	0.0166683
868.348	0.0165655
868.426	0.0164395
868.504	0.0165884
868.582	0.0164942
868.660	0.0164375
868.738	0.0163939
868.817	0.0162763
868.895	0.0163066
868.973	0.0164967
869.051	0.0163165
869.129	0.0165128
869.207	0.0163757
869.285	0.0164317
869.363	0.0162887
869.442	0.0163729
869.520	0.0163805
869.598	0.0164282
869.676	0.0162780
869.754	0.0164832
869.832	0.0163930
869.910	0.0164511
869.988	0.0164849
870.067	0.0165498
870.145	0.0165544
870.223	0.0165116
870.301	0.0165670
870.379	0.0166846
870.457	0.0164817
870.535	0.0165025
870.613	0.0166266
870.692	0.0166302
870.770	0.0165644
870.848	0.0164745
870.926	0.0165604
871.004	0.0164529
871.082	0.0165718
871.160	0.0165188
871.238	0.0164326
871.317	0.0166222
871.395	0.0164500
871.473	0.0165039
871.551	0.0164349
871.629	0.0165742
871.707	0.0164513
871.785	0.0164219
871.863	0.0164696
871.942	0.0163396
872.020	0.0163704
872.098	0.0163721
872.176	0.0162782
872.254	0.0162697
872.332	0.0160506
872.410	0.0161414
872.488	0.0161641
872.567	0.0160107
872.645	0.0161628
872.723	0.0160913
872.801	0.0160960
872.879	0.0163039
872.957	0.0162113
873.035	0.0163603
873.113	0.0163530
873.192	0.0163168
873.270	0.0163753
873.348	0.0164618
873.426	0.0163472
873.504	0.0162976
873.582	0.0162771
873.660	0.0162928
873.738	0.0162846
873.817	0.0162191
873.895	0.0160682
873.973	0.0160104
874.051	0.0161372
874.129	0.0159110
874.207	0.0159180
874.285	0.0159229
874.363	0.0159550
874.442	0.0158649
874.520	0.0158980
874.598	0.0159223
874.676	0.0158758
874.754	0.0159636
874.832	0.0160837
874.910	0.0162065
874.988	0.0160908
875.067	0.0162290
875.145	0.0163882
875.223	0.0165100
875.301	0.0164826
875.379	0.0166885
875.457	0.0167207
875.535	0.0167769
875.613	0.0168600
875.692	0.0167075
875.770	0.0168021
875.848	0.0168069
875.926	0.0167904
876.004	0.0167751
876.082	0.0166887
876.160	0.0166469
876.238	0.0165176
876.317	0.0164480
876.395	0.0163818
876.473	0.0165282
876.551	0.0164459
876.629	0.0163904
876.707	0.0164398
876.785	0.0162585
876.863	0.0162872
876.942	0.0162957
877.020	0.0164202
877.098	0.0164497
877.176	0.0164817
877.254	0.0165504
877.332	0.0164362
877.410	0.0166006
877.488	0.0165500
877.567	0.0165598
877.645	0.0166891
877.723	0.0166147
877.801	0.0166650
877.879	0.0166712
877.957	0.0166879
878.035	0.0164525
878.113	0.0165414
878.192	0.0165987
878.270	0.0165507
878.348	0.0164626
878.426	0.0164099
878.504	0.0163009
878.582	0.0164249
878.660	0.0163634
878.738	0.0163581
878.817	0.0164293
878.895	0.0164465
878.973	0.0164737
879.051	0.0165228
879.129	0.0163308
879.207	0.0163638
879.285	0.0162081
879.363	0.0164398
879.442	0.0163995
879.520	0.0163306
879.598	0.0162244
879.676	0.0164513
879.754	0.0164079
879.832	0.0162547
879.910	0.0164494
879.988	0.0163535
880.067	0.0164253
880.145	0.0164484
880.223	0.0164791
880.301	0.0165728
880.379	0.0165039
880.457	0.0164046
880.535	0.0164224
880.613	0.0165067
880.692	0.0164400
880.770	0.0164520
880.848	0.0162460
880.926	0.0162756
881.004	0.0161711
881.082	0.0161779
881.160	0.0161201
881.238	0.0160786
881.317	0.0160075
881.395	0.0160664
881.473	0.0159542
881.551	0.0161181
881.629	0.0160834
881.707	0.0160811
881.785	0.0161500
881.863	0.0161549
881.942	0.0160634
882.020	0.0160279
882.098	0.0161486
882.176	0.0162554
882.254	0.0161668
882.332	0.0162195
882.410	0.0162949
882.488	0.0164293
882.567	0.0163486
882.645	0.0161670
882.723	0.0162007
882.801	0.0164246
882.879	0.0163631
882.957	0.0164590
883.035	0.0163739
883.113	0.0164055
883.192	0.0164665
883.270	0.0165415
883.348	0.0164426
883.426	0.0166515
883.504	0.0165753
883.582	0.0165759
883.660	0.0165927
883.738	0.0165945
883.817	0.0165414
883.895	0.0164939
883.973	0.0163606
884.051	0.0164860
884.129	0.0163860
884.207	0.0164693
884.285	0.0164587
884.363	0.0164849
884.442	0.0165811
884.520	0.0165034
884.598	0.0163986
884.676	0.0163912
884.754	0.0163554
884.832	0.0165476
884.910	0.0165430
884.988	0.0165885
885.067	0.0165588
885.145	0.0165892
885.223	0.0166935
885.301	0.0167570
885.379	0.0167241
885.457	0.0167494
885.535	0.0165098
885.613	0.0166484
885.692	0.0166470
885.770	0.0166128
885.848	0.0165511
885.926	0.0166317
886.004	0.0166456
886.082	0.0165526
886.160	0.0165865
886.238	0.0163947
886.317	0.0165146
886.395	0.0163580
886.473	0.0164759
886.551	0.0165053
886.629	0.0163892
886.707	0.0163834
886.785	0.0164864
886.863	0.0164795
886.942	0.0164971
887.020	0.0164650
887.098	0.0164664
887.176	0.0163956
887.254	0.0163334
887.332	0.0163710
887.410	0.0163781
887.488	0.0164021
887.567	0.0163922
887.645	0.0164026
887.723	0.0162652
887.801	0.0162714
887.879	0.0161618
887.957	0.0162144
888.035	0.0161444
888.113	0.0160669
888.192	0.0160085
888.270	0.0161331
888.348	0.0160197
888.426	0.0161410
888.504	0.0159110
888.582	0.0160748
888.660	0.0161433
888.738	0.0159825
888.817	0.0160931
888.895	0.0161768
888.973	0.0162543
889.051	0.0160961
889.129	0.0163112
889.207	0.0164375
889.285	0.0164290
889.363	0.0165239
889.442	0.0165233
889.520	0.0165629
889.598	0.0164358
889.676	0.0166783
889.754	0.0165908
889.832	0.0166624
889.910	0.0166383
889.988	0.0164317
890.067	0.0164941
890.145	0.0165619
890.223	0.0165968
890.301	0.0164725
890.379	0.0163387
890.457	0.0164359
890.535	0.0163470
890.613	0.0161984
890.692	0.0164117
890.770	0.0163158
890.848	0.0162340
890.926	0.0161967
891.004	0.0162561
891.082	0.0162686
891.160	0.0161898
891.238	0.0162396
891.317	0.0162726
891.395	0.0163657
891.473	0.0163406
891.551	0.0163351
891.629	0.0163275
891.707	0.0164529
891.785	0.0165960
891.863	0.0165385
891.942	0.0166187
892.020	0.0165613
892.098	0.0165888
892.176	0.0166888
892.254	0.0167376
892.332	0.0166759
892.410	0.0167130
892.488	0.0166622
892.567	0.0167366
892.645	0.0167567
892.723	0.0166043
892.801	0.0166645
892.879	0.0166991
892.957	0.0165173
893.035	0.0166931
893.113	0.0167309
893.192	0.0166293
893.270	0.0166567
893.348	0.0167220
893.426	0.0167131
893.504	0.0167519
893.582	0.0166183
893.660	0.0166050
893.738	0.0165416
893.817	0.0164668
893.895	0.0164774
893.973	0.0166535
894.051	0.0165574
894.129	0.0164834
894.207	0.0164658
894.285	0.0165211
894.363	0.0164815
894.442	0.0163570
894.520	0.0163689
894.598	0.0164819
894.676	0.0164175
894.754	0.0161761
894.832	0.0164074
894.910	0.0163848
894.988	0.0164002
895.067	0.0162742
895.145	0.0163747
895.223	0.0164480
895.301	0.0163138
895.379	0.0162271
895.457	0.0163715
895.535	0.0161636
895.613	0.0161282
895.692	0.0161273
895.770	0.0162205
895.848	0.0161487
895.926	0.0159808
896.004	0.0160098
896.082	0.0160014
896.160	0.0158720
896.238	0.0159464
896.317	0.0160264
896.395	0.0160825
896.473	0.0160522
896.551	0.0159865
896.629	0.0159103
896.707	0.0160517
896.785	0.0160611
896.863	0.0160948
896.942	0.0161389
897.020	0.0161869
897.098	0.0162032
897.176	0.0161876
897.254	0.0163065
897.332	0.0162206
897.410	0.0163692
897.488	0.0163376
897.567	0.0163366
897.645	0.0163263
897.723	0.0164268
897.801	0.0165218
897.879	0.0165250
897.957	0.0165804
898.035	0.0164725
898.113	0.0165547
898.192	0.0164721
898.270	0.0166361
898.348	0.0165766
898.426	0.0165843
898.504	0.0166974
898.582	0.0166160
898.660	0.0166112
898.738	0.0166558
898.817	0.0166192
898.895	0.0166374
898.973	0.0165915
899.051	0.0165273
899.129	0.0167498
899.207	0.0167114
899.285	0.0165076
899.363	0.0165199
899.442	0.0166090
899.520	0.0165716
899.598	0.0167233
899.676	0.0165956
899.754	0.0166900
899.832	0.0166630
899.910	0.0165740
899.988	0.0166778
900.067	0.0166973
900.145	0.0165884
900.223	0.0166295
900.301	0.0166097
900.379	0.0166154
900.457	0.0166477
900.535	0.0164948
900.613	0.0163940
900.692	0.0164327
900.770	0.0164711
900.848	0.0162769
900.926	0.0163254
901.004	0.0165687
901.082	0.0163631
901.160	0.0163613
901.238	0.0163586
901.317	0.0162866
901.395	0.0164281
901.473	0.0163955
901.551	0.0164910
901.629	0.0164234
901.707	0.0163681
901.785	0.0163812
901.863	0.0164101
901.942	0.0164372
902.020	0.0164194
902.098	0.0164255
902.176	0.0164561
902.254	0.0165238
902.332	0.0162891
902.410	0.0163725
902.488	0.0164223
902.567	0.0166709
902.645	0.0164337
902.723	0.0163516
902.801	0.0164848
902.879	0.0163618
902.957	0.0163257
903.035	0.0164506
903.113	0.0164677
903.192	0.0162508
903.270	0.0162756
903.348	0.0162675
903.426	0.0161140
903.504	0.0161459
903.582	0.0162220
903.660	0.0162274
903.738	0.0161850
903.817	0.0162229
903.895	0.0162427
903.973	0.0162204
904.051	0.0162172
904.129	0.0162244
904.207	0.0162328
904.285	0.0162637
904.363	0.0163579
904.442	0.0162765
904.520	0.0162557
904.598	0.0163191
904.676	0.0162096
904.754	0.0162467
904.832	0.0162938
904.910	0.0162505
904.988	0.0162295
905.067	0.0163052
905.145	0.0163864
905.223	0.0164150
905.301	0.0163391
905.379	0.0163663
905.457	0.0162608
905.535	0.0164256
905.613	0.0163214
905.692	0.0164845
905.770	0.0163651
905.848	0.0163168
905.926	0.0163977
906.004	0.0163886
906.082	0.0164439
906.160	0.0165842
906.238	0.0165527
906.317	0.0165390
906.395	0.0166045
906.473	0.0167292
906.551	0.0165897
906.629	0.0167613
906.707	0.0167284
906.785	0.0166692
906.863	0.0168799
906.942	0.0167691
907.020	0.0167507
907.098	0.0166743
907.176	0.0167435
907.254	0.0166697
907.332	0.0167550
907.410	0.0167312
907.488	0.0166496
907.567	0.0166644
907.645	0.0166399
907.723	0.0167400
907.801	0.0165803
907.879	0.0165078
907.957	0.0165271
908.035	0.0164448
908.113	0.0164826
908.192	0.0165798
908.270	0.0165617
908.348	0.0163348
908.426	0.0164359
908.504	0.0166163
908.582	0.0165700
908.660	0.0165308
908.738	0.0163969
908.817	0.0165508
908.895	0.0165334
908.973	0.0166025
909.051	0.0164197
909.129	0.0165217
909.207	0.0164690
909.285	0.0164486
909.363	0.0163997
909.442	0.0164882
909.520	0.0164647
909.598	0.0164974
909.676	0.0163548
909.754	0.0163887
909.832	0.0163538
909.910	0.0163324
909.988	0.0162596
910.067	0.0162309
910.145	0.0162116
910.223	0.0162338
910.301	0.0162533
910.379	0.0162012
910.457	0.0162343
910.535	0.0161304
910.613	0.0162357
910.692	0.0162601
910.770	0.0162290
910.848	0.0161523
910.926	0.0162086
911.004	0.0161510
911.082	0.0161033
911.160	0.0161168
911.238	0.0160996
911.317	0.0161675
911.395	0.0161343
911.473	0.0161864
911.551	0.0162034
911.629	0.0161520
911.707	0.0161875
911.785	0.0162060
911.863	0.0161451
911.942	0.0161747
912.020	0.0162453
912.098	0.0161838
912.176	0.0161623
912.254	0.0162424
912.332	0.0163772
912.410	0.0163029
912.488	0.0162105
912.567	0.0164420
912.645	0.0164914
912.723	0.0163816
912.801	0.0164969
912.879	0.0164435
912.957	0.0163893
913.035	0.0164068
913.113	0.0164510
913.192	0.0165812
913.270	0.0166367
913.348	0.0164357
913.426	0.0165372
913.504	0.0166109
913.582	0.0165314
913.660	0.0165442
913.738	0.0165968
913.817	0.0164826
913.895	0.0164784
913.973	0.0165762
914.051	0.0165371
914.129	0.0165066
914.207	0.0166689
914.285	0.0165758
914.363	0.0166971
914.442	0.0166419
914.520	0.0167030
914.598	0.0165347
914.676	0.0166606
914.754	0.0167063
914.832	0.0168286
914.910	0.0167482
914.988	0.0168062
915.067	0.0167338
915.145	0.0168475
915.223	0.0168370
915.301	0.0167301
915.379	0.0166370
915.457	0.0166216
915.535	0.0166999
915.613	0.0166023
915.692	0.0167075
915.770	0.0166499
915.848	0.0165624
915.926	0.0166613
916.004	0.0165894
916.082	0.0164943
916.160	0.0164723
916.238	0.0166218
916.317	0.0165302
916.395	0.0164845
916.473	0.0166235
916.551	0.0164239
916.629	0.0165036
916.707	0.0164053
916.785	0.0163815
916.863	0.0162432
916.942	0.0162167
917.020	0.0164236
917.098	0.0162313
917.176	0.0161655
917.254	0.0161797
917.332	0.0161355
917.410	0.0162949
917.488	0.0163710
917.567	0.0162885
917.645	0.0163926
917.723	0.0164212
917.801	0.0163969
917.879	0.0163769
917.957	0.0163332
918.035	0.0163626
918.113	0.0163340
918.192	0.0163000
918.270	0.0162199
918.348	0.0163926
918.426	0.0163651
918.504	0.0162425
918.582	0.0162054
918.660	0.0160585
918.738	0.0162308
918.817	0.0161536
918.895	0.0161901
918.973	0.0161057
919.051	0.0162730
919.129	0.0159927
919.207	0.0160878
919.285	0.0160535
919.363	0.0160217
919.442	0.0160610
919.520	0.0161006
919.598	0.0160881
919.676	0.0161796
919.754	0.0161960
919.832	0.0162003
919.910	0.0164778
