05/24/2022	20:32:40	Ver.	4.1	UNKNOWN
Optical Delay	599.981738	Delta X		0.078125	Sweeps	1	Scan Rate	0/0
Coordinates	Axis 1	NaN	Axis 2	NaN	Axis 3	NaN	Axis 4	NaN	Axis 5	NaN	Axis 6	0.000000
TX Power	0.000000	RX Power	0.000000

599.982	0.0160094
600.060	0.0161983
600.138	0.0160955
600.216	0.0162659
600.294	0.0161390
600.372	0.0160748
600.450	0.0161164
600.529	0.0160893
600.607	0.0160512
600.685	0.0161082
600.763	0.0161172
600.841	0.0161251
600.919	0.0161279
600.997	0.0159425
601.075	0.0161349
601.154	0.0160118
601.232	0.0160352
601.310	0.0160468
601.388	0.0159586
601.466	0.0159491
601.544	0.0160871
601.622	0.0159915
601.700	0.0158915
601.779	0.0158530
601.857	0.0159210
601.935	0.0157095
602.013	0.0156377
602.091	0.0159518
602.169	0.0158875
602.247	0.0156736
602.325	0.0158931
602.404	0.0157921
602.482	0.0157973
602.560	0.0158727
602.638	0.0159005
602.716	0.0158007
602.794	0.0158490
602.872	0.0159409
602.950	0.0159100
603.029	0.0161060
603.107	0.0160661
603.185	0.0159601
603.263	0.0160384
603.341	0.0160360
603.419	0.0160424
603.497	0.0160812
603.575	0.0161179
603.654	0.0160721
603.732	0.0159652
603.810	0.0161021
603.888	0.0163363
603.966	0.0161167
604.044	0.0162058
604.122	0.0161922
604.200	0.0161707
604.279	0.0161814
604.357	0.0162040
604.435	0.0162248
604.513	0.0161468
604.591	0.0161530
604.669	0.0160925
604.747	0.0161311
604.825	0.0160720
604.904	0.0161578
604.982	0.0160650
605.060	0.0158965
605.138	0.0160752
605.216	0.0159794
605.294	0.0157330
605.372	0.0156905
605.450	0.0158530
605.529	0.0158982
605.607	0.0156987
605.685	0.0157639
605.763	0.0156895
605.841	0.0157664
605.919	0.0157710
605.997	0.0156999
606.075	0.0158106
606.154	0.0156978
606.232	0.0158282
606.310	0.0157662
606.388	0.0159304
606.466	0.0158662
606.544	0.0158760
606.622	0.0159673
606.700	0.0160123
606.779	0.0160040
606.857	0.0160674
606.935	0.0159749
607.013	0.0161155
607.091	0.0162431
607.169	0.0161526
607.247	0.0161980
607.325	0.0163238
607.404	0.0161758
607.482	0.0161829
607.560	0.0163762
607.638	0.0162756
607.716	0.0162445
607.794	0.0163019
607.872	0.0164180
607.950	0.0163397
608.029	0.0161278
608.107	0.0161246
608.185	0.0161637
608.263	0.0160772
608.341	0.0160332
608.419	0.0159959
608.497	0.0159882
608.575	0.0159109
608.654	0.0157772
608.732	0.0158010
608.810	0.0157773
608.888	0.0156567
608.966	0.0157345
609.044	0.0156785
609.122	0.0156994
609.200	0.0157751
609.279	0.0155795
609.357	0.0157545
609.435	0.0158094
609.513	0.0158232
609.591	0.0158608
609.669	0.0157049
609.747	0.0157757
609.825	0.0158525
609.904	0.0159508
609.982	0.0159986
610.060	0.0160969
610.138	0.0161112
610.216	0.0160732
610.294	0.0161456
610.372	0.0160783
610.450	0.0162709
610.529	0.0161452
610.607	0.0161005
610.685	0.0163060
610.763	0.0162173
610.841	0.0160195
610.919	0.0162490
610.997	0.0162464
611.075	0.0161024
611.154	0.0160825
611.232	0.0161900
611.310	0.0161287
611.388	0.0160987
611.466	0.0161203
611.544	0.0160191
611.622	0.0161301
611.700	0.0160796
611.779	0.0160491
611.857	0.0159612
611.935	0.0159372
612.013	0.0159863
612.091	0.0160844
612.169	0.0159347
612.247	0.0157700
612.325	0.0158850
612.404	0.0158440
612.482	0.0158101
612.560	0.0159095
612.638	0.0158904
612.716	0.0158750
612.794	0.0158015
612.872	0.0158516
612.950	0.0157307
613.029	0.0158280
613.107	0.0157790
613.185	0.0158015
613.263	0.0158293
613.341	0.0157337
613.419	0.0157054
613.497	0.0157751
613.575	0.0157138
613.654	0.0156873
613.732	0.0156852
613.810	0.0157111
613.888	0.0158972
613.966	0.0158554
614.044	0.0159732
614.122	0.0160173
614.200	0.0161051
614.279	0.0160731
614.357	0.0160555
614.435	0.0163080
614.513	0.0163167
614.591	0.0162119
614.669	0.0160812
614.747	0.0161946
614.825	0.0162612
614.904	0.0161886
614.982	0.0162103
615.060	0.0162012
615.138	0.0159879
615.216	0.0159065
615.294	0.0159970
615.372	0.0158762
615.450	0.0158604
615.529	0.0158362
615.607	0.0157708
615.685	0.0157393
615.763	0.0157034
615.841	0.0158168
615.919	0.0157544
615.997	0.0157945
616.075	0.0156573
616.154	0.0157363
616.232	0.0159103
616.310	0.0155565
616.388	0.0156612
616.466	0.0157548
616.544	0.0159153
616.622	0.0159340
616.700	0.0159158
616.779	0.0158783
616.857	0.0160597
616.935	0.0159428
617.013	0.0161688
617.091	0.0161531
617.169	0.0161867
617.247	0.0159919
617.325	0.0160682
617.404	0.0161571
617.482	0.0161441
617.560	0.0159984
617.638	0.0160181
617.716	0.0159968
617.794	0.0159859
617.872	0.0159661
617.950	0.0158907
618.029	0.0157959
618.107	0.0158396
618.185	0.0156996
618.263	0.0159700
618.341	0.0157345
618.419	0.0157271
618.497	0.0157989
618.575	0.0158143
618.654	0.0157384
618.732	0.0159718
618.810	0.0158878
618.888	0.0158734
618.966	0.0159832
619.044	0.0159283
619.122	0.0160471
619.200	0.0160326
619.279	0.0159997
619.357	0.0162167
619.435	0.0161064
619.513	0.0161877
619.591	0.0163060
619.669	0.0161567
619.747	0.0160226
619.825	0.0160791
619.904	0.0161275
619.982	0.0161192
620.060	0.0160104
620.138	0.0159915
620.216	0.0158302
620.294	0.0159215
620.372	0.0159624
620.450	0.0159115
620.529	0.0156490
620.607	0.0157866
620.685	0.0157174
620.763	0.0158084
620.841	0.0157494
620.919	0.0158045
620.997	0.0159213
621.075	0.0157787
621.154	0.0160445
621.232	0.0158915
621.310	0.0159751
621.388	0.0159508
621.466	0.0161459
621.544	0.0159377
621.622	0.0160560
621.700	0.0160621
621.779	0.0160751
621.857	0.0160733
621.935	0.0160806
622.013	0.0160563
622.091	0.0160915
622.169	0.0160564
622.247	0.0162040
622.325	0.0160749
622.404	0.0160072
622.482	0.0161612
622.560	0.0158868
622.638	0.0160701
622.716	0.0159331
622.794	0.0158232
622.872	0.0158775
622.950	0.0159253
623.029	0.0160015
623.107	0.0160748
623.185	0.0158662
623.263	0.0157661
623.341	0.0158725
623.419	0.0158556
623.497	0.0158697
623.575	0.0158910
623.654	0.0159464
623.732	0.0159420
623.810	0.0158134
623.888	0.0160241
623.966	0.0159675
624.044	0.0159919
624.122	0.0159491
624.200	0.0160883
624.279	0.0160535
624.357	0.0160139
624.435	0.0160834
624.513	0.0160083
624.591	0.0160188
624.669	0.0161025
624.747	0.0159956
624.825	0.0160046
624.904	0.0160374
624.982	0.0158561
625.060	0.0159602
625.138	0.0158749
625.216	0.0160493
625.294	0.0159516
625.372	0.0159367
625.450	0.0159708
625.529	0.0159119
625.607	0.0159013
625.685	0.0160288
625.763	0.0159921
625.841	0.0161596
625.919	0.0160473
625.997	0.0160720
626.075	0.0161176
626.154	0.0160142
626.232	0.0158662
626.310	0.0161147
626.388	0.0158859
626.466	0.0158258
626.544	0.0160493
626.622	0.0161824
626.700	0.0159619
626.779	0.0160397
626.857	0.0160129
626.935	0.0158631
627.013	0.0159909
627.091	0.0161069
627.169	0.0160982
627.247	0.0160641
627.325	0.0160046
627.404	0.0160496
627.482	0.0160130
627.560	0.0160965
627.638	0.0160868
627.716	0.0159667
627.794	0.0159075
627.872	0.0159911
627.950	0.0157686
628.029	0.0159213
628.107	0.0158508
628.185	0.0158843
628.263	0.0158393
628.341	0.0158457
628.419	0.0159297
628.497	0.0158775
628.575	0.0158763
628.654	0.0159335
628.732	0.0159226
628.810	0.0158147
628.888	0.0160732
628.966	0.0160921
629.044	0.0158241
629.122	0.0162021
629.200	0.0160765
629.279	0.0161557
629.357	0.0161844
629.435	0.0162241
629.513	0.0162243
629.591	0.0161837
629.669	0.0162371
629.747	0.0162446
629.825	0.0162097
629.904	0.0163049
629.982	0.0160513
630.060	0.0162116
630.138	0.0160931
630.216	0.0162141
630.294	0.0160363
630.372	0.0159739
630.450	0.0158266
630.529	0.0160210
630.607	0.0158745
630.685	0.0157241
630.763	0.0158169
630.841	0.0157903
630.919	0.0159055
630.997	0.0156454
631.075	0.0156989
631.154	0.0157339
631.232	0.0159042
631.310	0.0159633
631.388	0.0157296
631.466	0.0159476
631.544	0.0159384
631.622	0.0159727
631.700	0.0159803
631.779	0.0160480
631.857	0.0160863
631.935	0.0159674
632.013	0.0160055
632.091	0.0161474
632.169	0.0161481
632.247	0.0160429
632.325	0.0160478
632.404	0.0159597
632.482	0.0161298
632.560	0.0159991
632.638	0.0159074
632.716	0.0159882
632.794	0.0158810
632.872	0.0159444
632.950	0.0158362
633.029	0.0157830
633.107	0.0158315
633.185	0.0159274
633.263	0.0159402
633.341	0.0159398
633.419	0.0159268
633.497	0.0158874
633.575	0.0160147
633.654	0.0159796
633.732	0.0160435
633.810	0.0159740
633.888	0.0160165
633.966	0.0160215
634.044	0.0160947
634.122	0.0160059
634.200	0.0159278
634.279	0.0159509
634.357	0.0159254
634.435	0.0159422
634.513	0.0158297
634.591	0.0158858
634.669	0.0159503
634.747	0.0158101
634.825	0.0158975
634.904	0.0158244
634.982	0.0159766
635.060	0.0158781
635.138	0.0157859
635.216	0.0159955
635.294	0.0159070
635.372	0.0159480
635.450	0.0160029
635.529	0.0159781
635.607	0.0160583
635.685	0.0160420
635.763	0.0160120
635.841	0.0159761
635.919	0.0158794
635.997	0.0160114
636.075	0.0160235
636.154	0.0160942
636.232	0.0162054
636.310	0.0160017
636.388	0.0160372
636.466	0.0161571
636.544	0.0160240
636.622	0.0161615
636.700	0.0161710
636.779	0.0160474
636.857	0.0160165
636.935	0.0160799
637.013	0.0160152
637.091	0.0160879
637.169	0.0159383
637.247	0.0159222
637.325	0.0159796
637.404	0.0160184
637.482	0.0159314
637.560	0.0158273
637.638	0.0159040
637.716	0.0157088
637.794	0.0159083
637.872	0.0158760
637.950	0.0158190
638.029	0.0158421
638.107	0.0158669
638.185	0.0159385
638.263	0.0159173
638.341	0.0159466
638.419	0.0160334
638.497	0.0159610
638.575	0.0159473
638.654	0.0160897
638.732	0.0160902
638.810	0.0160235
638.888	0.0161287
638.966	0.0160378
639.044	0.0160038
639.122	0.0159871
639.200	0.0159952
639.279	0.0158485
639.357	0.0159663
639.435	0.0159717
639.513	0.0160912
639.591	0.0160049
639.669	0.0161047
639.747	0.0161027
639.825	0.0160035
639.904	0.0161944
639.982	0.0159789
640.060	0.0159893
640.138	0.0160949
640.216	0.0160441
640.294	0.0161460
640.372	0.0161436
640.450	0.0161040
640.529	0.0160198
640.607	0.0160393
640.685	0.0159600
640.763	0.0160120
640.841	0.0160632
640.919	0.0160983
640.997	0.0159642
641.075	0.0160381
641.154	0.0160750
641.232	0.0160611
641.310	0.0160182
641.388	0.0158392
641.466	0.0160250
641.544	0.0160397
641.622	0.0158952
641.700	0.0159408
641.779	0.0159026
641.857	0.0158540
641.935	0.0158136
642.013	0.0158814
642.091	0.0157609
642.169	0.0157909
642.247	0.0158273
642.325	0.0157604
642.404	0.0157992
642.482	0.0160414
642.560	0.0159024
642.638	0.0158826
642.716	0.0159186
642.794	0.0158872
642.872	0.0159190
642.950	0.0161458
643.029	0.0160462
643.107	0.0161726
643.185	0.0162430
643.263	0.0163142
643.341	0.0164172
643.419	0.0163467
643.497	0.0164804
643.575	0.0165353
643.654	0.0164860
643.732	0.0164769
643.810	0.0165915
643.888	0.0165517
643.966	0.0164787
644.044	0.0163077
644.122	0.0162456
644.200	0.0161553
644.279	0.0162818
644.357	0.0159573
644.435	0.0159862
644.513	0.0158387
644.591	0.0158300
644.669	0.0157458
644.747	0.0155933
644.825	0.0154974
644.904	0.0153062
644.982	0.0153133
645.060	0.0152245
645.138	0.0151859
645.216	0.0152004
645.294	0.0152896
645.372	0.0153284
645.450	0.0154782
645.529	0.0157041
645.607	0.0157448
645.685	0.0160444
645.763	0.0160724
645.841	0.0162930
645.919	0.0166054
645.997	0.0167978
646.075	0.0168455
646.154	0.0169351
646.232	0.0172343
646.310	0.0171598
646.388	0.0172610
646.466	0.0172169
646.544	0.0170874
646.622	0.0171729
646.700	0.0170298
646.779	0.0165153
646.857	0.0165390
646.935	0.0162643
647.013	0.0158934
647.091	0.0156189
647.169	0.0154564
647.247	0.0152345
647.325	0.0149407
647.404	0.0146716
647.482	0.0144722
647.560	0.0142391
647.638	0.0142435
647.716	0.0141198
647.794	0.0143071
647.872	0.0144092
647.950	0.0143896
648.029	0.0145283
648.107	0.0148046
648.185	0.0151364
648.263	0.0154044
648.341	0.0155885
648.419	0.0160160
648.497	0.0162810
648.575	0.0166673
648.654	0.0170370
648.732	0.0171976
648.810	0.0173805
648.888	0.0178714
648.966	0.0181093
649.044	0.0179528
649.122	0.0179316
649.200	0.0181654
649.279	0.0181165
649.357	0.0178996
649.435	0.0177791
649.513	0.0176234
649.591	0.0174088
649.669	0.0168055
649.747	0.0167502
649.825	0.0166045
649.904	0.0160486
649.982	0.0156824
650.060	0.0154120
650.138	0.0150751
650.216	0.0148486
650.294	0.0146605
650.372	0.0144792
650.450	0.0143491
650.529	0.0142746
650.607	0.0140662
650.685	0.0140554
650.763	0.0140709
650.841	0.0141510
650.919	0.0142628
650.997	0.0142911
651.075	0.0143597
651.154	0.0145956
651.232	0.0147913
651.310	0.0150410
651.388	0.0154457
651.466	0.0157938
651.544	0.0158865
651.622	0.0160760
651.700	0.0163848
651.779	0.0167027
651.857	0.0170924
651.935	0.0171958
652.013	0.0175538
652.091	0.0177145
652.169	0.0178114
652.247	0.0180697
652.325	0.0180283
652.404	0.0180893
652.482	0.0180766
652.560	0.0179940
652.638	0.0178986
652.716	0.0176279
652.794	0.0174337
652.872	0.0172829
652.950	0.0169534
653.029	0.0168817
653.107	0.0164797
653.185	0.0161433
653.263	0.0157687
653.341	0.0155972
653.419	0.0154568
653.497	0.0149858
653.575	0.0147881
653.654	0.0145548
653.732	0.0145628
653.810	0.0141601
653.888	0.0142160
653.966	0.0140766
654.044	0.0140929
654.122	0.0141045
654.200	0.0141674
654.279	0.0143749
654.357	0.0144991
654.435	0.0148098
654.513	0.0151125
654.591	0.0154768
654.669	0.0158083
654.747	0.0161198
654.825	0.0164347
654.904	0.0168430
654.982	0.0169103
655.060	0.0170535
655.138	0.0174586
655.216	0.0174083
655.294	0.0173785
655.372	0.0173719
655.450	0.0172125
655.529	0.0173146
655.607	0.0172877
655.685	0.0168708
655.763	0.0167674
655.841	0.0167079
655.919	0.0163808
655.997	0.0163136
656.075	0.0161880
656.154	0.0160547
656.232	0.0159245
656.310	0.0158794
656.388	0.0157560
656.466	0.0158795
656.544	0.0156339
656.622	0.0153513
656.700	0.0153948
656.779	0.0153625
656.857	0.0152155
656.935	0.0150370
657.013	0.0147995
657.091	0.0146481
657.169	0.0146579
657.247	0.0144292
657.325	0.0145590
657.404	0.0146086
657.482	0.0146478
657.560	0.0146929
657.638	0.0149821
657.716	0.0152356
657.794	0.0153909
657.872	0.0155032
657.950	0.0160226
658.029	0.0164077
658.107	0.0165963
658.185	0.0169520
658.263	0.0173719
658.341	0.0177604
658.419	0.0179287
658.497	0.0183069
658.575	0.0184850
658.654	0.0186405
658.732	0.0187489
658.810	0.0187717
658.888	0.0187321
658.966	0.0186038
659.044	0.0185287
659.122	0.0181907
659.200	0.0177618
659.279	0.0174280
659.357	0.0169958
659.435	0.0165809
659.513	0.0159566
659.591	0.0153937
659.669	0.0150757
659.747	0.0143595
659.825	0.0139925
659.904	0.0138776
659.982	0.0134190
660.060	0.0129774
660.138	0.0128630
660.216	0.0127074
660.294	0.0125755
660.372	0.0125975
660.450	0.0127254
660.529	0.0128899
660.607	0.0129206
660.685	0.0132352
660.763	0.0134163
660.841	0.0137801
660.919	0.0141536
660.997	0.0146989
661.075	0.0150903
661.154	0.0154993
661.232	0.0160423
661.310	0.0164642
661.388	0.0169474
661.466	0.0173726
661.544	0.0176987
661.622	0.0180016
661.700	0.0184731
661.779	0.0185627
661.857	0.0187469
661.935	0.0188416
662.013	0.0188618
662.091	0.0187393
662.169	0.0188405
662.247	0.0185372
662.325	0.0183293
662.404	0.0181496
662.482	0.0180170
662.560	0.0176473
662.638	0.0174889
662.716	0.0173687
662.794	0.0171381
662.872	0.0169999
662.950	0.0166232
663.029	0.0165403
663.107	0.0163951
663.185	0.0163265
663.263	0.0159512
663.341	0.0161897
663.419	0.0158971
663.497	0.0157178
663.575	0.0156512
663.654	0.0154829
663.732	0.0153687
663.810	0.0152459
663.888	0.0152644
663.966	0.0149796
664.044	0.0149573
664.122	0.0146355
664.200	0.0144391
664.279	0.0143113
664.357	0.0142756
664.435	0.0139674
664.513	0.0139595
664.591	0.0140403
664.669	0.0140099
664.747	0.0141473
664.825	0.0142006
664.904	0.0142156
664.982	0.0144045
665.060	0.0145078
665.138	0.0147014
665.216	0.0149291
665.294	0.0150116
665.372	0.0151642
665.450	0.0152268
665.529	0.0152641
665.607	0.0153822
665.685	0.0154177
665.763	0.0154802
665.841	0.0157001
665.919	0.0156642
665.997	0.0157570
666.075	0.0160538
666.154	0.0161535
666.232	0.0163689
666.310	0.0166148
666.388	0.0169937
666.466	0.0174168
666.544	0.0177678
666.622	0.0179201
666.700	0.0181363
666.779	0.0183356
666.857	0.0186981
666.935	0.0189159
667.013	0.0190847
667.091	0.0190700
667.169	0.0191322
667.247	0.0189880
667.325	0.0189079
667.404	0.0188451
667.482	0.0185469
667.560	0.0181696
667.638	0.0179293
667.716	0.0175211
667.794	0.0171233
667.872	0.0165569
667.950	0.0160485
668.029	0.0155455
668.107	0.0151358
668.185	0.0145633
668.263	0.0141166
668.341	0.0136988
668.419	0.0134579
668.497	0.0132887
668.575	0.0131458
668.654	0.0131522
668.732	0.0130351
668.810	0.0130785
668.888	0.0133179
668.966	0.0134129
669.044	0.0136658
669.122	0.0137010
669.200	0.0138912
669.279	0.0142607
669.357	0.0143539
669.435	0.0146305
669.513	0.0150687
669.591	0.0150335
669.669	0.0153298
669.747	0.0158111
669.825	0.0161092
669.904	0.0164668
669.982	0.0165332
670.060	0.0169981
670.138	0.0171918
670.216	0.0171914
670.294	0.0174107
670.372	0.0175355
670.450	0.0173945
670.529	0.0174619
670.607	0.0174672
670.685	0.0172797
670.763	0.0172304
670.841	0.0169729
670.919	0.0168015
670.997	0.0164271
671.075	0.0162169
671.154	0.0159969
671.232	0.0156834
671.310	0.0156058
671.388	0.0153455
671.466	0.0150988
671.544	0.0150307
671.622	0.0150362
671.700	0.0150256
671.779	0.0150204
671.857	0.0151851
671.935	0.0154380
672.013	0.0157747
672.091	0.0160020
672.169	0.0164465
672.247	0.0166657
672.325	0.0170288
672.404	0.0174812
672.482	0.0178673
672.560	0.0180525
672.638	0.0182027
672.716	0.0184244
672.794	0.0184291
672.872	0.0184425
672.950	0.0184750
673.029	0.0184282
673.107	0.0182438
673.185	0.0179404
673.263	0.0176426
673.341	0.0174114
673.419	0.0168833
673.497	0.0165709
673.575	0.0161441
673.654	0.0154890
673.732	0.0149895
673.810	0.0145954
673.888	0.0141392
673.966	0.0138106
674.044	0.0133720
674.122	0.0131515
674.200	0.0128476
674.279	0.0128385
674.357	0.0127528
674.435	0.0127530
674.513	0.0130083
674.591	0.0130592
674.669	0.0133251
674.747	0.0135443
674.825	0.0139704
674.904	0.0144237
674.982	0.0146767
675.060	0.0149557
675.138	0.0154405
675.216	0.0158235
675.294	0.0162720
675.372	0.0166159
675.450	0.0168256
675.529	0.0173259
675.607	0.0176773
675.685	0.0178676
675.763	0.0181480
675.841	0.0184119
675.919	0.0186942
675.997	0.0187027
676.075	0.0186909
676.154	0.0186249
676.232	0.0183361
676.310	0.0180215
676.388	0.0178769
676.466	0.0174599
676.544	0.0170444
676.622	0.0167453
676.700	0.0163696
676.779	0.0160598
676.857	0.0156291
676.935	0.0154939
677.013	0.0154539
677.091	0.0152171
677.169	0.0149330
677.247	0.0150058
677.325	0.0149386
677.404	0.0147744
677.482	0.0145126
677.560	0.0145153
677.638	0.0145607
677.716	0.0145767
677.794	0.0146876
677.872	0.0148444
677.950	0.0149607
678.029	0.0151659
678.107	0.0156393
678.185	0.0158395
678.263	0.0161709
678.341	0.0165472
678.419	0.0169153
678.497	0.0170062
678.575	0.0171272
678.654	0.0173655
678.732	0.0174163
678.810	0.0174255
678.888	0.0171648
678.966	0.0170783
679.044	0.0168158
679.122	0.0164841
679.200	0.0162296
679.279	0.0161858
679.357	0.0157526
679.435	0.0154794
679.513	0.0154631
679.591	0.0152306
679.669	0.0150561
679.747	0.0152222
679.825	0.0152420
679.904	0.0150680
679.982	0.0153444
680.060	0.0154793
680.138	0.0156648
680.216	0.0158077
680.294	0.0161090
680.372	0.0162640
680.450	0.0163092
680.529	0.0165263
680.607	0.0164687
680.685	0.0164816
680.763	0.0165771
680.841	0.0163651
680.919	0.0164640
680.997	0.0163309
681.075	0.0160608
681.154	0.0159610
681.232	0.0157614
681.310	0.0154853
681.388	0.0154943
681.466	0.0154614
681.544	0.0152715
681.622	0.0149628
681.700	0.0149297
681.779	0.0148734
681.857	0.0148665
681.935	0.0147652
682.013	0.0150143
682.091	0.0152201
682.169	0.0151944
682.247	0.0154055
682.325	0.0158799
682.404	0.0160497
682.482	0.0162701
682.560	0.0165907
682.638	0.0169865
682.716	0.0171423
682.794	0.0174618
682.872	0.0177688
682.950	0.0179698
683.029	0.0180766
683.107	0.0180634
683.185	0.0180103
683.263	0.0179505
683.341	0.0177638
683.419	0.0174914
683.497	0.0173804
683.575	0.0171209
683.654	0.0167345
683.732	0.0164353
683.810	0.0160299
683.888	0.0158203
683.966	0.0155257
684.044	0.0153014
684.122	0.0150742
684.200	0.0148116
684.279	0.0145036
684.357	0.0142749
684.435	0.0142246
684.513	0.0140047
684.591	0.0137842
684.669	0.0137420
684.747	0.0138045
684.825	0.0137882
684.904	0.0139645
684.982	0.0141721
685.060	0.0143977
685.138	0.0146152
685.216	0.0149894
685.294	0.0154473
685.372	0.0159254
685.450	0.0162173
685.529	0.0167982
685.607	0.0173046
685.685	0.0176077
685.763	0.0178351
685.841	0.0180177
685.919	0.0181562
685.997	0.0182702
686.075	0.0181226
686.154	0.0180374
686.232	0.0178066
686.310	0.0175825
686.388	0.0172991
686.466	0.0170797
686.544	0.0169614
686.622	0.0166423
686.700	0.0164484
686.779	0.0162463
686.857	0.0160170
686.935	0.0157250
687.013	0.0156257
687.091	0.0154477
687.169	0.0150758
687.247	0.0149082
687.325	0.0148505
687.404	0.0147018
687.482	0.0146517
687.560	0.0146162
687.638	0.0146734
687.716	0.0148050
687.794	0.0149351
687.872	0.0151160
687.950	0.0151581
688.029	0.0155471
688.107	0.0157251
688.185	0.0159733
688.263	0.0160155
688.341	0.0161584
688.419	0.0163581
688.497	0.0164400
688.575	0.0164467
688.654	0.0164574
688.732	0.0165086
688.810	0.0164708
688.888	0.0163142
688.966	0.0164231
689.044	0.0161472
689.122	0.0161977
689.200	0.0160963
689.279	0.0158794
689.357	0.0158179
689.435	0.0157240
689.513	0.0156262
689.591	0.0154156
689.669	0.0153727
689.747	0.0154388
689.825	0.0153838
689.904	0.0153317
689.982	0.0151823
690.060	0.0151735
690.138	0.0153309
690.216	0.0155755
690.294	0.0155490
690.372	0.0157461
690.450	0.0159877
690.529	0.0162427
690.607	0.0163686
690.685	0.0162781
690.763	0.0165411
690.841	0.0166792
690.919	0.0165209
690.997	0.0165260
691.075	0.0163956
691.154	0.0164081
691.232	0.0162517
691.310	0.0160744
691.388	0.0160976
691.466	0.0160620
691.544	0.0158654
691.622	0.0160074
691.700	0.0159432
691.779	0.0161024
691.857	0.0162115
691.935	0.0161089
692.013	0.0163390
692.091	0.0163344
692.169	0.0165031
692.247	0.0166505
692.325	0.0165259
692.404	0.0166210
692.482	0.0167269
692.560	0.0166810
692.638	0.0165808
692.716	0.0166855
692.794	0.0166929
692.872	0.0165246
692.950	0.0164210
693.029	0.0163368
693.107	0.0161745
693.185	0.0161276
693.263	0.0158695
693.341	0.0157642
693.419	0.0157150
693.497	0.0156503
693.575	0.0156033
693.654	0.0155042
693.732	0.0155670
693.810	0.0154026
693.888	0.0153721
693.966	0.0153035
694.044	0.0151785
694.122	0.0150912
694.200	0.0151401
694.279	0.0150185
694.357	0.0150559
694.435	0.0150069
694.513	0.0150368
694.591	0.0149206
694.669	0.0148777
694.747	0.0149860
694.825	0.0148351
694.904	0.0149538
694.982	0.0150840
695.060	0.0150352
695.138	0.0152908
695.216	0.0152915
695.294	0.0154219
695.372	0.0155141
695.450	0.0155054
695.529	0.0156639
695.607	0.0157201
695.685	0.0157714
695.763	0.0157845
695.841	0.0159009
695.919	0.0159084
695.997	0.0160171
696.075	0.0161477
696.154	0.0162502
696.232	0.0164441
696.310	0.0166661
696.388	0.0167950
696.466	0.0169110
696.544	0.0172598
696.622	0.0174175
696.700	0.0174886
696.779	0.0177377
696.857	0.0177799
696.935	0.0180079
697.013	0.0177987
697.091	0.0177036
697.169	0.0176567
697.247	0.0174920
697.325	0.0173037
697.404	0.0171796
697.482	0.0170563
697.560	0.0167337
697.638	0.0163931
697.716	0.0161391
697.794	0.0160238
697.872	0.0156908
697.950	0.0155599
698.029	0.0155235
698.107	0.0155080
698.185	0.0153619
698.263	0.0150710
698.341	0.0151308
698.419	0.0151895
698.497	0.0151852
698.575	0.0150310
698.654	0.0152146
698.732	0.0152293
698.810	0.0154535
698.888	0.0154288
698.966	0.0153921
699.044	0.0155286
699.122	0.0154656
699.200	0.0156626
699.279	0.0155216
699.357	0.0155579
699.435	0.0153829
699.513	0.0155121
699.591	0.0154717
699.669	0.0153393
699.747	0.0154726
699.825	0.0154896
699.904	0.0153223
699.982	0.0154369
700.060	0.0153580
700.138	0.0154002
700.216	0.0152626
700.294	0.0152505
700.372	0.0151805
700.450	0.0152518
700.529	0.0152201
700.607	0.0152898
700.685	0.0152467
700.763	0.0152185
700.841	0.0154158
700.919	0.0154033
700.997	0.0153908
701.075	0.0154701
701.154	0.0156944
701.232	0.0157727
701.310	0.0159679
701.388	0.0161801
701.466	0.0162873
701.544	0.0164420
701.622	0.0165211
701.700	0.0166860
701.779	0.0167776
701.857	0.0168320
701.935	0.0169927
702.013	0.0170376
702.091	0.0172400
702.169	0.0173000
702.247	0.0172767
702.325	0.0171751
702.404	0.0172839
702.482	0.0171721
702.560	0.0170704
702.638	0.0171201
702.716	0.0168619
702.794	0.0167763
702.872	0.0168896
702.950	0.0167362
703.029	0.0165595
703.107	0.0164931
703.185	0.0165681
703.263	0.0165262
703.341	0.0164588
703.419	0.0165992
703.497	0.0164689
703.575	0.0164223
703.654	0.0164085
703.732	0.0163525
703.810	0.0161806
703.888	0.0160720
703.966	0.0160959
704.044	0.0158443
704.122	0.0158517
704.200	0.0158324
704.279	0.0156491
704.357	0.0154619
704.435	0.0153696
704.513	0.0153180
704.591	0.0152875
704.669	0.0149950
704.747	0.0150846
704.825	0.0150928
704.904	0.0149225
704.982	0.0150281
705.060	0.0150578
705.138	0.0149539
705.216	0.0150131
705.294	0.0151566
705.372	0.0151207
705.450	0.0150928
705.529	0.0153681
705.607	0.0153819
705.685	0.0153094
705.763	0.0153137
705.841	0.0153812
705.919	0.0154102
705.997	0.0155231
706.075	0.0155674
706.154	0.0158017
706.232	0.0157738
706.310	0.0159957
706.388	0.0161313
706.466	0.0161729
706.544	0.0163787
706.622	0.0163561
706.700	0.0165636
706.779	0.0165472
706.857	0.0166372
706.935	0.0165811
707.013	0.0163393
707.091	0.0164863
707.169	0.0164384
707.247	0.0163146
707.325	0.0162212
707.404	0.0160452
707.482	0.0162226
707.560	0.0160699
707.638	0.0160444
707.716	0.0158263
707.794	0.0160090
707.872	0.0159732
707.950	0.0160737
708.029	0.0159283
708.107	0.0160817
708.185	0.0160573
708.263	0.0161521
708.341	0.0161483
708.419	0.0161004
708.497	0.0162718
708.575	0.0162715
708.654	0.0163726
708.732	0.0163399
708.810	0.0165163
708.888	0.0164938
708.966	0.0165459
709.044	0.0166005
709.122	0.0165364
709.200	0.0164942
709.279	0.0163901
709.357	0.0165658
709.435	0.0165359
709.513	0.0165101
709.591	0.0163462
709.669	0.0161952
709.747	0.0162939
709.825	0.0160510
709.904	0.0161716
709.982	0.0160062
710.060	0.0158505
710.138	0.0158785
710.216	0.0158503
710.294	0.0159282
710.372	0.0158510
710.450	0.0156712
710.529	0.0157577
710.607	0.0156848
710.685	0.0154893
710.763	0.0156392
710.841	0.0156714
710.919	0.0155782
710.997	0.0154374
711.075	0.0154274
711.154	0.0154645
711.232	0.0154597
711.310	0.0156821
711.388	0.0155404
711.466	0.0153474
711.544	0.0155439
711.622	0.0155210
711.700	0.0155146
711.779	0.0154521
711.857	0.0153991
711.935	0.0154422
712.013	0.0154801
712.091	0.0154456
712.169	0.0154639
712.247	0.0155106
712.325	0.0153213
712.404	0.0154171
712.482	0.0153831
712.560	0.0153043
712.638	0.0155025
712.716	0.0156123
712.794	0.0154679
712.872	0.0156139
712.950	0.0156690
713.029	0.0157156
713.107	0.0157813
713.185	0.0158453
713.263	0.0160146
713.341	0.0159393
713.419	0.0161430
713.497	0.0161643
713.575	0.0161877
713.654	0.0160468
713.732	0.0161642
713.810	0.0162550
713.888	0.0163741
713.966	0.0162521
714.044	0.0162888
714.122	0.0163548
714.200	0.0162778
714.279	0.0162803
714.357	0.0163442
714.435	0.0163944
714.513	0.0163256
714.591	0.0163920
714.669	0.0164100
714.747	0.0163363
714.825	0.0163293
714.904	0.0163837
714.982	0.0163612
715.060	0.0161968
715.138	0.0161487
715.216	0.0160909
715.294	0.0160832
715.372	0.0160192
715.450	0.0158705
715.529	0.0158736
715.607	0.0158768
715.685	0.0157224
715.763	0.0157385
715.841	0.0157193
715.919	0.0158340
715.997	0.0157555
716.075	0.0157351
716.154	0.0157840
716.232	0.0159593
716.310	0.0159991
716.388	0.0160548
716.466	0.0161414
716.544	0.0162981
716.622	0.0161710
716.700	0.0163293
716.779	0.0164411
716.857	0.0163182
716.935	0.0163259
717.013	0.0163533
717.091	0.0164243
717.169	0.0163704
717.247	0.0162346
717.325	0.0161553
717.404	0.0161266
717.482	0.0159860
717.560	0.0160993
717.638	0.0160423
717.716	0.0160468
717.794	0.0157949
717.872	0.0156887
717.950	0.0158704
718.029	0.0156730
718.107	0.0156334
718.185	0.0156448
718.263	0.0155286
718.341	0.0153227
718.419	0.0153374
718.497	0.0153861
718.575	0.0152648
718.654	0.0153376
718.732	0.0153136
718.810	0.0154201
718.888	0.0153252
718.966	0.0153735
719.044	0.0155177
719.122	0.0154754
719.200	0.0154801
719.279	0.0156478
719.357	0.0158411
719.435	0.0158411
719.513	0.0158869
719.591	0.0159504
719.669	0.0159945
719.747	0.0162421
719.825	0.0162106
719.904	0.0160983
719.982	0.0160529
720.060	0.0162407
720.138	0.0160892
720.216	0.0160270
720.294	0.0159778
720.372	0.0160006
720.450	0.0159275
720.529	0.0160889
720.607	0.0161166
720.685	0.0159203
720.763	0.0160652
720.841	0.0160259
720.919	0.0158752
720.997	0.0159896
721.075	0.0161275
721.154	0.0161164
721.232	0.0161879
721.310	0.0161736
721.388	0.0162643
721.466	0.0163119
721.544	0.0163406
721.622	0.0163541
721.700	0.0163997
721.779	0.0165117
721.857	0.0165990
721.935	0.0163252
722.013	0.0163200
722.091	0.0162712
722.169	0.0162206
722.247	0.0162685
722.325	0.0162489
722.404	0.0161981
722.482	0.0160760
722.560	0.0160704
722.638	0.0161298
722.716	0.0160847
722.794	0.0158764
722.872	0.0159497
722.950	0.0160567
723.029	0.0159377
723.107	0.0161395
723.185	0.0160220
723.263	0.0158588
723.341	0.0159579
723.419	0.0158138
723.497	0.0157751
723.575	0.0159801
723.654	0.0158559
723.732	0.0158466
723.810	0.0159690
723.888	0.0159446
723.966	0.0159995
724.044	0.0161762
724.122	0.0159971
724.200	0.0161073
724.279	0.0161024
724.357	0.0161588
724.435	0.0163367
724.513	0.0161408
724.591	0.0162489
724.669	0.0163272
724.747	0.0163240
724.825	0.0163393
724.904	0.0162373
724.982	0.0161649
725.060	0.0161710
725.138	0.0161608
725.216	0.0161987
725.294	0.0161817
725.372	0.0159644
725.450	0.0160166
725.529	0.0159739
725.607	0.0159614
725.685	0.0157490
725.763	0.0158591
725.841	0.0157763
725.919	0.0156701
725.997	0.0157352
726.075	0.0155847
726.154	0.0156008
726.232	0.0154718
726.310	0.0154765
726.388	0.0154953
726.466	0.0154146
726.544	0.0154925
726.622	0.0155507
726.700	0.0155154
726.779	0.0155992
726.857	0.0156603
726.935	0.0156297
727.013	0.0157150
727.091	0.0159804
727.169	0.0160004
727.247	0.0160661
727.325	0.0158160
727.404	0.0159251
727.482	0.0161279
727.560	0.0161604
727.638	0.0161541
727.716	0.0161801
727.794	0.0162376
727.872	0.0161065
727.950	0.0161732
728.029	0.0162291
728.107	0.0161337
728.185	0.0162097
728.263	0.0162382
728.341	0.0163181
728.419	0.0162432
728.497	0.0162482
728.575	0.0161494
728.654	0.0163266
728.732	0.0162062
728.810	0.0162334
728.888	0.0163632
728.966	0.0161914
729.044	0.0160662
729.122	0.0162247
729.200	0.0162198
729.279	0.0161406
729.357	0.0161257
729.435	0.0161073
729.513	0.0160988
729.591	0.0161208
729.669	0.0160490
729.747	0.0159039
729.825	0.0159291
729.904	0.0160444
729.982	0.0159942
730.060	0.0159593
730.138	0.0161607
730.216	0.0158993
730.294	0.0158702
730.372	0.0160315
730.450	0.0160182
730.529	0.0159976
730.607	0.0160363
730.685	0.0160025
730.763	0.0159887
730.841	0.0160506
730.919	0.0160113
730.997	0.0160748
731.075	0.0159606
731.154	0.0158511
731.232	0.0159836
731.310	0.0159766
731.388	0.0159433
731.466	0.0158637
731.544	0.0158080
731.622	0.0159721
731.700	0.0158045
731.779	0.0158030
731.857	0.0158500
731.935	0.0159585
732.013	0.0159949
732.091	0.0159907
732.169	0.0160052
732.247	0.0162413
732.325	0.0160995
732.404	0.0160804
732.482	0.0161456
732.560	0.0159916
732.638	0.0161121
732.716	0.0161769
732.794	0.0159647
732.872	0.0159140
732.950	0.0158882
733.029	0.0159035
733.107	0.0159296
733.185	0.0157170
733.263	0.0156645
733.341	0.0157561
733.419	0.0158095
733.497	0.0157286
733.575	0.0158939
733.654	0.0158461
733.732	0.0157510
733.810	0.0157845
733.888	0.0157293
733.966	0.0158584
734.044	0.0157768
734.122	0.0157212
734.200	0.0158222
734.279	0.0157932
734.357	0.0158313
734.435	0.0158051
734.513	0.0158376
734.591	0.0157146
734.669	0.0157378
734.747	0.0158503
734.825	0.0156181
734.904	0.0158807
734.982	0.0158768
735.060	0.0157664
735.138	0.0158348
735.216	0.0158676
735.294	0.0159708
735.372	0.0160794
735.450	0.0159660
735.529	0.0160715
735.607	0.0161999
735.685	0.0161057
735.763	0.0159896
735.841	0.0161969
735.919	0.0161717
735.997	0.0160275
736.075	0.0160712
736.154	0.0161129
736.232	0.0161453
736.310	0.0160786
736.388	0.0161179
736.466	0.0160699
736.544	0.0159734
736.622	0.0160419
736.700	0.0160863
736.779	0.0160641
736.857	0.0161331
736.935	0.0160725
737.013	0.0160584
737.091	0.0161487
737.169	0.0160307
737.247	0.0160475
737.325	0.0161636
737.404	0.0160445
737.482	0.0160400
737.560	0.0160968
737.638	0.0160878
737.716	0.0160637
737.794	0.0161137
737.872	0.0160854
737.950	0.0159978
738.029	0.0160567
738.107	0.0161239
738.185	0.0162149
738.263	0.0160180
738.341	0.0162352
738.419	0.0161303
738.497	0.0160147
738.575	0.0160367
738.654	0.0160618
738.732	0.0160838
738.810	0.0161720
738.888	0.0161398
738.966	0.0159841
739.044	0.0159637
739.122	0.0158992
739.200	0.0159574
739.279	0.0159189
739.357	0.0159004
739.435	0.0157896
739.513	0.0158765
739.591	0.0159606
739.669	0.0159639
739.747	0.0158376
739.825	0.0156664
739.904	0.0157517
739.982	0.0158798
740.060	0.0159010
740.138	0.0157458
740.216	0.0158642
740.294	0.0159338
740.372	0.0161111
740.450	0.0160425
740.529	0.0160188
740.607	0.0161504
740.685	0.0159144
740.763	0.0160372
740.841	0.0159654
740.919	0.0160825
740.997	0.0160434
741.075	0.0160291
741.154	0.0159164
741.232	0.0159074
741.310	0.0159792
741.388	0.0158889
741.466	0.0160094
741.544	0.0158450
741.622	0.0157678
741.700	0.0160054
741.779	0.0159183
741.857	0.0160509
741.935	0.0159257
742.013	0.0159593
742.091	0.0159414
742.169	0.0159428
742.247	0.0160155
742.325	0.0160956
742.404	0.0160881
742.482	0.0159499
742.560	0.0159476
742.638	0.0160536
742.716	0.0160226
742.794	0.0160114
742.872	0.0159679
742.950	0.0160564
743.029	0.0161743
743.107	0.0161710
743.185	0.0162032
743.263	0.0162788
743.341	0.0162307
743.419	0.0159682
743.497	0.0161720
743.575	0.0160777
743.654	0.0160672
743.732	0.0162051
743.810	0.0161426
743.888	0.0160285
743.966	0.0159385
744.044	0.0159694
744.122	0.0159027
744.200	0.0158755
744.279	0.0157963
744.357	0.0159067
744.435	0.0158978
744.513	0.0158337
744.591	0.0157821
744.669	0.0158822
744.747	0.0157317
744.825	0.0159216
744.904	0.0160300
744.982	0.0160516
745.060	0.0158936
745.138	0.0161452
745.216	0.0162383
745.294	0.0161420
745.372	0.0160826
745.450	0.0161369
745.529	0.0162306
745.607	0.0161389
745.685	0.0161297
745.763	0.0161864
745.841	0.0161225
745.919	0.0161893
745.997	0.0163415
746.075	0.0162858
746.154	0.0162852
746.232	0.0162028
746.310	0.0163241
746.388	0.0163321
746.466	0.0163123
746.544	0.0163486
746.622	0.0163000
746.700	0.0161653
746.779	0.0161465
746.857	0.0161575
746.935	0.0162582
747.013	0.0159975
747.091	0.0160173
747.169	0.0161274
747.247	0.0159621
747.325	0.0158752
747.404	0.0157746
747.482	0.0159116
747.560	0.0158353
747.638	0.0157568
747.716	0.0157874
747.794	0.0157940
747.872	0.0157923
747.950	0.0156956
748.029	0.0158474
748.107	0.0158229
748.185	0.0157821
748.263	0.0157950
748.341	0.0159419
748.419	0.0158833
748.497	0.0160485
748.575	0.0160413
748.654	0.0161875
748.732	0.0161332
748.810	0.0161879
748.888	0.0162096
748.966	0.0162124
749.044	0.0161375
749.122	0.0161101
749.200	0.0162678
749.279	0.0162321
749.357	0.0162299
749.435	0.0162856
749.513	0.0160636
749.591	0.0160213
749.669	0.0159672
749.747	0.0160305
749.825	0.0161285
749.904	0.0158062
749.982	0.0158816
750.060	0.0157927
750.138	0.0157268
750.216	0.0156694
750.294	0.0158187
750.372	0.0157219
750.450	0.0156164
750.529	0.0157513
750.607	0.0156530
750.685	0.0155526
750.763	0.0158181
750.841	0.0157369
750.919	0.0157928
750.997	0.0159531
751.075	0.0158627
751.154	0.0160069
751.232	0.0160468
751.310	0.0159066
751.388	0.0160652
751.466	0.0161520
751.544	0.0161520
751.622	0.0161961
751.700	0.0161250
751.779	0.0161705
751.857	0.0161308
751.935	0.0161488
752.013	0.0161467
752.091	0.0162015
752.169	0.0163770
752.247	0.0160388
752.325	0.0161254
752.404	0.0160777
752.482	0.0161692
752.560	0.0161714
752.638	0.0160276
752.716	0.0160634
752.794	0.0162086
752.872	0.0162271
752.950	0.0162494
753.029	0.0160731
753.107	0.0160294
753.185	0.0161469
753.263	0.0159641
753.341	0.0161446
753.419	0.0161873
753.497	0.0160943
753.575	0.0159847
753.654	0.0160302
753.732	0.0160877
753.810	0.0160333
753.888	0.0159789
753.966	0.0159108
754.044	0.0160005
754.122	0.0161512
754.200	0.0161279
754.279	0.0161015
754.357	0.0162080
754.435	0.0161256
754.513	0.0160276
754.591	0.0161238
754.669	0.0161153
754.747	0.0161012
754.825	0.0162126
754.904	0.0161077
754.982	0.0161723
755.060	0.0161001
755.138	0.0162038
755.216	0.0162014
755.294	0.0162024
755.372	0.0159084
755.450	0.0160168
755.529	0.0160020
755.607	0.0158857
755.685	0.0159406
755.763	0.0158793
755.841	0.0158739
755.919	0.0159193
755.997	0.0160329
756.075	0.0157819
756.154	0.0158720
756.232	0.0159563
756.310	0.0158095
756.388	0.0158900
756.466	0.0159906
756.544	0.0160555
756.622	0.0158897
756.700	0.0158932
756.779	0.0159435
756.857	0.0158282
756.935	0.0157291
757.013	0.0158163
757.091	0.0157883
757.169	0.0156866
757.247	0.0157132
757.325	0.0156813
757.404	0.0155756
757.482	0.0156858
757.560	0.0155958
757.638	0.0155492
757.716	0.0158920
757.794	0.0157252
757.872	0.0157924
757.950	0.0158188
758.029	0.0158216
758.107	0.0159251
758.185	0.0160199
758.263	0.0161588
758.341	0.0161428
758.419	0.0159945
758.497	0.0160695
758.575	0.0159872
758.654	0.0160802
758.732	0.0161996
758.810	0.0160340
758.888	0.0160647
758.966	0.0161935
759.044	0.0161047
759.122	0.0161438
759.200	0.0161727
759.279	0.0162001
759.357	0.0162870
759.435	0.0162474
759.513	0.0162629
759.591	0.0163855
759.669	0.0162125
759.747	0.0162957
759.825	0.0162141
759.904	0.0161446
759.982	0.0160383
760.060	0.0161234
760.138	0.0161120
760.216	0.0161271
760.294	0.0159507
760.372	0.0158692
760.450	0.0159364
760.529	0.0158120
760.607	0.0157071
760.685	0.0157033
760.763	0.0157658
760.841	0.0156983
760.919	0.0156964
760.997	0.0157706
761.075	0.0157133
761.154	0.0157272
761.232	0.0157721
761.310	0.0158866
761.388	0.0158068
761.466	0.0158657
761.544	0.0159245
761.622	0.0159264
761.700	0.0158328
761.779	0.0158907
761.857	0.0159238
761.935	0.0159647
762.013	0.0159901
762.091	0.0159468
762.169	0.0159208
762.247	0.0159324
762.325	0.0160046
762.404	0.0159106
762.482	0.0160036
762.560	0.0160539
762.638	0.0158998
762.716	0.0159124
762.794	0.0159087
762.872	0.0159864
762.950	0.0160244
763.029	0.0160603
763.107	0.0161113
763.185	0.0160606
763.263	0.0159550
763.341	0.0161541
763.419	0.0161467
763.497	0.0162784
763.575	0.0162682
763.654	0.0163094
763.732	0.0162043
763.810	0.0161208
763.888	0.0164022
763.966	0.0163309
764.044	0.0161587
764.122	0.0162241
764.200	0.0160708
764.279	0.0159989
764.357	0.0160777
764.435	0.0160496
764.513	0.0159420
764.591	0.0159486
764.669	0.0157224
764.747	0.0156854
764.825	0.0155255
764.904	0.0155526
764.982	0.0155277
765.060	0.0155503
765.138	0.0154807
765.216	0.0154248
765.294	0.0154508
765.372	0.0155782
765.450	0.0155711
765.529	0.0157014
765.607	0.0156013
765.685	0.0157530
765.763	0.0158560
765.841	0.0157640
765.919	0.0159344
765.997	0.0159605
766.075	0.0159245
766.154	0.0159574
766.232	0.0159926
766.310	0.0161555
766.388	0.0160754
766.466	0.0161000
766.544	0.0160911
766.622	0.0160242
766.700	0.0160515
766.779	0.0161278
766.857	0.0162266
766.935	0.0161024
767.013	0.0161036
767.091	0.0162120
767.169	0.0160855
767.247	0.0162572
767.325	0.0162346
767.404	0.0163072
767.482	0.0162408
767.560	0.0162914
767.638	0.0162247
767.716	0.0162283
767.794	0.0163628
767.872	0.0164262
767.950	0.0163788
768.029	0.0163305
768.107	0.0161501
768.185	0.0162153
768.263	0.0162907
768.341	0.0161971
768.419	0.0161607
768.497	0.0160901
768.575	0.0162598
768.654	0.0161703
768.732	0.0160382
768.810	0.0160749
768.888	0.0162059
768.966	0.0159917
769.044	0.0160796
769.122	0.0160075
769.200	0.0159000
769.279	0.0161198
769.357	0.0161305
769.435	0.0160195
769.513	0.0159891
769.591	0.0159787
769.669	0.0160399
769.747	0.0160480
769.825	0.0160311
769.904	0.0159629
769.982	0.0159848
770.060	0.0157951
770.138	0.0157931
770.216	0.0158405
770.294	0.0158882
770.372	0.0158489
770.450	0.0157538
770.529	0.0157351
770.607	0.0156974
770.685	0.0157684
770.763	0.0157413
770.841	0.0156111
770.919	0.0156594
770.997	0.0158222
771.075	0.0157454
771.154	0.0157114
771.232	0.0157734
771.310	0.0157764
771.388	0.0158334
771.466	0.0157975
771.544	0.0158913
771.622	0.0157872
771.700	0.0158865
771.779	0.0157890
771.857	0.0158281
771.935	0.0157881
772.013	0.0157884
772.091	0.0159882
772.169	0.0159114
772.247	0.0158253
772.325	0.0160223
772.404	0.0158562
772.482	0.0159145
772.560	0.0160016
772.638	0.0160620
772.716	0.0159898
772.794	0.0161244
772.872	0.0160822
772.950	0.0160370
773.029	0.0161142
773.107	0.0161272
773.185	0.0161546
773.263	0.0161611
773.341	0.0162032
773.419	0.0161838
773.497	0.0160471
773.575	0.0160769
773.654	0.0161611
773.732	0.0161212
773.810	0.0160815
773.888	0.0161577
773.966	0.0160102
774.044	0.0159137
774.122	0.0159177
774.200	0.0160182
774.279	0.0161257
774.357	0.0159517
774.435	0.0158531
774.513	0.0158060
774.591	0.0159357
774.669	0.0158817
774.747	0.0157737
774.825	0.0158913
774.904	0.0158215
774.982	0.0158555
775.060	0.0158318
775.138	0.0159373
775.216	0.0160099
775.294	0.0159722
775.372	0.0160373
775.450	0.0162106
775.529	0.0160332
775.607	0.0159325
775.685	0.0161965
775.763	0.0161591
775.841	0.0161494
775.919	0.0161562
775.997	0.0161899
776.075	0.0161785
776.154	0.0162366
776.232	0.0162394
776.310	0.0161227
776.388	0.0159892
776.466	0.0160465
776.544	0.0161488
776.622	0.0160596
776.700	0.0159913
776.779	0.0159989
776.857	0.0158830
776.935	0.0159012
777.013	0.0158974
777.091	0.0158652
777.169	0.0157802
777.247	0.0159139
777.325	0.0159435
777.404	0.0160441
777.482	0.0158108
777.560	0.0159231
777.638	0.0158769
777.716	0.0158636
777.794	0.0158168
777.872	0.0157938
777.950	0.0157177
778.029	0.0157848
778.107	0.0158760
778.185	0.0158810
778.263	0.0158363
778.341	0.0157420
778.419	0.0158241
778.497	0.0156709
778.575	0.0160577
778.654	0.0157586
778.732	0.0158558
778.810	0.0158678
778.888	0.0157097
778.966	0.0159082
779.044	0.0159917
779.122	0.0158086
779.200	0.0160345
779.279	0.0160288
779.357	0.0158936
779.435	0.0159695
779.513	0.0160353
779.591	0.0159711
779.669	0.0160609
779.747	0.0160324
779.825	0.0159975
779.904	0.0159255
779.982	0.0159813
780.060	0.0159480
780.138	0.0159480
780.216	0.0157919
780.294	0.0158481
780.372	0.0157241
780.450	0.0157907
780.529	0.0159112
780.607	0.0158962
780.685	0.0157850
780.763	0.0159050
780.841	0.0159917
780.919	0.0158559
780.997	0.0158285
781.075	0.0156689
781.154	0.0158398
781.232	0.0158755
781.310	0.0157660
781.388	0.0159284
781.466	0.0157711
781.544	0.0159748
781.622	0.0160007
781.700	0.0159176
781.779	0.0159679
781.857	0.0159325
781.935	0.0159690
782.013	0.0160770
782.091	0.0160280
782.169	0.0160815
782.247	0.0160098
782.325	0.0160339
782.404	0.0161159
782.482	0.0159907
782.560	0.0160123
782.638	0.0160121
782.716	0.0160830
782.794	0.0159631
782.872	0.0159698
782.950	0.0160258
783.029	0.0161212
783.107	0.0161711
783.185	0.0160330
783.263	0.0161719
783.341	0.0161501
783.419	0.0161750
783.497	0.0163480
783.575	0.0162035
783.654	0.0161018
783.732	0.0162823
783.810	0.0162489
783.888	0.0162422
783.966	0.0161620
784.044	0.0162580
784.122	0.0162802
784.200	0.0161206
784.279	0.0161739
784.357	0.0162091
784.435	0.0162160
784.513	0.0161864
784.591	0.0161884
784.669	0.0160959
784.747	0.0160617
784.825	0.0161337
784.904	0.0162178
784.982	0.0160301
785.060	0.0160537
785.138	0.0161198
785.216	0.0160718
785.294	0.0159463
785.372	0.0158614
785.450	0.0158746
785.529	0.0158665
785.607	0.0157515
785.685	0.0158274
785.763	0.0158444
785.841	0.0157171
785.919	0.0157249
785.997	0.0156631
786.075	0.0155928
786.154	0.0156326
786.232	0.0156328
786.310	0.0156114
786.388	0.0155292
786.466	0.0156459
786.544	0.0156817
786.622	0.0155392
786.700	0.0155987
786.779	0.0157244
786.857	0.0156514
786.935	0.0157066
787.013	0.0156970
787.091	0.0157272
787.169	0.0158763
787.247	0.0158578
787.325	0.0157205
787.404	0.0158019
787.482	0.0157664
787.560	0.0158505
787.638	0.0158823
787.716	0.0158430
787.794	0.0158717
787.872	0.0156906
787.950	0.0157325
788.029	0.0158787
788.107	0.0160452
788.185	0.0160309
788.263	0.0160664
788.341	0.0160668
788.419	0.0161249
788.497	0.0161746
788.575	0.0161382
788.654	0.0161271
788.732	0.0161826
788.810	0.0162554
788.888	0.0162735
788.966	0.0162716
789.044	0.0161883
789.122	0.0161061
789.200	0.0163114
789.279	0.0162510
789.357	0.0159955
789.435	0.0161101
789.513	0.0160925
789.591	0.0161948
789.669	0.0161696
789.747	0.0161090
789.825	0.0161065
789.904	0.0159722
789.982	0.0160783
790.060	0.0160112
790.138	0.0159356
790.216	0.0161056
790.294	0.0160634
790.372	0.0160542
790.450	0.0161526
790.529	0.0158932
790.607	0.0160029
790.685	0.0159864
790.763	0.0160441
790.841	0.0160464
790.919	0.0159289
790.997	0.0160000
791.075	0.0160714
791.154	0.0160310
791.232	0.0159095
791.310	0.0161237
791.388	0.0160916
791.466	0.0161234
791.544	0.0160670
791.622	0.0160896
791.700	0.0161291
791.779	0.0159521
791.857	0.0160963
791.935	0.0161287
792.013	0.0160356
792.091	0.0161023
792.169	0.0159495
792.247	0.0158176
792.325	0.0158340
792.404	0.0159504
792.482	0.0158688
792.560	0.0158987
792.638	0.0159551
792.716	0.0159958
792.794	0.0158418
792.872	0.0158524
792.950	0.0158726
793.029	0.0158052
793.107	0.0158333
793.185	0.0159517
793.263	0.0160340
793.341	0.0159389
793.419	0.0159131
793.497	0.0159621
793.575	0.0160854
793.654	0.0159195
793.732	0.0160616
793.810	0.0160164
793.888	0.0157805
793.966	0.0160212
794.044	0.0160202
794.122	0.0160609
794.200	0.0160609
794.279	0.0160106
794.357	0.0160197
794.435	0.0159666
794.513	0.0159936
794.591	0.0160589
794.669	0.0159608
794.747	0.0159876
794.825	0.0158946
794.904	0.0158850
794.982	0.0159212
795.060	0.0158601
795.138	0.0160118
795.216	0.0159055
795.294	0.0158518
795.372	0.0157615
795.450	0.0156942
795.529	0.0159180
795.607	0.0158262
795.685	0.0157950
795.763	0.0156767
795.841	0.0157752
795.919	0.0158197
795.997	0.0159297
796.075	0.0157378
796.154	0.0156663
796.232	0.0157028
796.310	0.0157693
796.388	0.0157384
796.466	0.0156086
796.544	0.0157779
796.622	0.0156860
796.700	0.0157371
796.779	0.0156054
796.857	0.0158287
796.935	0.0157577
797.013	0.0157513
797.091	0.0158131
797.169	0.0158979
797.247	0.0157670
797.325	0.0158836
797.404	0.0159731
797.482	0.0160864
797.560	0.0161123
797.638	0.0158924
797.716	0.0160318
797.794	0.0161811
797.872	0.0162044
797.950	0.0162572
798.029	0.0162208
798.107	0.0161993
798.185	0.0162273
798.263	0.0163237
798.341	0.0163834
798.419	0.0163650
798.497	0.0163814
798.575	0.0164233
798.654	0.0163501
798.732	0.0164581
798.810	0.0164211
798.888	0.0162955
798.966	0.0163746
799.044	0.0165011
799.122	0.0163706
799.200	0.0163593
799.279	0.0163507
799.357	0.0162763
799.435	0.0162692
799.513	0.0162439
799.591	0.0162490
799.669	0.0162634
799.747	0.0163309
799.825	0.0161852
799.904	0.0162361
799.982	0.0163037
800.060	0.0160361
800.138	0.0160818
800.216	0.0161263
800.294	0.0160560
800.372	0.0161890
800.450	0.0159875
800.529	0.0156951
800.607	0.0159216
800.685	0.0160667
800.763	0.0157990
800.841	0.0157910
800.919	0.0157665
800.997	0.0157283
801.075	0.0157889
801.154	0.0157346
801.232	0.0156374
801.310	0.0155903
801.388	0.0157014
801.466	0.0155451
801.544	0.0158335
801.622	0.0158224
801.700	0.0156369
801.779	0.0157286
801.857	0.0156055
801.935	0.0157650
802.013	0.0157426
802.091	0.0158146
802.169	0.0156479
802.247	0.0157324
802.325	0.0155457
802.404	0.0156808
802.482	0.0157346
802.560	0.0157690
802.638	0.0158800
802.716	0.0158544
802.794	0.0158827
802.872	0.0157840
802.950	0.0159464
803.029	0.0160123
803.107	0.0160394
803.185	0.0160279
803.263	0.0160690
803.341	0.0161429
803.419	0.0162084
803.497	0.0161853
803.575	0.0160975
803.654	0.0161689
803.732	0.0161850
803.810	0.0161024
803.888	0.0160874
803.966	0.0161924
804.044	0.0160685
804.122	0.0161311
804.200	0.0161385
804.279	0.0161694
804.357	0.0162489
804.435	0.0160858
804.513	0.0161607
804.591	0.0162666
804.669	0.0163289
804.747	0.0161942
804.825	0.0162926
804.904	0.0163094
804.982	0.0162910
805.060	0.0164469
805.138	0.0163640
805.216	0.0163525
805.294	0.0163660
805.372	0.0163898
805.450	0.0161932
805.529	0.0162866
805.607	0.0164143
805.685	0.0164611
805.763	0.0162067
805.841	0.0162521
805.919	0.0163004
805.997	0.0163272
806.075	0.0162163
806.154	0.0162482
806.232	0.0161152
806.310	0.0161869
806.388	0.0161477
806.466	0.0160773
806.544	0.0160044
806.622	0.0158260
806.700	0.0159595
806.779	0.0158873
806.857	0.0157623
806.935	0.0158540
807.013	0.0158050
807.091	0.0157833
807.169	0.0159018
807.247	0.0159357
807.325	0.0157429
807.404	0.0157773
807.482	0.0158015
807.560	0.0158633
807.638	0.0158271
807.716	0.0157915
807.794	0.0158936
807.872	0.0157465
807.950	0.0157222
808.029	0.0158659
808.107	0.0160361
808.185	0.0158678
808.263	0.0157212
808.341	0.0159138
808.419	0.0158922
808.497	0.0158485
808.575	0.0158469
808.654	0.0158821
808.732	0.0158812
808.810	0.0157671
808.888	0.0158928
808.966	0.0159876
809.044	0.0157851
809.122	0.0158484
809.200	0.0158257
809.279	0.0159280
809.357	0.0158952
809.435	0.0159238
809.513	0.0160143
809.591	0.0159075
809.669	0.0158983
809.747	0.0159532
809.825	0.0159251
809.904	0.0158318
809.982	0.0157773
810.060	0.0158906
810.138	0.0159195
810.216	0.0157623
810.294	0.0159312
810.372	0.0159224
810.450	0.0158384
810.529	0.0158260
810.607	0.0159447
810.685	0.0159294
810.763	0.0159531
810.841	0.0161782
810.919	0.0160321
810.997	0.0160567
811.075	0.0159394
811.154	0.0161068
811.232	0.0161353
811.310	0.0160272
811.388	0.0160352
811.466	0.0161649
811.544	0.0160330
811.622	0.0160653
811.700	0.0160224
811.779	0.0159560
811.857	0.0159290
811.935	0.0158907
812.013	0.0160461
812.091	0.0160442
812.169	0.0159358
812.247	0.0159735
812.325	0.0160825
812.404	0.0158475
812.482	0.0161008
812.560	0.0162011
812.638	0.0160049
812.716	0.0159236
812.794	0.0160134
812.872	0.0161005
812.950	0.0159533
813.029	0.0161286
813.107	0.0161606
813.185	0.0160400
813.263	0.0160057
813.341	0.0161097
813.419	0.0160746
813.497	0.0160240
813.575	0.0158887
813.654	0.0159250
813.732	0.0160102
813.810	0.0158867
813.888	0.0158382
813.966	0.0158137
814.044	0.0159665
814.122	0.0159495
814.200	0.0158213
814.279	0.0158720
814.357	0.0158840
814.435	0.0157966
814.513	0.0158572
814.591	0.0159015
814.669	0.0158148
814.747	0.0159163
814.825	0.0157845
814.904	0.0158378
814.982	0.0158485
815.060	0.0157935
815.138	0.0158662
815.216	0.0157887
815.294	0.0158633
815.372	0.0159338
815.450	0.0159817
815.529	0.0158917
815.607	0.0159374
815.685	0.0158092
815.763	0.0158715
815.841	0.0158877
815.919	0.0158524
815.997	0.0158472
816.075	0.0157791
816.154	0.0158694
816.232	0.0158265
816.310	0.0159540
816.388	0.0159206
816.466	0.0157434
816.544	0.0157413
816.622	0.0159741
816.700	0.0157626
816.779	0.0157556
816.857	0.0158250
816.935	0.0157915
817.013	0.0159711
817.091	0.0158222
817.169	0.0157956
817.247	0.0158670
817.325	0.0159274
817.404	0.0159187
817.482	0.0158843
817.560	0.0158906
817.638	0.0160104
817.716	0.0160671
817.794	0.0159038
817.872	0.0158437
817.950	0.0160033
818.029	0.0160764
818.107	0.0160696
818.185	0.0160394
818.263	0.0160044
818.341	0.0162084
818.419	0.0161703
818.497	0.0160836
818.575	0.0161751
818.654	0.0160885
818.732	0.0160816
818.810	0.0162868
818.888	0.0161273
818.966	0.0161156
819.044	0.0161961
819.122	0.0160669
819.200	0.0161214
819.279	0.0161205
819.357	0.0161047
819.435	0.0162623
819.513	0.0161851
819.591	0.0161060
819.669	0.0161451
819.747	0.0161874
819.825	0.0161765
819.904	0.0162785
819.982	0.0161528
820.060	0.0160564
820.138	0.0161253
820.216	0.0160486
820.294	0.0159975
820.372	0.0161211
820.450	0.0159159
820.529	0.0159776
820.607	0.0161453
820.685	0.0161878
820.763	0.0160561
820.841	0.0161046
820.919	0.0160986
820.997	0.0160434
821.075	0.0160371
821.154	0.0159462
821.232	0.0160807
821.310	0.0159324
821.388	0.0159029
821.466	0.0159386
821.544	0.0159552
821.622	0.0157972
821.700	0.0158089
821.779	0.0160248
821.857	0.0160600
821.935	0.0158283
822.013	0.0159109
822.091	0.0158675
822.169	0.0158190
822.247	0.0158325
822.325	0.0159356
822.404	0.0160865
822.482	0.0159274
822.560	0.0159323
822.638	0.0159793
822.716	0.0159074
822.794	0.0159863
822.872	0.0159072
822.950	0.0159640
823.029	0.0161261
823.107	0.0160976
823.185	0.0160076
823.263	0.0159209
823.341	0.0162013
823.419	0.0161404
823.497	0.0161555
823.575	0.0160012
823.654	0.0160849
823.732	0.0159657
823.810	0.0160446
823.888	0.0161541
823.966	0.0161720
824.044	0.0160274
824.122	0.0158909
824.200	0.0160558
824.279	0.0159734
824.357	0.0160603
824.435	0.0161201
824.513	0.0161076
824.591	0.0159442
824.669	0.0160449
824.747	0.0159106
824.825	0.0160480
824.904	0.0160941
824.982	0.0160239
825.060	0.0160743
825.138	0.0159486
825.216	0.0157914
825.294	0.0159895
825.372	0.0162092
825.450	0.0160057
825.529	0.0158874
825.607	0.0159776
825.685	0.0160544
825.763	0.0161140
825.841	0.0159853
825.919	0.0158637
825.997	0.0160320
826.075	0.0159807
826.154	0.0158330
826.232	0.0160404
826.310	0.0160283
826.388	0.0159837
826.466	0.0160144
826.544	0.0160639
826.622	0.0159341
826.700	0.0161318
826.779	0.0160430
826.857	0.0159231
826.935	0.0159868
827.013	0.0160569
827.091	0.0160455
827.169	0.0159419
827.247	0.0160229
827.325	0.0159469
827.404	0.0159645
827.482	0.0160375
827.560	0.0159824
827.638	0.0158969
827.716	0.0160428
827.794	0.0160173
827.872	0.0157390
827.950	0.0159931
828.029	0.0160757
828.107	0.0159576
828.185	0.0160295
828.263	0.0160081
828.341	0.0160067
828.419	0.0160642
828.497	0.0160644
828.575	0.0159521
828.654	0.0159798
828.732	0.0159590
828.810	0.0160110
828.888	0.0159364
828.966	0.0158859
829.044	0.0159019
829.122	0.0158192
829.200	0.0159221
829.279	0.0159937
829.357	0.0160600
829.435	0.0159916
829.513	0.0159807
829.591	0.0159318
829.669	0.0160284
829.747	0.0159410
829.825	0.0159809
829.904	0.0160075
829.982	0.0161285
830.060	0.0161129
830.138	0.0160239
830.216	0.0162000
830.294	0.0160211
830.372	0.0160703
830.450	0.0161200
830.529	0.0161420
830.607	0.0160539
830.685	0.0161153
830.763	0.0160851
830.841	0.0160163
830.919	0.0159980
830.997	0.0159821
831.075	0.0159892
831.154	0.0159516
831.232	0.0159515
831.310	0.0159315
831.388	0.0158831
831.466	0.0158295
831.544	0.0159185
831.622	0.0158969
831.700	0.0158294
831.779	0.0158303
831.857	0.0159254
831.935	0.0158575
832.013	0.0159725
832.091	0.0159379
832.169	0.0160174
832.247	0.0160086
832.325	0.0158980
832.404	0.0161801
832.482	0.0158736
832.560	0.0159746
832.638	0.0159782
832.716	0.0159984
832.794	0.0159573
832.872	0.0160326
832.950	0.0160589
833.029	0.0160994
833.107	0.0159725
833.185	0.0160156
833.263	0.0159248
833.341	0.0160181
833.419	0.0160152
833.497	0.0160674
833.575	0.0160073
833.654	0.0159943
833.732	0.0159781
833.810	0.0158836
833.888	0.0159755
833.966	0.0159142
834.044	0.0159824
834.122	0.0160744
834.200	0.0160223
834.279	0.0160271
834.357	0.0159921
834.435	0.0160422
834.513	0.0161618
834.591	0.0161790
834.669	0.0160431
834.747	0.0159503
834.825	0.0160839
834.904	0.0162140
834.982	0.0160980
835.060	0.0160830
835.138	0.0161529
835.216	0.0161345
835.294	0.0159464
835.372	0.0161942
835.450	0.0160519
835.529	0.0159309
835.607	0.0159727
835.685	0.0160309
835.763	0.0159496
835.841	0.0160883
835.919	0.0160522
835.997	0.0159367
836.075	0.0158987
836.154	0.0159427
836.232	0.0158414
836.310	0.0159568
836.388	0.0158190
836.466	0.0157910
836.544	0.0158411
836.622	0.0156627
836.700	0.0157443
836.779	0.0158643
836.857	0.0159082
836.935	0.0160049
837.013	0.0157741
837.091	0.0158721
837.169	0.0158662
837.247	0.0158986
837.325	0.0157644
837.404	0.0158664
837.482	0.0158082
837.560	0.0158673
837.638	0.0160967
837.716	0.0159274
837.794	0.0158913
837.872	0.0160756
837.950	0.0159772
838.029	0.0158669
838.107	0.0158900
838.185	0.0157984
838.263	0.0158987
838.341	0.0158823
838.419	0.0157626
838.497	0.0158809
838.575	0.0159612
838.654	0.0158546
838.732	0.0159465
838.810	0.0158997
838.888	0.0157818
838.966	0.0157735
839.044	0.0159225
839.122	0.0159505
839.200	0.0158611
839.279	0.0158491
839.357	0.0157637
839.435	0.0158759
839.513	0.0158801
839.591	0.0158927
839.669	0.0158544
839.747	0.0160061
839.825	0.0158686
839.904	0.0157938
839.982	0.0158836
840.060	0.0160354
840.138	0.0159033
840.216	0.0160878
840.294	0.0160014
840.372	0.0159568
840.450	0.0159827
840.529	0.0161172
840.607	0.0160617
840.685	0.0160239
840.763	0.0159649
840.841	0.0160788
840.919	0.0161057
840.997	0.0160607
841.075	0.0160855
841.154	0.0160712
841.232	0.0159662
841.310	0.0160291
841.388	0.0158918
841.466	0.0160382
841.544	0.0160207
841.622	0.0157548
841.700	0.0158914
841.779	0.0158167
841.857	0.0157590
841.935	0.0157548
842.013	0.0157955
842.091	0.0157620
842.169	0.0157361
842.247	0.0157743
842.325	0.0157592
842.404	0.0157233
842.482	0.0157347
842.560	0.0157962
842.638	0.0158144
842.716	0.0157953
842.794	0.0159737
842.872	0.0159545
842.950	0.0159184
843.029	0.0158846
843.107	0.0160596
843.185	0.0161221
843.263	0.0161675
843.341	0.0161426
843.419	0.0161918
843.497	0.0160001
843.575	0.0161196
843.654	0.0162127
843.732	0.0160839
843.810	0.0160886
843.888	0.0159660
843.966	0.0159941
844.044	0.0160413
844.122	0.0158070
844.200	0.0158685
844.279	0.0158443
844.357	0.0157809
844.435	0.0158228
844.513	0.0158557
844.591	0.0158152
844.669	0.0156784
844.747	0.0157979
844.825	0.0157132
844.904	0.0157825
844.982	0.0158765
845.060	0.0158035
845.138	0.0157974
845.216	0.0159371
845.294	0.0160024
845.372	0.0158660
845.450	0.0159896
845.529	0.0160279
845.607	0.0160233
845.685	0.0161056
845.763	0.0159719
845.841	0.0159945
845.919	0.0162371
845.997	0.0160471
846.075	0.0161031
846.154	0.0161888
846.232	0.0161324
846.310	0.0161008
846.388	0.0161652
846.466	0.0162167
846.544	0.0162170
846.622	0.0161729
846.700	0.0162051
846.779	0.0162704
846.857	0.0162698
846.935	0.0160133
847.013	0.0161352
847.091	0.0161150
847.169	0.0161856
847.247	0.0159815
847.325	0.0160387
847.404	0.0159859
847.482	0.0158578
847.560	0.0159921
847.638	0.0159361
847.716	0.0158637
847.794	0.0158338
847.872	0.0160027
847.950	0.0159418
848.029	0.0159136
848.107	0.0158981
848.185	0.0158704
848.263	0.0160059
848.341	0.0157601
848.419	0.0158031
848.497	0.0159099
848.575	0.0158948
848.654	0.0158744
848.732	0.0158160
848.810	0.0158157
848.888	0.0159165
848.966	0.0158996
849.044	0.0160419
849.122	0.0158235
849.200	0.0157164
849.279	0.0158315
849.357	0.0160162
849.435	0.0161224
849.513	0.0160038
849.591	0.0160786
849.669	0.0160850
849.747	0.0160883
849.825	0.0160569
849.904	0.0161563
849.982	0.0162434
850.060	0.0161001
850.138	0.0162386
850.216	0.0163000
850.294	0.0161463
850.372	0.0160857
850.450	0.0161323
850.529	0.0160580
850.607	0.0161376
850.685	0.0160150
850.763	0.0159585
850.841	0.0158987
850.919	0.0159057
850.997	0.0159319
851.075	0.0157799
851.154	0.0156976
851.232	0.0157912
851.310	0.0157566
851.388	0.0158028
851.466	0.0156953
851.544	0.0157761
851.622	0.0157391
851.700	0.0158623
851.779	0.0157674
851.857	0.0158714
851.935	0.0159878
852.013	0.0159706
852.091	0.0159433
852.169	0.0160515
852.247	0.0159713
852.325	0.0160487
852.404	0.0161620
852.482	0.0161222
852.560	0.0161879
852.638	0.0162177
852.716	0.0160539
852.794	0.0162218
852.872	0.0161172
852.950	0.0161889
853.029	0.0161944
853.107	0.0163341
853.185	0.0161834
853.263	0.0161787
853.341	0.0161786
853.419	0.0161334
853.497	0.0161178
853.575	0.0161169
853.654	0.0159944
853.732	0.0160351
853.810	0.0160484
853.888	0.0159581
853.966	0.0159493
854.044	0.0159476
854.122	0.0160484
854.200	0.0159566
854.279	0.0159238
854.357	0.0158858
854.435	0.0158482
854.513	0.0158359
854.591	0.0159022
854.669	0.0159281
854.747	0.0160845
854.825	0.0161044
854.904	0.0161163
854.982	0.0159475
855.060	0.0158329
855.138	0.0160051
855.216	0.0158653
855.294	0.0159108
855.372	0.0159937
855.450	0.0159568
855.529	0.0159783
855.607	0.0159041
855.685	0.0158873
855.763	0.0158698
855.841	0.0159375
855.919	0.0159535
855.997	0.0158141
856.075	0.0159042
856.154	0.0159393
856.232	0.0159657
856.310	0.0159010
856.388	0.0158629
856.466	0.0158664
856.544	0.0159779
856.622	0.0159930
856.700	0.0160542
856.779	0.0158052
856.857	0.0158806
856.935	0.0159488
857.013	0.0157668
857.091	0.0160281
857.169	0.0159681
857.247	0.0159345
857.325	0.0157880
857.404	0.0157104
857.482	0.0157868
857.560	0.0157822
857.638	0.0158983
857.716	0.0158331
857.794	0.0158594
857.872	0.0157381
857.950	0.0157742
858.029	0.0159190
858.107	0.0160033
858.185	0.0161053
858.263	0.0161622
858.341	0.0159769
858.419	0.0162017
858.497	0.0164443
858.575	0.0162617
858.654	0.0162929
858.732	0.0162849
858.810	0.0163241
858.888	0.0163119
858.966	0.0162865
859.044	0.0162179
859.122	0.0161480
859.200	0.0160562
859.279	0.0159974
859.357	0.0159549
859.435	0.0158502
859.513	0.0158133
859.591	0.0158470
859.669	0.0157449
859.747	0.0157915
859.825	0.0157458
859.904	0.0156995
859.982	0.0156643
860.060	0.0158279
860.138	0.0156921
860.216	0.0157892
860.294	0.0158755
860.372	0.0157096
860.450	0.0158067
860.529	0.0159721
860.607	0.0159746
860.685	0.0158615
860.763	0.0158949
860.841	0.0160057
860.919	0.0159550
860.997	0.0161890
861.075	0.0159930
861.154	0.0160040
861.232	0.0159243
861.310	0.0161050
861.388	0.0160692
861.466	0.0161824
861.544	0.0161697
861.622	0.0162655
861.700	0.0162936
861.779	0.0162975
861.857	0.0163013
861.935	0.0162511
862.013	0.0161134
862.091	0.0163712
862.169	0.0161907
862.247	0.0160856
862.325	0.0160685
862.404	0.0160851
862.482	0.0160361
862.560	0.0159336
862.638	0.0159676
862.716	0.0160120
862.794	0.0157931
862.872	0.0159463
862.950	0.0159760
863.029	0.0159824
863.107	0.0158173
863.185	0.0159703
863.263	0.0158775
863.341	0.0159121
863.419	0.0158486
863.497	0.0159119
863.575	0.0158961
863.654	0.0159035
863.732	0.0159121
863.810	0.0159584
863.888	0.0159341
863.966	0.0159128
864.044	0.0160448
864.122	0.0159384
864.200	0.0160204
864.279	0.0158541
864.357	0.0160467
864.435	0.0158707
864.513	0.0158151
864.591	0.0158894
864.669	0.0159921
864.747	0.0158820
864.825	0.0157500
864.904	0.0159003
864.982	0.0158469
865.060	0.0158315
865.138	0.0157427
865.216	0.0157026
865.294	0.0158682
865.372	0.0156326
865.450	0.0156537
865.529	0.0156662
865.607	0.0156579
865.685	0.0157348
865.763	0.0158205
865.841	0.0158069
865.919	0.0158318
865.997	0.0157564
866.075	0.0160545
866.154	0.0161243
866.232	0.0160217
866.310	0.0160065
866.388	0.0160484
866.466	0.0161168
866.544	0.0162129
866.622	0.0162170
866.700	0.0162360
866.779	0.0162238
866.857	0.0161345
866.935	0.0161894
867.013	0.0160949
867.091	0.0161321
867.169	0.0161919
867.247	0.0161718
867.325	0.0159174
867.404	0.0161028
867.482	0.0160480
867.560	0.0161603
867.638	0.0160992
867.716	0.0160462
867.794	0.0161465
867.872	0.0160926
867.950	0.0159830
868.029	0.0160785
868.107	0.0159653
868.185	0.0160850
868.263	0.0159631
868.341	0.0158811
868.419	0.0158615
868.497	0.0158786
868.575	0.0158889
868.654	0.0158463
868.732	0.0157758
868.810	0.0158179
868.888	0.0157806
868.966	0.0157495
869.044	0.0158316
869.122	0.0159570
869.200	0.0159509
869.279	0.0158916
869.357	0.0159634
869.435	0.0159961
869.513	0.0159147
869.591	0.0158808
869.669	0.0160874
869.747	0.0160690
869.825	0.0159277
869.904	0.0160600
869.982	0.0161027
870.060	0.0160835
870.138	0.0162259
870.216	0.0162318
870.294	0.0160950
870.372	0.0161431
870.450	0.0161377
870.529	0.0162020
870.607	0.0161539
870.685	0.0160792
870.763	0.0162850
870.841	0.0159738
870.919	0.0158882
870.997	0.0160239
871.075	0.0159221
871.154	0.0159332
871.232	0.0159493
871.310	0.0158559
871.388	0.0159282
871.466	0.0158848
871.544	0.0158270
871.622	0.0158533
871.700	0.0159090
871.779	0.0159346
871.857	0.0159157
871.935	0.0158413
872.013	0.0159448
872.091	0.0159023
872.169	0.0159690
872.247	0.0158740
872.325	0.0158865
872.404	0.0157330
872.482	0.0158653
872.560	0.0158621
872.638	0.0159042
872.716	0.0158858
872.794	0.0159004
872.872	0.0158848
872.950	0.0158380
873.029	0.0156223
873.107	0.0158234
873.185	0.0158658
873.263	0.0157486
873.341	0.0157191
873.419	0.0156503
873.497	0.0157306
873.575	0.0158160
873.654	0.0156693
873.732	0.0157289
873.810	0.0158218
873.888	0.0157047
873.966	0.0157996
874.044	0.0158747
874.122	0.0159549
874.200	0.0160123
874.279	0.0160088
874.357	0.0161051
874.435	0.0160624
874.513	0.0162033
874.591	0.0161362
874.669	0.0163530
874.747	0.0161371
874.825	0.0163754
874.904	0.0161819
874.982	0.0161990
875.060	0.0162498
875.138	0.0162872
875.216	0.0163068
875.294	0.0161880
875.372	0.0160422
875.450	0.0159631
875.529	0.0160410
875.607	0.0159007
875.685	0.0160036
875.763	0.0158710
875.841	0.0159897
875.919	0.0160027
875.997	0.0159535
876.075	0.0158813
876.154	0.0158468
876.232	0.0158856
876.310	0.0158862
876.388	0.0159212
876.466	0.0158813
876.544	0.0160930
876.622	0.0161188
876.700	0.0159593
876.779	0.0159453
876.857	0.0160506
876.935	0.0161243
877.013	0.0161536
877.091	0.0160442
877.169	0.0160934
877.247	0.0160934
877.325	0.0160072
877.404	0.0160216
877.482	0.0160396
877.560	0.0161458
877.638	0.0161267
877.716	0.0160619
877.794	0.0160892
877.872	0.0160339
877.950	0.0159809
878.029	0.0159495
878.107	0.0160004
878.185	0.0159303
878.263	0.0159241
878.341	0.0159888
878.419	0.0160790
878.497	0.0159609
878.575	0.0158887
878.654	0.0160874
878.732	0.0159589
878.810	0.0159428
878.888	0.0160626
878.966	0.0158952
879.044	0.0161035
879.122	0.0160606
879.200	0.0159152
879.279	0.0159839
879.357	0.0161201
879.435	0.0160093
879.513	0.0160358
879.591	0.0159923
879.669	0.0159571
879.747	0.0159023
879.825	0.0160139
879.904	0.0160382
879.982	0.0159177
880.060	0.0159059
880.138	0.0159705
880.216	0.0158330
880.294	0.0156638
880.372	0.0157956
880.450	0.0157220
880.529	0.0157542
880.607	0.0156922
880.685	0.0157637
880.763	0.0157238
880.841	0.0156919
880.919	0.0157226
880.997	0.0157634
881.075	0.0158578
881.154	0.0158477
881.232	0.0158066
881.310	0.0158285
881.388	0.0157825
881.466	0.0157595
881.544	0.0157123
881.622	0.0158519
881.700	0.0158121
881.779	0.0158713
881.857	0.0159296
881.935	0.0159954
882.013	0.0159873
882.091	0.0160471
882.169	0.0159972
882.247	0.0161828
882.325	0.0161471
882.404	0.0162054
882.482	0.0162022
882.560	0.0161465
882.638	0.0162097
882.716	0.0163109
882.794	0.0160947
882.872	0.0160452
882.950	0.0161584
883.029	0.0161554
883.107	0.0160338
883.185	0.0161212
883.263	0.0158708
883.341	0.0159839
883.419	0.0161124
883.497	0.0161622
883.575	0.0160716
883.654	0.0160625
883.732	0.0161526
883.810	0.0161604
883.888	0.0160839
883.966	0.0161974
884.044	0.0160384
884.122	0.0161595
884.200	0.0160133
884.279	0.0160346
884.357	0.0160727
884.435	0.0159711
884.513	0.0160073
884.591	0.0161092
884.669	0.0161615
884.747	0.0160126
884.825	0.0159648
884.904	0.0159717
884.982	0.0158929
885.060	0.0158662
885.138	0.0160255
885.216	0.0159925
885.294	0.0161069
885.372	0.0159910
885.450	0.0159453
885.529	0.0160739
885.607	0.0159946
885.685	0.0159412
885.763	0.0159646
885.841	0.0159814
885.919	0.0159933
885.997	0.0160826
886.075	0.0160914
886.154	0.0159321
886.232	0.0159623
886.310	0.0160406
886.388	0.0160002
886.466	0.0159950
886.544	0.0160005
886.622	0.0159549
886.700	0.0158938
886.779	0.0159613
886.857	0.0159843
886.935	0.0158042
887.013	0.0160344
887.091	0.0159566
887.169	0.0159585
887.247	0.0159492
887.325	0.0159992
887.404	0.0160435
887.482	0.0159785
887.560	0.0158835
887.638	0.0159057
887.716	0.0157730
887.794	0.0159555
887.872	0.0159417
887.950	0.0158686
888.029	0.0159500
888.107	0.0160346
888.185	0.0159927
888.263	0.0159215
888.341	0.0159814
888.419	0.0161156
888.497	0.0160558
888.575	0.0161391
888.654	0.0160901
888.732	0.0158425
888.810	0.0159838
888.888	0.0159988
888.966	0.0158636
889.044	0.0158804
889.122	0.0159981
889.200	0.0158946
889.279	0.0159224
889.357	0.0158259
889.435	0.0157664
889.513	0.0159315
889.591	0.0158287
889.669	0.0157401
889.747	0.0158705
889.825	0.0158740
889.904	0.0159614
889.982	0.0160581
890.060	0.0160726
890.138	0.0159940
890.216	0.0160889
890.294	0.0159934
890.372	0.0161074
890.450	0.0161395
890.529	0.0160839
890.607	0.0161765
890.685	0.0161903
890.763	0.0160885
890.841	0.0161469
890.919	0.0161720
890.997	0.0160081
891.075	0.0160632
891.154	0.0161212
891.232	0.0161491
891.310	0.0160783
891.388	0.0159135
891.466	0.0160521
891.544	0.0161846
891.622	0.0160506
891.700	0.0160995
891.779	0.0160703
891.857	0.0162701
891.935	0.0160958
892.013	0.0160133
892.091	0.0160972
892.169	0.0159817
892.247	0.0160474
892.325	0.0160712
892.404	0.0161042
892.482	0.0161296
892.560	0.0158661
892.638	0.0160213
892.716	0.0160741
892.794	0.0160278
892.872	0.0161124
892.950	0.0161157
893.029	0.0161935
893.107	0.0161255
893.185	0.0161040
893.263	0.0160255
893.341	0.0161908
893.419	0.0161079
893.497	0.0161227
893.575	0.0160216
893.654	0.0160740
893.732	0.0161656
893.810	0.0161159
893.888	0.0162438
893.966	0.0161169
894.044	0.0158761
894.122	0.0160699
894.200	0.0160186
894.279	0.0158496
894.357	0.0159689
894.435	0.0158737
894.513	0.0158641
894.591	0.0159782
894.669	0.0158642
894.747	0.0157962
894.825	0.0156768
894.904	0.0156892
894.982	0.0158311
895.060	0.0157639
895.138	0.0157218
895.216	0.0156366
895.294	0.0156482
895.372	0.0156995
895.450	0.0156989
895.529	0.0157659
895.607	0.0158623
895.685	0.0157722
895.763	0.0156379
895.841	0.0158121
895.919	0.0158894
895.997	0.0158202
896.075	0.0158584
896.154	0.0158193
896.232	0.0159338
896.310	0.0158833
896.388	0.0158920
896.466	0.0159989
896.544	0.0159747
896.622	0.0159779
896.700	0.0159831
896.779	0.0160540
896.857	0.0161820
896.935	0.0161149
897.013	0.0161256
897.091	0.0160944
897.169	0.0161504
897.247	0.0160752
897.325	0.0159299
897.404	0.0160684
897.482	0.0158839
897.560	0.0159213
897.638	0.0158286
897.716	0.0158862
897.794	0.0160836
897.872	0.0158610
897.950	0.0158839
898.029	0.0159113
898.107	0.0159528
898.185	0.0158151
898.263	0.0159472
898.341	0.0160931
898.419	0.0159682
898.497	0.0159930
898.575	0.0160817
898.654	0.0160558
898.732	0.0160241
898.810	0.0161141
898.888	0.0160138
898.966	0.0160575
899.044	0.0161078
899.122	0.0160677
899.200	0.0160432
899.279	0.0161285
899.357	0.0160071
899.435	0.0159847
899.513	0.0160609
899.591	0.0159827
899.669	0.0159554
899.747	0.0159882
899.825	0.0159681
899.904	0.0158366
899.982	0.0159592
900.060	0.0158578
900.138	0.0159802
900.216	0.0157351
900.294	0.0159062
900.372	0.0157839
900.450	0.0159237
900.529	0.0159909
900.607	0.0158571
900.685	0.0158885
900.763	0.0158954
900.841	0.0160210
900.919	0.0159624
900.997	0.0159129
901.075	0.0160007
901.154	0.0160370
901.232	0.0161470
901.310	0.0160664
901.388	0.0160722
901.466	0.0160424
901.544	0.0158485
901.622	0.0160026
901.700	0.0159915
901.779	0.0159853
901.857	0.0160376
901.935	0.0159078
902.013	0.0159602
902.091	0.0160278
902.169	0.0159020
902.247	0.0160478
902.325	0.0160439
902.404	0.0158174
902.482	0.0160232
902.560	0.0159456
902.638	0.0160139
902.716	0.0159209
902.794	0.0158813
902.872	0.0159562
902.950	0.0159274
903.029	0.0157906
903.107	0.0159924
903.185	0.0159737
903.263	0.0160456
903.341	0.0160455
903.419	0.0159386
903.497	0.0158563
903.575	0.0159732
903.654	0.0159764
903.732	0.0159925
903.810	0.0160561
903.888	0.0159164
903.966	0.0159174
904.044	0.0160280
904.122	0.0158149
904.200	0.0158167
904.279	0.0158300
904.357	0.0159928
904.435	0.0158138
904.513	0.0158842
904.591	0.0158646
904.669	0.0159544
904.747	0.0158678
904.825	0.0160116
904.904	0.0159583
904.982	0.0160719
905.060	0.0160583
905.138	0.0159775
905.216	0.0159825
905.294	0.0159930
905.372	0.0160448
905.450	0.0160918
905.529	0.0160952
905.607	0.0161633
905.685	0.0160457
905.763	0.0160130
905.841	0.0160680
905.919	0.0163185
905.997	0.0162291
906.075	0.0161621
906.154	0.0162364
906.232	0.0163564
906.310	0.0164495
906.388	0.0162855
906.466	0.0163387
906.544	0.0162769
906.622	0.0162668
906.700	0.0162128
906.779	0.0162466
906.857	0.0161044
906.935	0.0161266
907.013	0.0161429
907.091	0.0160674
907.169	0.0161174
907.247	0.0160762
907.325	0.0159034
907.404	0.0160628
907.482	0.0159110
907.560	0.0158642
907.638	0.0158756
907.716	0.0159136
907.794	0.0158628
907.872	0.0159142
907.950	0.0160405
908.029	0.0161353
908.107	0.0160652
908.185	0.0160198
908.263	0.0159763
908.341	0.0161761
908.419	0.0160296
908.497	0.0160520
908.575	0.0160681
908.654	0.0160990
908.732	0.0160094
908.810	0.0161064
908.888	0.0161230
908.966	0.0159155
909.044	0.0159320
909.122	0.0159869
909.200	0.0159632
909.279	0.0159402
909.357	0.0161025
909.435	0.0159813
909.513	0.0159101
909.591	0.0159949
909.669	0.0159019
909.747	0.0159215
909.825	0.0158992
909.904	0.0158410
909.982	0.0156955
910.060	0.0157014
910.138	0.0158115
910.216	0.0157079
910.294	0.0157500
910.372	0.0158359
910.450	0.0158391
910.529	0.0157928
910.607	0.0157556
910.685	0.0157695
910.763	0.0158997
910.841	0.0158582
910.919	0.0159760
910.997	0.0158302
911.075	0.0159084
911.154	0.0160471
911.232	0.0160006
911.310	0.0160199
911.388	0.0161127
911.466	0.0160002
911.544	0.0159032
911.622	0.0160123
911.700	0.0161242
911.779	0.0161294
911.857	0.0160997
911.935	0.0160498
912.013	0.0160497
912.091	0.0161175
912.169	0.0159767
912.247	0.0161262
912.325	0.0161403
912.404	0.0159161
912.482	0.0160406
912.560	0.0161932
912.638	0.0161060
912.716	0.0160069
912.794	0.0161116
912.872	0.0159222
912.950	0.0159246
913.029	0.0160364
913.107	0.0158761
913.185	0.0160784
913.263	0.0159426
913.341	0.0159175
913.419	0.0159652
913.497	0.0158990
913.575	0.0158492
913.654	0.0160302
913.732	0.0160255
913.810	0.0160654
913.888	0.0160394
913.966	0.0160639
914.044	0.0160895
914.122	0.0161362
914.200	0.0162395
914.279	0.0162121
914.357	0.0161119
914.435	0.0161950
914.513	0.0162096
914.591	0.0162753
914.669	0.0163213
914.747	0.0162494
914.825	0.0161581
914.904	0.0161393
914.982	0.0161115
915.060	0.0161070
915.138	0.0161364
915.216	0.0160413
915.294	0.0160525
915.372	0.0160210
915.450	0.0159209
915.529	0.0160040
915.607	0.0159717
915.685	0.0160071
915.763	0.0160265
915.841	0.0159146
915.919	0.0160802
915.997	0.0160915
916.075	0.0160339
916.154	0.0160172
916.232	0.0161244
916.310	0.0161427
916.388	0.0160202
916.466	0.0159576
916.544	0.0160724
916.622	0.0161238
916.700	0.0160755
916.779	0.0160441
916.857	0.0160769
916.935	0.0159193
917.013	0.0159315
917.091	0.0159673
917.169	0.0160228
917.247	0.0158755
917.325	0.0158321
917.404	0.0158946
917.482	0.0157147
917.560	0.0157637
917.638	0.0158612
917.716	0.0156673
917.794	0.0158395
917.872	0.0156987
917.950	0.0156874
918.029	0.0157744
918.107	0.0156922
918.185	0.0157725
918.263	0.0156675
918.341	0.0157651
918.419	0.0159374
918.497	0.0158822
918.575	0.0158644
918.654	0.0157895
918.732	0.0158892
918.810	0.0159124
918.888	0.0159645
918.966	0.0160561
919.044	0.0159065
919.122	0.0160402
919.200	0.0161195
919.279	0.0161265
919.357	0.0161610
919.435	0.0160181
919.513	0.0162122
919.591	0.0161230
919.669	0.0162262
919.747	0.0161093
919.825	0.0160217
919.904	0.0160707
