05/24/2022	20:33:25	Ver.	4.1	UNKNOWN
Optical Delay	599.981738	Delta X		0.078125	Sweeps	1	Scan Rate	0/0
Coordinates	Axis 1	NaN	Axis 2	NaN	Axis 3	NaN	Axis 4	NaN	Axis 5	NaN	Axis 6	0.000000
TX Power	0.000000	RX Power	0.000000

599.982	0.0160802
600.060	0.0162199
600.138	0.0161743
600.216	0.0160661
600.294	0.0162077
600.372	0.0162230
600.450	0.0161897
600.529	0.0162244
600.607	0.0162440
600.685	0.0161386
600.763	0.0161696
600.841	0.0161052
600.919	0.0161697
600.997	0.0161393
601.075	0.0162533
601.154	0.0161826
601.232	0.0161607
601.310	0.0160754
601.388	0.0159725
601.466	0.0161721
601.544	0.0160349
601.622	0.0160146
601.700	0.0159168
601.779	0.0158755
601.857	0.0159630
601.935	0.0158468
602.013	0.0157899
602.091	0.0159384
602.169	0.0158169
602.247	0.0157812
602.325	0.0157775
602.404	0.0158799
602.482	0.0158684
602.560	0.0160329
602.638	0.0159280
602.716	0.0159232
602.794	0.0158923
602.872	0.0161117
602.950	0.0160177
603.029	0.0160844
603.107	0.0160867
603.185	0.0161156
603.263	0.0162411
603.341	0.0162341
603.419	0.0162654
603.497	0.0162254
603.575	0.0161280
603.654	0.0162546
603.732	0.0163944
603.810	0.0160509
603.888	0.0163201
603.966	0.0163091
604.044	0.0162828
604.122	0.0163560
604.200	0.0162295
604.279	0.0162933
604.357	0.0162096
604.435	0.0162280
604.513	0.0161658
604.591	0.0162248
604.669	0.0160683
604.747	0.0160198
604.825	0.0160591
604.904	0.0159250
604.982	0.0159358
605.060	0.0159154
605.138	0.0159499
605.216	0.0158270
605.294	0.0159056
605.372	0.0158746
605.450	0.0157829
605.529	0.0158108
605.607	0.0158633
605.685	0.0158431
605.763	0.0158823
605.841	0.0158601
605.919	0.0158057
605.997	0.0159511
606.075	0.0160900
606.154	0.0160088
606.232	0.0159722
606.310	0.0160963
606.388	0.0161172
606.466	0.0160767
606.544	0.0161811
606.622	0.0162195
606.700	0.0162573
606.779	0.0162067
606.857	0.0162053
606.935	0.0163121
607.013	0.0162234
607.091	0.0162138
607.169	0.0160639
607.247	0.0161465
607.325	0.0163184
607.404	0.0161680
607.482	0.0161734
607.560	0.0160818
607.638	0.0160098
607.716	0.0162385
607.794	0.0162279
607.872	0.0161813
607.950	0.0161927
608.029	0.0162563
608.107	0.0161369
608.185	0.0161127
608.263	0.0160626
608.341	0.0159772
608.419	0.0159695
608.497	0.0158796
608.575	0.0160825
608.654	0.0160739
608.732	0.0161805
608.810	0.0160268
608.888	0.0161009
608.966	0.0161030
609.044	0.0161768
609.122	0.0160261
609.200	0.0158829
609.279	0.0159256
609.357	0.0159622
609.435	0.0160684
609.513	0.0159353
609.591	0.0158509
609.669	0.0159538
609.747	0.0159161
609.825	0.0157827
609.904	0.0159072
609.982	0.0159777
610.060	0.0159843
610.138	0.0158765
610.216	0.0160412
610.294	0.0160526
610.372	0.0159840
610.450	0.0161125
610.529	0.0162495
610.607	0.0161634
610.685	0.0162584
610.763	0.0162131
610.841	0.0163056
610.919	0.0162726
610.997	0.0164101
611.075	0.0162821
611.154	0.0163087
611.232	0.0162939
611.310	0.0163338
611.388	0.0163297
611.466	0.0161903
611.544	0.0163081
611.622	0.0162103
611.700	0.0160737
611.779	0.0160086
611.857	0.0158765
611.935	0.0160365
612.013	0.0160252
612.091	0.0159896
612.169	0.0160002
612.247	0.0159630
612.325	0.0158798
612.404	0.0158804
612.482	0.0159658
612.560	0.0160140
612.638	0.0160184
612.716	0.0159956
612.794	0.0161298
612.872	0.0161169
612.950	0.0162373
613.029	0.0161059
613.107	0.0161431
613.185	0.0161334
613.263	0.0162123
613.341	0.0162130
613.419	0.0161510
613.497	0.0161557
613.575	0.0161324
613.654	0.0162292
613.732	0.0162806
613.810	0.0162069
613.888	0.0162088
613.966	0.0162078
614.044	0.0159610
614.122	0.0161168
614.200	0.0160896
614.279	0.0161123
614.357	0.0160466
614.435	0.0159838
614.513	0.0159257
614.591	0.0159860
614.669	0.0161419
614.747	0.0160367
614.825	0.0159865
614.904	0.0159656
614.982	0.0159704
615.060	0.0160881
615.138	0.0159933
615.216	0.0159980
615.294	0.0161012
615.372	0.0160188
615.450	0.0161489
615.529	0.0161441
615.607	0.0160715
615.685	0.0160824
615.763	0.0161879
615.841	0.0163105
615.919	0.0160668
615.997	0.0163018
616.075	0.0162452
616.154	0.0162491
616.232	0.0163496
616.310	0.0162452
616.388	0.0163098
616.466	0.0160998
616.544	0.0161889
616.622	0.0160236
616.700	0.0160940
616.779	0.0160553
616.857	0.0159454
616.935	0.0159373
617.013	0.0159486
617.091	0.0159371
617.169	0.0160348
617.247	0.0159360
617.325	0.0159853
617.404	0.0160797
617.482	0.0160412
617.560	0.0159751
617.638	0.0160279
617.716	0.0161337
617.794	0.0161121
617.872	0.0161272
617.950	0.0160936
618.029	0.0162359
618.107	0.0161764
618.185	0.0162846
618.263	0.0162330
618.341	0.0163103
618.419	0.0161676
618.497	0.0161750
618.575	0.0160882
618.654	0.0162011
618.732	0.0162084
618.810	0.0163070
618.888	0.0160774
618.966	0.0162203
619.044	0.0162547
619.122	0.0161492
619.200	0.0159750
619.279	0.0161719
619.357	0.0161851
619.435	0.0160513
619.513	0.0160449
619.591	0.0161413
619.669	0.0159458
619.747	0.0160798
619.825	0.0160996
619.904	0.0160742
619.982	0.0158650
620.060	0.0159489
620.138	0.0159528
620.216	0.0159956
620.294	0.0159125
620.372	0.0159698
620.450	0.0158820
620.529	0.0160257
620.607	0.0160035
620.685	0.0160166
620.763	0.0160190
620.841	0.0160648
620.919	0.0160075
620.997	0.0161197
621.075	0.0160944
621.154	0.0160775
621.232	0.0159827
621.310	0.0159393
621.388	0.0160239
621.466	0.0160169
621.544	0.0160207
621.622	0.0160019
621.700	0.0160353
621.779	0.0160546
621.857	0.0160918
621.935	0.0159314
622.013	0.0158870
622.091	0.0159611
622.169	0.0159570
622.247	0.0160817
622.325	0.0160893
622.404	0.0159447
622.482	0.0161035
622.560	0.0160673
622.638	0.0160079
622.716	0.0161554
622.794	0.0160559
622.872	0.0160027
622.950	0.0159694
623.029	0.0161530
623.107	0.0160067
623.185	0.0158925
623.263	0.0160766
623.341	0.0160078
623.419	0.0160420
623.497	0.0160509
623.575	0.0159496
623.654	0.0161260
623.732	0.0160967
623.810	0.0161225
623.888	0.0161824
623.966	0.0159794
624.044	0.0160539
624.122	0.0160989
624.200	0.0160939
624.279	0.0159017
624.357	0.0160486
624.435	0.0160950
624.513	0.0160551
624.591	0.0160003
624.669	0.0159270
624.747	0.0159238
624.825	0.0159105
624.904	0.0160635
624.982	0.0160197
625.060	0.0161076
625.138	0.0160983
625.216	0.0161516
625.294	0.0158978
625.372	0.0161128
625.450	0.0160172
625.529	0.0160165
625.607	0.0161172
625.685	0.0161725
625.763	0.0160733
625.841	0.0161530
625.919	0.0162373
625.997	0.0161829
626.075	0.0161898
626.154	0.0161213
626.232	0.0161098
626.310	0.0161333
626.388	0.0161456
626.466	0.0162417
626.544	0.0161156
626.622	0.0161181
626.700	0.0160112
626.779	0.0161243
626.857	0.0161156
626.935	0.0162099
627.013	0.0160615
627.091	0.0158025
627.169	0.0158184
627.247	0.0158813
627.325	0.0160396
627.404	0.0160058
627.482	0.0160020
627.560	0.0160004
627.638	0.0158968
627.716	0.0159274
627.794	0.0159418
627.872	0.0160601
627.950	0.0160578
628.029	0.0161582
628.107	0.0163588
628.185	0.0161044
628.263	0.0162119
628.341	0.0161326
628.419	0.0161710
628.497	0.0163142
628.575	0.0162154
628.654	0.0163074
628.732	0.0162874
628.810	0.0161632
628.888	0.0162915
628.966	0.0162678
629.044	0.0163618
629.122	0.0162508
629.200	0.0161828
629.279	0.0160789
629.357	0.0159753
629.435	0.0161628
629.513	0.0160639
629.591	0.0160014
629.669	0.0160089
629.747	0.0161013
629.825	0.0161205
629.904	0.0161814
629.982	0.0161680
630.060	0.0160242
630.138	0.0161546
630.216	0.0162125
630.294	0.0162697
630.372	0.0162349
630.450	0.0161597
630.529	0.0162127
630.607	0.0164259
630.685	0.0163628
630.763	0.0162415
630.841	0.0161485
630.919	0.0160606
630.997	0.0162178
631.075	0.0163081
631.154	0.0160223
631.232	0.0161768
631.310	0.0162048
631.388	0.0161546
631.466	0.0161660
631.544	0.0160685
631.622	0.0161139
631.700	0.0159356
631.779	0.0160046
631.857	0.0160738
631.935	0.0160381
632.013	0.0159857
632.091	0.0161243
632.169	0.0161550
632.247	0.0160118
632.325	0.0160820
632.404	0.0161990
632.482	0.0160542
632.560	0.0161855
632.638	0.0163332
632.716	0.0162347
632.794	0.0163258
632.872	0.0163249
632.950	0.0162762
633.029	0.0163811
633.107	0.0163692
633.185	0.0164147
633.263	0.0163762
633.341	0.0161903
633.419	0.0162850
633.497	0.0161005
633.575	0.0161192
633.654	0.0159939
633.732	0.0161057
633.810	0.0160877
633.888	0.0161234
633.966	0.0159816
634.044	0.0159866
634.122	0.0160120
634.200	0.0158425
634.279	0.0159266
634.357	0.0158810
634.435	0.0159579
634.513	0.0159969
634.591	0.0159702
634.669	0.0160902
634.747	0.0160246
634.825	0.0159929
634.904	0.0161095
634.982	0.0159464
635.060	0.0160470
635.138	0.0161658
635.216	0.0160860
635.294	0.0161944
635.372	0.0161191
635.450	0.0159629
635.529	0.0160519
635.607	0.0160158
635.685	0.0161777
635.763	0.0161706
635.841	0.0160286
635.919	0.0159428
635.997	0.0162109
636.075	0.0160339
636.154	0.0159800
636.232	0.0161098
636.310	0.0161628
636.388	0.0161720
636.466	0.0161676
636.544	0.0161281
636.622	0.0161220
636.700	0.0160149
636.779	0.0161741
636.857	0.0161659
636.935	0.0159588
637.013	0.0161169
637.091	0.0160282
637.169	0.0160426
637.247	0.0160442
637.325	0.0159159
637.404	0.0160436
637.482	0.0159776
637.560	0.0159653
637.638	0.0160427
637.716	0.0160799
637.794	0.0159409
637.872	0.0159269
637.950	0.0162054
638.029	0.0161172
638.107	0.0161118
638.185	0.0158776
638.263	0.0160103
638.341	0.0161386
638.419	0.0160938
638.497	0.0161751
638.575	0.0161974
638.654	0.0161475
638.732	0.0160703
638.810	0.0160207
638.888	0.0162178
638.966	0.0161717
639.044	0.0160338
639.122	0.0161510
639.200	0.0162514
639.279	0.0161813
639.357	0.0160351
639.435	0.0161493
639.513	0.0161134
639.591	0.0158984
639.669	0.0159613
639.747	0.0160024
639.825	0.0160710
639.904	0.0161656
639.982	0.0160226
640.060	0.0158790
640.138	0.0158810
640.216	0.0160119
640.294	0.0159801
640.372	0.0160088
640.450	0.0159681
640.529	0.0160108
640.607	0.0159555
640.685	0.0159144
640.763	0.0160867
640.841	0.0160839
640.919	0.0161407
640.997	0.0160623
641.075	0.0161169
641.154	0.0161396
641.232	0.0162234
641.310	0.0161217
641.388	0.0160979
641.466	0.0162074
641.544	0.0163951
641.622	0.0162313
641.700	0.0162074
641.779	0.0162666
641.857	0.0164548
641.935	0.0164110
642.013	0.0164249
642.091	0.0164198
642.169	0.0163071
642.247	0.0162959
642.325	0.0162556
642.404	0.0162257
642.482	0.0161542
642.560	0.0161794
642.638	0.0162460
642.716	0.0159358
642.794	0.0158475
642.872	0.0157158
642.950	0.0156640
643.029	0.0155914
643.107	0.0153590
643.185	0.0154824
643.263	0.0153383
643.341	0.0152510
643.419	0.0152978
643.497	0.0153899
643.575	0.0153620
643.654	0.0154998
643.732	0.0156435
643.810	0.0157228
643.888	0.0157831
643.966	0.0159978
644.044	0.0161978
644.122	0.0163064
644.200	0.0163947
644.279	0.0166022
644.357	0.0167419
644.435	0.0167121
644.513	0.0169940
644.591	0.0168967
644.669	0.0170907
644.747	0.0169943
644.825	0.0170604
644.904	0.0171922
644.982	0.0168859
645.060	0.0166753
645.138	0.0167357
645.216	0.0164584
645.294	0.0162305
645.372	0.0160316
645.450	0.0159389
645.529	0.0157397
645.607	0.0153749
645.685	0.0150638
645.763	0.0149534
645.841	0.0147712
645.919	0.0146514
645.997	0.0147351
646.075	0.0145487
646.154	0.0145598
646.232	0.0144891
646.310	0.0146011
646.388	0.0148165
646.466	0.0149944
646.544	0.0151723
646.622	0.0152683
646.700	0.0157064
646.779	0.0158821
646.857	0.0161661
646.935	0.0164990
647.013	0.0168933
647.091	0.0170175
647.169	0.0172558
647.247	0.0176853
647.325	0.0178877
647.404	0.0180251
647.482	0.0181370
647.560	0.0181566
647.638	0.0181567
647.716	0.0181393
647.794	0.0179250
647.872	0.0178963
647.950	0.0177010
648.029	0.0174548
648.107	0.0170736
648.185	0.0166730
648.263	0.0163634
648.341	0.0160475
648.419	0.0157123
648.497	0.0153404
648.575	0.0149679
648.654	0.0147009
648.732	0.0145535
648.810	0.0142112
648.888	0.0141054
648.966	0.0138544
649.044	0.0138816
649.122	0.0138764
649.200	0.0137350
649.279	0.0138860
649.357	0.0142083
649.435	0.0142408
649.513	0.0143817
649.591	0.0148351
649.669	0.0148761
649.747	0.0152418
649.825	0.0156911
649.904	0.0160595
649.982	0.0162298
650.060	0.0167102
650.138	0.0170338
650.216	0.0173857
650.294	0.0177176
650.372	0.0179113
650.450	0.0181174
650.529	0.0181690
650.607	0.0182748
650.685	0.0184091
650.763	0.0183866
650.841	0.0181926
650.919	0.0181144
650.997	0.0179786
651.075	0.0176384
651.154	0.0175180
651.232	0.0171252
651.310	0.0168540
651.388	0.0165704
651.466	0.0163612
651.544	0.0160870
651.622	0.0160056
651.700	0.0157357
651.779	0.0154590
651.857	0.0152744
651.935	0.0151287
652.013	0.0149255
652.091	0.0146896
652.169	0.0146109
652.247	0.0147201
652.325	0.0144619
652.404	0.0145039
652.482	0.0145219
652.560	0.0145206
652.638	0.0145102
652.716	0.0145747
652.794	0.0147926
652.872	0.0148793
652.950	0.0152375
653.029	0.0153750
653.107	0.0155410
653.185	0.0158269
653.263	0.0161972
653.341	0.0165202
653.419	0.0167014
653.497	0.0168366
653.575	0.0169130
653.654	0.0170413
653.732	0.0171425
653.810	0.0172052
653.888	0.0173389
653.966	0.0173263
654.044	0.0172380
654.122	0.0171109
654.200	0.0171252
654.279	0.0170230
654.357	0.0170960
654.435	0.0169776
654.513	0.0169339
654.591	0.0168205
654.669	0.0167775
654.747	0.0167068
654.825	0.0165707
654.904	0.0165291
654.982	0.0163749
655.060	0.0163965
655.138	0.0160974
655.216	0.0160932
655.294	0.0158263
655.372	0.0157726
655.450	0.0154745
655.529	0.0154084
655.607	0.0152491
655.685	0.0150619
655.763	0.0148363
655.841	0.0145469
655.919	0.0145633
655.997	0.0146564
656.075	0.0143977
656.154	0.0145428
656.232	0.0146304
656.310	0.0147837
656.388	0.0149718
656.466	0.0152133
656.544	0.0155083
656.622	0.0159825
656.700	0.0164333
656.779	0.0167436
656.857	0.0169810
656.935	0.0174565
657.013	0.0178630
657.091	0.0180872
657.169	0.0183481
657.247	0.0187189
657.325	0.0187435
657.404	0.0187374
657.482	0.0185668
657.560	0.0186080
657.638	0.0185548
657.716	0.0183630
657.794	0.0178843
657.872	0.0176058
657.950	0.0172407
658.029	0.0166911
658.107	0.0161257
658.185	0.0157823
658.263	0.0153017
658.341	0.0145988
658.419	0.0141360
658.497	0.0139037
658.575	0.0133276
658.654	0.0130420
658.732	0.0127187
658.810	0.0126764
658.888	0.0124706
658.966	0.0124926
659.044	0.0126875
659.122	0.0127471
659.200	0.0129113
659.279	0.0133224
659.357	0.0137027
659.435	0.0142126
659.513	0.0146095
659.591	0.0150382
659.669	0.0153796
659.747	0.0160320
659.825	0.0164629
659.904	0.0170899
659.982	0.0174305
660.060	0.0178743
660.138	0.0181304
660.216	0.0186353
660.294	0.0189594
660.372	0.0192376
660.450	0.0192554
660.529	0.0193360
660.607	0.0192004
660.685	0.0191521
660.763	0.0188711
660.841	0.0185770
660.919	0.0182675
660.997	0.0179121
661.075	0.0176681
661.154	0.0174027
661.232	0.0171452
661.310	0.0169022
661.388	0.0167210
661.466	0.0165625
661.544	0.0163186
661.622	0.0162475
661.700	0.0161678
661.779	0.0160568
661.857	0.0158833
661.935	0.0156297
662.013	0.0155244
662.091	0.0154179
662.169	0.0153793
662.247	0.0152409
662.325	0.0150862
662.404	0.0148045
662.482	0.0147647
662.560	0.0146374
662.638	0.0145363
662.716	0.0144115
662.794	0.0142387
662.872	0.0142562
662.950	0.0140845
663.029	0.0141068
663.107	0.0140257
663.185	0.0143032
663.263	0.0142961
663.341	0.0143629
663.419	0.0146681
663.497	0.0147654
663.575	0.0148502
663.654	0.0151024
663.732	0.0152700
663.810	0.0155829
663.888	0.0156467
663.966	0.0158357
664.044	0.0159373
664.122	0.0160641
664.200	0.0162495
664.279	0.0163441
664.357	0.0162576
664.435	0.0164865
664.513	0.0165321
664.591	0.0165975
664.669	0.0165218
664.747	0.0164154
664.825	0.0165186
664.904	0.0166073
664.982	0.0165820
665.060	0.0165382
665.138	0.0167931
665.216	0.0168008
665.294	0.0169388
665.372	0.0169866
665.450	0.0171135
665.529	0.0173204
665.607	0.0174789
665.685	0.0175916
665.763	0.0177699
665.841	0.0178532
665.919	0.0179918
665.997	0.0182073
666.075	0.0182286
666.154	0.0180908
666.232	0.0181306
666.310	0.0178204
666.388	0.0178848
666.466	0.0177304
666.544	0.0174054
666.622	0.0173742
666.700	0.0170810
666.779	0.0166381
666.857	0.0165805
666.935	0.0161793
667.013	0.0159579
667.091	0.0154909
667.169	0.0152836
667.247	0.0150068
667.325	0.0146644
667.404	0.0141594
667.482	0.0137473
667.560	0.0134325
667.638	0.0133099
667.716	0.0128893
667.794	0.0127400
667.872	0.0125448
667.950	0.0124590
668.029	0.0124901
668.107	0.0126089
668.185	0.0126472
668.263	0.0131764
668.341	0.0137306
668.419	0.0140962
668.497	0.0144533
668.575	0.0151383
668.654	0.0156300
668.732	0.0161884
668.810	0.0165604
668.888	0.0170710
668.966	0.0174159
669.044	0.0177086
669.122	0.0182128
669.200	0.0182432
669.279	0.0184945
669.357	0.0185925
669.435	0.0187642
669.513	0.0186827
669.591	0.0184052
669.669	0.0184486
669.747	0.0182866
669.825	0.0180998
669.904	0.0177913
669.982	0.0174626
670.060	0.0172836
670.138	0.0168581
670.216	0.0166386
670.294	0.0164662
670.372	0.0160927
670.450	0.0160015
670.529	0.0157695
670.607	0.0155562
670.685	0.0154163
670.763	0.0154096
670.841	0.0153432
670.919	0.0154069
670.997	0.0154327
671.075	0.0153828
671.154	0.0155600
671.232	0.0158435
671.310	0.0159038
671.388	0.0160960
671.466	0.0163023
671.544	0.0165327
671.622	0.0167941
671.700	0.0171510
671.779	0.0174133
671.857	0.0174693
671.935	0.0174890
672.013	0.0178606
672.091	0.0177728
672.169	0.0177599
672.247	0.0175730
672.325	0.0173754
672.404	0.0172933
672.482	0.0169438
672.560	0.0165846
672.638	0.0161505
672.716	0.0158156
672.794	0.0152505
672.872	0.0146406
672.950	0.0143342
673.029	0.0139526
673.107	0.0135780
673.185	0.0131218
673.263	0.0129101
673.341	0.0128031
673.419	0.0127782
673.497	0.0127325
673.575	0.0129815
673.654	0.0130442
673.732	0.0134836
673.810	0.0136763
673.888	0.0142066
673.966	0.0146229
674.044	0.0151569
674.122	0.0154631
674.200	0.0159576
674.279	0.0163338
674.357	0.0166118
674.435	0.0169460
674.513	0.0173359
674.591	0.0175738
674.669	0.0178625
674.747	0.0179998
674.825	0.0179388
674.904	0.0183252
674.982	0.0183879
675.060	0.0184913
675.138	0.0184454
675.216	0.0185799
675.294	0.0187488
675.372	0.0185764
675.450	0.0184731
675.529	0.0182626
675.607	0.0181181
675.685	0.0179572
675.763	0.0175969
675.841	0.0174797
675.919	0.0171668
675.997	0.0168810
676.075	0.0166203
676.154	0.0164188
676.232	0.0158554
676.310	0.0155557
676.388	0.0154057
676.466	0.0152036
676.544	0.0150200
676.622	0.0147673
676.700	0.0147688
676.779	0.0146183
676.857	0.0147312
676.935	0.0145739
677.013	0.0144655
677.091	0.0145026
677.169	0.0145615
677.247	0.0147194
677.325	0.0147598
677.404	0.0149124
677.482	0.0150296
677.560	0.0150555
677.638	0.0152557
677.716	0.0155627
677.794	0.0156654
677.872	0.0158441
677.950	0.0160602
678.029	0.0162727
678.107	0.0165076
678.185	0.0166196
678.263	0.0167841
678.341	0.0169641
678.419	0.0168727
678.497	0.0168628
678.575	0.0167542
678.654	0.0168874
678.732	0.0168315
678.810	0.0167611
678.888	0.0165650
678.966	0.0163555
679.044	0.0160449
679.122	0.0160396
679.200	0.0157874
679.279	0.0157747
679.357	0.0155349
679.435	0.0153307
679.513	0.0154461
679.591	0.0151923
679.669	0.0152396
679.747	0.0153554
679.825	0.0153761
679.904	0.0154456
679.982	0.0155379
680.060	0.0157384
680.138	0.0157464
680.216	0.0158914
680.294	0.0160059
680.372	0.0160215
680.450	0.0162994
680.529	0.0164608
680.607	0.0163477
680.685	0.0163344
680.763	0.0164684
680.841	0.0163419
680.919	0.0162654
680.997	0.0162263
681.075	0.0162659
681.154	0.0160081
681.232	0.0160482
681.310	0.0160763
681.388	0.0160545
681.466	0.0163585
681.544	0.0162921
681.622	0.0165531
681.700	0.0167226
681.779	0.0167410
681.857	0.0169264
681.935	0.0170901
682.013	0.0170769
682.091	0.0170720
682.169	0.0172309
682.247	0.0170033
682.325	0.0169594
682.404	0.0171893
682.482	0.0169603
682.560	0.0166856
682.638	0.0164466
682.716	0.0163554
682.794	0.0161988
682.872	0.0160112
682.950	0.0158467
683.029	0.0156881
683.107	0.0155641
683.185	0.0154835
683.263	0.0152142
683.341	0.0150542
683.419	0.0148730
683.497	0.0149505
683.575	0.0147204
683.654	0.0144466
683.732	0.0142923
683.810	0.0143598
683.888	0.0143564
683.966	0.0144064
684.044	0.0145132
684.122	0.0146864
684.200	0.0147813
684.279	0.0150757
684.357	0.0154717
684.435	0.0156956
684.513	0.0158313
684.591	0.0161744
684.669	0.0162536
684.747	0.0166144
684.825	0.0168540
684.904	0.0168439
684.982	0.0169169
685.060	0.0172259
685.138	0.0171848
685.216	0.0170332
685.294	0.0170252
685.372	0.0170343
685.450	0.0171089
685.529	0.0170509
685.607	0.0170867
685.685	0.0170815
685.763	0.0169649
685.841	0.0170190
685.919	0.0168875
685.997	0.0168554
686.075	0.0168894
686.154	0.0167749
686.232	0.0166238
686.310	0.0165392
686.388	0.0162971
686.466	0.0161944
686.544	0.0160636
686.622	0.0161110
686.700	0.0157977
686.779	0.0156952
686.857	0.0156214
686.935	0.0154491
687.013	0.0153435
687.091	0.0153614
687.169	0.0149988
687.247	0.0149497
687.325	0.0148818
687.404	0.0146410
687.482	0.0145250
687.560	0.0148109
687.638	0.0146204
687.716	0.0147923
687.794	0.0148717
687.872	0.0150303
687.950	0.0152558
688.029	0.0154876
688.107	0.0155025
688.185	0.0159299
688.263	0.0160988
688.341	0.0163724
688.419	0.0165331
688.497	0.0168620
688.575	0.0169109
688.654	0.0170533
688.732	0.0171025
688.810	0.0169974
688.888	0.0171694
688.966	0.0169991
689.044	0.0170001
689.122	0.0168205
689.200	0.0166819
689.279	0.0164961
689.357	0.0163398
689.435	0.0162275
689.513	0.0161404
689.591	0.0159644
689.669	0.0159230
689.747	0.0159116
689.825	0.0159194
689.904	0.0158056
689.982	0.0160065
690.060	0.0161559
690.138	0.0162755
690.216	0.0163914
690.294	0.0165752
690.372	0.0165135
690.450	0.0166623
690.529	0.0166952
690.607	0.0164647
690.685	0.0164375
690.763	0.0164803
690.841	0.0163572
690.919	0.0161279
690.997	0.0161971
691.075	0.0160633
691.154	0.0159194
691.232	0.0159603
691.310	0.0158445
691.388	0.0159270
691.466	0.0160419
691.544	0.0159416
691.622	0.0159940
691.700	0.0162480
691.779	0.0161647
691.857	0.0164022
691.935	0.0161953
692.013	0.0163786
692.091	0.0163399
692.169	0.0162364
692.247	0.0162576
692.325	0.0162170
692.404	0.0161256
692.482	0.0161024
692.560	0.0159281
692.638	0.0159389
692.716	0.0159578
692.794	0.0157629
692.872	0.0155583
692.950	0.0155841
693.029	0.0156499
693.107	0.0156793
693.185	0.0154984
693.263	0.0154513
693.341	0.0154279
693.419	0.0155609
693.497	0.0157040
693.575	0.0155890
693.654	0.0159378
693.732	0.0158789
693.810	0.0158517
693.888	0.0160845
693.966	0.0160996
694.044	0.0161496
694.122	0.0161612
694.200	0.0160339
694.279	0.0161922
694.357	0.0161609
694.435	0.0160014
694.513	0.0160709
694.591	0.0159045
694.669	0.0159010
694.747	0.0159451
694.825	0.0160281
694.904	0.0158978
694.982	0.0161182
695.060	0.0162502
695.138	0.0161854
695.216	0.0163568
695.294	0.0164307
695.372	0.0164725
695.450	0.0165739
695.529	0.0167522
695.607	0.0167667
695.685	0.0168029
695.763	0.0167776
695.841	0.0168292
695.919	0.0166750
695.997	0.0164211
696.075	0.0166332
696.154	0.0166730
696.232	0.0166231
696.310	0.0165587
696.388	0.0164871
696.466	0.0164009
696.544	0.0165234
696.622	0.0164151
696.700	0.0164797
696.779	0.0165488
696.857	0.0164897
696.935	0.0163908
697.013	0.0164065
697.091	0.0163196
697.169	0.0163779
697.247	0.0163895
697.325	0.0163390
697.404	0.0162154
697.482	0.0159551
697.560	0.0159940
697.638	0.0160223
697.716	0.0157652
697.794	0.0157443
697.872	0.0154771
697.950	0.0153603
698.029	0.0152847
698.107	0.0150922
698.185	0.0150475
698.263	0.0151239
698.341	0.0149926
698.419	0.0150309
698.497	0.0147925
698.575	0.0148444
698.654	0.0150491
698.732	0.0149738
698.810	0.0152296
698.888	0.0152428
698.966	0.0152199
699.044	0.0154669
699.122	0.0152498
699.200	0.0154809
699.279	0.0156496
699.357	0.0155279
699.435	0.0153974
699.513	0.0155832
699.591	0.0156538
699.669	0.0157712
699.747	0.0157665
699.825	0.0157853
699.904	0.0158475
699.982	0.0159198
700.060	0.0161526
700.138	0.0163078
700.216	0.0163389
700.294	0.0164887
700.372	0.0165075
700.450	0.0168027
700.529	0.0168224
700.607	0.0168778
700.685	0.0169258
700.763	0.0170144
700.841	0.0171089
700.919	0.0168129
700.997	0.0169860
701.075	0.0168154
701.154	0.0167572
701.232	0.0167558
701.310	0.0168679
701.388	0.0167947
701.466	0.0168561
701.544	0.0166631
701.622	0.0166115
701.700	0.0164706
701.779	0.0163917
701.857	0.0164965
701.935	0.0163860
702.013	0.0162169
702.091	0.0161873
702.169	0.0162885
702.247	0.0163296
702.325	0.0161134
702.404	0.0162042
702.482	0.0160203
702.560	0.0159190
702.638	0.0158039
702.716	0.0159312
702.794	0.0159212
702.872	0.0157934
702.950	0.0156780
703.029	0.0157038
703.107	0.0157955
703.185	0.0158178
703.263	0.0159309
703.341	0.0159289
703.419	0.0159592
703.497	0.0158651
703.575	0.0159419
703.654	0.0159126
703.732	0.0159924
703.810	0.0159767
703.888	0.0158855
703.966	0.0156809
704.044	0.0156570
704.122	0.0155386
704.200	0.0153102
704.279	0.0152058
704.357	0.0151109
704.435	0.0150904
704.513	0.0150658
704.591	0.0150132
704.669	0.0150365
704.747	0.0152109
704.825	0.0154971
704.904	0.0154623
704.982	0.0154718
705.060	0.0157625
705.138	0.0159886
705.216	0.0160657
705.294	0.0162437
705.372	0.0164085
705.450	0.0164646
705.529	0.0165518
705.607	0.0167480
705.685	0.0167365
705.763	0.0167419
705.841	0.0168548
705.919	0.0165852
705.997	0.0167087
706.075	0.0166801
706.154	0.0164524
706.232	0.0163210
706.310	0.0162538
706.388	0.0160778
706.466	0.0161690
706.544	0.0159990
706.622	0.0158752
706.700	0.0158440
706.779	0.0159045
706.857	0.0158271
706.935	0.0157617
707.013	0.0158572
707.091	0.0160149
707.169	0.0160707
707.247	0.0159834
707.325	0.0162116
707.404	0.0162712
707.482	0.0164030
707.560	0.0164868
707.638	0.0166454
707.716	0.0166162
707.794	0.0166125
707.872	0.0168073
707.950	0.0167593
708.029	0.0165643
708.107	0.0166790
708.185	0.0167435
708.263	0.0166749
708.341	0.0166718
708.419	0.0167659
708.497	0.0166766
708.575	0.0166051
708.654	0.0165353
708.732	0.0166268
708.810	0.0165616
708.888	0.0163328
708.966	0.0163553
709.044	0.0163573
709.122	0.0160847
709.200	0.0158792
709.279	0.0158053
709.357	0.0157391
709.435	0.0156546
709.513	0.0155118
709.591	0.0155936
709.669	0.0153568
709.747	0.0153215
709.825	0.0153638
709.904	0.0153970
709.982	0.0153963
710.060	0.0153375
710.138	0.0154640
710.216	0.0154649
710.294	0.0155752
710.372	0.0154989
710.450	0.0156303
710.529	0.0157777
710.607	0.0155603
710.685	0.0156921
710.763	0.0158059
710.841	0.0157086
710.919	0.0157646
710.997	0.0157957
711.075	0.0157657
711.154	0.0157646
711.232	0.0158089
711.310	0.0158936
711.388	0.0158683
711.466	0.0158941
711.544	0.0159975
711.622	0.0159718
711.700	0.0160418
711.779	0.0160443
711.857	0.0161399
711.935	0.0160817
712.013	0.0159649
712.091	0.0159970
712.169	0.0161640
712.247	0.0161236
712.325	0.0160938
712.404	0.0161472
712.482	0.0162344
712.560	0.0162820
712.638	0.0162192
712.716	0.0163673
712.794	0.0164770
712.872	0.0165299
712.950	0.0166458
713.029	0.0167094
713.107	0.0164891
713.185	0.0166814
713.263	0.0167466
713.341	0.0167017
713.419	0.0166309
713.497	0.0166977
713.575	0.0167458
713.654	0.0167152
713.732	0.0167242
713.810	0.0167486
713.888	0.0166717
713.966	0.0166568
714.044	0.0165376
714.122	0.0165039
714.200	0.0166220
714.279	0.0164093
714.357	0.0162959
714.435	0.0162001
714.513	0.0162365
714.591	0.0159810
714.669	0.0160870
714.747	0.0159227
714.825	0.0158657
714.904	0.0157276
714.982	0.0158980
715.060	0.0156929
715.138	0.0157010
715.216	0.0157308
715.294	0.0158399
715.372	0.0157160
715.450	0.0157639
715.529	0.0157818
715.607	0.0159814
715.685	0.0157982
715.763	0.0159953
715.841	0.0161049
715.919	0.0161580
715.997	0.0160892
716.075	0.0160445
716.154	0.0161529
716.232	0.0163061
716.310	0.0162109
716.388	0.0161171
716.466	0.0161306
716.544	0.0161649
716.622	0.0160250
716.700	0.0159792
716.779	0.0159926
716.857	0.0158102
716.935	0.0158356
717.013	0.0159012
717.091	0.0158883
717.169	0.0156257
717.247	0.0157793
717.325	0.0158265
717.404	0.0157120
717.482	0.0158365
717.560	0.0157585
717.638	0.0157493
717.716	0.0158918
717.794	0.0158030
717.872	0.0157820
717.950	0.0159588
718.029	0.0158487
718.107	0.0159571
718.185	0.0160765
718.263	0.0159607
718.341	0.0159471
718.419	0.0160818
718.497	0.0161830
718.575	0.0161809
718.654	0.0161501
718.732	0.0160758
718.810	0.0160730
718.888	0.0160854
718.966	0.0161115
719.044	0.0161943
719.122	0.0162215
719.200	0.0161969
719.279	0.0161418
719.357	0.0160970
719.435	0.0161107
719.513	0.0162067
719.591	0.0162657
719.669	0.0162468
719.747	0.0164346
719.825	0.0164142
719.904	0.0163604
719.982	0.0163998
720.060	0.0164595
720.138	0.0165268
720.216	0.0164339
720.294	0.0164852
720.372	0.0163551
720.450	0.0164097
720.529	0.0164213
720.607	0.0163872
720.685	0.0164823
720.763	0.0163112
720.841	0.0163696
720.919	0.0163206
720.997	0.0164328
721.075	0.0164701
721.154	0.0164721
721.232	0.0164709
721.310	0.0165723
721.388	0.0164220
721.466	0.0164407
721.544	0.0163899
721.622	0.0163469
721.700	0.0162478
721.779	0.0161995
721.857	0.0159548
721.935	0.0159761
722.013	0.0159407
722.091	0.0159698
722.169	0.0158704
722.247	0.0158355
722.325	0.0156897
722.404	0.0156625
722.482	0.0157360
722.560	0.0158310
722.638	0.0156725
722.716	0.0157866
722.794	0.0155688
722.872	0.0156650
722.950	0.0157645
723.029	0.0158365
723.107	0.0157526
723.185	0.0158874
723.263	0.0159085
723.341	0.0158518
723.419	0.0158881
723.497	0.0158600
723.575	0.0160208
723.654	0.0159909
723.732	0.0160922
723.810	0.0162497
723.888	0.0160409
723.966	0.0160330
724.044	0.0161896
724.122	0.0161930
724.200	0.0162209
724.279	0.0162573
724.357	0.0160915
724.435	0.0162193
724.513	0.0160008
724.591	0.0160553
724.669	0.0161630
724.747	0.0159598
724.825	0.0158328
724.904	0.0159086
724.982	0.0157701
725.060	0.0158449
725.138	0.0158793
725.216	0.0158169
725.294	0.0158139
725.372	0.0157806
725.450	0.0157948
725.529	0.0157935
725.607	0.0160300
725.685	0.0159366
725.763	0.0158700
725.841	0.0159686
725.919	0.0161260
725.997	0.0161301
726.075	0.0160850
726.154	0.0160886
726.232	0.0162023
726.310	0.0162057
726.388	0.0162629
726.466	0.0162120
726.544	0.0162698
726.622	0.0161413
726.700	0.0162752
726.779	0.0163367
726.857	0.0164369
726.935	0.0162995
727.013	0.0165616
727.091	0.0165305
727.169	0.0164041
727.247	0.0164169
727.325	0.0164926
727.404	0.0164965
727.482	0.0164049
727.560	0.0163554
727.638	0.0162860
727.716	0.0162931
727.794	0.0162089
727.872	0.0160874
727.950	0.0160656
728.029	0.0161972
728.107	0.0159723
728.185	0.0160421
728.263	0.0159081
728.341	0.0160063
728.419	0.0161635
728.497	0.0162695
728.575	0.0159768
728.654	0.0160455
728.732	0.0162408
728.810	0.0162229
728.888	0.0162773
728.966	0.0162531
729.044	0.0164822
729.122	0.0162411
729.200	0.0162209
729.279	0.0162392
729.357	0.0163039
729.435	0.0162082
729.513	0.0161042
729.591	0.0160787
729.669	0.0160750
729.747	0.0158478
729.825	0.0158793
729.904	0.0159278
729.982	0.0157454
730.060	0.0157198
730.138	0.0156630
730.216	0.0157243
730.294	0.0156332
730.372	0.0156133
730.450	0.0156469
730.529	0.0157840
730.607	0.0157530
730.685	0.0157177
730.763	0.0157102
730.841	0.0159348
730.919	0.0158620
730.997	0.0158695
731.075	0.0159329
731.154	0.0160791
731.232	0.0159644
731.310	0.0159877
731.388	0.0160755
731.466	0.0161118
731.544	0.0161083
731.622	0.0161832
731.700	0.0160522
731.779	0.0160301
731.857	0.0160649
731.935	0.0162107
732.013	0.0161808
732.091	0.0162032
732.169	0.0161980
732.247	0.0162511
732.325	0.0162118
732.404	0.0162042
732.482	0.0161389
732.560	0.0161422
732.638	0.0160397
732.716	0.0161649
732.794	0.0160552
732.872	0.0160736
732.950	0.0161339
733.029	0.0159235
733.107	0.0158654
733.185	0.0160088
733.263	0.0160605
733.341	0.0160197
733.419	0.0161298
733.497	0.0159736
733.575	0.0160177
733.654	0.0160116
733.732	0.0162161
733.810	0.0160278
733.888	0.0161556
733.966	0.0162837
734.044	0.0162922
734.122	0.0162263
734.200	0.0162923
734.279	0.0163843
734.357	0.0162452
734.435	0.0163561
734.513	0.0163467
734.591	0.0163010
734.669	0.0161718
734.747	0.0161370
734.825	0.0163046
734.904	0.0160722
734.982	0.0161047
735.060	0.0159779
735.138	0.0158911
735.216	0.0160368
735.294	0.0159957
735.372	0.0160097
735.450	0.0159216
735.529	0.0159573
735.607	0.0158675
735.685	0.0158498
735.763	0.0160310
735.841	0.0159087
735.919	0.0159927
735.997	0.0159821
736.075	0.0160181
736.154	0.0160378
736.232	0.0161034
736.310	0.0159024
736.388	0.0160665
736.466	0.0161105
736.544	0.0161795
736.622	0.0160134
736.700	0.0160429
736.779	0.0161378
736.857	0.0161617
736.935	0.0162048
737.013	0.0162457
737.091	0.0162618
737.169	0.0163403
737.247	0.0163383
737.325	0.0163225
737.404	0.0163242
737.482	0.0164004
737.560	0.0163969
737.638	0.0163797
737.716	0.0163771
737.794	0.0163477
737.872	0.0162269
737.950	0.0163539
738.029	0.0161161
738.107	0.0160521
738.185	0.0161660
738.263	0.0161702
738.341	0.0160137
738.419	0.0159556
738.497	0.0159348
738.575	0.0158772
738.654	0.0157713
738.732	0.0157793
738.810	0.0158566
738.888	0.0159121
738.966	0.0157803
739.044	0.0157992
739.122	0.0159081
739.200	0.0158150
739.279	0.0159409
739.357	0.0161017
739.435	0.0159544
739.513	0.0161023
739.591	0.0158994
739.669	0.0161818
739.747	0.0161301
739.825	0.0161862
739.904	0.0161478
739.982	0.0159605
740.060	0.0161483
740.138	0.0162038
740.216	0.0160887
740.294	0.0161614
740.372	0.0160471
740.450	0.0159632
740.529	0.0160638
740.607	0.0160674
740.685	0.0159987
740.763	0.0160907
740.841	0.0159746
740.919	0.0159408
740.997	0.0158692
741.075	0.0159841
741.154	0.0161469
741.232	0.0159293
741.310	0.0160691
741.388	0.0160360
741.466	0.0160883
741.544	0.0163396
741.622	0.0161756
741.700	0.0159750
741.779	0.0161707
741.857	0.0160583
741.935	0.0161328
742.013	0.0161781
742.091	0.0161801
742.169	0.0162028
742.247	0.0161402
742.325	0.0160864
742.404	0.0160023
742.482	0.0159417
742.560	0.0160497
742.638	0.0161207
742.716	0.0161699
742.794	0.0160473
742.872	0.0161094
742.950	0.0161034
743.029	0.0161037
743.107	0.0161740
743.185	0.0161341
743.263	0.0161874
743.341	0.0162460
743.419	0.0162595
743.497	0.0164202
743.575	0.0163206
743.654	0.0163139
743.732	0.0162011
743.810	0.0162070
743.888	0.0161694
743.966	0.0163342
744.044	0.0163474
744.122	0.0164680
744.200	0.0161932
744.279	0.0162242
744.357	0.0163205
744.435	0.0163360
744.513	0.0162049
744.591	0.0162128
744.669	0.0162738
744.747	0.0162466
744.825	0.0160894
744.904	0.0160547
744.982	0.0161620
745.060	0.0159965
745.138	0.0158868
745.216	0.0159709
745.294	0.0160487
745.372	0.0159793
745.450	0.0160000
745.529	0.0159022
745.607	0.0158755
745.685	0.0158471
745.763	0.0158384
745.841	0.0157118
745.919	0.0156929
745.997	0.0157163
746.075	0.0156583
746.154	0.0158064
746.232	0.0159082
746.310	0.0158343
746.388	0.0158363
746.466	0.0159008
746.544	0.0158640
746.622	0.0158537
746.700	0.0159401
746.779	0.0159091
746.857	0.0160081
746.935	0.0159708
747.013	0.0160226
747.091	0.0160684
747.169	0.0161305
747.247	0.0161927
747.325	0.0160852
747.404	0.0162065
747.482	0.0161507
747.560	0.0162339
747.638	0.0162177
747.716	0.0161848
747.794	0.0160838
747.872	0.0162003
747.950	0.0161686
748.029	0.0161644
748.107	0.0161158
748.185	0.0160875
748.263	0.0161625
748.341	0.0159766
748.419	0.0160776
748.497	0.0160135
748.575	0.0159930
748.654	0.0159994
748.732	0.0160149
748.810	0.0158075
748.888	0.0160365
748.966	0.0160414
749.044	0.0159268
749.122	0.0158939
749.200	0.0158253
749.279	0.0158996
749.357	0.0157408
749.435	0.0158608
749.513	0.0159058
749.591	0.0159548
749.669	0.0160745
749.747	0.0159310
749.825	0.0159614
749.904	0.0160781
749.982	0.0161604
750.060	0.0161159
750.138	0.0160991
750.216	0.0162394
750.294	0.0162765
750.372	0.0163463
750.450	0.0164270
750.529	0.0164764
750.607	0.0164651
750.685	0.0163406
750.763	0.0164742
750.841	0.0164812
750.919	0.0164474
750.997	0.0164943
751.075	0.0165493
751.154	0.0164722
751.232	0.0163463
751.310	0.0164070
751.388	0.0164588
751.466	0.0162883
751.544	0.0162398
751.622	0.0161887
751.700	0.0162624
751.779	0.0161657
751.857	0.0162072
751.935	0.0160429
752.013	0.0158865
752.091	0.0159097
752.169	0.0159765
752.247	0.0158138
752.325	0.0158429
752.404	0.0158255
752.482	0.0158015
752.560	0.0158324
752.638	0.0158939
752.716	0.0159138
752.794	0.0157219
752.872	0.0159865
752.950	0.0159971
753.029	0.0160072
753.107	0.0160889
753.185	0.0162454
753.263	0.0162444
753.341	0.0160216
753.419	0.0160983
753.497	0.0162546
753.575	0.0162901
753.654	0.0163411
753.732	0.0163071
753.810	0.0163317
753.888	0.0162760
753.966	0.0162907
754.044	0.0162518
754.122	0.0162820
754.200	0.0161840
754.279	0.0162171
754.357	0.0162799
754.435	0.0161849
754.513	0.0161810
754.591	0.0161771
754.669	0.0160923
754.747	0.0161460
754.825	0.0160770
754.904	0.0160706
754.982	0.0160236
755.060	0.0159792
755.138	0.0160749
755.216	0.0159142
755.294	0.0160197
755.372	0.0160004
755.450	0.0159581
755.529	0.0160793
755.607	0.0160036
755.685	0.0160284
755.763	0.0160021
755.841	0.0159010
755.919	0.0160591
755.997	0.0158720
756.075	0.0160077
756.154	0.0159283
756.232	0.0160107
756.310	0.0159679
756.388	0.0158920
756.466	0.0160757
756.544	0.0161501
756.622	0.0161557
756.700	0.0161125
756.779	0.0161786
756.857	0.0161591
756.935	0.0161266
757.013	0.0161018
757.091	0.0161595
757.169	0.0162283
757.247	0.0162234
757.325	0.0161607
757.404	0.0163464
757.482	0.0163174
757.560	0.0162141
757.638	0.0163549
757.716	0.0163565
757.794	0.0163544
757.872	0.0163007
757.950	0.0163385
758.029	0.0162539
758.107	0.0162400
758.185	0.0163263
758.263	0.0162884
758.341	0.0161634
758.419	0.0161691
758.497	0.0162823
758.575	0.0161707
758.654	0.0160704
758.732	0.0161315
758.810	0.0161781
758.888	0.0160367
758.966	0.0159466
759.044	0.0161155
759.122	0.0161174
759.200	0.0159406
759.279	0.0160917
759.357	0.0161322
759.435	0.0160351
759.513	0.0161328
759.591	0.0163176
759.669	0.0162104
759.747	0.0160387
759.825	0.0162475
759.904	0.0162582
759.982	0.0161138
760.060	0.0161552
760.138	0.0161675
760.216	0.0161948
760.294	0.0160414
760.372	0.0160020
760.450	0.0160115
760.529	0.0159514
760.607	0.0159392
760.685	0.0159498
760.763	0.0159199
760.841	0.0159763
760.919	0.0160010
760.997	0.0157680
761.075	0.0159537
761.154	0.0158984
761.232	0.0160169
761.310	0.0160074
761.388	0.0158660
761.466	0.0160017
761.544	0.0160817
761.622	0.0160786
761.700	0.0161476
761.779	0.0160651
761.857	0.0161622
761.935	0.0163427
762.013	0.0163173
762.091	0.0163010
762.169	0.0162466
762.247	0.0162726
762.325	0.0164229
762.404	0.0163561
762.482	0.0163341
762.560	0.0162385
762.638	0.0163431
762.716	0.0162936
762.794	0.0164321
762.872	0.0163400
762.950	0.0162952
763.029	0.0161385
763.107	0.0162672
763.185	0.0161575
763.263	0.0159288
763.341	0.0158920
763.419	0.0161016
763.497	0.0159329
763.575	0.0160001
763.654	0.0158030
763.732	0.0158042
763.810	0.0159125
763.888	0.0157601
763.966	0.0156777
764.044	0.0157521
764.122	0.0157484
764.200	0.0157479
764.279	0.0158912
764.357	0.0156224
764.435	0.0158640
764.513	0.0158916
764.591	0.0158114
764.669	0.0158022
764.747	0.0157967
764.825	0.0160115
764.904	0.0160326
764.982	0.0157953
765.060	0.0160011
765.138	0.0160506
765.216	0.0159340
765.294	0.0160782
765.372	0.0161992
765.450	0.0160439
765.529	0.0162194
765.607	0.0162568
765.685	0.0162029
765.763	0.0162363
765.841	0.0164472
765.919	0.0163763
765.997	0.0162693
766.075	0.0164076
766.154	0.0162949
766.232	0.0165469
766.310	0.0164392
766.388	0.0164928
766.466	0.0164016
766.544	0.0165047
766.622	0.0164970
766.700	0.0163740
766.779	0.0163513
766.857	0.0164031
766.935	0.0163768
767.013	0.0163593
767.091	0.0164297
767.169	0.0163258
767.247	0.0162935
767.325	0.0161007
767.404	0.0161464
767.482	0.0161561
767.560	0.0161182
767.638	0.0161482
767.716	0.0160194
767.794	0.0160683
767.872	0.0161887
767.950	0.0159496
768.029	0.0157859
768.107	0.0159251
768.185	0.0160651
768.263	0.0158880
768.341	0.0159606
768.419	0.0158717
768.497	0.0159155
768.575	0.0159581
768.654	0.0158427
768.732	0.0159779
768.810	0.0159126
768.888	0.0159503
768.966	0.0159818
769.044	0.0158613
769.122	0.0159735
769.200	0.0159551
769.279	0.0159206
769.357	0.0158775
769.435	0.0160143
769.513	0.0160339
769.591	0.0160025
769.669	0.0159478
769.747	0.0158649
769.825	0.0159259
769.904	0.0158817
769.982	0.0159290
770.060	0.0159560
770.138	0.0158056
770.216	0.0158732
770.294	0.0158553
770.372	0.0157915
770.450	0.0156828
770.529	0.0158900
770.607	0.0159589
770.685	0.0157314
770.763	0.0159863
770.841	0.0158778
770.919	0.0158439
770.997	0.0161072
771.075	0.0161292
771.154	0.0160403
771.232	0.0160412
771.310	0.0163490
771.388	0.0162392
771.466	0.0162504
771.544	0.0161314
771.622	0.0162994
771.700	0.0163769
771.779	0.0162512
771.857	0.0162764
771.935	0.0163078
772.013	0.0163954
772.091	0.0163522
772.169	0.0164830
772.247	0.0164358
772.325	0.0164453
772.404	0.0163519
772.482	0.0162342
772.560	0.0163577
772.638	0.0163586
772.716	0.0161539
772.794	0.0162015
772.872	0.0162582
772.950	0.0161274
773.029	0.0160473
773.107	0.0160052
773.185	0.0160552
773.263	0.0158899
773.341	0.0159412
773.419	0.0158660
773.497	0.0159491
773.575	0.0159431
773.654	0.0159983
773.732	0.0159531
773.810	0.0160358
773.888	0.0158317
773.966	0.0159629
774.044	0.0161086
774.122	0.0160323
774.200	0.0161393
774.279	0.0161268
774.357	0.0161207
774.435	0.0159391
774.513	0.0161555
774.591	0.0161699
774.669	0.0161638
774.747	0.0162363
774.825	0.0162837
774.904	0.0162135
774.982	0.0162398
775.060	0.0160310
775.138	0.0161961
775.216	0.0161359
775.294	0.0161466
775.372	0.0161289
775.450	0.0160796
775.529	0.0162221
775.607	0.0161560
775.685	0.0160947
775.763	0.0160774
775.841	0.0159329
775.919	0.0160978
775.997	0.0159447
776.075	0.0158592
776.154	0.0159080
776.232	0.0160461
776.310	0.0158753
776.388	0.0157905
776.466	0.0157707
776.544	0.0157384
776.622	0.0158975
776.700	0.0158916
776.779	0.0159371
776.857	0.0159781
776.935	0.0159992
777.013	0.0159595
777.091	0.0159834
777.169	0.0160483
777.247	0.0161818
777.325	0.0160619
777.404	0.0161681
777.482	0.0161718
777.560	0.0160781
777.638	0.0162173
777.716	0.0161356
777.794	0.0160934
777.872	0.0160365
777.950	0.0161464
778.029	0.0160905
778.107	0.0160345
778.185	0.0159828
778.263	0.0160963
778.341	0.0161950
778.419	0.0161312
778.497	0.0160854
778.575	0.0160011
778.654	0.0160584
778.732	0.0160260
778.810	0.0160612
778.888	0.0160278
778.966	0.0160999
779.044	0.0161916
779.122	0.0161592
779.200	0.0161566
779.279	0.0161155
779.357	0.0161422
779.435	0.0159975
779.513	0.0160215
779.591	0.0160749
779.669	0.0161853
779.747	0.0160556
779.825	0.0160555
779.904	0.0159086
779.982	0.0161552
780.060	0.0160031
780.138	0.0159731
780.216	0.0160254
780.294	0.0161523
780.372	0.0159650
780.450	0.0159125
780.529	0.0160387
780.607	0.0160204
780.685	0.0160332
780.763	0.0160591
780.841	0.0160362
780.919	0.0160773
780.997	0.0161046
781.075	0.0161611
781.154	0.0161373
781.232	0.0159328
781.310	0.0161343
781.388	0.0161649
781.466	0.0162417
781.544	0.0162664
781.622	0.0161989
781.700	0.0162897
781.779	0.0162334
781.857	0.0162926
781.935	0.0162945
782.013	0.0163454
782.091	0.0163864
782.169	0.0162431
782.247	0.0162889
782.325	0.0163725
782.404	0.0163363
782.482	0.0163776
782.560	0.0163010
782.638	0.0162450
782.716	0.0161491
782.794	0.0163383
782.872	0.0162257
782.950	0.0162038
783.029	0.0162321
783.107	0.0162695
783.185	0.0162800
783.263	0.0161486
783.341	0.0159491
783.419	0.0160534
783.497	0.0160616
783.575	0.0160888
783.654	0.0161685
783.732	0.0160699
783.810	0.0160592
783.888	0.0160757
783.966	0.0160542
784.044	0.0158849
784.122	0.0159340
784.200	0.0159879
784.279	0.0158257
784.357	0.0158603
784.435	0.0158574
784.513	0.0157607
784.591	0.0158261
784.669	0.0157681
784.747	0.0158789
784.825	0.0157727
784.904	0.0158800
784.982	0.0157904
785.060	0.0157764
785.138	0.0158862
785.216	0.0158786
785.294	0.0158647
785.372	0.0159222
785.450	0.0158955
785.529	0.0158903
785.607	0.0158482
785.685	0.0157954
785.763	0.0159010
785.841	0.0159122
785.919	0.0158604
785.997	0.0159789
786.075	0.0158898
786.154	0.0158942
786.232	0.0159523
786.310	0.0159991
786.388	0.0159203
786.466	0.0161261
786.544	0.0162044
786.622	0.0162151
786.700	0.0160598
786.779	0.0161971
786.857	0.0161964
786.935	0.0161956
787.013	0.0161213
787.091	0.0161887
787.169	0.0163169
787.247	0.0163053
787.325	0.0162976
787.404	0.0163607
787.482	0.0162805
787.560	0.0163641
787.638	0.0162713
787.716	0.0163957
787.794	0.0163383
787.872	0.0163042
787.950	0.0162448
788.029	0.0163791
788.107	0.0163353
788.185	0.0162180
788.263	0.0162074
788.341	0.0163377
788.419	0.0163130
788.497	0.0162675
788.575	0.0161500
788.654	0.0162179
788.732	0.0160594
788.810	0.0161952
788.888	0.0162386
788.966	0.0159926
789.044	0.0160809
789.122	0.0162344
789.200	0.0161966
789.279	0.0161237
789.357	0.0161867
789.435	0.0161031
789.513	0.0160085
789.591	0.0160987
789.669	0.0160625
789.747	0.0158480
789.825	0.0160397
789.904	0.0160786
789.982	0.0160051
790.060	0.0159897
790.138	0.0159492
790.216	0.0161147
790.294	0.0161474
790.372	0.0161369
790.450	0.0160989
790.529	0.0160936
790.607	0.0159847
790.685	0.0161811
790.763	0.0159771
790.841	0.0159803
790.919	0.0162310
790.997	0.0160934
791.075	0.0160198
791.154	0.0160318
791.232	0.0159927
791.310	0.0159781
791.388	0.0161046
791.466	0.0159332
791.544	0.0161034
791.622	0.0158756
791.700	0.0158878
791.779	0.0160472
791.857	0.0159664
791.935	0.0159536
792.013	0.0161542
792.091	0.0159444
792.169	0.0158474
792.247	0.0159266
792.325	0.0160412
792.404	0.0159212
792.482	0.0160560
792.560	0.0160045
792.638	0.0159215
792.716	0.0160085
792.794	0.0161239
792.872	0.0161415
792.950	0.0160088
793.029	0.0159664
793.107	0.0161086
793.185	0.0161857
793.263	0.0162178
793.341	0.0160929
793.419	0.0160070
793.497	0.0161121
793.575	0.0162740
793.654	0.0161065
793.732	0.0159676
793.810	0.0162331
793.888	0.0160847
793.966	0.0160699
794.044	0.0159989
794.122	0.0161256
794.200	0.0160126
794.279	0.0159752
794.357	0.0159196
794.435	0.0159415
794.513	0.0159911
794.591	0.0158974
794.669	0.0159873
794.747	0.0157770
794.825	0.0158768
794.904	0.0158829
794.982	0.0158652
795.060	0.0158675
795.138	0.0158260
795.216	0.0158323
795.294	0.0157765
795.372	0.0159122
795.450	0.0159172
795.529	0.0159205
795.607	0.0158843
795.685	0.0159028
795.763	0.0159676
795.841	0.0160121
795.919	0.0159512
795.997	0.0160486
796.075	0.0161853
796.154	0.0161743
796.232	0.0161129
796.310	0.0161684
796.388	0.0161005
796.466	0.0162511
796.544	0.0161680
796.622	0.0161789
796.700	0.0162906
796.779	0.0164410
796.857	0.0163886
796.935	0.0162789
797.013	0.0162546
797.091	0.0162974
797.169	0.0164378
797.247	0.0163522
797.325	0.0163293
797.404	0.0163008
797.482	0.0162556
797.560	0.0161924
797.638	0.0161816
797.716	0.0162431
797.794	0.0161436
797.872	0.0161772
797.950	0.0162402
798.029	0.0162971
798.107	0.0161683
798.185	0.0162429
798.263	0.0162971
798.341	0.0160712
798.419	0.0163660
798.497	0.0161882
798.575	0.0161574
798.654	0.0162878
798.732	0.0163400
798.810	0.0162811
798.888	0.0162089
798.966	0.0160748
799.044	0.0161165
799.122	0.0162246
799.200	0.0160999
799.279	0.0160175
799.357	0.0160668
799.435	0.0159300
799.513	0.0159766
799.591	0.0158749
799.669	0.0160059
799.747	0.0158733
799.825	0.0157224
799.904	0.0157274
799.982	0.0158154
800.060	0.0156340
800.138	0.0157301
800.216	0.0156795
800.294	0.0156280
800.372	0.0155170
800.450	0.0154261
800.529	0.0156316
800.607	0.0155096
800.685	0.0157095
800.763	0.0154592
800.841	0.0156082
800.919	0.0155254
800.997	0.0156596
801.075	0.0155553
801.154	0.0156615
801.232	0.0154478
801.310	0.0156678
801.388	0.0159063
801.466	0.0158094
801.544	0.0159801
801.622	0.0159964
801.700	0.0159263
801.779	0.0159768
801.857	0.0161385
801.935	0.0162291
802.013	0.0162408
802.091	0.0162665
802.169	0.0161931
802.247	0.0163964
802.325	0.0163185
802.404	0.0163874
802.482	0.0162398
802.560	0.0162650
802.638	0.0163818
802.716	0.0162991
802.794	0.0162702
802.872	0.0164026
802.950	0.0164011
803.029	0.0163061
803.107	0.0163513
803.185	0.0162022
803.263	0.0163285
803.341	0.0164092
803.419	0.0161568
803.497	0.0163093
803.575	0.0163540
803.654	0.0163174
803.732	0.0162905
803.810	0.0165053
803.888	0.0164140
803.966	0.0163382
804.044	0.0162463
804.122	0.0163705
804.200	0.0163155
804.279	0.0163338
804.357	0.0163753
804.435	0.0164459
804.513	0.0164573
804.591	0.0163581
804.669	0.0161877
804.747	0.0163301
804.825	0.0164408
804.904	0.0163849
804.982	0.0162507
805.060	0.0162833
805.138	0.0161600
805.216	0.0160707
805.294	0.0160985
805.372	0.0160588
805.450	0.0159478
805.529	0.0161412
805.607	0.0158570
805.685	0.0159251
805.763	0.0158206
805.841	0.0158567
805.919	0.0158628
805.997	0.0159176
806.075	0.0157854
806.154	0.0157720
806.232	0.0159998
806.310	0.0158478
806.388	0.0157420
806.466	0.0157350
806.544	0.0159197
806.622	0.0159207
806.700	0.0159296
806.779	0.0159589
806.857	0.0160748
806.935	0.0159422
807.013	0.0159101
807.091	0.0159590
807.169	0.0160145
807.247	0.0160037
807.325	0.0161253
807.404	0.0160297
807.482	0.0160585
807.560	0.0161150
807.638	0.0161698
807.716	0.0160845
807.794	0.0162160
807.872	0.0161540
807.950	0.0160724
808.029	0.0160685
808.107	0.0160844
808.185	0.0159778
808.263	0.0161391
808.341	0.0161790
808.419	0.0161269
808.497	0.0159085
808.575	0.0161570
808.654	0.0160020
808.732	0.0159770
808.810	0.0161014
808.888	0.0161414
808.966	0.0161474
809.044	0.0161100
809.122	0.0161453
809.200	0.0161387
809.279	0.0160698
809.357	0.0163393
809.435	0.0162141
809.513	0.0162403
809.591	0.0162402
809.669	0.0161111
809.747	0.0161257
809.825	0.0161653
809.904	0.0160773
809.982	0.0162909
810.060	0.0161945
810.138	0.0162054
810.216	0.0161901
810.294	0.0162814
810.372	0.0161612
810.450	0.0161687
810.529	0.0161029
810.607	0.0163364
810.685	0.0163584
810.763	0.0161933
810.841	0.0162443
810.919	0.0162585
810.997	0.0163583
811.075	0.0163033
811.154	0.0162730
811.232	0.0162241
811.310	0.0162613
811.388	0.0162521
811.466	0.0162579
811.544	0.0163568
811.622	0.0163061
811.700	0.0163694
811.779	0.0163686
811.857	0.0162628
811.935	0.0163638
812.013	0.0163424
812.091	0.0163174
812.169	0.0162868
812.247	0.0163406
812.325	0.0163245
812.404	0.0161657
812.482	0.0161764
812.560	0.0161321
812.638	0.0161171
812.716	0.0160452
812.794	0.0160669
812.872	0.0160934
812.950	0.0159106
813.029	0.0158549
813.107	0.0158541
813.185	0.0158875
813.263	0.0160447
813.341	0.0159589
813.419	0.0160319
813.497	0.0159761
813.575	0.0160968
813.654	0.0158867
813.732	0.0158292
813.810	0.0159786
813.888	0.0158956
813.966	0.0159039
814.044	0.0160213
814.122	0.0160993
814.200	0.0159855
814.279	0.0161073
814.357	0.0159641
814.435	0.0159200
814.513	0.0160409
814.591	0.0161964
814.669	0.0160703
814.747	0.0161405
814.825	0.0160851
814.904	0.0160913
814.982	0.0161834
815.060	0.0161907
815.138	0.0161375
815.216	0.0162402
815.294	0.0160397
815.372	0.0160648
815.450	0.0161082
815.529	0.0160764
815.607	0.0160530
815.685	0.0160766
815.763	0.0160815
815.841	0.0160646
815.919	0.0158900
815.997	0.0159831
816.075	0.0158289
816.154	0.0159952
816.232	0.0160062
816.310	0.0159906
816.388	0.0160162
816.466	0.0160931
816.544	0.0160332
816.622	0.0160140
816.700	0.0160646
816.779	0.0162009
816.857	0.0162116
816.935	0.0161347
817.013	0.0162067
817.091	0.0162431
817.169	0.0163372
817.247	0.0162337
817.325	0.0162637
817.404	0.0162735
817.482	0.0161582
817.560	0.0161898
817.638	0.0162559
817.716	0.0163112
817.794	0.0162610
817.872	0.0163248
817.950	0.0161719
818.029	0.0162037
818.107	0.0161974
818.185	0.0163509
818.263	0.0162881
818.341	0.0160640
818.419	0.0161782
818.497	0.0163737
818.575	0.0162707
818.654	0.0160611
818.732	0.0161626
818.810	0.0162675
818.888	0.0161782
818.966	0.0161610
819.044	0.0162238
819.122	0.0161947
819.200	0.0162824
819.279	0.0160911
819.357	0.0160416
819.435	0.0160786
819.513	0.0161782
819.591	0.0162081
819.669	0.0161593
819.747	0.0161666
819.825	0.0160938
819.904	0.0160964
819.982	0.0161740
820.060	0.0161956
820.138	0.0160870
820.216	0.0161183
820.294	0.0161679
820.372	0.0160789
820.450	0.0160881
820.529	0.0160863
820.607	0.0160089
820.685	0.0160515
820.763	0.0159692
820.841	0.0159782
820.919	0.0159328
820.997	0.0159442
821.075	0.0158545
821.154	0.0159275
821.232	0.0159278
821.310	0.0158949
821.388	0.0158971
821.466	0.0158770
821.544	0.0160094
821.622	0.0160664
821.700	0.0160948
821.779	0.0159988
821.857	0.0160522
821.935	0.0161024
822.013	0.0160049
822.091	0.0160713
822.169	0.0160128
822.247	0.0160464
822.325	0.0159853
822.404	0.0159097
822.482	0.0160209
822.560	0.0161079
822.638	0.0161333
822.716	0.0159286
822.794	0.0160150
822.872	0.0159133
822.950	0.0159760
823.029	0.0160555
823.107	0.0159695
823.185	0.0161345
823.263	0.0159226
823.341	0.0160860
823.419	0.0159084
823.497	0.0161177
823.575	0.0159210
823.654	0.0160777
823.732	0.0159964
823.810	0.0161058
823.888	0.0161198
823.966	0.0161368
824.044	0.0159956
824.122	0.0160313
824.200	0.0162123
824.279	0.0161605
824.357	0.0162065
824.435	0.0161761
824.513	0.0160876
824.591	0.0162017
824.669	0.0162434
824.747	0.0162968
824.825	0.0160868
824.904	0.0162366
824.982	0.0161883
825.060	0.0160849
825.138	0.0159599
825.216	0.0160973
825.294	0.0160403
825.372	0.0161320
825.450	0.0160526
825.529	0.0159777
825.607	0.0158636
825.685	0.0158362
825.763	0.0160312
825.841	0.0158555
825.919	0.0158640
825.997	0.0160860
826.075	0.0160420
826.154	0.0159729
826.232	0.0160023
826.310	0.0160355
826.388	0.0161231
826.466	0.0160850
826.544	0.0163028
826.622	0.0161063
826.700	0.0161738
826.779	0.0162572
826.857	0.0161623
826.935	0.0160725
827.013	0.0162341
827.091	0.0161787
827.169	0.0160133
827.247	0.0160510
827.325	0.0161026
827.404	0.0160957
827.482	0.0160574
827.560	0.0160024
827.638	0.0160628
827.716	0.0161105
827.794	0.0160393
827.872	0.0159456
827.950	0.0160049
828.029	0.0161246
828.107	0.0159399
828.185	0.0159863
828.263	0.0159903
828.341	0.0159607
828.419	0.0160423
828.497	0.0158955
828.575	0.0160102
828.654	0.0161195
828.732	0.0159636
828.810	0.0160465
828.888	0.0160351
828.966	0.0159200
829.044	0.0158087
829.122	0.0160066
829.200	0.0159342
829.279	0.0160139
829.357	0.0162721
829.435	0.0161351
829.513	0.0159553
829.591	0.0158963
829.669	0.0161357
829.747	0.0160098
829.825	0.0158789
829.904	0.0160461
829.982	0.0160770
830.060	0.0160452
830.138	0.0160100
830.216	0.0159260
830.294	0.0160591
830.372	0.0159975
830.450	0.0159140
830.529	0.0159390
830.607	0.0159114
830.685	0.0160184
830.763	0.0160197
830.841	0.0159139
830.919	0.0158959
830.997	0.0160509
831.075	0.0160044
831.154	0.0160530
831.232	0.0159637
831.310	0.0160674
831.388	0.0161115
831.466	0.0159732
831.544	0.0159351
831.622	0.0160741
831.700	0.0158912
831.779	0.0160909
831.857	0.0161053
831.935	0.0162566
832.013	0.0159718
832.091	0.0158887
832.169	0.0160806
832.247	0.0160853
832.325	0.0160896
832.404	0.0160825
832.482	0.0162020
832.560	0.0162401
832.638	0.0161530
832.716	0.0160526
832.794	0.0160885
832.872	0.0161569
832.950	0.0161032
833.029	0.0160777
833.107	0.0161948
833.185	0.0161395
833.263	0.0161848
833.341	0.0162228
833.419	0.0160084
833.497	0.0162510
833.575	0.0162717
833.654	0.0161694
833.732	0.0162885
833.810	0.0163161
833.888	0.0161709
833.966	0.0162498
834.044	0.0161562
834.122	0.0161868
834.200	0.0162380
834.279	0.0161116
834.357	0.0161559
834.435	0.0160870
834.513	0.0161584
834.591	0.0162473
834.669	0.0161022
834.747	0.0160722
834.825	0.0160632
834.904	0.0160480
834.982	0.0161100
835.060	0.0160849
835.138	0.0160830
835.216	0.0161435
835.294	0.0162198
835.372	0.0162103
835.450	0.0163756
835.529	0.0161446
835.607	0.0160805
835.685	0.0161047
835.763	0.0161497
835.841	0.0162656
835.919	0.0162156
835.997	0.0162382
836.075	0.0162086
836.154	0.0160605
836.232	0.0161124
836.310	0.0160075
836.388	0.0162481
836.466	0.0162267
836.544	0.0161662
836.622	0.0162043
836.700	0.0161443
836.779	0.0162526
836.857	0.0161781
836.935	0.0161031
837.013	0.0160838
837.091	0.0160247
837.169	0.0161196
837.247	0.0161903
837.325	0.0160097
837.404	0.0159885
837.482	0.0160810
837.560	0.0161684
837.638	0.0160737
837.716	0.0159968
837.794	0.0159046
837.872	0.0160650
837.950	0.0159705
838.029	0.0159600
838.107	0.0160500
838.185	0.0160912
838.263	0.0160900
838.341	0.0160933
838.419	0.0161278
838.497	0.0159877
838.575	0.0160753
838.654	0.0162150
838.732	0.0162875
838.810	0.0162136
838.888	0.0161878
838.966	0.0162368
839.044	0.0162549
839.122	0.0163358
839.200	0.0162977
839.279	0.0162634
839.357	0.0163467
839.435	0.0162743
839.513	0.0163401
839.591	0.0162840
839.669	0.0163158
839.747	0.0161083
839.825	0.0160845
839.904	0.0161752
839.982	0.0161565
840.060	0.0161922
840.138	0.0162202
840.216	0.0160986
840.294	0.0161455
840.372	0.0160385
840.450	0.0161235
840.529	0.0160219
840.607	0.0160288
840.685	0.0160402
840.763	0.0161031
840.841	0.0159285
840.919	0.0160777
840.997	0.0160664
841.075	0.0160086
841.154	0.0160942
841.232	0.0160421
841.310	0.0161777
841.388	0.0162029
841.466	0.0161665
841.544	0.0161447
841.622	0.0162676
841.700	0.0163017
841.779	0.0161695
841.857	0.0163488
841.935	0.0163911
842.013	0.0164042
842.091	0.0163183
842.169	0.0162540
842.247	0.0162406
842.325	0.0162490
842.404	0.0162951
842.482	0.0161063
842.560	0.0161366
842.638	0.0161633
842.716	0.0161488
842.794	0.0160220
842.872	0.0159984
842.950	0.0159846
843.029	0.0158892
843.107	0.0159251
843.185	0.0159274
843.263	0.0159168
843.341	0.0157907
843.419	0.0158674
843.497	0.0157588
843.575	0.0156983
843.654	0.0158620
843.732	0.0157924
843.810	0.0158385
843.888	0.0158403
843.966	0.0159861
844.044	0.0159420
844.122	0.0159106
844.200	0.0158819
844.279	0.0158508
844.357	0.0158434
844.435	0.0160107
844.513	0.0159856
844.591	0.0160747
844.669	0.0159608
844.747	0.0160342
844.825	0.0159843
844.904	0.0160851
844.982	0.0161595
845.060	0.0160742
845.138	0.0160358
845.216	0.0161329
845.294	0.0162020
845.372	0.0161423
845.450	0.0161297
845.529	0.0160761
845.607	0.0162463
845.685	0.0161901
845.763	0.0162650
845.841	0.0164460
845.919	0.0162077
845.997	0.0161626
846.075	0.0162190
846.154	0.0162033
846.232	0.0160786
846.310	0.0162111
846.388	0.0163269
846.466	0.0162547
846.544	0.0160938
846.622	0.0160693
846.700	0.0159985
846.779	0.0160284
846.857	0.0160799
846.935	0.0158508
847.013	0.0160539
847.091	0.0159422
847.169	0.0159448
847.247	0.0158751
847.325	0.0159126
847.404	0.0158915
847.482	0.0158448
847.560	0.0158636
847.638	0.0158081
847.716	0.0156908
847.794	0.0159057
847.872	0.0159049
847.950	0.0158176
848.029	0.0160020
848.107	0.0159119
848.185	0.0161120
848.263	0.0161702
848.341	0.0161268
848.419	0.0162212
848.497	0.0163165
848.575	0.0163415
848.654	0.0162512
848.732	0.0163257
848.810	0.0164013
848.888	0.0163536
848.966	0.0162976
849.044	0.0162113
849.122	0.0162531
849.200	0.0162955
849.279	0.0163219
849.357	0.0162625
849.435	0.0161936
849.513	0.0160580
849.591	0.0160909
849.669	0.0160557
849.747	0.0160688
849.825	0.0160892
849.904	0.0160349
849.982	0.0159808
850.060	0.0158871
850.138	0.0158742
850.216	0.0159016
850.294	0.0160611
850.372	0.0157820
850.450	0.0157620
850.529	0.0159219
850.607	0.0158727
850.685	0.0159170
850.763	0.0158209
850.841	0.0158828
850.919	0.0160226
850.997	0.0158708
851.075	0.0159640
851.154	0.0160855
851.232	0.0160574
851.310	0.0160128
851.388	0.0160590
851.466	0.0160612
851.544	0.0162021
851.622	0.0161723
851.700	0.0161514
851.779	0.0163582
851.857	0.0162128
851.935	0.0161649
852.013	0.0163937
852.091	0.0163390
852.169	0.0162228
852.247	0.0163437
852.325	0.0163000
852.404	0.0160981
852.482	0.0161401
852.560	0.0161971
852.638	0.0161570
852.716	0.0160942
852.794	0.0160344
852.872	0.0160959
852.950	0.0161057
853.029	0.0160136
853.107	0.0159503
853.185	0.0160770
853.263	0.0160734
853.341	0.0161372
853.419	0.0159696
853.497	0.0160274
853.575	0.0160856
853.654	0.0160220
853.732	0.0159475
853.810	0.0159991
853.888	0.0159032
853.966	0.0159044
854.044	0.0160717
854.122	0.0159396
854.200	0.0160679
854.279	0.0159853
854.357	0.0159761
854.435	0.0160111
854.513	0.0160896
854.591	0.0160986
854.669	0.0160297
854.747	0.0158533
854.825	0.0160226
854.904	0.0160732
854.982	0.0159852
855.060	0.0159236
855.138	0.0159273
855.216	0.0162100
855.294	0.0159702
855.372	0.0160576
855.450	0.0161325
855.529	0.0160422
855.607	0.0158858
855.685	0.0159899
855.763	0.0161665
855.841	0.0161517
855.919	0.0159512
855.997	0.0160494
856.075	0.0160858
856.154	0.0161556
856.232	0.0160654
856.310	0.0161001
856.388	0.0159718
856.466	0.0161485
856.544	0.0163088
856.622	0.0162404
856.700	0.0163094
856.779	0.0163415
856.857	0.0162052
856.935	0.0163526
857.013	0.0163586
857.091	0.0161900
857.169	0.0162246
857.247	0.0164368
857.325	0.0163680
857.404	0.0163074
857.482	0.0162342
857.560	0.0162887
857.638	0.0162863
857.716	0.0162570
857.794	0.0162181
857.872	0.0161896
857.950	0.0160664
858.029	0.0162322
858.107	0.0161642
858.185	0.0162229
858.263	0.0160702
858.341	0.0159485
858.419	0.0158642
858.497	0.0158714
858.575	0.0159890
858.654	0.0159712
858.732	0.0158592
858.810	0.0158958
858.888	0.0159257
858.966	0.0158947
859.044	0.0158501
859.122	0.0158795
859.200	0.0158470
859.279	0.0158199
859.357	0.0159686
859.435	0.0158498
859.513	0.0157746
859.591	0.0157880
859.669	0.0159763
859.747	0.0158629
859.825	0.0159205
859.904	0.0159201
859.982	0.0159457
860.060	0.0160616
860.138	0.0159698
860.216	0.0160996
860.294	0.0161224
860.372	0.0163317
860.450	0.0162231
860.529	0.0162457
860.607	0.0162951
860.685	0.0162959
860.763	0.0162165
860.841	0.0162579
860.919	0.0163723
860.997	0.0164050
861.075	0.0163125
861.154	0.0161592
861.232	0.0162147
861.310	0.0161082
861.388	0.0162217
861.466	0.0161880
861.544	0.0160114
861.622	0.0159860
861.700	0.0161404
861.779	0.0160059
861.857	0.0159429
861.935	0.0159750
862.013	0.0159942
862.091	0.0160252
862.169	0.0158852
862.247	0.0160949
862.325	0.0159673
862.404	0.0160729
862.482	0.0160213
862.560	0.0159881
862.638	0.0159970
862.716	0.0160394
862.794	0.0160296
862.872	0.0160209
862.950	0.0162016
863.029	0.0160800
863.107	0.0161002
863.185	0.0161679
863.263	0.0161443
863.341	0.0161744
863.419	0.0162273
863.497	0.0162070
863.575	0.0163418
863.654	0.0163024
863.732	0.0162827
863.810	0.0163931
863.888	0.0161337
863.966	0.0162714
864.044	0.0162453
864.122	0.0163503
864.200	0.0163800
864.279	0.0162009
864.357	0.0161541
864.435	0.0161617
864.513	0.0160895
864.591	0.0159799
864.669	0.0160297
864.747	0.0159384
864.825	0.0158117
864.904	0.0158598
864.982	0.0159730
865.060	0.0156705
865.138	0.0158691
865.216	0.0156496
865.294	0.0159280
865.372	0.0159818
865.450	0.0160653
865.529	0.0160853
865.607	0.0161053
865.685	0.0160855
865.763	0.0161377
865.841	0.0161259
865.919	0.0161182
865.997	0.0162821
866.075	0.0162614
866.154	0.0162934
866.232	0.0163116
866.310	0.0163026
866.388	0.0161985
866.466	0.0161777
866.544	0.0161178
866.622	0.0160994
866.700	0.0161485
866.779	0.0160355
866.857	0.0161667
866.935	0.0161395
867.013	0.0160349
867.091	0.0159315
867.169	0.0158658
867.247	0.0160360
867.325	0.0158324
867.404	0.0159173
867.482	0.0159592
867.560	0.0159344
867.638	0.0158548
867.716	0.0158881
867.794	0.0158334
867.872	0.0158607
867.950	0.0159074
868.029	0.0159465
868.107	0.0158024
868.185	0.0158897
868.263	0.0158366
868.341	0.0160184
868.419	0.0160490
868.497	0.0159205
868.575	0.0160439
868.654	0.0159892
868.732	0.0161223
868.810	0.0160605
868.888	0.0161509
868.966	0.0161429
869.044	0.0161474
869.122	0.0160774
869.200	0.0161517
869.279	0.0161027
869.357	0.0160268
869.435	0.0161845
869.513	0.0162625
869.591	0.0163081
869.669	0.0162214
869.747	0.0162586
869.825	0.0161201
869.904	0.0161659
869.982	0.0161985
870.060	0.0162469
870.138	0.0162189
870.216	0.0160954
870.294	0.0161295
870.372	0.0160772
870.450	0.0160329
870.529	0.0160980
870.607	0.0159956
870.685	0.0160924
870.763	0.0161232
870.841	0.0159117
870.919	0.0159546
870.997	0.0159034
871.075	0.0160768
871.154	0.0160072
871.232	0.0160050
871.310	0.0160050
871.388	0.0158738
871.466	0.0161463
871.544	0.0161533
871.622	0.0161386
871.700	0.0160742
871.779	0.0159588
871.857	0.0161243
871.935	0.0161794
872.013	0.0161692
872.091	0.0161761
872.169	0.0160300
872.247	0.0161136
872.325	0.0160654
872.404	0.0160423
872.482	0.0159476
872.560	0.0160680
872.638	0.0161144
872.716	0.0160802
872.794	0.0159528
872.872	0.0160204
872.950	0.0159759
873.029	0.0159574
873.107	0.0159490
873.185	0.0159437
873.263	0.0159988
873.341	0.0159597
873.419	0.0160990
873.497	0.0160546
873.575	0.0162443
873.654	0.0161901
873.732	0.0161524
873.810	0.0162450
873.888	0.0160803
873.966	0.0163052
874.044	0.0161533
874.122	0.0161550
874.200	0.0162637
874.279	0.0162756
874.357	0.0161974
874.435	0.0161877
874.513	0.0160384
874.591	0.0160537
874.669	0.0160412
874.747	0.0160966
874.825	0.0160780
874.904	0.0160060
874.982	0.0160899
875.060	0.0160655
875.138	0.0159579
875.216	0.0159801
875.294	0.0160966
875.372	0.0159519
875.450	0.0159320
875.529	0.0159752
875.607	0.0159622
875.685	0.0159924
875.763	0.0158811
875.841	0.0159370
875.919	0.0161299
875.997	0.0160939
876.075	0.0160261
876.154	0.0160758
876.232	0.0161895
876.310	0.0161821
876.388	0.0163419
876.466	0.0162473
876.544	0.0161169
876.622	0.0160832
876.700	0.0161514
876.779	0.0161358
876.857	0.0162748
876.935	0.0164629
877.013	0.0162786
877.091	0.0162498
877.169	0.0162299
877.247	0.0161741
877.325	0.0164184
877.404	0.0162607
877.482	0.0161807
877.560	0.0162104
877.638	0.0163120
877.716	0.0161699
877.794	0.0162260
877.872	0.0161283
877.950	0.0161032
878.029	0.0161607
878.107	0.0161116
878.185	0.0160906
878.263	0.0161530
878.341	0.0160115
878.419	0.0161397
878.497	0.0162118
878.575	0.0160550
878.654	0.0160725
878.732	0.0160229
878.810	0.0160991
878.888	0.0161038
878.966	0.0160748
879.044	0.0160065
879.122	0.0160233
879.200	0.0161189
879.279	0.0158344
879.357	0.0159272
879.435	0.0160210
879.513	0.0160757
879.591	0.0158419
879.669	0.0159714
879.747	0.0158615
879.825	0.0160123
879.904	0.0161206
879.982	0.0160275
880.060	0.0160522
880.138	0.0160504
880.216	0.0160670
880.294	0.0161525
880.372	0.0159916
880.450	0.0161620
880.529	0.0160967
880.607	0.0160341
880.685	0.0161584
880.763	0.0161732
880.841	0.0160324
880.919	0.0161783
880.997	0.0163232
881.075	0.0161821
881.154	0.0161172
881.232	0.0161909
881.310	0.0162170
881.388	0.0163188
881.466	0.0162730
881.544	0.0162785
881.622	0.0162010
881.700	0.0163125
881.779	0.0164331
881.857	0.0162828
881.935	0.0163231
882.013	0.0163633
882.091	0.0163460
882.169	0.0163617
882.247	0.0162482
882.325	0.0161737
882.404	0.0162998
882.482	0.0161958
882.560	0.0162083
882.638	0.0161189
882.716	0.0160457
882.794	0.0160700
882.872	0.0160106
882.950	0.0160421
883.029	0.0160234
883.107	0.0161540
883.185	0.0161284
883.263	0.0160420
883.341	0.0159544
883.419	0.0160381
883.497	0.0162008
883.575	0.0162410
883.654	0.0162344
883.732	0.0160991
883.810	0.0161864
883.888	0.0161458
883.966	0.0162003
884.044	0.0161503
884.122	0.0162028
884.200	0.0162057
884.279	0.0161645
884.357	0.0160320
884.435	0.0160686
884.513	0.0161134
884.591	0.0159601
884.669	0.0160180
884.747	0.0160002
884.825	0.0160289
884.904	0.0158858
884.982	0.0160909
885.060	0.0160546
885.138	0.0161193
885.216	0.0160920
885.294	0.0160409
885.372	0.0160085
885.450	0.0160328
885.529	0.0160857
885.607	0.0161884
885.685	0.0161528
885.763	0.0160106
885.841	0.0160026
885.919	0.0160973
885.997	0.0161196
886.075	0.0160486
886.154	0.0159434
886.232	0.0160506
886.310	0.0160399
886.388	0.0160671
886.466	0.0161037
886.544	0.0161097
886.622	0.0160729
886.700	0.0161576
886.779	0.0160320
886.857	0.0160986
886.935	0.0162093
887.013	0.0161532
887.091	0.0159683
887.169	0.0159902
887.247	0.0161157
887.325	0.0160493
887.404	0.0159118
887.482	0.0159794
887.560	0.0159959
887.638	0.0159602
887.716	0.0158015
887.794	0.0159349
887.872	0.0158480
887.950	0.0158537
888.029	0.0158551
888.107	0.0158836
888.185	0.0159185
888.263	0.0160528
888.341	0.0159332
888.419	0.0159486
888.497	0.0160787
888.575	0.0161137
888.654	0.0160812
888.732	0.0161414
888.810	0.0163142
888.888	0.0161839
888.966	0.0162431
889.044	0.0162164
889.122	0.0162166
889.200	0.0161826
889.279	0.0160525
889.357	0.0160386
889.435	0.0161700
889.513	0.0160637
889.591	0.0161988
889.669	0.0161897
889.747	0.0161218
889.825	0.0160660
889.904	0.0161848
889.982	0.0159930
890.060	0.0160999
890.138	0.0161000
890.216	0.0160600
890.294	0.0161047
890.372	0.0161641
890.450	0.0162249
890.529	0.0161079
890.607	0.0161250
890.685	0.0162091
890.763	0.0160506
890.841	0.0160870
890.919	0.0159899
890.997	0.0160371
891.075	0.0161889
891.154	0.0161462
891.232	0.0160651
891.310	0.0161996
891.388	0.0161542
891.466	0.0160989
891.544	0.0161044
891.622	0.0161758
891.700	0.0161148
891.779	0.0161075
891.857	0.0160120
891.935	0.0160636
892.013	0.0161459
892.091	0.0162185
892.169	0.0161681
892.247	0.0162430
892.325	0.0162986
892.404	0.0163358
892.482	0.0161686
892.560	0.0162054
892.638	0.0163264
892.716	0.0161131
892.794	0.0161732
892.872	0.0162392
892.950	0.0161765
893.029	0.0161923
893.107	0.0161392
893.185	0.0163149
893.263	0.0160740
893.341	0.0160014
893.419	0.0161125
893.497	0.0162659
893.575	0.0161631
893.654	0.0160594
893.732	0.0161516
893.810	0.0160732
893.888	0.0159697
893.966	0.0159905
894.044	0.0160086
894.122	0.0159018
894.200	0.0160147
894.279	0.0160084
894.357	0.0159579
894.435	0.0160072
894.513	0.0160256
894.591	0.0159654
894.669	0.0160097
894.747	0.0159500
894.825	0.0159711
894.904	0.0159409
894.982	0.0160194
895.060	0.0160501
895.138	0.0160502
895.216	0.0160915
895.294	0.0159548
895.372	0.0160528
895.450	0.0161071
895.529	0.0160648
895.607	0.0160662
895.685	0.0160366
895.763	0.0160002
895.841	0.0160535
895.919	0.0161063
895.997	0.0161436
896.075	0.0160535
896.154	0.0160596
896.232	0.0160533
896.310	0.0162532
896.388	0.0160732
896.466	0.0161298
896.544	0.0163225
896.622	0.0164297
896.700	0.0163908
896.779	0.0163669
896.857	0.0163725
896.935	0.0162962
897.013	0.0163529
897.091	0.0163290
897.169	0.0164627
897.247	0.0163205
897.325	0.0161508
897.404	0.0162093
897.482	0.0161208
897.560	0.0161219
897.638	0.0161529
897.716	0.0161440
897.794	0.0161178
897.872	0.0160941
897.950	0.0160703
898.029	0.0160635
898.107	0.0159718
898.185	0.0161269
898.263	0.0161414
898.341	0.0161251
898.419	0.0160994
898.497	0.0161024
898.575	0.0159531
898.654	0.0161163
898.732	0.0159967
898.810	0.0159826
898.888	0.0159003
898.966	0.0159876
899.044	0.0160434
899.122	0.0160969
899.200	0.0161671
899.279	0.0161189
899.357	0.0161533
899.435	0.0161435
899.513	0.0161018
899.591	0.0161361
899.669	0.0162282
899.747	0.0161678
899.825	0.0162936
899.904	0.0162786
899.982	0.0162002
900.060	0.0161929
900.138	0.0162992
900.216	0.0163707
900.294	0.0163940
900.372	0.0162733
900.450	0.0163047
900.529	0.0162923
900.607	0.0162932
900.685	0.0161459
900.763	0.0161326
900.841	0.0162226
900.919	0.0161924
900.997	0.0160287
901.075	0.0162799
901.154	0.0161817
901.232	0.0159500
901.310	0.0161147
901.388	0.0160031
901.466	0.0160081
901.544	0.0159148
901.622	0.0160176
901.700	0.0161404
901.779	0.0159774
901.857	0.0160123
901.935	0.0158835
902.013	0.0160458
902.091	0.0161470
902.169	0.0159961
902.247	0.0161198
902.325	0.0161369
902.404	0.0160478
902.482	0.0159658
902.560	0.0160986
902.638	0.0160925
902.716	0.0160279
902.794	0.0160656
902.872	0.0160629
902.950	0.0159789
903.029	0.0160367
903.107	0.0161243
903.185	0.0161133
903.263	0.0161069
903.341	0.0161660
903.419	0.0160155
903.497	0.0160129
903.575	0.0160284
903.654	0.0159439
903.732	0.0159768
903.810	0.0158228
903.888	0.0160693
903.966	0.0159638
904.044	0.0159499
904.122	0.0161611
904.200	0.0160383
904.279	0.0159741
904.357	0.0162295
904.435	0.0161691
904.513	0.0160627
904.591	0.0161716
904.669	0.0162331
904.747	0.0163004
904.825	0.0160511
904.904	0.0162180
904.982	0.0162591
905.060	0.0162656
905.138	0.0163457
905.216	0.0162282
905.294	0.0162193
905.372	0.0161272
905.450	0.0163233
905.529	0.0163581
905.607	0.0162807
905.685	0.0162232
905.763	0.0161784
905.841	0.0162275
905.919	0.0161591
905.997	0.0161309
906.075	0.0160760
906.154	0.0160352
906.232	0.0160667
906.310	0.0161105
906.388	0.0161470
906.466	0.0161631
906.544	0.0160176
906.622	0.0160571
906.700	0.0160709
906.779	0.0161335
906.857	0.0159684
906.935	0.0161709
907.013	0.0161155
907.091	0.0160977
907.169	0.0160923
907.247	0.0161624
907.325	0.0162306
907.404	0.0162543
907.482	0.0162252
907.560	0.0162762
907.638	0.0163100
907.716	0.0163335
907.794	0.0161847
907.872	0.0163033
907.950	0.0161861
908.029	0.0163000
908.107	0.0162791
908.185	0.0162376
908.263	0.0160986
908.341	0.0161828
908.419	0.0161658
908.497	0.0161063
908.575	0.0161137
908.654	0.0160791
908.732	0.0160093
908.810	0.0160275
908.888	0.0160030
908.966	0.0159061
909.044	0.0160502
909.122	0.0160424
909.200	0.0160289
909.279	0.0160347
909.357	0.0159965
909.435	0.0160593
909.513	0.0159557
909.591	0.0160076
909.669	0.0160241
909.747	0.0160995
909.825	0.0160278
909.904	0.0159855
909.982	0.0161231
910.060	0.0161970
910.138	0.0161659
910.216	0.0160520
910.294	0.0161946
910.372	0.0161369
910.450	0.0162073
910.529	0.0160999
910.607	0.0160923
910.685	0.0161173
910.763	0.0161137
910.841	0.0162171
910.919	0.0160836
910.997	0.0159949
911.075	0.0160218
911.154	0.0161443
911.232	0.0162402
911.310	0.0160517
911.388	0.0161327
911.466	0.0160831
911.544	0.0159624
911.622	0.0161452
911.700	0.0159766
911.779	0.0160570
911.857	0.0159415
911.935	0.0159801
912.013	0.0160416
912.091	0.0159430
912.169	0.0160098
912.247	0.0160016
912.325	0.0160561
912.404	0.0160046
912.482	0.0161800
912.560	0.0159943
912.638	0.0161320
912.716	0.0161033
912.794	0.0161972
912.872	0.0160880
912.950	0.0160860
913.029	0.0162547
913.107	0.0160976
913.185	0.0162132
913.263	0.0162170
913.341	0.0160597
913.419	0.0162613
913.497	0.0161512
913.575	0.0161465
913.654	0.0163123
913.732	0.0161764
913.810	0.0161618
913.888	0.0161335
913.966	0.0160555
914.044	0.0161230
914.122	0.0161700
914.200	0.0160370
914.279	0.0160559
914.357	0.0159300
914.435	0.0161479
914.513	0.0160551
914.591	0.0161210
914.669	0.0161562
914.747	0.0161185
914.825	0.0161456
914.904	0.0161076
914.982	0.0162203
915.060	0.0162481
915.138	0.0163388
915.216	0.0162637
915.294	0.0163127
915.372	0.0161734
915.450	0.0162127
915.529	0.0162798
915.607	0.0162750
915.685	0.0162704
915.763	0.0163737
915.841	0.0163581
915.919	0.0162791
915.997	0.0161855
916.075	0.0163368
916.154	0.0162313
916.232	0.0160622
916.310	0.0161384
916.388	0.0161629
916.466	0.0160909
916.544	0.0159898
916.622	0.0161083
916.700	0.0159168
916.779	0.0160088
916.857	0.0159259
916.935	0.0160140
917.013	0.0160497
917.091	0.0159841
917.169	0.0159746
917.247	0.0159517
917.325	0.0160845
917.404	0.0160349
917.482	0.0159969
917.560	0.0160011
917.638	0.0158958
917.716	0.0159204
917.794	0.0158950
917.872	0.0159032
917.950	0.0159452
918.029	0.0159780
918.107	0.0158831
918.185	0.0158662
918.263	0.0159581
918.341	0.0159604
918.419	0.0158916
918.497	0.0160078
918.575	0.0160315
918.654	0.0160589
918.732	0.0160012
918.810	0.0159239
918.888	0.0161420
918.966	0.0160671
919.044	0.0160130
919.122	0.0160182
919.200	0.0162301
919.279	0.0160802
919.357	0.0161837
919.435	0.0160257
919.513	0.0159928
919.591	0.0161254
919.669	0.0161354
919.747	0.0161307
919.825	0.0160159
919.904	0.0162135
