05/24/2022	20:37:51	Ver.	4.1	UNKNOWN
Optical Delay	599.988409	Delta X		0.078125	Sweeps	1	Scan Rate	0/0
Coordinates	Axis 1	NaN	Axis 2	NaN	Axis 3	NaN	Axis 4	NaN	Axis 5	NaN	Axis 6	0.000000
TX Power	0.000000	RX Power	0.000000

599.988	0.0168073
600.067	0.0169004
600.145	0.0168952
600.223	0.0168848
600.301	0.0168086
600.379	0.0167937
600.457	0.0168218
600.535	0.0167284
600.613	0.0167263
600.692	0.0166673
600.770	0.0166788
600.848	0.0168255
600.926	0.0168558
601.004	0.0167561
601.082	0.0167749
601.160	0.0169961
601.238	0.0170454
601.317	0.0169545
601.395	0.0169273
601.473	0.0171495
601.551	0.0170418
601.629	0.0170966
601.707	0.0172153
601.785	0.0171044
601.863	0.0171966
601.942	0.0169291
602.020	0.0170033
602.098	0.0172852
602.176	0.0170625
602.254	0.0170229
602.332	0.0170010
602.410	0.0170383
602.488	0.0171822
602.567	0.0170724
602.645	0.0170008
602.723	0.0169933
602.801	0.0171709
602.879	0.0169798
602.957	0.0170473
603.035	0.0170709
603.113	0.0171188
603.192	0.0171804
603.270	0.0170113
603.348	0.0170200
603.426	0.0171014
603.504	0.0170387
603.582	0.0170009
603.660	0.0171388
603.738	0.0171459
603.817	0.0170705
603.895	0.0170273
603.973	0.0169115
604.051	0.0170265
604.129	0.0168776
604.207	0.0171284
604.285	0.0169469
604.363	0.0168803
604.442	0.0169611
604.520	0.0168314
604.598	0.0168205
604.676	0.0167876
604.754	0.0167876
604.832	0.0167276
604.910	0.0168877
604.988	0.0167613
605.067	0.0167812
605.145	0.0167204
605.223	0.0166228
605.301	0.0166296
605.379	0.0167278
605.457	0.0168983
605.535	0.0168307
605.613	0.0167305
605.692	0.0166590
605.770	0.0167555
605.848	0.0167176
605.926	0.0167828
606.004	0.0168298
606.082	0.0169169
606.160	0.0167750
606.238	0.0168668
606.317	0.0167316
606.395	0.0167643
606.473	0.0167765
606.551	0.0169318
606.629	0.0168697
606.707	0.0167489
606.785	0.0168096
606.863	0.0168080
606.942	0.0169109
607.020	0.0168269
607.098	0.0167298
607.176	0.0167500
607.254	0.0165966
607.332	0.0165903
607.410	0.0167371
607.488	0.0167357
607.567	0.0165347
607.645	0.0165464
607.723	0.0165287
607.801	0.0164239
607.879	0.0165087
607.957	0.0166176
608.035	0.0165714
608.113	0.0164119
608.192	0.0165832
608.270	0.0165849
608.348	0.0165892
608.426	0.0165092
608.504	0.0166605
608.582	0.0165384
608.660	0.0164668
608.738	0.0166487
608.817	0.0166146
608.895	0.0165627
608.973	0.0168469
609.051	0.0168166
609.129	0.0166663
609.207	0.0166399
609.285	0.0167990
609.363	0.0167277
609.442	0.0166114
609.520	0.0166187
609.598	0.0168127
609.676	0.0165916
609.754	0.0165973
609.832	0.0164938
609.910	0.0163619
609.988	0.0166981
610.067	0.0165321
610.145	0.0164594
610.223	0.0165151
610.301	0.0165601
610.379	0.0164989
610.457	0.0164544
610.535	0.0166724
610.613	0.0166389
610.692	0.0167091
610.770	0.0166698
610.848	0.0166671
610.926	0.0168130
611.004	0.0166776
611.082	0.0167659
611.160	0.0167670
611.238	0.0166885
611.317	0.0167215
611.395	0.0166654
611.473	0.0166466
611.551	0.0165096
611.629	0.0167084
611.707	0.0166512
611.785	0.0165875
611.863	0.0166273
611.942	0.0166138
612.020	0.0165002
612.098	0.0165703
612.176	0.0165176
612.254	0.0165765
612.332	0.0166496
612.410	0.0165099
612.488	0.0166298
612.567	0.0164996
612.645	0.0164307
612.723	0.0165808
612.801	0.0166486
612.879	0.0166452
612.957	0.0166267
613.035	0.0166599
613.113	0.0166049
613.192	0.0167314
613.270	0.0167271
613.348	0.0166526
613.426	0.0166998
613.504	0.0166734
613.582	0.0168608
613.660	0.0166875
613.738	0.0166764
613.817	0.0167068
613.895	0.0166383
613.973	0.0166788
614.051	0.0166902
614.129	0.0163994
614.207	0.0164906
614.285	0.0165257
614.363	0.0165316
614.442	0.0164608
614.520	0.0163766
614.598	0.0163884
614.676	0.0164572
614.754	0.0165041
614.832	0.0164753
614.910	0.0164233
614.988	0.0165402
615.067	0.0166531
615.145	0.0165744
615.223	0.0164892
615.301	0.0165807
615.379	0.0165897
615.457	0.0167229
615.535	0.0166462
615.613	0.0167039
615.692	0.0166191
615.770	0.0165749
615.848	0.0164342
615.926	0.0166338
616.004	0.0164974
616.082	0.0165019
616.160	0.0166126
616.238	0.0166206
616.317	0.0166295
616.395	0.0165437
616.473	0.0166822
616.551	0.0166105
616.629	0.0166488
616.707	0.0166160
616.785	0.0167734
616.863	0.0166077
616.942	0.0166651
617.020	0.0166863
617.098	0.0166117
617.176	0.0166191
617.254	0.0164234
617.332	0.0165385
617.410	0.0166998
617.488	0.0166628
617.567	0.0166056
617.645	0.0164629
617.723	0.0165266
617.801	0.0165349
617.879	0.0166078
617.957	0.0166264
618.035	0.0165224
618.113	0.0164168
618.192	0.0164756
618.270	0.0166170
618.348	0.0165289
618.426	0.0166598
618.504	0.0166486
618.582	0.0167004
618.660	0.0165026
618.738	0.0165987
618.817	0.0166775
618.895	0.0165855
618.973	0.0166137
619.051	0.0165794
619.129	0.0165742
619.207	0.0164761
619.285	0.0164350
619.363	0.0165606
619.442	0.0165269
619.520	0.0164415
619.598	0.0164302
619.676	0.0164552
619.754	0.0166048
619.832	0.0164932
619.910	0.0164096
619.988	0.0165067
620.067	0.0164799
620.145	0.0165723
620.223	0.0164973
620.301	0.0165757
620.379	0.0164994
620.457	0.0164863
620.535	0.0166644
620.613	0.0165529
620.692	0.0164758
620.770	0.0166098
620.848	0.0167349
620.926	0.0165710
621.004	0.0165981
621.082	0.0166370
621.160	0.0165383
621.238	0.0165519
621.317	0.0165781
621.395	0.0164754
621.473	0.0166410
621.551	0.0165611
621.629	0.0165968
621.707	0.0165050
621.785	0.0165297
621.863	0.0165168
621.942	0.0164947
622.020	0.0164934
622.098	0.0166358
622.176	0.0165870
622.254	0.0165960
622.332	0.0164970
622.410	0.0165528
622.488	0.0165327
622.567	0.0165965
622.645	0.0166876
622.723	0.0167290
622.801	0.0165527
622.879	0.0166368
622.957	0.0166055
623.035	0.0165350
623.113	0.0166772
623.192	0.0165399
623.270	0.0167903
623.348	0.0168845
623.426	0.0166576
623.504	0.0167208
623.582	0.0167512
623.660	0.0167836
623.738	0.0167751
623.817	0.0168491
623.895	0.0168806
623.973	0.0168180
624.051	0.0167973
624.129	0.0167896
624.207	0.0168833
624.285	0.0167577
624.363	0.0168654
624.442	0.0169793
624.520	0.0168100
624.598	0.0168498
624.676	0.0168679
624.754	0.0168777
624.832	0.0169025
624.910	0.0169075
624.988	0.0168269
625.067	0.0167444
625.145	0.0168503
625.223	0.0169141
625.301	0.0169396
625.379	0.0168311
625.457	0.0166846
625.535	0.0168169
625.613	0.0169000
625.692	0.0167352
625.770	0.0168655
625.848	0.0167972
625.926	0.0168565
626.004	0.0169048
626.082	0.0168559
626.160	0.0168777
626.238	0.0168091
626.317	0.0169254
626.395	0.0168839
626.473	0.0170280
626.551	0.0169485
626.629	0.0169479
626.707	0.0168686
626.785	0.0169024
626.863	0.0167707
626.942	0.0166441
627.020	0.0166904
627.098	0.0167487
627.176	0.0167472
627.254	0.0166298
627.332	0.0168793
627.410	0.0167706
627.488	0.0167180
627.567	0.0167995
627.645	0.0167774
627.723	0.0167675
627.801	0.0168674
627.879	0.0168712
627.957	0.0167434
628.035	0.0169430
628.113	0.0168094
628.192	0.0169416
628.270	0.0169703
628.348	0.0167686
628.426	0.0168750
628.504	0.0168620
628.582	0.0168591
628.660	0.0167855
628.738	0.0168889
628.817	0.0169218
628.895	0.0168573
628.973	0.0167467
629.051	0.0168713
629.129	0.0169321
629.207	0.0169110
629.285	0.0168407
629.363	0.0168082
629.442	0.0167469
629.520	0.0167454
629.598	0.0167296
629.676	0.0168656
629.754	0.0168008
629.832	0.0166130
629.910	0.0167979
629.988	0.0166981
630.067	0.0166547
630.145	0.0166637
630.223	0.0167382
630.301	0.0166654
630.379	0.0167529
630.457	0.0167598
630.535	0.0167983
630.613	0.0167226
630.692	0.0165308
630.770	0.0167119
630.848	0.0166266
630.926	0.0166540
631.004	0.0166797
631.082	0.0166107
631.160	0.0165454
631.238	0.0164262
631.317	0.0165926
631.395	0.0165269
631.473	0.0164505
631.551	0.0163683
631.629	0.0165323
631.707	0.0165258
631.785	0.0165984
631.863	0.0166246
631.942	0.0165539
632.020	0.0164412
632.098	0.0165786
632.176	0.0166649
632.254	0.0166921
632.332	0.0165746
632.410	0.0166930
632.488	0.0166355
632.567	0.0166447
632.645	0.0167255
632.723	0.0167632
632.801	0.0166408
632.879	0.0165881
632.957	0.0166331
633.035	0.0167094
633.113	0.0167952
633.192	0.0167686
633.270	0.0167863
633.348	0.0168166
633.426	0.0167836
633.504	0.0166974
633.582	0.0166654
633.660	0.0165998
633.738	0.0165451
633.817	0.0165044
633.895	0.0164796
633.973	0.0164587
634.051	0.0165589
634.129	0.0164263
634.207	0.0164105
634.285	0.0164170
634.363	0.0165255
634.442	0.0165347
634.520	0.0165352
634.598	0.0165361
634.676	0.0166835
634.754	0.0167325
634.832	0.0166427
634.910	0.0168302
634.988	0.0168085
635.067	0.0169155
635.145	0.0171328
635.223	0.0170692
635.301	0.0172019
635.379	0.0171061
635.457	0.0171577
635.535	0.0171944
635.613	0.0172029
635.692	0.0170628
635.770	0.0170998
635.848	0.0169786
635.926	0.0170680
636.004	0.0169640
636.082	0.0166568
636.160	0.0166869
636.238	0.0164397
636.317	0.0163132
636.395	0.0162167
636.473	0.0161671
636.551	0.0160302
636.629	0.0159499
636.707	0.0158088
636.785	0.0156345
636.863	0.0156326
636.942	0.0156856
637.020	0.0156532
637.098	0.0156970
637.176	0.0156533
637.254	0.0155171
637.332	0.0155602
637.410	0.0159286
637.488	0.0158887
637.567	0.0160082
637.645	0.0160538
637.723	0.0162130
637.801	0.0164143
637.879	0.0165351
637.957	0.0167233
638.035	0.0170076
638.113	0.0171889
638.192	0.0171954
638.270	0.0176456
638.348	0.0176218
638.426	0.0177869
638.504	0.0179181
638.582	0.0179826
638.660	0.0180640
638.738	0.0180378
638.817	0.0181137
638.895	0.0181841
638.973	0.0180011
639.051	0.0179150
639.129	0.0178001
639.207	0.0175954
639.285	0.0173482
639.363	0.0171879
639.442	0.0169522
639.520	0.0166948
639.598	0.0162886
639.676	0.0160835
639.754	0.0157053
639.832	0.0154090
639.910	0.0151365
639.988	0.0148820
640.067	0.0147386
640.145	0.0145215
640.223	0.0142767
640.301	0.0144436
640.379	0.0142553
640.457	0.0143389
640.535	0.0143882
640.613	0.0144455
640.692	0.0147679
640.770	0.0148833
640.848	0.0151231
640.926	0.0155315
641.004	0.0156635
641.082	0.0161752
641.160	0.0164815
641.238	0.0166841
641.317	0.0169917
641.395	0.0175211
641.473	0.0178230
641.551	0.0181608
641.629	0.0184861
641.707	0.0187933
641.785	0.0190316
641.863	0.0193935
641.942	0.0195871
642.020	0.0195126
642.098	0.0197072
642.176	0.0195631
642.254	0.0192813
642.332	0.0191392
642.410	0.0188947
642.488	0.0183634
642.567	0.0179015
642.645	0.0175607
642.723	0.0171761
642.801	0.0167018
642.879	0.0161991
642.957	0.0158234
643.035	0.0154667
643.113	0.0149550
643.192	0.0147227
643.270	0.0143747
643.348	0.0141146
643.426	0.0140228
643.504	0.0137091
643.582	0.0137199
643.660	0.0135844
643.738	0.0136226
643.817	0.0137749
643.895	0.0137624
643.973	0.0140958
644.051	0.0143958
644.129	0.0146666
644.207	0.0150684
644.285	0.0154137
644.363	0.0156739
644.442	0.0162113
644.520	0.0165478
644.598	0.0169614
644.676	0.0172755
644.754	0.0176424
644.832	0.0180076
644.910	0.0184555
644.988	0.0185101
645.067	0.0185487
645.145	0.0188800
645.223	0.0190644
645.301	0.0191457
645.379	0.0192184
645.457	0.0192281
645.535	0.0191496
645.613	0.0191207
645.692	0.0190798
645.770	0.0190330
645.848	0.0189257
645.926	0.0185931
646.004	0.0185226
646.082	0.0182516
646.160	0.0181751
646.238	0.0178764
646.317	0.0176679
646.395	0.0175166
646.473	0.0172528
646.551	0.0170642
646.629	0.0169346
646.707	0.0166852
646.785	0.0165853
646.863	0.0163795
646.942	0.0162523
647.020	0.0160842
647.098	0.0159867
647.176	0.0157796
647.254	0.0157327
647.332	0.0157881
647.410	0.0154980
647.488	0.0154943
647.567	0.0155704
647.645	0.0154241
647.723	0.0152979
647.801	0.0153841
647.879	0.0156323
647.957	0.0156625
648.035	0.0155649
648.113	0.0157555
648.192	0.0157647
648.270	0.0159528
648.348	0.0159386
648.426	0.0159911
648.504	0.0161868
648.582	0.0162649
648.660	0.0163546
648.738	0.0164449
648.817	0.0167029
648.895	0.0167003
648.973	0.0169577
649.051	0.0170127
649.129	0.0168433
649.207	0.0170845
649.285	0.0171309
649.363	0.0170704
649.442	0.0170293
649.520	0.0170859
649.598	0.0169962
649.676	0.0169934
649.754	0.0169597
649.832	0.0169234
649.910	0.0170465
649.988	0.0171985
650.067	0.0170747
650.145	0.0171938
650.223	0.0171441
650.301	0.0172924
650.379	0.0175629
650.457	0.0175481
650.535	0.0175501
650.613	0.0174502
650.692	0.0174989
650.770	0.0175491
650.848	0.0175327
650.926	0.0173961
651.004	0.0173436
651.082	0.0174557
651.160	0.0173152
651.238	0.0169537
651.317	0.0170252
651.395	0.0168246
651.473	0.0166403
651.551	0.0165090
651.629	0.0162478
651.707	0.0160268
651.785	0.0156435
651.863	0.0153555
651.942	0.0151894
652.020	0.0150067
652.098	0.0148125
652.176	0.0147176
652.254	0.0147327
652.332	0.0147464
652.410	0.0150223
652.488	0.0152051
652.567	0.0151905
652.645	0.0154931
652.723	0.0157851
652.801	0.0159743
652.879	0.0162179
652.957	0.0164901
653.035	0.0167916
653.113	0.0169494
653.192	0.0171758
653.270	0.0174060
653.348	0.0175665
653.426	0.0180180
653.504	0.0181817
653.582	0.0183549
653.660	0.0186465
653.738	0.0187984
653.817	0.0191125
653.895	0.0190723
653.973	0.0190484
654.051	0.0189837
654.129	0.0188746
654.207	0.0188415
654.285	0.0181934
654.363	0.0176465
654.442	0.0171735
654.520	0.0166122
654.598	0.0163209
654.676	0.0157375
654.754	0.0152694
654.832	0.0150076
654.910	0.0145177
654.988	0.0143028
655.067	0.0142058
655.145	0.0141210
655.223	0.0139037
655.301	0.0141766
655.379	0.0143671
655.457	0.0145001
655.535	0.0145121
655.613	0.0149293
655.692	0.0152299
655.770	0.0153925
655.848	0.0158399
655.926	0.0162615
656.004	0.0165878
656.082	0.0169561
656.160	0.0172719
656.238	0.0177294
656.317	0.0180393
656.395	0.0181672
656.473	0.0184784
656.551	0.0186922
656.629	0.0187762
656.707	0.0187584
656.785	0.0188838
656.863	0.0187058
656.942	0.0186203
657.020	0.0184521
657.098	0.0182824
657.176	0.0180944
657.254	0.0179753
657.332	0.0177799
657.410	0.0177147
657.488	0.0175016
657.567	0.0171926
657.645	0.0171399
657.723	0.0170501
657.801	0.0168461
657.879	0.0166163
657.957	0.0164983
658.035	0.0165236
658.113	0.0163895
658.192	0.0162160
658.270	0.0162982
658.348	0.0161134
658.426	0.0161084
658.504	0.0159408
658.582	0.0160493
658.660	0.0160413
658.738	0.0160728
658.817	0.0161581
658.895	0.0163356
658.973	0.0166178
659.051	0.0166856
659.129	0.0167349
659.207	0.0169553
659.285	0.0171583
659.363	0.0173045
659.442	0.0173116
659.520	0.0174308
659.598	0.0174573
659.676	0.0174265
659.754	0.0175380
659.832	0.0175040
659.910	0.0173856
659.988	0.0173010
660.067	0.0170346
660.145	0.0170151
660.223	0.0168163
660.301	0.0166828
660.379	0.0164361
660.457	0.0162086
660.535	0.0159052
660.613	0.0157683
660.692	0.0152725
660.770	0.0152185
660.848	0.0150749
660.926	0.0150901
661.004	0.0149428
661.082	0.0150716
661.160	0.0151334
661.238	0.0150161
661.317	0.0153716
661.395	0.0154607
661.473	0.0155850
661.551	0.0158129
661.629	0.0160215
661.707	0.0161854
661.785	0.0164558
661.863	0.0167501
661.942	0.0169881
662.020	0.0173332
662.098	0.0174786
662.176	0.0177773
662.254	0.0182115
662.332	0.0184798
662.410	0.0188415
662.488	0.0191953
662.567	0.0194064
662.645	0.0194985
662.723	0.0195467
662.801	0.0196945
662.879	0.0198799
662.957	0.0198743
663.035	0.0197771
663.113	0.0197382
663.192	0.0194782
663.270	0.0192506
663.348	0.0189978
663.426	0.0188098
663.504	0.0184551
663.582	0.0180336
663.660	0.0178582
663.738	0.0174326
663.817	0.0171008
663.895	0.0166644
663.973	0.0163391
664.051	0.0159866
664.129	0.0158266
664.207	0.0155923
664.285	0.0154041
664.363	0.0152320
664.442	0.0152473
664.520	0.0151543
664.598	0.0152182
664.676	0.0152518
664.754	0.0151129
664.832	0.0150474
664.910	0.0151989
664.988	0.0151939
665.067	0.0149802
665.145	0.0149557
665.223	0.0149175
665.301	0.0146571
665.379	0.0146092
665.457	0.0145776
665.535	0.0145940
665.613	0.0143856
665.692	0.0144538
665.770	0.0146069
665.848	0.0146851
665.926	0.0146569
666.004	0.0147955
666.082	0.0147518
666.160	0.0149564
666.238	0.0149857
666.317	0.0152328
666.395	0.0153724
666.473	0.0157033
666.551	0.0159478
666.629	0.0164658
666.707	0.0168343
666.785	0.0171060
666.863	0.0175624
666.942	0.0180854
667.020	0.0186511
667.098	0.0189944
667.176	0.0194668
667.254	0.0198771
667.332	0.0201929
667.410	0.0207066
667.488	0.0207047
667.567	0.0208098
667.645	0.0209820
667.723	0.0210396
667.801	0.0210747
667.879	0.0211324
667.957	0.0208871
668.035	0.0208578
668.113	0.0206454
668.192	0.0203275
668.270	0.0200976
668.348	0.0196588
668.426	0.0193034
668.504	0.0187878
668.582	0.0181231
668.660	0.0176352
668.738	0.0167223
668.817	0.0162184
668.895	0.0155590
668.973	0.0150977
669.051	0.0145268
669.129	0.0137868
669.207	0.0133245
669.285	0.0132502
669.363	0.0129215
669.442	0.0126746
669.520	0.0126362
669.598	0.0126643
669.676	0.0127240
669.754	0.0126181
669.832	0.0127827
669.910	0.0131184
669.988	0.0133367
670.067	0.0135833
670.145	0.0141064
670.223	0.0146007
670.301	0.0148154
670.379	0.0153426
670.457	0.0158096
670.535	0.0162507
670.613	0.0166932
670.692	0.0171144
670.770	0.0175027
670.848	0.0178236
670.926	0.0180750
671.004	0.0182771
671.082	0.0185343
671.160	0.0185509
671.238	0.0185899
671.317	0.0185876
671.395	0.0184834
671.473	0.0185331
671.551	0.0183252
671.629	0.0180769
671.707	0.0178123
671.785	0.0176532
671.863	0.0174374
671.942	0.0171629
672.020	0.0169111
672.098	0.0166196
672.176	0.0164857
672.254	0.0161817
672.332	0.0161102
672.410	0.0159946
672.488	0.0159042
672.567	0.0158269
672.645	0.0158855
672.723	0.0157937
672.801	0.0158546
672.879	0.0158208
672.957	0.0161173
673.035	0.0161835
673.113	0.0164102
673.192	0.0167094
673.270	0.0169859
673.348	0.0172149
673.426	0.0173154
673.504	0.0176209
673.582	0.0179418
673.660	0.0181397
673.738	0.0183168
673.817	0.0183459
673.895	0.0185234
673.973	0.0186465
674.051	0.0185433
674.129	0.0184636
674.207	0.0183662
674.285	0.0181985
674.363	0.0178858
674.442	0.0178925
674.520	0.0176369
674.598	0.0174293
674.676	0.0171627
674.754	0.0169687
674.832	0.0167705
674.910	0.0165053
674.988	0.0162241
675.067	0.0160342
675.145	0.0159644
675.223	0.0157148
675.301	0.0156352
675.379	0.0155023
675.457	0.0155820
675.535	0.0154794
675.613	0.0153381
675.692	0.0152444
675.770	0.0153288
675.848	0.0152296
675.926	0.0151125
676.004	0.0149916
676.082	0.0150983
676.160	0.0151123
676.238	0.0150830
676.317	0.0148162
676.395	0.0149493
676.473	0.0151539
676.551	0.0153329
676.629	0.0155278
676.707	0.0156881
676.785	0.0159163
676.863	0.0160155
676.942	0.0164363
677.020	0.0167436
677.098	0.0169659
677.176	0.0170712
677.254	0.0174654
677.332	0.0176208
677.410	0.0178518
677.488	0.0179587
677.567	0.0179705
677.645	0.0181522
677.723	0.0181446
677.801	0.0179602
677.879	0.0179601
677.957	0.0180556
678.035	0.0179520
678.113	0.0179023
678.192	0.0178154
678.270	0.0179153
678.348	0.0177367
678.426	0.0176981
678.504	0.0178080
678.582	0.0176780
678.660	0.0175687
678.738	0.0174276
678.817	0.0174145
678.895	0.0171777
678.973	0.0172569
679.051	0.0167962
679.129	0.0170119
679.207	0.0167976
679.285	0.0168034
679.363	0.0168138
679.442	0.0167058
679.520	0.0166436
679.598	0.0167907
679.676	0.0166952
679.754	0.0167710
679.832	0.0169259
679.910	0.0170422
679.988	0.0169623
680.067	0.0170668
680.145	0.0171664
680.223	0.0170731
680.301	0.0171346
680.379	0.0170535
680.457	0.0172800
680.535	0.0171187
680.613	0.0169898
680.692	0.0168381
680.770	0.0168227
680.848	0.0167160
680.926	0.0165911
681.004	0.0166100
681.082	0.0164355
681.160	0.0164272
681.238	0.0161775
681.317	0.0160963
681.395	0.0160475
681.473	0.0160983
681.551	0.0158974
681.629	0.0157211
681.707	0.0158021
681.785	0.0155737
681.863	0.0155201
681.942	0.0154826
682.020	0.0156139
682.098	0.0156234
682.176	0.0157024
682.254	0.0155461
682.332	0.0156638
682.410	0.0158395
682.488	0.0160056
682.567	0.0161743
682.645	0.0162119
682.723	0.0164919
682.801	0.0165699
682.879	0.0165593
682.957	0.0168988
683.035	0.0169043
683.113	0.0170973
683.192	0.0173221
683.270	0.0174056
683.348	0.0175376
683.426	0.0178239
683.504	0.0178105
683.582	0.0179129
683.660	0.0179871
683.738	0.0180422
683.817	0.0180503
683.895	0.0180577
683.973	0.0180696
684.051	0.0179309
684.129	0.0178357
684.207	0.0178320
684.285	0.0177309
684.363	0.0175877
684.442	0.0175809
684.520	0.0170913
684.598	0.0169424
684.676	0.0170422
684.754	0.0167078
684.832	0.0167046
684.910	0.0166428
684.988	0.0164271
685.067	0.0165665
685.145	0.0164162
685.223	0.0162939
685.301	0.0163504
685.379	0.0161644
685.457	0.0160620
685.535	0.0161840
685.613	0.0161719
685.692	0.0160549
685.770	0.0160621
685.848	0.0160923
685.926	0.0162906
686.004	0.0164261
686.082	0.0164330
686.160	0.0167056
686.238	0.0168662
686.317	0.0168665
686.395	0.0167959
686.473	0.0170674
686.551	0.0172208
686.629	0.0172861
686.707	0.0171814
686.785	0.0170231
686.863	0.0169656
686.942	0.0171347
687.020	0.0171232
687.098	0.0170245
687.176	0.0168925
687.254	0.0169881
687.332	0.0170306
687.410	0.0168980
687.488	0.0168810
687.567	0.0168728
687.645	0.0168844
687.723	0.0167088
687.801	0.0168420
687.879	0.0167762
687.957	0.0168701
688.035	0.0167986
688.113	0.0167231
688.192	0.0167362
688.270	0.0165996
688.348	0.0165400
688.426	0.0164887
688.504	0.0164200
688.582	0.0164007
688.660	0.0163585
688.738	0.0162341
688.817	0.0162701
688.895	0.0160541
688.973	0.0162329
689.051	0.0159859
689.129	0.0159949
689.207	0.0159303
689.285	0.0160358
689.363	0.0160285
689.442	0.0160069
689.520	0.0161200
689.598	0.0160646
689.676	0.0163059
689.754	0.0161652
689.832	0.0162639
689.910	0.0162342
689.988	0.0163202
690.067	0.0163840
690.145	0.0164490
690.223	0.0165541
690.301	0.0165195
690.379	0.0167417
690.457	0.0168141
690.535	0.0166637
690.613	0.0166898
690.692	0.0169106
690.770	0.0169171
690.848	0.0169311
690.926	0.0170431
691.004	0.0172169
691.082	0.0171767
691.160	0.0171500
691.238	0.0171262
691.317	0.0170000
691.395	0.0171085
691.473	0.0169560
691.551	0.0170168
691.629	0.0169137
691.707	0.0167838
691.785	0.0168295
691.863	0.0169339
691.942	0.0169988
692.020	0.0169098
692.098	0.0169035
692.176	0.0169871
692.254	0.0171524
692.332	0.0172535
692.410	0.0173808
692.488	0.0173044
692.567	0.0173113
692.645	0.0172614
692.723	0.0173707
692.801	0.0173134
692.879	0.0174094
692.957	0.0174655
693.035	0.0173384
693.113	0.0173066
693.192	0.0172305
693.270	0.0169956
693.348	0.0170351
693.426	0.0167947
693.504	0.0164802
693.582	0.0165167
693.660	0.0162409
693.738	0.0159544
693.817	0.0158529
693.895	0.0157296
693.973	0.0157141
694.051	0.0155181
694.129	0.0155750
694.207	0.0155183
694.285	0.0154405
694.363	0.0154585
694.442	0.0155509
694.520	0.0157793
694.598	0.0157150
694.676	0.0157908
694.754	0.0158420
694.832	0.0158440
694.910	0.0158796
694.988	0.0159418
695.067	0.0159609
695.145	0.0159537
695.223	0.0159342
695.301	0.0158723
695.379	0.0160228
695.457	0.0162350
695.535	0.0163345
695.613	0.0164892
695.692	0.0164931
695.770	0.0166859
695.848	0.0169785
695.926	0.0170401
696.004	0.0170077
696.082	0.0172179
696.160	0.0173710
696.238	0.0174686
696.317	0.0173526
696.395	0.0176049
696.473	0.0177200
696.551	0.0176469
696.629	0.0175196
696.707	0.0174821
696.785	0.0176029
696.863	0.0175639
696.942	0.0172818
697.020	0.0171599
697.098	0.0172347
697.176	0.0170874
697.254	0.0170073
697.332	0.0168484
697.410	0.0168053
697.488	0.0168151
697.567	0.0165849
697.645	0.0164389
697.723	0.0164622
697.801	0.0165426
697.879	0.0163963
697.957	0.0163216
698.035	0.0163155
698.113	0.0163785
698.192	0.0164214
698.270	0.0162808
698.348	0.0161971
698.426	0.0161883
698.504	0.0162228
698.582	0.0162036
698.660	0.0163361
698.738	0.0163720
698.817	0.0164065
698.895	0.0164120
698.973	0.0165551
699.051	0.0167034
699.129	0.0169798
699.207	0.0169265
699.285	0.0170065
699.363	0.0172147
699.442	0.0172344
699.520	0.0173584
699.598	0.0173597
699.676	0.0173322
699.754	0.0173584
699.832	0.0176649
699.910	0.0173712
699.988	0.0173510
700.067	0.0173318
700.145	0.0173264
700.223	0.0170795
700.301	0.0169176
700.379	0.0168126
700.457	0.0166965
700.535	0.0165579
700.613	0.0162943
700.692	0.0162044
700.770	0.0160745
700.848	0.0159996
700.926	0.0159835
701.004	0.0160269
701.082	0.0159949
701.160	0.0161926
701.238	0.0161551
701.317	0.0162357
701.395	0.0162880
701.473	0.0164382
701.551	0.0166273
701.629	0.0169724
701.707	0.0169663
701.785	0.0169050
701.863	0.0170071
701.942	0.0170019
702.020	0.0171786
702.098	0.0169882
702.176	0.0171887
702.254	0.0170123
702.332	0.0168891
702.410	0.0169830
702.488	0.0167815
702.567	0.0168330
702.645	0.0167451
702.723	0.0168323
702.801	0.0167700
702.879	0.0167869
702.957	0.0166335
703.035	0.0167008
703.113	0.0168388
703.192	0.0167357
703.270	0.0168000
703.348	0.0168188
703.426	0.0166705
703.504	0.0169240
703.582	0.0170283
703.660	0.0171360
703.738	0.0171330
703.817	0.0171515
703.895	0.0172191
703.973	0.0173039
704.051	0.0173053
704.129	0.0172868
704.207	0.0171635
704.285	0.0172291
704.363	0.0172110
704.442	0.0170251
704.520	0.0171362
704.598	0.0168504
704.676	0.0167840
704.754	0.0168377
704.832	0.0167426
704.910	0.0164553
704.988	0.0164438
705.067	0.0164292
705.145	0.0164474
705.223	0.0164320
705.301	0.0162956
705.379	0.0164256
705.457	0.0163001
705.535	0.0161612
705.613	0.0163528
705.692	0.0162645
705.770	0.0163409
705.848	0.0163472
705.926	0.0163645
706.004	0.0164561
706.082	0.0164498
706.160	0.0164294
706.238	0.0165630
706.317	0.0165700
706.395	0.0165081
706.473	0.0167158
706.551	0.0167446
706.629	0.0166705
706.707	0.0168904
706.785	0.0167662
706.863	0.0168078
706.942	0.0169151
707.020	0.0168758
707.098	0.0168762
707.176	0.0169198
707.254	0.0167674
707.332	0.0167862
707.410	0.0165977
707.488	0.0168269
707.567	0.0167242
707.645	0.0165752
707.723	0.0165278
707.801	0.0164343
707.879	0.0164180
707.957	0.0162862
708.035	0.0164579
708.113	0.0163699
708.192	0.0164878
708.270	0.0163236
708.348	0.0163925
708.426	0.0165139
708.504	0.0166458
708.582	0.0167009
708.660	0.0165953
708.738	0.0166859
708.817	0.0168155
708.895	0.0166328
708.973	0.0166927
709.051	0.0165754
709.129	0.0165553
709.207	0.0166183
709.285	0.0165742
709.363	0.0165069
709.442	0.0165309
709.520	0.0165688
709.598	0.0165049
709.676	0.0164870
709.754	0.0164970
709.832	0.0166040
709.910	0.0167806
709.988	0.0167065
710.067	0.0167951
710.145	0.0169283
710.223	0.0169143
710.301	0.0170129
710.379	0.0168307
710.457	0.0168988
710.535	0.0168861
710.613	0.0168984
710.692	0.0170178
710.770	0.0167398
710.848	0.0168941
710.926	0.0170092
711.004	0.0167112
711.082	0.0166260
711.160	0.0165811
711.238	0.0165440
711.317	0.0165684
711.395	0.0165028
711.473	0.0164124
711.551	0.0165211
711.629	0.0164236
711.707	0.0164318
711.785	0.0164923
711.863	0.0165923
711.942	0.0166396
712.020	0.0165388
712.098	0.0165293
712.176	0.0168929
712.254	0.0169021
712.332	0.0167216
712.410	0.0167615
712.488	0.0167387
712.567	0.0166876
712.645	0.0166586
712.723	0.0165600
712.801	0.0165884
712.879	0.0164860
712.957	0.0164450
713.035	0.0163439
713.113	0.0163527
713.192	0.0163845
713.270	0.0162402
713.348	0.0163374
713.426	0.0161545
713.504	0.0163177
713.582	0.0163513
713.660	0.0164809
713.738	0.0165350
713.817	0.0166632
713.895	0.0165314
713.973	0.0167052
714.051	0.0166843
714.129	0.0167074
714.207	0.0167368
714.285	0.0168308
714.363	0.0167704
714.442	0.0166645
714.520	0.0168451
714.598	0.0168884
714.676	0.0168994
714.754	0.0168927
714.832	0.0170095
714.910	0.0168899
714.988	0.0170028
715.067	0.0169601
715.145	0.0169507
715.223	0.0170149
715.301	0.0170653
715.379	0.0170508
715.457	0.0169630
715.535	0.0170451
715.613	0.0169254
715.692	0.0168709
715.770	0.0168060
715.848	0.0168072
715.926	0.0167856
716.004	0.0166021
716.082	0.0165003
716.160	0.0166962
716.238	0.0164487
716.317	0.0164139
716.395	0.0164502
716.473	0.0165105
716.551	0.0164185
716.629	0.0163156
716.707	0.0162856
716.785	0.0163585
716.863	0.0165321
716.942	0.0165067
717.020	0.0165977
717.098	0.0166779
717.176	0.0166840
717.254	0.0166924
717.332	0.0167332
717.410	0.0166918
717.488	0.0167865
717.567	0.0167724
717.645	0.0167976
717.723	0.0168421
717.801	0.0166805
717.879	0.0168391
717.957	0.0167650
718.035	0.0166889
718.113	0.0168557
718.192	0.0166713
718.270	0.0165543
718.348	0.0166446
718.426	0.0164832
718.504	0.0166113
718.582	0.0164755
718.660	0.0163631
718.738	0.0164653
718.817	0.0163209
718.895	0.0163395
718.973	0.0163995
719.051	0.0164512
719.129	0.0164448
719.207	0.0165390
719.285	0.0165614
719.363	0.0164513
719.442	0.0165388
719.520	0.0165884
719.598	0.0166981
719.676	0.0166308
719.754	0.0167977
719.832	0.0167197
719.910	0.0166922
719.988	0.0166898
720.067	0.0166860
720.145	0.0169129
720.223	0.0167810
720.301	0.0167598
720.379	0.0166861
720.457	0.0167551
720.535	0.0168358
720.613	0.0168121
720.692	0.0169767
720.770	0.0170805
720.848	0.0168734
720.926	0.0169659
721.004	0.0170431
721.082	0.0169610
721.160	0.0169434
721.238	0.0170594
721.317	0.0171474
721.395	0.0169969
721.473	0.0171205
721.551	0.0170807
721.629	0.0169754
721.707	0.0171635
721.785	0.0171666
721.863	0.0171135
721.942	0.0169460
722.020	0.0170114
722.098	0.0169943
722.176	0.0169118
722.254	0.0169019
722.332	0.0170020
722.410	0.0170308
722.488	0.0169603
722.567	0.0168530
722.645	0.0168468
722.723	0.0168593
722.801	0.0168222
722.879	0.0166453
722.957	0.0166380
723.035	0.0165974
723.113	0.0165891
723.192	0.0166953
723.270	0.0165734
723.348	0.0166150
723.426	0.0164719
723.504	0.0165311
723.582	0.0164207
723.660	0.0164273
723.738	0.0166042
723.817	0.0164671
723.895	0.0165206
723.973	0.0165410
724.051	0.0165597
724.129	0.0164149
724.207	0.0164816
724.285	0.0163947
724.363	0.0166617
724.442	0.0165087
724.520	0.0164074
724.598	0.0165973
724.676	0.0167188
724.754	0.0167005
724.832	0.0166594
724.910	0.0166820
724.988	0.0167010
725.067	0.0167174
725.145	0.0167207
725.223	0.0167229
725.301	0.0168397
725.379	0.0168451
725.457	0.0167731
725.535	0.0169277
725.613	0.0169032
725.692	0.0168440
725.770	0.0168163
725.848	0.0169537
725.926	0.0169984
726.004	0.0170451
726.082	0.0170563
726.160	0.0169875
726.238	0.0170300
726.317	0.0170813
726.395	0.0170699
726.473	0.0170628
726.551	0.0171667
726.629	0.0171629
726.707	0.0171397
726.785	0.0171068
726.863	0.0170134
726.942	0.0169708
727.020	0.0169709
727.098	0.0167979
727.176	0.0168648
727.254	0.0167784
727.332	0.0167213
727.410	0.0166470
727.488	0.0167077
727.567	0.0166155
727.645	0.0166944
727.723	0.0167397
727.801	0.0166239
727.879	0.0166646
727.957	0.0167611
728.035	0.0165967
728.113	0.0166801
728.192	0.0168631
728.270	0.0166927
728.348	0.0168037
728.426	0.0166508
728.504	0.0165829
728.582	0.0167249
728.660	0.0165438
728.738	0.0165391
728.817	0.0165868
728.895	0.0166238
728.973	0.0165497
729.051	0.0164043
729.129	0.0164949
729.207	0.0166663
729.285	0.0167181
729.363	0.0167585
729.442	0.0166565
729.520	0.0166184
729.598	0.0166985
729.676	0.0167434
729.754	0.0168327
729.832	0.0168382
729.910	0.0167270
729.988	0.0168371
730.067	0.0167317
730.145	0.0167600
730.223	0.0168714
730.301	0.0167935
730.379	0.0168103
730.457	0.0167064
730.535	0.0167577
730.613	0.0168480
730.692	0.0167141
730.770	0.0168723
730.848	0.0167092
730.926	0.0166334
731.004	0.0167682
731.082	0.0167175
731.160	0.0166259
731.238	0.0166001
731.317	0.0166306
731.395	0.0165266
731.473	0.0165902
731.551	0.0167340
731.629	0.0165416
731.707	0.0165402
731.785	0.0163560
731.863	0.0164456
731.942	0.0166273
732.020	0.0165528
732.098	0.0165991
732.176	0.0166699
732.254	0.0167049
732.332	0.0166962
732.410	0.0168879
732.488	0.0167184
732.567	0.0167071
732.645	0.0168285
732.723	0.0168102
732.801	0.0169625
732.879	0.0169742
732.957	0.0169486
733.035	0.0167181
733.113	0.0170105
733.192	0.0171526
733.270	0.0169904
733.348	0.0168824
733.426	0.0168835
733.504	0.0168763
733.582	0.0171642
733.660	0.0170335
733.738	0.0170029
733.817	0.0168443
733.895	0.0169282
733.973	0.0167933
734.051	0.0168295
734.129	0.0169792
734.207	0.0167825
734.285	0.0168628
734.363	0.0167184
734.442	0.0166061
734.520	0.0166417
734.598	0.0166669
734.676	0.0166034
734.754	0.0168400
734.832	0.0169444
734.910	0.0168507
734.988	0.0167997
735.067	0.0167171
735.145	0.0168585
735.223	0.0168330
735.301	0.0169006
735.379	0.0169632
735.457	0.0169699
735.535	0.0169526
735.613	0.0168123
735.692	0.0168493
735.770	0.0168005
735.848	0.0167128
735.926	0.0168172
736.004	0.0166479
736.082	0.0166620
736.160	0.0166055
736.238	0.0166205
736.317	0.0164677
736.395	0.0164190
736.473	0.0166136
736.551	0.0164417
736.629	0.0163423
736.707	0.0162886
736.785	0.0163103
736.863	0.0163899
736.942	0.0162790
737.020	0.0162988
737.098	0.0163452
737.176	0.0163675
737.254	0.0164056
737.332	0.0163834
737.410	0.0163478
737.488	0.0163577
737.567	0.0165595
737.645	0.0165201
737.723	0.0166829
737.801	0.0168198
737.879	0.0168373
737.957	0.0167601
738.035	0.0168661
738.113	0.0169781
738.192	0.0170435
738.270	0.0170094
738.348	0.0168041
738.426	0.0169621
738.504	0.0170482
738.582	0.0171354
738.660	0.0169851
738.738	0.0168674
738.817	0.0168206
738.895	0.0168885
738.973	0.0166993
739.051	0.0168139
739.129	0.0168531
739.207	0.0167428
739.285	0.0167883
739.363	0.0166582
739.442	0.0166263
739.520	0.0167408
739.598	0.0167120
739.676	0.0165833
739.754	0.0166187
739.832	0.0165805
739.910	0.0166431
739.988	0.0167038
740.067	0.0165717
740.145	0.0167516
740.223	0.0166949
740.301	0.0166379
740.379	0.0167119
740.457	0.0166531
740.535	0.0166876
740.613	0.0166026
740.692	0.0166159
740.770	0.0166740
740.848	0.0166981
740.926	0.0167673
741.004	0.0167915
741.082	0.0168777
741.160	0.0168861
741.238	0.0168425
741.317	0.0169985
741.395	0.0169928
741.473	0.0168507
741.551	0.0169057
741.629	0.0169090
741.707	0.0170630
741.785	0.0171687
741.863	0.0169029
741.942	0.0169952
742.020	0.0169553
742.098	0.0169533
742.176	0.0169186
742.254	0.0170114
742.332	0.0168790
742.410	0.0168968
742.488	0.0167448
742.567	0.0167698
742.645	0.0168409
742.723	0.0167420
742.801	0.0168503
742.879	0.0168138
742.957	0.0167645
743.035	0.0165992
743.113	0.0167137
743.192	0.0166139
743.270	0.0166342
743.348	0.0166392
743.426	0.0165445
743.504	0.0166184
743.582	0.0166735
743.660	0.0167213
743.738	0.0165936
743.817	0.0165678
743.895	0.0164906
743.973	0.0165336
744.051	0.0165594
744.129	0.0163580
744.207	0.0164780
744.285	0.0164622
744.363	0.0163927
744.442	0.0163657
744.520	0.0163419
744.598	0.0164446
744.676	0.0164207
744.754	0.0164487
744.832	0.0161727
744.910	0.0163184
744.988	0.0163654
745.067	0.0164005
745.145	0.0163024
745.223	0.0163387
745.301	0.0163885
745.379	0.0165136
745.457	0.0164595
745.535	0.0165547
745.613	0.0164342
745.692	0.0164537
745.770	0.0165739
745.848	0.0167000
745.926	0.0166255
746.004	0.0164918
746.082	0.0166558
746.160	0.0166534
746.238	0.0167014
746.317	0.0167719
746.395	0.0166783
746.473	0.0166815
746.551	0.0166943
746.629	0.0168329
746.707	0.0168758
746.785	0.0168340
746.863	0.0167955
746.942	0.0170164
747.020	0.0170488
747.098	0.0169842
747.176	0.0170897
747.254	0.0171176
747.332	0.0171201
747.410	0.0171671
747.488	0.0170512
747.567	0.0169023
747.645	0.0168403
747.723	0.0170537
747.801	0.0169950
747.879	0.0168427
747.957	0.0168977
748.035	0.0168781
748.113	0.0168443
748.192	0.0167189
748.270	0.0168117
748.348	0.0167271
748.426	0.0168398
748.504	0.0166542
748.582	0.0167872
748.660	0.0168327
748.738	0.0166742
748.817	0.0167414
748.895	0.0167456
748.973	0.0166650
749.051	0.0167505
749.129	0.0167275
749.207	0.0167473
749.285	0.0167384
749.363	0.0167387
749.442	0.0167126
749.520	0.0167584
749.598	0.0167724
749.676	0.0166587
749.754	0.0167651
749.832	0.0167389
749.910	0.0167850
749.988	0.0167531
750.067	0.0168340
750.145	0.0169272
750.223	0.0168721
750.301	0.0169549
750.379	0.0167939
750.457	0.0168574
750.535	0.0168226
750.613	0.0168183
750.692	0.0166313
750.770	0.0167680
750.848	0.0167537
750.926	0.0165045
751.004	0.0164283
751.082	0.0166042
751.160	0.0166010
751.238	0.0165125
751.317	0.0164991
751.395	0.0162933
751.473	0.0164777
751.551	0.0164131
751.629	0.0163071
751.707	0.0164439
751.785	0.0164680
751.863	0.0163029
751.942	0.0162709
752.020	0.0164587
752.098	0.0164526
752.176	0.0162872
752.254	0.0163136
752.332	0.0163108
752.410	0.0165489
752.488	0.0166447
752.567	0.0165301
752.645	0.0166158
752.723	0.0166135
752.801	0.0166874
752.879	0.0168565
752.957	0.0168974
753.035	0.0169477
753.113	0.0169566
753.192	0.0170147
753.270	0.0169749
753.348	0.0170210
753.426	0.0171301
753.504	0.0169028
753.582	0.0170094
753.660	0.0170810
753.738	0.0170078
753.817	0.0168860
753.895	0.0170232
753.973	0.0168863
754.051	0.0168824
754.129	0.0168410
754.207	0.0168600
754.285	0.0167644
754.363	0.0169408
754.442	0.0168198
754.520	0.0168700
754.598	0.0168671
754.676	0.0167427
754.754	0.0167332
754.832	0.0168087
754.910	0.0167870
754.988	0.0168224
755.067	0.0169274
755.145	0.0169012
755.223	0.0166893
755.301	0.0166879
755.379	0.0167712
755.457	0.0167107
755.535	0.0167560
755.613	0.0167825
755.692	0.0167602
755.770	0.0169041
755.848	0.0167297
755.926	0.0169188
756.004	0.0167612
756.082	0.0167688
756.160	0.0166391
756.238	0.0167352
756.317	0.0168160
756.395	0.0168958
756.473	0.0166826
756.551	0.0169125
756.629	0.0169481
756.707	0.0169739
756.785	0.0168854
756.863	0.0167658
756.942	0.0166857
757.020	0.0169462
757.098	0.0166743
757.176	0.0168249
757.254	0.0168427
757.332	0.0167941
757.410	0.0167893
757.488	0.0168667
757.567	0.0167393
757.645	0.0166799
757.723	0.0167910
757.801	0.0168936
757.879	0.0167329
757.957	0.0166758
758.035	0.0168755
758.113	0.0167646
758.192	0.0167426
758.270	0.0167030
758.348	0.0168363
758.426	0.0167162
758.504	0.0168476
758.582	0.0167772
758.660	0.0167386
758.738	0.0168756
758.817	0.0169281
758.895	0.0169415
758.973	0.0168321
759.051	0.0166893
759.129	0.0169641
759.207	0.0169279
759.285	0.0170720
759.363	0.0170330
759.442	0.0171239
759.520	0.0170380
759.598	0.0169727
759.676	0.0170698
759.754	0.0172103
759.832	0.0171320
759.910	0.0170502
759.988	0.0171089
760.067	0.0172126
760.145	0.0172382
760.223	0.0171151
760.301	0.0170133
760.379	0.0169685
760.457	0.0169450
760.535	0.0168906
760.613	0.0169341
760.692	0.0167745
760.770	0.0169392
760.848	0.0166798
760.926	0.0166442
761.004	0.0166573
761.082	0.0166991
761.160	0.0166398
761.238	0.0165945
761.317	0.0165046
761.395	0.0164172
761.473	0.0163480
761.551	0.0163890
761.629	0.0164914
761.707	0.0163826
761.785	0.0164524
761.863	0.0164793
761.942	0.0164954
762.020	0.0164996
762.098	0.0166389
762.176	0.0166000
762.254	0.0166081
762.332	0.0166340
762.410	0.0165025
762.488	0.0165099
762.567	0.0165974
762.645	0.0167201
762.723	0.0166666
762.801	0.0166705
762.879	0.0166856
762.957	0.0167863
763.035	0.0167978
763.113	0.0168380
763.192	0.0168543
763.270	0.0169050
763.348	0.0168765
763.426	0.0169522
763.504	0.0171587
763.582	0.0171537
763.660	0.0170733
763.738	0.0171673
763.817	0.0170339
763.895	0.0171156
763.973	0.0170508
764.051	0.0171252
764.129	0.0169374
764.207	0.0169810
764.285	0.0170797
764.363	0.0169577
764.442	0.0169052
764.520	0.0167593
764.598	0.0169307
764.676	0.0170116
764.754	0.0167958
764.832	0.0168874
764.910	0.0167290
764.988	0.0167354
765.067	0.0166137
765.145	0.0166203
765.223	0.0165324
765.301	0.0164701
765.379	0.0165157
765.457	0.0163265
765.535	0.0164347
765.613	0.0163428
765.692	0.0162198
765.770	0.0161453
765.848	0.0162994
765.926	0.0160177
766.004	0.0160376
766.082	0.0161002
766.160	0.0161944
766.238	0.0161388
766.317	0.0162619
766.395	0.0162111
766.473	0.0162387
766.551	0.0162997
766.629	0.0162930
766.707	0.0162907
766.785	0.0162602
766.863	0.0164651
766.942	0.0164775
767.020	0.0165458
767.098	0.0163548
767.176	0.0164564
767.254	0.0165934
767.332	0.0167133
767.410	0.0166138
767.488	0.0167568
767.567	0.0168301
767.645	0.0167498
767.723	0.0166699
767.801	0.0168333
767.879	0.0166964
767.957	0.0169265
768.035	0.0170175
768.113	0.0168826
768.192	0.0169305
768.270	0.0169949
768.348	0.0169813
768.426	0.0167994
768.504	0.0167702
768.582	0.0169461
768.660	0.0168695
768.738	0.0169202
768.817	0.0169405
768.895	0.0169348
768.973	0.0169484
769.051	0.0170624
769.129	0.0168727
769.207	0.0168760
769.285	0.0170417
769.363	0.0170284
769.442	0.0169725
769.520	0.0169663
769.598	0.0169749
769.676	0.0170383
769.754	0.0169507
769.832	0.0168812
769.910	0.0168513
769.988	0.0168987
770.067	0.0169051
770.145	0.0168240
770.223	0.0167184
770.301	0.0170122
770.379	0.0168391
770.457	0.0168438
770.535	0.0168978
770.613	0.0169267
770.692	0.0167770
770.770	0.0168562
770.848	0.0168771
770.926	0.0168159
771.004	0.0167397
771.082	0.0168091
771.160	0.0168350
771.238	0.0166423
771.317	0.0167688
771.395	0.0166397
771.473	0.0167120
771.551	0.0168198
771.629	0.0165224
771.707	0.0166080
771.785	0.0166599
771.863	0.0164848
771.942	0.0165577
772.020	0.0165194
772.098	0.0164551
772.176	0.0163319
772.254	0.0164845
772.332	0.0163604
772.410	0.0162705
772.488	0.0161997
772.567	0.0162826
772.645	0.0162356
772.723	0.0162103
772.801	0.0162480
772.879	0.0160949
772.957	0.0161225
773.035	0.0162322
773.113	0.0162955
773.192	0.0161488
773.270	0.0162500
773.348	0.0163965
773.426	0.0164759
773.504	0.0163924
773.582	0.0163840
773.660	0.0164761
773.738	0.0165417
773.817	0.0166364
773.895	0.0166463
773.973	0.0168735
774.051	0.0167953
774.129	0.0167001
774.207	0.0168410
774.285	0.0168406
774.363	0.0168567
774.442	0.0169409
774.520	0.0169319
774.598	0.0170211
774.676	0.0169007
774.754	0.0169027
774.832	0.0170322
774.910	0.0169306
774.988	0.0170059
775.067	0.0169081
775.145	0.0169952
775.223	0.0170602
775.301	0.0170651
775.379	0.0169769
775.457	0.0168468
775.535	0.0170515
775.613	0.0169456
775.692	0.0169316
775.770	0.0170583
775.848	0.0167560
775.926	0.0167744
776.004	0.0169552
776.082	0.0169258
776.160	0.0168803
776.238	0.0167496
776.317	0.0167780
776.395	0.0167635
776.473	0.0167371
776.551	0.0167839
776.629	0.0167085
776.707	0.0168761
776.785	0.0168134
776.863	0.0166309
776.942	0.0166261
777.020	0.0166171
777.098	0.0166998
777.176	0.0167374
777.254	0.0167736
777.332	0.0165673
777.410	0.0167207
777.488	0.0166225
777.567	0.0166687
777.645	0.0165571
777.723	0.0165662
777.801	0.0165244
777.879	0.0165875
777.957	0.0165834
778.035	0.0166908
778.113	0.0166464
778.192	0.0166103
778.270	0.0166512
778.348	0.0165902
778.426	0.0165752
778.504	0.0167359
778.582	0.0166470
778.660	0.0166657
778.738	0.0166998
778.817	0.0166596
778.895	0.0165771
778.973	0.0166394
779.051	0.0166537
779.129	0.0166975
779.207	0.0166576
779.285	0.0167668
779.363	0.0167921
779.442	0.0167435
779.520	0.0167641
779.598	0.0168069
779.676	0.0168883
779.754	0.0169426
779.832	0.0168581
779.910	0.0169632
779.988	0.0169682
780.067	0.0169041
780.145	0.0168655
780.223	0.0168734
780.301	0.0168725
780.379	0.0170721
780.457	0.0169138
780.535	0.0167848
780.613	0.0168563
780.692	0.0169724
780.770	0.0168673
780.848	0.0169167
780.926	0.0167361
781.004	0.0167706
781.082	0.0168513
781.160	0.0167991
781.238	0.0169498
781.317	0.0168515
781.395	0.0166719
781.473	0.0168395
781.551	0.0168124
781.629	0.0166898
781.707	0.0167950
781.785	0.0167627
781.863	0.0165679
781.942	0.0168135
782.020	0.0169603
782.098	0.0168243
782.176	0.0166944
782.254	0.0166812
782.332	0.0167152
782.410	0.0167148
782.488	0.0167732
782.567	0.0167084
782.645	0.0167596
782.723	0.0167581
782.801	0.0167374
782.879	0.0169025
782.957	0.0168999
783.035	0.0168268
783.113	0.0168712
783.192	0.0169136
783.270	0.0168478
783.348	0.0167532
783.426	0.0168141
783.504	0.0167433
783.582	0.0167915
783.660	0.0167025
783.738	0.0167121
783.817	0.0168222
783.895	0.0166843
783.973	0.0167861
784.051	0.0168594
784.129	0.0168165
784.207	0.0167495
784.285	0.0167442
784.363	0.0169442
784.442	0.0168337
784.520	0.0167699
784.598	0.0167951
784.676	0.0166772
784.754	0.0167451
784.832	0.0168947
784.910	0.0168172
784.988	0.0166487
785.067	0.0167951
785.145	0.0167266
785.223	0.0167277
785.301	0.0166579
785.379	0.0167272
785.457	0.0167941
785.535	0.0166916
785.613	0.0167195
785.692	0.0166598
785.770	0.0166211
785.848	0.0166724
785.926	0.0166445
786.004	0.0165637
786.082	0.0166183
786.160	0.0164781
786.238	0.0165057
786.317	0.0165345
786.395	0.0166607
786.473	0.0165838
786.551	0.0165581
786.629	0.0164189
786.707	0.0163230
786.785	0.0164238
786.863	0.0165891
786.942	0.0165092
787.020	0.0163715
787.098	0.0164269
787.176	0.0163620
787.254	0.0165064
787.332	0.0164757
787.410	0.0163569
787.488	0.0164252
787.567	0.0165270
787.645	0.0163924
787.723	0.0163922
787.801	0.0162856
787.879	0.0163273
787.957	0.0164011
788.035	0.0164641
788.113	0.0165305
788.192	0.0165015
788.270	0.0164874
788.348	0.0164611
788.426	0.0166841
788.504	0.0165099
788.582	0.0165621
788.660	0.0165536
788.738	0.0166833
788.817	0.0167802
788.895	0.0168395
788.973	0.0168681
789.051	0.0168792
789.129	0.0170318
789.207	0.0171767
789.285	0.0170470
789.363	0.0170914
789.442	0.0170746
789.520	0.0168778
789.598	0.0170673
789.676	0.0170364
789.754	0.0171720
789.832	0.0169964
789.910	0.0170092
789.988	0.0169774
790.067	0.0169323
790.145	0.0170178
790.223	0.0167645
790.301	0.0167253
790.379	0.0168012
790.457	0.0167548
790.535	0.0167467
790.613	0.0166925
790.692	0.0166334
790.770	0.0166853
790.848	0.0165926
790.926	0.0165874
791.004	0.0165094
791.082	0.0165332
791.160	0.0163893
791.238	0.0165363
791.317	0.0164882
791.395	0.0164956
791.473	0.0164768
791.551	0.0166219
791.629	0.0165343
791.707	0.0165650
791.785	0.0165362
791.863	0.0166142
791.942	0.0165841
792.020	0.0167020
792.098	0.0167449
792.176	0.0166561
792.254	0.0167784
792.332	0.0166837
792.410	0.0169347
792.488	0.0169221
792.567	0.0169866
792.645	0.0169546
792.723	0.0168700
792.801	0.0168154
792.879	0.0168074
792.957	0.0167885
793.035	0.0167148
793.113	0.0167673
793.192	0.0169102
793.270	0.0168963
793.348	0.0167558
793.426	0.0166662
793.504	0.0167356
793.582	0.0167258
793.660	0.0166255
793.738	0.0166174
793.817	0.0166013
793.895	0.0166616
793.973	0.0165425
794.051	0.0165295
794.129	0.0166433
794.207	0.0166302
794.285	0.0166035
794.363	0.0167249
794.442	0.0166619
794.520	0.0166502
794.598	0.0168173
794.676	0.0168955
794.754	0.0167197
794.832	0.0166204
794.910	0.0167844
794.988	0.0168993
795.067	0.0168521
795.145	0.0168190
795.223	0.0167619
795.301	0.0168339
795.379	0.0167596
795.457	0.0168731
795.535	0.0168661
795.613	0.0169240
795.692	0.0167708
795.770	0.0168494
795.848	0.0168102
795.926	0.0169938
796.004	0.0168608
796.082	0.0168681
796.160	0.0169007
796.238	0.0168283
796.317	0.0168707
796.395	0.0168264
796.473	0.0168810
796.551	0.0169063
796.629	0.0168645
796.707	0.0167551
796.785	0.0167412
796.863	0.0168159
796.942	0.0167635
797.020	0.0169227
797.098	0.0166549
797.176	0.0166805
797.254	0.0167253
797.332	0.0167450
797.410	0.0166425
797.488	0.0165422
797.567	0.0167595
797.645	0.0166306
797.723	0.0167271
797.801	0.0166579
797.879	0.0166826
797.957	0.0166387
798.035	0.0167104
798.113	0.0166618
798.192	0.0164368
798.270	0.0165182
798.348	0.0165377
798.426	0.0166911
798.504	0.0166188
798.582	0.0165530
798.660	0.0166200
798.738	0.0167160
798.817	0.0165412
798.895	0.0165330
798.973	0.0167294
799.051	0.0165945
799.129	0.0169319
799.207	0.0165914
799.285	0.0166481
799.363	0.0166652
799.442	0.0167474
799.520	0.0168881
799.598	0.0170570
799.676	0.0167487
799.754	0.0167618
799.832	0.0168961
799.910	0.0168952
799.988	0.0169608
800.067	0.0170344
800.145	0.0171429
800.223	0.0171603
800.301	0.0171399
800.379	0.0170581
800.457	0.0171876
800.535	0.0172483
800.613	0.0171599
800.692	0.0171615
800.770	0.0171294
800.848	0.0170829
800.926	0.0170512
801.004	0.0169872
801.082	0.0170352
801.160	0.0170010
801.238	0.0168417
801.317	0.0168256
801.395	0.0168002
801.473	0.0167224
801.551	0.0168194
801.629	0.0167290
801.707	0.0165966
801.785	0.0166247
801.863	0.0166706
801.942	0.0165437
802.020	0.0165120
802.098	0.0166226
802.176	0.0165849
802.254	0.0165262
802.332	0.0166786
802.410	0.0165501
802.488	0.0165689
802.567	0.0166481
802.645	0.0165163
802.723	0.0165834
802.801	0.0167183
802.879	0.0167355
802.957	0.0166630
803.035	0.0166668
803.113	0.0167371
803.192	0.0166126
803.270	0.0167039
803.348	0.0167754
803.426	0.0168243
803.504	0.0169503
803.582	0.0168153
803.660	0.0167641
803.738	0.0168156
803.817	0.0169287
803.895	0.0167726
803.973	0.0168328
804.051	0.0168442
804.129	0.0168443
804.207	0.0170203
804.285	0.0169950
804.363	0.0170621
804.442	0.0169134
804.520	0.0170007
804.598	0.0169817
804.676	0.0169936
804.754	0.0168917
804.832	0.0169167
804.910	0.0169393
804.988	0.0170403
805.067	0.0169860
805.145	0.0168986
805.223	0.0168337
805.301	0.0168733
805.379	0.0169409
805.457	0.0168181
805.535	0.0169601
805.613	0.0167113
805.692	0.0167699
805.770	0.0168076
805.848	0.0167739
805.926	0.0167097
806.004	0.0167039
806.082	0.0167711
806.160	0.0167514
806.238	0.0168234
806.317	0.0166937
806.395	0.0166943
806.473	0.0165135
806.551	0.0166441
806.629	0.0166740
806.707	0.0166608
806.785	0.0167391
806.863	0.0164761
806.942	0.0166016
807.020	0.0165669
807.098	0.0166141
807.176	0.0164732
807.254	0.0164337
807.332	0.0164466
807.410	0.0163605
807.488	0.0163369
807.567	0.0163885
807.645	0.0165413
807.723	0.0162934
807.801	0.0163760
807.879	0.0163204
807.957	0.0162626
808.035	0.0162549
808.113	0.0164303
808.192	0.0162256
808.270	0.0162370
808.348	0.0163336
808.426	0.0162810
808.504	0.0161887
808.582	0.0163083
808.660	0.0164770
808.738	0.0164120
808.817	0.0164593
808.895	0.0162704
808.973	0.0164019
809.051	0.0165742
809.129	0.0163086
809.207	0.0163942
809.285	0.0164393
809.363	0.0165138
809.442	0.0165439
809.520	0.0164060
809.598	0.0165855
809.676	0.0166833
809.754	0.0165759
809.832	0.0164954
809.910	0.0165549
809.988	0.0166251
810.067	0.0166042
810.145	0.0165479
810.223	0.0167034
810.301	0.0166050
810.379	0.0166997
810.457	0.0167478
810.535	0.0166509
810.613	0.0167201
810.692	0.0167809
810.770	0.0168068
810.848	0.0166904
810.926	0.0168484
811.004	0.0168133
811.082	0.0168549
811.160	0.0168201
811.238	0.0167401
811.317	0.0167760
811.395	0.0167798
811.473	0.0168408
811.551	0.0168351
811.629	0.0168398
811.707	0.0168541
811.785	0.0167785
811.863	0.0168431
811.942	0.0169231
812.020	0.0168995
812.098	0.0167579
812.176	0.0169189
812.254	0.0167448
812.332	0.0167941
812.410	0.0169181
812.488	0.0168337
812.567	0.0166653
812.645	0.0168031
812.723	0.0166949
812.801	0.0168152
812.879	0.0168285
812.957	0.0167668
813.035	0.0166207
813.113	0.0167890
813.192	0.0168806
813.270	0.0166611
813.348	0.0167787
813.426	0.0167789
813.504	0.0167646
813.582	0.0169432
813.660	0.0168294
813.738	0.0168606
813.817	0.0167982
813.895	0.0167309
813.973	0.0168242
814.051	0.0168382
814.129	0.0168116
814.207	0.0166002
814.285	0.0166874
814.363	0.0168043
814.442	0.0166845
814.520	0.0167248
814.598	0.0167097
814.676	0.0167669
814.754	0.0166728
814.832	0.0166399
814.910	0.0167393
814.988	0.0167697
815.067	0.0167083
815.145	0.0167445
815.223	0.0168322
815.301	0.0168384
815.379	0.0168139
815.457	0.0168530
815.535	0.0169017
815.613	0.0168973
815.692	0.0169079
815.770	0.0169561
815.848	0.0169236
815.926	0.0169669
816.004	0.0169779
816.082	0.0169297
816.160	0.0169993
816.238	0.0170853
816.317	0.0169508
816.395	0.0170039
816.473	0.0169369
816.551	0.0169323
816.629	0.0169650
816.707	0.0171030
816.785	0.0170022
816.863	0.0168130
816.942	0.0170665
817.020	0.0169707
817.098	0.0170160
817.176	0.0170346
817.254	0.0170994
817.332	0.0170387
817.410	0.0170231
817.488	0.0170737
817.567	0.0168546
817.645	0.0170422
817.723	0.0170144
817.801	0.0171432
817.879	0.0168977
817.957	0.0170747
818.035	0.0169740
818.113	0.0169319
818.192	0.0168521
818.270	0.0169646
818.348	0.0168754
818.426	0.0168526
818.504	0.0168276
818.582	0.0170060
818.660	0.0169337
818.738	0.0167852
818.817	0.0169247
818.895	0.0167301
818.973	0.0167414
819.051	0.0167781
819.129	0.0168425
819.207	0.0168073
819.285	0.0168575
819.363	0.0167286
819.442	0.0167021
819.520	0.0166776
819.598	0.0168405
819.676	0.0167651
819.754	0.0168075
819.832	0.0168166
819.910	0.0167091
819.988	0.0168031
820.067	0.0165353
820.145	0.0165771
820.223	0.0166481
820.301	0.0166840
820.379	0.0166280
820.457	0.0165836
820.535	0.0167078
820.613	0.0166660
820.692	0.0166206
820.770	0.0167570
820.848	0.0166672
820.926	0.0166557
821.004	0.0165928
821.082	0.0167360
821.160	0.0166535
821.238	0.0165887
821.317	0.0167202
821.395	0.0166943
821.473	0.0167214
821.551	0.0166691
821.629	0.0165938
821.707	0.0166525
821.785	0.0165428
821.863	0.0168256
821.942	0.0167564
822.020	0.0167027
822.098	0.0167961
822.176	0.0167300
822.254	0.0167816
822.332	0.0167725
822.410	0.0166737
822.488	0.0166237
822.567	0.0168260
822.645	0.0167259
822.723	0.0168282
822.801	0.0167202
822.879	0.0168115
822.957	0.0167917
823.035	0.0166842
823.113	0.0168374
823.192	0.0168235
823.270	0.0168177
823.348	0.0168598
823.426	0.0166303
823.504	0.0164859
823.582	0.0166612
823.660	0.0167277
823.738	0.0166869
823.817	0.0166642
823.895	0.0166622
823.973	0.0167139
824.051	0.0165607
824.129	0.0165723
824.207	0.0165549
824.285	0.0164709
824.363	0.0166039
824.442	0.0165685
824.520	0.0165526
824.598	0.0165841
824.676	0.0166048
824.754	0.0164790
824.832	0.0166315
824.910	0.0165264
824.988	0.0166319
825.067	0.0166933
825.145	0.0167648
825.223	0.0166653
825.301	0.0166553
825.379	0.0166521
825.457	0.0167466
825.535	0.0167480
825.613	0.0166814
825.692	0.0167120
825.770	0.0167028
825.848	0.0168451
825.926	0.0166419
826.004	0.0165652
826.082	0.0167022
826.160	0.0167252
826.238	0.0167416
826.317	0.0166014
826.395	0.0166766
826.473	0.0165550
826.551	0.0168719
826.629	0.0168538
826.707	0.0167065
826.785	0.0167237
826.863	0.0167397
826.942	0.0167654
827.020	0.0166956
827.098	0.0167317
827.176	0.0167817
827.254	0.0166171
827.332	0.0166992
827.410	0.0166589
827.488	0.0167568
827.567	0.0167255
827.645	0.0166496
827.723	0.0167346
827.801	0.0166098
827.879	0.0165585
827.957	0.0165605
828.035	0.0166164
828.113	0.0165005
828.192	0.0166830
828.270	0.0164851
828.348	0.0165433
828.426	0.0166225
828.504	0.0166568
828.582	0.0167164
828.660	0.0165872
828.738	0.0166959
828.817	0.0166868
828.895	0.0167294
828.973	0.0167464
829.051	0.0167618
829.129	0.0167726
829.207	0.0168568
829.285	0.0169780
829.363	0.0168868
829.442	0.0168845
829.520	0.0168728
829.598	0.0169390
829.676	0.0169666
829.754	0.0170564
829.832	0.0171002
829.910	0.0169460
829.988	0.0170599
830.067	0.0169563
830.145	0.0170983
830.223	0.0169244
830.301	0.0169124
830.379	0.0168678
830.457	0.0169711
830.535	0.0169096
830.613	0.0167716
830.692	0.0168607
830.770	0.0168271
830.848	0.0167912
830.926	0.0167449
831.004	0.0167285
831.082	0.0166268
831.160	0.0165828
831.238	0.0165740
831.317	0.0165341
831.395	0.0165382
831.473	0.0165182
831.551	0.0165089
831.629	0.0163081
831.707	0.0164628
831.785	0.0166216
831.863	0.0162781
831.942	0.0164952
832.020	0.0164527
832.098	0.0162986
832.176	0.0164593
832.254	0.0164178
832.332	0.0163833
832.410	0.0164332
832.488	0.0164695
832.567	0.0165865
832.645	0.0166808
832.723	0.0166660
832.801	0.0166019
832.879	0.0167064
832.957	0.0167530
833.035	0.0168097
833.113	0.0167889
833.192	0.0168858
833.270	0.0169260
833.348	0.0169038
833.426	0.0168774
833.504	0.0169996
833.582	0.0170193
833.660	0.0171030
833.738	0.0169413
833.817	0.0168777
833.895	0.0169692
833.973	0.0169299
834.051	0.0168977
834.129	0.0168056
834.207	0.0167770
834.285	0.0167812
834.363	0.0167087
834.442	0.0167046
834.520	0.0165516
834.598	0.0163624
834.676	0.0166335
834.754	0.0165968
834.832	0.0165268
834.910	0.0165186
834.988	0.0165291
835.067	0.0164931
835.145	0.0164632
835.223	0.0165871
835.301	0.0164999
835.379	0.0164988
835.457	0.0166798
835.535	0.0166888
835.613	0.0165218
835.692	0.0165492
835.770	0.0167118
835.848	0.0167548
835.926	0.0166197
836.004	0.0167362
836.082	0.0167518
836.160	0.0167673
836.238	0.0167451
836.317	0.0169060
836.395	0.0168785
836.473	0.0167741
836.551	0.0167975
836.629	0.0167733
836.707	0.0168065
836.785	0.0169171
836.863	0.0168195
836.942	0.0169423
837.020	0.0169083
837.098	0.0168353
837.176	0.0166419
837.254	0.0166184
837.332	0.0166113
837.410	0.0166255
837.488	0.0166711
837.567	0.0166502
837.645	0.0165355
837.723	0.0166747
837.801	0.0165539
837.879	0.0166852
837.957	0.0167475
838.035	0.0165742
838.113	0.0166649
838.192	0.0166692
838.270	0.0166373
838.348	0.0167252
838.426	0.0167193
838.504	0.0167872
838.582	0.0167954
838.660	0.0167981
838.738	0.0168105
838.817	0.0167243
838.895	0.0168853
838.973	0.0168484
839.051	0.0167749
839.129	0.0167653
839.207	0.0167510
839.285	0.0169346
839.363	0.0168639
839.442	0.0168204
839.520	0.0168422
839.598	0.0168890
839.676	0.0169460
839.754	0.0168184
839.832	0.0168197
839.910	0.0167830
839.988	0.0168835
840.067	0.0169618
840.145	0.0169806
840.223	0.0168764
840.301	0.0167806
840.379	0.0170894
840.457	0.0170239
840.535	0.0169565
840.613	0.0170825
840.692	0.0170175
840.770	0.0171378
840.848	0.0170255
840.926	0.0170825
841.004	0.0170499
841.082	0.0170698
841.160	0.0172378
841.238	0.0171548
841.317	0.0170536
841.395	0.0170330
841.473	0.0170501
841.551	0.0169706
841.629	0.0169981
841.707	0.0169506
841.785	0.0169725
841.863	0.0168852
841.942	0.0168008
842.020	0.0168671
842.098	0.0168679
842.176	0.0166962
842.254	0.0168099
842.332	0.0168651
842.410	0.0170472
842.488	0.0168594
842.567	0.0167964
842.645	0.0167719
842.723	0.0168915
842.801	0.0170321
842.879	0.0168329
842.957	0.0167953
843.035	0.0168116
843.113	0.0167280
843.192	0.0168945
843.270	0.0168449
843.348	0.0167252
843.426	0.0166179
843.504	0.0165841
843.582	0.0166267
843.660	0.0168427
843.738	0.0166940
843.817	0.0166707
843.895	0.0166201
843.973	0.0166465
844.051	0.0167297
844.129	0.0166447
844.207	0.0165652
844.285	0.0165614
844.363	0.0167094
844.442	0.0166171
844.520	0.0164568
844.598	0.0166763
844.676	0.0167677
844.754	0.0168167
844.832	0.0167607
844.910	0.0167464
844.988	0.0167399
845.067	0.0166165
845.145	0.0167021
845.223	0.0166669
845.301	0.0166470
845.379	0.0167924
845.457	0.0167064
845.535	0.0166286
845.613	0.0167987
845.692	0.0168185
845.770	0.0167648
845.848	0.0168366
845.926	0.0168788
846.004	0.0166827
846.082	0.0166035
846.160	0.0167712
846.238	0.0167157
846.317	0.0167311
846.395	0.0168089
846.473	0.0166017
846.551	0.0166826
846.629	0.0166215
846.707	0.0165006
846.785	0.0165469
846.863	0.0167314
846.942	0.0167143
847.020	0.0166694
847.098	0.0167629
847.176	0.0167883
847.254	0.0168426
847.332	0.0167285
847.410	0.0168810
847.488	0.0168530
847.567	0.0169695
847.645	0.0169608
847.723	0.0169595
847.801	0.0168498
847.879	0.0169411
847.957	0.0170010
848.035	0.0170754
848.113	0.0170335
848.192	0.0170648
848.270	0.0170274
848.348	0.0170184
848.426	0.0170913
848.504	0.0172316
848.582	0.0171356
848.660	0.0170264
848.738	0.0169525
848.817	0.0171195
848.895	0.0169685
848.973	0.0169270
849.051	0.0168178
849.129	0.0168024
849.207	0.0168427
849.285	0.0167710
849.363	0.0168583
849.442	0.0167847
849.520	0.0166624
849.598	0.0166991
849.676	0.0167360
849.754	0.0167779
849.832	0.0166371
849.910	0.0165656
849.988	0.0168092
850.067	0.0167155
850.145	0.0166155
850.223	0.0165778
850.301	0.0167496
850.379	0.0167712
850.457	0.0167920
850.535	0.0166844
850.613	0.0167500
850.692	0.0167230
850.770	0.0167123
850.848	0.0168253
850.926	0.0167172
851.004	0.0169639
851.082	0.0168961
851.160	0.0168333
851.238	0.0167899
851.317	0.0168179
851.395	0.0169264
851.473	0.0167842
851.551	0.0168576
851.629	0.0167555
851.707	0.0167433
851.785	0.0169371
851.863	0.0169000
851.942	0.0167297
852.020	0.0166343
852.098	0.0167094
852.176	0.0166384
852.254	0.0164990
852.332	0.0165371
852.410	0.0165434
852.488	0.0164480
852.567	0.0164005
852.645	0.0165795
852.723	0.0163898
852.801	0.0165654
852.879	0.0164523
852.957	0.0164983
853.035	0.0164095
853.113	0.0166501
853.192	0.0165171
853.270	0.0166117
853.348	0.0165653
853.426	0.0165522
853.504	0.0166925
853.582	0.0165966
853.660	0.0166304
853.738	0.0165960
853.817	0.0167299
853.895	0.0166474
853.973	0.0165966
854.051	0.0166024
854.129	0.0167484
854.207	0.0167312
854.285	0.0167668
854.363	0.0166849
854.442	0.0166457
854.520	0.0166984
854.598	0.0167873
854.676	0.0169226
854.754	0.0168078
854.832	0.0167263
854.910	0.0167122
854.988	0.0166709
855.067	0.0167020
855.145	0.0167120
855.223	0.0165599
855.301	0.0166486
855.379	0.0168192
855.457	0.0166879
855.535	0.0165886
855.613	0.0165502
855.692	0.0166373
855.770	0.0166478
855.848	0.0167093
855.926	0.0166048
856.004	0.0165940
856.082	0.0165208
856.160	0.0165681
856.238	0.0165779
856.317	0.0166238
856.395	0.0166933
856.473	0.0167031
856.551	0.0165894
856.629	0.0165841
856.707	0.0167704
856.785	0.0166961
856.863	0.0167399
856.942	0.0167146
857.020	0.0167307
857.098	0.0166685
857.176	0.0167866
857.254	0.0167380
857.332	0.0167385
857.410	0.0167355
857.488	0.0167558
857.567	0.0169043
857.645	0.0168804
857.723	0.0168694
857.801	0.0169420
857.879	0.0169531
857.957	0.0169310
858.035	0.0168768
858.113	0.0168678
858.192	0.0170409
858.270	0.0169582
858.348	0.0170329
858.426	0.0170319
858.504	0.0169299
858.582	0.0169508
858.660	0.0169186
858.738	0.0170627
858.817	0.0170016
858.895	0.0168910
858.973	0.0169497
859.051	0.0169438
859.129	0.0170786
859.207	0.0169620
859.285	0.0170301
859.363	0.0169397
859.442	0.0167931
859.520	0.0167859
859.598	0.0169892
859.676	0.0169441
859.754	0.0166853
859.832	0.0169122
859.910	0.0167982
859.988	0.0165741
860.067	0.0165765
860.145	0.0167725
860.223	0.0165562
860.301	0.0165530
860.379	0.0165371
860.457	0.0164979
860.535	0.0164284
860.613	0.0164443
860.692	0.0164449
860.770	0.0163354
860.848	0.0163143
860.926	0.0163635
861.004	0.0162371
861.082	0.0162919
861.160	0.0163827
861.238	0.0163730
861.317	0.0162978
861.395	0.0164206
861.473	0.0165405
861.551	0.0166302
861.629	0.0164859
861.707	0.0165997
861.785	0.0165393
861.863	0.0167606
861.942	0.0167212
862.020	0.0166741
862.098	0.0166442
862.176	0.0166847
862.254	0.0165987
862.332	0.0166788
862.410	0.0167881
862.488	0.0167619
862.567	0.0168197
862.645	0.0168668
862.723	0.0168174
862.801	0.0167080
862.879	0.0167874
862.957	0.0167989
863.035	0.0168140
863.113	0.0169002
863.192	0.0169032
863.270	0.0169580
863.348	0.0170906
863.426	0.0169441
863.504	0.0168901
863.582	0.0168992
863.660	0.0168430
863.738	0.0167866
863.817	0.0170365
863.895	0.0170033
863.973	0.0168912
864.051	0.0168645
864.129	0.0169548
864.207	0.0169267
864.285	0.0168524
864.363	0.0170579
864.442	0.0169827
864.520	0.0168058
864.598	0.0169727
864.676	0.0169868
864.754	0.0169861
864.832	0.0171332
864.910	0.0169754
864.988	0.0169066
865.067	0.0168457
865.145	0.0168627
865.223	0.0169488
865.301	0.0170943
865.379	0.0168066
865.457	0.0169421
865.535	0.0169655
865.613	0.0169492
865.692	0.0167249
865.770	0.0169716
865.848	0.0166572
865.926	0.0169022
866.004	0.0169313
866.082	0.0168239
866.160	0.0167628
866.238	0.0167407
866.317	0.0167509
866.395	0.0167445
866.473	0.0168235
866.551	0.0166850
866.629	0.0166656
866.707	0.0166698
866.785	0.0165565
866.863	0.0166092
866.942	0.0165526
867.020	0.0166647
867.098	0.0166009
867.176	0.0165506
867.254	0.0166652
867.332	0.0165862
867.410	0.0167167
867.488	0.0165771
867.567	0.0166107
867.645	0.0165916
867.723	0.0164395
867.801	0.0165747
867.879	0.0164671
867.957	0.0165395
868.035	0.0163860
868.113	0.0165706
868.192	0.0165318
868.270	0.0164675
868.348	0.0164001
868.426	0.0164250
868.504	0.0164983
868.582	0.0165744
868.660	0.0165968
868.738	0.0163947
868.817	0.0164908
868.895	0.0165881
868.973	0.0166070
869.051	0.0166186
869.129	0.0164442
869.207	0.0166136
869.285	0.0166045
869.363	0.0164140
869.442	0.0165441
869.520	0.0164931
869.598	0.0165566
869.676	0.0165839
869.754	0.0165603
869.832	0.0165422
869.910	0.0165660
869.988	0.0165708
870.067	0.0166758
870.145	0.0167805
870.223	0.0165287
870.301	0.0166907
870.379	0.0168394
870.457	0.0166920
870.535	0.0164983
870.613	0.0167666
870.692	0.0167758
870.770	0.0167793
870.848	0.0167780
870.926	0.0167184
871.004	0.0167142
871.082	0.0166892
871.160	0.0167380
871.238	0.0168573
871.317	0.0167348
871.395	0.0167332
871.473	0.0168082
871.551	0.0169510
871.629	0.0168044
871.707	0.0169039
871.785	0.0169532
871.863	0.0168072
871.942	0.0168645
872.020	0.0169553
872.098	0.0170145
872.176	0.0170264
872.254	0.0168254
872.332	0.0168812
872.410	0.0170021
872.488	0.0169456
872.567	0.0169734
872.645	0.0170176
872.723	0.0169794
872.801	0.0169955
872.879	0.0169249
872.957	0.0169514
873.035	0.0170152
873.113	0.0168417
873.192	0.0169360
873.270	0.0168002
873.348	0.0167879
873.426	0.0167806
873.504	0.0165599
873.582	0.0167217
873.660	0.0164138
873.738	0.0164980
873.817	0.0166441
873.895	0.0166641
873.973	0.0165647
874.051	0.0166413
874.129	0.0166447
874.207	0.0165870
874.285	0.0166711
874.363	0.0165836
874.442	0.0166805
874.520	0.0167120
874.598	0.0167162
874.676	0.0166181
874.754	0.0166714
874.832	0.0166416
874.910	0.0167796
874.988	0.0167932
875.067	0.0168323
875.145	0.0168286
875.223	0.0168301
875.301	0.0168134
875.379	0.0167311
875.457	0.0168117
875.535	0.0167905
875.613	0.0167747
875.692	0.0167614
875.770	0.0167802
875.848	0.0166444
875.926	0.0166712
876.004	0.0164749
876.082	0.0164993
876.160	0.0165229
876.238	0.0164861
876.317	0.0165015
876.395	0.0164048
876.473	0.0166128
876.551	0.0165506
876.629	0.0165067
876.707	0.0164793
876.785	0.0165137
876.863	0.0165276
876.942	0.0166428
877.020	0.0167281
877.098	0.0165710
877.176	0.0166313
877.254	0.0165797
877.332	0.0166682
877.410	0.0166309
877.488	0.0165775
877.567	0.0166346
877.645	0.0167700
877.723	0.0165609
877.801	0.0166844
877.879	0.0166142
877.957	0.0166136
878.035	0.0166648
878.113	0.0166640
878.192	0.0166495
878.270	0.0166486
878.348	0.0165516
878.426	0.0167000
878.504	0.0165833
878.582	0.0166197
878.660	0.0166534
878.738	0.0166242
878.817	0.0165578
878.895	0.0167058
878.973	0.0167730
879.051	0.0166523
879.129	0.0166175
879.207	0.0166733
879.285	0.0166981
879.363	0.0166473
879.442	0.0166058
879.520	0.0166219
879.598	0.0166833
879.676	0.0168069
879.754	0.0167476
879.832	0.0168391
879.910	0.0167208
879.988	0.0167364
880.067	0.0169149
880.145	0.0168734
880.223	0.0168013
880.301	0.0169083
880.379	0.0167511
880.457	0.0168140
880.535	0.0169313
880.613	0.0167090
880.692	0.0168122
880.770	0.0168076
880.848	0.0167583
880.926	0.0166564
881.004	0.0165869
881.082	0.0167330
881.160	0.0166915
881.238	0.0165194
881.317	0.0165057
881.395	0.0165592
881.473	0.0165391
881.551	0.0163582
881.629	0.0162051
881.707	0.0162692
881.785	0.0162589
881.863	0.0162300
881.942	0.0163377
882.020	0.0164017
882.098	0.0163480
882.176	0.0163200
882.254	0.0163911
882.332	0.0163042
882.410	0.0164163
882.488	0.0163749
882.567	0.0164170
882.645	0.0164536
882.723	0.0164011
882.801	0.0164676
882.879	0.0164086
882.957	0.0164571
883.035	0.0164990
883.113	0.0164948
883.192	0.0165231
883.270	0.0164818
883.348	0.0165302
883.426	0.0165135
883.504	0.0165351
883.582	0.0165224
883.660	0.0167587
883.738	0.0167178
883.817	0.0165754
883.895	0.0166199
883.973	0.0166137
884.051	0.0165425
884.129	0.0164874
884.207	0.0166569
884.285	0.0167578
884.363	0.0168640
884.442	0.0167290
884.520	0.0166758
884.598	0.0167193
884.676	0.0167725
884.754	0.0167730
884.832	0.0167068
884.910	0.0165427
884.988	0.0165805
885.067	0.0167632
885.145	0.0166685
885.223	0.0166825
885.301	0.0165817
885.379	0.0165773
885.457	0.0165359
885.535	0.0166747
885.613	0.0165816
885.692	0.0164674
885.770	0.0166508
885.848	0.0166109
885.926	0.0167458
886.004	0.0166241
886.082	0.0166866
886.160	0.0166978
886.238	0.0165919
886.317	0.0167054
886.395	0.0168106
886.473	0.0167068
886.551	0.0168459
886.629	0.0166934
886.707	0.0165868
886.785	0.0166740
886.863	0.0167980
886.942	0.0166763
887.020	0.0166243
887.098	0.0167340
887.176	0.0167985
887.254	0.0167583
887.332	0.0167538
887.410	0.0168067
887.488	0.0167358
887.567	0.0168723
887.645	0.0168434
887.723	0.0167663
887.801	0.0168193
887.879	0.0167763
887.957	0.0169713
888.035	0.0168974
888.113	0.0169031
888.192	0.0168246
888.270	0.0168003
888.348	0.0167994
888.426	0.0168818
888.504	0.0168323
888.582	0.0167308
888.660	0.0167707
888.738	0.0166697
888.817	0.0166738
888.895	0.0166574
888.973	0.0166480
889.051	0.0166321
889.129	0.0166086
889.207	0.0165206
889.285	0.0165438
889.363	0.0165850
889.442	0.0166380
889.520	0.0165515
889.598	0.0164415
889.676	0.0164226
889.754	0.0165405
889.832	0.0167511
889.910	0.0166241
889.988	0.0164655
890.067	0.0164732
890.145	0.0165646
890.223	0.0165096
890.301	0.0163858
890.379	0.0164576
890.457	0.0166040
890.535	0.0165951
890.613	0.0164223
890.692	0.0165633
890.770	0.0164996
890.848	0.0165990
890.926	0.0167368
891.004	0.0166406
891.082	0.0167387
891.160	0.0166913
891.238	0.0167513
891.317	0.0166046
891.395	0.0167052
891.473	0.0168129
891.551	0.0169211
891.629	0.0167982
891.707	0.0168702
891.785	0.0169632
891.863	0.0168520
891.942	0.0168328
892.020	0.0167964
892.098	0.0168102
892.176	0.0168220
892.254	0.0168767
892.332	0.0167886
892.410	0.0168124
892.488	0.0168418
892.567	0.0167815
892.645	0.0166289
892.723	0.0168685
892.801	0.0166816
892.879	0.0168145
892.957	0.0167484
893.035	0.0167201
893.113	0.0166547
893.192	0.0167122
893.270	0.0166319
893.348	0.0165145
893.426	0.0167004
893.504	0.0167196
893.582	0.0167710
893.660	0.0166204
893.738	0.0167231
893.817	0.0166500
893.895	0.0165909
893.973	0.0168414
894.051	0.0167242
894.129	0.0168299
894.207	0.0167844
894.285	0.0167767
894.363	0.0166698
894.442	0.0166521
894.520	0.0169362
894.598	0.0167717
894.676	0.0169099
894.754	0.0169270
894.832	0.0167645
894.910	0.0167976
894.988	0.0169732
895.067	0.0169374
895.145	0.0169076
895.223	0.0169126
895.301	0.0169274
895.379	0.0168910
895.457	0.0169256
895.535	0.0167458
895.613	0.0169035
895.692	0.0168746
895.770	0.0170224
895.848	0.0170444
895.926	0.0167987
896.004	0.0167738
896.082	0.0167596
896.160	0.0166420
896.238	0.0166612
896.317	0.0166935
896.395	0.0167190
896.473	0.0166241
896.551	0.0167199
896.629	0.0168417
896.707	0.0168498
896.785	0.0166805
896.863	0.0166951
896.942	0.0167215
897.020	0.0167439
897.098	0.0165804
897.176	0.0166731
897.254	0.0167649
897.332	0.0167103
897.410	0.0167789
897.488	0.0166486
897.567	0.0167419
897.645	0.0167783
897.723	0.0167284
897.801	0.0168458
897.879	0.0166374
897.957	0.0167570
898.035	0.0166936
898.113	0.0166967
898.192	0.0166232
898.270	0.0166756
898.348	0.0166164
898.426	0.0166814
898.504	0.0165604
898.582	0.0165334
898.660	0.0166418
898.738	0.0165489
898.817	0.0165321
898.895	0.0164540
898.973	0.0165163
899.051	0.0163802
899.129	0.0164422
899.207	0.0165409
899.285	0.0166193
899.363	0.0163833
899.442	0.0163999
899.520	0.0166278
899.598	0.0165752
899.676	0.0165224
899.754	0.0164906
899.832	0.0165952
899.910	0.0167588
899.988	0.0167154
900.067	0.0167569
900.145	0.0167413
900.223	0.0167977
900.301	0.0168425
900.379	0.0168454
900.457	0.0168321
900.535	0.0169058
900.613	0.0169548
900.692	0.0168283
900.770	0.0167741
900.848	0.0168781
900.926	0.0169998
901.004	0.0169420
901.082	0.0168772
901.160	0.0168238
901.238	0.0168538
901.317	0.0170865
901.395	0.0169473
901.473	0.0169295
901.551	0.0169087
901.629	0.0169723
901.707	0.0169231
901.785	0.0169511
901.863	0.0169835
901.942	0.0169360
902.020	0.0168931
902.098	0.0168916
902.176	0.0169565
902.254	0.0168208
902.332	0.0167345
902.410	0.0167789
902.488	0.0168095
902.567	0.0168571
902.645	0.0168215
902.723	0.0169136
902.801	0.0167691
902.879	0.0167301
902.957	0.0167659
903.035	0.0167536
903.113	0.0168560
903.192	0.0166360
903.270	0.0166454
903.348	0.0168981
903.426	0.0168690
903.504	0.0167129
903.582	0.0168497
903.660	0.0167701
903.738	0.0168291
903.817	0.0167616
903.895	0.0166519
903.973	0.0167146
904.051	0.0168026
904.129	0.0167391
904.207	0.0167192
904.285	0.0166631
904.363	0.0166481
904.442	0.0166193
904.520	0.0166343
904.598	0.0164473
904.676	0.0165712
904.754	0.0165578
904.832	0.0164838
904.910	0.0164421
904.988	0.0165739
905.067	0.0165448
905.145	0.0164471
905.223	0.0164675
905.301	0.0165051
905.379	0.0164560
905.457	0.0163948
905.535	0.0165143
905.613	0.0167229
905.692	0.0166293
905.770	0.0166873
905.848	0.0166097
905.926	0.0166754
906.004	0.0166254
906.082	0.0166972
906.160	0.0169048
906.238	0.0168940
906.317	0.0168374
906.395	0.0168268
906.473	0.0170021
906.551	0.0169022
906.629	0.0168417
906.707	0.0169837
906.785	0.0169862
906.863	0.0169643
906.942	0.0168790
907.020	0.0169444
907.098	0.0169695
907.176	0.0168809
907.254	0.0169038
907.332	0.0170607
907.410	0.0168117
907.488	0.0167505
907.567	0.0169623
907.645	0.0168909
907.723	0.0168748
907.801	0.0168221
907.879	0.0169254
907.957	0.0169355
908.035	0.0166770
908.113	0.0166999
908.192	0.0168951
908.270	0.0169193
908.348	0.0167900
908.426	0.0167052
908.504	0.0168452
908.582	0.0167342
908.660	0.0167518
908.738	0.0167594
908.817	0.0167365
908.895	0.0166129
908.973	0.0165749
909.051	0.0166691
909.129	0.0165772
909.207	0.0165932
909.285	0.0165070
909.363	0.0165642
909.442	0.0165005
909.520	0.0166197
909.598	0.0165218
909.676	0.0164590
909.754	0.0166187
909.832	0.0166320
909.910	0.0166096
909.988	0.0165327
910.067	0.0164473
910.145	0.0166338
910.223	0.0165150
910.301	0.0165692
910.379	0.0165723
910.457	0.0165910
910.535	0.0165943
910.613	0.0167343
910.692	0.0166895
910.770	0.0166098
910.848	0.0166557
910.926	0.0166972
911.004	0.0166124
911.082	0.0166647
911.160	0.0165134
911.238	0.0166857
911.317	0.0166922
911.395	0.0165240
911.473	0.0166690
911.551	0.0167123
911.629	0.0165425
911.707	0.0166122
911.785	0.0166436
911.863	0.0167410
911.942	0.0166891
912.020	0.0166117
912.098	0.0167218
912.176	0.0167358
912.254	0.0165771
912.332	0.0167014
912.410	0.0167078
912.488	0.0167837
912.567	0.0167210
912.645	0.0166978
912.723	0.0167118
912.801	0.0167897
912.879	0.0167144
912.957	0.0167444
913.035	0.0167468
913.113	0.0167569
913.192	0.0167036
913.270	0.0168362
913.348	0.0168286
913.426	0.0168219
913.504	0.0168977
913.582	0.0167459
913.660	0.0167574
913.738	0.0167916
913.817	0.0167632
913.895	0.0166843
913.973	0.0167818
914.051	0.0169302
914.129	0.0168490
914.207	0.0166603
914.285	0.0167748
914.363	0.0167893
914.442	0.0166951
914.520	0.0168802
914.598	0.0168060
914.676	0.0168149
914.754	0.0169259
914.832	0.0167858
914.910	0.0168110
914.988	0.0168678
915.067	0.0169504
915.145	0.0169309
915.223	0.0170018
915.301	0.0168484
915.379	0.0168661
915.457	0.0169096
915.535	0.0166961
915.613	0.0168496
915.692	0.0167638
915.770	0.0168402
915.848	0.0169840
915.926	0.0168759
916.004	0.0167024
916.082	0.0168129
916.160	0.0166450
916.238	0.0166985
916.317	0.0168022
916.395	0.0166290
916.473	0.0165343
916.551	0.0167049
916.629	0.0168462
916.707	0.0167615
916.785	0.0166698
916.863	0.0167886
916.942	0.0167840
917.020	0.0167655
917.098	0.0168169
917.176	0.0168334
917.254	0.0167570
917.332	0.0168382
917.410	0.0168037
917.488	0.0167306
917.567	0.0168694
917.645	0.0169241
917.723	0.0168903
917.801	0.0169329
917.879	0.0167625
917.957	0.0168135
918.035	0.0168342
918.113	0.0166863
918.192	0.0169630
918.270	0.0168539
918.348	0.0168335
918.426	0.0167078
918.504	0.0167562
918.582	0.0168797
918.660	0.0166734
918.738	0.0168642
918.817	0.0167032
918.895	0.0168113
918.973	0.0168089
919.051	0.0168124
919.129	0.0167957
919.207	0.0168310
919.285	0.0168752
919.363	0.0167964
919.442	0.0168502
919.520	0.0167502
919.598	0.0168513
919.676	0.0168309
919.754	0.0168316
919.832	0.0168629
919.910	0.0168277
