05/24/2022	20:38:11	Ver.	4.1	UNKNOWN
Optical Delay	599.981738	Delta X		0.078125	Sweeps	1	Scan Rate	0/0
Coordinates	Axis 1	NaN	Axis 2	NaN	Axis 3	NaN	Axis 4	NaN	Axis 5	NaN	Axis 6	0.000000
TX Power	0.000000	RX Power	0.000000

599.982	0.0169777
600.060	0.0171419
600.138	0.0170892
600.216	0.0170849
600.294	0.0169742
600.372	0.0169931
600.450	0.0169797
600.529	0.0168835
600.607	0.0168282
600.685	0.0169165
600.763	0.0167709
600.841	0.0168580
600.919	0.0166781
600.997	0.0168539
601.075	0.0166695
601.154	0.0166117
601.232	0.0167207
601.310	0.0166672
601.388	0.0165030
601.466	0.0168147
601.544	0.0166737
601.622	0.0165529
601.700	0.0166226
601.779	0.0166437
601.857	0.0166266
601.935	0.0164725
602.013	0.0166409
602.091	0.0165940
602.169	0.0165644
602.247	0.0166251
602.325	0.0165325
602.404	0.0167441
602.482	0.0167149
602.560	0.0166113
602.638	0.0165437
602.716	0.0165815
602.794	0.0165894
602.872	0.0165981
602.950	0.0164885
603.029	0.0164796
603.107	0.0165238
603.185	0.0164875
603.263	0.0165224
603.341	0.0165768
603.419	0.0164731
603.497	0.0164510
603.575	0.0164127
603.654	0.0164369
603.732	0.0165985
603.810	0.0165993
603.888	0.0164892
603.966	0.0165201
604.044	0.0166888
604.122	0.0166058
604.200	0.0165575
604.279	0.0167451
604.357	0.0166713
604.435	0.0165325
604.513	0.0166061
604.591	0.0166267
604.669	0.0165535
604.747	0.0164603
604.825	0.0166013
604.904	0.0166050
604.982	0.0165204
605.060	0.0165499
605.138	0.0165722
605.216	0.0165804
605.294	0.0165446
605.372	0.0164628
605.450	0.0164341
605.529	0.0164367
605.607	0.0164730
605.685	0.0164516
605.763	0.0165232
605.841	0.0163544
605.919	0.0164421
605.997	0.0164648
606.075	0.0164449
606.154	0.0163416
606.232	0.0163168
606.310	0.0164207
606.388	0.0164570
606.466	0.0165250
606.544	0.0163048
606.622	0.0165044
606.700	0.0164500
606.779	0.0163723
606.857	0.0165716
606.935	0.0166496
607.013	0.0165046
607.091	0.0166309
607.169	0.0165630
607.247	0.0167937
607.325	0.0167259
607.404	0.0166653
607.482	0.0166207
607.560	0.0165743
607.638	0.0165087
607.716	0.0166524
607.794	0.0165861
607.872	0.0164165
607.950	0.0164842
608.029	0.0165531
608.107	0.0164992
608.185	0.0164921
608.263	0.0163744
608.341	0.0163509
608.419	0.0163820
608.497	0.0164461
608.575	0.0164705
608.654	0.0165137
608.732	0.0165334
608.810	0.0166365
608.888	0.0165317
608.966	0.0166563
609.044	0.0167268
609.122	0.0165775
609.200	0.0166514
609.279	0.0167129
609.357	0.0165806
609.435	0.0166790
609.513	0.0165628
609.591	0.0165275
609.669	0.0165446
609.747	0.0166035
609.825	0.0164648
609.904	0.0165266
609.982	0.0166279
610.060	0.0164687
610.138	0.0164198
610.216	0.0165231
610.294	0.0164487
610.372	0.0164993
610.450	0.0164449
610.529	0.0165012
610.607	0.0165192
610.685	0.0165118
610.763	0.0166278
610.841	0.0165968
610.919	0.0165527
610.997	0.0167189
611.075	0.0164481
611.154	0.0165002
611.232	0.0165853
611.310	0.0166643
611.388	0.0164163
611.466	0.0166326
611.544	0.0166230
611.622	0.0165150
611.700	0.0165501
611.779	0.0165858
611.857	0.0165799
611.935	0.0165640
612.013	0.0164317
612.091	0.0166007
612.169	0.0165445
612.247	0.0164019
612.325	0.0164022
612.404	0.0163751
612.482	0.0164262
612.560	0.0163116
612.638	0.0164211
612.716	0.0164142
612.794	0.0165192
612.872	0.0163672
612.950	0.0164845
613.029	0.0164691
613.107	0.0164776
613.185	0.0164682
613.263	0.0165292
613.341	0.0165633
613.419	0.0165143
613.497	0.0165620
613.575	0.0167542
613.654	0.0164828
613.732	0.0164802
613.810	0.0164973
613.888	0.0165604
613.966	0.0166553
614.044	0.0165810
614.122	0.0163947
614.200	0.0164519
614.279	0.0164520
614.357	0.0164973
614.435	0.0165605
614.513	0.0166208
614.591	0.0165038
614.669	0.0164142
614.747	0.0166030
614.825	0.0165812
614.904	0.0165554
614.982	0.0166812
615.060	0.0164762
615.138	0.0165708
615.216	0.0165156
615.294	0.0165560
615.372	0.0164311
615.450	0.0165649
615.529	0.0165164
615.607	0.0165000
615.685	0.0164799
615.763	0.0165657
615.841	0.0164526
615.919	0.0164735
615.997	0.0164972
616.075	0.0164108
616.154	0.0165049
616.232	0.0164244
616.310	0.0164852
616.388	0.0164439
616.466	0.0163961
616.544	0.0165177
616.622	0.0164938
616.700	0.0165450
616.779	0.0164736
616.857	0.0165446
616.935	0.0165600
617.013	0.0165141
617.091	0.0164342
617.169	0.0165565
617.247	0.0165518
617.325	0.0166351
617.404	0.0165269
617.482	0.0165896
617.560	0.0165966
617.638	0.0165601
617.716	0.0165157
617.794	0.0165079
617.872	0.0165056
617.950	0.0163396
618.029	0.0163656
618.107	0.0164774
618.185	0.0165334
618.263	0.0164627
618.341	0.0165233
618.419	0.0163799
618.497	0.0165556
618.575	0.0163927
618.654	0.0165218
618.732	0.0167106
618.810	0.0165883
618.888	0.0166870
618.966	0.0166525
619.044	0.0165724
619.122	0.0166059
619.200	0.0166961
619.279	0.0167081
619.357	0.0166299
619.435	0.0166093
619.513	0.0168395
619.591	0.0168265
619.669	0.0167493
619.747	0.0167480
619.825	0.0167409
619.904	0.0167501
619.982	0.0167511
620.060	0.0166673
620.138	0.0166112
620.216	0.0166628
620.294	0.0168322
620.372	0.0166644
620.450	0.0166579
620.529	0.0167289
620.607	0.0168661
620.685	0.0168387
620.763	0.0168201
620.841	0.0169067
620.919	0.0168822
620.997	0.0168173
621.075	0.0167683
621.154	0.0168092
621.232	0.0169685
621.310	0.0169474
621.388	0.0168092
621.466	0.0168887
621.544	0.0167996
621.622	0.0168313
621.700	0.0167504
621.779	0.0168078
621.857	0.0169387
621.935	0.0168584
622.013	0.0167726
622.091	0.0168002
622.169	0.0167614
622.247	0.0166949
622.325	0.0167908
622.404	0.0168224
622.482	0.0168187
622.560	0.0167258
622.638	0.0168397
622.716	0.0168624
622.794	0.0167377
622.872	0.0167032
622.950	0.0167169
623.029	0.0167571
623.107	0.0167081
623.185	0.0167857
623.263	0.0168918
623.341	0.0168394
623.419	0.0167757
623.497	0.0168227
623.575	0.0169160
623.654	0.0168766
623.732	0.0167813
623.810	0.0167097
623.888	0.0168802
623.966	0.0168770
624.044	0.0168474
624.122	0.0168384
624.200	0.0168336
624.279	0.0167985
624.357	0.0168724
624.435	0.0169618
624.513	0.0166788
624.591	0.0168108
624.669	0.0167425
624.747	0.0166033
624.825	0.0166785
624.904	0.0166823
624.982	0.0166774
625.060	0.0166203
625.138	0.0165884
625.216	0.0165388
625.294	0.0166683
625.372	0.0166478
625.450	0.0165710
625.529	0.0164870
625.607	0.0165569
625.685	0.0165580
625.763	0.0166838
625.841	0.0167245
625.919	0.0165311
625.997	0.0165131
626.075	0.0165565
626.154	0.0165689
626.232	0.0165573
626.310	0.0167148
626.388	0.0165099
626.466	0.0165931
626.544	0.0166078
626.622	0.0166579
626.700	0.0167020
626.779	0.0167909
626.857	0.0166911
626.935	0.0167645
627.013	0.0167638
627.091	0.0167394
627.169	0.0166983
627.247	0.0166087
627.325	0.0165271
627.404	0.0165774
627.482	0.0165573
627.560	0.0165807
627.638	0.0165165
627.716	0.0165202
627.794	0.0165333
627.872	0.0166281
627.950	0.0166738
628.029	0.0167252
628.107	0.0165987
628.185	0.0167241
628.263	0.0167825
628.341	0.0167113
628.419	0.0166597
628.497	0.0167050
628.575	0.0165742
628.654	0.0166741
628.732	0.0166417
628.810	0.0165860
628.888	0.0165878
628.966	0.0165826
629.044	0.0166778
629.122	0.0165884
629.200	0.0166289
629.279	0.0166060
629.357	0.0166362
629.435	0.0165407
629.513	0.0164993
629.591	0.0166914
629.669	0.0166938
629.747	0.0166072
629.825	0.0166732
629.904	0.0166325
629.982	0.0165930
630.060	0.0164692
630.138	0.0163203
630.216	0.0164863
630.294	0.0164407
630.372	0.0164893
630.450	0.0164616
630.529	0.0163599
630.607	0.0163779
630.685	0.0163255
630.763	0.0164625
630.841	0.0163342
630.919	0.0164468
630.997	0.0164439
631.075	0.0164706
631.154	0.0164780
631.232	0.0165773
631.310	0.0166179
631.388	0.0165257
631.466	0.0164914
631.544	0.0165105
631.622	0.0166103
631.700	0.0165220
631.779	0.0165303
631.857	0.0165779
631.935	0.0164399
632.013	0.0166111
632.091	0.0165672
632.169	0.0164557
632.247	0.0166226
632.325	0.0165916
632.404	0.0165855
632.482	0.0165669
632.560	0.0167340
632.638	0.0166434
632.716	0.0166129
632.794	0.0166935
632.872	0.0166348
632.950	0.0165956
633.029	0.0165491
633.107	0.0164206
633.185	0.0164105
633.263	0.0164035
633.341	0.0162274
633.419	0.0163544
633.497	0.0162492
633.575	0.0164169
633.654	0.0164742
633.732	0.0164082
633.810	0.0165276
633.888	0.0165872
633.966	0.0166939
634.044	0.0167437
634.122	0.0167700
634.200	0.0169385
634.279	0.0169240
634.357	0.0170829
634.435	0.0172311
634.513	0.0171782
634.591	0.0171668
634.669	0.0171310
634.747	0.0173490
634.825	0.0173191
634.904	0.0172022
634.982	0.0172148
635.060	0.0171124
635.138	0.0170724
635.216	0.0169538
635.294	0.0169142
635.372	0.0166958
635.450	0.0168288
635.529	0.0164980
635.607	0.0164509
635.685	0.0164078
635.763	0.0163188
635.841	0.0160710
635.919	0.0159327
635.997	0.0158568
636.075	0.0157863
636.154	0.0156661
636.232	0.0157162
636.310	0.0156343
636.388	0.0156332
636.466	0.0155993
636.544	0.0154802
636.622	0.0157640
636.700	0.0157275
636.779	0.0158667
636.857	0.0157934
636.935	0.0159890
637.013	0.0161666
637.091	0.0162761
637.169	0.0163068
637.247	0.0165806
637.325	0.0168736
637.404	0.0169593
637.482	0.0170110
637.560	0.0173003
637.638	0.0175167
637.716	0.0176897
637.794	0.0176914
637.872	0.0179282
637.950	0.0179069
638.029	0.0178693
638.107	0.0179259
638.185	0.0178948
638.263	0.0178081
638.341	0.0177052
638.419	0.0175378
638.497	0.0174345
638.575	0.0172289
638.654	0.0170874
638.732	0.0168918
638.810	0.0167136
638.888	0.0162328
638.966	0.0160520
639.044	0.0158152
639.122	0.0153696
639.200	0.0152122
639.279	0.0150706
639.357	0.0148061
639.435	0.0144828
639.513	0.0144095
639.591	0.0142416
639.669	0.0141885
639.747	0.0143903
639.825	0.0143816
639.904	0.0145779
639.982	0.0147775
640.060	0.0149622
640.138	0.0152583
640.216	0.0156911
640.294	0.0158015
640.372	0.0162984
640.450	0.0165179
640.529	0.0168508
640.607	0.0172650
640.685	0.0177866
640.763	0.0182311
640.841	0.0184701
640.919	0.0187874
640.997	0.0192336
641.075	0.0194720
641.154	0.0198012
641.232	0.0200541
641.310	0.0202102
641.388	0.0201582
641.466	0.0202121
641.544	0.0201283
641.622	0.0199207
641.700	0.0197057
641.779	0.0195378
641.857	0.0189642
641.935	0.0186176
642.013	0.0182225
642.091	0.0176357
642.169	0.0172616
642.247	0.0167155
642.325	0.0161655
642.404	0.0158959
642.482	0.0154100
642.560	0.0150106
642.638	0.0147237
642.716	0.0143996
642.794	0.0141341
642.872	0.0137672
642.950	0.0138477
643.029	0.0136864
643.107	0.0135764
643.185	0.0135857
643.263	0.0139114
643.341	0.0138463
643.419	0.0140981
643.497	0.0143994
643.575	0.0147356
643.654	0.0150388
643.732	0.0154537
643.810	0.0157864
643.888	0.0162847
643.966	0.0165931
644.044	0.0169631
644.122	0.0172667
644.200	0.0176878
644.279	0.0181147
644.357	0.0183644
644.435	0.0185434
644.513	0.0186614
644.591	0.0188249
644.669	0.0188469
644.747	0.0188903
644.825	0.0189651
644.904	0.0188157
644.982	0.0186480
645.060	0.0185358
645.138	0.0182881
645.216	0.0181444
645.294	0.0179646
645.372	0.0177933
645.450	0.0174817
645.529	0.0172809
645.607	0.0170628
645.685	0.0168258
645.763	0.0165926
645.841	0.0162887
645.919	0.0160377
645.997	0.0158356
646.075	0.0158635
646.154	0.0156163
646.232	0.0154298
646.310	0.0155058
646.388	0.0154424
646.466	0.0153336
646.544	0.0153802
646.622	0.0154383
646.700	0.0154455
646.779	0.0154562
646.857	0.0154562
646.935	0.0154339
647.013	0.0156878
647.091	0.0156617
647.169	0.0157468
647.247	0.0157979
647.325	0.0159531
647.404	0.0159815
647.482	0.0160576
647.560	0.0162473
647.638	0.0163145
647.716	0.0164668
647.794	0.0165066
647.872	0.0166415
647.950	0.0165857
648.029	0.0167346
648.107	0.0167436
648.185	0.0168650
648.263	0.0170004
648.341	0.0169473
648.419	0.0170839
648.497	0.0169329
648.575	0.0170235
648.654	0.0170905
648.732	0.0170981
648.810	0.0169691
648.888	0.0171619
648.966	0.0170383
649.044	0.0170876
649.122	0.0170213
649.200	0.0168988
649.279	0.0172089
649.357	0.0171136
649.435	0.0170785
649.513	0.0170770
649.591	0.0173557
649.669	0.0174670
649.747	0.0174442
649.825	0.0174716
649.904	0.0177104
649.982	0.0176069
650.060	0.0175971
650.138	0.0176782
650.216	0.0176254
650.294	0.0175640
650.372	0.0175520
650.450	0.0174625
650.529	0.0172053
650.607	0.0171030
650.685	0.0169034
650.763	0.0168522
650.841	0.0166434
650.919	0.0164767
650.997	0.0161715
651.075	0.0159897
651.154	0.0157342
651.232	0.0155037
651.310	0.0152239
651.388	0.0149907
651.466	0.0148749
651.544	0.0148088
651.622	0.0145615
651.700	0.0145319
651.779	0.0144952
651.857	0.0146354
651.935	0.0149065
652.013	0.0150354
652.091	0.0153897
652.169	0.0156894
652.247	0.0161161
652.325	0.0163931
652.404	0.0165456
652.482	0.0168434
652.560	0.0173090
652.638	0.0175108
652.716	0.0177589
652.794	0.0179179
652.872	0.0181973
652.950	0.0183393
653.029	0.0185590
653.107	0.0187473
653.185	0.0189531
653.263	0.0191534
653.341	0.0192661
653.419	0.0190429
653.497	0.0190767
653.575	0.0189607
653.654	0.0187516
653.732	0.0183643
653.810	0.0180405
653.888	0.0177246
653.966	0.0171691
654.044	0.0167384
654.122	0.0164445
654.200	0.0159737
654.279	0.0157259
654.357	0.0153528
654.435	0.0150921
654.513	0.0148269
654.591	0.0146905
654.669	0.0145815
654.747	0.0145855
654.825	0.0146113
654.904	0.0146286
654.982	0.0147788
655.060	0.0150020
655.138	0.0150951
655.216	0.0153158
655.294	0.0156904
655.372	0.0159502
655.450	0.0163296
655.529	0.0165458
655.607	0.0168645
655.685	0.0170853
655.763	0.0172848
655.841	0.0176537
655.919	0.0177161
655.997	0.0180081
656.075	0.0179963
656.154	0.0181426
656.232	0.0181827
656.310	0.0182081
656.388	0.0181757
656.466	0.0180777
656.544	0.0181571
656.622	0.0179960
656.700	0.0179510
656.779	0.0177866
656.857	0.0175767
656.935	0.0174660
657.013	0.0173718
657.091	0.0174775
657.169	0.0172878
657.247	0.0171520
657.325	0.0171468
657.404	0.0169683
657.482	0.0168425
657.560	0.0167295
657.638	0.0166695
657.716	0.0166734
657.794	0.0165815
657.872	0.0164206
657.950	0.0163227
658.029	0.0162657
658.107	0.0162543
658.185	0.0160389
658.263	0.0161707
658.341	0.0161598
658.419	0.0161240
658.497	0.0161825
658.575	0.0162507
658.654	0.0163609
658.732	0.0165262
658.810	0.0165328
658.888	0.0166300
658.966	0.0167201
659.044	0.0169701
659.122	0.0169134
659.200	0.0170269
659.279	0.0169672
659.357	0.0169556
659.435	0.0170216
659.513	0.0168871
659.591	0.0168547
659.669	0.0167002
659.747	0.0165759
659.825	0.0164451
659.904	0.0164118
659.982	0.0161030
660.060	0.0160011
660.138	0.0157831
660.216	0.0156415
660.294	0.0155695
660.372	0.0153717
660.450	0.0153003
660.529	0.0152115
660.607	0.0152258
660.685	0.0152298
660.763	0.0152665
660.841	0.0152512
660.919	0.0156541
660.997	0.0158307
661.075	0.0160880
661.154	0.0164014
661.232	0.0164956
661.310	0.0168138
661.388	0.0171345
661.466	0.0174201
661.544	0.0176262
661.622	0.0178527
661.700	0.0181698
661.779	0.0183237
661.857	0.0186462
661.935	0.0188139
662.013	0.0188863
662.091	0.0191559
662.169	0.0190749
662.247	0.0192068
662.325	0.0192126
662.404	0.0191600
662.482	0.0189966
662.560	0.0190070
662.638	0.0188586
662.716	0.0186743
662.794	0.0182288
662.872	0.0179924
662.950	0.0177229
663.029	0.0172863
663.107	0.0171464
663.185	0.0168924
663.263	0.0165186
663.341	0.0162679
663.419	0.0159177
663.497	0.0157536
663.575	0.0155028
663.654	0.0153578
663.732	0.0151640
663.810	0.0151877
663.888	0.0150939
663.966	0.0149239
664.044	0.0149566
664.122	0.0151228
664.200	0.0151366
664.279	0.0152450
664.357	0.0154005
664.435	0.0153371
664.513	0.0153990
664.591	0.0153785
664.669	0.0153745
664.747	0.0153263
664.825	0.0152047
664.904	0.0151344
664.982	0.0149796
665.060	0.0150887
665.138	0.0149714
665.216	0.0149226
665.294	0.0149072
665.372	0.0151264
665.450	0.0151815
665.529	0.0151915
665.607	0.0153220
665.685	0.0153822
665.763	0.0155236
665.841	0.0158267
665.919	0.0158765
665.997	0.0160358
666.075	0.0162503
666.154	0.0163455
666.232	0.0165355
666.310	0.0169656
666.388	0.0172327
666.466	0.0175029
666.544	0.0178757
666.622	0.0181964
666.700	0.0186477
666.779	0.0189551
666.857	0.0190477
666.935	0.0194067
667.013	0.0196866
667.091	0.0197810
667.169	0.0197793
667.247	0.0198947
667.325	0.0198412
667.404	0.0198266
667.482	0.0198080
667.560	0.0196706
667.638	0.0195567
667.716	0.0194685
667.794	0.0193250
667.872	0.0191172
667.950	0.0188248
668.029	0.0184412
668.107	0.0182166
668.185	0.0177069
668.263	0.0172536
668.341	0.0168833
668.419	0.0162943
668.497	0.0155746
668.575	0.0150977
668.654	0.0146360
668.732	0.0141381
668.810	0.0136986
668.888	0.0131851
668.966	0.0129706
669.044	0.0127148
669.122	0.0124279
669.200	0.0124435
669.279	0.0124306
669.357	0.0123976
669.435	0.0125946
669.513	0.0126757
669.591	0.0128435
669.669	0.0131676
669.747	0.0133442
669.825	0.0137631
669.904	0.0141636
669.982	0.0146239
670.060	0.0151038
670.138	0.0155778
670.216	0.0161230
670.294	0.0167293
670.372	0.0172273
670.450	0.0177161
670.529	0.0180223
670.607	0.0185352
670.685	0.0187369
670.763	0.0189251
670.841	0.0190676
670.919	0.0192249
670.997	0.0191727
671.075	0.0190701
671.154	0.0189713
671.232	0.0187022
671.310	0.0186811
671.388	0.0183861
671.466	0.0183936
671.544	0.0182307
671.622	0.0178450
671.700	0.0177673
671.779	0.0175230
671.857	0.0172334
671.935	0.0170872
672.013	0.0169497
672.091	0.0168126
672.169	0.0168819
672.247	0.0166156
672.325	0.0164120
672.404	0.0163982
672.482	0.0162773
672.560	0.0164141
672.638	0.0163194
672.716	0.0164078
672.794	0.0165150
672.872	0.0166237
672.950	0.0165729
673.029	0.0166238
673.107	0.0169017
673.185	0.0170171
673.263	0.0173063
673.341	0.0173718
673.419	0.0174867
673.497	0.0174607
673.575	0.0176080
673.654	0.0175900
673.732	0.0177410
673.810	0.0176303
673.888	0.0173892
673.966	0.0174734
674.044	0.0171931
674.122	0.0170906
674.200	0.0170910
674.279	0.0168427
674.357	0.0166650
674.435	0.0165462
674.513	0.0164931
674.591	0.0163356
674.669	0.0161737
674.747	0.0159193
674.825	0.0158598
674.904	0.0156894
674.982	0.0154301
675.060	0.0153460
675.138	0.0151678
675.216	0.0152007
675.294	0.0150150
675.372	0.0149866
675.450	0.0149709
675.529	0.0147477
675.607	0.0147710
675.685	0.0148040
675.763	0.0147839
675.841	0.0148463
675.919	0.0149427
675.997	0.0149918
676.075	0.0150862
676.154	0.0153088
676.232	0.0154987
676.310	0.0158475
676.388	0.0161286
676.466	0.0164169
676.544	0.0167796
676.622	0.0171660
676.700	0.0174583
676.779	0.0178424
676.857	0.0181441
676.935	0.0185120
677.013	0.0186797
677.091	0.0186354
677.169	0.0188988
677.247	0.0188236
677.325	0.0187875
677.404	0.0186420
677.482	0.0183970
677.560	0.0182950
677.638	0.0181641
677.716	0.0178884
677.794	0.0176198
677.872	0.0174453
677.950	0.0174738
678.029	0.0173506
678.107	0.0173363
678.185	0.0172823
678.263	0.0172192
678.341	0.0173266
678.419	0.0172233
678.497	0.0173260
678.575	0.0174841
678.654	0.0174609
678.732	0.0173395
678.810	0.0173553
678.888	0.0172176
678.966	0.0171380
679.044	0.0171648
679.122	0.0171461
679.200	0.0168981
679.279	0.0167024
679.357	0.0165788
679.435	0.0166873
679.513	0.0165594
679.591	0.0165439
679.669	0.0162772
679.747	0.0163365
679.825	0.0162737
679.904	0.0161888
679.982	0.0163027
680.060	0.0163013
680.138	0.0162823
680.216	0.0163571
680.294	0.0163600
680.372	0.0163343
680.450	0.0163516
680.529	0.0165087
680.607	0.0164709
680.685	0.0165117
680.763	0.0163780
680.841	0.0162148
680.919	0.0162536
680.997	0.0162017
681.075	0.0161555
681.154	0.0159077
681.232	0.0158386
681.310	0.0158436
681.388	0.0156098
681.466	0.0156227
681.544	0.0156912
681.622	0.0156142
681.700	0.0154261
681.779	0.0154196
681.857	0.0154486
681.935	0.0155599
682.013	0.0154327
682.091	0.0154782
682.169	0.0155653
682.247	0.0154926
682.325	0.0156612
682.404	0.0160621
682.482	0.0160825
682.560	0.0161874
682.638	0.0163351
682.716	0.0166981
682.794	0.0167262
682.872	0.0169570
682.950	0.0172277
683.029	0.0173380
683.107	0.0176171
683.185	0.0179081
683.263	0.0177657
683.341	0.0178635
683.419	0.0181498
683.497	0.0180711
683.575	0.0181033
683.654	0.0181480
683.732	0.0180444
683.810	0.0179759
683.888	0.0179274
683.966	0.0177974
684.044	0.0176916
684.122	0.0177228
684.200	0.0174691
684.279	0.0172736
684.357	0.0171104
684.435	0.0169144
684.513	0.0169492
684.591	0.0167768
684.669	0.0166927
684.747	0.0166576
684.825	0.0165838
684.904	0.0165544
684.982	0.0164690
685.060	0.0163985
685.138	0.0163985
685.216	0.0163659
685.294	0.0163096
685.372	0.0163728
685.450	0.0162102
685.529	0.0162455
685.607	0.0160266
685.685	0.0158776
685.763	0.0159276
685.841	0.0158816
685.919	0.0159251
685.997	0.0156862
686.075	0.0158202
686.154	0.0157906
686.232	0.0159340
686.310	0.0160147
686.388	0.0160480
686.466	0.0158965
686.544	0.0160629
686.622	0.0160085
686.700	0.0163415
686.779	0.0163504
686.857	0.0163622
686.935	0.0165446
687.013	0.0164744
687.091	0.0165369
687.169	0.0165765
687.247	0.0167226
687.325	0.0169239
687.404	0.0170676
687.482	0.0170396
687.560	0.0169879
687.638	0.0172015
687.716	0.0172243
687.794	0.0171390
687.872	0.0172142
687.950	0.0172995
688.029	0.0170849
688.107	0.0170402
688.185	0.0170573
688.263	0.0168100
688.341	0.0169429
688.419	0.0168104
688.497	0.0165787
688.575	0.0165054
688.654	0.0165086
688.732	0.0163705
688.810	0.0163477
688.888	0.0161810
688.966	0.0160674
689.044	0.0160334
689.122	0.0160425
689.200	0.0159433
689.279	0.0159328
689.357	0.0161168
689.435	0.0159987
689.513	0.0160153
689.591	0.0160892
689.669	0.0161879
689.747	0.0160802
689.825	0.0163168
689.904	0.0163980
689.982	0.0164280
690.060	0.0164657
690.138	0.0165154
690.216	0.0165912
690.294	0.0166528
690.372	0.0166904
690.450	0.0168207
690.529	0.0168919
690.607	0.0168883
690.685	0.0171220
690.763	0.0169384
690.841	0.0169755
690.919	0.0170889
690.997	0.0170237
691.075	0.0170411
691.154	0.0169582
691.232	0.0169635
691.310	0.0168749
691.388	0.0168379
691.466	0.0169097
691.544	0.0170946
691.622	0.0170666
691.700	0.0172157
691.779	0.0172148
691.857	0.0174327
691.935	0.0174795
692.013	0.0175729
692.091	0.0176678
692.169	0.0177422
692.247	0.0176260
692.325	0.0177927
692.404	0.0176141
692.482	0.0175150
692.560	0.0172678
692.638	0.0170755
692.716	0.0169446
692.794	0.0166673
692.872	0.0165693
692.950	0.0164143
693.029	0.0160153
693.107	0.0158615
693.185	0.0158899
693.263	0.0156856
693.341	0.0154868
693.419	0.0154720
693.497	0.0154616
693.575	0.0153236
693.654	0.0154259
693.732	0.0152097
693.810	0.0154487
693.888	0.0154249
693.966	0.0154243
694.044	0.0154810
694.122	0.0155891
694.200	0.0157626
694.279	0.0158155
694.357	0.0158381
694.435	0.0160092
694.513	0.0158397
694.591	0.0160815
694.669	0.0163006
694.747	0.0162847
694.825	0.0163779
694.904	0.0164193
694.982	0.0165321
695.060	0.0167748
695.138	0.0166833
695.216	0.0168336
695.294	0.0169598
695.372	0.0169849
695.450	0.0172018
695.529	0.0171136
695.607	0.0172134
695.685	0.0172845
695.763	0.0175424
695.841	0.0174091
695.919	0.0175410
695.997	0.0176127
696.075	0.0177317
696.154	0.0176785
696.232	0.0176299
696.310	0.0178132
696.388	0.0178424
696.466	0.0177251
696.544	0.0177461
696.622	0.0177994
696.700	0.0176082
696.779	0.0174954
696.857	0.0174395
696.935	0.0171642
697.013	0.0171262
697.091	0.0170089
697.169	0.0168707
697.247	0.0168571
697.325	0.0166840
697.404	0.0165912
697.482	0.0165366
697.560	0.0164577
697.638	0.0164642
697.716	0.0163551
697.794	0.0163915
697.872	0.0163674
697.950	0.0164156
698.029	0.0163787
698.107	0.0163283
698.185	0.0162007
698.263	0.0163323
698.341	0.0163899
698.419	0.0163776
698.497	0.0164857
698.575	0.0164153
698.654	0.0164477
698.732	0.0167690
698.810	0.0165597
698.888	0.0167436
698.966	0.0168240
699.044	0.0169516
699.122	0.0171062
699.200	0.0170358
699.279	0.0171090
699.357	0.0171055
699.435	0.0171292
699.513	0.0170425
699.591	0.0170432
699.669	0.0170412
699.747	0.0169651
699.825	0.0168257
699.904	0.0168235
699.982	0.0165723
700.060	0.0164403
700.138	0.0163900
700.216	0.0164314
700.294	0.0162290
700.372	0.0160402
700.450	0.0160324
700.529	0.0159953
700.607	0.0160986
700.685	0.0160798
700.763	0.0161317
700.841	0.0160437
700.919	0.0160684
700.997	0.0162222
701.075	0.0161709
701.154	0.0162861
701.232	0.0163949
701.310	0.0165057
701.388	0.0164648
701.466	0.0164605
701.544	0.0166878
701.622	0.0165538
701.700	0.0166722
701.779	0.0168494
701.857	0.0168887
701.935	0.0168301
702.013	0.0169917
702.091	0.0169784
702.169	0.0171367
702.247	0.0171293
702.325	0.0172009
702.404	0.0172900
702.482	0.0171079
702.560	0.0170841
702.638	0.0171782
702.716	0.0172428
702.794	0.0169712
702.872	0.0171797
702.950	0.0170934
703.029	0.0169223
703.107	0.0169119
703.185	0.0169630
703.263	0.0169030
703.341	0.0166492
703.419	0.0167008
703.497	0.0166599
703.575	0.0165306
703.654	0.0164680
703.732	0.0165031
703.810	0.0163213
703.888	0.0164076
703.966	0.0164702
704.044	0.0163039
704.122	0.0163967
704.200	0.0165347
704.279	0.0164680
704.357	0.0164900
704.435	0.0163946
704.513	0.0166224
704.591	0.0164878
704.669	0.0165121
704.747	0.0165186
704.825	0.0162997
704.904	0.0164540
704.982	0.0163692
705.060	0.0160964
705.138	0.0162649
705.216	0.0163793
705.294	0.0161961
705.372	0.0163078
705.450	0.0162872
705.529	0.0164613
705.607	0.0163416
705.685	0.0163258
705.763	0.0164420
705.841	0.0166083
705.919	0.0164394
705.997	0.0165391
706.075	0.0165836
706.154	0.0165009
706.232	0.0164951
706.310	0.0166888
706.388	0.0165829
706.466	0.0164336
706.544	0.0164420
706.622	0.0162478
706.700	0.0163850
706.779	0.0162673
706.857	0.0161350
706.935	0.0160819
707.013	0.0161819
707.091	0.0162273
707.169	0.0160983
707.247	0.0162308
707.325	0.0162886
707.404	0.0163962
707.482	0.0163897
707.560	0.0164948
707.638	0.0165598
707.716	0.0166750
707.794	0.0166603
707.872	0.0168022
707.950	0.0168226
708.029	0.0167229
708.107	0.0168729
708.185	0.0169421
708.263	0.0168099
708.341	0.0167380
708.419	0.0167753
708.497	0.0167758
708.575	0.0167800
708.654	0.0167996
708.732	0.0168129
708.810	0.0167286
708.888	0.0167347
708.966	0.0167915
709.044	0.0168292
709.122	0.0168956
709.200	0.0167872
709.279	0.0168841
709.357	0.0168456
709.435	0.0170942
709.513	0.0170879
709.591	0.0170668
709.669	0.0170068
709.747	0.0170939
709.825	0.0169993
709.904	0.0170390
709.982	0.0170597
710.060	0.0170803
710.138	0.0169787
710.216	0.0168858
710.294	0.0169142
710.372	0.0168517
710.450	0.0168236
710.529	0.0167014
710.607	0.0167241
710.685	0.0167426
710.763	0.0165750
710.841	0.0164660
710.919	0.0166370
710.997	0.0165606
711.075	0.0165170
711.154	0.0165114
711.232	0.0166690
711.310	0.0165576
711.388	0.0167023
711.466	0.0166439
711.544	0.0165779
711.622	0.0165043
711.700	0.0167142
711.779	0.0165383
711.857	0.0165160
711.935	0.0166235
712.013	0.0165440
712.091	0.0166458
712.169	0.0164457
712.247	0.0166373
712.325	0.0163512
712.404	0.0164192
712.482	0.0164518
712.560	0.0164230
712.638	0.0163181
712.716	0.0164408
712.794	0.0163441
712.872	0.0162799
712.950	0.0162026
713.029	0.0161909
713.107	0.0163714
713.185	0.0163412
713.263	0.0161319
713.341	0.0163210
713.419	0.0164581
713.497	0.0163203
713.575	0.0163029
713.654	0.0164473
713.732	0.0165777
713.810	0.0165487
713.888	0.0166190
713.966	0.0168067
714.044	0.0166212
714.122	0.0168925
714.200	0.0169523
714.279	0.0169466
714.357	0.0169803
714.435	0.0171793
714.513	0.0171335
714.591	0.0170768
714.669	0.0169424
714.747	0.0172537
714.825	0.0172300
714.904	0.0170663
714.982	0.0170061
715.060	0.0169598
715.138	0.0168577
715.216	0.0167143
715.294	0.0168593
715.372	0.0168576
715.450	0.0168399
715.529	0.0166446
715.607	0.0166911
715.685	0.0166676
715.763	0.0162533
715.841	0.0164909
715.919	0.0166074
715.997	0.0166014
716.075	0.0164728
716.154	0.0166058
716.232	0.0164577
716.310	0.0164013
716.388	0.0165231
716.466	0.0165736
716.544	0.0164877
716.622	0.0165052
716.700	0.0165544
716.779	0.0164558
716.857	0.0166055
716.935	0.0166955
717.013	0.0166074
717.091	0.0167482
717.169	0.0165277
717.247	0.0166513
717.325	0.0166521
717.404	0.0164094
717.482	0.0164620
717.560	0.0166409
717.638	0.0166019
717.716	0.0166442
717.794	0.0164459
717.872	0.0164583
717.950	0.0164993
718.029	0.0166307
718.107	0.0165302
718.185	0.0165156
718.263	0.0166222
718.341	0.0166784
718.419	0.0165675
718.497	0.0165275
718.575	0.0166278
718.654	0.0166873
718.732	0.0166026
718.810	0.0166586
718.888	0.0166778
718.966	0.0168556
719.044	0.0169437
719.122	0.0168979
719.200	0.0169604
719.279	0.0171380
719.357	0.0169077
719.435	0.0169217
719.513	0.0170212
719.591	0.0169959
719.669	0.0170131
719.747	0.0169117
719.825	0.0168771
719.904	0.0168149
719.982	0.0170158
720.060	0.0167778
720.138	0.0169214
720.216	0.0169279
720.294	0.0168725
720.372	0.0167272
720.450	0.0169055
720.529	0.0168632
720.607	0.0167382
720.685	0.0168179
720.763	0.0167995
720.841	0.0167477
720.919	0.0168941
720.997	0.0168582
721.075	0.0168614
721.154	0.0168557
721.232	0.0169013
721.310	0.0170042
721.388	0.0168159
721.466	0.0168836
721.544	0.0169299
721.622	0.0168986
721.700	0.0170375
721.779	0.0168450
721.857	0.0169172
721.935	0.0167348
722.013	0.0167876
722.091	0.0167630
722.169	0.0167683
722.247	0.0166341
722.325	0.0166826
722.404	0.0166810
722.482	0.0165432
722.560	0.0164693
722.638	0.0165242
722.716	0.0165971
722.794	0.0165273
722.872	0.0164612
722.950	0.0164917
723.029	0.0163839
723.107	0.0163885
723.185	0.0164017
723.263	0.0164330
723.341	0.0164038
723.419	0.0161562
723.497	0.0163171
723.575	0.0164433
723.654	0.0163856
723.732	0.0164235
723.810	0.0164082
723.888	0.0164563
723.966	0.0165094
724.044	0.0165099
724.122	0.0165884
724.200	0.0165447
724.279	0.0167056
724.357	0.0167001
724.435	0.0166866
724.513	0.0166647
724.591	0.0166863
724.669	0.0166704
724.747	0.0166236
724.825	0.0164822
724.904	0.0166652
724.982	0.0165885
725.060	0.0166276
725.138	0.0166380
725.216	0.0168491
725.294	0.0166187
725.372	0.0167078
725.450	0.0166403
725.529	0.0166611
725.607	0.0168360
725.685	0.0168661
725.763	0.0167839
725.841	0.0168417
725.919	0.0168282
725.997	0.0168188
726.075	0.0170758
726.154	0.0169792
726.232	0.0169386
726.310	0.0169592
726.388	0.0169363
726.466	0.0167699
726.544	0.0168711
726.622	0.0170352
726.700	0.0167971
726.779	0.0168377
726.857	0.0169019
726.935	0.0167781
727.013	0.0167051
727.091	0.0166403
727.169	0.0166835
727.247	0.0166913
727.325	0.0166142
727.404	0.0167140
727.482	0.0166164
727.560	0.0167025
727.638	0.0166003
727.716	0.0166441
727.794	0.0166352
727.872	0.0165993
727.950	0.0166172
728.029	0.0167374
728.107	0.0167912
728.185	0.0168317
728.263	0.0168027
728.341	0.0166621
728.419	0.0166174
728.497	0.0168249
728.575	0.0168276
728.654	0.0167805
728.732	0.0168738
728.810	0.0168121
728.888	0.0167347
728.966	0.0169248
729.044	0.0168301
729.122	0.0168513
729.200	0.0168111
729.279	0.0168208
729.357	0.0167506
729.435	0.0168219
729.513	0.0168852
729.591	0.0168718
729.669	0.0168325
729.747	0.0167775
729.825	0.0167899
729.904	0.0168316
729.982	0.0167907
730.060	0.0166742
730.138	0.0167274
730.216	0.0165822
730.294	0.0167950
730.372	0.0165851
730.450	0.0165779
730.529	0.0166714
730.607	0.0167197
730.685	0.0165462
730.763	0.0165752
730.841	0.0164874
730.919	0.0164577
730.997	0.0165582
731.075	0.0163796
731.154	0.0165282
731.232	0.0165405
731.310	0.0164338
731.388	0.0165413
731.466	0.0165908
731.544	0.0165700
731.622	0.0166241
731.700	0.0165223
731.779	0.0166904
731.857	0.0166007
731.935	0.0165183
732.013	0.0166706
732.091	0.0166115
732.169	0.0166045
732.247	0.0166922
732.325	0.0167343
732.404	0.0166853
732.482	0.0165217
732.560	0.0165536
732.638	0.0165452
732.716	0.0165845
732.794	0.0167240
732.872	0.0166378
732.950	0.0167220
733.029	0.0166196
733.107	0.0166987
733.185	0.0168173
733.263	0.0167880
733.341	0.0166981
733.419	0.0167278
733.497	0.0166853
733.575	0.0166924
733.654	0.0168570
733.732	0.0169249
733.810	0.0168741
733.888	0.0167622
733.966	0.0167989
734.044	0.0168547
734.122	0.0167998
734.200	0.0169180
734.279	0.0168723
734.357	0.0168440
734.435	0.0168753
734.513	0.0168937
734.591	0.0170213
734.669	0.0168800
734.747	0.0170037
734.825	0.0169936
734.904	0.0169872
734.982	0.0168674
735.060	0.0168128
735.138	0.0168668
735.216	0.0169116
735.294	0.0170243
735.372	0.0167629
735.450	0.0167853
735.529	0.0167419
735.607	0.0166914
735.685	0.0166597
735.763	0.0166790
735.841	0.0165492
735.919	0.0167042
735.997	0.0166344
736.075	0.0168100
736.154	0.0168363
736.232	0.0165567
736.310	0.0165655
736.388	0.0167312
736.466	0.0165009
736.544	0.0166421
736.622	0.0165916
736.700	0.0168497
736.779	0.0166644
736.857	0.0166666
736.935	0.0165937
737.013	0.0166666
737.091	0.0167648
737.169	0.0166653
737.247	0.0167920
737.325	0.0169025
737.404	0.0168768
737.482	0.0167625
737.560	0.0168385
737.638	0.0168469
737.716	0.0169128
737.794	0.0168482
737.872	0.0168500
737.950	0.0168016
738.029	0.0169210
738.107	0.0168627
738.185	0.0168652
738.263	0.0167567
738.341	0.0167619
738.419	0.0167107
738.497	0.0166605
738.575	0.0166661
738.654	0.0166788
738.732	0.0166670
738.810	0.0165326
738.888	0.0164889
738.966	0.0164887
739.044	0.0164841
739.122	0.0164346
739.200	0.0165273
739.279	0.0163850
739.357	0.0164063
739.435	0.0164458
739.513	0.0163187
739.591	0.0163660
739.669	0.0163565
739.747	0.0163808
739.825	0.0163033
739.904	0.0162778
739.982	0.0163555
740.060	0.0164538
740.138	0.0165407
740.216	0.0164584
740.294	0.0165871
740.372	0.0166541
740.450	0.0165784
740.529	0.0167860
740.607	0.0168004
740.685	0.0167027
740.763	0.0168987
740.841	0.0169110
740.919	0.0169929
740.997	0.0169205
741.075	0.0169068
741.154	0.0169458
741.232	0.0170056
741.310	0.0169928
741.388	0.0170224
741.466	0.0168454
741.544	0.0169516
741.622	0.0169415
741.700	0.0169267
741.779	0.0168338
741.857	0.0168882
741.935	0.0167342
742.013	0.0168840
742.091	0.0168429
742.169	0.0166829
742.247	0.0166864
742.325	0.0166268
742.404	0.0166533
742.482	0.0166623
742.560	0.0164563
742.638	0.0167199
742.716	0.0165770
742.794	0.0165918
742.872	0.0165346
742.950	0.0165455
743.029	0.0165464
743.107	0.0166151
743.185	0.0164276
743.263	0.0165970
743.341	0.0165183
743.419	0.0165977
743.497	0.0165060
743.575	0.0164380
743.654	0.0164896
743.732	0.0165384
743.810	0.0165199
743.888	0.0163617
743.966	0.0164064
744.044	0.0164688
744.122	0.0164520
744.200	0.0163661
744.279	0.0164506
744.357	0.0164420
744.435	0.0164784
744.513	0.0164766
744.591	0.0165753
744.669	0.0165147
744.747	0.0164043
744.825	0.0164977
744.904	0.0166253
744.982	0.0165863
745.060	0.0166486
745.138	0.0164914
745.216	0.0164528
745.294	0.0166196
745.372	0.0166521
745.450	0.0165956
745.529	0.0164793
745.607	0.0164365
745.685	0.0167167
745.763	0.0168026
745.841	0.0167418
745.919	0.0166515
745.997	0.0168441
746.075	0.0169240
746.154	0.0167769
746.232	0.0168253
746.310	0.0169533
746.388	0.0169281
746.466	0.0169009
746.544	0.0169959
746.622	0.0168710
746.700	0.0168719
746.779	0.0168073
746.857	0.0169581
746.935	0.0169504
747.013	0.0167388
747.091	0.0167226
747.169	0.0168909
747.247	0.0167612
747.325	0.0166467
747.404	0.0166119
747.482	0.0168102
747.560	0.0164941
747.638	0.0164397
747.716	0.0166422
747.794	0.0167106
747.872	0.0165105
747.950	0.0166113
748.029	0.0165887
748.107	0.0166585
748.185	0.0168578
748.263	0.0167067
748.341	0.0165830
748.419	0.0167095
748.497	0.0166994
748.575	0.0166782
748.654	0.0165804
748.732	0.0167478
748.810	0.0167910
748.888	0.0168391
748.966	0.0168404
749.044	0.0168596
749.122	0.0169237
749.200	0.0169619
749.279	0.0170615
749.357	0.0169572
749.435	0.0169170
749.513	0.0169314
749.591	0.0170083
749.669	0.0170502
749.747	0.0170648
749.825	0.0169427
749.904	0.0169939
749.982	0.0168693
750.060	0.0167992
750.138	0.0168370
750.216	0.0167223
750.294	0.0166289
750.372	0.0168154
750.450	0.0167632
750.529	0.0164594
750.607	0.0165793
750.685	0.0165693
750.763	0.0165133
750.841	0.0165693
750.919	0.0165572
750.997	0.0165444
751.075	0.0165269
751.154	0.0165343
751.232	0.0164704
751.310	0.0165511
751.388	0.0164129
751.466	0.0164801
751.544	0.0165858
751.622	0.0163955
751.700	0.0164059
751.779	0.0165684
751.857	0.0166090
751.935	0.0166280
752.013	0.0168039
752.091	0.0166888
752.169	0.0165758
752.247	0.0166628
752.325	0.0167256
752.404	0.0168652
752.482	0.0168252
752.560	0.0167896
752.638	0.0169519
752.716	0.0168374
752.794	0.0169707
752.872	0.0167651
752.950	0.0168764
753.029	0.0169168
753.107	0.0169644
753.185	0.0170363
753.263	0.0169626
753.341	0.0170095
753.419	0.0171038
753.497	0.0171043
753.575	0.0170087
753.654	0.0170638
753.732	0.0172106
753.810	0.0170159
753.888	0.0170115
753.966	0.0169801
754.044	0.0169129
754.122	0.0169873
754.200	0.0170459
754.279	0.0169038
754.357	0.0167989
754.435	0.0168970
754.513	0.0169368
754.591	0.0167961
754.669	0.0168636
754.747	0.0167948
754.825	0.0168059
754.904	0.0168974
754.982	0.0167999
755.060	0.0167902
755.138	0.0167711
755.216	0.0167618
755.294	0.0167023
755.372	0.0166707
755.450	0.0167290
755.529	0.0166597
755.607	0.0167454
755.685	0.0167842
755.763	0.0167836
755.841	0.0168311
755.919	0.0168299
755.997	0.0168558
756.075	0.0166850
756.154	0.0167068
756.232	0.0167660
756.310	0.0168336
756.388	0.0168922
756.466	0.0166745
756.544	0.0167453
756.622	0.0168286
756.700	0.0167457
756.779	0.0166306
756.857	0.0167077
756.935	0.0166953
757.013	0.0165885
757.091	0.0167429
757.169	0.0166084
757.247	0.0166011
757.325	0.0166200
757.404	0.0164816
757.482	0.0166413
757.560	0.0165392
757.638	0.0165238
757.716	0.0163995
757.794	0.0165572
757.872	0.0164620
757.950	0.0165094
758.029	0.0165421
758.107	0.0164775
758.185	0.0164527
758.263	0.0165479
758.341	0.0166418
758.419	0.0166289
758.497	0.0164635
758.575	0.0166843
758.654	0.0168513
758.732	0.0167278
758.810	0.0167531
758.888	0.0167328
758.966	0.0168375
759.044	0.0168612
759.122	0.0166844
759.200	0.0167497
759.279	0.0167130
759.357	0.0168461
759.435	0.0167242
759.513	0.0167036
759.591	0.0167006
759.669	0.0169090
759.747	0.0167102
759.825	0.0166904
759.904	0.0166287
759.982	0.0166164
760.060	0.0166407
760.138	0.0165456
760.216	0.0164783
760.294	0.0164569
760.372	0.0164171
760.450	0.0164063
760.529	0.0162959
760.607	0.0163809
760.685	0.0164419
760.763	0.0163676
760.841	0.0162596
760.919	0.0161990
760.997	0.0161251
761.075	0.0162849
761.154	0.0162930
761.232	0.0162729
761.310	0.0164086
761.388	0.0164748
761.466	0.0165015
761.544	0.0163837
761.622	0.0164688
761.700	0.0166360
761.779	0.0166168
761.857	0.0164747
761.935	0.0166335
762.013	0.0167056
762.091	0.0167205
762.169	0.0168179
762.247	0.0168298
762.325	0.0168435
762.404	0.0166126
762.482	0.0169051
762.560	0.0169595
762.638	0.0168941
762.716	0.0170033
762.794	0.0170746
762.872	0.0170239
762.950	0.0168430
763.029	0.0170279
763.107	0.0170309
763.185	0.0169460
763.263	0.0169303
763.341	0.0170000
763.419	0.0171214
763.497	0.0168850
763.575	0.0167875
763.654	0.0169643
763.732	0.0169695
763.810	0.0169458
763.888	0.0168732
763.966	0.0169028
764.044	0.0169599
764.122	0.0170132
764.200	0.0169066
764.279	0.0167828
764.357	0.0169364
764.435	0.0167632
764.513	0.0167574
764.591	0.0167050
764.669	0.0165507
764.747	0.0165543
764.825	0.0165710
764.904	0.0164345
764.982	0.0164904
765.060	0.0162531
765.138	0.0163680
765.216	0.0161480
765.294	0.0161294
765.372	0.0161444
765.450	0.0161684
765.529	0.0161919
765.607	0.0159853
765.685	0.0160014
765.763	0.0161412
765.841	0.0160839
765.919	0.0160722
765.997	0.0161115
766.075	0.0160470
766.154	0.0161040
766.232	0.0161389
766.310	0.0161389
766.388	0.0161877
766.466	0.0161522
766.544	0.0162012
766.622	0.0164112
766.700	0.0162774
766.779	0.0164326
766.857	0.0165977
766.935	0.0164154
767.013	0.0163622
767.091	0.0165303
767.169	0.0165556
767.247	0.0165311
767.325	0.0166862
767.404	0.0167586
767.482	0.0167542
767.560	0.0167699
767.638	0.0170467
767.716	0.0168890
767.794	0.0168801
767.872	0.0168974
767.950	0.0168393
768.029	0.0169440
768.107	0.0170299
768.185	0.0169800
768.263	0.0169831
768.341	0.0170647
768.419	0.0171615
768.497	0.0168941
768.575	0.0169580
768.654	0.0170985
768.732	0.0170716
768.810	0.0169343
768.888	0.0169535
768.966	0.0169708
769.044	0.0169153
769.122	0.0170175
769.200	0.0169264
769.279	0.0169086
769.357	0.0168179
769.435	0.0168463
769.513	0.0168040
769.591	0.0169599
769.669	0.0167883
769.747	0.0169548
769.825	0.0168876
769.904	0.0168612
769.982	0.0169094
770.060	0.0169915
770.138	0.0170361
770.216	0.0168063
770.294	0.0168306
770.372	0.0169382
770.450	0.0168996
770.529	0.0168564
770.607	0.0169500
770.685	0.0168261
770.763	0.0167580
770.841	0.0168347
770.919	0.0167410
770.997	0.0167735
771.075	0.0166534
771.154	0.0166623
771.232	0.0166840
771.310	0.0165283
771.388	0.0167303
771.466	0.0165461
771.544	0.0164256
771.622	0.0164668
771.700	0.0162939
771.779	0.0164341
771.857	0.0161604
771.935	0.0162550
772.013	0.0161123
772.091	0.0161243
772.169	0.0160651
772.247	0.0160789
772.325	0.0160114
772.404	0.0160791
772.482	0.0160521
772.560	0.0161221
772.638	0.0161159
772.716	0.0160703
772.794	0.0162101
772.872	0.0161648
772.950	0.0161689
773.029	0.0162436
773.107	0.0164907
773.185	0.0163699
773.263	0.0164710
773.341	0.0165553
773.419	0.0165293
773.497	0.0164474
773.575	0.0165500
773.654	0.0167036
773.732	0.0166557
773.810	0.0166919
773.888	0.0167345
773.966	0.0167767
774.044	0.0167179
774.122	0.0168050
774.200	0.0168082
774.279	0.0168078
774.357	0.0169527
774.435	0.0170129
774.513	0.0169915
774.591	0.0170763
774.669	0.0169862
774.747	0.0171233
774.825	0.0170145
774.904	0.0170582
774.982	0.0170217
775.060	0.0170981
775.138	0.0170608
775.216	0.0170670
775.294	0.0169640
775.372	0.0170517
775.450	0.0169287
775.529	0.0169092
775.607	0.0167508
775.685	0.0168659
775.763	0.0168363
775.841	0.0167805
775.919	0.0169365
775.997	0.0169252
776.075	0.0169362
776.154	0.0169032
776.232	0.0168391
776.310	0.0167554
776.388	0.0168805
776.466	0.0170355
776.544	0.0169100
776.622	0.0168722
776.700	0.0168930
776.779	0.0168411
776.857	0.0167321
776.935	0.0169090
777.013	0.0167965
777.091	0.0167415
777.169	0.0165980
777.247	0.0167434
777.325	0.0166935
777.404	0.0166321
777.482	0.0168164
777.560	0.0166431
777.638	0.0167169
777.716	0.0168484
777.794	0.0165632
777.872	0.0165696
777.950	0.0167247
778.029	0.0165833
778.107	0.0164148
778.185	0.0164164
778.263	0.0164785
778.341	0.0164583
778.419	0.0164257
778.497	0.0164641
778.575	0.0166658
778.654	0.0164565
778.732	0.0165077
778.810	0.0167577
778.888	0.0165321
778.966	0.0166100
779.044	0.0166389
779.122	0.0164841
779.200	0.0167065
779.279	0.0166462
779.357	0.0164937
779.435	0.0165469
779.513	0.0166055
779.591	0.0165037
779.669	0.0166554
779.747	0.0166735
779.825	0.0165370
779.904	0.0166002
779.982	0.0166965
780.060	0.0166215
780.138	0.0167239
780.216	0.0167165
780.294	0.0165868
780.372	0.0167303
780.450	0.0167197
780.529	0.0167510
780.607	0.0166640
780.685	0.0168737
780.763	0.0167229
780.841	0.0167370
780.919	0.0167346
780.997	0.0167263
781.075	0.0167294
781.154	0.0167172
781.232	0.0168922
781.310	0.0166653
781.388	0.0166634
781.466	0.0165797
781.544	0.0165367
781.622	0.0165284
781.700	0.0166408
781.779	0.0165496
781.857	0.0163836
781.935	0.0164364
782.013	0.0164617
782.091	0.0164806
782.169	0.0163473
782.247	0.0163187
782.325	0.0162896
782.404	0.0163401
782.482	0.0165595
782.560	0.0163010
782.638	0.0163231
782.716	0.0163375
782.794	0.0164455
782.872	0.0164069
782.950	0.0163062
783.029	0.0164027
783.107	0.0163571
783.185	0.0164337
783.263	0.0164265
783.341	0.0166785
783.419	0.0168237
783.497	0.0165600
783.575	0.0166345
783.654	0.0167348
783.732	0.0166745
783.810	0.0166700
783.888	0.0166444
783.966	0.0166705
784.044	0.0166711
784.122	0.0166876
784.200	0.0167591
784.279	0.0166058
784.357	0.0165686
784.435	0.0166447
784.513	0.0166071
784.591	0.0167329
784.669	0.0166100
784.747	0.0166132
784.825	0.0166256
784.904	0.0166675
784.982	0.0167555
785.060	0.0165283
785.138	0.0165839
785.216	0.0166492
785.294	0.0167080
785.372	0.0166037
785.450	0.0166058
785.529	0.0165926
785.607	0.0167188
785.685	0.0166898
785.763	0.0166224
785.841	0.0166708
785.919	0.0167107
785.997	0.0167628
786.075	0.0165674
786.154	0.0165469
786.232	0.0165446
786.310	0.0165755
786.388	0.0165663
786.466	0.0165051
786.544	0.0165199
786.622	0.0163757
786.700	0.0164799
786.779	0.0163844
786.857	0.0165281
786.935	0.0164211
787.013	0.0163135
787.091	0.0164374
787.169	0.0163641
787.247	0.0163709
787.325	0.0161864
787.404	0.0163860
787.482	0.0164957
787.560	0.0164081
787.638	0.0162550
787.716	0.0165601
787.794	0.0164194
787.872	0.0164569
787.950	0.0164847
788.029	0.0164912
788.107	0.0166479
788.185	0.0165603
788.263	0.0165827
788.341	0.0167801
788.419	0.0168137
788.497	0.0168639
788.575	0.0166793
788.654	0.0168655
788.732	0.0168354
788.810	0.0169008
788.888	0.0169948
788.966	0.0170372
789.044	0.0170940
789.122	0.0169272
789.200	0.0169005
789.279	0.0168754
789.357	0.0169731
789.435	0.0171109
789.513	0.0168594
789.591	0.0169853
789.669	0.0169122
789.747	0.0168135
789.825	0.0167933
789.904	0.0168763
789.982	0.0168609
790.060	0.0166654
790.138	0.0168641
790.216	0.0167343
790.294	0.0167295
790.372	0.0166904
790.450	0.0166438
790.529	0.0166120
790.607	0.0167585
790.685	0.0166616
790.763	0.0166907
790.841	0.0167032
790.919	0.0166937
790.997	0.0168386
791.075	0.0168317
791.154	0.0166280
791.232	0.0166680
791.310	0.0166440
791.388	0.0166656
791.466	0.0167036
791.544	0.0166920
791.622	0.0167425
791.700	0.0168173
791.779	0.0168040
791.857	0.0167467
791.935	0.0167817
792.013	0.0168719
792.091	0.0167509
792.169	0.0167107
792.247	0.0169135
792.325	0.0166957
792.404	0.0167773
792.482	0.0166171
792.560	0.0167194
792.638	0.0166885
792.716	0.0166970
792.794	0.0167289
792.872	0.0167758
792.950	0.0166306
793.029	0.0166161
793.107	0.0166398
793.185	0.0166283
793.263	0.0165929
793.341	0.0165829
793.419	0.0166427
793.497	0.0165864
793.575	0.0165129
793.654	0.0165300
793.732	0.0164236
793.810	0.0165284
793.888	0.0164961
793.966	0.0165028
794.044	0.0164994
794.122	0.0164898
794.200	0.0165359
794.279	0.0164553
794.357	0.0164656
794.435	0.0166698
794.513	0.0164690
794.591	0.0165522
794.669	0.0165999
794.747	0.0165770
794.825	0.0165549
794.904	0.0166148
794.982	0.0166728
795.060	0.0166945
795.138	0.0167834
795.216	0.0166398
795.294	0.0167281
795.372	0.0167312
795.450	0.0168107
795.529	0.0166642
795.607	0.0167820
795.685	0.0168627
795.763	0.0168494
795.841	0.0168531
795.919	0.0169167
795.997	0.0167464
796.075	0.0167933
796.154	0.0168697
796.232	0.0167743
796.310	0.0167874
796.388	0.0167799
796.466	0.0167389
796.544	0.0168085
796.622	0.0168678
796.700	0.0168010
796.779	0.0167451
796.857	0.0168459
796.935	0.0165415
797.013	0.0166468
797.091	0.0167914
797.169	0.0168339
797.247	0.0166895
797.325	0.0167296
797.404	0.0167660
797.482	0.0167184
797.560	0.0166691
797.638	0.0165671
797.716	0.0168437
797.794	0.0166747
797.872	0.0167631
797.950	0.0168353
798.029	0.0167355
798.107	0.0168317
798.185	0.0168304
798.263	0.0168813
798.341	0.0168884
798.419	0.0168486
798.497	0.0169105
798.575	0.0171095
798.654	0.0168931
798.732	0.0170783
798.810	0.0170249
798.888	0.0170875
798.966	0.0170814
799.044	0.0169384
799.122	0.0169215
799.200	0.0168604
799.279	0.0169234
799.357	0.0168856
799.435	0.0169937
799.513	0.0168135
799.591	0.0167300
799.669	0.0168652
799.747	0.0168743
799.825	0.0169223
799.904	0.0168345
799.982	0.0168162
800.060	0.0170061
800.138	0.0169526
800.216	0.0169979
800.294	0.0169326
800.372	0.0169585
800.450	0.0169961
800.529	0.0169037
800.607	0.0167406
800.685	0.0168764
800.763	0.0168494
800.841	0.0167219
800.919	0.0166130
800.997	0.0167899
801.075	0.0166718
801.154	0.0164794
801.232	0.0164866
801.310	0.0165528
801.388	0.0164805
801.466	0.0164030
801.544	0.0164629
801.622	0.0164284
801.700	0.0163722
801.779	0.0163030
801.857	0.0162456
801.935	0.0163599
802.013	0.0162280
802.091	0.0163088
802.169	0.0164409
802.247	0.0163773
802.325	0.0161858
802.404	0.0162453
802.482	0.0162697
802.560	0.0162611
802.638	0.0163014
802.716	0.0163702
802.794	0.0163731
802.872	0.0162411
802.950	0.0163692
803.029	0.0163582
803.107	0.0164288
803.185	0.0164223
803.263	0.0165273
803.341	0.0164680
803.419	0.0164407
803.497	0.0164873
803.575	0.0165619
803.654	0.0164783
803.732	0.0164742
803.810	0.0165990
803.888	0.0164929
803.966	0.0164133
804.044	0.0166422
804.122	0.0166116
804.200	0.0165293
804.279	0.0166962
804.357	0.0167312
804.435	0.0165691
804.513	0.0166272
804.591	0.0167189
804.669	0.0165695
804.747	0.0167118
804.825	0.0165431
804.904	0.0165026
804.982	0.0167317
805.060	0.0166338
805.138	0.0166711
805.216	0.0166843
805.294	0.0167032
805.372	0.0166314
805.450	0.0167441
805.529	0.0166531
805.607	0.0166394
805.685	0.0166703
805.763	0.0166343
805.841	0.0166536
805.919	0.0165754
805.997	0.0166121
806.075	0.0165632
806.154	0.0165945
806.232	0.0164435
806.310	0.0165195
806.388	0.0165575
806.466	0.0164616
806.544	0.0166035
806.622	0.0165842
806.700	0.0164303
806.779	0.0164629
806.857	0.0163979
806.935	0.0164633
807.013	0.0166560
807.091	0.0164581
807.169	0.0164961
807.247	0.0163859
807.325	0.0164835
807.404	0.0167246
807.482	0.0165435
807.560	0.0166084
807.638	0.0166216
807.716	0.0165634
807.794	0.0165215
807.872	0.0165784
807.950	0.0165414
808.029	0.0166563
808.107	0.0165561
808.185	0.0164484
808.263	0.0166241
808.341	0.0167289
808.419	0.0165659
808.497	0.0165754
808.575	0.0166451
808.654	0.0165018
808.732	0.0165413
808.810	0.0165784
808.888	0.0164736
808.966	0.0165609
809.044	0.0165672
809.122	0.0166042
809.200	0.0166416
809.279	0.0165768
809.357	0.0165804
809.435	0.0166053
809.513	0.0166720
809.591	0.0166761
809.669	0.0166792
809.747	0.0166785
809.825	0.0166077
809.904	0.0166640
809.982	0.0168631
810.060	0.0168039
810.138	0.0167919
810.216	0.0168053
810.294	0.0168835
810.372	0.0169453
810.450	0.0169379
810.529	0.0167979
810.607	0.0168425
810.685	0.0170316
810.763	0.0170292
810.841	0.0169583
810.919	0.0169800
810.997	0.0170158
811.075	0.0170193
811.154	0.0169298
811.232	0.0169595
811.310	0.0169017
811.388	0.0168870
811.466	0.0169666
811.544	0.0168660
811.622	0.0171392
811.700	0.0169334
811.779	0.0169583
811.857	0.0169749
811.935	0.0170038
812.013	0.0168526
812.091	0.0167996
812.169	0.0168805
812.247	0.0168572
812.325	0.0168423
812.404	0.0168703
812.482	0.0168905
812.560	0.0167854
812.638	0.0167271
812.716	0.0168736
812.794	0.0167336
812.872	0.0168463
812.950	0.0170029
813.029	0.0169219
813.107	0.0168586
813.185	0.0168896
813.263	0.0168362
813.341	0.0168078
813.419	0.0169085
813.497	0.0168216
813.575	0.0168380
813.654	0.0167259
813.732	0.0167001
813.810	0.0167389
813.888	0.0166187
813.966	0.0166250
814.044	0.0167756
814.122	0.0166985
814.200	0.0166978
814.279	0.0166185
814.357	0.0166620
814.435	0.0166148
814.513	0.0165291
814.591	0.0166450
814.669	0.0167522
814.747	0.0165044
814.825	0.0165688
814.904	0.0165653
814.982	0.0166296
815.060	0.0165972
815.138	0.0166135
815.216	0.0166299
815.294	0.0166559
815.372	0.0165734
815.450	0.0165813
815.529	0.0166753
815.607	0.0165978
815.685	0.0167403
815.763	0.0167755
815.841	0.0167048
815.919	0.0167265
815.997	0.0167593
816.075	0.0167802
816.154	0.0167104
816.232	0.0166197
816.310	0.0168439
816.388	0.0167737
816.466	0.0168201
816.544	0.0167854
816.622	0.0169284
816.700	0.0168134
816.779	0.0168857
816.857	0.0167818
816.935	0.0168798
817.013	0.0168765
817.091	0.0169195
817.169	0.0168159
817.247	0.0169688
817.325	0.0170256
817.404	0.0168093
817.482	0.0168218
817.560	0.0168951
817.638	0.0168365
817.716	0.0168269
817.794	0.0168739
817.872	0.0166673
817.950	0.0167786
818.029	0.0166451
818.107	0.0168005
818.185	0.0166973
818.263	0.0166039
818.341	0.0166578
818.419	0.0165668
818.497	0.0166449
818.575	0.0166054
818.654	0.0164726
818.732	0.0164073
818.810	0.0164371
818.888	0.0163784
818.966	0.0165008
819.044	0.0166109
819.122	0.0165382
819.200	0.0165045
819.279	0.0164188
819.357	0.0164808
819.435	0.0164011
819.513	0.0165623
819.591	0.0165674
819.669	0.0165266
819.747	0.0163894
819.825	0.0164355
819.904	0.0164672
819.982	0.0163449
820.060	0.0164017
820.138	0.0164230
820.216	0.0163279
820.294	0.0164156
820.372	0.0164948
820.450	0.0164470
820.529	0.0165110
820.607	0.0165334
820.685	0.0165843
820.763	0.0165774
820.841	0.0164314
820.919	0.0165833
820.997	0.0165216
821.075	0.0166248
821.154	0.0164964
821.232	0.0167101
821.310	0.0166370
821.388	0.0166144
821.466	0.0167497
821.544	0.0166410
821.622	0.0167023
821.700	0.0166294
821.779	0.0167242
821.857	0.0166883
821.935	0.0165079
822.013	0.0167655
822.091	0.0167467
822.169	0.0167239
822.247	0.0167825
822.325	0.0167337
822.404	0.0167228
822.482	0.0166983
822.560	0.0167044
822.638	0.0165931
822.716	0.0165656
822.794	0.0166563
822.872	0.0167670
822.950	0.0165968
823.029	0.0167615
823.107	0.0165416
823.185	0.0164599
823.263	0.0165961
823.341	0.0166029
823.419	0.0165336
823.497	0.0166000
823.575	0.0166058
823.654	0.0166089
823.732	0.0166038
823.810	0.0166362
823.888	0.0167325
823.966	0.0167040
824.044	0.0166685
824.122	0.0167029
824.200	0.0166317
824.279	0.0167427
824.357	0.0167956
824.435	0.0167245
824.513	0.0168334
824.591	0.0167952
824.669	0.0168125
824.747	0.0168136
824.825	0.0167770
824.904	0.0168736
824.982	0.0168063
825.060	0.0168455
825.138	0.0170008
825.216	0.0166981
825.294	0.0167899
825.372	0.0168868
825.450	0.0169093
825.529	0.0167719
825.607	0.0167901
825.685	0.0169868
825.763	0.0167712
825.841	0.0168075
825.919	0.0167866
825.997	0.0168413
826.075	0.0167999
826.154	0.0169377
826.232	0.0168121
826.310	0.0168201
826.388	0.0168694
826.466	0.0167148
826.544	0.0167199
826.622	0.0166835
826.700	0.0167893
826.779	0.0167262
826.857	0.0165640
826.935	0.0166643
827.013	0.0166572
827.091	0.0166726
827.169	0.0165753
827.247	0.0164774
827.325	0.0166430
827.404	0.0164959
827.482	0.0164222
827.560	0.0166039
827.638	0.0165559
827.716	0.0164472
827.794	0.0163937
827.872	0.0164335
827.950	0.0165144
828.029	0.0166711
828.107	0.0166427
828.185	0.0165778
828.263	0.0164880
828.341	0.0164907
828.419	0.0166467
828.497	0.0166756
828.575	0.0166515
828.654	0.0164872
828.732	0.0167038
828.810	0.0166546
828.888	0.0166938
828.966	0.0165472
829.044	0.0166750
829.122	0.0166801
829.200	0.0166943
829.279	0.0166741
829.357	0.0166176
829.435	0.0167667
829.513	0.0167246
829.591	0.0166444
829.669	0.0167518
829.747	0.0167208
829.825	0.0167384
829.904	0.0167577
829.982	0.0167056
830.060	0.0166684
830.138	0.0167142
830.216	0.0168199
830.294	0.0166827
830.372	0.0166310
830.450	0.0165062
830.529	0.0166132
830.607	0.0166613
830.685	0.0167326
830.763	0.0165946
830.841	0.0166653
830.919	0.0165621
830.997	0.0166196
831.075	0.0164919
831.154	0.0165040
831.232	0.0165518
831.310	0.0165916
831.388	0.0166942
831.466	0.0165678
831.544	0.0165271
831.622	0.0166852
831.700	0.0166552
831.779	0.0166360
831.857	0.0165208
831.935	0.0166166
832.013	0.0165865
832.091	0.0165440
832.169	0.0168130
832.247	0.0166134
832.325	0.0167984
832.404	0.0168121
832.482	0.0166206
832.560	0.0167459
832.638	0.0167606
832.716	0.0167253
832.794	0.0168347
832.872	0.0169680
832.950	0.0168831
833.029	0.0168108
833.107	0.0168805
833.185	0.0169003
833.263	0.0168573
833.341	0.0168111
833.419	0.0169161
833.497	0.0167722
833.575	0.0167136
833.654	0.0167946
833.732	0.0167104
833.810	0.0167342
833.888	0.0167072
833.966	0.0167171
834.044	0.0166676
834.122	0.0166000
834.200	0.0165707
834.279	0.0165977
834.357	0.0165728
834.435	0.0166615
834.513	0.0165939
834.591	0.0165629
834.669	0.0166135
834.747	0.0165907
834.825	0.0166628
834.904	0.0165807
834.982	0.0164745
835.060	0.0167775
835.138	0.0166731
835.216	0.0168700
835.294	0.0167038
835.372	0.0167023
835.450	0.0168483
835.529	0.0169903
835.607	0.0168238
835.685	0.0169067
835.763	0.0168524
835.841	0.0171141
835.919	0.0168643
835.997	0.0170235
836.075	0.0170041
836.154	0.0170177
836.232	0.0170369
836.310	0.0169080
836.388	0.0168682
836.466	0.0169409
836.544	0.0170171
836.622	0.0170158
836.700	0.0169264
836.779	0.0166676
836.857	0.0169172
836.935	0.0169062
837.013	0.0167858
837.091	0.0168954
837.169	0.0169461
837.247	0.0167695
837.325	0.0167376
837.404	0.0167815
837.482	0.0167403
837.560	0.0166880
837.638	0.0166864
837.716	0.0166409
837.794	0.0167423
837.872	0.0166296
837.950	0.0166901
838.029	0.0167410
838.107	0.0166304
838.185	0.0167816
838.263	0.0167935
838.341	0.0166113
838.419	0.0166033
838.497	0.0167056
838.575	0.0167416
838.654	0.0166130
838.732	0.0166556
838.810	0.0166483
838.888	0.0167603
838.966	0.0167430
839.044	0.0166290
839.122	0.0165182
839.200	0.0166604
839.279	0.0167198
839.357	0.0166282
839.435	0.0165603
839.513	0.0164745
839.591	0.0165440
839.669	0.0166288
839.747	0.0165637
839.825	0.0165329
839.904	0.0164443
839.982	0.0165315
840.060	0.0167240
840.138	0.0166765
840.216	0.0166441
840.294	0.0167738
840.372	0.0166262
840.450	0.0165488
840.529	0.0166512
840.607	0.0168124
840.685	0.0167411
840.763	0.0167130
840.841	0.0167480
840.919	0.0168253
840.997	0.0168082
841.075	0.0169816
841.154	0.0167635
841.232	0.0167928
841.310	0.0167535
841.388	0.0167646
841.466	0.0169857
841.544	0.0169504
841.622	0.0168246
841.700	0.0167507
841.779	0.0167910
841.857	0.0167718
841.935	0.0167482
842.013	0.0167566
842.091	0.0165769
842.169	0.0166629
842.247	0.0166016
842.325	0.0167051
842.404	0.0166100
842.482	0.0165243
842.560	0.0166331
842.638	0.0168085
842.716	0.0166209
842.794	0.0167301
842.872	0.0166058
842.950	0.0166730
843.029	0.0165925
843.107	0.0167697
843.185	0.0166679
843.263	0.0166917
843.341	0.0168453
843.419	0.0167078
843.497	0.0168295
843.575	0.0167313
843.654	0.0167989
843.732	0.0168880
843.810	0.0166588
843.888	0.0167178
843.966	0.0168740
844.044	0.0168310
844.122	0.0167104
844.200	0.0167394
844.279	0.0168159
844.357	0.0167291
844.435	0.0168243
844.513	0.0167834
844.591	0.0167081
844.669	0.0167858
844.747	0.0167028
844.825	0.0166514
844.904	0.0166730
844.982	0.0167529
845.060	0.0166662
845.138	0.0167590
845.216	0.0166570
845.294	0.0165575
845.372	0.0165302
845.450	0.0165656
845.529	0.0164566
845.607	0.0164881
845.685	0.0164021
845.763	0.0164344
845.841	0.0164497
845.919	0.0164171
845.997	0.0164158
846.075	0.0163691
846.154	0.0163638
846.232	0.0164954
846.310	0.0164311
846.388	0.0164195
846.466	0.0165044
846.544	0.0164829
846.622	0.0165614
846.700	0.0166075
846.779	0.0165522
846.857	0.0167336
846.935	0.0165580
847.013	0.0167403
847.091	0.0167214
847.169	0.0167231
847.247	0.0168555
847.325	0.0167709
847.404	0.0168237
847.482	0.0167200
847.560	0.0168565
847.638	0.0169611
847.716	0.0169035
847.794	0.0168194
847.872	0.0169746
847.950	0.0167771
848.029	0.0166864
848.107	0.0168359
848.185	0.0167458
848.263	0.0167360
848.341	0.0166532
848.419	0.0165945
848.497	0.0166703
848.575	0.0165455
848.654	0.0165376
848.732	0.0165156
848.810	0.0165738
848.888	0.0165529
848.966	0.0165357
849.044	0.0165319
849.122	0.0164935
849.200	0.0166239
849.279	0.0163879
849.357	0.0165002
849.435	0.0164546
849.513	0.0165918
849.591	0.0165461
849.669	0.0166042
849.747	0.0166325
849.825	0.0165005
849.904	0.0164634
849.982	0.0165257
850.060	0.0165777
850.138	0.0166522
850.216	0.0166853
850.294	0.0166396
850.372	0.0166940
850.450	0.0168277
850.529	0.0167035
850.607	0.0167059
850.685	0.0168134
850.763	0.0168720
850.841	0.0167119
850.919	0.0169057
850.997	0.0169442
851.075	0.0168431
851.154	0.0167786
851.232	0.0168107
851.310	0.0167344
851.388	0.0166638
851.466	0.0167475
851.544	0.0166706
851.622	0.0167989
851.700	0.0166821
851.779	0.0167285
851.857	0.0164813
851.935	0.0165230
852.013	0.0165453
852.091	0.0164764
852.169	0.0164728
852.247	0.0164204
852.325	0.0165046
852.404	0.0165209
852.482	0.0166167
852.560	0.0165417
852.638	0.0166411
852.716	0.0166279
852.794	0.0164629
852.872	0.0165150
852.950	0.0166724
853.029	0.0166655
853.107	0.0168320
853.185	0.0167312
853.263	0.0168594
853.341	0.0168156
853.419	0.0167773
853.497	0.0167883
853.575	0.0169686
853.654	0.0170079
853.732	0.0170379
853.810	0.0170487
853.888	0.0170216
853.966	0.0170961
854.044	0.0170469
854.122	0.0169704
854.200	0.0171156
854.279	0.0170850
854.357	0.0170261
854.435	0.0171388
854.513	0.0168001
854.591	0.0169652
854.669	0.0170728
854.747	0.0169904
854.825	0.0169530
854.904	0.0169235
854.982	0.0167308
855.060	0.0165878
855.138	0.0168368
855.216	0.0166706
855.294	0.0167779
855.372	0.0167718
855.450	0.0167174
855.529	0.0165224
855.607	0.0166215
855.685	0.0165979
855.763	0.0165867
855.841	0.0164990
855.919	0.0164883
855.997	0.0164495
856.075	0.0165215
856.154	0.0164913
856.232	0.0166419
856.310	0.0165851
856.388	0.0165483
856.466	0.0165836
856.544	0.0164866
856.622	0.0164384
856.700	0.0166080
856.779	0.0164935
856.857	0.0164333
856.935	0.0166344
857.013	0.0165611
857.091	0.0165527
857.169	0.0165742
857.247	0.0166473
857.325	0.0166400
857.404	0.0165294
857.482	0.0165737
857.560	0.0166597
857.638	0.0167811
857.716	0.0165698
857.794	0.0167050
857.872	0.0166067
857.950	0.0168174
858.029	0.0167008
858.107	0.0166393
858.185	0.0167859
858.263	0.0168386
858.341	0.0168106
858.419	0.0168291
858.497	0.0169801
858.575	0.0168391
858.654	0.0168563
858.732	0.0169083
858.810	0.0168656
858.888	0.0167966
858.966	0.0168397
859.044	0.0168826
859.122	0.0168084
859.200	0.0168095
859.279	0.0169717
859.357	0.0169495
859.435	0.0169043
859.513	0.0168423
859.591	0.0166885
859.669	0.0168559
859.747	0.0168018
859.825	0.0167236
859.904	0.0167517
859.982	0.0167585
860.060	0.0165185
860.138	0.0165748
860.216	0.0166944
860.294	0.0166282
860.372	0.0163475
860.450	0.0164493
860.529	0.0164790
860.607	0.0165443
860.685	0.0164075
860.763	0.0164153
860.841	0.0165622
860.919	0.0165562
860.997	0.0166833
861.075	0.0165897
861.154	0.0163866
861.232	0.0166638
861.310	0.0167091
861.388	0.0164857
861.466	0.0166917
861.544	0.0166024
861.622	0.0166232
861.700	0.0166628
861.779	0.0167168
861.857	0.0166621
861.935	0.0168218
862.013	0.0167066
862.091	0.0167081
862.169	0.0167385
862.247	0.0167978
862.325	0.0166460
862.404	0.0167572
862.482	0.0165853
862.560	0.0167484
862.638	0.0166038
862.716	0.0166402
862.794	0.0165260
862.872	0.0165153
862.950	0.0165925
863.029	0.0165285
863.107	0.0164214
863.185	0.0164600
863.263	0.0163206
863.341	0.0164417
863.419	0.0163547
863.497	0.0163972
863.575	0.0164796
863.654	0.0163580
863.732	0.0164271
863.810	0.0163842
863.888	0.0164375
863.966	0.0163863
864.044	0.0163149
864.122	0.0163800
864.200	0.0165404
864.279	0.0164024
864.357	0.0163561
864.435	0.0165203
864.513	0.0165207
864.591	0.0166322
864.669	0.0164877
864.747	0.0165257
864.825	0.0166442
864.904	0.0165981
864.982	0.0166884
865.060	0.0166327
865.138	0.0167082
865.216	0.0166418
865.294	0.0166866
865.372	0.0166515
865.450	0.0167630
865.529	0.0167410
865.607	0.0167059
865.685	0.0166027
865.763	0.0166425
865.841	0.0166791
865.919	0.0166678
865.997	0.0166456
866.075	0.0165916
866.154	0.0166726
866.232	0.0166654
866.310	0.0166226
866.388	0.0166775
866.466	0.0166705
866.544	0.0167257
866.622	0.0167410
866.700	0.0166866
866.779	0.0168724
866.857	0.0168112
866.935	0.0168027
867.013	0.0167603
867.091	0.0169907
867.169	0.0168019
867.247	0.0169422
867.325	0.0168382
867.404	0.0168797
867.482	0.0169174
867.560	0.0170445
867.638	0.0169705
867.716	0.0170084
867.794	0.0169012
867.872	0.0169032
867.950	0.0169569
868.029	0.0168634
868.107	0.0169810
868.185	0.0169511
868.263	0.0168346
868.341	0.0168456
868.419	0.0170168
868.497	0.0168695
868.575	0.0167715
868.654	0.0168747
868.732	0.0167253
868.810	0.0169317
868.888	0.0168713
868.966	0.0165652
869.044	0.0166360
869.122	0.0167720
869.200	0.0164665
869.279	0.0166191
869.357	0.0165887
869.435	0.0165636
869.513	0.0164729
869.591	0.0166080
869.669	0.0165401
869.747	0.0165894
869.825	0.0165875
869.904	0.0166927
869.982	0.0166273
870.060	0.0165461
870.138	0.0165095
870.216	0.0166166
870.294	0.0165901
870.372	0.0166168
870.450	0.0166823
870.529	0.0166645
870.607	0.0166484
870.685	0.0166592
870.763	0.0165462
870.841	0.0166423
870.919	0.0166055
870.997	0.0165742
871.075	0.0166695
871.154	0.0165398
871.232	0.0166151
871.310	0.0166713
871.388	0.0167191
871.466	0.0167118
871.544	0.0166015
871.622	0.0165137
871.700	0.0166078
871.779	0.0167261
871.857	0.0168125
871.935	0.0166641
872.013	0.0167729
872.091	0.0167103
872.169	0.0166491
872.247	0.0166530
872.325	0.0167552
872.404	0.0167200
872.482	0.0167144
872.560	0.0166903
872.638	0.0166636
872.716	0.0166115
872.794	0.0165451
872.872	0.0164488
872.950	0.0164776
873.029	0.0165086
873.107	0.0165294
873.185	0.0165227
873.263	0.0164854
873.341	0.0166072
873.419	0.0163546
873.497	0.0164517
873.575	0.0164488
873.654	0.0164602
873.732	0.0164497
873.810	0.0165866
873.888	0.0164153
873.966	0.0164301
874.044	0.0165694
874.122	0.0165264
874.200	0.0166026
874.279	0.0166078
874.357	0.0165752
874.435	0.0165436
874.513	0.0166015
874.591	0.0168526
874.669	0.0167415
874.747	0.0166102
874.825	0.0166566
874.904	0.0167828
874.982	0.0166569
875.060	0.0166222
875.138	0.0166170
875.216	0.0166077
875.294	0.0165601
875.372	0.0164825
875.450	0.0163701
875.529	0.0163869
875.607	0.0166498
875.685	0.0165013
875.763	0.0165577
875.841	0.0165649
875.919	0.0165162
875.997	0.0162698
876.075	0.0163357
876.154	0.0164334
876.232	0.0163833
876.310	0.0164838
876.388	0.0165322
876.466	0.0163846
876.544	0.0165472
876.622	0.0165502
876.700	0.0165212
876.779	0.0164500
876.857	0.0165285
876.935	0.0165022
877.013	0.0164648
877.091	0.0167027
877.169	0.0164810
877.247	0.0164292
877.325	0.0166100
877.404	0.0165276
877.482	0.0163063
877.560	0.0164583
877.638	0.0165796
877.716	0.0165545
877.794	0.0165677
877.872	0.0164795
877.950	0.0164302
878.029	0.0164102
878.107	0.0163427
878.185	0.0165174
878.263	0.0165376
878.341	0.0165793
878.419	0.0166504
878.497	0.0165891
878.575	0.0165137
878.654	0.0164905
878.732	0.0165868
878.810	0.0166594
878.888	0.0165575
878.966	0.0166608
879.044	0.0165746
879.122	0.0166243
879.200	0.0166300
879.279	0.0165974
879.357	0.0166061
879.435	0.0164970
879.513	0.0167219
879.591	0.0166621
879.669	0.0166144
879.747	0.0167596
879.825	0.0165296
879.904	0.0166637
879.982	0.0166547
880.060	0.0165984
880.138	0.0165587
880.216	0.0167032
880.294	0.0165560
880.372	0.0166535
880.450	0.0165711
880.529	0.0166086
880.607	0.0164680
880.685	0.0167090
880.763	0.0165834
880.841	0.0165823
880.919	0.0166787
880.997	0.0164086
881.075	0.0166011
881.154	0.0165305
881.232	0.0164703
881.310	0.0164562
881.388	0.0164677
881.466	0.0163485
881.544	0.0163782
881.622	0.0165501
881.700	0.0165603
881.779	0.0163683
881.857	0.0163945
881.935	0.0164017
882.013	0.0163707
882.091	0.0163982
882.169	0.0163741
882.247	0.0165630
882.325	0.0165199
882.404	0.0164713
882.482	0.0166648
882.560	0.0166206
882.638	0.0166361
882.716	0.0167162
882.794	0.0166916
882.872	0.0167147
882.950	0.0167466
883.029	0.0166621
883.107	0.0167623
883.185	0.0168913
883.263	0.0166481
883.341	0.0167785
883.419	0.0170358
883.497	0.0168404
883.575	0.0168259
883.654	0.0169593
883.732	0.0168937
883.810	0.0169183
883.888	0.0168572
883.966	0.0167662
884.044	0.0168375
884.122	0.0168730
884.200	0.0166959
884.279	0.0166975
884.357	0.0167060
884.435	0.0166793
884.513	0.0166361
884.591	0.0165606
884.669	0.0166592
884.747	0.0165370
884.825	0.0165428
884.904	0.0164038
884.982	0.0164361
885.060	0.0165504
885.138	0.0166214
885.216	0.0163707
885.294	0.0165679
885.372	0.0165722
885.450	0.0165960
885.529	0.0165334
885.607	0.0165462
885.685	0.0165398
885.763	0.0163831
885.841	0.0164147
885.919	0.0166581
885.997	0.0165394
886.075	0.0165147
886.154	0.0166429
886.232	0.0165819
886.310	0.0166112
886.388	0.0166088
886.466	0.0167046
886.544	0.0167940
886.622	0.0167806
886.700	0.0166996
886.779	0.0167181
886.857	0.0167135
886.935	0.0166302
887.013	0.0167577
887.091	0.0169633
887.169	0.0168690
887.247	0.0168678
887.325	0.0167887
887.404	0.0168015
887.482	0.0168718
887.560	0.0168822
887.638	0.0167734
887.716	0.0167579
887.794	0.0169152
887.872	0.0168439
887.950	0.0168605
888.029	0.0168108
888.107	0.0167664
888.185	0.0167453
888.263	0.0166814
888.341	0.0166939
888.419	0.0167215
888.497	0.0167418
888.575	0.0167477
888.654	0.0166756
888.732	0.0165777
888.810	0.0166380
888.888	0.0167096
888.966	0.0166984
889.044	0.0165143
889.122	0.0166231
889.200	0.0166624
889.279	0.0165025
889.357	0.0166665
889.435	0.0166183
889.513	0.0166090
889.591	0.0165413
889.669	0.0165612
889.747	0.0164519
889.825	0.0166455
889.904	0.0167040
889.982	0.0166385
890.060	0.0167200
890.138	0.0166490
890.216	0.0166606
890.294	0.0166287
890.372	0.0166595
890.450	0.0166164
890.529	0.0167821
890.607	0.0167091
890.685	0.0166756
890.763	0.0167573
890.841	0.0166850
890.919	0.0167101
890.997	0.0168246
891.075	0.0168740
891.154	0.0168743
891.232	0.0167191
891.310	0.0168308
891.388	0.0167732
891.466	0.0168736
891.544	0.0168848
891.622	0.0166184
891.700	0.0167623
891.779	0.0167641
891.857	0.0166594
891.935	0.0166092
892.013	0.0167363
892.091	0.0166647
892.169	0.0166850
892.247	0.0166557
892.325	0.0167001
892.404	0.0166901
892.482	0.0166338
892.560	0.0165141
892.638	0.0166368
892.716	0.0166222
892.794	0.0166196
892.872	0.0165859
892.950	0.0164796
893.029	0.0166873
893.107	0.0165337
893.185	0.0165224
893.263	0.0165088
893.341	0.0166646
893.419	0.0165759
893.497	0.0166850
893.575	0.0166156
893.654	0.0165186
893.732	0.0166290
893.810	0.0164477
893.888	0.0166064
893.966	0.0166369
894.044	0.0166328
894.122	0.0167216
894.200	0.0167409
894.279	0.0167550
894.357	0.0166770
894.435	0.0167051
894.513	0.0165753
894.591	0.0167047
894.669	0.0165412
894.747	0.0166007
894.825	0.0165698
894.904	0.0165292
894.982	0.0166250
895.060	0.0164774
895.138	0.0163791
895.216	0.0165980
895.294	0.0166367
895.372	0.0163798
895.450	0.0164536
895.529	0.0164706
895.607	0.0165013
895.685	0.0165377
895.763	0.0165721
895.841	0.0165880
895.919	0.0164671
895.997	0.0167095
896.075	0.0165622
896.154	0.0166228
896.232	0.0167308
896.310	0.0166041
896.388	0.0166311
896.466	0.0167554
896.544	0.0167142
896.622	0.0167786
896.700	0.0166149
896.779	0.0168121
896.857	0.0168742
896.935	0.0168711
897.013	0.0168189
897.091	0.0167632
897.169	0.0167953
897.247	0.0168393
897.325	0.0168680
897.404	0.0167785
897.482	0.0168816
897.560	0.0167831
897.638	0.0166718
897.716	0.0168258
897.794	0.0168358
897.872	0.0168279
897.950	0.0169085
898.029	0.0167355
898.107	0.0168833
898.185	0.0167835
898.263	0.0167091
898.341	0.0166943
898.419	0.0165662
898.497	0.0166172
898.575	0.0165216
898.654	0.0165919
898.732	0.0165801
898.810	0.0164085
898.888	0.0165272
898.966	0.0165139
899.044	0.0165777
899.122	0.0164941
899.200	0.0166215
899.279	0.0164880
899.357	0.0166011
899.435	0.0166778
899.513	0.0166125
899.591	0.0166420
899.669	0.0165996
899.747	0.0167290
899.825	0.0166303
899.904	0.0168224
899.982	0.0168108
900.060	0.0167744
900.138	0.0169465
900.216	0.0167650
900.294	0.0169687
900.372	0.0168462
900.450	0.0169138
900.529	0.0170049
900.607	0.0168893
900.685	0.0170256
900.763	0.0169312
900.841	0.0169823
900.919	0.0169653
900.997	0.0169122
901.075	0.0169250
901.154	0.0168557
901.232	0.0168445
901.310	0.0169118
901.388	0.0168683
901.466	0.0168067
901.544	0.0168006
901.622	0.0169749
901.700	0.0168311
901.779	0.0166932
901.857	0.0167216
901.935	0.0168066
902.013	0.0167381
902.091	0.0166885
902.169	0.0167011
902.247	0.0167420
902.325	0.0167934
902.404	0.0169067
902.482	0.0167926
902.560	0.0167441
902.638	0.0167896
902.716	0.0168123
902.794	0.0169143
902.872	0.0168607
902.950	0.0167171
903.029	0.0167219
903.107	0.0166816
903.185	0.0166833
903.263	0.0166161
903.341	0.0166487
903.419	0.0167401
903.497	0.0167735
903.575	0.0166451
903.654	0.0166125
903.732	0.0166079
903.810	0.0164725
903.888	0.0165841
903.966	0.0166412
904.044	0.0165095
904.122	0.0165317
904.200	0.0165137
904.279	0.0166322
904.357	0.0165619
904.435	0.0165670
904.513	0.0165079
904.591	0.0165095
904.669	0.0163619
904.747	0.0164274
904.825	0.0164730
904.904	0.0164808
904.982	0.0163570
905.060	0.0165327
905.138	0.0164249
905.216	0.0164919
905.294	0.0164258
905.372	0.0164761
905.450	0.0165531
905.529	0.0167004
905.607	0.0167581
905.685	0.0165382
905.763	0.0165598
905.841	0.0168006
905.919	0.0166707
905.997	0.0167982
906.075	0.0166821
906.154	0.0168127
906.232	0.0167995
906.310	0.0168723
906.388	0.0168596
906.466	0.0168623
906.544	0.0169047
906.622	0.0167054
906.700	0.0167725
906.779	0.0167184
906.857	0.0167666
906.935	0.0166904
907.013	0.0166797
907.091	0.0167323
907.169	0.0167074
907.247	0.0165765
907.325	0.0165551
907.404	0.0166035
907.482	0.0164776
907.560	0.0165131
907.638	0.0165803
907.716	0.0166862
907.794	0.0166325
907.872	0.0165092
907.950	0.0164996
908.029	0.0164416
908.107	0.0165674
908.185	0.0166841
908.263	0.0164857
908.341	0.0166138
908.419	0.0164922
908.497	0.0165640
908.575	0.0165838
908.654	0.0165876
908.732	0.0165980
908.810	0.0167389
908.888	0.0165353
908.966	0.0166145
909.044	0.0166755
909.122	0.0166403
909.200	0.0165549
909.279	0.0166537
909.357	0.0164977
909.435	0.0166661
909.513	0.0165739
909.591	0.0167012
909.669	0.0166005
909.747	0.0166531
909.825	0.0166353
909.904	0.0166753
909.982	0.0165684
910.060	0.0167547
910.138	0.0168516
910.216	0.0168635
910.294	0.0167570
910.372	0.0168775
910.450	0.0167820
910.529	0.0169252
910.607	0.0169254
910.685	0.0169704
910.763	0.0170225
910.841	0.0168000
910.919	0.0168816
910.997	0.0167983
911.075	0.0170587
911.154	0.0169458
911.232	0.0169467
911.310	0.0168979
911.388	0.0168826
911.466	0.0170042
911.544	0.0168578
911.622	0.0168911
911.700	0.0168936
911.779	0.0166605
911.857	0.0169408
911.935	0.0170412
912.013	0.0167821
912.091	0.0168893
912.169	0.0169041
912.247	0.0168712
912.325	0.0169031
912.404	0.0169331
912.482	0.0168269
912.560	0.0166769
912.638	0.0167738
912.716	0.0167741
912.794	0.0168629
912.872	0.0167232
912.950	0.0167479
913.029	0.0168401
913.107	0.0167494
913.185	0.0166904
913.263	0.0165757
913.341	0.0166712
913.419	0.0168326
913.497	0.0167438
913.575	0.0167628
913.654	0.0166169
913.732	0.0167026
913.810	0.0167529
913.888	0.0166891
913.966	0.0166251
914.044	0.0165186
914.122	0.0167128
914.200	0.0165813
914.279	0.0166395
914.357	0.0167229
914.435	0.0166902
914.513	0.0167740
914.591	0.0166512
914.669	0.0166809
914.747	0.0166908
914.825	0.0166428
914.904	0.0167065
914.982	0.0167116
915.060	0.0168465
915.138	0.0166882
915.216	0.0167229
915.294	0.0167757
915.372	0.0167111
915.450	0.0167104
915.529	0.0166586
915.607	0.0167043
915.685	0.0166808
915.763	0.0167873
915.841	0.0167213
915.919	0.0167766
915.997	0.0168106
916.075	0.0167812
916.154	0.0168143
916.232	0.0167025
916.310	0.0167318
916.388	0.0167268
916.466	0.0169510
916.544	0.0168526
916.622	0.0167915
916.700	0.0167265
916.779	0.0169353
916.857	0.0169246
916.935	0.0167204
917.013	0.0169076
917.091	0.0169284
917.169	0.0169907
917.247	0.0168363
917.325	0.0167261
917.404	0.0169401
917.482	0.0169222
917.560	0.0168789
917.638	0.0167493
917.716	0.0166825
917.794	0.0167500
917.872	0.0169637
917.950	0.0168530
918.029	0.0166651
918.107	0.0168292
918.185	0.0168304
918.263	0.0168687
918.341	0.0169524
918.419	0.0168704
918.497	0.0167430
918.575	0.0167595
918.654	0.0166210
918.732	0.0165890
918.810	0.0168186
918.888	0.0166611
918.966	0.0166315
919.044	0.0167596
919.122	0.0166611
919.200	0.0166369
919.279	0.0167389
919.357	0.0165969
919.435	0.0166286
919.513	0.0166351
919.591	0.0166640
919.669	0.0166992
919.747	0.0166967
919.825	0.0165442
919.904	0.0166715
