05/26/2022	21:09:36	Ver.	4.1	UNKNOWN
Optical Delay	400.036748	Delta X		0.078125	Sweeps	1	Scan Rate	0/0
Coordinates	Axis 1	NaN	Axis 2	NaN	Axis 3	NaN	Axis 4	NaN	Axis 5	NaN	Axis 6	0.000000
TX Power	0.000000	RX Power	0.000000

400.037	0.0161611
400.115	0.0161751
400.193	0.0161037
400.271	0.0162088
400.349	0.0161570
400.427	0.0161916
400.505	0.0161108
400.584	0.0160915
400.662	0.0162220
400.740	0.0162323
400.818	0.0160364
400.896	0.0160249
400.974	0.0160548
401.052	0.0161732
401.130	0.0161653
401.209	0.0160618
401.287	0.0160803
401.365	0.0162369
401.443	0.0161074
401.521	0.0160891
401.599	0.0160923
401.677	0.0161996
401.755	0.0160732
401.834	0.0162102
401.912	0.0160535
401.990	0.0160992
402.068	0.0159557
402.146	0.0160678
402.224	0.0160477
402.302	0.0161509
402.380	0.0161150
402.459	0.0160857
402.537	0.0160851
402.615	0.0161504
402.693	0.0160054
402.771	0.0161611
402.849	0.0162319
402.927	0.0160295
403.005	0.0161201
403.084	0.0161977
403.162	0.0161452
403.240	0.0161664
403.318	0.0162173
403.396	0.0162478
403.474	0.0161172
403.552	0.0160128
403.630	0.0160264
403.709	0.0161043
403.787	0.0160678
403.865	0.0159912
403.943	0.0160048
404.021	0.0161758
404.099	0.0161112
404.177	0.0161787
404.255	0.0161742
404.334	0.0161832
404.412	0.0160925
404.490	0.0161276
404.568	0.0161138
404.646	0.0161091
404.724	0.0161346
404.802	0.0160920
404.880	0.0159635
404.959	0.0161572
405.037	0.0160990
405.115	0.0161788
405.193	0.0160872
405.271	0.0161193
405.349	0.0160957
405.427	0.0160454
405.505	0.0161855
405.584	0.0161599
405.662	0.0159959
405.740	0.0160439
405.818	0.0160730
405.896	0.0162218
405.974	0.0160738
406.052	0.0162087
406.130	0.0160608
406.209	0.0161120
406.287	0.0161201
406.365	0.0160892
406.443	0.0162031
406.521	0.0161234
406.599	0.0160646
406.677	0.0162503
406.755	0.0160154
406.834	0.0160386
406.912	0.0161214
406.990	0.0160685
407.068	0.0161231
407.146	0.0161716
407.224	0.0161467
407.302	0.0161485
407.380	0.0160503
407.459	0.0160576
407.537	0.0160736
407.615	0.0161969
407.693	0.0162274
407.771	0.0161417
407.849	0.0160802
407.927	0.0161465
408.005	0.0159835
408.084	0.0159822
408.162	0.0161349
408.240	0.0161695
408.318	0.0161024
408.396	0.0161856
408.474	0.0160570
408.552	0.0159534
408.630	0.0159480
408.709	0.0160427
408.787	0.0161909
408.865	0.0160323
408.943	0.0160092
409.021	0.0160561
409.099	0.0160693
409.177	0.0161821
409.255	0.0162281
409.334	0.0161139
409.412	0.0161517
409.490	0.0160245
409.568	0.0160765
409.646	0.0161151
409.724	0.0162037
409.802	0.0161329
409.880	0.0161639
409.959	0.0161217
410.037	0.0162236
410.115	0.0160750
410.193	0.0160491
410.271	0.0160300
410.349	0.0160179
410.427	0.0161229
410.505	0.0160614
410.584	0.0160755
410.662	0.0160046
410.740	0.0160622
410.818	0.0160201
410.896	0.0160209
410.974	0.0161128
411.052	0.0162539
411.130	0.0162137
411.209	0.0162275
411.287	0.0161504
411.365	0.0160821
411.443	0.0161951
411.521	0.0161187
411.599	0.0161806
411.677	0.0161707
411.755	0.0160513
411.834	0.0160489
411.912	0.0161627
411.990	0.0162760
412.068	0.0162611
412.146	0.0161131
412.224	0.0162261
412.302	0.0161695
412.380	0.0162154
412.459	0.0160185
412.537	0.0161151
412.615	0.0161966
412.693	0.0161447
412.771	0.0161932
412.849	0.0161683
412.927	0.0161599
413.005	0.0160516
413.084	0.0162427
413.162	0.0162194
413.240	0.0162218
413.318	0.0161597
413.396	0.0162098
413.474	0.0162994
413.552	0.0162045
413.630	0.0161900
413.709	0.0162189
413.787	0.0161545
413.865	0.0161426
413.943	0.0162098
414.021	0.0160606
414.099	0.0162194
414.177	0.0160472
414.255	0.0160976
414.334	0.0161130
414.412	0.0160867
414.490	0.0162283
414.568	0.0162220
414.646	0.0161336
414.724	0.0161308
414.802	0.0160303
414.880	0.0161924
414.959	0.0161243
415.037	0.0161945
415.115	0.0161118
415.193	0.0160226
415.271	0.0160452
415.349	0.0162267
415.427	0.0160453
415.505	0.0161987
415.584	0.0161180
415.662	0.0160670
415.740	0.0161448
415.818	0.0160954
415.896	0.0159602
415.974	0.0160997
416.052	0.0161570
416.130	0.0160651
416.209	0.0161478
416.287	0.0161733
416.365	0.0160751
416.443	0.0162080
416.521	0.0160805
416.599	0.0160172
416.677	0.0160708
416.755	0.0161729
416.834	0.0162057
416.912	0.0160828
416.990	0.0160968
417.068	0.0161009
417.146	0.0161849
417.224	0.0160548
417.302	0.0161710
417.380	0.0162307
417.459	0.0161913
417.537	0.0160793
417.615	0.0161500
417.693	0.0161308
417.771	0.0160754
417.849	0.0160473
417.927	0.0160685
418.005	0.0160805
418.084	0.0162113
418.162	0.0162025
418.240	0.0161598
418.318	0.0161324
418.396	0.0159734
418.474	0.0161319
418.552	0.0161022
418.630	0.0161666
418.709	0.0161102
418.787	0.0160963
418.865	0.0161211
418.943	0.0162906
419.021	0.0159890
419.099	0.0159887
419.177	0.0161720
419.255	0.0162025
419.334	0.0162580
419.412	0.0161653
419.490	0.0160736
419.568	0.0161600
419.646	0.0161652
419.724	0.0161063
419.802	0.0160856
419.880	0.0161362
419.959	0.0161862
420.037	0.0161158
420.115	0.0161502
420.193	0.0162177
420.271	0.0161110
420.349	0.0160928
420.427	0.0161072
420.505	0.0161103
420.584	0.0162422
420.662	0.0161512
420.740	0.0160746
420.818	0.0161416
420.896	0.0161370
420.974	0.0161777
421.052	0.0161164
421.130	0.0162642
421.209	0.0160800
421.287	0.0161221
421.365	0.0161536
421.443	0.0160489
421.521	0.0160784
421.599	0.0163200
421.677	0.0160999
421.755	0.0159849
421.834	0.0160379
421.912	0.0161610
421.990	0.0161825
422.068	0.0161604
422.146	0.0161414
422.224	0.0161324
422.302	0.0162196
422.380	0.0161077
422.459	0.0161703
422.537	0.0160102
422.615	0.0160246
422.693	0.0159677
422.771	0.0159040
422.849	0.0161967
422.927	0.0161679
423.005	0.0161060
423.084	0.0161352
423.162	0.0161241
423.240	0.0161362
423.318	0.0161237
423.396	0.0161072
423.474	0.0159935
423.552	0.0161082
423.630	0.0159834
423.709	0.0160270
423.787	0.0161004
423.865	0.0159901
423.943	0.0161166
424.021	0.0159744
424.099	0.0162077
424.177	0.0162632
424.255	0.0160192
424.334	0.0159692
424.412	0.0161734
424.490	0.0162324
424.568	0.0160226
424.646	0.0160075
424.724	0.0161496
424.802	0.0161288
424.880	0.0160255
424.959	0.0160606
425.037	0.0161204
425.115	0.0160062
425.193	0.0160793
425.271	0.0161080
425.349	0.0161166
425.427	0.0162290
425.505	0.0161092
425.584	0.0160282
425.662	0.0160995
425.740	0.0159669
425.818	0.0161301
425.896	0.0162608
425.974	0.0160847
426.052	0.0160647
426.130	0.0160658
426.209	0.0160301
426.287	0.0161016
426.365	0.0160854
426.443	0.0161008
426.521	0.0161469
426.599	0.0160376
426.677	0.0161568
426.755	0.0161526
426.834	0.0161369
426.912	0.0160998
426.990	0.0161230
427.068	0.0161560
427.146	0.0160583
427.224	0.0160228
427.302	0.0161646
427.380	0.0162100
427.459	0.0161800
427.537	0.0161532
427.615	0.0161298
427.693	0.0162441
427.771	0.0161097
427.849	0.0162143
427.927	0.0161903
428.005	0.0161452
428.084	0.0161590
428.162	0.0162424
428.240	0.0162620
428.318	0.0160767
428.396	0.0161440
428.474	0.0162344
428.552	0.0161740
428.630	0.0162241
428.709	0.0161990
428.787	0.0162672
428.865	0.0161687
428.943	0.0161117
429.021	0.0161758
429.099	0.0160443
429.177	0.0161323
429.255	0.0162682
429.334	0.0162496
429.412	0.0162064
429.490	0.0162463
429.568	0.0160882
429.646	0.0161018
429.724	0.0161110
429.802	0.0161840
429.880	0.0160956
429.959	0.0162082
430.037	0.0161819
430.115	0.0161494
430.193	0.0161411
430.271	0.0161029
430.349	0.0162132
430.427	0.0160718
430.505	0.0162477
430.584	0.0161964
430.662	0.0162545
430.740	0.0161555
430.818	0.0162176
430.896	0.0160898
430.974	0.0161195
431.052	0.0161579
431.130	0.0162018
431.209	0.0161840
431.287	0.0161052
431.365	0.0161036
431.443	0.0160720
431.521	0.0161790
431.599	0.0161749
431.677	0.0161391
431.755	0.0161793
431.834	0.0161896
431.912	0.0161990
431.990	0.0161883
432.068	0.0160921
432.146	0.0161724
432.224	0.0161675
432.302	0.0160484
432.380	0.0161423
432.459	0.0160488
432.537	0.0160613
432.615	0.0160967
432.693	0.0160749
432.771	0.0159976
432.849	0.0161861
432.927	0.0161478
433.005	0.0162093
433.084	0.0162988
433.162	0.0160798
433.240	0.0161337
433.318	0.0161015
433.396	0.0161768
433.474	0.0162128
433.552	0.0161946
433.630	0.0161671
433.709	0.0161204
433.787	0.0161413
433.865	0.0161648
433.943	0.0162570
434.021	0.0160557
434.099	0.0161115
434.177	0.0162682
434.255	0.0162109
434.334	0.0162498
434.412	0.0161232
434.490	0.0162637
434.568	0.0161951
434.646	0.0161154
434.724	0.0162566
434.802	0.0162212
434.880	0.0160727
434.959	0.0161362
435.037	0.0160927
435.115	0.0160468
435.193	0.0162669
435.271	0.0161975
435.349	0.0160033
435.427	0.0160806
435.505	0.0161037
435.584	0.0160696
435.662	0.0161566
435.740	0.0162518
435.818	0.0161935
435.896	0.0161796
435.974	0.0162289
436.052	0.0161493
436.130	0.0161737
436.209	0.0160429
436.287	0.0161156
436.365	0.0162110
436.443	0.0162088
436.521	0.0160867
436.599	0.0160909
436.677	0.0160908
436.755	0.0162611
436.834	0.0161703
436.912	0.0160719
436.990	0.0162137
437.068	0.0161312
437.146	0.0161214
437.224	0.0161154
437.302	0.0162025
437.380	0.0161517
437.459	0.0161697
437.537	0.0161092
437.615	0.0162213
437.693	0.0161015
437.771	0.0161462
437.849	0.0160649
437.927	0.0161382
438.005	0.0160950
438.084	0.0161797
438.162	0.0160569
438.240	0.0160918
438.318	0.0161920
438.396	0.0161455
438.474	0.0162241
438.552	0.0161220
438.630	0.0161138
438.709	0.0160339
438.787	0.0160680
438.865	0.0160927
438.943	0.0161989
439.021	0.0160781
439.099	0.0161343
439.177	0.0161207
439.255	0.0161452
439.334	0.0160181
439.412	0.0160374
439.490	0.0159943
439.568	0.0161044
439.646	0.0161344
439.724	0.0160156
439.802	0.0160925
439.880	0.0160665
439.959	0.0161446
440.037	0.0160908
440.115	0.0161998
440.193	0.0160341
440.271	0.0159344
440.349	0.0161046
440.427	0.0160825
440.505	0.0160237
440.584	0.0159859
440.662	0.0160942
440.740	0.0160684
440.818	0.0160152
440.896	0.0162210
440.974	0.0159962
441.052	0.0160583
441.130	0.0161251
441.209	0.0160309
441.287	0.0160601
441.365	0.0160694
441.443	0.0161476
441.521	0.0161103
441.599	0.0161530
441.677	0.0159729
441.755	0.0161691
441.834	0.0160001
441.912	0.0161252
441.990	0.0161800
442.068	0.0161919
442.146	0.0160007
442.224	0.0160430
442.302	0.0160983
442.380	0.0160750
442.459	0.0160255
442.537	0.0161425
442.615	0.0162028
442.693	0.0161672
442.771	0.0161138
442.849	0.0160848
442.927	0.0160431
443.005	0.0161694
443.084	0.0161483
443.162	0.0161657
443.240	0.0161660
443.318	0.0161336
443.396	0.0162976
443.474	0.0161879
443.552	0.0160954
443.630	0.0160001
443.709	0.0161947
443.787	0.0162029
443.865	0.0161631
443.943	0.0161967
444.021	0.0161727
444.099	0.0161815
444.177	0.0160925
444.255	0.0161328
444.334	0.0161941
444.412	0.0160316
444.490	0.0160410
444.568	0.0161825
444.646	0.0161089
444.724	0.0160863
444.802	0.0160513
444.880	0.0161148
444.959	0.0160467
445.037	0.0161246
445.115	0.0161617
445.193	0.0160953
445.271	0.0160646
445.349	0.0161274
445.427	0.0161039
445.505	0.0160690
445.584	0.0162071
445.662	0.0160872
445.740	0.0160143
445.818	0.0160561
445.896	0.0161748
445.974	0.0160470
446.052	0.0161013
446.130	0.0161527
446.209	0.0161272
446.287	0.0159666
446.365	0.0160938
446.443	0.0161267
446.521	0.0162502
446.599	0.0161600
446.677	0.0162622
446.755	0.0161722
446.834	0.0162493
446.912	0.0160829
446.990	0.0159411
447.068	0.0161461
447.146	0.0160803
447.224	0.0161446
447.302	0.0161514
447.380	0.0160865
447.459	0.0161658
447.537	0.0160853
447.615	0.0160464
447.693	0.0160748
447.771	0.0161361
447.849	0.0161472
447.927	0.0161738
448.005	0.0161172
448.084	0.0161745
448.162	0.0162373
448.240	0.0159721
448.318	0.0160222
448.396	0.0161706
448.474	0.0160854
448.552	0.0160410
448.630	0.0161837
448.709	0.0160497
448.787	0.0159145
448.865	0.0161872
448.943	0.0162148
449.021	0.0161951
449.099	0.0160978
449.177	0.0160433
449.255	0.0161518
449.334	0.0161184
449.412	0.0161732
449.490	0.0160483
449.568	0.0160442
449.646	0.0161028
449.724	0.0161868
449.802	0.0161360
449.880	0.0160547
449.959	0.0162764
450.037	0.0161777
450.115	0.0160365
450.193	0.0161699
450.271	0.0160883
450.349	0.0160513
450.427	0.0160964
450.505	0.0161285
450.584	0.0162182
450.662	0.0161293
450.740	0.0161001
450.818	0.0162173
450.896	0.0160921
450.974	0.0159942
451.052	0.0161959
451.130	0.0161101
451.209	0.0161888
451.287	0.0159963
451.365	0.0161407
451.443	0.0161919
451.521	0.0161346
451.599	0.0162173
451.677	0.0160638
451.755	0.0159836
451.834	0.0160342
451.912	0.0161420
451.990	0.0162096
452.068	0.0161143
452.146	0.0160571
452.224	0.0161085
452.302	0.0160976
452.380	0.0160233
452.459	0.0160300
452.537	0.0160044
452.615	0.0161150
452.693	0.0159112
452.771	0.0160439
452.849	0.0159914
452.927	0.0159446
453.005	0.0161887
453.084	0.0159937
453.162	0.0160538
453.240	0.0160275
453.318	0.0161675
453.396	0.0161552
453.474	0.0160114
453.552	0.0159835
453.630	0.0161500
453.709	0.0161446
453.787	0.0162359
453.865	0.0159586
453.943	0.0161158
454.021	0.0161655
454.099	0.0160236
454.177	0.0161229
454.255	0.0161508
454.334	0.0159963
454.412	0.0161364
454.490	0.0161230
454.568	0.0161133
454.646	0.0161500
454.724	0.0160542
454.802	0.0160522
454.880	0.0160892
454.959	0.0161631
455.037	0.0160951
455.115	0.0160300
455.193	0.0159512
455.271	0.0161265
455.349	0.0162197
455.427	0.0160881
455.505	0.0161510
455.584	0.0161445
455.662	0.0160516
455.740	0.0161569
455.818	0.0160619
455.896	0.0160749
455.974	0.0162113
456.052	0.0161190
456.130	0.0161261
456.209	0.0161306
456.287	0.0159239
456.365	0.0160490
456.443	0.0162813
456.521	0.0161954
456.599	0.0162084
456.677	0.0160289
456.755	0.0160435
456.834	0.0160992
456.912	0.0160714
456.990	0.0160722
457.068	0.0161858
457.146	0.0160506
457.224	0.0161755
457.302	0.0161672
457.380	0.0161472
457.459	0.0161507
457.537	0.0160972
457.615	0.0161095
457.693	0.0159480
457.771	0.0160579
457.849	0.0161304
457.927	0.0161844
458.005	0.0162080
458.084	0.0160561
458.162	0.0161456
458.240	0.0161250
458.318	0.0160966
458.396	0.0160571
458.474	0.0160755
458.552	0.0162314
458.630	0.0160992
458.709	0.0161753
458.787	0.0161270
458.865	0.0161428
458.943	0.0160859
459.021	0.0160179
459.099	0.0160712
459.177	0.0161773
459.255	0.0161195
459.334	0.0161467
459.412	0.0161556
459.490	0.0160715
459.568	0.0161089
459.646	0.0162096
459.724	0.0160843
459.802	0.0160612
459.880	0.0161476
459.959	0.0162961
460.037	0.0161438
460.115	0.0162401
460.193	0.0161930
460.271	0.0162555
460.349	0.0160666
460.427	0.0160832
460.505	0.0161452
460.584	0.0161462
460.662	0.0161741
460.740	0.0160778
460.818	0.0161472
460.896	0.0161166
460.974	0.0161914
461.052	0.0162097
461.130	0.0161427
461.209	0.0160976
461.287	0.0161592
461.365	0.0161888
461.443	0.0162318
461.521	0.0160892
461.599	0.0161293
461.677	0.0161443
461.755	0.0161557
461.834	0.0160733
461.912	0.0160429
461.990	0.0160403
462.068	0.0162251
462.146	0.0161252
462.224	0.0160358
462.302	0.0160580
462.380	0.0160416
462.459	0.0161260
462.537	0.0161943
462.615	0.0161193
462.693	0.0161017
462.771	0.0161208
462.849	0.0161066
462.927	0.0159848
463.005	0.0160572
463.084	0.0162122
463.162	0.0160926
463.240	0.0161533
463.318	0.0160786
463.396	0.0161252
463.474	0.0161708
463.552	0.0161156
463.630	0.0160890
463.709	0.0161112
463.787	0.0161449
463.865	0.0159286
463.943	0.0159814
464.021	0.0161906
464.099	0.0161401
464.177	0.0160394
464.255	0.0160486
464.334	0.0161546
464.412	0.0160367
464.490	0.0160596
464.568	0.0160646
464.646	0.0159919
464.724	0.0161759
464.802	0.0161981
464.880	0.0160117
464.959	0.0161243
465.037	0.0159582
465.115	0.0160120
465.193	0.0160136
465.271	0.0159084
465.349	0.0160748
465.427	0.0160622
465.505	0.0158090
465.584	0.0159692
465.662	0.0160910
465.740	0.0161002
465.818	0.0159785
465.896	0.0160270
465.974	0.0158989
466.052	0.0161221
466.130	0.0161150
466.209	0.0161102
466.287	0.0160424
466.365	0.0159586
466.443	0.0160616
466.521	0.0160150
466.599	0.0161346
466.677	0.0160410
466.755	0.0159235
466.834	0.0159789
466.912	0.0160555
466.990	0.0159213
467.068	0.0161271
467.146	0.0161665
467.224	0.0161230
467.302	0.0160234
467.380	0.0161011
467.459	0.0159484
467.537	0.0159874
467.615	0.0160653
467.693	0.0161493
467.771	0.0161308
467.849	0.0160325
467.927	0.0160229
468.005	0.0161065
468.084	0.0159557
468.162	0.0161748
468.240	0.0161910
468.318	0.0160813
468.396	0.0161045
468.474	0.0160810
468.552	0.0161452
468.630	0.0160242
468.709	0.0160622
468.787	0.0161092
468.865	0.0161860
468.943	0.0161161
469.021	0.0160928
469.099	0.0160796
469.177	0.0161380
469.255	0.0161697
469.334	0.0160970
469.412	0.0161088
469.490	0.0160953
469.568	0.0161578
469.646	0.0160778
469.724	0.0161787
469.802	0.0162299
469.880	0.0160782
469.959	0.0159825
470.037	0.0162465
470.115	0.0161651
470.193	0.0162355
470.271	0.0161406
470.349	0.0160127
470.427	0.0160167
470.505	0.0160941
470.584	0.0161862
470.662	0.0160963
470.740	0.0162063
470.818	0.0161508
470.896	0.0160232
470.974	0.0160477
471.052	0.0160413
471.130	0.0160400
471.209	0.0161534
471.287	0.0160174
471.365	0.0160271
471.443	0.0160497
471.521	0.0161237
471.599	0.0160455
471.677	0.0160008
471.755	0.0160049
471.834	0.0161167
471.912	0.0162658
471.990	0.0160986
472.068	0.0159875
472.146	0.0160847
472.224	0.0160953
472.302	0.0161537
472.380	0.0160365
472.459	0.0159682
472.537	0.0160761
472.615	0.0160938
472.693	0.0159847
472.771	0.0160307
472.849	0.0160857
472.927	0.0160509
473.005	0.0160838
473.084	0.0160025
473.162	0.0160802
473.240	0.0160095
473.318	0.0160209
473.396	0.0160458
473.474	0.0160605
473.552	0.0161981
473.630	0.0161066
473.709	0.0160202
473.787	0.0161436
473.865	0.0160513
473.943	0.0159426
474.021	0.0160561
474.099	0.0161837
474.177	0.0161729
474.255	0.0160220
474.334	0.0160069
474.412	0.0161541
474.490	0.0161197
474.568	0.0160378
474.646	0.0160292
474.724	0.0160118
474.802	0.0161166
474.880	0.0159933
474.959	0.0161916
475.037	0.0160476
475.115	0.0160372
475.193	0.0159728
475.271	0.0161469
475.349	0.0161591
475.427	0.0161106
475.505	0.0160853
475.584	0.0161053
475.662	0.0160977
475.740	0.0162400
475.818	0.0160867
475.896	0.0162144
475.974	0.0159955
476.052	0.0161448
476.130	0.0162351
476.209	0.0162367
476.287	0.0158970
476.365	0.0159906
476.443	0.0160372
476.521	0.0160718
476.599	0.0160557
476.677	0.0161504
476.755	0.0161388
476.834	0.0159995
476.912	0.0160197
476.990	0.0160844
477.068	0.0161301
477.146	0.0160201
477.224	0.0162334
477.302	0.0160773
477.380	0.0160318
477.459	0.0160526
477.537	0.0160068
477.615	0.0161295
477.693	0.0160749
477.771	0.0160085
477.849	0.0161021
477.927	0.0159317
478.005	0.0160475
478.084	0.0160136
478.162	0.0160336
478.240	0.0159611
478.318	0.0160757
478.396	0.0159619
478.474	0.0160696
478.552	0.0160316
478.630	0.0161057
478.709	0.0159440
478.787	0.0160630
478.865	0.0160777
478.943	0.0159946
479.021	0.0159872
479.099	0.0159188
479.177	0.0160320
479.255	0.0159250
479.334	0.0161539
479.412	0.0160452
479.490	0.0161052
479.568	0.0159743
479.646	0.0161238
479.724	0.0159747
479.802	0.0159506
479.880	0.0161140
479.959	0.0161535
480.037	0.0160287
480.115	0.0160342
480.193	0.0159784
480.271	0.0160750
480.349	0.0160912
480.427	0.0161463
480.505	0.0158266
480.584	0.0161130
480.662	0.0160820
480.740	0.0160273
480.818	0.0161158
480.896	0.0161511
480.974	0.0160410
481.052	0.0160392
481.130	0.0161385
481.209	0.0159931
481.287	0.0160969
481.365	0.0160534
481.443	0.0160022
481.521	0.0160990
481.599	0.0162003
481.677	0.0161363
481.755	0.0160612
481.834	0.0161215
481.912	0.0160448
481.990	0.0160352
482.068	0.0160984
482.146	0.0161616
482.224	0.0160475
482.302	0.0161357
482.380	0.0158877
482.459	0.0161356
482.537	0.0161013
482.615	0.0159860
482.693	0.0160796
482.771	0.0160887
482.849	0.0161005
482.927	0.0162772
483.005	0.0160673
483.084	0.0161003
483.162	0.0161117
483.240	0.0160466
483.318	0.0159578
483.396	0.0160358
483.474	0.0159669
483.552	0.0160785
483.630	0.0160625
483.709	0.0160886
483.787	0.0161295
483.865	0.0160085
483.943	0.0158691
484.021	0.0160603
484.099	0.0160222
484.177	0.0160320
484.255	0.0160490
484.334	0.0159832
484.412	0.0161893
484.490	0.0160718
484.568	0.0159327
484.646	0.0160494
484.724	0.0160412
484.802	0.0161883
484.880	0.0160815
484.959	0.0161008
485.037	0.0161728
485.115	0.0161254
485.193	0.0161076
485.271	0.0161699
485.349	0.0161016
485.427	0.0161945
485.505	0.0160052
485.584	0.0161659
485.662	0.0161622
485.740	0.0160561
485.818	0.0161176
485.896	0.0162756
485.974	0.0161931
486.052	0.0160506
486.130	0.0162341
486.209	0.0160361
486.287	0.0160567
486.365	0.0160442
486.443	0.0162323
486.521	0.0161266
486.599	0.0161824
486.677	0.0162222
486.755	0.0160892
486.834	0.0161600
486.912	0.0161530
486.990	0.0162093
487.068	0.0161226
487.146	0.0161977
487.224	0.0160567
487.302	0.0161050
487.380	0.0162463
487.459	0.0161665
487.537	0.0161095
487.615	0.0160711
487.693	0.0161275
487.771	0.0162552
487.849	0.0160681
487.927	0.0161640
488.005	0.0161048
488.084	0.0160696
488.162	0.0159973
488.240	0.0161093
488.318	0.0160265
488.396	0.0159859
488.474	0.0158781
488.552	0.0161116
488.630	0.0160119
488.709	0.0161877
488.787	0.0161013
488.865	0.0161162
488.943	0.0160699
489.021	0.0159621
489.099	0.0160943
489.177	0.0160329
489.255	0.0161789
489.334	0.0160402
489.412	0.0159931
489.490	0.0161054
489.568	0.0160965
489.646	0.0161234
489.724	0.0160413
489.802	0.0160056
489.880	0.0160285
489.959	0.0161511
490.037	0.0159100
490.115	0.0160696
490.193	0.0159341
490.271	0.0160407
490.349	0.0161106
490.427	0.0161079
490.505	0.0160757
490.584	0.0161869
490.662	0.0160768
490.740	0.0162125
490.818	0.0162114
490.896	0.0161570
490.974	0.0162486
491.052	0.0161668
491.130	0.0160460
491.209	0.0161444
491.287	0.0160648
491.365	0.0161036
491.443	0.0160860
491.521	0.0162080
491.599	0.0160480
491.677	0.0161223
491.755	0.0163561
491.834	0.0160675
491.912	0.0159638
491.990	0.0161913
492.068	0.0160666
492.146	0.0161545
492.224	0.0161796
492.302	0.0160981
492.380	0.0160426
492.459	0.0161395
492.537	0.0160600
492.615	0.0161227
492.693	0.0162045
492.771	0.0163257
492.849	0.0160426
492.927	0.0160278
493.005	0.0160313
493.084	0.0160902
493.162	0.0161293
493.240	0.0161066
493.318	0.0161996
493.396	0.0161048
493.474	0.0160885
493.552	0.0161662
493.630	0.0160615
493.709	0.0161239
493.787	0.0161684
493.865	0.0161543
493.943	0.0162897
494.021	0.0161415
494.099	0.0162441
494.177	0.0161893
494.255	0.0160713
494.334	0.0161970
494.412	0.0160651
494.490	0.0160439
494.568	0.0160954
494.646	0.0161511
494.724	0.0162016
494.802	0.0160328
494.880	0.0161438
494.959	0.0160506
495.037	0.0159945
495.115	0.0161135
495.193	0.0160288
495.271	0.0160854
495.349	0.0160548
495.427	0.0161034
495.505	0.0159071
495.584	0.0159594
495.662	0.0160615
495.740	0.0159601
495.818	0.0161600
495.896	0.0160517
495.974	0.0159604
496.052	0.0160449
496.130	0.0160542
496.209	0.0160645
496.287	0.0160999
496.365	0.0161326
496.443	0.0160332
496.521	0.0159725
496.599	0.0160454
496.677	0.0160623
496.755	0.0161995
496.834	0.0161330
496.912	0.0160049
496.990	0.0160726
497.068	0.0160613
497.146	0.0161375
497.224	0.0162367
497.302	0.0160270
497.380	0.0160366
497.459	0.0161012
497.537	0.0160947
497.615	0.0161694
497.693	0.0160410
497.771	0.0160291
497.849	0.0161328
497.927	0.0158913
498.005	0.0159859
498.084	0.0159308
498.162	0.0161079
498.240	0.0161795
498.318	0.0161581
498.396	0.0160142
498.474	0.0161177
498.552	0.0161211
498.630	0.0161179
498.709	0.0161177
498.787	0.0161330
498.865	0.0160213
498.943	0.0160474
499.021	0.0160884
499.099	0.0159724
499.177	0.0161107
499.255	0.0162587
499.334	0.0161315
499.412	0.0160160
499.490	0.0160667
499.568	0.0162563
499.646	0.0161777
499.724	0.0159680
499.802	0.0160500
499.880	0.0161218
499.959	0.0160288
500.037	0.0161549
500.115	0.0162287
500.193	0.0159994
500.271	0.0160613
500.349	0.0160294
500.427	0.0161207
500.505	0.0161902
500.584	0.0159758
500.662	0.0159758
500.740	0.0161897
500.818	0.0161436
500.896	0.0159282
500.974	0.0161923
501.052	0.0160973
501.130	0.0161411
501.209	0.0161686
501.287	0.0161913
501.365	0.0161875
501.443	0.0161667
501.521	0.0161075
501.599	0.0160764
501.677	0.0159514
501.755	0.0159489
501.834	0.0161768
501.912	0.0161207
501.990	0.0162469
502.068	0.0161362
502.146	0.0161152
502.224	0.0162379
502.302	0.0162309
502.380	0.0161814
502.459	0.0160802
502.537	0.0161058
502.615	0.0160251
502.693	0.0162040
502.771	0.0162776
502.849	0.0161998
502.927	0.0162778
503.005	0.0159778
503.084	0.0160903
503.162	0.0161842
503.240	0.0161230
503.318	0.0160246
503.396	0.0161917
503.474	0.0161799
503.552	0.0161268
503.630	0.0161330
503.709	0.0160878
503.787	0.0160939
503.865	0.0161221
503.943	0.0160040
504.021	0.0160255
504.099	0.0158782
504.177	0.0161928
504.255	0.0162276
504.334	0.0161481
504.412	0.0161253
504.490	0.0160525
504.568	0.0160638
504.646	0.0161486
504.724	0.0160590
504.802	0.0161005
504.880	0.0161650
504.959	0.0160288
505.037	0.0161584
505.115	0.0161317
505.193	0.0161348
505.271	0.0161024
505.349	0.0161846
505.427	0.0160390
505.505	0.0160491
505.584	0.0160985
505.662	0.0160580
505.740	0.0161146
505.818	0.0161147
505.896	0.0160408
505.974	0.0160696
506.052	0.0160918
506.130	0.0161780
506.209	0.0161768
506.287	0.0160802
506.365	0.0160835
506.443	0.0161253
506.521	0.0161701
506.599	0.0161253
506.677	0.0160574
506.755	0.0159774
506.834	0.0161588
506.912	0.0162160
506.990	0.0160099
507.068	0.0160766
507.146	0.0161616
507.224	0.0161468
507.302	0.0160153
507.380	0.0162111
507.459	0.0161519
507.537	0.0159773
507.615	0.0160901
507.693	0.0161452
507.771	0.0160658
507.849	0.0160828
507.927	0.0161631
508.005	0.0161014
508.084	0.0161640
508.162	0.0159984
508.240	0.0161738
508.318	0.0160818
508.396	0.0161124
508.474	0.0162343
508.552	0.0161594
508.630	0.0160065
508.709	0.0160406
508.787	0.0161691
508.865	0.0160431
508.943	0.0160681
509.021	0.0160456
509.099	0.0159751
509.177	0.0159008
509.255	0.0160796
509.334	0.0159025
509.412	0.0159985
509.490	0.0160641
509.568	0.0161335
509.646	0.0160291
509.724	0.0160828
509.802	0.0159740
509.880	0.0160336
509.959	0.0161445
510.037	0.0161172
510.115	0.0160180
510.193	0.0160473
510.271	0.0159859
510.349	0.0161675
510.427	0.0159813
510.505	0.0160160
510.584	0.0161574
510.662	0.0161240
510.740	0.0160473
510.818	0.0160584
510.896	0.0160183
510.974	0.0161951
511.052	0.0160741
511.130	0.0159435
511.209	0.0159796
511.287	0.0159433
511.365	0.0159361
511.443	0.0160593
511.521	0.0160878
511.599	0.0159383
511.677	0.0161068
511.755	0.0161505
511.834	0.0158938
511.912	0.0160764
511.990	0.0161138
512.068	0.0161671
512.146	0.0161098
512.224	0.0160289
512.302	0.0160020
512.380	0.0160606
512.459	0.0161269
512.537	0.0161723
512.615	0.0160578
512.693	0.0161425
512.771	0.0159743
512.849	0.0159879
512.927	0.0162093
513.005	0.0161646
513.084	0.0162137
513.162	0.0159702
513.240	0.0160202
513.318	0.0160768
513.396	0.0161089
513.474	0.0160782
513.552	0.0160043
513.630	0.0161251
513.709	0.0161068
513.787	0.0160744
513.865	0.0160822
513.943	0.0160771
514.021	0.0160067
514.099	0.0161022
514.177	0.0161195
514.255	0.0160236
514.334	0.0160770
514.412	0.0160643
514.490	0.0159976
514.568	0.0160551
514.646	0.0161822
514.724	0.0162525
514.802	0.0159772
514.880	0.0160812
514.959	0.0160397
515.037	0.0160506
515.115	0.0160912
515.193	0.0161903
515.271	0.0161719
515.349	0.0161370
515.427	0.0161927
515.505	0.0163254
515.584	0.0161901
515.662	0.0160963
515.740	0.0161019
515.818	0.0161906
515.896	0.0160729
515.974	0.0160802
516.052	0.0163036
516.130	0.0161001
516.209	0.0160847
516.287	0.0162280
516.365	0.0161778
516.443	0.0162859
516.521	0.0161234
516.599	0.0161775
516.677	0.0161315
516.755	0.0161179
516.834	0.0161562
516.912	0.0161820
516.990	0.0162440
517.068	0.0159884
517.146	0.0161028
517.224	0.0162202
517.302	0.0160842
517.380	0.0160336
517.459	0.0161016
517.537	0.0160972
517.615	0.0159404
517.693	0.0160844
517.771	0.0160065
517.849	0.0162199
517.927	0.0161079
518.005	0.0163231
518.084	0.0162510
518.162	0.0160192
518.240	0.0160361
518.318	0.0160084
518.396	0.0161232
518.474	0.0161890
518.552	0.0161523
518.630	0.0160372
518.709	0.0161515
518.787	0.0161178
518.865	0.0161546
518.943	0.0162034
519.021	0.0159211
519.099	0.0160893
519.177	0.0161282
519.255	0.0159993
519.334	0.0160911
519.412	0.0161261
519.490	0.0160526
519.568	0.0160982
519.646	0.0161326
519.724	0.0160722
519.802	0.0159974
519.880	0.0160233
519.959	0.0160938
520.037	0.0161022
520.115	0.0159973
520.193	0.0160950
520.271	0.0160033
520.349	0.0160152
520.427	0.0160365
520.505	0.0160822
520.584	0.0161046
520.662	0.0158698
520.740	0.0160279
520.818	0.0159513
520.896	0.0159684
520.974	0.0160262
521.052	0.0159715
521.130	0.0160572
521.209	0.0159669
521.287	0.0159494
521.365	0.0159669
521.443	0.0160596
521.521	0.0160596
521.599	0.0161359
521.677	0.0160638
521.755	0.0162072
521.834	0.0161260
521.912	0.0159581
521.990	0.0161584
522.068	0.0161947
522.146	0.0160343
522.224	0.0160594
522.302	0.0161902
522.380	0.0160561
522.459	0.0160580
522.537	0.0159966
522.615	0.0160303
522.693	0.0160442
522.771	0.0161276
522.849	0.0161401
522.927	0.0160937
523.005	0.0162378
523.084	0.0161771
523.162	0.0159859
523.240	0.0160439
523.318	0.0161723
523.396	0.0162630
523.474	0.0160807
523.552	0.0161433
523.630	0.0160935
523.709	0.0161221
523.787	0.0161375
523.865	0.0160883
523.943	0.0161112
524.021	0.0161816
524.099	0.0161192
524.177	0.0162315
524.255	0.0160422
524.334	0.0160276
524.412	0.0162087
524.490	0.0161716
524.568	0.0162048
524.646	0.0160986
524.724	0.0161055
524.802	0.0160249
524.880	0.0161048
524.959	0.0160980
525.037	0.0162061
525.115	0.0162389
525.193	0.0160704
525.271	0.0161369
525.349	0.0161999
525.427	0.0161214
525.505	0.0161320
525.584	0.0159783
525.662	0.0159084
525.740	0.0162027
525.818	0.0160883
525.896	0.0161217
525.974	0.0162215
526.052	0.0160295
526.130	0.0160716
526.209	0.0162749
526.287	0.0161088
526.365	0.0160681
526.443	0.0160454
526.521	0.0161285
526.599	0.0161186
526.677	0.0160938
526.755	0.0161836
526.834	0.0161275
526.912	0.0160924
526.990	0.0161292
527.068	0.0160874
527.146	0.0160902
527.224	0.0161366
527.302	0.0162141
527.380	0.0162189
527.459	0.0160627
527.537	0.0161382
527.615	0.0161283
527.693	0.0161240
527.771	0.0161900
527.849	0.0160291
527.927	0.0160669
528.005	0.0161913
528.084	0.0161525
528.162	0.0160368
528.240	0.0162251
528.318	0.0161506
528.396	0.0161380
528.474	0.0159937
528.552	0.0160893
528.630	0.0161919
528.709	0.0162267
528.787	0.0161129
528.865	0.0161308
528.943	0.0161624
529.021	0.0160473
529.099	0.0161141
529.177	0.0161078
529.255	0.0163441
529.334	0.0161068
529.412	0.0160326
529.490	0.0161932
529.568	0.0161215
529.646	0.0161134
529.724	0.0162357
529.802	0.0161435
529.880	0.0160608
529.959	0.0161424
530.037	0.0159693
530.115	0.0161770
530.193	0.0162198
530.271	0.0160838
530.349	0.0159984
530.427	0.0160744
530.505	0.0161164
530.584	0.0160686
530.662	0.0162300
530.740	0.0161258
530.818	0.0160124
530.896	0.0160757
530.974	0.0160461
531.052	0.0160497
531.130	0.0161133
531.209	0.0161932
531.287	0.0160959
531.365	0.0161012
531.443	0.0161091
531.521	0.0161906
531.599	0.0161775
531.677	0.0161156
531.755	0.0161939
531.834	0.0161666
531.912	0.0161910
531.990	0.0161148
532.068	0.0161220
532.146	0.0160929
532.224	0.0161884
532.302	0.0162229
532.380	0.0162812
532.459	0.0161232
532.537	0.0162461
532.615	0.0162175
532.693	0.0161707
532.771	0.0161656
532.849	0.0161829
532.927	0.0162724
533.005	0.0163100
533.084	0.0160301
533.162	0.0162091
533.240	0.0161177
533.318	0.0159625
533.396	0.0160534
533.474	0.0160542
533.552	0.0161182
533.630	0.0161459
533.709	0.0161591
533.787	0.0160201
533.865	0.0161743
533.943	0.0161291
534.021	0.0160995
534.099	0.0162036
534.177	0.0161444
534.255	0.0161335
534.334	0.0161092
534.412	0.0161395
534.490	0.0161635
534.568	0.0160170
534.646	0.0160262
534.724	0.0161089
534.802	0.0160640
534.880	0.0162512
534.959	0.0160120
535.037	0.0161752
535.115	0.0160262
535.193	0.0160856
535.271	0.0160940
535.349	0.0161604
535.427	0.0160670
535.505	0.0161108
535.584	0.0161761
535.662	0.0162343
535.740	0.0160813
535.818	0.0160812
535.896	0.0160556
535.974	0.0162813
536.052	0.0160022
536.130	0.0161291
536.209	0.0161897
536.287	0.0161132
536.365	0.0162135
536.443	0.0159772
536.521	0.0161164
536.599	0.0161642
536.677	0.0160459
536.755	0.0161436
536.834	0.0160966
536.912	0.0161208
536.990	0.0161805
537.068	0.0160922
537.146	0.0161971
537.224	0.0162151
537.302	0.0162511
537.380	0.0160734
537.459	0.0161494
537.537	0.0162455
537.615	0.0160244
537.693	0.0161165
537.771	0.0160835
537.849	0.0160732
537.927	0.0160950
538.005	0.0160206
538.084	0.0161681
538.162	0.0162148
538.240	0.0160790
538.318	0.0161402
538.396	0.0159353
538.474	0.0159323
538.552	0.0160194
538.630	0.0159563
538.709	0.0160686
538.787	0.0161206
538.865	0.0159510
538.943	0.0160448
539.021	0.0160661
539.099	0.0159795
539.177	0.0160439
539.255	0.0161832
539.334	0.0160939
539.412	0.0159651
539.490	0.0160645
539.568	0.0159675
539.646	0.0160450
539.724	0.0159562
539.802	0.0160558
539.880	0.0161572
539.959	0.0160681
540.037	0.0161671
540.115	0.0162424
540.193	0.0159943
540.271	0.0160921
540.349	0.0160774
540.427	0.0160169
540.505	0.0161701
540.584	0.0161758
540.662	0.0161543
540.740	0.0160709
540.818	0.0161960
540.896	0.0160861
540.974	0.0159854
541.052	0.0161493
541.130	0.0161050
541.209	0.0160603
541.287	0.0162197
541.365	0.0160134
541.443	0.0162179
541.521	0.0162096
541.599	0.0160671
541.677	0.0160408
541.755	0.0160933
541.834	0.0161445
541.912	0.0163192
541.990	0.0161317
542.068	0.0161768
542.146	0.0162546
542.224	0.0161715
542.302	0.0162321
542.380	0.0160995
542.459	0.0161044
542.537	0.0161685
542.615	0.0162129
542.693	0.0162488
542.771	0.0162181
542.849	0.0161471
542.927	0.0162196
543.005	0.0161507
543.084	0.0163229
543.162	0.0161372
543.240	0.0161090
543.318	0.0161469
543.396	0.0161018
543.474	0.0160731
543.552	0.0160567
543.630	0.0162291
543.709	0.0161336
543.787	0.0161436
543.865	0.0162257
543.943	0.0161127
544.021	0.0160483
544.099	0.0161004
544.177	0.0161589
544.255	0.0160963
544.334	0.0161782
544.412	0.0163288
544.490	0.0160950
544.568	0.0161246
544.646	0.0160918
544.724	0.0161350
544.802	0.0160072
544.880	0.0160882
544.959	0.0160360
545.037	0.0160571
545.115	0.0160261
545.193	0.0161729
545.271	0.0160553
545.349	0.0160780
545.427	0.0161555
545.505	0.0161312
545.584	0.0159679
545.662	0.0160537
545.740	0.0160291
545.818	0.0160813
545.896	0.0160125
545.974	0.0160384
546.052	0.0159238
546.130	0.0160885
546.209	0.0161163
546.287	0.0160178
546.365	0.0160995
546.443	0.0160954
546.521	0.0161153
546.599	0.0161461
546.677	0.0160658
546.755	0.0160014
546.834	0.0160253
546.912	0.0159276
546.990	0.0160577
547.068	0.0160265
547.146	0.0158361
547.224	0.0160207
547.302	0.0159193
547.380	0.0160931
547.459	0.0161639
547.537	0.0161569
547.615	0.0160231
547.693	0.0160152
547.771	0.0159695
547.849	0.0160906
547.927	0.0161198
548.005	0.0161938
548.084	0.0160063
548.162	0.0159892
548.240	0.0161639
548.318	0.0160757
548.396	0.0160999
548.474	0.0160925
548.552	0.0159051
548.630	0.0160336
548.709	0.0159666
548.787	0.0160834
548.865	0.0160781
548.943	0.0160735
549.021	0.0160673
549.099	0.0161368
549.177	0.0161465
549.255	0.0161196
549.334	0.0161136
549.412	0.0160902
549.490	0.0161616
549.568	0.0161626
549.646	0.0160747
549.724	0.0160950
549.802	0.0160521
549.880	0.0162055
549.959	0.0161292
550.037	0.0161434
550.115	0.0161304
550.193	0.0161262
550.271	0.0162045
550.349	0.0161037
550.427	0.0161306
550.505	0.0161617
550.584	0.0163097
550.662	0.0161363
550.740	0.0159591
550.818	0.0161952
550.896	0.0162070
550.974	0.0161903
551.052	0.0162940
551.130	0.0161044
551.209	0.0160784
551.287	0.0161870
551.365	0.0161855
551.443	0.0163522
551.521	0.0160994
551.599	0.0161014
551.677	0.0160739
551.755	0.0161611
551.834	0.0162789
551.912	0.0161287
551.990	0.0161826
552.068	0.0160688
552.146	0.0161667
552.224	0.0162605
552.302	0.0160034
552.380	0.0162129
552.459	0.0161496
552.537	0.0160333
552.615	0.0161414
552.693	0.0160898
552.771	0.0161729
552.849	0.0161002
552.927	0.0160557
553.005	0.0161316
553.084	0.0162482
553.162	0.0161507
553.240	0.0162063
553.318	0.0161250
553.396	0.0161248
553.474	0.0160735
553.552	0.0160888
553.630	0.0161044
553.709	0.0162077
553.787	0.0161451
553.865	0.0161077
553.943	0.0161110
554.021	0.0161425
554.099	0.0161059
554.177	0.0160970
554.255	0.0160551
554.334	0.0160935
554.412	0.0162341
554.490	0.0160744
554.568	0.0161793
554.646	0.0160728
554.724	0.0161621
554.802	0.0161362
554.880	0.0160373
554.959	0.0161629
555.037	0.0161196
555.115	0.0161447
555.193	0.0160783
555.271	0.0161227
555.349	0.0161605
555.427	0.0161793
555.505	0.0162514
555.584	0.0161549
555.662	0.0161449
555.740	0.0161591
555.818	0.0161015
555.896	0.0161684
555.974	0.0162504
556.052	0.0162270
556.130	0.0160148
556.209	0.0160999
556.287	0.0161884
556.365	0.0163389
556.443	0.0162425
556.521	0.0162088
556.599	0.0161439
556.677	0.0160465
556.755	0.0161423
556.834	0.0161486
556.912	0.0161570
556.990	0.0162741
557.068	0.0162415
557.146	0.0162663
557.224	0.0162438
557.302	0.0161469
557.380	0.0162001
557.459	0.0162311
557.537	0.0162999
557.615	0.0162265
557.693	0.0161725
557.771	0.0161337
557.849	0.0162437
557.927	0.0162556
558.005	0.0161917
558.084	0.0161195
558.162	0.0161826
558.240	0.0162009
558.318	0.0162095
558.396	0.0161481
558.474	0.0160713
558.552	0.0160593
558.630	0.0162559
558.709	0.0161345
558.787	0.0162000
558.865	0.0160104
558.943	0.0162341
559.021	0.0161541
559.099	0.0160995
559.177	0.0161374
559.255	0.0160105
559.334	0.0160281
559.412	0.0161971
559.490	0.0160832
559.568	0.0159534
559.646	0.0161172
559.724	0.0160149
559.802	0.0159595
559.880	0.0161369
559.959	0.0160133
560.037	0.0160320
560.115	0.0161053
560.193	0.0161423
560.271	0.0158817
560.349	0.0160623
560.427	0.0161444
560.505	0.0160990
560.584	0.0159552
560.662	0.0159966
560.740	0.0159777
560.818	0.0161403
560.896	0.0160236
560.974	0.0160814
561.052	0.0161026
561.130	0.0161365
561.209	0.0160718
561.287	0.0160588
561.365	0.0160495
561.443	0.0161139
561.521	0.0160720
561.599	0.0160095
561.677	0.0160381
561.755	0.0160128
561.834	0.0160329
561.912	0.0161449
561.990	0.0161370
562.068	0.0161576
562.146	0.0160274
562.224	0.0160634
562.302	0.0161452
562.380	0.0160529
562.459	0.0160582
562.537	0.0161338
562.615	0.0160139
562.693	0.0161761
562.771	0.0162019
562.849	0.0160326
562.927	0.0160776
563.005	0.0161201
563.084	0.0162260
563.162	0.0160522
563.240	0.0161175
563.318	0.0161178
563.396	0.0160806
563.474	0.0161694
563.552	0.0161618
563.630	0.0161803
563.709	0.0160217
563.787	0.0161402
563.865	0.0161801
563.943	0.0161813
564.021	0.0161152
564.099	0.0161713
564.177	0.0161062
564.255	0.0160981
564.334	0.0160661
564.412	0.0160706
564.490	0.0161140
564.568	0.0160744
564.646	0.0160734
564.724	0.0159859
564.802	0.0160632
564.880	0.0161270
564.959	0.0161366
565.037	0.0161276
565.115	0.0160720
565.193	0.0160426
565.271	0.0162093
565.349	0.0161610
565.427	0.0160629
565.505	0.0161360
565.584	0.0161315
565.662	0.0159654
565.740	0.0160281
565.818	0.0161534
565.896	0.0159946
565.974	0.0161411
566.052	0.0160610
566.130	0.0161003
566.209	0.0161330
566.287	0.0160722
566.365	0.0160512
566.443	0.0160941
566.521	0.0160725
566.599	0.0161192
566.677	0.0161069
566.755	0.0160023
566.834	0.0161585
566.912	0.0160748
566.990	0.0160881
567.068	0.0161266
567.146	0.0161007
567.224	0.0160322
567.302	0.0162453
567.380	0.0160114
567.459	0.0159278
567.537	0.0161597
567.615	0.0161611
567.693	0.0160208
567.771	0.0161705
567.849	0.0161093
567.927	0.0160655
568.005	0.0162103
568.084	0.0161617
568.162	0.0161192
568.240	0.0161160
568.318	0.0161403
568.396	0.0161079
568.474	0.0162253
568.552	0.0160199
568.630	0.0160236
568.709	0.0160691
568.787	0.0162070
568.865	0.0161127
568.943	0.0160497
569.021	0.0159521
569.099	0.0160255
569.177	0.0161134
569.255	0.0161396
569.334	0.0160390
569.412	0.0160477
569.490	0.0159801
569.568	0.0160949
569.646	0.0160863
569.724	0.0160252
569.802	0.0161298
569.880	0.0159986
569.959	0.0160822
570.037	0.0162685
570.115	0.0160110
570.193	0.0160717
570.271	0.0160674
570.349	0.0160560
570.427	0.0160614
570.505	0.0161432
570.584	0.0161275
570.662	0.0160459
570.740	0.0162488
570.818	0.0161247
570.896	0.0161007
570.974	0.0160635
571.052	0.0160402
571.130	0.0161630
571.209	0.0161069
571.287	0.0161636
571.365	0.0162011
571.443	0.0161628
571.521	0.0160260
571.599	0.0160157
571.677	0.0161073
571.755	0.0161839
571.834	0.0162965
571.912	0.0161281
571.990	0.0162548
572.068	0.0160633
572.146	0.0160632
572.224	0.0162305
572.302	0.0161792
572.380	0.0161401
572.459	0.0161400
572.537	0.0161723
572.615	0.0160876
572.693	0.0162058
572.771	0.0161986
572.849	0.0161994
572.927	0.0161830
573.005	0.0162137
573.084	0.0161892
573.162	0.0159901
573.240	0.0160569
573.318	0.0161735
573.396	0.0159976
573.474	0.0161134
573.552	0.0161028
573.630	0.0161057
573.709	0.0162594
573.787	0.0162494
573.865	0.0162215
573.943	0.0160867
574.021	0.0161613
574.099	0.0162653
574.177	0.0162267
574.255	0.0161826
574.334	0.0160371
574.412	0.0161022
574.490	0.0161039
574.568	0.0160614
574.646	0.0161344
574.724	0.0161466
574.802	0.0161496
574.880	0.0160818
574.959	0.0161739
575.037	0.0160946
575.115	0.0161195
575.193	0.0162408
575.271	0.0161807
575.349	0.0161256
575.427	0.0160906
575.505	0.0160490
575.584	0.0160938
575.662	0.0160899
575.740	0.0162268
575.818	0.0161653
575.896	0.0161806
575.974	0.0160663
576.052	0.0160740
576.130	0.0162218
576.209	0.0160608
576.287	0.0160252
576.365	0.0160925
576.443	0.0161049
576.521	0.0161663
576.599	0.0161570
576.677	0.0161407
576.755	0.0161446
576.834	0.0160190
576.912	0.0161063
576.990	0.0160992
577.068	0.0161691
577.146	0.0161414
577.224	0.0161620
577.302	0.0160278
577.380	0.0161597
577.459	0.0162716
577.537	0.0160762
577.615	0.0160920
577.693	0.0162091
577.771	0.0161214
577.849	0.0161084
577.927	0.0161051
578.005	0.0162502
578.084	0.0162586
578.162	0.0161001
578.240	0.0160812
578.318	0.0161314
578.396	0.0160445
578.474	0.0160109
578.552	0.0160260
578.630	0.0161207
578.709	0.0161861
578.787	0.0161896
578.865	0.0161240
578.943	0.0160049
579.021	0.0162064
579.099	0.0161518
579.177	0.0162291
579.255	0.0161639
579.334	0.0160687
579.412	0.0161775
579.490	0.0162100
579.568	0.0160769
579.646	0.0161231
579.724	0.0160763
579.802	0.0162189
579.880	0.0160400
579.959	0.0161681
580.037	0.0161467
580.115	0.0162003
580.193	0.0161971
580.271	0.0161439
580.349	0.0161801
580.427	0.0160947
580.505	0.0162010
580.584	0.0161369
580.662	0.0161294
580.740	0.0161511
580.818	0.0161808
580.896	0.0160815
580.974	0.0161639
581.052	0.0161929
581.130	0.0162284
581.209	0.0160433
581.287	0.0161622
581.365	0.0161018
581.443	0.0160730
581.521	0.0160928
581.599	0.0161275
581.677	0.0160785
581.755	0.0159876
581.834	0.0160828
581.912	0.0160612
581.990	0.0160770
582.068	0.0159861
582.146	0.0159980
582.224	0.0161350
582.302	0.0160520
582.380	0.0161207
582.459	0.0159966
582.537	0.0160606
582.615	0.0161474
582.693	0.0160870
582.771	0.0160530
582.849	0.0160812
582.927	0.0160780
583.005	0.0162009
583.084	0.0160613
583.162	0.0160464
583.240	0.0160815
583.318	0.0160818
583.396	0.0159158
583.474	0.0159756
583.552	0.0161086
583.630	0.0160719
583.709	0.0161848
583.787	0.0161237
583.865	0.0160322
583.943	0.0160735
584.021	0.0160612
584.099	0.0160636
584.177	0.0161478
584.255	0.0160933
584.334	0.0160902
584.412	0.0160431
584.490	0.0161518
584.568	0.0160083
584.646	0.0160735
584.724	0.0161385
584.802	0.0161253
584.880	0.0162350
584.959	0.0160547
585.037	0.0160718
585.115	0.0160598
585.193	0.0160626
585.271	0.0161445
585.349	0.0160323
585.427	0.0160963
585.505	0.0160872
585.584	0.0160214
585.662	0.0160487
585.740	0.0160072
585.818	0.0160886
585.896	0.0160651
585.974	0.0162083
586.052	0.0161672
586.130	0.0161259
586.209	0.0160059
586.287	0.0160776
586.365	0.0161222
586.443	0.0160409
586.521	0.0161031
586.599	0.0162019
586.677	0.0160176
586.755	0.0159666
586.834	0.0162511
586.912	0.0161069
586.990	0.0161279
587.068	0.0160080
587.146	0.0160239
587.224	0.0161452
587.302	0.0163362
587.380	0.0161890
587.459	0.0161063
587.537	0.0160753
587.615	0.0161485
587.693	0.0161377
587.771	0.0161505
587.849	0.0161565
587.927	0.0160064
588.005	0.0160530
588.084	0.0160739
588.162	0.0160293
588.240	0.0161460
588.318	0.0160890
588.396	0.0161063
588.474	0.0161745
588.552	0.0161328
588.630	0.0161230
588.709	0.0161345
588.787	0.0161266
588.865	0.0160723
588.943	0.0161192
589.021	0.0161640
589.099	0.0160686
589.177	0.0160253
589.255	0.0161761
589.334	0.0161581
589.412	0.0160971
589.490	0.0161143
589.568	0.0161069
589.646	0.0161713
589.724	0.0161877
589.802	0.0161633
589.880	0.0160309
589.959	0.0161052
590.037	0.0162995
590.115	0.0160241
590.193	0.0162759
590.271	0.0162653
590.349	0.0160226
590.427	0.0161360
590.505	0.0161526
590.584	0.0159520
590.662	0.0160136
590.740	0.0161436
590.818	0.0160529
590.896	0.0161998
590.974	0.0160825
591.052	0.0160101
591.130	0.0159877
591.209	0.0161433
591.287	0.0160954
591.365	0.0158971
591.443	0.0160215
591.521	0.0160094
591.599	0.0160916
591.677	0.0159621
591.755	0.0159950
591.834	0.0161024
591.912	0.0160091
591.990	0.0159791
592.068	0.0160475
592.146	0.0161431
592.224	0.0160152
592.302	0.0159565
592.380	0.0161341
592.459	0.0161868
592.537	0.0161483
592.615	0.0159915
592.693	0.0161334
592.771	0.0159790
592.849	0.0159451
592.927	0.0160365
593.005	0.0160247
593.084	0.0160542
593.162	0.0160321
593.240	0.0161194
593.318	0.0159613
593.396	0.0158945
593.474	0.0160146
593.552	0.0162503
593.630	0.0160766
593.709	0.0160883
593.787	0.0161870
593.865	0.0160690
593.943	0.0160718
594.021	0.0160612
594.099	0.0160414
594.177	0.0160754
594.255	0.0160682
594.334	0.0161288
594.412	0.0160278
594.490	0.0160918
594.568	0.0160832
594.646	0.0159373
594.724	0.0161526
594.802	0.0161926
594.880	0.0160911
594.959	0.0160004
595.037	0.0160557
595.115	0.0161412
595.193	0.0160404
595.271	0.0161011
595.349	0.0160649
595.427	0.0160339
595.505	0.0160925
595.584	0.0160969
595.662	0.0160758
595.740	0.0161669
595.818	0.0160857
595.896	0.0161024
595.974	0.0159323
596.052	0.0161414
596.130	0.0161982
596.209	0.0161570
596.287	0.0159174
596.365	0.0159808
596.443	0.0159706
596.521	0.0161489
596.599	0.0160140
596.677	0.0158786
596.755	0.0160918
596.834	0.0161086
596.912	0.0160625
596.990	0.0161015
597.068	0.0160909
597.146	0.0160564
597.224	0.0161375
597.302	0.0159972
597.380	0.0160867
597.459	0.0161157
597.537	0.0161071
597.615	0.0161309
597.693	0.0161184
597.771	0.0160913
597.849	0.0161301
597.927	0.0159689
598.005	0.0159909
598.084	0.0160677
598.162	0.0161437
598.240	0.0161420
598.318	0.0160934
598.396	0.0161853
598.474	0.0160590
598.552	0.0160471
598.630	0.0161357
598.709	0.0162188
598.787	0.0160455
598.865	0.0160838
598.943	0.0161655
599.021	0.0161317
599.099	0.0161968
599.177	0.0161514
599.255	0.0161333
599.334	0.0161449
599.412	0.0160407
599.490	0.0160593
599.568	0.0161325
599.646	0.0160993
599.724	0.0161743
599.802	0.0160714
599.880	0.0160307
599.959	0.0162187
600.037	0.0161960
600.115	0.0160219
600.193	0.0161634
600.271	0.0161479
600.349	0.0162457
600.427	0.0160688
600.505	0.0160607
600.584	0.0161092
600.662	0.0161304
600.740	0.0160400
600.818	0.0160953
600.896	0.0161204
600.974	0.0162212
601.052	0.0162147
601.130	0.0161168
601.209	0.0161980
601.287	0.0160018
601.365	0.0161487
601.443	0.0162229
601.521	0.0160535
601.599	0.0161149
601.677	0.0162455
601.755	0.0160646
601.834	0.0161205
601.912	0.0160364
601.990	0.0161263
602.068	0.0160706
602.146	0.0160607
602.224	0.0160962
602.302	0.0162369
602.380	0.0159911
602.459	0.0161253
602.537	0.0159526
602.615	0.0159727
602.693	0.0160759
602.771	0.0160346
602.849	0.0161069
602.927	0.0160391
603.005	0.0160223
603.084	0.0160129
603.162	0.0159649
603.240	0.0161019
603.318	0.0161528
603.396	0.0159999
603.474	0.0160857
603.552	0.0161202
603.630	0.0160033
603.709	0.0159685
603.787	0.0162148
603.865	0.0161516
603.943	0.0160368
604.021	0.0160856
604.099	0.0161717
604.177	0.0160354
604.255	0.0159863
604.334	0.0161105
604.412	0.0162272
604.490	0.0160119
604.568	0.0159343
604.646	0.0159635
604.724	0.0162101
604.802	0.0160708
604.880	0.0158768
604.959	0.0160947
605.037	0.0160673
605.115	0.0161240
605.193	0.0160892
605.271	0.0160974
605.349	0.0161034
605.427	0.0161121
605.505	0.0159564
605.584	0.0159588
605.662	0.0160938
605.740	0.0160423
605.818	0.0160277
605.896	0.0161374
605.974	0.0161089
606.052	0.0161256
606.130	0.0160587
606.209	0.0161649
606.287	0.0160943
606.365	0.0161488
606.443	0.0161039
606.521	0.0160447
606.599	0.0162022
606.677	0.0160942
606.755	0.0160731
606.834	0.0161504
606.912	0.0159982
606.990	0.0159799
607.068	0.0161301
607.146	0.0160934
607.224	0.0160410
607.302	0.0161018
607.380	0.0159115
607.459	0.0159828
607.537	0.0159034
607.615	0.0159079
607.693	0.0159655
607.771	0.0161866
607.849	0.0160452
607.927	0.0159714
608.005	0.0158398
608.084	0.0160423
608.162	0.0158335
608.240	0.0159357
608.318	0.0157650
608.396	0.0159627
608.474	0.0160820
608.552	0.0159090
608.630	0.0157105
608.709	0.0158521
608.787	0.0159296
608.865	0.0158849
608.943	0.0158943
609.021	0.0160215
609.099	0.0161792
609.177	0.0163866
609.255	0.0163345
609.334	0.0166035
609.412	0.0165401
609.490	0.0167642
609.568	0.0169433
609.646	0.0168885
609.724	0.0170496
609.802	0.0172433
609.880	0.0170729
609.959	0.0170988
610.037	0.0170870
610.115	0.0171945
610.193	0.0170184
610.271	0.0169679
610.349	0.0170898
610.427	0.0168736
610.505	0.0167775
610.584	0.0168666
610.662	0.0166605
610.740	0.0163419
610.818	0.0161723
610.896	0.0162492
610.974	0.0161108
611.052	0.0159151
611.130	0.0159238
611.209	0.0159187
611.287	0.0157058
611.365	0.0156657
611.443	0.0155876
611.521	0.0155679
611.599	0.0154993
611.677	0.0155321
611.755	0.0155087
611.834	0.0154448
611.912	0.0155116
611.990	0.0154499
612.068	0.0156571
612.146	0.0156562
612.224	0.0155842
612.302	0.0157626
612.380	0.0158701
612.459	0.0156995
612.537	0.0157601
612.615	0.0158901
612.693	0.0158720
612.771	0.0158870
612.849	0.0158771
612.927	0.0159077
613.005	0.0158630
613.084	0.0158688
613.162	0.0158530
613.240	0.0158562
613.318	0.0159441
613.396	0.0158581
613.474	0.0159263
613.552	0.0159197
613.630	0.0159744
613.709	0.0158785
613.787	0.0156658
613.865	0.0158699
613.943	0.0159871
614.021	0.0158891
614.099	0.0160157
614.177	0.0160043
614.255	0.0160587
614.334	0.0159110
614.412	0.0159972
614.490	0.0159335
614.568	0.0160419
614.646	0.0161307
614.724	0.0159865
614.802	0.0159657
614.880	0.0161432
614.959	0.0161978
615.037	0.0161321
615.115	0.0160081
615.193	0.0161656
615.271	0.0161282
615.349	0.0160574
615.427	0.0162225
615.505	0.0161183
615.584	0.0159338
615.662	0.0161158
615.740	0.0159995
615.818	0.0161030
615.896	0.0161330
615.974	0.0161203
616.052	0.0160469
616.130	0.0159866
616.209	0.0160993
616.287	0.0161057
616.365	0.0161894
616.443	0.0162209
616.521	0.0159657
616.599	0.0160221
616.677	0.0160621
616.755	0.0161739
616.834	0.0161301
616.912	0.0160357
616.990	0.0159910
617.068	0.0162645
617.146	0.0162309
617.224	0.0159978
617.302	0.0161781
617.380	0.0160860
617.459	0.0161434
617.537	0.0160470
617.615	0.0161584
617.693	0.0161667
617.771	0.0161048
617.849	0.0162697
617.927	0.0162910
618.005	0.0162821
618.084	0.0159291
618.162	0.0160414
618.240	0.0161468
618.318	0.0162701
618.396	0.0162180
618.474	0.0160203
618.552	0.0160936
618.630	0.0162132
618.709	0.0160642
618.787	0.0162280
618.865	0.0161388
618.943	0.0161118
619.021	0.0161826
619.099	0.0161253
619.177	0.0161414
619.255	0.0162071
619.334	0.0162623
619.412	0.0160704
619.490	0.0161488
619.568	0.0161133
619.646	0.0161659
619.724	0.0161709
619.802	0.0161755
619.880	0.0161534
619.959	0.0162352
620.037	0.0161942
620.115	0.0160516
620.193	0.0160358
620.271	0.0161681
620.349	0.0161578
620.427	0.0161771
620.505	0.0160875
620.584	0.0161714
620.662	0.0161367
620.740	0.0160104
620.818	0.0161586
620.896	0.0161404
620.974	0.0161112
621.052	0.0160984
621.130	0.0159672
621.209	0.0160688
621.287	0.0159364
621.365	0.0160187
621.443	0.0159992
621.521	0.0160982
621.599	0.0160564
621.677	0.0161723
621.755	0.0160268
621.834	0.0159101
621.912	0.0160369
621.990	0.0161215
622.068	0.0160574
622.146	0.0160726
622.224	0.0161626
622.302	0.0160267
622.380	0.0160229
622.459	0.0161562
622.537	0.0161204
622.615	0.0159690
622.693	0.0160722
622.771	0.0161278
622.849	0.0161111
622.927	0.0160370
623.005	0.0161699
623.084	0.0160554
623.162	0.0161119
623.240	0.0160007
623.318	0.0161048
623.396	0.0161349
623.474	0.0159814
623.552	0.0160026
623.630	0.0162041
623.709	0.0160692
623.787	0.0161514
623.865	0.0161997
623.943	0.0160495
624.021	0.0162686
624.099	0.0160967
624.177	0.0159859
624.255	0.0161403
624.334	0.0160960
624.412	0.0162159
624.490	0.0160696
624.568	0.0160521
624.646	0.0162961
624.724	0.0161060
624.802	0.0161625
624.880	0.0160971
624.959	0.0160966
625.037	0.0161797
625.115	0.0161253
625.193	0.0162232
625.271	0.0161865
625.349	0.0161667
625.427	0.0160518
625.505	0.0161634
625.584	0.0160831
625.662	0.0160550
625.740	0.0161471
625.818	0.0161330
625.896	0.0161761
625.974	0.0161642
626.052	0.0160950
626.130	0.0160724
626.209	0.0161435
626.287	0.0160736
626.365	0.0161705
626.443	0.0161291
626.521	0.0161628
626.599	0.0162068
626.677	0.0160953
626.755	0.0160291
626.834	0.0162479
626.912	0.0160466
626.990	0.0160327
627.068	0.0161555
627.146	0.0161172
627.224	0.0161303
627.302	0.0160734
627.380	0.0161658
627.459	0.0162191
627.537	0.0161651
627.615	0.0160740
627.693	0.0161803
627.771	0.0160550
627.849	0.0161298
627.927	0.0160795
628.005	0.0161524
628.084	0.0160099
628.162	0.0161204
628.240	0.0160919
628.318	0.0159595
628.396	0.0159049
628.474	0.0160461
628.552	0.0162180
628.630	0.0161456
628.709	0.0160384
628.787	0.0161272
628.865	0.0161718
628.943	0.0160345
629.021	0.0161245
629.099	0.0161421
629.177	0.0160474
629.255	0.0161411
629.334	0.0160313
629.412	0.0159653
629.490	0.0161554
629.568	0.0161375
629.646	0.0160677
629.724	0.0160763
629.802	0.0161594
629.880	0.0159978
629.959	0.0160410
630.037	0.0161754
630.115	0.0161220
630.193	0.0160624
630.271	0.0160703
630.349	0.0160510
630.427	0.0160453
630.505	0.0161697
630.584	0.0160834
630.662	0.0160377
630.740	0.0161879
630.818	0.0160938
630.896	0.0161932
630.974	0.0161240
631.052	0.0161428
631.130	0.0161230
631.209	0.0160186
631.287	0.0162025
631.365	0.0161572
631.443	0.0160487
631.521	0.0161659
631.599	0.0161891
631.677	0.0160755
631.755	0.0162108
631.834	0.0160978
631.912	0.0160265
631.990	0.0162419
632.068	0.0162867
632.146	0.0161597
632.224	0.0160514
632.302	0.0161245
632.380	0.0160661
632.459	0.0163022
632.537	0.0160635
632.615	0.0161900
632.693	0.0161553
632.771	0.0160870
632.849	0.0161083
632.927	0.0161782
633.005	0.0161532
633.084	0.0161372
633.162	0.0161163
633.240	0.0161314
633.318	0.0161469
633.396	0.0161508
633.474	0.0162188
633.552	0.0161348
633.630	0.0160172
633.709	0.0159929
633.787	0.0161002
633.865	0.0160975
633.943	0.0160700
634.021	0.0160997
634.099	0.0159520
634.177	0.0161091
634.255	0.0161591
634.334	0.0161660
634.412	0.0159815
634.490	0.0159853
634.568	0.0161375
634.646	0.0160817
634.724	0.0161285
634.802	0.0160490
634.880	0.0160783
634.959	0.0159819
635.037	0.0160799
635.115	0.0161194
635.193	0.0161543
635.271	0.0160799
635.349	0.0159809
635.427	0.0160271
635.505	0.0160098
635.584	0.0160057
635.662	0.0160362
635.740	0.0160492
635.818	0.0160339
635.896	0.0161851
635.974	0.0161099
636.052	0.0160593
636.130	0.0160788
636.209	0.0161774
636.287	0.0161752
636.365	0.0160259
636.443	0.0161282
636.521	0.0160455
636.599	0.0160152
636.677	0.0161751
636.755	0.0161366
636.834	0.0160538
636.912	0.0161007
636.990	0.0161741
637.068	0.0161226
637.146	0.0161748
637.224	0.0160883
637.302	0.0160381
637.380	0.0160179
637.459	0.0160902
637.537	0.0162012
637.615	0.0160664
637.693	0.0161914
637.771	0.0160818
637.849	0.0160710
637.927	0.0161056
638.005	0.0162786
638.084	0.0163206
638.162	0.0161203
638.240	0.0161250
638.318	0.0161555
638.396	0.0161085
638.474	0.0160988
638.552	0.0161729
638.630	0.0161143
638.709	0.0160651
638.787	0.0161171
638.865	0.0161823
638.943	0.0160342
639.021	0.0162492
639.099	0.0162576
639.177	0.0161077
639.255	0.0160450
639.334	0.0161684
639.412	0.0162702
639.490	0.0162817
639.568	0.0160262
639.646	0.0161345
639.724	0.0163771
639.802	0.0161449
639.880	0.0160788
639.959	0.0161194
640.037	0.0161027
640.115	0.0161106
640.193	0.0162624
640.271	0.0161868
640.349	0.0160955
640.427	0.0161969
640.505	0.0160431
640.584	0.0160884
640.662	0.0161109
640.740	0.0160448
640.818	0.0161120
640.896	0.0160078
640.974	0.0161208
641.052	0.0161109
641.130	0.0160221
641.209	0.0161282
641.287	0.0161529
641.365	0.0160547
641.443	0.0161034
641.521	0.0161535
641.599	0.0160001
641.677	0.0160776
641.755	0.0161026
641.834	0.0159778
641.912	0.0161111
641.990	0.0159854
642.068	0.0160815
642.146	0.0160825
642.224	0.0161001
642.302	0.0159808
642.380	0.0160285
642.459	0.0162485
642.537	0.0160872
642.615	0.0161790
642.693	0.0161214
642.771	0.0161010
642.849	0.0159697
642.927	0.0160497
643.005	0.0161388
643.084	0.0161749
643.162	0.0160066
643.240	0.0160647
643.318	0.0161141
643.396	0.0160204
643.474	0.0159892
643.552	0.0159670
643.630	0.0160603
643.709	0.0160264
643.787	0.0159669
643.865	0.0157877
643.943	0.0161693
644.021	0.0160521
644.099	0.0159743
644.177	0.0159091
644.255	0.0160285
644.334	0.0160542
644.412	0.0160722
644.490	0.0160374
644.568	0.0160009
644.646	0.0160437
644.724	0.0160497
644.802	0.0161163
644.880	0.0160001
644.959	0.0159996
645.037	0.0160271
645.115	0.0161385
645.193	0.0161473
645.271	0.0162074
645.349	0.0160046
645.427	0.0161588
645.505	0.0161967
645.584	0.0162096
645.662	0.0161305
645.740	0.0160770
645.818	0.0161546
645.896	0.0161823
645.974	0.0161555
646.052	0.0161736
646.130	0.0161443
646.209	0.0160183
646.287	0.0160548
646.365	0.0162141
646.443	0.0160818
646.521	0.0162141
646.599	0.0160956
646.677	0.0162006
646.755	0.0161355
646.834	0.0162367
646.912	0.0161786
646.990	0.0160623
647.068	0.0161101
647.146	0.0160698
647.224	0.0161298
647.302	0.0161591
647.380	0.0161423
647.459	0.0161844
647.537	0.0160561
647.615	0.0160626
647.693	0.0162625
647.771	0.0162804
647.849	0.0161015
647.927	0.0160904
648.005	0.0161365
648.084	0.0161683
648.162	0.0161439
648.240	0.0161034
648.318	0.0160861
648.396	0.0161722
648.474	0.0161275
648.552	0.0161540
648.630	0.0160506
648.709	0.0161096
648.787	0.0160197
648.865	0.0161749
648.943	0.0160196
649.021	0.0160702
649.099	0.0162051
649.177	0.0162088
649.255	0.0161072
649.334	0.0161034
649.412	0.0160680
649.490	0.0161359
649.568	0.0161548
649.646	0.0161116
649.724	0.0161449
649.802	0.0160318
649.880	0.0159916
649.959	0.0160757
650.037	0.0160680
650.115	0.0160681
650.193	0.0161068
650.271	0.0159743
650.349	0.0159672
650.427	0.0160383
650.505	0.0159314
650.584	0.0160197
650.662	0.0159871
650.740	0.0159573
650.818	0.0159842
650.896	0.0161149
650.974	0.0160765
651.052	0.0160541
651.130	0.0161646
651.209	0.0160743
651.287	0.0161465
651.365	0.0160078
651.443	0.0160870
651.521	0.0160117
651.599	0.0160108
651.677	0.0160555
651.755	0.0158794
651.834	0.0160564
651.912	0.0161637
651.990	0.0160414
652.068	0.0161223
652.146	0.0161706
652.224	0.0160110
652.302	0.0159686
652.380	0.0161643
652.459	0.0160459
652.537	0.0159534
652.615	0.0160354
652.693	0.0160151
652.771	0.0159869
652.849	0.0160689
652.927	0.0161119
653.005	0.0161161
653.084	0.0159226
653.162	0.0160732
653.240	0.0161390
653.318	0.0161310
653.396	0.0160224
653.474	0.0160609
653.552	0.0160709
653.630	0.0162280
653.709	0.0160350
653.787	0.0161398
653.865	0.0161160
653.943	0.0162007
654.021	0.0161919
654.099	0.0161320
654.177	0.0161459
654.255	0.0162404
654.334	0.0160685
654.412	0.0160386
654.490	0.0161326
654.568	0.0161452
654.646	0.0161220
654.724	0.0160569
654.802	0.0160575
654.880	0.0160670
654.959	0.0161155
655.037	0.0162177
655.115	0.0161783
655.193	0.0160636
655.271	0.0161147
655.349	0.0161092
655.427	0.0160316
655.505	0.0161314
655.584	0.0160851
655.662	0.0160403
655.740	0.0161100
655.818	0.0161298
655.896	0.0161258
655.974	0.0161716
656.052	0.0162538
656.130	0.0161410
656.209	0.0160902
656.287	0.0161732
656.365	0.0159295
656.443	0.0161747
656.521	0.0160956
656.599	0.0161929
656.677	0.0160366
656.755	0.0160422
656.834	0.0159713
656.912	0.0160391
656.990	0.0161612
657.068	0.0160013
657.146	0.0160660
657.224	0.0161842
657.302	0.0162247
657.380	0.0161680
657.459	0.0161629
657.537	0.0161905
657.615	0.0161485
657.693	0.0160803
657.771	0.0161932
657.849	0.0161148
657.927	0.0162056
658.005	0.0162347
658.084	0.0161057
658.162	0.0163007
658.240	0.0162407
658.318	0.0162135
658.396	0.0161978
658.474	0.0163136
658.552	0.0162642
658.630	0.0161755
658.709	0.0163580
658.787	0.0162218
658.865	0.0161952
658.943	0.0164965
659.021	0.0163246
659.099	0.0162012
659.177	0.0162452
659.255	0.0162894
659.334	0.0162989
659.412	0.0163481
659.490	0.0162666
659.568	0.0163276
659.646	0.0162249
659.724	0.0162680
659.802	0.0162677
659.880	0.0162923
659.959	0.0164947
660.037	0.0163285
660.115	0.0163550
660.193	0.0164222
660.271	0.0163313
660.349	0.0164115
660.427	0.0162900
660.505	0.0163484
660.584	0.0163537
660.662	0.0161987
660.740	0.0162387
660.818	0.0161855
660.896	0.0162772
660.974	0.0161585
661.052	0.0160854
661.130	0.0161122
661.209	0.0160603
661.287	0.0161020
661.365	0.0161811
661.443	0.0160384
661.521	0.0160699
661.599	0.0161658
661.677	0.0160367
661.755	0.0160945
661.834	0.0160891
661.912	0.0160249
661.990	0.0161358
662.068	0.0159100
662.146	0.0159990
662.224	0.0159740
662.302	0.0159086
662.380	0.0160014
662.459	0.0160261
662.537	0.0159209
662.615	0.0160209
662.693	0.0159478
662.771	0.0158664
662.849	0.0160773
662.927	0.0159997
663.005	0.0159135
663.084	0.0158835
663.162	0.0158692
663.240	0.0160248
663.318	0.0160404
663.396	0.0159634
663.474	0.0159959
663.552	0.0159921
663.630	0.0159637
663.709	0.0159780
663.787	0.0158553
663.865	0.0159302
663.943	0.0160069
664.021	0.0158132
664.099	0.0159521
664.177	0.0159492
664.255	0.0159736
664.334	0.0159466
664.412	0.0158445
664.490	0.0158960
664.568	0.0158485
664.646	0.0158255
664.724	0.0158694
664.802	0.0159083
664.880	0.0159125
664.959	0.0158795
665.037	0.0158996
665.115	0.0157977
665.193	0.0159204
665.271	0.0159561
665.349	0.0158134
665.427	0.0158851
665.505	0.0159991
665.584	0.0158826
665.662	0.0158872
665.740	0.0159822
665.818	0.0159232
665.896	0.0159485
665.974	0.0159900
666.052	0.0159551
666.130	0.0159544
666.209	0.0159907
666.287	0.0158711
666.365	0.0160445
666.443	0.0160663
666.521	0.0159193
666.599	0.0160328
666.677	0.0159767
666.755	0.0160125
666.834	0.0160432
666.912	0.0160418
666.990	0.0161424
667.068	0.0160688
667.146	0.0160858
667.224	0.0161124
667.302	0.0161008
667.380	0.0158951
667.459	0.0159487
667.537	0.0160543
667.615	0.0160904
667.693	0.0160504
667.771	0.0161853
667.849	0.0161005
667.927	0.0161385
668.005	0.0162001
668.084	0.0161723
668.162	0.0161691
668.240	0.0161567
668.318	0.0161646
668.396	0.0161678
668.474	0.0161837
668.552	0.0162658
668.630	0.0162743
668.709	0.0161736
668.787	0.0161959
668.865	0.0160705
668.943	0.0161433
669.021	0.0161990
669.099	0.0163131
669.177	0.0163152
669.255	0.0162835
669.334	0.0163393
669.412	0.0162489
669.490	0.0162894
669.568	0.0162332
669.646	0.0162745
669.724	0.0164098
669.802	0.0164165
669.880	0.0163235
669.959	0.0163552
670.037	0.0164719
670.115	0.0164551
670.193	0.0163619
670.271	0.0162404
670.349	0.0163779
670.427	0.0163775
670.505	0.0162954
670.584	0.0164682
670.662	0.0163873
670.740	0.0163253
670.818	0.0164098
670.896	0.0162690
670.974	0.0163962
671.052	0.0162437
671.130	0.0164223
671.209	0.0163199
671.287	0.0163285
671.365	0.0164474
671.443	0.0164076
671.521	0.0163356
671.599	0.0163359
671.677	0.0163127
671.755	0.0163660
671.834	0.0162720
671.912	0.0163098
671.990	0.0164046
672.068	0.0164140
672.146	0.0163452
672.224	0.0165053
672.302	0.0163002
672.380	0.0164092
672.459	0.0165010
672.537	0.0163367
672.615	0.0164243
672.693	0.0163705
672.771	0.0162410
672.849	0.0163506
672.927	0.0164629
673.005	0.0163258
673.084	0.0164110
673.162	0.0164225
673.240	0.0165102
673.318	0.0163817
673.396	0.0165804
673.474	0.0164513
673.552	0.0163924
673.630	0.0161986
673.709	0.0164079
673.787	0.0164240
673.865	0.0162704
673.943	0.0163816
674.021	0.0162923
674.099	0.0162246
674.177	0.0162648
674.255	0.0162919
674.334	0.0163845
674.412	0.0161594
674.490	0.0161537
674.568	0.0161041
674.646	0.0161170
674.724	0.0160757
674.802	0.0161313
674.880	0.0160516
674.959	0.0160537
675.037	0.0159258
675.115	0.0158906
675.193	0.0158902
675.271	0.0159997
675.349	0.0159077
675.427	0.0158864
675.505	0.0158019
675.584	0.0157541
675.662	0.0156971
675.740	0.0156634
675.818	0.0157221
675.896	0.0158538
675.974	0.0155802
676.052	0.0155711
676.130	0.0155460
676.209	0.0155284
676.287	0.0154939
676.365	0.0154820
676.443	0.0154719
676.521	0.0155265
676.599	0.0154945
676.677	0.0156232
676.755	0.0156880
676.834	0.0156080
676.912	0.0157011
676.990	0.0158273
677.068	0.0158323
677.146	0.0158469
677.224	0.0159052
677.302	0.0159066
677.380	0.0160483
677.459	0.0161193
677.537	0.0161712
677.615	0.0160460
677.693	0.0160330
677.771	0.0159581
677.849	0.0160174
677.927	0.0159988
678.005	0.0159521
678.084	0.0158958
678.162	0.0158092
678.240	0.0158033
678.318	0.0158495
678.396	0.0157465
678.474	0.0156303
678.552	0.0156551
678.630	0.0156555
678.709	0.0154617
678.787	0.0155986
678.865	0.0154424
678.943	0.0153339
679.021	0.0153198
679.099	0.0153857
679.177	0.0152448
679.255	0.0154206
679.334	0.0152769
679.412	0.0152440
679.490	0.0152381
679.568	0.0152313
679.646	0.0152823
679.724	0.0151424
679.802	0.0152863
679.880	0.0153784
679.959	0.0152486
680.037	0.0152659
680.115	0.0152435
680.193	0.0153768
680.271	0.0152795
680.349	0.0153341
680.427	0.0152039
680.505	0.0153145
680.584	0.0152905
680.662	0.0151127
680.740	0.0150991
680.818	0.0153429
680.896	0.0150791
680.974	0.0148897
681.052	0.0149915
681.130	0.0150884
681.209	0.0148258
681.287	0.0146597
681.365	0.0147016
681.443	0.0145457
681.521	0.0144646
681.599	0.0144127
681.677	0.0143047
681.755	0.0142704
681.834	0.0141019
681.912	0.0140542
681.990	0.0140398
682.068	0.0139317
682.146	0.0139005
682.224	0.0137691
682.302	0.0136736
682.380	0.0137228
682.459	0.0136591
682.537	0.0136307
682.615	0.0136383
682.693	0.0135942
682.771	0.0135041
682.849	0.0134427
682.927	0.0135809
683.005	0.0135274
683.084	0.0134399
683.162	0.0134487
683.240	0.0134306
683.318	0.0133967
683.396	0.0134123
683.474	0.0132983
683.552	0.0132874
683.630	0.0133186
683.709	0.0132784
683.787	0.0131911
683.865	0.0130009
683.943	0.0129288
684.021	0.0129730
684.099	0.0128844
684.177	0.0128031
684.255	0.0125655
684.334	0.0123465
684.412	0.0121320
684.490	0.0121745
684.568	0.0118279
684.646	0.0115990
684.724	0.0113207
684.802	0.0109850
684.880	0.0107749
684.959	0.0103344
685.037	0.0102164
685.115	0.00974991
685.193	0.00943710
685.271	0.00892761
685.349	0.00857086
685.427	0.00818634
685.505	0.00758415
685.584	0.00705803
685.662	0.00655128
685.740	0.00592323
685.818	0.00521400
685.896	0.00462166
685.974	0.00402977
686.052	0.00334923
686.130	0.00247322
686.209	0.00169998
686.287	0.000746613
686.365	-0.000250626
686.443	-0.00115318
686.521	-0.00221405
686.599	-0.00328575
686.677	-0.00449875
686.755	-0.00539970
686.834	-0.00642609
686.912	-0.00762512
686.990	-0.00893456
687.068	-0.00998741
687.146	-0.0112571
687.224	-0.0124095
687.302	-0.0137132
687.380	-0.0149590
687.459	-0.0162828
687.537	-0.0175935
687.615	-0.0186990
687.693	-0.0197550
687.771	-0.0199505
687.849	-0.0195085
687.927	-0.0177470
688.005	-0.0137492
688.084	-0.00727623
688.162	0.00195602
688.240	0.0143141
688.318	0.0300984
688.396	0.0490130
688.474	0.0704307
688.552	0.0936970
688.630	0.118028
688.709	0.142328
688.787	0.165523
688.865	0.187148
688.943	0.205982
689.021	0.221603
689.099	0.233504
689.177	0.240972
689.255	0.244391
689.334	0.243454
689.412	0.238477
689.490	0.229388
689.568	0.216906
689.646	0.201660
689.724	0.183589
689.802	0.163381
689.880	0.141362
689.959	0.118058
690.037	0.0934038
690.115	0.0678366
690.193	0.0416571
690.271	0.0154699
690.349	-0.0101516
690.427	-0.0345278
690.505	-0.0571506
690.584	-0.0775247
690.662	-0.0948451
690.740	-0.109295
690.818	-0.120030
690.896	-0.127451
690.974	-0.131499
691.052	-0.132326
691.130	-0.130150
691.209	-0.125513
691.287	-0.118899
691.365	-0.110548
691.443	-0.101168
691.521	-0.0914513
691.599	-0.0816080
691.677	-0.0720529
691.755	-0.0631130
691.834	-0.0549088
691.912	-0.0476693
691.990	-0.0411875
692.068	-0.0355647
692.146	-0.0308068
692.224	-0.0264932
692.302	-0.0231371
692.380	-0.0202287
692.459	-0.0182817
692.537	-0.0166505
692.615	-0.0153842
692.693	-0.0145486
692.771	-0.0137941
692.849	-0.0132922
692.927	-0.0128481
693.005	-0.0121594
693.084	-0.0118507
693.162	-0.0112009
693.240	-0.0107636
693.318	-0.0103593
693.396	-0.00963326
693.474	-0.00879456
693.552	-0.00763252
693.630	-0.00604301
693.709	-0.00426422
693.787	-0.00217018
693.865	-0.0000844574
693.943	0.00196358
694.021	0.00383636
694.099	0.00558968
694.177	0.00680305
694.255	0.00784019
694.334	0.00877747
694.412	0.00927185
694.490	0.00971657
694.568	0.00997032
694.646	0.0100199
694.724	0.00988983
694.802	0.00945732
694.880	0.00904709
694.959	0.00865341
695.037	0.00818611
695.115	0.00799179
695.193	0.00754097
695.271	0.00767998
695.349	0.00749939
695.427	0.00746628
695.505	0.00760605
695.584	0.00775345
695.662	0.00794662
695.740	0.00858551
695.818	0.00935577
695.896	0.0102370
695.974	0.0113330
696.052	0.0123740
696.130	0.0137317
696.209	0.0150173
696.287	0.0165785
696.365	0.0180553
696.443	0.0194196
696.521	0.0208434
696.599	0.0224438
696.677	0.0239853
696.755	0.0255981
696.834	0.0273378
696.912	0.0289928
696.990	0.0307259
697.068	0.0323212
697.146	0.0337150
697.224	0.0351187
697.302	0.0362080
697.380	0.0371600
697.459	0.0376428
697.537	0.0378631
697.615	0.0379581
697.693	0.0376779
697.771	0.0370284
697.849	0.0361636
697.927	0.0351620
698.005	0.0340482
698.084	0.0329984
698.162	0.0317474
698.240	0.0306646
698.318	0.0296825
698.396	0.0287560
698.474	0.0279457
698.552	0.0275874
698.630	0.0272948
698.709	0.0274562
698.787	0.0276591
698.865	0.0282069
698.943	0.0289606
699.021	0.0295831
699.099	0.0305810
699.177	0.0314156
699.255	0.0322620
699.334	0.0331596
699.412	0.0340604
699.490	0.0345311
699.568	0.0352976
699.646	0.0356109
699.724	0.0360079
699.802	0.0360372
699.880	0.0358434
699.959	0.0356450
700.037	0.0351672
700.115	0.0344053
700.193	0.0333978
700.271	0.0321385
700.349	0.0308098
700.427	0.0293140
700.505	0.0277040
700.584	0.0258160
700.662	0.0240142
700.740	0.0222597
700.818	0.0205978
700.896	0.0188383
700.974	0.0171169
701.052	0.0156353
701.130	0.0140615
701.209	0.0128831
701.287	0.0117133
701.365	0.0105829
701.443	0.0101297
701.521	0.00961563
701.599	0.00919296
701.677	0.00919899
701.755	0.00932861
701.834	0.00944901
701.912	0.00973083
701.990	0.0101478
702.068	0.0105400
702.146	0.0109087
702.224	0.0114921
702.302	0.0118730
702.380	0.0124650
702.459	0.0129050
702.537	0.0133472
702.615	0.0139305
702.693	0.0142360
702.771	0.0142587
702.849	0.0143176
702.927	0.0144707
703.005	0.0141075
703.084	0.0137766
703.162	0.0134289
703.240	0.0130714
703.318	0.0127097
703.396	0.0124831
703.474	0.0123505
703.552	0.0121352
703.630	0.0121183
703.709	0.0118821
703.787	0.0118988
703.865	0.0119516
703.943	0.0120919
704.021	0.0120927
704.099	0.0122868
704.177	0.0126044
704.255	0.0127763
704.334	0.0129955
704.412	0.0132057
704.490	0.0133418
704.568	0.0133968
704.646	0.0135857
704.724	0.0134631
704.802	0.0133232
704.880	0.0131561
704.959	0.0132187
705.037	0.0132127
705.115	0.0132375
705.193	0.0135363
705.271	0.0136830
705.349	0.0138802
705.427	0.0140324
705.505	0.0143249
705.584	0.0146627
705.662	0.0148678
705.740	0.0151239
705.818	0.0155031
705.896	0.0159010
705.974	0.0164387
706.052	0.0165795
706.130	0.0170121
706.209	0.0173315
706.287	0.0176441
706.365	0.0179115
706.443	0.0181104
706.521	0.0180595
706.599	0.0179884
706.677	0.0179304
706.755	0.0178510
706.834	0.0176936
706.912	0.0176492
706.990	0.0176392
707.068	0.0172982
707.146	0.0169927
707.224	0.0170780
707.302	0.0170412
707.380	0.0168341
707.459	0.0167410
707.537	0.0169790
707.615	0.0169869
707.693	0.0170757
707.771	0.0172073
707.849	0.0174494
707.927	0.0177080
708.005	0.0178984
708.084	0.0178606
708.162	0.0175632
708.240	0.0175317
708.318	0.0169456
708.396	0.0164499
708.474	0.0160779
708.552	0.0155142
708.630	0.0147657
708.709	0.0144336
708.787	0.0142268
708.865	0.0138418
708.943	0.0136111
709.021	0.0137495
709.099	0.0138097
709.177	0.0139305
709.255	0.0142223
709.334	0.0146249
709.412	0.0150676
709.490	0.0156079
709.568	0.0161781
709.646	0.0166203
709.724	0.0170668
709.802	0.0174645
709.880	0.0179325
709.959	0.0181427
710.037	0.0183633
710.115	0.0187447
710.193	0.0189909
710.271	0.0194673
710.349	0.0196195
710.427	0.0199613
710.505	0.0204351
710.584	0.0208489
710.662	0.0211325
710.740	0.0213004
710.818	0.0216192
710.896	0.0219061
710.974	0.0219036
711.052	0.0218329
711.130	0.0220499
711.209	0.0218817
711.287	0.0217522
711.365	0.0218961
711.443	0.0219672
711.521	0.0219987
711.599	0.0220692
711.677	0.0220915
711.755	0.0222334
711.834	0.0222893
711.912	0.0223542
711.990	0.0223405
712.068	0.0224664
712.146	0.0223732
712.224	0.0222221
712.302	0.0222012
712.380	0.0222377
712.459	0.0220748
712.537	0.0219032
712.615	0.0217965
712.693	0.0214481
712.771	0.0213572
712.849	0.0210815
712.927	0.0210944
713.005	0.0209329
713.084	0.0205842
713.162	0.0204122
713.240	0.0199397
713.318	0.0195751
713.396	0.0190870
713.474	0.0183086
713.552	0.0176706
713.630	0.0168146
713.709	0.0160373
713.787	0.0150178
713.865	0.0140318
713.943	0.0130946
714.021	0.0120544
714.099	0.0114579
714.177	0.0104958
714.255	0.00986244
714.334	0.00926552
714.412	0.00885567
714.490	0.00856758
714.568	0.00849846
714.646	0.00856758
714.724	0.00849503
714.802	0.00848656
714.880	0.00856750
714.959	0.00866562
715.037	0.00863976
715.115	0.00862740
715.193	0.00873627
715.271	0.00890289
715.349	0.00883781
715.427	0.00925323
715.505	0.00949310
715.584	0.00953079
715.662	0.00988190
715.740	0.00986145
715.818	0.0102696
715.896	0.0106541
715.974	0.0107964
716.052	0.0111713
716.130	0.0115385
716.209	0.0118536
716.287	0.0121556
716.365	0.0123093
716.443	0.0126060
716.521	0.0129119
716.599	0.0129018
716.677	0.0132117
716.755	0.0132921
716.834	0.0133888
716.912	0.0134570
716.990	0.0133316
717.068	0.0135744
717.146	0.0135269
717.224	0.0135058
717.302	0.0134865
717.380	0.0134557
717.459	0.0134202
717.537	0.0135556
717.615	0.0133498
717.693	0.0134135
717.771	0.0136153
717.849	0.0136442
717.927	0.0138089
718.005	0.0138733
718.084	0.0141713
718.162	0.0145957
718.240	0.0147739
718.318	0.0149843
718.396	0.0151988
718.474	0.0156671
718.552	0.0160807
718.630	0.0159993
718.709	0.0162682
718.787	0.0164717
718.865	0.0166897
718.943	0.0167208
719.021	0.0167120
719.099	0.0168495
719.177	0.0167813
719.255	0.0168005
719.334	0.0166639
719.412	0.0166914
719.490	0.0166307
719.568	0.0167420
719.646	0.0168069
719.724	0.0167368
719.802	0.0166754
719.880	0.0167926
719.959	0.0167678
