05/26/2022	21:11:51	Ver.	4.1	UNKNOWN
Optical Delay	400.036748	Delta X		0.078125	Sweeps	1	Scan Rate	0/0
Coordinates	Axis 1	NaN	Axis 2	NaN	Axis 3	NaN	Axis 4	NaN	Axis 5	NaN	Axis 6	0.000000
TX Power	0.000000	RX Power	0.000000

400.037	0.0154475
400.115	0.0153134
400.193	0.0155164
400.271	0.0154881
400.349	0.0153593
400.427	0.0153977
400.505	0.0154678
400.584	0.0154074
400.662	0.0154296
400.740	0.0154748
400.818	0.0154879
400.896	0.0153730
400.974	0.0153883
401.052	0.0154559
401.130	0.0153625
401.209	0.0153737
401.287	0.0154297
401.365	0.0155109
401.443	0.0154937
401.521	0.0153328
401.599	0.0151398
401.677	0.0154547
401.755	0.0155122
401.834	0.0153447
401.912	0.0153810
401.990	0.0153651
402.068	0.0153482
402.146	0.0153682
402.224	0.0153902
402.302	0.0154345
402.380	0.0154366
402.459	0.0155056
402.537	0.0154597
402.615	0.0153583
402.693	0.0154501
402.771	0.0153304
402.849	0.0153701
402.927	0.0153924
403.005	0.0154442
403.084	0.0154584
403.162	0.0153381
403.240	0.0151692
403.318	0.0153889
403.396	0.0154570
403.474	0.0153294
403.552	0.0154842
403.630	0.0153902
403.709	0.0153194
403.787	0.0154144
403.865	0.0153614
403.943	0.0153778
404.021	0.0152589
404.099	0.0153248
404.177	0.0152804
404.255	0.0153838
404.334	0.0154266
404.412	0.0154674
404.490	0.0154679
404.568	0.0153990
404.646	0.0153999
404.724	0.0154331
404.802	0.0154802
404.880	0.0153737
404.959	0.0154675
405.037	0.0153939
405.115	0.0154984
405.193	0.0154868
405.271	0.0155219
405.349	0.0154380
405.427	0.0154821
405.505	0.0153365
405.584	0.0154687
405.662	0.0155450
405.740	0.0155338
405.818	0.0154788
405.896	0.0154285
405.974	0.0155638
406.052	0.0155019
406.130	0.0154977
406.209	0.0153706
406.287	0.0155150
406.365	0.0154545
406.443	0.0153019
406.521	0.0153670
406.599	0.0154192
406.677	0.0154272
406.755	0.0153957
406.834	0.0154240
406.912	0.0152809
406.990	0.0154407
407.068	0.0154933
407.146	0.0154664
407.224	0.0154048
407.302	0.0154425
407.380	0.0154028
407.459	0.0153754
407.537	0.0153556
407.615	0.0154367
407.693	0.0154287
407.771	0.0153314
407.849	0.0153406
407.927	0.0153645
408.005	0.0154903
408.084	0.0155643
408.162	0.0153086
408.240	0.0154377
408.318	0.0153680
408.396	0.0153307
408.474	0.0152631
408.552	0.0154922
408.630	0.0152947
408.709	0.0154054
408.787	0.0154186
408.865	0.0153417
408.943	0.0154002
409.021	0.0154047
409.099	0.0153810
409.177	0.0152595
409.255	0.0153271
409.334	0.0153856
409.412	0.0155180
409.490	0.0154064
409.568	0.0154804
409.646	0.0154333
409.724	0.0154076
409.802	0.0153592
409.880	0.0152649
409.959	0.0154562
410.037	0.0154321
410.115	0.0153818
410.193	0.0154140
410.271	0.0155624
410.349	0.0154443
410.427	0.0154900
410.505	0.0155318
410.584	0.0153114
410.662	0.0154604
410.740	0.0154453
410.818	0.0155099
410.896	0.0154941
410.974	0.0154801
411.052	0.0154462
411.130	0.0155031
411.209	0.0155438
411.287	0.0154721
411.365	0.0155470
411.443	0.0153693
411.521	0.0154361
411.599	0.0154456
411.677	0.0155370
411.755	0.0155044
411.834	0.0154737
411.912	0.0154961
411.990	0.0154610
412.068	0.0155234
412.146	0.0154342
412.224	0.0154153
412.302	0.0155087
412.380	0.0155337
412.459	0.0155540
412.537	0.0154900
412.615	0.0153846
412.693	0.0153970
412.771	0.0155024
412.849	0.0155004
412.927	0.0154311
413.005	0.0154578
413.084	0.0154540
413.162	0.0155292
413.240	0.0154314
413.318	0.0154065
413.396	0.0155676
413.474	0.0156277
413.552	0.0155499
413.630	0.0153725
413.709	0.0154493
413.787	0.0155700
413.865	0.0154185
413.943	0.0153997
414.021	0.0154363
414.099	0.0154626
414.177	0.0155801
414.255	0.0154376
414.334	0.0153776
414.412	0.0154639
414.490	0.0154411
414.568	0.0152925
414.646	0.0154341
414.724	0.0154347
414.802	0.0154380
414.880	0.0154318
414.959	0.0154218
415.037	0.0155338
415.115	0.0154888
415.193	0.0153295
415.271	0.0153306
415.349	0.0154485
415.427	0.0154348
415.505	0.0154371
415.584	0.0155791
415.662	0.0155527
415.740	0.0153455
415.818	0.0153725
415.896	0.0154218
415.974	0.0154637
416.052	0.0153728
416.130	0.0152920
416.209	0.0154099
416.287	0.0154196
416.365	0.0153892
416.443	0.0153261
416.521	0.0154456
416.599	0.0154129
416.677	0.0154230
416.755	0.0154443
416.834	0.0155043
416.912	0.0155743
416.990	0.0153941
417.068	0.0154443
417.146	0.0153698
417.224	0.0154049
417.302	0.0154119
417.380	0.0154975
417.459	0.0153516
417.537	0.0153816
417.615	0.0154279
417.693	0.0154756
417.771	0.0153671
417.849	0.0152991
417.927	0.0155354
418.005	0.0154768
418.084	0.0153568
418.162	0.0153097
418.240	0.0155030
418.318	0.0154873
418.396	0.0153220
418.474	0.0153332
418.552	0.0154950
418.630	0.0154176
418.709	0.0154154
418.787	0.0155145
418.865	0.0154433
418.943	0.0153993
419.021	0.0152948
419.099	0.0153927
419.177	0.0154842
419.255	0.0153812
419.334	0.0153880
419.412	0.0153300
419.490	0.0154583
419.568	0.0153780
419.646	0.0154054
419.724	0.0155198
419.802	0.0155196
419.880	0.0154498
419.959	0.0153552
420.037	0.0155453
420.115	0.0154008
420.193	0.0153948
420.271	0.0152839
420.349	0.0153979
420.427	0.0154906
420.505	0.0152879
420.584	0.0155115
420.662	0.0154653
420.740	0.0153593
420.818	0.0154381
420.896	0.0153819
420.974	0.0153856
421.052	0.0154471
421.130	0.0155125
421.209	0.0153658
421.287	0.0153870
421.365	0.0154207
421.443	0.0153558
421.521	0.0153381
421.599	0.0153790
421.677	0.0152479
421.755	0.0154319
421.834	0.0153981
421.912	0.0155520
421.990	0.0154593
422.068	0.0153600
422.146	0.0154169
422.224	0.0155025
422.302	0.0151661
422.380	0.0153949
422.459	0.0153680
422.537	0.0155318
422.615	0.0155701
422.693	0.0154895
422.771	0.0154228
422.849	0.0155282
422.927	0.0155236
423.005	0.0153145
423.084	0.0155040
423.162	0.0152675
423.240	0.0154298
423.318	0.0155502
423.396	0.0153983
423.474	0.0154939
423.552	0.0154602
423.630	0.0153343
423.709	0.0153771
423.787	0.0153928
423.865	0.0154479
423.943	0.0153113
424.021	0.0156106
424.099	0.0154521
424.177	0.0152655
424.255	0.0153884
424.334	0.0154044
424.412	0.0152802
424.490	0.0153551
424.568	0.0154919
424.646	0.0155384
424.724	0.0155106
424.802	0.0153223
424.880	0.0154174
424.959	0.0153899
425.037	0.0154492
425.115	0.0155341
425.193	0.0153072
425.271	0.0153942
425.349	0.0155488
425.427	0.0153556
425.505	0.0153688
425.584	0.0153747
425.662	0.0154575
425.740	0.0154468
425.818	0.0154051
425.896	0.0152539
425.974	0.0154996
426.052	0.0155354
426.130	0.0154847
426.209	0.0154994
426.287	0.0154878
426.365	0.0154247
426.443	0.0154633
426.521	0.0154247
426.599	0.0154544
426.677	0.0153888
426.755	0.0154293
426.834	0.0153827
426.912	0.0155451
426.990	0.0154761
427.068	0.0153983
427.146	0.0153355
427.224	0.0154644
427.302	0.0153690
427.380	0.0154385
427.459	0.0154823
427.537	0.0154070
427.615	0.0154168
427.693	0.0153030
427.771	0.0153973
427.849	0.0154733
427.927	0.0155169
428.005	0.0153830
428.084	0.0154437
428.162	0.0152625
428.240	0.0155379
428.318	0.0153596
428.396	0.0154847
428.474	0.0154102
428.552	0.0154903
428.630	0.0156193
428.709	0.0153316
428.787	0.0154185
428.865	0.0155095
428.943	0.0155200
429.021	0.0155089
429.099	0.0154031
429.177	0.0153867
429.255	0.0153973
429.334	0.0153491
429.412	0.0154981
429.490	0.0154819
429.568	0.0154692
429.646	0.0154678
429.724	0.0154243
429.802	0.0154066
429.880	0.0155544
429.959	0.0154763
430.037	0.0154053
430.115	0.0153954
430.193	0.0155857
430.271	0.0153976
430.349	0.0154154
430.427	0.0156400
430.505	0.0153862
430.584	0.0153566
430.662	0.0154163
430.740	0.0153269
430.818	0.0154948
430.896	0.0154453
430.974	0.0155490
431.052	0.0154075
431.130	0.0153490
431.209	0.0154748
431.287	0.0155689
431.365	0.0154575
431.443	0.0155133
431.521	0.0154567
431.599	0.0156228
431.677	0.0154929
431.755	0.0155342
431.834	0.0155025
431.912	0.0155177
431.990	0.0154943
432.068	0.0155257
432.146	0.0155837
432.224	0.0154263
432.302	0.0155866
432.380	0.0155418
432.459	0.0154091
432.537	0.0154448
432.615	0.0154698
432.693	0.0154817
432.771	0.0154778
432.849	0.0155701
432.927	0.0155544
433.005	0.0154463
433.084	0.0153409
433.162	0.0153813
433.240	0.0155015
433.318	0.0154140
433.396	0.0153561
433.474	0.0154607
433.552	0.0154343
433.630	0.0155644
433.709	0.0155127
433.787	0.0154979
433.865	0.0154193
433.943	0.0155212
434.021	0.0155762
434.099	0.0154574
434.177	0.0154636
434.255	0.0155357
434.334	0.0153916
434.412	0.0153503
434.490	0.0154453
434.568	0.0154132
434.646	0.0154916
434.724	0.0154865
434.802	0.0154497
434.880	0.0154063
434.959	0.0154546
435.037	0.0154010
435.115	0.0152851
435.193	0.0155243
435.271	0.0154570
435.349	0.0153741
435.427	0.0155110
435.505	0.0154861
435.584	0.0155148
435.662	0.0155525
435.740	0.0152434
435.818	0.0154028
435.896	0.0153485
435.974	0.0154262
436.052	0.0154160
436.130	0.0156025
436.209	0.0153679
436.287	0.0153557
436.365	0.0154964
436.443	0.0154470
436.521	0.0154166
436.599	0.0153799
436.677	0.0154463
436.755	0.0153963
436.834	0.0153635
436.912	0.0154295
436.990	0.0154528
437.068	0.0154565
437.146	0.0154427
437.224	0.0154294
437.302	0.0153904
437.380	0.0153880
437.459	0.0154263
437.537	0.0153239
437.615	0.0152774
437.693	0.0156179
437.771	0.0153278
437.849	0.0154533
437.927	0.0153670
438.005	0.0152737
438.084	0.0154098
438.162	0.0153750
438.240	0.0154404
438.318	0.0154438
438.396	0.0155342
438.474	0.0155039
438.552	0.0153431
438.630	0.0153365
438.709	0.0153271
438.787	0.0154282
438.865	0.0154087
438.943	0.0154343
439.021	0.0154414
439.099	0.0153392
439.177	0.0154192
439.255	0.0155264
439.334	0.0153351
439.412	0.0153941
439.490	0.0153846
439.568	0.0153817
439.646	0.0154112
439.724	0.0154685
439.802	0.0152831
439.880	0.0153888
439.959	0.0153239
440.037	0.0153928
440.115	0.0154706
440.193	0.0153465
440.271	0.0153334
440.349	0.0155055
440.427	0.0154479
440.505	0.0154079
440.584	0.0154642
440.662	0.0153444
440.740	0.0153722
440.818	0.0153341
440.896	0.0154621
440.974	0.0153934
441.052	0.0153113
441.130	0.0152861
441.209	0.0153212
441.287	0.0154797
441.365	0.0153941
441.443	0.0153807
441.521	0.0154706
441.599	0.0153059
441.677	0.0153945
441.755	0.0154996
441.834	0.0154839
441.912	0.0155286
441.990	0.0154586
442.068	0.0154152
442.146	0.0153054
442.224	0.0154324
442.302	0.0155260
442.380	0.0154795
442.459	0.0155655
442.537	0.0155503
442.615	0.0154495
442.693	0.0154515
442.771	0.0154613
442.849	0.0154721
442.927	0.0154879
443.005	0.0154561
443.084	0.0154437
443.162	0.0154295
443.240	0.0155697
443.318	0.0153919
443.396	0.0154739
443.474	0.0154966
443.552	0.0153668
443.630	0.0154067
443.709	0.0155465
443.787	0.0155328
443.865	0.0155283
443.943	0.0153705
444.021	0.0154189
444.099	0.0153896
444.177	0.0153571
444.255	0.0154213
444.334	0.0154572
444.412	0.0154424
444.490	0.0154065
444.568	0.0154294
444.646	0.0155376
444.724	0.0154550
444.802	0.0152950
444.880	0.0153817
444.959	0.0153966
445.037	0.0154309
445.115	0.0154121
445.193	0.0154680
445.271	0.0154076
445.349	0.0155048
445.427	0.0154437
445.505	0.0154931
445.584	0.0154319
445.662	0.0154229
445.740	0.0153315
445.818	0.0153834
445.896	0.0153870
445.974	0.0153812
446.052	0.0153362
446.130	0.0154071
446.209	0.0154343
446.287	0.0153681
446.365	0.0153945
446.443	0.0154289
446.521	0.0154955
446.599	0.0153416
446.677	0.0153201
446.755	0.0155486
446.834	0.0154320
446.912	0.0153593
446.990	0.0154443
447.068	0.0155312
447.146	0.0155209
447.224	0.0154558
447.302	0.0153696
447.380	0.0154243
447.459	0.0153947
447.537	0.0154534
447.615	0.0156135
447.693	0.0153932
447.771	0.0154047
447.849	0.0154510
447.927	0.0153791
448.005	0.0154159
448.084	0.0155186
448.162	0.0154212
448.240	0.0154311
448.318	0.0152454
448.396	0.0154549
448.474	0.0154395
448.552	0.0153844
448.630	0.0153577
448.709	0.0153437
448.787	0.0153956
448.865	0.0154456
448.943	0.0153214
449.021	0.0153378
449.099	0.0153922
449.177	0.0152609
449.255	0.0153925
449.334	0.0155074
449.412	0.0153495
449.490	0.0154350
449.568	0.0154496
449.646	0.0153988
449.724	0.0153246
449.802	0.0153307
449.880	0.0153926
449.959	0.0153772
450.037	0.0154211
450.115	0.0153852
450.193	0.0153367
450.271	0.0152976
450.349	0.0155000
450.427	0.0154935
450.505	0.0152736
450.584	0.0153681
450.662	0.0154124
450.740	0.0154789
450.818	0.0153846
450.896	0.0152721
450.974	0.0153559
451.052	0.0154849
451.130	0.0154592
451.209	0.0154318
451.287	0.0153477
451.365	0.0154399
451.443	0.0154892
451.521	0.0153916
451.599	0.0152938
451.677	0.0154189
451.755	0.0153370
451.834	0.0152868
451.912	0.0153488
451.990	0.0153817
452.068	0.0152795
452.146	0.0153175
452.224	0.0154013
452.302	0.0153488
452.380	0.0154259
452.459	0.0153639
452.537	0.0153922
452.615	0.0152820
452.693	0.0152872
452.771	0.0152313
452.849	0.0153857
452.927	0.0154002
453.005	0.0152858
453.084	0.0153139
453.162	0.0155282
453.240	0.0154732
453.318	0.0153970
453.396	0.0153392
453.474	0.0154575
453.552	0.0154089
453.630	0.0153438
453.709	0.0153578
453.787	0.0155074
453.865	0.0153301
453.943	0.0154372
454.021	0.0154399
454.099	0.0153316
454.177	0.0154202
454.255	0.0153402
454.334	0.0153647
454.412	0.0153346
454.490	0.0154117
454.568	0.0154283
454.646	0.0153798
454.724	0.0154541
454.802	0.0153635
454.880	0.0153413
454.959	0.0153094
455.037	0.0154002
455.115	0.0152512
455.193	0.0154298
455.271	0.0153986
455.349	0.0153983
455.427	0.0152623
455.505	0.0154604
455.584	0.0154239
455.662	0.0152628
455.740	0.0154376
455.818	0.0154807
455.896	0.0154532
455.974	0.0153236
456.052	0.0153283
456.130	0.0153452
456.209	0.0153535
456.287	0.0153927
456.365	0.0153754
456.443	0.0154646
456.521	0.0152323
456.599	0.0154426
456.677	0.0154843
456.755	0.0153954
456.834	0.0153417
456.912	0.0154768
456.990	0.0154710
457.068	0.0154310
457.146	0.0155020
457.224	0.0154185
457.302	0.0154958
457.380	0.0154094
457.459	0.0154996
457.537	0.0153314
457.615	0.0152610
457.693	0.0153740
457.771	0.0154854
457.849	0.0153880
457.927	0.0153819
458.005	0.0153534
458.084	0.0153316
458.162	0.0155293
458.240	0.0155151
458.318	0.0153899
458.396	0.0153378
458.474	0.0155263
458.552	0.0153977
458.630	0.0154272
458.709	0.0154887
458.787	0.0154143
458.865	0.0153931
458.943	0.0153286
459.021	0.0154391
459.099	0.0154711
459.177	0.0154213
459.255	0.0152879
459.334	0.0153941
459.412	0.0155207
459.490	0.0153351
459.568	0.0154498
459.646	0.0155475
459.724	0.0154273
459.802	0.0154760
459.880	0.0154368
459.959	0.0155658
460.037	0.0155853
460.115	0.0154662
460.193	0.0153589
460.271	0.0154607
460.349	0.0154947
460.427	0.0154729
460.505	0.0156663
460.584	0.0156300
460.662	0.0153947
460.740	0.0155310
460.818	0.0154564
460.896	0.0153793
460.974	0.0154919
461.052	0.0154093
461.130	0.0156057
461.209	0.0156708
461.287	0.0155259
461.365	0.0154809
461.443	0.0154987
461.521	0.0154406
461.599	0.0154774
461.677	0.0154317
461.755	0.0155021
461.834	0.0155172
461.912	0.0153999
461.990	0.0155240
462.068	0.0155647
462.146	0.0154531
462.224	0.0155537
462.302	0.0154769
462.380	0.0153323
462.459	0.0155173
462.537	0.0154495
462.615	0.0154283
462.693	0.0154140
462.771	0.0153812
462.849	0.0154503
462.927	0.0153885
463.005	0.0153254
463.084	0.0153271
463.162	0.0154044
463.240	0.0153470
463.318	0.0153877
463.396	0.0154298
463.474	0.0154687
463.552	0.0154429
463.630	0.0155119
463.709	0.0154869
463.787	0.0154906
463.865	0.0154659
463.943	0.0154794
464.021	0.0154112
464.099	0.0153648
464.177	0.0154163
464.255	0.0154604
464.334	0.0154816
464.412	0.0153609
464.490	0.0154465
464.568	0.0154726
464.646	0.0154174
464.724	0.0154349
464.802	0.0154830
464.880	0.0153140
464.959	0.0153867
465.037	0.0154670
465.115	0.0154134
465.193	0.0152987
465.271	0.0154192
465.349	0.0153136
465.427	0.0153188
465.505	0.0153095
465.584	0.0153985
465.662	0.0154005
465.740	0.0153710
465.818	0.0153242
465.896	0.0153638
465.974	0.0153052
466.052	0.0153564
466.130	0.0154346
466.209	0.0153575
466.287	0.0153199
466.365	0.0154014
466.443	0.0153312
466.521	0.0152763
466.599	0.0154021
466.677	0.0153488
466.755	0.0152410
466.834	0.0153008
466.912	0.0153682
466.990	0.0153945
467.068	0.0153769
467.146	0.0153565
467.224	0.0154276
467.302	0.0154105
467.380	0.0153329
467.459	0.0154914
467.537	0.0153525
467.615	0.0153920
467.693	0.0154064
467.771	0.0154119
467.849	0.0155272
467.927	0.0154668
468.005	0.0153682
468.084	0.0152957
468.162	0.0154330
468.240	0.0155251
468.318	0.0154598
468.396	0.0153222
468.474	0.0153823
468.552	0.0156156
468.630	0.0154537
468.709	0.0153397
468.787	0.0154611
468.865	0.0153510
468.943	0.0155215
469.021	0.0153764
469.099	0.0153854
469.177	0.0154343
469.255	0.0154459
469.334	0.0153342
469.412	0.0154162
469.490	0.0155866
469.568	0.0154563
469.646	0.0154510
469.724	0.0154926
469.802	0.0154853
469.880	0.0154469
469.959	0.0154320
470.037	0.0155873
470.115	0.0155067
470.193	0.0154474
470.271	0.0153564
470.349	0.0153184
470.427	0.0155395
470.505	0.0155263
470.584	0.0154631
470.662	0.0153545
470.740	0.0154950
470.818	0.0153378
470.896	0.0154188
470.974	0.0155710
471.052	0.0154691
471.130	0.0155213
471.209	0.0154417
471.287	0.0155417
471.365	0.0155420
471.443	0.0153668
471.521	0.0156013
471.599	0.0155201
471.677	0.0154740
471.755	0.0153225
471.834	0.0154942
471.912	0.0155428
471.990	0.0154946
472.068	0.0154777
472.146	0.0152409
472.224	0.0155036
472.302	0.0154666
472.380	0.0153484
472.459	0.0153758
472.537	0.0154494
472.615	0.0153949
472.693	0.0154285
472.771	0.0154801
472.849	0.0154765
472.927	0.0152563
473.005	0.0155523
473.084	0.0154373
473.162	0.0153091
473.240	0.0154357
473.318	0.0154525
473.396	0.0154278
473.474	0.0154184
473.552	0.0154071
473.630	0.0153395
473.709	0.0155719
473.787	0.0154241
473.865	0.0153982
473.943	0.0153846
474.021	0.0153747
474.099	0.0154292
474.177	0.0154913
474.255	0.0154785
474.334	0.0154851
474.412	0.0154048
474.490	0.0152684
474.568	0.0153491
474.646	0.0154936
474.724	0.0155701
474.802	0.0154347
474.880	0.0153174
474.959	0.0153583
475.037	0.0153635
475.115	0.0154195
475.193	0.0154316
475.271	0.0154854
475.349	0.0154433
475.427	0.0156614
475.505	0.0155083
475.584	0.0153693
475.662	0.0153529
475.740	0.0153424
475.818	0.0154647
475.896	0.0154680
475.974	0.0154230
476.052	0.0154270
476.130	0.0153688
476.209	0.0154327
476.287	0.0155184
476.365	0.0153624
476.443	0.0154911
476.521	0.0155437
476.599	0.0155553
476.677	0.0154470
476.755	0.0153667
476.834	0.0155669
476.912	0.0154623
476.990	0.0154816
477.068	0.0154667
477.146	0.0154414
477.224	0.0154853
477.302	0.0153428
477.380	0.0153139
477.459	0.0155172
477.537	0.0155537
477.615	0.0154291
477.693	0.0154328
477.771	0.0154541
477.849	0.0154428
477.927	0.0155224
478.005	0.0153545
478.084	0.0154756
478.162	0.0154387
478.240	0.0153471
478.318	0.0154671
478.396	0.0155227
478.474	0.0155208
478.552	0.0153767
478.630	0.0154683
478.709	0.0153600
478.787	0.0153587
478.865	0.0154090
478.943	0.0153260
479.021	0.0154871
479.099	0.0154840
479.177	0.0154436
479.255	0.0153331
479.334	0.0154587
479.412	0.0155788
479.490	0.0154116
479.568	0.0154828
479.646	0.0155647
479.724	0.0155342
479.802	0.0152645
479.880	0.0153996
479.959	0.0154456
480.037	0.0153586
480.115	0.0153615
480.193	0.0154935
480.271	0.0154167
480.349	0.0153384
480.427	0.0153943
480.505	0.0153758
480.584	0.0153728
480.662	0.0153723
480.740	0.0153911
480.818	0.0154768
480.896	0.0153880
480.974	0.0154355
481.052	0.0155136
481.130	0.0154925
481.209	0.0153818
481.287	0.0153396
481.365	0.0153407
481.443	0.0154004
481.521	0.0154935
481.599	0.0154884
481.677	0.0154528
481.755	0.0153561
481.834	0.0153352
481.912	0.0154617
481.990	0.0153917
482.068	0.0154053
482.146	0.0154013
482.224	0.0153540
482.302	0.0155721
482.380	0.0153660
482.459	0.0154003
482.537	0.0154777
482.615	0.0152979
482.693	0.0153587
482.771	0.0153189
482.849	0.0152203
482.927	0.0153796
483.005	0.0154191
483.084	0.0154092
483.162	0.0152805
483.240	0.0153524
483.318	0.0153192
483.396	0.0155015
483.474	0.0154335
483.552	0.0154054
483.630	0.0153381
483.709	0.0153860
483.787	0.0154591
483.865	0.0154468
483.943	0.0153922
484.021	0.0154938
484.099	0.0154574
484.177	0.0154884
484.255	0.0153878
484.334	0.0155421
484.412	0.0154526
484.490	0.0153043
484.568	0.0153670
484.646	0.0155283
484.724	0.0153523
484.802	0.0153850
484.880	0.0154205
484.959	0.0153426
485.037	0.0154642
485.115	0.0152856
485.193	0.0153223
485.271	0.0155143
485.349	0.0154140
485.427	0.0154126
485.505	0.0153690
485.584	0.0154449
485.662	0.0155020
485.740	0.0154630
485.818	0.0154683
485.896	0.0153352
485.974	0.0153643
486.052	0.0154388
486.130	0.0154711
486.209	0.0153024
486.287	0.0154808
486.365	0.0154797
486.443	0.0155666
486.521	0.0153960
486.599	0.0153846
486.677	0.0154115
486.755	0.0154113
486.834	0.0154935
486.912	0.0154528
486.990	0.0154668
487.068	0.0154103
487.146	0.0153380
487.224	0.0154096
487.302	0.0154980
487.380	0.0155513
487.459	0.0154136
487.537	0.0154245
487.615	0.0154452
487.693	0.0153661
487.771	0.0154671
487.849	0.0155660
487.927	0.0154218
488.005	0.0154250
488.084	0.0154210
488.162	0.0155322
488.240	0.0154408
488.318	0.0153699
488.396	0.0154050
488.474	0.0154208
488.552	0.0154125
488.630	0.0152521
488.709	0.0155149
488.787	0.0154380
488.865	0.0153409
488.943	0.0154783
489.021	0.0153520
489.099	0.0155930
489.177	0.0153764
489.255	0.0153790
489.334	0.0153632
489.412	0.0154150
489.490	0.0153759
489.568	0.0153117
489.646	0.0153230
489.724	0.0154456
489.802	0.0154397
489.880	0.0154255
489.959	0.0153867
490.037	0.0153984
490.115	0.0152560
490.193	0.0152058
490.271	0.0154136
490.349	0.0152675
490.427	0.0153771
490.505	0.0153561
490.584	0.0153564
490.662	0.0153033
490.740	0.0153978
490.818	0.0154454
490.896	0.0152987
490.974	0.0153246
491.052	0.0153568
491.130	0.0154511
491.209	0.0154364
491.287	0.0154803
491.365	0.0154404
491.443	0.0153636
491.521	0.0154822
491.599	0.0154131
491.677	0.0154616
491.755	0.0153481
491.834	0.0153841
491.912	0.0154107
491.990	0.0154656
492.068	0.0153131
492.146	0.0154715
492.224	0.0154430
492.302	0.0154205
492.380	0.0153407
492.459	0.0153629
492.537	0.0153368
492.615	0.0154188
492.693	0.0154419
492.771	0.0154398
492.849	0.0153415
492.927	0.0156075
493.005	0.0153825
493.084	0.0154075
493.162	0.0155485
493.240	0.0154297
493.318	0.0154678
493.396	0.0155656
493.474	0.0153640
493.552	0.0153999
493.630	0.0154457
493.709	0.0153549
493.787	0.0153914
493.865	0.0154415
493.943	0.0154224
494.021	0.0154717
494.099	0.0154573
494.177	0.0154250
494.255	0.0153950
494.334	0.0154248
494.412	0.0155499
494.490	0.0153489
494.568	0.0153925
494.646	0.0152956
494.724	0.0154430
494.802	0.0154197
494.880	0.0152837
494.959	0.0153248
495.037	0.0154662
495.115	0.0154700
495.193	0.0152940
495.271	0.0153867
495.349	0.0154824
495.427	0.0154057
495.505	0.0152692
495.584	0.0152988
495.662	0.0153897
495.740	0.0152938
495.818	0.0153947
495.896	0.0152512
495.974	0.0153514
496.052	0.0153377
496.130	0.0153734
496.209	0.0154264
496.287	0.0154301
496.365	0.0153220
496.443	0.0152465
496.521	0.0153795
496.599	0.0152220
496.677	0.0153548
496.755	0.0152920
496.834	0.0153177
496.912	0.0153050
496.990	0.0154681
497.068	0.0153889
497.146	0.0152851
497.224	0.0154634
497.302	0.0152895
497.380	0.0153790
497.459	0.0153957
497.537	0.0153690
497.615	0.0153573
497.693	0.0153587
497.771	0.0152856
497.849	0.0152808
497.927	0.0152980
498.005	0.0154286
498.084	0.0153361
498.162	0.0153851
498.240	0.0152253
498.318	0.0153891
498.396	0.0154707
498.474	0.0153617
498.552	0.0152403
498.630	0.0152362
498.709	0.0152690
498.787	0.0153297
498.865	0.0153771
498.943	0.0153233
499.021	0.0153657
499.099	0.0153711
499.177	0.0153708
499.255	0.0153889
499.334	0.0154248
499.412	0.0153020
499.490	0.0154473
499.568	0.0152599
499.646	0.0154334
499.724	0.0152849
499.802	0.0154766
499.880	0.0154144
499.959	0.0153976
500.037	0.0153465
500.115	0.0153309
500.193	0.0153756
500.271	0.0152613
500.349	0.0153628
500.427	0.0153886
500.505	0.0154589
500.584	0.0154419
500.662	0.0153378
500.740	0.0153835
500.818	0.0153664
500.896	0.0154388
500.974	0.0154881
501.052	0.0154996
501.130	0.0153632
501.209	0.0152803
501.287	0.0154600
501.365	0.0154777
501.443	0.0154919
501.521	0.0154443
501.599	0.0154604
501.677	0.0154942
501.755	0.0155051
501.834	0.0153121
501.912	0.0154586
501.990	0.0154099
502.068	0.0153493
502.146	0.0154284
502.224	0.0154890
502.302	0.0154956
502.380	0.0154017
502.459	0.0153773
502.537	0.0155218
502.615	0.0153612
502.693	0.0155031
502.771	0.0154512
502.849	0.0154402
502.927	0.0153696
503.005	0.0154514
503.084	0.0154143
503.162	0.0154225
503.240	0.0154310
503.318	0.0154156
503.396	0.0154395
503.474	0.0153850
503.552	0.0155066
503.630	0.0154832
503.709	0.0153348
503.787	0.0153987
503.865	0.0155436
503.943	0.0154516
504.021	0.0152901
504.099	0.0154111
504.177	0.0154437
504.255	0.0153058
504.334	0.0154388
504.412	0.0152422
504.490	0.0153120
504.568	0.0154279
504.646	0.0153250
504.724	0.0153014
504.802	0.0152449
504.880	0.0154179
504.959	0.0152996
505.037	0.0154494
505.115	0.0153285
505.193	0.0153654
505.271	0.0153294
505.349	0.0154056
505.427	0.0152995
505.505	0.0153732
505.584	0.0154865
505.662	0.0154485
505.740	0.0153778
505.818	0.0152927
505.896	0.0153773
505.974	0.0155408
506.052	0.0155334
506.130	0.0153917
506.209	0.0155022
506.287	0.0155463
506.365	0.0154697
506.443	0.0154420
506.521	0.0154409
506.599	0.0154610
506.677	0.0154049
506.755	0.0155238
506.834	0.0153976
506.912	0.0154772
506.990	0.0153580
507.068	0.0153005
507.146	0.0154767
507.224	0.0154796
507.302	0.0155357
507.380	0.0153571
507.459	0.0155723
507.537	0.0154731
507.615	0.0154041
507.693	0.0154085
507.771	0.0153488
507.849	0.0154140
507.927	0.0154734
508.005	0.0154704
508.084	0.0154255
508.162	0.0154321
508.240	0.0153502
508.318	0.0153712
508.396	0.0154819
508.474	0.0154491
508.552	0.0152488
508.630	0.0154686
508.709	0.0153529
508.787	0.0154523
508.865	0.0153092
508.943	0.0152248
509.021	0.0153942
509.099	0.0153246
509.177	0.0152780
509.255	0.0153625
509.334	0.0155348
509.412	0.0153485
509.490	0.0152209
509.568	0.0152768
509.646	0.0154221
509.724	0.0153741
509.802	0.0154655
509.880	0.0154865
509.959	0.0153838
510.037	0.0153079
510.115	0.0152295
510.193	0.0154292
510.271	0.0154700
510.349	0.0154482
510.427	0.0153014
510.505	0.0152735
510.584	0.0153880
510.662	0.0152278
510.740	0.0152318
510.818	0.0153858
510.896	0.0153075
510.974	0.0153294
511.052	0.0152000
511.130	0.0154729
511.209	0.0153101
511.287	0.0153432
511.365	0.0153328
511.443	0.0153685
511.521	0.0154236
511.599	0.0153402
511.677	0.0153796
511.755	0.0153137
511.834	0.0152907
511.912	0.0154148
511.990	0.0153680
512.068	0.0153856
512.146	0.0153425
512.224	0.0155040
512.302	0.0155141
512.380	0.0154371
512.459	0.0155311
512.537	0.0153115
512.615	0.0153217
512.693	0.0153609
512.771	0.0154752
512.849	0.0153942
512.927	0.0154855
513.005	0.0153857
513.084	0.0152345
513.162	0.0154659
513.240	0.0154546
513.318	0.0152906
513.396	0.0153526
513.474	0.0154084
513.552	0.0155038
513.630	0.0155083
513.709	0.0155221
513.787	0.0155535
513.865	0.0154272
513.943	0.0152478
514.021	0.0153939
514.099	0.0153642
514.177	0.0153639
514.255	0.0154539
514.334	0.0155190
514.412	0.0154276
514.490	0.0153813
514.568	0.0153926
514.646	0.0154415
514.724	0.0153957
514.802	0.0152423
514.880	0.0153959
514.959	0.0154961
515.037	0.0154810
515.115	0.0154546
515.193	0.0153583
515.271	0.0153735
515.349	0.0153574
515.427	0.0154121
515.505	0.0153267
515.584	0.0153654
515.662	0.0153973
515.740	0.0154522
515.818	0.0152625
515.896	0.0154805
515.974	0.0154836
516.052	0.0153546
516.130	0.0153130
516.209	0.0154270
516.287	0.0153752
516.365	0.0152917
516.443	0.0154427
516.521	0.0153741
516.599	0.0154317
516.677	0.0153703
516.755	0.0154279
516.834	0.0152069
516.912	0.0153281
516.990	0.0155344
517.068	0.0153396
517.146	0.0154298
517.224	0.0154607
517.302	0.0153857
517.380	0.0153868
517.459	0.0154737
517.537	0.0155032
517.615	0.0153637
517.693	0.0153513
517.771	0.0155109
517.849	0.0152912
517.927	0.0153577
518.005	0.0152679
518.084	0.0152667
518.162	0.0153325
518.240	0.0152631
518.318	0.0153557
518.396	0.0153610
518.474	0.0153407
518.552	0.0153564
518.630	0.0153764
518.709	0.0154173
518.787	0.0153678
518.865	0.0153394
518.943	0.0154092
519.021	0.0154140
519.099	0.0154518
519.177	0.0153079
519.255	0.0154564
519.334	0.0153445
519.412	0.0152608
519.490	0.0154089
519.568	0.0152985
519.646	0.0153328
519.724	0.0153199
519.802	0.0153648
519.880	0.0153732
519.959	0.0153665
520.037	0.0153868
520.115	0.0152778
520.193	0.0154803
520.271	0.0154328
520.349	0.0153334
520.427	0.0153533
520.505	0.0153499
520.584	0.0154026
520.662	0.0153548
520.740	0.0154166
520.818	0.0153028
520.896	0.0153102
520.974	0.0154424
521.052	0.0153285
521.130	0.0153863
521.209	0.0153555
521.287	0.0154375
521.365	0.0155227
521.443	0.0152558
521.521	0.0153917
521.599	0.0153429
521.677	0.0152924
521.755	0.0154517
521.834	0.0153590
521.912	0.0153923
521.990	0.0154410
522.068	0.0152431
522.146	0.0154427
522.224	0.0153939
522.302	0.0155221
522.380	0.0153872
522.459	0.0152332
522.537	0.0154286
522.615	0.0155183
522.693	0.0154424
522.771	0.0154953
522.849	0.0154117
522.927	0.0155064
523.005	0.0154550
523.084	0.0154353
523.162	0.0153749
523.240	0.0155768
523.318	0.0154102
523.396	0.0153525
523.474	0.0154275
523.552	0.0154179
523.630	0.0155139
523.709	0.0154884
523.787	0.0153715
523.865	0.0153548
523.943	0.0154536
524.021	0.0154669
524.099	0.0153289
524.177	0.0153398
524.255	0.0154766
524.334	0.0154696
524.412	0.0154860
524.490	0.0154389
524.568	0.0153813
524.646	0.0154688
524.724	0.0155420
524.802	0.0153966
524.880	0.0154649
524.959	0.0153625
525.037	0.0153691
525.115	0.0153176
525.193	0.0154924
525.271	0.0153868
525.349	0.0153415
525.427	0.0153380
525.505	0.0154399
525.584	0.0153316
525.662	0.0153693
525.740	0.0152517
525.818	0.0153046
525.896	0.0153354
525.974	0.0154861
526.052	0.0153598
526.130	0.0153277
526.209	0.0154494
526.287	0.0154319
526.365	0.0153360
526.443	0.0153462
526.521	0.0155747
526.599	0.0155219
526.677	0.0153765
526.755	0.0153123
526.834	0.0154095
526.912	0.0154268
526.990	0.0154078
527.068	0.0153259
527.146	0.0153721
527.224	0.0153545
527.302	0.0153612
527.380	0.0153481
527.459	0.0153334
527.537	0.0154106
527.615	0.0152999
527.693	0.0153289
527.771	0.0153539
527.849	0.0154716
527.927	0.0153110
528.005	0.0153085
528.084	0.0154923
528.162	0.0154912
528.240	0.0153356
528.318	0.0153738
528.396	0.0153282
528.474	0.0152818
528.552	0.0154726
528.630	0.0153622
528.709	0.0153685
528.787	0.0153825
528.865	0.0155050
528.943	0.0154127
529.021	0.0153680
529.099	0.0154181
529.177	0.0154353
529.255	0.0154411
529.334	0.0153925
529.412	0.0154739
529.490	0.0155505
529.568	0.0154384
529.646	0.0153755
529.724	0.0154580
529.802	0.0153663
529.880	0.0153452
529.959	0.0153207
530.037	0.0153927
530.115	0.0154524
530.193	0.0153754
530.271	0.0154926
530.349	0.0154111
530.427	0.0155022
530.505	0.0153773
530.584	0.0152650
530.662	0.0153295
530.740	0.0154877
530.818	0.0153773
530.896	0.0153975
530.974	0.0156013
531.052	0.0154787
531.130	0.0154309
531.209	0.0153342
531.287	0.0153886
531.365	0.0154288
531.443	0.0154094
531.521	0.0154333
531.599	0.0152858
531.677	0.0153937
531.755	0.0154710
531.834	0.0153265
531.912	0.0154943
531.990	0.0155175
532.068	0.0154498
532.146	0.0154618
532.224	0.0155910
532.302	0.0154379
532.380	0.0153300
532.459	0.0153779
532.537	0.0153622
532.615	0.0154250
532.693	0.0154161
532.771	0.0154760
532.849	0.0154173
532.927	0.0155637
533.005	0.0154764
533.084	0.0153114
533.162	0.0153726
533.240	0.0153583
533.318	0.0153898
533.396	0.0154259
533.474	0.0153267
533.552	0.0153791
533.630	0.0152962
533.709	0.0154664
533.787	0.0154565
533.865	0.0153701
533.943	0.0154909
534.021	0.0153878
534.099	0.0152782
534.177	0.0152946
534.255	0.0154679
534.334	0.0153709
534.412	0.0154670
534.490	0.0153574
534.568	0.0151387
534.646	0.0152355
534.724	0.0153641
534.802	0.0154415
534.880	0.0155125
534.959	0.0152666
535.037	0.0154508
535.115	0.0155677
535.193	0.0154679
535.271	0.0154332
535.349	0.0153365
535.427	0.0155513
535.505	0.0153846
535.584	0.0153749
535.662	0.0152594
535.740	0.0153740
535.818	0.0153806
535.896	0.0153812
535.974	0.0153934
536.052	0.0152863
536.130	0.0153596
536.209	0.0152714
536.287	0.0154881
536.365	0.0153616
536.443	0.0152882
536.521	0.0154832
536.599	0.0154168
536.677	0.0153413
536.755	0.0153522
536.834	0.0155091
536.912	0.0155324
536.990	0.0153635
537.068	0.0154585
537.146	0.0154342
537.224	0.0153332
537.302	0.0153528
537.380	0.0153849
537.459	0.0153606
537.537	0.0153233
537.615	0.0153715
537.693	0.0153167
537.771	0.0152790
537.849	0.0153992
537.927	0.0154353
538.005	0.0153242
538.084	0.0154104
538.162	0.0152869
538.240	0.0152627
538.318	0.0152905
538.396	0.0154164
538.474	0.0152176
538.552	0.0152928
538.630	0.0152909
538.709	0.0152805
538.787	0.0154875
538.865	0.0152326
538.943	0.0152686
539.021	0.0154082
539.099	0.0154317
539.177	0.0153014
539.255	0.0152573
539.334	0.0155202
539.412	0.0153599
539.490	0.0154006
539.568	0.0154188
539.646	0.0154020
539.724	0.0152252
539.802	0.0151660
539.880	0.0152535
539.959	0.0154353
540.037	0.0153185
540.115	0.0153721
540.193	0.0153292
540.271	0.0152660
540.349	0.0153501
540.427	0.0153242
540.505	0.0153236
540.584	0.0153556
540.662	0.0152216
540.740	0.0153250
540.818	0.0153589
540.896	0.0154301
540.974	0.0153221
541.052	0.0154240
541.130	0.0152749
541.209	0.0153118
541.287	0.0154633
541.365	0.0154231
541.443	0.0154203
541.521	0.0151628
541.599	0.0154598
541.677	0.0154550
541.755	0.0153261
541.834	0.0154330
541.912	0.0154221
541.990	0.0153761
542.068	0.0154832
542.146	0.0155607
542.224	0.0153227
542.302	0.0155109
542.380	0.0155109
542.459	0.0155079
542.537	0.0154870
542.615	0.0154738
542.693	0.0154342
542.771	0.0154006
542.849	0.0155105
542.927	0.0155385
543.005	0.0153482
543.084	0.0153928
543.162	0.0154565
543.240	0.0154008
543.318	0.0157313
543.396	0.0154656
543.474	0.0153705
543.552	0.0154723
543.630	0.0154976
543.709	0.0155472
543.787	0.0154295
543.865	0.0154812
543.943	0.0153585
544.021	0.0155310
544.099	0.0154050
544.177	0.0154442
544.255	0.0155578
544.334	0.0152364
544.412	0.0153225
544.490	0.0152695
544.568	0.0153922
544.646	0.0153771
544.724	0.0154993
544.802	0.0154486
544.880	0.0154807
544.959	0.0153494
545.037	0.0153497
545.115	0.0154790
545.193	0.0153807
545.271	0.0153844
545.349	0.0153377
545.427	0.0154440
545.505	0.0154308
545.584	0.0154109
545.662	0.0153866
545.740	0.0153798
545.818	0.0154228
545.896	0.0153954
545.974	0.0154842
546.052	0.0155494
546.130	0.0154214
546.209	0.0153564
546.287	0.0153214
546.365	0.0154771
546.443	0.0154016
546.521	0.0155538
546.599	0.0153057
546.677	0.0151780
546.755	0.0153104
546.834	0.0155141
546.912	0.0154742
546.990	0.0154591
547.068	0.0153365
547.146	0.0152576
547.224	0.0154293
547.302	0.0152866
547.380	0.0152370
547.459	0.0154008
547.537	0.0154284
547.615	0.0153195
547.693	0.0154007
547.771	0.0152404
547.849	0.0152592
547.927	0.0154541
548.005	0.0153280
548.084	0.0153796
548.162	0.0152954
548.240	0.0153647
548.318	0.0154322
548.396	0.0154382
548.474	0.0153517
548.552	0.0153029
548.630	0.0154145
548.709	0.0154099
548.787	0.0153471
548.865	0.0153773
548.943	0.0152428
549.021	0.0153542
549.099	0.0154147
549.177	0.0155052
549.255	0.0154251
549.334	0.0153106
549.412	0.0155049
549.490	0.0155009
549.568	0.0154195
549.646	0.0154450
549.724	0.0153036
549.802	0.0153801
549.880	0.0154935
549.959	0.0153720
550.037	0.0155067
550.115	0.0155187
550.193	0.0153789
550.271	0.0155028
550.349	0.0155385
550.427	0.0154325
550.505	0.0155726
550.584	0.0154375
550.662	0.0155644
550.740	0.0154303
550.818	0.0153737
550.896	0.0154021
550.974	0.0153210
551.052	0.0155240
551.130	0.0153676
551.209	0.0155118
551.287	0.0155852
551.365	0.0153307
551.443	0.0154929
551.521	0.0154861
551.599	0.0153747
551.677	0.0153333
551.755	0.0152532
551.834	0.0154276
551.912	0.0154351
551.990	0.0154321
552.068	0.0153386
552.146	0.0153870
552.224	0.0152639
552.302	0.0153961
552.380	0.0154066
552.459	0.0154937
552.537	0.0153571
552.615	0.0153886
552.693	0.0153905
552.771	0.0154269
552.849	0.0154297
552.927	0.0155540
553.005	0.0153977
553.084	0.0155508
553.162	0.0155357
553.240	0.0153777
553.318	0.0154678
553.396	0.0155059
553.474	0.0154654
553.552	0.0155087
553.630	0.0155106
553.709	0.0153677
553.787	0.0153200
553.865	0.0154675
553.943	0.0154513
554.021	0.0153505
554.099	0.0155910
554.177	0.0154095
554.255	0.0153247
554.334	0.0154114
554.412	0.0153511
554.490	0.0153914
554.568	0.0155585
554.646	0.0153755
554.724	0.0153900
554.802	0.0153753
554.880	0.0155072
554.959	0.0155433
555.037	0.0153835
555.115	0.0152615
555.193	0.0155096
555.271	0.0155247
555.349	0.0153745
555.427	0.0155276
555.505	0.0154848
555.584	0.0155100
555.662	0.0155076
555.740	0.0153992
555.818	0.0155349
555.896	0.0155470
555.974	0.0154318
556.052	0.0155233
556.130	0.0153864
556.209	0.0154653
556.287	0.0154450
556.365	0.0153559
556.443	0.0154530
556.521	0.0154622
556.599	0.0153509
556.677	0.0155342
556.755	0.0154845
556.834	0.0154732
556.912	0.0154771
556.990	0.0153771
557.068	0.0153998
557.146	0.0153620
557.224	0.0154787
557.302	0.0154980
557.380	0.0154129
557.459	0.0154150
557.537	0.0154836
557.615	0.0154298
557.693	0.0155222
557.771	0.0154354
557.849	0.0155266
557.927	0.0154823
558.005	0.0153703
558.084	0.0153481
558.162	0.0155833
558.240	0.0155336
558.318	0.0153693
558.396	0.0154412
558.474	0.0153415
558.552	0.0152831
558.630	0.0154012
558.709	0.0153852
558.787	0.0154070
558.865	0.0154616
558.943	0.0154601
559.021	0.0153857
559.099	0.0153178
559.177	0.0155129
559.255	0.0153486
559.334	0.0152753
559.412	0.0153946
559.490	0.0153821
559.568	0.0154936
559.646	0.0153126
559.724	0.0153421
559.802	0.0153768
559.880	0.0154264
559.959	0.0153907
560.037	0.0154724
560.115	0.0152700
560.193	0.0153812
560.271	0.0153798
560.349	0.0154221
560.427	0.0153608
560.505	0.0153233
560.584	0.0153819
560.662	0.0154218
560.740	0.0152699
560.818	0.0153790
560.896	0.0153357
560.974	0.0154401
561.052	0.0153341
561.130	0.0154514
561.209	0.0153671
561.287	0.0153644
561.365	0.0152666
561.443	0.0152178
561.521	0.0152819
561.599	0.0153790
561.677	0.0153937
561.755	0.0152724
561.834	0.0153400
561.912	0.0154041
561.990	0.0153297
562.068	0.0153410
562.146	0.0153237
562.224	0.0152850
562.302	0.0154179
562.380	0.0153265
562.459	0.0154173
562.537	0.0154123
562.615	0.0154116
562.693	0.0153327
562.771	0.0153515
562.849	0.0154783
562.927	0.0154551
563.005	0.0154560
563.084	0.0152723
563.162	0.0154129
563.240	0.0153970
563.318	0.0153984
563.396	0.0155259
563.474	0.0154147
563.552	0.0153567
563.630	0.0154295
563.709	0.0153280
563.787	0.0154826
563.865	0.0155395
563.943	0.0156320
564.021	0.0152823
564.099	0.0154523
564.177	0.0154724
564.255	0.0154071
564.334	0.0154845
564.412	0.0153729
564.490	0.0153842
564.568	0.0153571
564.646	0.0153606
564.724	0.0154725
564.802	0.0153214
564.880	0.0154137
564.959	0.0154756
565.037	0.0152846
565.115	0.0154671
565.193	0.0154932
565.271	0.0154113
565.349	0.0153335
565.427	0.0153469
565.505	0.0154526
565.584	0.0154733
565.662	0.0153941
565.740	0.0154357
565.818	0.0152061
565.896	0.0154264
565.974	0.0152920
566.052	0.0152917
566.130	0.0154134
566.209	0.0154232
566.287	0.0152703
566.365	0.0152930
566.443	0.0153622
566.521	0.0154042
566.599	0.0153953
566.677	0.0153072
566.755	0.0152655
566.834	0.0153419
566.912	0.0154346
566.990	0.0153108
567.068	0.0154458
567.146	0.0153659
567.224	0.0153670
567.302	0.0152670
567.380	0.0153355
567.459	0.0154667
567.537	0.0153815
567.615	0.0152715
567.693	0.0155399
567.771	0.0153812
567.849	0.0152985
567.927	0.0152761
568.005	0.0154180
568.084	0.0154584
568.162	0.0154322
568.240	0.0154371
568.318	0.0155962
568.396	0.0154492
568.474	0.0155051
568.552	0.0153905
568.630	0.0155488
568.709	0.0153768
568.787	0.0155933
568.865	0.0154665
568.943	0.0154031
569.021	0.0155185
569.099	0.0152683
569.177	0.0154930
569.255	0.0153920
569.334	0.0153820
569.412	0.0154906
569.490	0.0155080
569.568	0.0153707
569.646	0.0153585
569.724	0.0153944
569.802	0.0154405
569.880	0.0154090
569.959	0.0154327
570.037	0.0153924
570.115	0.0154866
570.193	0.0153758
570.271	0.0154061
570.349	0.0153301
570.427	0.0154418
570.505	0.0155099
570.584	0.0152510
570.662	0.0153313
570.740	0.0153570
570.818	0.0153888
570.896	0.0153429
570.974	0.0152836
571.052	0.0153647
571.130	0.0153514
571.209	0.0155076
571.287	0.0154960
571.365	0.0153775
571.443	0.0153654
571.521	0.0153027
571.599	0.0155568
571.677	0.0153844
571.755	0.0153764
571.834	0.0154331
571.912	0.0154636
571.990	0.0154166
572.068	0.0153416
572.146	0.0153769
572.224	0.0154845
572.302	0.0155703
572.380	0.0154858
572.459	0.0154037
572.537	0.0153378
572.615	0.0155440
572.693	0.0154302
572.771	0.0154171
572.849	0.0154697
572.927	0.0153088
573.005	0.0154860
573.084	0.0153151
573.162	0.0154388
573.240	0.0154915
573.318	0.0154318
573.396	0.0154845
573.474	0.0155325
573.552	0.0154617
573.630	0.0155558
573.709	0.0153396
573.787	0.0153544
573.865	0.0154214
573.943	0.0154240
574.021	0.0154569
574.099	0.0154214
574.177	0.0153502
574.255	0.0153378
574.334	0.0154788
574.412	0.0154713
574.490	0.0153579
574.568	0.0154834
574.646	0.0154370
574.724	0.0154086
574.802	0.0154800
574.880	0.0155101
574.959	0.0154689
575.037	0.0154089
575.115	0.0155055
575.193	0.0153976
575.271	0.0155497
575.349	0.0154970
575.427	0.0154516
575.505	0.0153735
575.584	0.0155479
575.662	0.0155985
575.740	0.0155047
575.818	0.0152921
575.896	0.0154343
575.974	0.0155072
576.052	0.0152924
576.130	0.0153072
576.209	0.0154223
576.287	0.0154786
576.365	0.0153531
576.443	0.0154175
576.521	0.0154255
576.599	0.0153681
576.677	0.0154628
576.755	0.0153296
576.834	0.0154083
576.912	0.0153729
576.990	0.0154934
577.068	0.0155347
577.146	0.0155032
577.224	0.0153571
577.302	0.0153476
577.380	0.0153362
577.459	0.0154826
577.537	0.0154476
577.615	0.0154787
577.693	0.0152888
577.771	0.0153917
577.849	0.0154722
577.927	0.0153790
578.005	0.0154523
578.084	0.0153114
578.162	0.0154353
578.240	0.0153683
578.318	0.0154030
578.396	0.0154491
578.474	0.0154291
578.552	0.0156155
578.630	0.0153915
578.709	0.0154495
578.787	0.0154228
578.865	0.0153878
578.943	0.0152827
579.021	0.0153331
579.099	0.0155105
579.177	0.0152387
579.255	0.0152847
579.334	0.0154735
579.412	0.0155016
579.490	0.0154350
579.568	0.0154165
579.646	0.0155318
579.724	0.0154352
579.802	0.0153956
579.880	0.0155936
579.959	0.0154387
580.037	0.0154786
580.115	0.0155735
580.193	0.0154220
580.271	0.0155161
580.349	0.0154463
580.427	0.0153331
580.505	0.0154061
580.584	0.0155241
580.662	0.0155727
580.740	0.0155086
580.818	0.0155327
580.896	0.0152662
580.974	0.0154192
581.052	0.0154588
581.130	0.0153478
581.209	0.0152729
581.287	0.0154353
581.365	0.0154016
581.443	0.0153717
581.521	0.0153763
581.599	0.0153625
581.677	0.0154149
581.755	0.0153610
581.834	0.0154982
581.912	0.0153894
581.990	0.0154240
582.068	0.0153578
582.146	0.0152456
582.224	0.0154138
582.302	0.0154748
582.380	0.0153311
582.459	0.0154787
582.537	0.0152960
582.615	0.0151141
582.693	0.0154050
582.771	0.0154945
582.849	0.0154305
582.927	0.0153138
583.005	0.0152162
583.084	0.0152948
583.162	0.0154089
583.240	0.0152756
583.318	0.0154379
583.396	0.0152686
583.474	0.0153983
583.552	0.0154868
583.630	0.0152229
583.709	0.0155305
583.787	0.0154411
583.865	0.0154137
583.943	0.0153070
584.021	0.0153362
584.099	0.0154462
584.177	0.0153736
584.255	0.0153870
584.334	0.0154182
584.412	0.0154425
584.490	0.0154461
584.568	0.0153785
584.646	0.0154729
584.724	0.0155363
584.802	0.0154675
584.880	0.0154617
584.959	0.0154823
585.037	0.0154684
585.115	0.0153400
585.193	0.0153262
585.271	0.0153991
585.349	0.0154172
585.427	0.0153849
585.505	0.0153555
585.584	0.0154606
585.662	0.0154863
585.740	0.0154491
585.818	0.0155140
585.896	0.0155263
585.974	0.0155618
586.052	0.0153403
586.130	0.0153884
586.209	0.0153153
586.287	0.0153989
586.365	0.0155274
586.443	0.0155827
586.521	0.0153934
586.599	0.0154258
586.677	0.0154746
586.755	0.0154620
586.834	0.0153241
586.912	0.0153825
586.990	0.0154250
587.068	0.0154327
587.146	0.0155371
587.224	0.0155015
587.302	0.0154633
587.380	0.0154563
587.459	0.0154485
587.537	0.0154692
587.615	0.0153799
587.693	0.0153089
587.771	0.0153876
587.849	0.0156251
587.927	0.0154116
588.005	0.0155445
588.084	0.0155213
588.162	0.0154655
588.240	0.0154019
588.318	0.0153290
588.396	0.0154932
588.474	0.0155668
588.552	0.0154840
588.630	0.0153722
588.709	0.0154038
588.787	0.0155731
588.865	0.0155442
588.943	0.0154557
589.021	0.0154737
589.099	0.0155782
589.177	0.0153880
589.255	0.0155068
589.334	0.0154723
589.412	0.0154111
589.490	0.0155934
589.568	0.0154188
589.646	0.0155282
589.724	0.0154264
589.802	0.0154703
589.880	0.0155730
589.959	0.0154862
590.037	0.0154285
590.115	0.0153363
590.193	0.0154348
590.271	0.0153593
590.349	0.0154123
590.427	0.0153947
590.505	0.0154398
590.584	0.0154542
590.662	0.0153284
590.740	0.0153471
590.818	0.0153872
590.896	0.0154881
590.974	0.0153873
591.052	0.0153620
591.130	0.0154378
591.209	0.0154725
591.287	0.0153408
591.365	0.0154383
591.443	0.0153854
591.521	0.0153795
591.599	0.0153233
591.677	0.0154588
591.755	0.0153931
591.834	0.0153963
591.912	0.0153472
591.990	0.0153765
592.068	0.0154892
592.146	0.0153301
592.224	0.0152702
592.302	0.0154482
592.380	0.0152823
592.459	0.0154687
592.537	0.0153940
592.615	0.0152477
592.693	0.0153059
592.771	0.0153794
592.849	0.0153467
592.927	0.0152956
593.005	0.0154182
593.084	0.0154148
593.162	0.0154295
593.240	0.0153532
593.318	0.0154539
593.396	0.0154039
593.474	0.0153750
593.552	0.0154045
593.630	0.0154111
593.709	0.0154776
593.787	0.0153784
593.865	0.0152981
593.943	0.0154211
594.021	0.0152977
594.099	0.0154372
594.177	0.0154485
594.255	0.0153738
594.334	0.0154503
594.412	0.0152754
594.490	0.0153152
594.568	0.0154768
594.646	0.0155056
594.724	0.0155412
594.802	0.0154442
594.880	0.0153736
594.959	0.0154314
595.037	0.0153693
595.115	0.0154102
595.193	0.0154374
595.271	0.0154746
595.349	0.0153017
595.427	0.0154082
595.505	0.0155280
595.584	0.0154768
595.662	0.0153796
595.740	0.0154590
595.818	0.0153251
595.896	0.0152777
595.974	0.0153601
596.052	0.0154422
596.130	0.0153874
596.209	0.0153642
596.287	0.0154155
596.365	0.0154395
596.443	0.0154797
596.521	0.0155663
596.599	0.0154245
596.677	0.0154642
596.755	0.0155093
596.834	0.0153814
596.912	0.0154759
596.990	0.0153152
597.068	0.0152589
597.146	0.0154426
597.224	0.0154991
597.302	0.0155486
597.380	0.0154643
597.459	0.0154742
597.537	0.0154947
597.615	0.0154739
597.693	0.0153817
597.771	0.0154037
597.849	0.0153468
597.927	0.0154359
598.005	0.0153873
598.084	0.0153014
598.162	0.0153568
598.240	0.0153434
598.318	0.0154112
598.396	0.0155390
598.474	0.0153326
598.552	0.0154581
598.630	0.0153543
598.709	0.0154159
598.787	0.0153671
598.865	0.0154977
598.943	0.0154262
599.021	0.0153275
599.099	0.0155179
599.177	0.0154864
599.255	0.0154399
599.334	0.0154077
599.412	0.0154325
599.490	0.0154755
599.568	0.0153485
599.646	0.0153747
599.724	0.0154469
599.802	0.0154755
599.880	0.0155496
599.959	0.0155625
600.037	0.0154649
600.115	0.0153394
600.193	0.0154089
600.271	0.0153799
600.349	0.0155775
600.427	0.0154314
600.505	0.0153712
600.584	0.0153978
600.662	0.0155843
600.740	0.0155656
600.818	0.0154370
600.896	0.0153168
600.974	0.0156139
601.052	0.0153584
601.130	0.0152915
601.209	0.0154247
601.287	0.0153637
601.365	0.0154243
601.443	0.0154338
601.521	0.0155289
601.599	0.0153689
601.677	0.0155184
601.755	0.0155310
601.834	0.0153726
601.912	0.0154470
601.990	0.0154269
602.068	0.0154140
602.146	0.0154257
602.224	0.0154514
602.302	0.0154252
602.380	0.0153329
602.459	0.0154412
602.537	0.0152880
602.615	0.0153805
602.693	0.0152877
602.771	0.0153696
602.849	0.0154404
602.927	0.0153946
603.005	0.0154574
603.084	0.0154736
603.162	0.0154343
603.240	0.0153022
603.318	0.0153580
603.396	0.0154156
603.474	0.0152174
603.552	0.0154868
603.630	0.0153967
603.709	0.0153473
603.787	0.0154395
603.865	0.0153499
603.943	0.0153810
604.021	0.0153991
604.099	0.0153978
604.177	0.0153728
604.255	0.0153703
604.334	0.0152586
604.412	0.0152745
604.490	0.0153259
604.568	0.0153600
604.646	0.0153586
604.724	0.0153157
604.802	0.0152120
604.880	0.0153270
604.959	0.0153732
605.037	0.0153862
605.115	0.0153484
605.193	0.0152605
605.271	0.0154490
605.349	0.0155756
605.427	0.0154165
605.505	0.0152941
605.584	0.0153716
605.662	0.0154635
605.740	0.0154561
605.818	0.0154028
605.896	0.0155553
605.974	0.0153262
606.052	0.0152995
606.130	0.0153594
606.209	0.0153420
606.287	0.0153701
606.365	0.0155192
606.443	0.0154877
606.521	0.0152387
606.599	0.0153580
606.677	0.0154087
606.755	0.0152937
606.834	0.0153136
606.912	0.0152674
606.990	0.0153706
607.068	0.0153613
607.146	0.0153286
607.224	0.0153979
607.302	0.0154434
607.380	0.0153928
607.459	0.0152553
607.537	0.0153735
607.615	0.0152798
607.693	0.0153105
607.771	0.0152965
607.849	0.0153126
607.927	0.0152692
608.005	0.0152199
608.084	0.0153103
608.162	0.0152865
608.240	0.0153978
608.318	0.0151652
608.396	0.0152083
608.474	0.0151888
608.552	0.0151931
608.630	0.0150880
608.709	0.0151841
608.787	0.0153629
608.865	0.0153888
608.943	0.0153906
609.021	0.0154207
609.099	0.0154715
609.177	0.0154004
609.255	0.0156130
609.334	0.0157574
609.412	0.0159296
609.490	0.0158932
609.568	0.0161703
609.646	0.0161859
609.724	0.0163174
609.802	0.0162098
609.880	0.0164210
609.959	0.0164367
610.037	0.0163879
610.115	0.0163690
610.193	0.0161662
610.271	0.0163746
610.349	0.0161842
610.427	0.0160662
610.505	0.0161539
610.584	0.0160862
610.662	0.0158400
610.740	0.0158176
610.818	0.0155980
610.896	0.0156626
610.974	0.0156361
611.052	0.0153232
611.130	0.0152882
611.209	0.0153311
611.287	0.0150362
611.365	0.0150626
611.443	0.0150269
611.521	0.0150197
611.599	0.0148685
611.677	0.0148590
611.755	0.0148646
611.834	0.0147643
611.912	0.0148939
611.990	0.0149727
612.068	0.0148466
612.146	0.0150565
612.224	0.0150489
612.302	0.0150659
612.380	0.0150377
612.459	0.0151234
612.537	0.0152200
612.615	0.0151727
612.693	0.0152339
612.771	0.0152071
612.849	0.0151913
612.927	0.0152004
613.005	0.0153400
613.084	0.0152579
613.162	0.0153342
613.240	0.0151904
613.318	0.0152242
613.396	0.0152386
613.474	0.0152958
613.552	0.0151942
613.630	0.0152128
613.709	0.0150951
613.787	0.0151787
613.865	0.0152728
613.943	0.0152000
614.021	0.0150941
614.099	0.0151315
614.177	0.0153133
614.255	0.0152478
614.334	0.0152592
614.412	0.0152627
614.490	0.0153486
614.568	0.0153906
614.646	0.0154536
614.724	0.0153100
614.802	0.0154102
614.880	0.0153710
614.959	0.0154382
615.037	0.0154494
615.115	0.0153640
615.193	0.0153585
615.271	0.0154500
615.349	0.0154560
615.427	0.0153863
615.505	0.0153064
615.584	0.0154678
615.662	0.0153588
615.740	0.0153654
615.818	0.0153053
615.896	0.0154084
615.974	0.0153887
616.052	0.0154043
616.130	0.0154122
616.209	0.0153691
616.287	0.0153902
616.365	0.0154588
616.443	0.0153249
616.521	0.0154591
616.599	0.0155128
616.677	0.0154184
616.755	0.0153719
616.834	0.0154234
616.912	0.0153637
616.990	0.0154799
617.068	0.0154948
617.146	0.0154778
617.224	0.0154902
617.302	0.0155183
617.380	0.0154950
617.459	0.0154116
617.537	0.0155061
617.615	0.0154406
617.693	0.0154828
617.771	0.0155097
617.849	0.0154034
617.927	0.0154397
618.005	0.0154735
618.084	0.0155358
618.162	0.0153898
618.240	0.0153911
618.318	0.0154649
618.396	0.0154714
618.474	0.0154625
618.552	0.0154620
618.630	0.0156071
618.709	0.0155367
618.787	0.0154809
618.865	0.0154291
618.943	0.0154698
619.021	0.0154317
619.099	0.0154272
619.177	0.0154348
619.255	0.0154771
619.334	0.0154103
619.412	0.0155557
619.490	0.0154369
619.568	0.0154073
619.646	0.0155425
619.724	0.0155950
619.802	0.0154313
619.880	0.0154340
619.959	0.0155756
620.037	0.0154297
620.115	0.0155720
620.193	0.0154173
620.271	0.0155027
620.349	0.0155888
620.427	0.0154671
620.505	0.0155939
620.584	0.0154746
620.662	0.0154566
620.740	0.0153252
620.818	0.0153516
620.896	0.0154167
620.974	0.0153934
621.052	0.0155745
621.130	0.0154268
621.209	0.0153904
621.287	0.0153695
621.365	0.0154684
621.443	0.0155033
621.521	0.0152742
621.599	0.0153474
621.677	0.0153498
621.755	0.0152999
621.834	0.0153568
621.912	0.0154080
621.990	0.0155379
622.068	0.0152996
622.146	0.0152003
622.224	0.0152985
622.302	0.0152946
622.380	0.0154048
622.459	0.0153963
622.537	0.0155106
622.615	0.0154327
622.693	0.0153920
622.771	0.0153001
622.849	0.0153735
622.927	0.0153257
623.005	0.0153536
623.084	0.0154254
623.162	0.0154798
623.240	0.0154779
623.318	0.0154333
623.396	0.0154574
623.474	0.0154680
623.552	0.0153844
623.630	0.0154438
623.709	0.0154713
623.787	0.0155571
623.865	0.0154254
623.943	0.0155434
624.021	0.0154045
624.099	0.0154170
624.177	0.0154758
624.255	0.0154208
624.334	0.0153719
624.412	0.0155284
624.490	0.0154463
624.568	0.0154530
624.646	0.0154774
624.724	0.0154857
624.802	0.0152747
624.880	0.0155801
624.959	0.0156196
625.037	0.0154553
625.115	0.0153777
625.193	0.0155376
625.271	0.0154967
625.349	0.0155909
625.427	0.0155273
625.505	0.0152634
625.584	0.0154221
625.662	0.0154446
625.740	0.0153625
625.818	0.0152988
625.896	0.0154707
625.974	0.0153819
626.052	0.0153843
626.130	0.0153358
626.209	0.0153806
626.287	0.0153751
626.365	0.0154670
626.443	0.0154437
626.521	0.0154412
626.599	0.0155125
626.677	0.0154501
626.755	0.0153197
626.834	0.0153545
626.912	0.0154454
626.990	0.0153426
627.068	0.0154774
627.146	0.0154619
627.224	0.0154221
627.302	0.0155112
627.380	0.0154272
627.459	0.0152937
627.537	0.0153716
627.615	0.0154285
627.693	0.0154459
627.771	0.0154772
627.849	0.0153927
627.927	0.0153203
628.005	0.0153739
628.084	0.0154173
628.162	0.0155255
628.240	0.0154058
628.318	0.0153196
628.396	0.0154769
628.474	0.0154609
628.552	0.0153256
628.630	0.0154294
628.709	0.0153388
628.787	0.0153358
628.865	0.0155014
628.943	0.0153334
629.021	0.0152969
629.099	0.0154350
629.177	0.0153773
629.255	0.0154453
629.334	0.0154264
629.412	0.0154121
629.490	0.0154572
629.568	0.0153505
629.646	0.0153136
629.724	0.0153037
629.802	0.0153533
629.880	0.0154430
629.959	0.0153687
630.037	0.0153422
630.115	0.0153939
630.193	0.0154562
630.271	0.0152371
630.349	0.0155054
630.427	0.0154250
630.505	0.0154419
630.584	0.0155759
630.662	0.0153699
630.740	0.0154763
630.818	0.0154591
630.896	0.0153776
630.974	0.0154305
631.052	0.0154848
631.130	0.0154498
631.209	0.0154578
631.287	0.0155137
631.365	0.0154190
631.443	0.0154182
631.521	0.0154615
631.599	0.0153222
631.677	0.0153585
631.755	0.0152829
631.834	0.0154285
631.912	0.0155062
631.990	0.0155535
632.068	0.0154524
632.146	0.0154453
632.224	0.0153335
632.302	0.0154352
632.380	0.0155782
632.459	0.0154105
632.537	0.0153548
632.615	0.0153125
632.693	0.0153210
632.771	0.0152615
632.849	0.0153932
632.927	0.0153796
633.005	0.0154237
633.084	0.0155051
633.162	0.0153687
633.240	0.0154086
633.318	0.0154019
633.396	0.0153296
633.474	0.0154300
633.552	0.0155489
633.630	0.0154740
633.709	0.0153680
633.787	0.0154199
633.865	0.0153581
633.943	0.0152579
634.021	0.0154726
634.099	0.0154307
634.177	0.0153542
634.255	0.0154010
634.334	0.0154467
634.412	0.0153358
634.490	0.0153897
634.568	0.0153874
634.646	0.0153012
634.724	0.0153514
634.802	0.0154481
634.880	0.0154193
634.959	0.0153812
635.037	0.0153493
635.115	0.0153947
635.193	0.0154045
635.271	0.0152672
635.349	0.0153569
635.427	0.0153673
635.505	0.0152700
635.584	0.0153431
635.662	0.0153819
635.740	0.0154801
635.818	0.0153074
635.896	0.0152201
635.974	0.0152456
636.052	0.0154031
636.130	0.0154545
636.209	0.0152790
636.287	0.0153422
636.365	0.0153416
636.443	0.0153268
636.521	0.0153502
636.599	0.0153840
636.677	0.0155263
636.755	0.0153964
636.834	0.0154106
636.912	0.0153281
636.990	0.0154037
637.068	0.0153157
637.146	0.0153719
637.224	0.0153818
637.302	0.0152945
637.380	0.0154875
637.459	0.0155104
637.537	0.0153479
637.615	0.0153114
637.693	0.0153587
637.771	0.0153890
637.849	0.0154639
637.927	0.0154785
638.005	0.0152219
638.084	0.0152457
638.162	0.0154181
638.240	0.0153398
638.318	0.0154244
638.396	0.0154113
638.474	0.0155364
638.552	0.0154771
638.630	0.0154795
638.709	0.0154241
638.787	0.0156031
638.865	0.0153821
638.943	0.0153600
639.021	0.0154543
639.099	0.0153893
639.177	0.0153606
639.255	0.0154305
639.334	0.0154132
639.412	0.0152841
639.490	0.0155499
639.568	0.0154671
639.646	0.0155672
639.724	0.0156590
639.802	0.0153658
639.880	0.0154089
639.959	0.0155910
640.037	0.0155374
640.115	0.0154419
640.193	0.0154607
640.271	0.0154462
640.349	0.0154497
640.427	0.0155663
640.505	0.0155035
640.584	0.0154187
640.662	0.0153811
640.740	0.0152808
640.818	0.0154295
640.896	0.0155231
640.974	0.0155211
641.052	0.0157123
641.130	0.0154121
641.209	0.0153659
641.287	0.0154384
641.365	0.0153802
641.443	0.0154131
641.521	0.0153650
641.599	0.0154008
641.677	0.0153371
641.755	0.0154324
641.834	0.0155357
641.912	0.0154312
641.990	0.0153967
642.068	0.0154819
642.146	0.0153403
642.224	0.0153508
642.302	0.0153076
642.380	0.0153867
642.459	0.0153211
642.537	0.0154466
642.615	0.0154409
642.693	0.0153762
642.771	0.0153662
642.849	0.0153541
642.927	0.0154473
643.005	0.0154295
643.084	0.0152982
643.162	0.0153410
643.240	0.0153559
643.318	0.0152130
643.396	0.0152695
643.474	0.0152715
643.552	0.0153070
643.630	0.0152003
643.709	0.0153401
643.787	0.0153191
643.865	0.0152226
643.943	0.0153072
644.021	0.0154502
644.099	0.0154037
644.177	0.0153008
644.255	0.0154089
644.334	0.0153172
644.412	0.0153008
644.490	0.0152543
644.568	0.0153262
644.646	0.0154786
644.724	0.0152702
644.802	0.0153665
644.880	0.0153264
644.959	0.0154064
645.037	0.0153956
645.115	0.0153934
645.193	0.0153204
645.271	0.0154408
645.349	0.0153822
645.427	0.0154175
645.505	0.0154742
645.584	0.0153754
645.662	0.0153491
645.740	0.0154366
645.818	0.0155244
645.896	0.0154231
645.974	0.0152827
646.052	0.0154180
646.130	0.0154278
646.209	0.0154012
646.287	0.0153207
646.365	0.0154270
646.443	0.0154958
646.521	0.0152995
646.599	0.0154951
646.677	0.0155448
646.755	0.0153400
646.834	0.0153728
646.912	0.0153590
646.990	0.0154602
647.068	0.0154468
647.146	0.0155626
647.224	0.0154323
647.302	0.0155016
647.380	0.0155228
647.459	0.0154873
647.537	0.0154154
647.615	0.0154284
647.693	0.0154446
647.771	0.0153300
647.849	0.0153749
647.927	0.0153434
648.005	0.0155760
648.084	0.0155135
648.162	0.0154167
648.240	0.0154739
648.318	0.0154736
648.396	0.0154910
648.474	0.0154189
648.552	0.0155035
648.630	0.0154068
648.709	0.0154224
648.787	0.0154642
648.865	0.0153420
648.943	0.0155540
649.021	0.0154890
649.099	0.0154090
649.177	0.0154380
649.255	0.0153096
649.334	0.0155312
649.412	0.0154578
649.490	0.0154237
649.568	0.0153381
649.646	0.0152467
649.724	0.0154401
649.802	0.0155363
649.880	0.0154494
649.959	0.0154461
650.037	0.0154424
650.115	0.0153600
650.193	0.0154276
650.271	0.0154720
650.349	0.0153983
650.427	0.0154962
650.505	0.0153381
650.584	0.0152531
650.662	0.0154111
650.740	0.0154563
650.818	0.0154024
650.896	0.0153646
650.974	0.0153589
651.052	0.0154043
651.130	0.0153249
651.209	0.0153638
651.287	0.0153693
651.365	0.0153208
651.443	0.0153574
651.521	0.0153043
651.599	0.0153133
651.677	0.0154976
651.755	0.0154875
651.834	0.0154661
651.912	0.0153282
651.990	0.0153582
652.068	0.0153333
652.146	0.0153304
652.224	0.0153730
652.302	0.0153555
652.380	0.0155125
652.459	0.0152834
652.537	0.0152863
652.615	0.0153290
652.693	0.0152650
652.771	0.0152679
652.849	0.0152953
652.927	0.0153380
653.005	0.0154300
653.084	0.0153709
653.162	0.0153142
653.240	0.0154945
653.318	0.0154371
653.396	0.0154121
653.474	0.0154509
653.552	0.0152946
653.630	0.0153970
653.709	0.0155001
653.787	0.0154245
653.865	0.0153936
653.943	0.0154507
654.021	0.0154864
654.099	0.0154739
654.177	0.0154820
654.255	0.0154641
654.334	0.0153960
654.412	0.0154070
654.490	0.0153181
654.568	0.0153917
654.646	0.0154312
654.724	0.0154061
654.802	0.0154466
654.880	0.0154211
654.959	0.0154452
655.037	0.0153328
655.115	0.0152663
655.193	0.0154298
655.271	0.0153651
655.349	0.0154642
655.427	0.0154712
655.505	0.0154037
655.584	0.0155431
655.662	0.0152760
655.740	0.0153999
655.818	0.0154023
655.896	0.0154855
655.974	0.0155759
656.052	0.0153674
656.130	0.0153645
656.209	0.0154238
656.287	0.0153600
656.365	0.0153469
656.443	0.0154944
656.521	0.0154608
656.599	0.0153935
656.677	0.0152141
656.755	0.0154325
656.834	0.0154268
656.912	0.0153437
656.990	0.0154920
657.068	0.0154996
657.146	0.0153553
657.224	0.0153094
657.302	0.0154195
657.380	0.0154982
657.459	0.0154321
657.537	0.0155350
657.615	0.0154443
657.693	0.0153120
657.771	0.0153719
657.849	0.0153619
657.927	0.0154707
658.005	0.0155686
658.084	0.0154157
658.162	0.0154110
658.240	0.0154835
658.318	0.0154365
658.396	0.0153514
658.474	0.0153641
658.552	0.0154917
658.630	0.0153764
658.709	0.0155038
658.787	0.0156919
658.865	0.0155423
658.943	0.0155371
659.021	0.0154900
659.099	0.0154472
659.177	0.0156156
659.255	0.0156711
659.334	0.0155956
659.412	0.0154797
659.490	0.0154485
659.568	0.0155495
659.646	0.0155668
659.724	0.0156474
659.802	0.0156992
659.880	0.0156684
659.959	0.0155333
660.037	0.0155411
660.115	0.0155776
660.193	0.0156966
660.271	0.0156220
660.349	0.0155344
660.427	0.0155528
660.505	0.0155949
660.584	0.0154814
660.662	0.0154401
660.740	0.0154806
660.818	0.0155157
660.896	0.0156123
660.974	0.0155572
661.052	0.0154828
661.130	0.0154742
661.209	0.0152068
661.287	0.0155158
661.365	0.0155046
661.443	0.0154784
661.521	0.0154119
661.599	0.0153360
661.677	0.0154440
661.755	0.0155038
661.834	0.0154563
661.912	0.0153984
661.990	0.0153987
662.068	0.0152399
662.146	0.0151881
662.224	0.0154556
662.302	0.0153142
662.380	0.0152934
662.459	0.0152441
662.537	0.0152917
662.615	0.0152228
662.693	0.0153405
662.771	0.0152712
662.849	0.0153847
662.927	0.0153236
663.005	0.0151762
663.084	0.0152567
663.162	0.0153786
663.240	0.0151920
663.318	0.0151107
663.396	0.0154039
663.474	0.0152565
663.552	0.0152181
663.630	0.0152837
663.709	0.0153648
663.787	0.0152866
663.865	0.0152837
663.943	0.0153831
664.021	0.0153343
664.099	0.0151183
664.177	0.0152644
664.255	0.0152907
664.334	0.0152305
664.412	0.0151804
664.490	0.0153030
664.568	0.0153687
664.646	0.0152167
664.724	0.0151530
664.802	0.0151243
664.880	0.0151961
664.959	0.0152597
665.037	0.0152411
665.115	0.0154085
665.193	0.0151937
665.271	0.0151270
665.349	0.0151241
665.427	0.0153161
665.505	0.0153831
665.584	0.0152385
665.662	0.0153834
665.740	0.0152349
665.818	0.0151176
665.896	0.0152399
665.974	0.0152687
666.052	0.0153365
666.130	0.0153240
666.209	0.0153065
666.287	0.0151984
666.365	0.0152425
666.443	0.0153458
666.521	0.0152643
666.599	0.0153034
666.677	0.0153786
666.755	0.0154285
666.834	0.0152708
666.912	0.0153671
666.990	0.0154115
667.068	0.0153014
667.146	0.0151827
667.224	0.0153225
667.302	0.0154692
667.380	0.0153928
667.459	0.0151621
667.537	0.0154210
667.615	0.0154316
667.693	0.0151811
667.771	0.0153628
667.849	0.0154021
667.927	0.0153349
668.005	0.0153068
668.084	0.0153919
668.162	0.0154275
668.240	0.0153485
668.318	0.0153725
668.396	0.0152722
668.474	0.0155418
668.552	0.0154962
668.630	0.0154884
668.709	0.0154282
668.787	0.0154292
668.865	0.0154384
668.943	0.0154993
669.021	0.0157029
669.099	0.0155933
669.177	0.0155287
669.255	0.0156143
669.334	0.0154280
669.412	0.0155093
669.490	0.0156964
669.568	0.0156285
669.646	0.0156919
669.724	0.0157455
669.802	0.0156548
669.880	0.0156370
669.959	0.0156776
670.037	0.0158052
670.115	0.0156725
670.193	0.0155687
670.271	0.0156745
670.349	0.0157424
670.427	0.0156097
670.505	0.0156136
670.584	0.0157804
670.662	0.0156010
670.740	0.0158247
670.818	0.0157912
670.896	0.0156382
670.974	0.0156393
671.052	0.0156979
671.130	0.0156190
671.209	0.0156503
671.287	0.0157523
671.365	0.0156779
671.443	0.0157359
671.521	0.0156444
671.599	0.0156377
671.677	0.0157512
671.755	0.0156416
671.834	0.0157623
671.912	0.0156957
671.990	0.0158966
672.068	0.0158000
672.146	0.0156988
672.224	0.0156777
672.302	0.0155920
672.380	0.0157755
672.459	0.0157408
672.537	0.0156175
672.615	0.0157666
672.693	0.0158136
672.771	0.0157686
672.849	0.0157635
672.927	0.0157869
673.005	0.0158324
673.084	0.0156851
673.162	0.0156529
673.240	0.0156156
673.318	0.0156137
673.396	0.0155701
673.474	0.0156752
673.552	0.0157217
673.630	0.0156940
673.709	0.0156168
673.787	0.0156220
673.865	0.0155936
673.943	0.0156065
674.021	0.0157429
674.099	0.0156650
674.177	0.0155807
674.255	0.0156011
674.334	0.0155631
674.412	0.0154282
674.490	0.0153880
674.568	0.0154671
674.646	0.0156288
674.724	0.0154849
674.802	0.0154624
674.880	0.0153204
674.959	0.0153520
675.037	0.0152113
675.115	0.0154417
675.193	0.0153548
675.271	0.0152280
675.349	0.0152974
675.427	0.0153654
675.505	0.0152824
675.584	0.0151582
675.662	0.0150938
675.740	0.0150780
675.818	0.0151098
675.896	0.0150131
675.974	0.0148306
676.052	0.0151207
676.130	0.0148893
676.209	0.0150308
676.287	0.0150449
676.365	0.0148996
676.443	0.0148683
676.521	0.0149151
676.599	0.0147556
676.677	0.0149099
676.755	0.0149933
676.834	0.0151952
676.912	0.0149657
676.990	0.0150027
677.068	0.0151001
677.146	0.0150890
677.224	0.0151862
677.302	0.0152750
677.380	0.0152920
677.459	0.0152161
677.537	0.0153021
677.615	0.0153550
677.693	0.0152617
677.771	0.0152352
677.849	0.0153243
677.927	0.0152821
678.005	0.0151741
678.084	0.0152854
678.162	0.0150851
678.240	0.0152141
678.318	0.0152219
678.396	0.0150193
678.474	0.0149407
678.552	0.0149301
678.630	0.0149554
678.709	0.0150827
678.787	0.0148735
678.865	0.0147908
678.943	0.0146575
679.021	0.0146480
679.099	0.0147600
679.177	0.0146700
679.255	0.0146601
679.334	0.0146574
679.412	0.0148009
679.490	0.0145164
679.568	0.0145070
679.646	0.0146700
679.724	0.0145664
679.802	0.0147240
679.880	0.0146662
679.959	0.0147587
680.037	0.0146423
680.115	0.0145981
680.193	0.0146219
680.271	0.0146164
680.349	0.0146671
680.427	0.0146258
680.505	0.0146657
680.584	0.0146523
680.662	0.0145495
680.740	0.0146069
680.818	0.0145812
680.896	0.0145132
680.974	0.0145253
681.052	0.0145042
681.130	0.0143847
681.209	0.0142812
681.287	0.0142249
681.365	0.0141121
681.443	0.0142030
681.521	0.0139774
681.599	0.0139587
681.677	0.0136600
681.755	0.0137946
681.834	0.0135956
681.912	0.0135687
681.990	0.0135214
682.068	0.0134805
682.146	0.0133246
682.224	0.0131615
682.302	0.0131384
682.380	0.0130751
682.459	0.0130928
682.537	0.0130115
682.615	0.0129089
682.693	0.0129530
682.771	0.0128663
682.849	0.0127769
682.927	0.0128843
683.005	0.0129814
683.084	0.0128851
683.162	0.0126971
683.240	0.0127657
683.318	0.0128082
683.396	0.0128551
683.474	0.0127226
683.552	0.0126179
683.630	0.0127274
683.709	0.0127060
683.787	0.0125757
683.865	0.0125392
683.943	0.0122688
684.021	0.0123994
684.099	0.0122539
684.177	0.0122124
684.255	0.0119617
684.334	0.0118181
684.412	0.0116860
684.490	0.0115279
684.568	0.0115695
684.646	0.0112325
684.724	0.0109668
684.802	0.0108446
684.880	0.0104718
684.959	0.0101917
685.037	0.00997543
685.115	0.00954498
685.193	0.00917412
685.271	0.00888138
685.349	0.00851669
685.427	0.00829086
685.505	0.00771561
685.584	0.00717072
685.662	0.00680481
685.740	0.00640312
685.818	0.00572868
685.896	0.00505692
685.974	0.00459297
686.052	0.00383965
686.130	0.00304794
686.209	0.00236160
686.287	0.00156029
686.365	0.000740738
686.443	-0.0000854492
686.521	-0.00117989
686.599	-0.00218430
686.677	-0.00296837
686.755	-0.00398811
686.834	-0.00506020
686.912	-0.00628479
686.990	-0.00717682
687.068	-0.00814148
687.146	-0.00938553
687.224	-0.0105346
687.302	-0.0117008
687.380	-0.0129104
687.459	-0.0142833
687.537	-0.0153662
687.615	-0.0166233
687.693	-0.0174413
687.771	-0.0181839
687.849	-0.0180132
687.927	-0.0169926
688.005	-0.0145178
688.084	-0.0104307
688.162	-0.00372902
688.240	0.00502426
688.318	0.0166642
688.396	0.0308607
688.474	0.0474958
688.552	0.0660030
688.630	0.0861371
688.709	0.107015
688.787	0.128101
688.865	0.148608
688.943	0.167672
689.021	0.184822
689.099	0.199276
689.177	0.210619
689.255	0.218438
689.334	0.222219
689.412	0.222044
689.490	0.217786
689.568	0.210322
689.646	0.199294
689.724	0.184932
689.802	0.168043
689.880	0.149154
689.959	0.128624
690.037	0.106687
690.115	0.0835268
690.193	0.0598710
690.271	0.0365302
690.349	0.0132664
690.427	-0.00886818
690.505	-0.0297568
690.584	-0.0485269
690.662	-0.0652443
690.740	-0.0792884
690.818	-0.0904591
690.896	-0.0987524
690.974	-0.104378
691.052	-0.106992
691.130	-0.107033
691.209	-0.104562
691.287	-0.100177
691.365	-0.0940295
691.443	-0.0864883
691.521	-0.0783988
691.599	-0.0697031
691.677	-0.0610453
691.755	-0.0529393
691.834	-0.0453116
691.912	-0.0386299
691.990	-0.0327493
692.068	-0.0276266
692.146	-0.0237350
692.224	-0.0206468
692.302	-0.0185910
692.380	-0.0172294
692.459	-0.0168561
692.537	-0.0167736
692.615	-0.0173778
692.693	-0.0179640
692.771	-0.0189677
692.849	-0.0198552
692.927	-0.0206432
693.005	-0.0213088
693.084	-0.0218189
693.162	-0.0219897
693.240	-0.0219486
693.318	-0.0216079
693.396	-0.0210501
693.474	-0.0200992
693.552	-0.0184194
693.630	-0.0163514
693.709	-0.0141383
693.787	-0.0115932
693.865	-0.00892166
693.943	-0.00605888
694.021	-0.00348351
694.099	-0.00100983
694.177	0.00129906
694.255	0.00328796
694.334	0.00485931
694.412	0.00645332
694.490	0.00785828
694.568	0.00860435
694.646	0.00919807
694.724	0.00962692
694.802	0.00962296
694.880	0.00942802
694.959	0.00908211
695.037	0.00877121
695.115	0.00811089
695.193	0.00779953
695.271	0.00747375
695.349	0.00705605
695.427	0.00688713
695.505	0.00675636
695.584	0.00673637
695.662	0.00672913
695.740	0.00714455
695.818	0.00756325
695.896	0.00810005
695.974	0.00880417
696.052	0.00950539
696.130	0.0104603
696.209	0.0115379
696.287	0.0127953
696.365	0.0137074
696.443	0.0146774
696.521	0.0159700
696.599	0.0173143
696.677	0.0185072
696.755	0.0199198
696.834	0.0213604
696.912	0.0229378
696.990	0.0246279
697.068	0.0260764
697.146	0.0277660
697.224	0.0291602
697.302	0.0305595
697.380	0.0317323
697.459	0.0327625
697.537	0.0336370
697.615	0.0341398
697.693	0.0344524
697.771	0.0344294
697.849	0.0341698
697.927	0.0337313
698.005	0.0329689
698.084	0.0321997
698.162	0.0311981
698.240	0.0304168
698.318	0.0295640
698.396	0.0288015
698.474	0.0279863
698.552	0.0277264
698.630	0.0273245
698.709	0.0272282
698.787	0.0273200
698.865	0.0278736
698.943	0.0283268
699.021	0.0288780
699.099	0.0298240
699.177	0.0306355
699.255	0.0315127
699.334	0.0322324
699.412	0.0333247
699.490	0.0340448
699.568	0.0345959
699.646	0.0352469
699.724	0.0355101
699.802	0.0357021
699.880	0.0356417
699.959	0.0352322
700.037	0.0349110
700.115	0.0340363
700.193	0.0329285
700.271	0.0319501
700.349	0.0306020
700.427	0.0291047
700.505	0.0274421
700.584	0.0258757
700.662	0.0242164
700.740	0.0223498
700.818	0.0206679
700.896	0.0190778
700.974	0.0174834
701.052	0.0160638
701.130	0.0147212
701.209	0.0134202
701.287	0.0123656
701.365	0.0113675
701.443	0.0108099
701.521	0.0103095
701.599	0.00998703
701.677	0.00977676
701.755	0.00977722
701.834	0.00981003
701.912	0.00994637
701.990	0.0105450
702.068	0.0108424
702.146	0.0112086
702.224	0.0115781
702.302	0.0120981
702.380	0.0127374
702.459	0.0132127
702.537	0.0137035
702.615	0.0141432
702.693	0.0144660
702.771	0.0146705
702.849	0.0148462
702.927	0.0147515
703.005	0.0147117
703.084	0.0146342
703.162	0.0142065
703.240	0.0138462
703.318	0.0136900
703.396	0.0132702
703.474	0.0128815
703.552	0.0125781
703.630	0.0123206
703.709	0.0120556
703.787	0.0118763
703.865	0.0117219
703.943	0.0117267
704.021	0.0117261
704.099	0.0117721
704.177	0.0119254
704.255	0.0121239
704.334	0.0124433
704.412	0.0124432
704.490	0.0126606
704.568	0.0127953
704.646	0.0129353
704.724	0.0129077
704.802	0.0128410
704.880	0.0128328
704.959	0.0128232
705.037	0.0128371
705.115	0.0127662
705.193	0.0128130
705.271	0.0129003
705.349	0.0130007
705.427	0.0132783
705.505	0.0134792
705.584	0.0135863
705.662	0.0137717
705.740	0.0141394
705.818	0.0144062
705.896	0.0148096
705.974	0.0151629
706.052	0.0156513
706.130	0.0159453
706.209	0.0164042
706.287	0.0166822
706.365	0.0168427
706.443	0.0170803
706.521	0.0170778
706.599	0.0170760
706.677	0.0171691
706.755	0.0171087
706.834	0.0170279
706.912	0.0168627
706.990	0.0167887
707.068	0.0166766
707.146	0.0163783
707.224	0.0163626
707.302	0.0162636
707.380	0.0159934
707.459	0.0159755
707.537	0.0157893
707.615	0.0158959
707.693	0.0162643
707.771	0.0161251
707.849	0.0162889
707.927	0.0165681
708.005	0.0166721
708.084	0.0167809
708.162	0.0168541
708.240	0.0166551
708.318	0.0164651
708.396	0.0162214
708.474	0.0157114
708.552	0.0154317
708.630	0.0152070
708.709	0.0148044
708.787	0.0144007
708.865	0.0139709
708.943	0.0138762
709.021	0.0135975
709.099	0.0135083
709.177	0.0134896
709.255	0.0137263
709.334	0.0137335
709.412	0.0140871
709.490	0.0145081
709.568	0.0150576
709.646	0.0153529
709.724	0.0157899
709.802	0.0162747
709.880	0.0165104
709.959	0.0169797
710.037	0.0173380
710.115	0.0176442
710.193	0.0177650
710.271	0.0181023
710.349	0.0184233
710.427	0.0187315
710.505	0.0189505
710.584	0.0191962
710.662	0.0195679
710.740	0.0195790
710.818	0.0198586
710.896	0.0199713
710.974	0.0202044
711.052	0.0201243
711.130	0.0201920
711.209	0.0203576
711.287	0.0203874
711.365	0.0203508
711.443	0.0202757
711.521	0.0205042
711.599	0.0205026
711.677	0.0205574
711.755	0.0207601
711.834	0.0207460
711.912	0.0207076
711.990	0.0207846
712.068	0.0208830
712.146	0.0210534
712.224	0.0211005
712.302	0.0211297
712.380	0.0212057
712.459	0.0212625
712.537	0.0212290
712.615	0.0212123
712.693	0.0210987
712.771	0.0210542
712.849	0.0209549
712.927	0.0209607
713.005	0.0208884
713.084	0.0205659
713.162	0.0203368
713.240	0.0201440
713.318	0.0199293
713.396	0.0194113
713.474	0.0188356
713.552	0.0183083
713.630	0.0175024
713.709	0.0167810
713.787	0.0158466
713.865	0.0151389
713.943	0.0144565
714.021	0.0132747
714.099	0.0123949
714.177	0.0116373
714.255	0.0109392
714.334	0.0102235
714.412	0.00965950
714.490	0.00932999
714.568	0.00890465
714.646	0.00864281
714.724	0.00849533
714.802	0.00836052
714.880	0.00837898
714.959	0.00844818
715.037	0.00868874
715.115	0.00867340
715.193	0.00856178
715.271	0.00882591
715.349	0.00899300
715.427	0.00906937
715.505	0.00915909
715.584	0.00926643
715.662	0.00947922
715.740	0.00951576
715.818	0.00956001
715.896	0.00997177
715.974	0.0101677
716.052	0.0103779
716.130	0.0107566
716.209	0.0110285
716.287	0.0111910
716.365	0.0115298
716.443	0.0118279
716.521	0.0119058
716.599	0.0123524
716.677	0.0124198
716.755	0.0125212
716.834	0.0126997
716.912	0.0128410
716.990	0.0127880
717.068	0.0128856
717.146	0.0128135
717.224	0.0128996
717.302	0.0128547
717.380	0.0126665
717.459	0.0125816
717.537	0.0126511
717.615	0.0125932
717.693	0.0127531
717.771	0.0126945
717.849	0.0126925
717.927	0.0129730
718.005	0.0130674
718.084	0.0132735
718.162	0.0134147
718.240	0.0136335
718.318	0.0139471
718.396	0.0141681
718.474	0.0144736
718.552	0.0148057
718.630	0.0149313
718.709	0.0151887
718.787	0.0154893
718.865	0.0156039
718.943	0.0157351
719.021	0.0156913
719.099	0.0158370
719.177	0.0158105
719.255	0.0158575
719.334	0.0156403
719.412	0.0156887
719.490	0.0157175
719.568	0.0155769
719.646	0.0154854
719.724	0.0154483
719.802	0.0154901
719.880	0.0155248
719.959	0.0153934
