05/26/2022	21:13:36	Ver.	4.1	UNKNOWN
Optical Delay	400.036748	Delta X		0.078125	Sweeps	1	Scan Rate	0/0
Coordinates	Axis 1	NaN	Axis 2	NaN	Axis 3	NaN	Axis 4	NaN	Axis 5	NaN	Axis 6	0.000000
TX Power	0.000000	RX Power	0.000000

400.037	0.0155402
400.115	0.0156080
400.193	0.0154195
400.271	0.0154938
400.349	0.0154746
400.427	0.0154668
400.505	0.0155835
400.584	0.0155019
400.662	0.0154990
400.740	0.0155654
400.818	0.0155540
400.896	0.0154418
400.974	0.0153973
401.052	0.0155884
401.130	0.0154247
401.209	0.0155956
401.287	0.0155410
401.365	0.0155255
401.443	0.0154914
401.521	0.0155367
401.599	0.0155088
401.677	0.0154076
401.755	0.0155448
401.834	0.0155734
401.912	0.0155759
401.990	0.0154686
402.068	0.0154011
402.146	0.0153909
402.224	0.0155376
402.302	0.0153352
402.380	0.0153710
402.459	0.0154084
402.537	0.0153498
402.615	0.0154025
402.693	0.0154105
402.771	0.0153771
402.849	0.0154240
402.927	0.0155177
403.005	0.0155827
403.084	0.0153207
403.162	0.0154243
403.240	0.0154691
403.318	0.0153207
403.396	0.0154733
403.474	0.0154789
403.552	0.0153071
403.630	0.0153881
403.709	0.0154869
403.787	0.0154726
403.865	0.0154198
403.943	0.0153643
404.021	0.0154278
404.099	0.0154971
404.177	0.0155863
404.255	0.0154524
404.334	0.0155359
404.412	0.0154981
404.490	0.0154751
404.568	0.0155756
404.646	0.0155250
404.724	0.0154271
404.802	0.0154221
404.880	0.0153268
404.959	0.0155775
405.037	0.0155132
405.115	0.0155444
405.193	0.0154173
405.271	0.0154800
405.349	0.0154621
405.427	0.0154205
405.505	0.0155776
405.584	0.0157043
405.662	0.0154988
405.740	0.0155799
405.818	0.0156097
405.896	0.0154218
405.974	0.0155148
406.052	0.0155779
406.130	0.0156062
406.209	0.0154840
406.287	0.0153599
406.365	0.0155180
406.443	0.0155032
406.521	0.0154337
406.599	0.0154388
406.677	0.0155016
406.755	0.0155335
406.834	0.0153986
406.912	0.0154770
406.990	0.0153517
407.068	0.0154205
407.146	0.0154638
407.224	0.0154552
407.302	0.0153516
407.380	0.0153805
407.459	0.0154246
407.537	0.0154787
407.615	0.0153879
407.693	0.0155344
407.771	0.0155372
407.849	0.0154484
407.927	0.0153886
408.005	0.0155068
408.084	0.0155364
408.162	0.0155543
408.240	0.0154063
408.318	0.0154691
408.396	0.0154680
408.474	0.0154060
408.552	0.0154211
408.630	0.0154021
408.709	0.0155193
408.787	0.0154691
408.865	0.0155224
408.943	0.0154702
409.021	0.0154174
409.099	0.0154470
409.177	0.0155055
409.255	0.0154433
409.334	0.0154743
409.412	0.0154778
409.490	0.0153025
409.568	0.0154970
409.646	0.0154768
409.724	0.0154202
409.802	0.0153704
409.880	0.0153927
409.959	0.0153812
410.037	0.0154486
410.115	0.0153391
410.193	0.0153712
410.271	0.0155765
410.349	0.0155148
410.427	0.0154374
410.505	0.0155025
410.584	0.0154784
410.662	0.0155227
410.740	0.0155915
410.818	0.0154926
410.896	0.0156403
410.974	0.0154838
411.052	0.0154491
411.130	0.0156384
411.209	0.0155573
411.287	0.0154939
411.365	0.0154365
411.443	0.0154722
411.521	0.0156353
411.599	0.0155878
411.677	0.0154961
411.755	0.0154722
411.834	0.0154709
411.912	0.0156089
411.990	0.0154625
412.068	0.0154783
412.146	0.0156436
412.224	0.0157046
412.302	0.0155006
412.380	0.0154306
412.459	0.0154748
412.537	0.0154290
412.615	0.0155406
412.693	0.0154905
412.771	0.0154655
412.849	0.0154900
412.927	0.0155529
413.005	0.0155863
413.084	0.0154690
413.162	0.0155077
413.240	0.0153345
413.318	0.0155247
413.396	0.0155228
413.474	0.0156033
413.552	0.0154427
413.630	0.0153731
413.709	0.0154110
413.787	0.0154662
413.865	0.0154079
413.943	0.0154034
414.021	0.0153355
414.099	0.0155050
414.177	0.0154970
414.255	0.0154248
414.334	0.0154971
414.412	0.0154308
414.490	0.0154650
414.568	0.0153532
414.646	0.0155674
414.724	0.0154417
414.802	0.0153979
414.880	0.0154868
414.959	0.0152510
415.037	0.0155854
415.115	0.0155528
415.193	0.0154800
415.271	0.0155603
415.349	0.0154778
415.427	0.0153503
415.505	0.0154341
415.584	0.0154763
415.662	0.0154243
415.740	0.0154867
415.818	0.0155152
415.896	0.0155101
415.974	0.0155157
416.052	0.0154854
416.130	0.0153953
416.209	0.0154076
416.287	0.0155784
416.365	0.0154501
416.443	0.0155054
416.521	0.0155804
416.599	0.0153402
416.677	0.0153788
416.755	0.0154560
416.834	0.0154723
416.912	0.0155407
416.990	0.0155322
417.068	0.0154034
417.146	0.0155660
417.224	0.0153667
417.302	0.0154321
417.380	0.0154500
417.459	0.0154420
417.537	0.0154384
417.615	0.0154853
417.693	0.0154030
417.771	0.0153301
417.849	0.0154176
417.927	0.0155383
418.005	0.0154381
418.084	0.0154308
418.162	0.0154818
418.240	0.0155802
418.318	0.0152657
418.396	0.0153936
418.474	0.0155087
418.552	0.0154485
418.630	0.0155206
418.709	0.0154928
418.787	0.0155195
418.865	0.0155331
418.943	0.0154353
419.021	0.0155531
419.099	0.0155946
419.177	0.0153534
419.255	0.0155183
419.334	0.0153893
419.412	0.0155069
419.490	0.0155320
419.568	0.0155293
419.646	0.0153764
419.724	0.0155336
419.802	0.0155335
419.880	0.0155197
419.959	0.0155759
420.037	0.0155510
420.115	0.0155535
420.193	0.0155581
420.271	0.0155810
420.349	0.0154581
420.427	0.0153703
420.505	0.0155924
420.584	0.0155074
420.662	0.0155581
420.740	0.0154568
420.818	0.0155026
420.896	0.0154465
420.974	0.0154949
421.052	0.0154727
421.130	0.0156590
421.209	0.0155502
421.287	0.0154869
421.365	0.0153943
421.443	0.0154274
421.521	0.0155661
421.599	0.0154678
421.677	0.0154735
421.755	0.0154612
421.834	0.0154158
421.912	0.0155489
421.990	0.0154727
422.068	0.0155399
422.146	0.0154569
422.224	0.0154576
422.302	0.0154504
422.380	0.0155072
422.459	0.0154322
422.537	0.0154538
422.615	0.0153880
422.693	0.0154919
422.771	0.0155114
422.849	0.0153352
422.927	0.0155103
423.005	0.0154134
423.084	0.0155652
423.162	0.0155344
423.240	0.0154440
423.318	0.0153880
423.396	0.0154740
423.474	0.0154960
423.552	0.0155385
423.630	0.0155386
423.709	0.0155657
423.787	0.0154489
423.865	0.0154858
423.943	0.0155135
424.021	0.0155105
424.099	0.0155193
424.177	0.0154142
424.255	0.0154888
424.334	0.0155521
424.412	0.0154903
424.490	0.0154794
424.568	0.0154756
424.646	0.0155197
424.724	0.0155707
424.802	0.0154375
424.880	0.0154514
424.959	0.0155182
425.037	0.0154499
425.115	0.0153806
425.193	0.0155359
425.271	0.0154144
425.349	0.0154359
425.427	0.0154945
425.505	0.0154344
425.584	0.0155900
425.662	0.0155795
425.740	0.0154319
425.818	0.0156043
425.896	0.0155621
425.974	0.0153622
426.052	0.0153742
426.130	0.0154005
426.209	0.0155012
426.287	0.0154706
426.365	0.0155528
426.443	0.0154148
426.521	0.0155338
426.599	0.0153707
426.677	0.0153686
426.755	0.0155238
426.834	0.0154972
426.912	0.0154057
426.990	0.0154866
427.068	0.0153554
427.146	0.0153852
427.224	0.0155555
427.302	0.0154224
427.380	0.0153436
427.459	0.0154321
427.537	0.0154329
427.615	0.0154623
427.693	0.0155344
427.771	0.0155441
427.849	0.0154004
427.927	0.0154586
428.005	0.0154604
428.084	0.0153926
428.162	0.0155659
428.240	0.0154874
428.318	0.0153510
428.396	0.0153954
428.474	0.0154206
428.552	0.0155505
428.630	0.0155402
428.709	0.0155145
428.787	0.0155315
428.865	0.0155647
428.943	0.0154304
429.021	0.0154945
429.099	0.0154958
429.177	0.0155608
429.255	0.0155721
429.334	0.0155359
429.412	0.0154819
429.490	0.0154566
429.568	0.0154828
429.646	0.0154694
429.724	0.0153472
429.802	0.0155238
429.880	0.0155688
429.959	0.0154256
430.037	0.0154259
430.115	0.0155634
430.193	0.0156201
430.271	0.0155525
430.349	0.0155049
430.427	0.0154735
430.505	0.0155635
430.584	0.0154088
430.662	0.0155944
430.740	0.0156760
430.818	0.0155324
430.896	0.0155362
430.974	0.0155958
431.052	0.0154429
431.130	0.0155882
431.209	0.0155574
431.287	0.0154627
431.365	0.0155154
431.443	0.0155128
431.521	0.0154803
431.599	0.0156799
431.677	0.0156464
431.755	0.0154516
431.834	0.0154129
431.912	0.0153741
431.990	0.0154912
432.068	0.0154748
432.146	0.0155012
432.224	0.0153915
432.302	0.0155215
432.380	0.0155757
432.459	0.0155391
432.537	0.0154491
432.615	0.0154370
432.693	0.0155194
432.771	0.0154875
432.849	0.0154754
432.927	0.0155339
433.005	0.0153953
433.084	0.0154266
433.162	0.0156175
433.240	0.0154710
433.318	0.0155649
433.396	0.0155241
433.474	0.0154523
433.552	0.0155450
433.630	0.0155402
433.709	0.0155618
433.787	0.0154959
433.865	0.0155259
433.943	0.0154873
434.021	0.0154485
434.099	0.0155029
434.177	0.0155315
434.255	0.0154652
434.334	0.0154400
434.412	0.0154095
434.490	0.0155975
434.568	0.0154467
434.646	0.0155177
434.724	0.0154940
434.802	0.0154752
434.880	0.0156181
434.959	0.0155571
435.037	0.0154107
435.115	0.0154596
435.193	0.0155704
435.271	0.0154155
435.349	0.0155370
435.427	0.0154714
435.505	0.0153924
435.584	0.0154545
435.662	0.0155070
435.740	0.0155390
435.818	0.0155359
435.896	0.0154868
435.974	0.0154980
436.052	0.0154781
436.130	0.0156185
436.209	0.0157513
436.287	0.0154520
436.365	0.0154248
436.443	0.0156852
436.521	0.0156142
436.599	0.0155230
436.677	0.0153751
436.755	0.0154491
436.834	0.0155579
436.912	0.0154461
436.990	0.0154078
437.068	0.0154057
437.146	0.0154500
437.224	0.0155446
437.302	0.0154041
437.380	0.0154844
437.459	0.0154692
437.537	0.0155575
437.615	0.0154533
437.693	0.0156833
437.771	0.0155077
437.849	0.0153732
437.927	0.0155338
438.005	0.0155532
438.084	0.0154707
438.162	0.0155072
438.240	0.0155317
438.318	0.0154731
438.396	0.0154298
438.474	0.0154296
438.552	0.0154192
438.630	0.0154201
438.709	0.0155073
438.787	0.0154053
438.865	0.0154630
438.943	0.0154517
439.021	0.0155723
439.099	0.0156448
439.177	0.0154616
439.255	0.0154821
439.334	0.0154472
439.412	0.0155446
439.490	0.0155155
439.568	0.0156236
439.646	0.0154136
439.724	0.0154564
439.802	0.0155621
439.880	0.0156136
439.959	0.0154644
440.037	0.0154564
440.115	0.0154515
440.193	0.0154555
440.271	0.0154888
440.349	0.0155997
440.427	0.0155386
440.505	0.0153318
440.584	0.0155061
440.662	0.0154430
440.740	0.0153810
440.818	0.0154341
440.896	0.0154556
440.974	0.0155323
441.052	0.0155669
441.130	0.0153857
441.209	0.0153692
441.287	0.0155458
441.365	0.0154698
441.443	0.0154953
441.521	0.0154095
441.599	0.0156683
441.677	0.0156480
441.755	0.0155893
441.834	0.0154089
441.912	0.0154908
441.990	0.0154076
442.068	0.0153191
442.146	0.0154633
442.224	0.0156150
442.302	0.0154887
442.380	0.0155042
442.459	0.0155949
442.537	0.0154230
442.615	0.0154729
442.693	0.0155961
442.771	0.0153964
442.849	0.0154576
442.927	0.0154243
443.005	0.0155042
443.084	0.0155247
443.162	0.0155006
443.240	0.0155891
443.318	0.0155852
443.396	0.0154657
443.474	0.0156515
443.552	0.0154210
443.630	0.0154705
443.709	0.0154501
443.787	0.0156065
443.865	0.0154362
443.943	0.0155196
444.021	0.0155968
444.099	0.0155994
444.177	0.0156021
444.255	0.0153368
444.334	0.0154151
444.412	0.0154826
444.490	0.0155077
444.568	0.0154158
444.646	0.0155729
444.724	0.0154855
444.802	0.0155155
444.880	0.0154218
444.959	0.0154414
445.037	0.0155046
445.115	0.0154544
445.193	0.0154060
445.271	0.0154659
445.349	0.0155251
445.427	0.0154365
445.505	0.0154677
445.584	0.0155434
445.662	0.0154586
445.740	0.0154617
445.818	0.0154401
445.896	0.0154755
445.974	0.0154657
446.052	0.0154340
446.130	0.0154691
446.209	0.0155978
446.287	0.0154600
446.365	0.0154906
446.443	0.0156515
446.521	0.0154956
446.599	0.0154029
446.677	0.0155293
446.755	0.0155415
446.834	0.0154675
446.912	0.0155943
446.990	0.0155125
447.068	0.0155226
447.146	0.0155661
447.224	0.0155586
447.302	0.0155112
447.380	0.0153683
447.459	0.0154898
447.537	0.0155675
447.615	0.0155289
447.693	0.0155225
447.771	0.0155644
447.849	0.0155110
447.927	0.0156151
448.005	0.0155813
448.084	0.0156535
448.162	0.0155833
448.240	0.0155071
448.318	0.0154797
448.396	0.0155492
448.474	0.0155608
448.552	0.0153699
448.630	0.0152714
448.709	0.0155214
448.787	0.0155362
448.865	0.0153821
448.943	0.0154021
449.021	0.0154665
449.099	0.0154646
449.177	0.0154628
449.255	0.0154125
449.334	0.0156123
449.412	0.0154952
449.490	0.0154692
449.568	0.0155540
449.646	0.0155281
449.724	0.0155089
449.802	0.0155148
449.880	0.0154293
449.959	0.0155672
450.037	0.0154440
450.115	0.0155809
450.193	0.0153535
450.271	0.0154402
450.349	0.0154568
450.427	0.0155791
450.505	0.0154824
450.584	0.0155486
450.662	0.0153696
450.740	0.0155570
450.818	0.0153780
450.896	0.0155804
450.974	0.0155779
451.052	0.0154362
451.130	0.0155962
451.209	0.0153877
451.287	0.0154316
451.365	0.0154559
451.443	0.0154595
451.521	0.0154608
451.599	0.0154102
451.677	0.0152977
451.755	0.0154935
451.834	0.0152905
451.912	0.0154053
451.990	0.0154923
452.068	0.0154131
452.146	0.0155347
452.224	0.0154687
452.302	0.0154434
452.380	0.0153960
452.459	0.0154973
452.537	0.0155244
452.615	0.0156010
452.693	0.0154690
452.771	0.0154403
452.849	0.0154945
452.927	0.0154186
453.005	0.0154068
453.084	0.0154660
453.162	0.0155591
453.240	0.0154025
453.318	0.0153621
453.396	0.0155312
453.474	0.0155125
453.552	0.0154597
453.630	0.0155358
453.709	0.0153915
453.787	0.0154303
453.865	0.0155411
453.943	0.0154237
454.021	0.0155994
454.099	0.0154966
454.177	0.0154154
454.255	0.0152833
454.334	0.0153687
454.412	0.0156343
454.490	0.0154665
454.568	0.0155087
454.646	0.0153527
454.724	0.0155145
454.802	0.0154057
454.880	0.0154401
454.959	0.0153707
455.037	0.0153690
455.115	0.0154504
455.193	0.0154640
455.271	0.0154806
455.349	0.0154437
455.427	0.0155613
455.505	0.0156000
455.584	0.0153958
455.662	0.0155204
455.740	0.0155479
455.818	0.0154443
455.896	0.0154401
455.974	0.0154353
456.052	0.0154830
456.130	0.0155157
456.209	0.0154329
456.287	0.0155305
456.365	0.0154250
456.443	0.0154361
456.521	0.0154441
456.599	0.0154866
456.677	0.0154479
456.755	0.0154973
456.834	0.0154971
456.912	0.0155171
456.990	0.0154651
457.068	0.0153780
457.146	0.0155643
457.224	0.0154548
457.302	0.0154340
457.380	0.0155043
457.459	0.0154639
457.537	0.0154663
457.615	0.0155521
457.693	0.0155183
457.771	0.0155495
457.849	0.0153701
457.927	0.0156427
458.005	0.0155811
458.084	0.0155448
458.162	0.0155345
458.240	0.0154370
458.318	0.0154825
458.396	0.0154539
458.474	0.0153934
458.552	0.0154192
458.630	0.0154117
458.709	0.0155595
458.787	0.0155235
458.865	0.0155045
458.943	0.0155605
459.021	0.0155092
459.099	0.0154850
459.177	0.0154420
459.255	0.0155566
459.334	0.0154467
459.412	0.0155947
459.490	0.0155195
459.568	0.0155589
459.646	0.0155318
459.724	0.0154818
459.802	0.0155384
459.880	0.0155466
459.959	0.0153220
460.037	0.0155545
460.115	0.0155378
460.193	0.0155535
460.271	0.0155480
460.349	0.0154949
460.427	0.0154891
460.505	0.0156423
460.584	0.0154488
460.662	0.0154552
460.740	0.0154653
460.818	0.0155479
460.896	0.0155183
460.974	0.0155322
461.052	0.0154294
461.130	0.0156266
461.209	0.0155893
461.287	0.0156261
461.365	0.0154888
461.443	0.0154496
461.521	0.0154939
461.599	0.0155252
461.677	0.0155735
461.755	0.0155363
461.834	0.0155175
461.912	0.0156006
461.990	0.0155610
462.068	0.0155228
462.146	0.0156067
462.224	0.0155810
462.302	0.0155149
462.380	0.0155959
462.459	0.0155297
462.537	0.0154572
462.615	0.0155639
462.693	0.0156233
462.771	0.0155637
462.849	0.0154813
462.927	0.0152974
463.005	0.0154269
463.084	0.0154815
463.162	0.0154935
463.240	0.0155360
463.318	0.0155022
463.396	0.0154475
463.474	0.0155106
463.552	0.0154356
463.630	0.0154079
463.709	0.0155906
463.787	0.0155321
463.865	0.0154816
463.943	0.0154983
464.021	0.0154994
464.099	0.0155192
464.177	0.0154771
464.255	0.0153891
464.334	0.0155466
464.412	0.0154865
464.490	0.0153225
464.568	0.0154062
464.646	0.0156348
464.724	0.0153943
464.802	0.0154503
464.880	0.0154571
464.959	0.0154522
465.037	0.0154560
465.115	0.0154360
465.193	0.0152490
465.271	0.0153918
465.349	0.0154829
465.427	0.0153925
465.505	0.0154993
465.584	0.0154634
465.662	0.0154811
465.740	0.0153255
465.818	0.0152927
465.896	0.0153017
465.974	0.0152878
466.052	0.0153601
466.130	0.0154476
466.209	0.0154137
466.287	0.0155379
466.365	0.0154480
466.443	0.0154028
466.521	0.0154382
466.599	0.0153908
466.677	0.0154850
466.755	0.0153999
466.834	0.0153590
466.912	0.0153916
466.990	0.0155322
467.068	0.0153625
467.146	0.0154150
467.224	0.0156446
467.302	0.0153995
467.380	0.0153653
467.459	0.0154257
467.537	0.0154778
467.615	0.0154341
467.693	0.0154072
467.771	0.0154324
467.849	0.0153799
467.927	0.0153494
468.005	0.0156479
468.084	0.0154855
468.162	0.0153986
468.240	0.0155168
468.318	0.0154285
468.396	0.0155768
468.474	0.0155112
468.552	0.0153965
468.630	0.0154963
468.709	0.0154620
468.787	0.0154494
468.865	0.0155376
468.943	0.0155582
469.021	0.0154340
469.099	0.0154430
469.177	0.0155910
469.255	0.0154688
469.334	0.0155082
469.412	0.0154038
469.490	0.0155299
469.568	0.0155679
469.646	0.0154839
469.724	0.0154760
469.802	0.0155537
469.880	0.0154389
469.959	0.0154036
470.037	0.0155038
470.115	0.0154891
470.193	0.0153122
470.271	0.0154894
470.349	0.0156228
470.427	0.0154087
470.505	0.0153360
470.584	0.0153618
470.662	0.0154835
470.740	0.0155757
470.818	0.0155740
470.896	0.0153799
470.974	0.0155090
471.052	0.0153723
471.130	0.0153471
471.209	0.0156097
471.287	0.0156484
471.365	0.0154498
471.443	0.0153695
471.521	0.0153799
471.599	0.0154762
471.677	0.0155151
471.755	0.0154779
471.834	0.0152764
471.912	0.0155356
471.990	0.0155603
472.068	0.0154865
472.146	0.0155447
472.224	0.0154546
472.302	0.0153461
472.380	0.0154524
472.459	0.0155642
472.537	0.0155228
472.615	0.0154099
472.693	0.0155080
472.771	0.0154716
472.849	0.0155842
472.927	0.0155722
473.005	0.0154195
473.084	0.0153823
473.162	0.0153436
473.240	0.0154685
473.318	0.0154100
473.396	0.0155843
473.474	0.0152933
473.552	0.0153460
473.630	0.0155398
473.709	0.0154219
473.787	0.0154160
473.865	0.0154607
473.943	0.0155400
474.021	0.0154621
474.099	0.0155618
474.177	0.0154296
474.255	0.0154568
474.334	0.0155286
474.412	0.0154613
474.490	0.0155693
474.568	0.0154000
474.646	0.0154772
474.724	0.0155182
474.802	0.0155462
474.880	0.0154785
474.959	0.0154342
475.037	0.0154141
475.115	0.0154136
475.193	0.0155333
475.271	0.0155716
475.349	0.0155260
475.427	0.0155775
475.505	0.0154359
475.584	0.0155011
475.662	0.0156238
475.740	0.0154298
475.818	0.0154338
475.896	0.0155239
475.974	0.0156097
476.052	0.0155045
476.130	0.0155350
476.209	0.0155548
476.287	0.0156310
476.365	0.0156496
476.443	0.0154149
476.521	0.0155899
476.599	0.0156676
476.677	0.0154887
476.755	0.0155530
476.834	0.0153254
476.912	0.0155744
476.990	0.0155772
477.068	0.0154263
477.146	0.0154211
477.224	0.0155984
477.302	0.0154985
477.380	0.0154511
477.459	0.0154771
477.537	0.0154153
477.615	0.0153938
477.693	0.0154306
477.771	0.0154707
477.849	0.0155556
477.927	0.0154861
478.005	0.0155522
478.084	0.0154144
478.162	0.0155210
478.240	0.0153855
478.318	0.0155264
478.396	0.0153776
478.474	0.0154338
478.552	0.0154783
478.630	0.0154228
478.709	0.0153592
478.787	0.0154565
478.865	0.0155455
478.943	0.0154496
479.021	0.0153345
479.099	0.0154274
479.177	0.0154836
479.255	0.0154100
479.334	0.0154505
479.412	0.0155275
479.490	0.0155029
479.568	0.0155310
479.646	0.0154351
479.724	0.0154076
479.802	0.0154823
479.880	0.0154452
479.959	0.0155015
480.037	0.0153866
480.115	0.0154325
480.193	0.0155685
480.271	0.0154655
480.349	0.0155408
480.427	0.0153944
480.505	0.0155117
480.584	0.0154614
480.662	0.0154330
480.740	0.0154551
480.818	0.0154518
480.896	0.0153563
480.974	0.0155079
481.052	0.0154011
481.130	0.0154961
481.209	0.0154953
481.287	0.0156557
481.365	0.0157343
481.443	0.0154738
481.521	0.0154047
481.599	0.0155859
481.677	0.0155845
481.755	0.0154800
481.834	0.0155443
481.912	0.0153748
481.990	0.0154807
482.068	0.0156011
482.146	0.0155634
482.224	0.0154411
482.302	0.0155381
482.380	0.0155878
482.459	0.0156281
482.537	0.0155218
482.615	0.0153823
482.693	0.0154327
482.771	0.0155041
482.849	0.0156477
482.927	0.0155542
483.005	0.0155009
483.084	0.0155974
483.162	0.0154707
483.240	0.0154565
483.318	0.0153393
483.396	0.0155798
483.474	0.0154382
483.552	0.0155130
483.630	0.0154182
483.709	0.0155230
483.787	0.0153976
483.865	0.0154014
483.943	0.0155324
484.021	0.0154932
484.099	0.0154507
484.177	0.0155762
484.255	0.0154580
484.334	0.0152623
484.412	0.0155918
484.490	0.0153721
484.568	0.0154945
484.646	0.0156009
484.724	0.0154549
484.802	0.0153848
484.880	0.0154595
484.959	0.0155555
485.037	0.0155448
485.115	0.0155671
485.193	0.0156211
485.271	0.0156307
485.349	0.0154778
485.427	0.0155660
485.505	0.0155843
485.584	0.0154965
485.662	0.0155727
485.740	0.0155660
485.818	0.0154737
485.896	0.0156145
485.974	0.0155755
486.052	0.0155081
486.130	0.0155597
486.209	0.0154531
486.287	0.0154704
486.365	0.0155293
486.443	0.0154424
486.521	0.0155043
486.599	0.0155988
486.677	0.0155336
486.755	0.0155881
486.834	0.0155527
486.912	0.0155785
486.990	0.0154245
487.068	0.0154491
487.146	0.0153727
487.224	0.0154285
487.302	0.0155833
487.380	0.0155323
487.459	0.0155486
487.537	0.0156071
487.615	0.0154537
487.693	0.0154679
487.771	0.0154775
487.849	0.0154983
487.927	0.0154556
488.005	0.0154544
488.084	0.0154442
488.162	0.0153341
488.240	0.0154103
488.318	0.0156286
488.396	0.0153618
488.474	0.0153996
488.552	0.0155664
488.630	0.0155363
488.709	0.0155488
488.787	0.0154746
488.865	0.0154254
488.943	0.0154736
489.021	0.0155959
489.099	0.0155153
489.177	0.0154403
489.255	0.0155525
489.334	0.0154828
489.412	0.0154303
489.490	0.0154859
489.568	0.0154926
489.646	0.0155967
489.724	0.0154466
489.802	0.0154371
489.880	0.0154434
489.959	0.0154473
490.037	0.0154998
490.115	0.0155857
490.193	0.0155290
490.271	0.0155666
490.349	0.0153697
490.427	0.0154718
490.505	0.0155276
490.584	0.0154042
490.662	0.0153945
490.740	0.0155725
490.818	0.0156648
490.896	0.0154595
490.974	0.0155770
491.052	0.0154264
491.130	0.0153730
491.209	0.0154743
491.287	0.0155544
491.365	0.0154819
491.443	0.0156698
491.521	0.0154864
491.599	0.0155188
491.677	0.0154915
491.755	0.0154984
491.834	0.0155602
491.912	0.0154612
491.990	0.0155594
492.068	0.0154423
492.146	0.0155605
492.224	0.0155321
492.302	0.0156423
492.380	0.0156249
492.459	0.0155243
492.537	0.0155074
492.615	0.0156675
492.693	0.0154990
492.771	0.0154771
492.849	0.0154967
492.927	0.0155902
493.005	0.0155371
493.084	0.0155459
493.162	0.0156099
493.240	0.0156259
493.318	0.0156191
493.396	0.0155810
493.474	0.0154853
493.552	0.0154949
493.630	0.0155614
493.709	0.0156099
493.787	0.0155235
493.865	0.0154601
493.943	0.0154443
494.021	0.0156685
494.099	0.0156753
494.177	0.0155274
494.255	0.0153934
494.334	0.0155867
494.412	0.0154405
494.490	0.0154349
494.568	0.0154443
494.646	0.0155228
494.724	0.0154795
494.802	0.0154747
494.880	0.0155273
494.959	0.0153990
495.037	0.0153536
495.115	0.0154015
495.193	0.0153506
495.271	0.0154744
495.349	0.0154452
495.427	0.0155496
495.505	0.0153886
495.584	0.0152753
495.662	0.0155173
495.740	0.0154930
495.818	0.0154684
495.896	0.0153256
495.974	0.0154539
496.052	0.0155792
496.130	0.0155439
496.209	0.0154868
496.287	0.0154199
496.365	0.0153072
496.443	0.0155060
496.521	0.0155220
496.599	0.0154788
496.677	0.0155380
496.755	0.0154092
496.834	0.0154298
496.912	0.0154102
496.990	0.0153529
497.068	0.0156220
497.146	0.0156147
497.224	0.0154448
497.302	0.0154404
497.380	0.0155396
497.459	0.0153946
497.537	0.0154427
497.615	0.0155042
497.693	0.0154197
497.771	0.0154740
497.849	0.0154826
497.927	0.0153308
498.005	0.0155027
498.084	0.0153664
498.162	0.0154384
498.240	0.0154585
498.318	0.0154778
498.396	0.0154153
498.474	0.0155280
498.552	0.0153502
498.630	0.0155528
498.709	0.0154834
498.787	0.0153532
498.865	0.0154911
498.943	0.0155051
499.021	0.0155589
499.099	0.0154520
499.177	0.0154339
499.255	0.0154336
499.334	0.0153976
499.412	0.0155695
499.490	0.0154993
499.568	0.0154775
499.646	0.0155167
499.724	0.0154724
499.802	0.0153508
499.880	0.0154874
499.959	0.0153417
500.037	0.0153938
500.115	0.0155005
500.193	0.0154714
500.271	0.0153000
500.349	0.0155274
500.427	0.0155116
500.505	0.0155013
500.584	0.0154913
500.662	0.0153997
500.740	0.0154431
500.818	0.0153961
500.896	0.0154127
500.974	0.0156569
501.052	0.0156241
501.130	0.0154465
501.209	0.0154346
501.287	0.0155060
501.365	0.0155186
501.443	0.0155627
501.521	0.0157141
501.599	0.0153628
501.677	0.0154830
501.755	0.0155056
501.834	0.0155835
501.912	0.0155043
501.990	0.0155299
502.068	0.0154998
502.146	0.0155759
502.224	0.0155373
502.302	0.0154981
502.380	0.0153963
502.459	0.0155984
502.537	0.0156025
502.615	0.0154792
502.693	0.0156449
502.771	0.0156422
502.849	0.0154579
502.927	0.0155759
503.005	0.0155842
503.084	0.0155643
503.162	0.0155137
503.240	0.0154503
503.318	0.0154920
503.396	0.0156661
503.474	0.0154932
503.552	0.0155070
503.630	0.0155003
503.709	0.0153993
503.787	0.0154298
503.865	0.0155594
503.943	0.0155297
504.021	0.0154974
504.099	0.0154443
504.177	0.0155038
504.255	0.0155322
504.334	0.0156207
504.412	0.0155431
504.490	0.0154808
504.568	0.0154203
504.646	0.0155385
504.724	0.0154517
504.802	0.0154028
504.880	0.0153963
504.959	0.0156245
505.037	0.0154985
505.115	0.0154549
505.193	0.0154223
505.271	0.0154694
505.349	0.0154955
505.427	0.0155006
505.505	0.0154727
505.584	0.0154433
505.662	0.0154770
505.740	0.0154677
505.818	0.0155455
505.896	0.0155984
505.974	0.0154964
506.052	0.0156812
506.130	0.0154060
506.209	0.0154585
506.287	0.0155685
506.365	0.0154910
506.443	0.0155345
506.521	0.0154852
506.599	0.0155932
506.677	0.0155545
506.755	0.0154726
506.834	0.0154373
506.912	0.0154990
506.990	0.0154842
507.068	0.0154511
507.146	0.0155238
507.224	0.0157110
507.302	0.0156316
507.380	0.0154901
507.459	0.0154212
507.537	0.0156415
507.615	0.0155658
507.693	0.0153487
507.771	0.0156316
507.849	0.0155034
507.927	0.0155030
508.005	0.0155756
508.084	0.0154618
508.162	0.0155818
508.240	0.0156680
508.318	0.0156318
508.396	0.0154647
508.474	0.0154811
508.552	0.0154549
508.630	0.0155646
508.709	0.0155358
508.787	0.0155273
508.865	0.0155256
508.943	0.0155798
509.021	0.0154367
509.099	0.0154475
509.177	0.0154900
509.255	0.0155383
509.334	0.0155481
509.412	0.0155431
509.490	0.0154539
509.568	0.0152614
509.646	0.0154803
509.724	0.0154901
509.802	0.0155922
509.880	0.0153613
509.959	0.0155582
510.037	0.0155206
510.115	0.0153576
510.193	0.0154484
510.271	0.0155096
510.349	0.0154166
510.427	0.0154512
510.505	0.0153311
510.584	0.0154955
510.662	0.0155257
510.740	0.0155135
510.818	0.0154551
510.896	0.0152789
510.974	0.0155195
511.052	0.0155869
511.130	0.0154801
511.209	0.0155323
511.287	0.0155128
511.365	0.0154581
511.443	0.0154860
511.521	0.0155048
511.599	0.0154830
511.677	0.0155533
511.755	0.0155337
511.834	0.0154912
511.912	0.0155330
511.990	0.0153735
512.068	0.0155402
512.146	0.0154935
512.224	0.0155415
512.302	0.0155177
512.380	0.0155006
512.459	0.0153841
512.537	0.0155190
512.615	0.0155447
512.693	0.0155170
512.771	0.0155717
512.849	0.0155408
512.927	0.0155082
513.005	0.0154787
513.084	0.0154755
513.162	0.0155451
513.240	0.0155134
513.318	0.0156390
513.396	0.0155528
513.474	0.0154749
513.552	0.0154432
513.630	0.0154615
513.709	0.0154873
513.787	0.0155454
513.865	0.0154422
513.943	0.0155638
514.021	0.0154589
514.099	0.0154138
514.177	0.0154527
514.255	0.0155343
514.334	0.0153558
514.412	0.0155531
514.490	0.0155687
514.568	0.0155159
514.646	0.0156212
514.724	0.0154292
514.802	0.0155473
514.880	0.0154903
514.959	0.0154971
515.037	0.0154778
515.115	0.0154900
515.193	0.0155002
515.271	0.0155650
515.349	0.0155431
515.427	0.0155499
515.505	0.0155256
515.584	0.0153791
515.662	0.0155508
515.740	0.0155043
515.818	0.0155054
515.896	0.0155157
515.974	0.0155444
516.052	0.0155179
516.130	0.0155196
516.209	0.0155747
516.287	0.0153722
516.365	0.0154577
516.443	0.0154439
516.521	0.0154912
516.599	0.0154731
516.677	0.0154104
516.755	0.0155202
516.834	0.0154865
516.912	0.0155374
516.990	0.0153682
517.068	0.0153251
517.146	0.0155300
517.224	0.0154227
517.302	0.0155347
517.380	0.0155934
517.459	0.0155957
517.537	0.0153610
517.615	0.0153690
517.693	0.0154924
517.771	0.0155051
517.849	0.0154189
517.927	0.0155236
518.005	0.0154790
518.084	0.0154179
518.162	0.0155460
518.240	0.0154549
518.318	0.0154235
518.396	0.0154314
518.474	0.0153159
518.552	0.0154571
518.630	0.0154735
518.709	0.0155284
518.787	0.0154842
518.865	0.0152852
518.943	0.0154507
519.021	0.0155454
519.099	0.0154905
519.177	0.0154456
519.255	0.0155111
519.334	0.0154280
519.412	0.0155658
519.490	0.0154011
519.568	0.0153743
519.646	0.0154028
519.724	0.0155314
519.802	0.0156091
519.880	0.0154229
519.959	0.0154983
520.037	0.0153436
520.115	0.0155994
520.193	0.0153912
520.271	0.0154329
520.349	0.0154697
520.427	0.0155017
520.505	0.0154974
520.584	0.0153624
520.662	0.0154801
520.740	0.0154993
520.818	0.0155388
520.896	0.0155190
520.974	0.0154675
521.052	0.0155914
521.130	0.0154769
521.209	0.0153511
521.287	0.0154403
521.365	0.0154850
521.443	0.0155025
521.521	0.0154874
521.599	0.0154781
521.677	0.0155950
521.755	0.0155293
521.834	0.0155434
521.912	0.0154701
521.990	0.0155799
522.068	0.0155373
522.146	0.0154042
522.224	0.0154811
522.302	0.0154812
522.380	0.0155692
522.459	0.0154729
522.537	0.0154494
522.615	0.0154823
522.693	0.0156184
522.771	0.0154736
522.849	0.0155094
522.927	0.0155073
523.005	0.0154639
523.084	0.0155701
523.162	0.0155579
523.240	0.0155865
523.318	0.0154743
523.396	0.0155504
523.474	0.0153967
523.552	0.0155838
523.630	0.0155949
523.709	0.0154001
523.787	0.0156211
523.865	0.0154896
523.943	0.0154622
524.021	0.0154436
524.099	0.0155005
524.177	0.0154751
524.255	0.0155264
524.334	0.0154752
524.412	0.0156429
524.490	0.0155593
524.568	0.0155796
524.646	0.0154736
524.724	0.0155257
524.802	0.0155875
524.880	0.0155638
524.959	0.0154463
525.037	0.0155284
525.115	0.0155471
525.193	0.0154638
525.271	0.0153922
525.349	0.0155010
525.427	0.0155922
525.505	0.0155685
525.584	0.0155831
525.662	0.0154970
525.740	0.0155524
525.818	0.0155380
525.896	0.0155180
525.974	0.0153936
526.052	0.0155878
526.130	0.0155055
526.209	0.0154110
526.287	0.0155937
526.365	0.0155661
526.443	0.0154452
526.521	0.0154068
526.599	0.0156615
526.677	0.0154978
526.755	0.0153383
526.834	0.0154918
526.912	0.0155621
526.990	0.0155257
527.068	0.0155400
527.146	0.0154970
527.224	0.0155046
527.302	0.0154951
527.380	0.0155521
527.459	0.0153759
527.537	0.0154847
527.615	0.0153957
527.693	0.0154391
527.771	0.0155885
527.849	0.0155209
527.927	0.0153651
528.005	0.0153207
528.084	0.0154134
528.162	0.0156015
528.240	0.0154175
528.318	0.0154452
528.396	0.0155455
528.474	0.0156844
528.552	0.0155205
528.630	0.0154189
528.709	0.0154441
528.787	0.0155169
528.865	0.0156475
528.943	0.0154442
529.021	0.0155824
529.099	0.0155460
529.177	0.0155451
529.255	0.0155350
529.334	0.0155775
529.412	0.0156100
529.490	0.0155840
529.568	0.0155695
529.646	0.0153471
529.724	0.0155326
529.802	0.0155432
529.880	0.0154509
529.959	0.0155041
530.037	0.0155258
530.115	0.0155360
530.193	0.0156300
530.271	0.0154715
530.349	0.0154740
530.427	0.0154033
530.505	0.0154816
530.584	0.0155457
530.662	0.0154236
530.740	0.0157340
530.818	0.0154930
530.896	0.0155705
530.974	0.0154518
531.052	0.0155889
531.130	0.0155051
531.209	0.0155145
531.287	0.0155996
531.365	0.0154336
531.443	0.0154639
531.521	0.0155399
531.599	0.0156258
531.677	0.0154772
531.755	0.0153884
531.834	0.0155051
531.912	0.0155704
531.990	0.0156307
532.068	0.0156651
532.146	0.0154431
532.224	0.0155785
532.302	0.0154964
532.380	0.0155267
532.459	0.0154328
532.537	0.0155296
532.615	0.0154896
532.693	0.0154770
532.771	0.0156109
532.849	0.0154691
532.927	0.0155757
533.005	0.0156147
533.084	0.0155219
533.162	0.0155717
533.240	0.0153706
533.318	0.0154041
533.396	0.0155178
533.474	0.0155505
533.552	0.0155083
533.630	0.0154186
533.709	0.0155579
533.787	0.0154517
533.865	0.0154868
533.943	0.0155540
534.021	0.0154948
534.099	0.0154260
534.177	0.0155019
534.255	0.0155131
534.334	0.0154479
534.412	0.0153857
534.490	0.0155415
534.568	0.0156146
534.646	0.0154886
534.724	0.0154561
534.802	0.0156105
534.880	0.0155016
534.959	0.0154789
535.037	0.0155499
535.115	0.0154101
535.193	0.0154382
535.271	0.0155305
535.349	0.0154340
535.427	0.0154269
535.505	0.0154219
535.584	0.0156083
535.662	0.0155243
535.740	0.0154961
535.818	0.0154816
535.896	0.0153793
535.974	0.0155920
536.052	0.0155090
536.130	0.0155337
536.209	0.0154278
536.287	0.0154424
536.365	0.0154884
536.443	0.0157362
536.521	0.0155100
536.599	0.0155151
536.677	0.0154456
536.755	0.0156276
536.834	0.0156831
536.912	0.0153963
536.990	0.0155235
537.068	0.0155816
537.146	0.0155798
537.224	0.0155259
537.302	0.0154005
537.380	0.0155595
537.459	0.0153744
537.537	0.0154618
537.615	0.0154000
537.693	0.0154976
537.771	0.0156251
537.849	0.0154723
537.927	0.0153645
538.005	0.0153664
538.084	0.0153679
538.162	0.0155310
538.240	0.0154377
538.318	0.0153764
538.396	0.0153821
538.474	0.0155062
538.552	0.0155177
538.630	0.0155629
538.709	0.0155717
538.787	0.0153581
538.865	0.0155116
538.943	0.0154881
539.021	0.0153735
539.099	0.0154652
539.177	0.0154453
539.255	0.0154775
539.334	0.0154358
539.412	0.0155611
539.490	0.0154649
539.568	0.0155173
539.646	0.0153793
539.724	0.0153483
539.802	0.0155541
539.880	0.0156944
539.959	0.0154764
540.037	0.0154237
540.115	0.0154546
540.193	0.0153500
540.271	0.0154412
540.349	0.0154237
540.427	0.0154452
540.505	0.0155257
540.584	0.0155160
540.662	0.0154745
540.740	0.0155122
540.818	0.0155166
540.896	0.0155450
540.974	0.0155771
541.052	0.0154781
541.130	0.0155190
541.209	0.0155493
541.287	0.0154153
541.365	0.0155272
541.443	0.0155532
541.521	0.0155424
541.599	0.0154655
541.677	0.0155703
541.755	0.0155645
541.834	0.0156214
541.912	0.0155733
541.990	0.0156431
542.068	0.0156679
542.146	0.0154570
542.224	0.0154326
542.302	0.0155398
542.380	0.0155101
542.459	0.0156323
542.537	0.0155806
542.615	0.0154758
542.693	0.0154848
542.771	0.0155007
542.849	0.0155399
542.927	0.0155074
543.005	0.0156206
543.084	0.0155176
543.162	0.0156017
543.240	0.0155148
543.318	0.0154164
543.396	0.0154468
543.474	0.0155415
543.552	0.0155749
543.630	0.0155620
543.709	0.0155640
543.787	0.0156095
543.865	0.0155445
543.943	0.0154426
544.021	0.0154475
544.099	0.0155321
544.177	0.0155475
544.255	0.0154684
544.334	0.0155797
544.412	0.0154456
544.490	0.0154595
544.568	0.0155750
544.646	0.0155734
544.724	0.0155563
544.802	0.0155490
544.880	0.0155065
544.959	0.0154654
545.037	0.0154079
545.115	0.0155766
545.193	0.0153922
545.271	0.0155185
545.349	0.0156588
545.427	0.0153978
545.505	0.0155856
545.584	0.0154214
545.662	0.0154544
545.740	0.0154976
545.818	0.0155170
545.896	0.0154604
545.974	0.0153913
546.052	0.0154899
546.130	0.0155309
546.209	0.0153620
546.287	0.0154609
546.365	0.0155627
546.443	0.0155096
546.521	0.0154079
546.599	0.0154462
546.677	0.0154277
546.755	0.0153908
546.834	0.0154897
546.912	0.0155302
546.990	0.0154798
547.068	0.0155231
547.146	0.0154414
547.224	0.0155004
547.302	0.0154440
547.380	0.0154827
547.459	0.0154664
547.537	0.0154566
547.615	0.0155390
547.693	0.0153932
547.771	0.0153820
547.849	0.0154091
547.927	0.0154798
548.005	0.0153884
548.084	0.0154795
548.162	0.0154934
548.240	0.0155540
548.318	0.0155713
548.396	0.0153217
548.474	0.0155710
548.552	0.0154468
548.630	0.0155219
548.709	0.0155924
548.787	0.0154333
548.865	0.0155656
548.943	0.0155331
549.021	0.0156461
549.099	0.0153780
549.177	0.0155447
549.255	0.0156308
549.334	0.0155252
549.412	0.0154307
549.490	0.0155789
549.568	0.0155170
549.646	0.0155275
549.724	0.0155815
549.802	0.0154549
549.880	0.0156463
549.959	0.0154638
550.037	0.0155739
550.115	0.0156944
550.193	0.0154978
550.271	0.0155367
550.349	0.0156183
550.427	0.0155805
550.505	0.0155422
550.584	0.0157233
550.662	0.0156361
550.740	0.0154907
550.818	0.0155379
550.896	0.0155542
550.974	0.0156738
551.052	0.0157429
551.130	0.0155280
551.209	0.0155895
551.287	0.0156212
551.365	0.0155214
551.443	0.0154546
551.521	0.0155817
551.599	0.0156063
551.677	0.0155145
551.755	0.0155444
551.834	0.0155631
551.912	0.0155280
551.990	0.0156040
552.068	0.0154937
552.146	0.0155220
552.224	0.0155176
552.302	0.0155293
552.380	0.0154965
552.459	0.0154816
552.537	0.0156339
552.615	0.0155245
552.693	0.0155215
552.771	0.0154917
552.849	0.0155177
552.927	0.0154793
553.005	0.0155377
553.084	0.0155708
553.162	0.0154798
553.240	0.0155335
553.318	0.0154956
553.396	0.0154720
553.474	0.0154412
553.552	0.0155888
553.630	0.0155419
553.709	0.0155623
553.787	0.0155636
553.865	0.0155230
553.943	0.0154526
554.021	0.0156345
554.099	0.0155616
554.177	0.0157205
554.255	0.0155996
554.334	0.0154448
554.412	0.0155406
554.490	0.0155579
554.568	0.0155047
554.646	0.0156004
554.724	0.0155383
554.802	0.0155074
554.880	0.0154409
554.959	0.0153545
555.037	0.0154845
555.115	0.0155846
555.193	0.0155135
555.271	0.0155999
555.349	0.0156028
555.427	0.0154928
555.505	0.0156279
555.584	0.0154833
555.662	0.0155875
555.740	0.0155418
555.818	0.0155486
555.896	0.0155702
555.974	0.0154675
556.052	0.0155568
556.130	0.0154764
556.209	0.0154839
556.287	0.0155087
556.365	0.0156193
556.443	0.0154926
556.521	0.0154937
556.599	0.0156516
556.677	0.0155022
556.755	0.0155285
556.834	0.0155389
556.912	0.0155309
556.990	0.0156601
557.068	0.0155280
557.146	0.0155569
557.224	0.0155019
557.302	0.0156271
557.380	0.0155405
557.459	0.0156461
557.537	0.0155782
557.615	0.0156205
557.693	0.0153974
557.771	0.0154769
557.849	0.0156173
557.927	0.0155713
558.005	0.0156217
558.084	0.0155927
558.162	0.0155869
558.240	0.0156331
558.318	0.0156722
558.396	0.0155346
558.474	0.0155193
558.552	0.0155309
558.630	0.0155081
558.709	0.0155638
558.787	0.0155966
558.865	0.0154205
558.943	0.0154642
559.021	0.0155569
559.099	0.0156041
559.177	0.0154861
559.255	0.0154395
559.334	0.0155666
559.412	0.0154245
559.490	0.0155826
559.568	0.0155621
559.646	0.0155055
559.724	0.0155766
559.802	0.0155703
559.880	0.0154747
559.959	0.0154816
560.037	0.0153953
560.115	0.0153841
560.193	0.0155591
560.271	0.0155817
560.349	0.0154799
560.427	0.0154585
560.505	0.0154919
560.584	0.0153902
560.662	0.0154221
560.740	0.0155979
560.818	0.0155872
560.896	0.0154887
560.974	0.0154319
561.052	0.0154638
561.130	0.0153979
561.209	0.0154444
561.287	0.0156345
561.365	0.0154624
561.443	0.0154548
561.521	0.0154305
561.599	0.0155268
561.677	0.0154507
561.755	0.0154047
561.834	0.0154314
561.912	0.0154227
561.990	0.0154823
562.068	0.0156326
562.146	0.0154982
562.224	0.0155201
562.302	0.0154554
562.380	0.0155242
562.459	0.0155466
562.537	0.0155035
562.615	0.0154371
562.693	0.0153634
562.771	0.0154316
562.849	0.0154766
562.927	0.0155914
563.005	0.0154549
563.084	0.0155692
563.162	0.0154908
563.240	0.0154309
563.318	0.0154636
563.396	0.0155910
563.474	0.0154343
563.552	0.0155605
563.630	0.0154782
563.709	0.0155150
563.787	0.0153999
563.865	0.0155119
563.943	0.0155084
564.021	0.0155733
564.099	0.0153616
564.177	0.0154984
564.255	0.0155958
564.334	0.0155457
564.412	0.0155427
564.490	0.0155532
564.568	0.0155025
564.646	0.0154088
564.724	0.0153308
564.802	0.0156168
564.880	0.0155286
564.959	0.0155666
565.037	0.0155837
565.115	0.0155816
565.193	0.0155817
565.271	0.0153661
565.349	0.0155045
565.427	0.0154884
565.505	0.0154921
565.584	0.0154454
565.662	0.0154384
565.740	0.0154620
565.818	0.0155225
565.896	0.0153741
565.974	0.0155357
566.052	0.0154576
566.130	0.0154624
566.209	0.0154872
566.287	0.0154760
566.365	0.0153925
566.443	0.0153428
566.521	0.0154666
566.599	0.0155672
566.677	0.0154838
566.755	0.0154921
566.834	0.0153683
566.912	0.0153822
566.990	0.0155338
567.068	0.0154343
567.146	0.0154034
567.224	0.0154137
567.302	0.0153023
567.380	0.0154457
567.459	0.0154857
567.537	0.0156461
567.615	0.0155968
567.693	0.0154461
567.771	0.0155462
567.849	0.0155316
567.927	0.0154378
568.005	0.0155180
568.084	0.0154350
568.162	0.0153847
568.240	0.0154015
568.318	0.0155388
568.396	0.0154541
568.474	0.0155531
568.552	0.0155731
568.630	0.0155356
568.709	0.0155309
568.787	0.0154877
568.865	0.0155709
568.943	0.0155708
569.021	0.0154077
569.099	0.0154239
569.177	0.0155296
569.255	0.0155312
569.334	0.0154131
569.412	0.0156184
569.490	0.0155435
569.568	0.0154411
569.646	0.0154704
569.724	0.0155786
569.802	0.0155820
569.880	0.0154132
569.959	0.0155175
570.037	0.0154660
570.115	0.0156571
570.193	0.0156094
570.271	0.0155219
570.349	0.0156309
570.427	0.0154980
570.505	0.0153673
570.584	0.0154998
570.662	0.0155336
570.740	0.0155278
570.818	0.0155667
570.896	0.0155192
570.974	0.0154771
571.052	0.0155966
571.130	0.0154253
571.209	0.0154189
571.287	0.0155343
571.365	0.0156158
571.443	0.0155452
571.521	0.0154714
571.599	0.0155496
571.677	0.0156784
571.755	0.0154935
571.834	0.0154963
571.912	0.0154315
571.990	0.0154781
572.068	0.0155962
572.146	0.0155664
572.224	0.0154771
572.302	0.0154239
572.380	0.0155920
572.459	0.0154829
572.537	0.0156231
572.615	0.0155556
572.693	0.0155091
572.771	0.0155785
572.849	0.0155790
572.927	0.0155964
573.005	0.0154707
573.084	0.0155190
573.162	0.0155866
573.240	0.0154926
573.318	0.0155519
573.396	0.0155944
573.474	0.0156709
573.552	0.0156741
573.630	0.0154137
573.709	0.0154725
573.787	0.0155654
573.865	0.0155158
573.943	0.0155081
574.021	0.0155325
574.099	0.0154659
574.177	0.0154925
574.255	0.0154606
574.334	0.0154787
574.412	0.0155885
574.490	0.0154993
574.568	0.0154456
574.646	0.0155041
574.724	0.0153998
574.802	0.0155698
574.880	0.0155175
574.959	0.0154051
575.037	0.0153841
575.115	0.0155696
575.193	0.0155998
575.271	0.0154085
575.349	0.0153889
575.427	0.0155061
575.505	0.0154867
575.584	0.0154201
575.662	0.0155260
575.740	0.0154411
575.818	0.0154617
575.896	0.0154731
575.974	0.0156229
576.052	0.0154867
576.130	0.0155262
576.209	0.0154742
576.287	0.0154430
576.365	0.0154422
576.443	0.0154348
576.521	0.0154723
576.599	0.0154593
576.677	0.0154358
576.755	0.0154355
576.834	0.0156324
576.912	0.0154988
576.990	0.0154871
577.068	0.0154823
577.146	0.0155522
577.224	0.0154265
577.302	0.0155012
577.380	0.0154890
577.459	0.0155959
577.537	0.0153914
577.615	0.0153695
577.693	0.0155339
577.771	0.0154682
577.849	0.0155200
577.927	0.0155352
578.005	0.0154487
578.084	0.0154578
578.162	0.0154410
578.240	0.0155992
578.318	0.0156371
578.396	0.0154079
578.474	0.0154383
578.552	0.0155304
578.630	0.0155892
578.709	0.0155058
578.787	0.0154579
578.865	0.0155190
578.943	0.0156257
579.021	0.0155910
579.099	0.0155297
579.177	0.0155714
579.255	0.0154419
579.334	0.0155711
579.412	0.0154816
579.490	0.0155930
579.568	0.0157089
579.646	0.0155860
579.724	0.0156846
579.802	0.0156184
579.880	0.0155257
579.959	0.0154836
580.037	0.0154745
580.115	0.0156123
580.193	0.0155847
580.271	0.0155448
580.349	0.0155790
580.427	0.0155293
580.505	0.0155341
580.584	0.0155157
580.662	0.0155219
580.740	0.0155906
580.818	0.0154991
580.896	0.0154217
580.974	0.0155553
581.052	0.0154549
581.130	0.0155463
581.209	0.0154628
581.287	0.0155392
581.365	0.0154089
581.443	0.0155288
581.521	0.0154922
581.599	0.0154903
581.677	0.0155116
581.755	0.0155234
581.834	0.0155993
581.912	0.0154907
581.990	0.0155215
582.068	0.0154672
582.146	0.0156402
582.224	0.0153830
582.302	0.0153504
582.380	0.0154436
582.459	0.0152831
582.537	0.0153651
582.615	0.0154391
582.693	0.0154231
582.771	0.0153519
582.849	0.0154710
582.927	0.0153848
583.005	0.0153819
583.084	0.0153797
583.162	0.0155531
583.240	0.0155283
583.318	0.0154409
583.396	0.0153809
583.474	0.0154337
583.552	0.0154741
583.630	0.0154810
583.709	0.0154551
583.787	0.0153865
583.865	0.0154555
583.943	0.0156329
584.021	0.0154257
584.099	0.0155333
584.177	0.0155286
584.255	0.0154308
584.334	0.0153596
584.412	0.0155003
584.490	0.0155581
584.568	0.0155771
584.646	0.0153573
584.724	0.0154303
584.802	0.0155306
584.880	0.0154468
584.959	0.0154304
585.037	0.0155184
585.115	0.0156706
585.193	0.0154799
585.271	0.0155511
585.349	0.0155828
585.427	0.0155607
585.505	0.0155698
585.584	0.0154092
585.662	0.0154083
585.740	0.0156039
585.818	0.0154977
585.896	0.0154606
585.974	0.0155403
586.052	0.0154200
586.130	0.0154144
586.209	0.0155179
586.287	0.0154781
586.365	0.0154274
586.443	0.0154946
586.521	0.0155960
586.599	0.0155197
586.677	0.0154321
586.755	0.0155266
586.834	0.0155110
586.912	0.0155251
586.990	0.0154559
587.068	0.0155828
587.146	0.0156214
587.224	0.0155064
587.302	0.0154349
587.380	0.0155714
587.459	0.0156388
587.537	0.0155552
587.615	0.0154642
587.693	0.0154637
587.771	0.0155624
587.849	0.0154983
587.927	0.0154665
588.005	0.0155075
588.084	0.0155966
588.162	0.0154729
588.240	0.0155702
588.318	0.0155589
588.396	0.0155972
588.474	0.0155541
588.552	0.0154518
588.630	0.0155370
588.709	0.0155288
588.787	0.0154263
588.865	0.0154914
588.943	0.0157436
589.021	0.0155756
589.099	0.0155518
589.177	0.0155325
589.255	0.0155169
589.334	0.0154589
589.412	0.0155209
589.490	0.0155797
589.568	0.0155765
589.646	0.0153663
589.724	0.0153824
589.802	0.0154733
589.880	0.0154604
589.959	0.0155877
590.037	0.0155955
590.115	0.0156125
590.193	0.0155999
590.271	0.0156032
590.349	0.0155082
590.427	0.0155193
590.505	0.0155527
590.584	0.0154439
590.662	0.0155323
590.740	0.0155137
590.818	0.0154227
590.896	0.0154017
590.974	0.0154719
591.052	0.0154330
591.130	0.0155489
591.209	0.0154000
591.287	0.0156148
591.365	0.0155168
591.443	0.0154001
591.521	0.0154092
591.599	0.0154385
591.677	0.0153947
591.755	0.0156418
591.834	0.0155372
591.912	0.0155027
591.990	0.0154827
592.068	0.0154815
592.146	0.0154678
592.224	0.0155768
592.302	0.0154949
592.380	0.0154703
592.459	0.0155401
592.537	0.0155045
592.615	0.0154850
592.693	0.0152984
592.771	0.0152059
592.849	0.0154263
592.927	0.0154426
593.005	0.0154015
593.084	0.0155906
593.162	0.0153812
593.240	0.0153242
593.318	0.0154515
593.396	0.0155189
593.474	0.0154041
593.552	0.0154360
593.630	0.0154350
593.709	0.0154499
593.787	0.0154867
593.865	0.0154352
593.943	0.0153199
594.021	0.0154761
594.099	0.0154110
594.177	0.0155127
594.255	0.0154559
594.334	0.0154227
594.412	0.0155006
594.490	0.0154696
594.568	0.0155280
594.646	0.0153859
594.724	0.0154404
594.802	0.0155087
594.880	0.0155622
594.959	0.0155611
595.037	0.0154768
595.115	0.0155298
595.193	0.0155703
595.271	0.0154410
595.349	0.0154496
595.427	0.0153694
595.505	0.0154941
595.584	0.0155986
595.662	0.0154746
595.740	0.0154710
595.818	0.0153255
595.896	0.0154949
595.974	0.0156006
596.052	0.0153735
596.130	0.0155618
596.209	0.0155220
596.287	0.0156754
596.365	0.0155841
596.443	0.0154536
596.521	0.0155907
596.599	0.0155843
596.677	0.0154333
596.755	0.0155286
596.834	0.0153192
596.912	0.0154724
596.990	0.0156094
597.068	0.0154516
597.146	0.0155910
597.224	0.0154496
597.302	0.0154689
597.380	0.0155114
597.459	0.0153921
597.537	0.0153708
597.615	0.0153696
597.693	0.0153187
597.771	0.0155816
597.849	0.0155164
597.927	0.0153552
598.005	0.0155768
598.084	0.0154742
598.162	0.0154660
598.240	0.0154705
598.318	0.0153902
598.396	0.0154362
598.474	0.0154858
598.552	0.0155315
598.630	0.0154604
598.709	0.0155096
598.787	0.0156366
598.865	0.0155546
598.943	0.0153968
599.021	0.0155761
599.099	0.0155675
599.177	0.0155185
599.255	0.0154289
599.334	0.0154469
599.412	0.0155479
599.490	0.0155466
599.568	0.0155762
599.646	0.0156120
599.724	0.0156303
599.802	0.0155286
599.880	0.0156007
599.959	0.0155390
600.037	0.0155015
600.115	0.0155741
600.193	0.0155285
600.271	0.0156426
600.349	0.0156735
600.427	0.0155937
600.505	0.0156014
600.584	0.0155820
600.662	0.0155261
600.740	0.0155890
600.818	0.0154926
600.896	0.0154742
600.974	0.0153897
601.052	0.0156669
601.130	0.0156007
601.209	0.0156035
601.287	0.0155677
601.365	0.0155677
601.443	0.0155339
601.521	0.0156799
601.599	0.0155994
601.677	0.0154076
601.755	0.0154907
601.834	0.0155277
601.912	0.0155903
601.990	0.0153975
602.068	0.0154702
602.146	0.0155004
602.224	0.0154922
602.302	0.0155868
602.380	0.0155153
602.459	0.0155840
602.537	0.0155209
602.615	0.0154588
602.693	0.0154183
602.771	0.0153816
602.849	0.0155189
602.927	0.0153741
603.005	0.0155145
603.084	0.0155920
603.162	0.0154569
603.240	0.0154017
603.318	0.0155040
603.396	0.0156527
603.474	0.0154810
603.552	0.0155130
603.630	0.0154979
603.709	0.0153950
603.787	0.0154720
603.865	0.0156110
603.943	0.0153951
604.021	0.0154145
604.099	0.0155334
604.177	0.0156221
604.255	0.0155939
604.334	0.0154258
604.412	0.0155621
604.490	0.0154485
604.568	0.0154076
604.646	0.0155729
604.724	0.0154248
604.802	0.0155132
604.880	0.0155621
604.959	0.0154434
605.037	0.0154363
605.115	0.0153583
605.193	0.0154496
605.271	0.0156451
605.349	0.0154803
605.427	0.0154884
605.505	0.0155849
605.584	0.0155117
605.662	0.0154509
605.740	0.0155067
605.818	0.0155315
605.896	0.0155822
605.974	0.0155977
606.052	0.0153479
606.130	0.0154157
606.209	0.0155789
606.287	0.0153886
606.365	0.0154877
606.443	0.0154245
606.521	0.0153796
606.599	0.0154613
606.677	0.0154898
606.755	0.0153945
606.834	0.0154674
606.912	0.0154418
606.990	0.0154139
607.068	0.0155545
607.146	0.0155003
607.224	0.0154638
607.302	0.0153773
607.380	0.0154649
607.459	0.0156557
607.537	0.0153109
607.615	0.0153028
607.693	0.0154048
607.771	0.0153759
607.849	0.0154359
607.927	0.0154723
608.005	0.0155142
608.084	0.0155323
608.162	0.0153553
608.240	0.0151394
608.318	0.0152408
608.396	0.0154713
608.474	0.0153467
608.552	0.0151957
608.630	0.0152560
608.709	0.0152682
608.787	0.0153358
608.865	0.0153973
608.943	0.0152109
609.021	0.0153722
609.099	0.0155811
609.177	0.0155446
609.255	0.0156400
609.334	0.0158894
609.412	0.0160455
609.490	0.0160474
609.568	0.0162710
609.646	0.0162025
609.724	0.0163244
609.802	0.0164156
609.880	0.0164497
609.959	0.0165110
610.037	0.0164909
610.115	0.0164915
610.193	0.0163794
610.271	0.0162103
610.349	0.0162957
610.427	0.0163837
610.505	0.0161990
610.584	0.0161362
610.662	0.0161235
610.740	0.0158660
610.818	0.0158562
610.896	0.0156853
610.974	0.0155673
611.052	0.0153756
611.130	0.0152812
611.209	0.0152194
611.287	0.0151796
611.365	0.0151585
611.443	0.0151160
611.521	0.0151202
611.599	0.0149097
611.677	0.0149163
611.755	0.0149009
611.834	0.0149476
611.912	0.0150004
611.990	0.0149817
612.068	0.0149681
612.146	0.0149157
612.224	0.0150507
612.302	0.0151476
612.380	0.0153017
612.459	0.0151859
612.537	0.0151284
612.615	0.0153143
612.693	0.0151949
612.771	0.0152447
612.849	0.0154649
612.927	0.0153577
613.005	0.0152568
613.084	0.0153914
613.162	0.0153628
613.240	0.0153175
613.318	0.0152380
613.396	0.0153849
613.474	0.0153638
613.552	0.0153587
613.630	0.0152288
613.709	0.0153944
613.787	0.0151952
613.865	0.0152889
613.943	0.0151614
614.021	0.0153924
614.099	0.0152867
614.177	0.0154468
614.255	0.0152911
614.334	0.0154027
614.412	0.0154440
614.490	0.0154274
614.568	0.0152677
614.646	0.0155446
614.724	0.0154723
614.802	0.0153545
614.880	0.0153130
614.959	0.0154048
615.037	0.0154894
615.115	0.0154137
615.193	0.0154121
615.271	0.0154916
615.349	0.0154769
615.427	0.0155154
615.505	0.0154295
615.584	0.0153953
615.662	0.0155936
615.740	0.0154323
615.818	0.0154340
615.896	0.0153111
615.974	0.0154774
616.052	0.0154951
616.130	0.0154880
616.209	0.0155833
616.287	0.0154849
616.365	0.0154697
616.443	0.0154804
616.521	0.0154243
616.599	0.0155363
616.677	0.0155072
616.755	0.0156084
616.834	0.0154211
616.912	0.0154308
616.990	0.0154756
617.068	0.0155179
617.146	0.0155802
617.224	0.0154858
617.302	0.0155616
617.380	0.0155286
617.459	0.0155083
617.537	0.0154922
617.615	0.0155770
617.693	0.0156818
617.771	0.0154427
617.849	0.0155715
617.927	0.0155404
618.005	0.0156842
618.084	0.0155650
618.162	0.0154703
618.240	0.0155496
618.318	0.0156495
618.396	0.0155274
618.474	0.0154874
618.552	0.0155520
618.630	0.0155689
618.709	0.0154417
618.787	0.0156656
618.865	0.0155731
618.943	0.0154022
619.021	0.0156261
619.099	0.0155729
619.177	0.0153770
619.255	0.0155855
619.334	0.0156415
619.412	0.0154990
619.490	0.0154774
619.568	0.0154983
619.646	0.0155148
619.724	0.0156029
619.802	0.0156107
619.880	0.0155927
619.959	0.0156712
620.037	0.0155490
620.115	0.0156396
620.193	0.0155058
620.271	0.0155715
620.349	0.0156050
620.427	0.0155447
620.505	0.0154956
620.584	0.0155829
620.662	0.0155569
620.740	0.0154778
620.818	0.0154800
620.896	0.0154510
620.974	0.0155688
621.052	0.0155647
621.130	0.0154063
621.209	0.0156216
621.287	0.0155061
621.365	0.0154779
621.443	0.0155486
621.521	0.0155144
621.599	0.0155648
621.677	0.0155166
621.755	0.0155992
621.834	0.0154768
621.912	0.0154399
621.990	0.0153615
622.068	0.0153262
622.146	0.0153705
622.224	0.0154800
622.302	0.0154815
622.380	0.0152805
622.459	0.0153855
622.537	0.0155811
622.615	0.0154527
622.693	0.0153880
622.771	0.0153240
622.849	0.0153846
622.927	0.0153587
623.005	0.0154759
623.084	0.0154209
623.162	0.0154616
623.240	0.0154640
623.318	0.0155021
623.396	0.0154701
623.474	0.0154749
623.552	0.0156427
623.630	0.0155424
623.709	0.0154547
623.787	0.0154649
623.865	0.0155543
623.943	0.0156107
624.021	0.0155532
624.099	0.0154134
624.177	0.0154700
624.255	0.0154781
624.334	0.0155712
624.412	0.0153896
624.490	0.0155154
624.568	0.0153947
624.646	0.0155218
624.724	0.0154260
624.802	0.0154626
624.880	0.0155335
624.959	0.0154366
625.037	0.0154140
625.115	0.0155624
625.193	0.0154305
625.271	0.0154784
625.349	0.0155291
625.427	0.0155860
625.505	0.0155672
625.584	0.0154654
625.662	0.0154586
625.740	0.0154455
625.818	0.0154692
625.896	0.0155160
625.974	0.0154483
626.052	0.0153970
626.130	0.0154976
626.209	0.0155151
626.287	0.0155286
626.365	0.0154114
626.443	0.0155704
626.521	0.0154418
626.599	0.0154440
626.677	0.0154693
626.755	0.0154755
626.834	0.0155708
626.912	0.0155643
626.990	0.0155392
627.068	0.0154614
627.146	0.0155136
627.224	0.0155007
627.302	0.0154550
627.380	0.0154685
627.459	0.0156065
627.537	0.0154444
627.615	0.0154214
627.693	0.0155946
627.771	0.0155963
627.849	0.0155028
627.927	0.0153316
628.005	0.0155187
628.084	0.0153825
628.162	0.0153159
628.240	0.0154176
628.318	0.0154179
628.396	0.0154118
628.474	0.0154301
628.552	0.0155230
628.630	0.0154646
628.709	0.0155123
628.787	0.0153928
628.865	0.0154393
628.943	0.0153870
629.021	0.0154059
629.099	0.0155014
629.177	0.0154444
629.255	0.0154681
629.334	0.0154899
629.412	0.0154086
629.490	0.0156371
629.568	0.0154278
629.646	0.0153976
629.724	0.0154335
629.802	0.0155231
629.880	0.0154198
629.959	0.0153517
630.037	0.0154781
630.115	0.0155209
630.193	0.0155096
630.271	0.0155650
630.349	0.0153983
630.427	0.0154187
630.505	0.0153591
630.584	0.0155293
630.662	0.0154719
630.740	0.0154889
630.818	0.0153709
630.896	0.0154397
630.974	0.0156583
631.052	0.0154802
631.130	0.0155285
631.209	0.0156038
631.287	0.0153664
631.365	0.0154559
631.443	0.0155302
631.521	0.0155006
631.599	0.0155663
631.677	0.0154333
631.755	0.0154306
631.834	0.0155785
631.912	0.0154980
631.990	0.0155577
632.068	0.0155598
632.146	0.0155219
632.224	0.0156017
632.302	0.0155894
632.380	0.0154821
632.459	0.0155476
632.537	0.0154776
632.615	0.0154060
632.693	0.0154954
632.771	0.0155407
632.849	0.0153636
632.927	0.0154045
633.005	0.0156435
633.084	0.0154832
633.162	0.0155055
633.240	0.0155832
633.318	0.0155908
633.396	0.0155623
633.474	0.0154720
633.552	0.0156182
633.630	0.0156247
633.709	0.0155275
633.787	0.0155128
633.865	0.0154847
633.943	0.0155397
634.021	0.0155411
634.099	0.0154443
634.177	0.0155371
634.255	0.0154900
634.334	0.0155662
634.412	0.0155171
634.490	0.0154818
634.568	0.0154684
634.646	0.0154247
634.724	0.0154581
634.802	0.0154498
634.880	0.0154263
634.959	0.0153285
635.037	0.0154504
635.115	0.0153621
635.193	0.0154315
635.271	0.0154393
635.349	0.0153615
635.427	0.0154749
635.505	0.0155067
635.584	0.0153777
635.662	0.0154189
635.740	0.0153613
635.818	0.0154377
635.896	0.0154511
635.974	0.0154668
636.052	0.0154716
636.130	0.0153956
636.209	0.0154893
636.287	0.0152943
636.365	0.0154678
636.443	0.0155238
636.521	0.0153841
636.599	0.0154160
636.677	0.0155703
636.755	0.0155434
636.834	0.0154070
636.912	0.0155079
636.990	0.0154613
637.068	0.0155003
637.146	0.0157056
637.224	0.0155885
637.302	0.0154729
637.380	0.0155472
637.459	0.0155610
637.537	0.0155464
637.615	0.0153817
637.693	0.0154902
637.771	0.0155831
637.849	0.0154598
637.927	0.0154673
638.005	0.0155336
638.084	0.0155228
638.162	0.0156287
638.240	0.0155537
638.318	0.0156758
638.396	0.0155027
638.474	0.0154718
638.552	0.0155601
638.630	0.0156932
638.709	0.0155540
638.787	0.0155177
638.865	0.0156128
638.943	0.0156531
639.021	0.0155151
639.099	0.0155826
639.177	0.0154970
639.255	0.0156400
639.334	0.0155555
639.412	0.0155198
639.490	0.0155105
639.568	0.0155010
639.646	0.0154866
639.724	0.0155679
639.802	0.0155438
639.880	0.0155056
639.959	0.0155157
640.037	0.0155676
640.115	0.0154163
640.193	0.0154393
640.271	0.0156487
640.349	0.0156082
640.427	0.0155012
640.505	0.0155383
640.584	0.0154559
640.662	0.0155135
640.740	0.0155901
640.818	0.0154907
640.896	0.0154675
640.974	0.0154668
641.052	0.0155752
641.130	0.0156921
641.209	0.0155574
641.287	0.0155437
641.365	0.0154654
641.443	0.0155316
641.521	0.0155241
641.599	0.0155576
641.677	0.0154765
641.755	0.0154948
641.834	0.0155012
641.912	0.0152956
641.990	0.0154955
642.068	0.0153848
642.146	0.0153780
642.224	0.0153683
642.302	0.0155283
642.380	0.0154604
642.459	0.0155482
642.537	0.0156147
642.615	0.0155659
642.693	0.0154626
642.771	0.0153939
642.849	0.0154861
642.927	0.0155016
643.005	0.0154021
643.084	0.0154884
643.162	0.0155569
643.240	0.0153947
643.318	0.0154229
643.396	0.0154403
643.474	0.0153636
643.552	0.0153603
643.630	0.0154186
643.709	0.0154926
643.787	0.0154998
643.865	0.0154312
643.943	0.0152870
644.021	0.0153873
644.099	0.0154280
644.177	0.0154149
644.255	0.0153445
644.334	0.0153545
644.412	0.0154224
644.490	0.0154963
644.568	0.0154269
644.646	0.0153063
644.724	0.0154949
644.802	0.0154792
644.880	0.0154809
644.959	0.0153964
645.037	0.0155080
645.115	0.0155421
645.193	0.0155323
645.271	0.0155835
645.349	0.0154610
645.427	0.0155148
645.505	0.0154961
645.584	0.0155418
645.662	0.0155524
645.740	0.0156001
645.818	0.0156212
645.896	0.0155450
645.974	0.0154974
646.052	0.0155585
646.130	0.0156545
646.209	0.0154148
646.287	0.0155303
646.365	0.0155704
646.443	0.0155884
646.521	0.0156927
646.599	0.0156131
646.677	0.0155182
646.755	0.0154335
646.834	0.0156277
646.912	0.0156838
646.990	0.0155987
647.068	0.0155743
647.146	0.0156567
647.224	0.0155457
647.302	0.0155595
647.380	0.0156437
647.459	0.0156837
647.537	0.0155966
647.615	0.0155979
647.693	0.0156063
647.771	0.0156064
647.849	0.0156218
647.927	0.0155718
648.005	0.0155093
648.084	0.0154436
648.162	0.0155587
648.240	0.0156774
648.318	0.0155289
648.396	0.0155862
648.474	0.0157181
648.552	0.0157066
648.630	0.0156396
648.709	0.0155576
648.787	0.0155235
648.865	0.0154509
648.943	0.0155410
649.021	0.0156585
649.099	0.0155016
649.177	0.0155647
649.255	0.0155061
649.334	0.0155777
649.412	0.0157039
649.490	0.0156803
649.568	0.0154586
649.646	0.0157077
649.724	0.0154523
649.802	0.0154826
649.880	0.0155133
649.959	0.0155576
650.037	0.0155570
650.115	0.0154688
650.193	0.0155132
650.271	0.0155717
650.349	0.0154959
650.427	0.0155097
650.505	0.0155033
650.584	0.0155180
650.662	0.0156053
650.740	0.0153519
650.818	0.0155009
650.896	0.0155323
650.974	0.0154060
651.052	0.0154498
651.130	0.0154961
651.209	0.0154697
651.287	0.0153729
651.365	0.0155163
651.443	0.0152727
651.521	0.0154545
651.599	0.0155202
651.677	0.0154140
651.755	0.0153829
651.834	0.0154609
651.912	0.0154588
651.990	0.0155070
652.068	0.0155631
652.146	0.0154199
652.224	0.0155856
652.302	0.0153223
652.380	0.0154900
652.459	0.0154529
652.537	0.0154083
652.615	0.0154810
652.693	0.0155796
652.771	0.0154664
652.849	0.0154356
652.927	0.0154528
653.005	0.0153888
653.084	0.0154821
653.162	0.0153947
653.240	0.0155625
653.318	0.0153647
653.396	0.0154858
653.474	0.0154839
653.552	0.0155092
653.630	0.0155069
653.709	0.0154927
653.787	0.0154752
653.865	0.0155715
653.943	0.0154199
654.021	0.0155965
654.099	0.0154586
654.177	0.0156322
654.255	0.0154307
654.334	0.0154793
654.412	0.0154794
654.490	0.0154275
654.568	0.0155581
654.646	0.0155560
654.724	0.0155334
654.802	0.0155018
654.880	0.0155904
654.959	0.0156077
655.037	0.0155602
655.115	0.0154273
655.193	0.0155309
655.271	0.0154968
655.349	0.0153822
655.427	0.0154601
655.505	0.0154824
655.584	0.0154829
655.662	0.0155559
655.740	0.0156897
655.818	0.0154707
655.896	0.0154613
655.974	0.0154680
656.052	0.0154923
656.130	0.0154567
656.209	0.0155038
656.287	0.0155472
656.365	0.0155383
656.443	0.0155678
656.521	0.0153875
656.599	0.0155347
656.677	0.0155405
656.755	0.0155034
656.834	0.0155981
656.912	0.0155370
656.990	0.0155727
657.068	0.0155307
657.146	0.0155714
657.224	0.0153901
657.302	0.0153575
657.380	0.0155583
657.459	0.0155435
657.537	0.0157220
657.615	0.0156266
657.693	0.0157236
657.771	0.0156461
657.849	0.0155878
657.927	0.0156551
658.005	0.0156357
658.084	0.0156609
658.162	0.0155491
658.240	0.0157327
658.318	0.0156624
658.396	0.0158033
658.474	0.0156842
658.552	0.0157059
658.630	0.0155473
658.709	0.0155980
658.787	0.0154929
658.865	0.0157121
658.943	0.0157767
659.021	0.0156746
659.099	0.0155421
659.177	0.0156995
659.255	0.0158743
659.334	0.0156918
659.412	0.0156259
659.490	0.0157212
659.568	0.0158479
659.646	0.0155930
659.724	0.0155948
659.802	0.0156575
659.880	0.0157354
659.959	0.0157671
660.037	0.0157426
660.115	0.0158218
660.193	0.0156841
660.271	0.0156902
660.349	0.0156366
660.427	0.0156173
660.505	0.0157880
660.584	0.0155820
660.662	0.0156479
660.740	0.0158077
660.818	0.0155962
660.896	0.0156854
660.974	0.0156075
661.052	0.0155745
661.130	0.0156635
661.209	0.0154465
661.287	0.0155450
661.365	0.0154861
661.443	0.0155553
661.521	0.0156000
661.599	0.0154218
661.677	0.0154727
661.755	0.0155246
661.834	0.0154826
661.912	0.0154397
661.990	0.0154266
662.068	0.0154438
662.146	0.0153754
662.224	0.0153938
662.302	0.0154446
662.380	0.0153414
662.459	0.0154250
662.537	0.0153941
662.615	0.0154000
662.693	0.0153351
662.771	0.0154128
662.849	0.0153339
662.927	0.0153500
663.005	0.0153332
663.084	0.0153904
663.162	0.0153694
663.240	0.0154490
663.318	0.0153964
663.396	0.0153040
663.474	0.0153855
663.552	0.0153637
663.630	0.0153767
663.709	0.0154137
663.787	0.0154255
663.865	0.0152666
663.943	0.0152242
664.021	0.0152158
664.099	0.0154146
664.177	0.0154213
664.255	0.0153124
664.334	0.0154102
664.412	0.0153736
664.490	0.0153851
664.568	0.0153208
664.646	0.0154309
664.724	0.0152413
664.802	0.0154418
664.880	0.0152637
664.959	0.0152300
665.037	0.0152510
665.115	0.0154140
665.193	0.0152734
665.271	0.0153259
665.349	0.0154591
665.427	0.0155045
665.505	0.0153867
665.584	0.0152216
665.662	0.0153133
665.740	0.0153995
665.818	0.0154346
665.896	0.0153727
665.974	0.0153315
666.052	0.0152728
666.130	0.0153176
666.209	0.0153436
666.287	0.0154958
666.365	0.0154214
666.443	0.0153612
666.521	0.0153716
666.599	0.0153338
666.677	0.0154169
666.755	0.0154441
666.834	0.0154539
666.912	0.0154841
666.990	0.0154015
667.068	0.0154249
667.146	0.0154045
667.224	0.0154331
667.302	0.0155174
667.380	0.0154402
667.459	0.0153584
667.537	0.0154090
667.615	0.0154543
667.693	0.0153925
667.771	0.0154401
667.849	0.0155223
667.927	0.0156030
668.005	0.0155316
668.084	0.0156345
668.162	0.0155888
668.240	0.0155927
668.318	0.0155963
668.396	0.0156029
668.474	0.0155150
668.552	0.0155383
668.630	0.0154991
668.709	0.0155301
668.787	0.0155845
668.865	0.0156908
668.943	0.0157720
669.021	0.0156028
669.099	0.0156084
669.177	0.0157700
669.255	0.0157118
669.334	0.0156720
669.412	0.0157724
669.490	0.0156956
669.568	0.0158106
669.646	0.0158707
669.724	0.0156867
669.802	0.0158608
669.880	0.0158630
669.959	0.0157066
670.037	0.0157983
670.115	0.0158878
670.193	0.0158531
670.271	0.0158303
670.349	0.0159003
670.427	0.0159010
670.505	0.0157734
670.584	0.0158610
670.662	0.0158987
670.740	0.0157246
670.818	0.0157417
670.896	0.0158459
670.974	0.0158442
671.052	0.0158739
671.130	0.0158157
671.209	0.0157300
671.287	0.0157048
671.365	0.0157153
671.443	0.0157933
671.521	0.0157285
671.599	0.0158235
671.677	0.0158050
671.755	0.0158690
671.834	0.0158234
671.912	0.0158681
671.990	0.0159370
672.068	0.0157863
672.146	0.0158185
672.224	0.0158266
672.302	0.0157919
672.380	0.0158398
672.459	0.0157980
672.537	0.0158289
672.615	0.0158125
672.693	0.0158193
672.771	0.0158447
672.849	0.0158127
672.927	0.0157619
673.005	0.0158132
673.084	0.0159147
673.162	0.0157789
673.240	0.0158595
673.318	0.0157952
673.396	0.0157805
673.474	0.0158514
673.552	0.0157770
673.630	0.0156822
673.709	0.0157925
673.787	0.0158921
673.865	0.0156938
673.943	0.0157014
674.021	0.0156356
674.099	0.0158382
674.177	0.0156032
674.255	0.0155930
674.334	0.0157476
674.412	0.0155653
674.490	0.0157882
674.568	0.0156528
674.646	0.0154668
674.724	0.0155983
674.802	0.0156177
674.880	0.0155699
674.959	0.0154029
675.037	0.0154293
675.115	0.0153756
675.193	0.0153691
675.271	0.0154761
675.349	0.0152995
675.427	0.0153295
675.505	0.0153246
675.584	0.0152340
675.662	0.0151940
675.740	0.0151495
675.818	0.0151025
675.896	0.0150853
675.974	0.0150603
676.052	0.0151164
676.130	0.0150549
676.209	0.0150170
676.287	0.0149731
676.365	0.0150259
676.443	0.0149616
676.521	0.0149828
676.599	0.0149711
676.677	0.0150433
676.755	0.0151411
676.834	0.0151247
676.912	0.0151571
676.990	0.0151817
677.068	0.0152136
677.146	0.0152376
677.224	0.0152495
677.302	0.0151796
677.380	0.0152381
677.459	0.0153362
677.537	0.0154147
677.615	0.0155092
677.693	0.0154182
677.771	0.0154069
677.849	0.0153727
677.927	0.0153361
678.005	0.0153600
678.084	0.0152503
678.162	0.0153133
678.240	0.0152161
678.318	0.0150588
678.396	0.0151765
678.474	0.0152171
678.552	0.0150043
678.630	0.0149058
678.709	0.0150670
678.787	0.0150922
678.865	0.0148069
678.943	0.0148607
679.021	0.0147956
679.099	0.0147979
679.177	0.0148190
679.255	0.0147099
679.334	0.0147248
679.412	0.0146332
679.490	0.0147346
679.568	0.0147257
679.646	0.0146136
679.724	0.0147250
679.802	0.0145351
679.880	0.0147170
679.959	0.0147491
680.037	0.0146480
680.115	0.0146050
680.193	0.0148025
680.271	0.0147038
680.349	0.0146824
680.427	0.0147462
680.505	0.0145667
680.584	0.0146416
680.662	0.0147180
680.740	0.0146955
680.818	0.0145939
680.896	0.0145721
680.974	0.0143383
681.052	0.0143918
681.130	0.0143401
681.209	0.0144622
681.287	0.0142988
681.365	0.0140923
681.443	0.0140802
681.521	0.0140670
681.599	0.0137475
681.677	0.0137608
681.755	0.0136847
681.834	0.0136192
681.912	0.0135606
681.990	0.0134372
682.068	0.0135211
682.146	0.0133374
682.224	0.0133570
682.302	0.0131733
682.380	0.0131435
682.459	0.0132910
682.537	0.0130312
682.615	0.0130733
682.693	0.0130549
682.771	0.0129987
682.849	0.0129325
682.927	0.0130575
683.005	0.0130411
683.084	0.0128175
683.162	0.0127737
683.240	0.0129395
683.318	0.0128038
683.396	0.0127794
683.474	0.0128613
683.552	0.0127275
683.630	0.0127164
683.709	0.0126226
683.787	0.0125842
683.865	0.0125118
683.943	0.0125117
684.021	0.0122421
684.099	0.0122681
684.177	0.0122092
684.255	0.0120888
684.334	0.0119491
684.412	0.0117352
684.490	0.0116765
684.568	0.0114752
684.646	0.0112970
684.724	0.0110094
684.802	0.0107688
684.880	0.0105587
684.959	0.0102605
685.037	0.00988495
685.115	0.00962006
685.193	0.00914261
685.271	0.00884666
685.349	0.00854874
685.427	0.00820969
685.505	0.00761765
685.584	0.00731369
685.662	0.00680931
685.740	0.00621758
685.818	0.00560799
685.896	0.00489716
685.974	0.00429710
686.052	0.00375969
686.130	0.00289162
686.209	0.00220161
686.287	0.00130898
686.365	0.000493240
686.443	-0.000364227
686.521	-0.00138100
686.599	-0.00231911
686.677	-0.00335182
686.755	-0.00428261
686.834	-0.00524902
686.912	-0.00637711
686.990	-0.00758347
687.068	-0.00876060
687.146	-0.00976631
687.224	-0.0109486
687.302	-0.0121380
687.380	-0.0133826
687.459	-0.0146748
687.537	-0.0160120
687.615	-0.0170763
687.693	-0.0180148
687.771	-0.0185901
687.849	-0.0186990
687.927	-0.0176434
688.005	-0.0151009
688.084	-0.0106330
688.162	-0.00384865
688.240	0.00534332
688.318	0.0176231
688.396	0.0325569
688.474	0.0500298
688.552	0.0697524
688.630	0.0909628
688.709	0.113061
688.787	0.135097
688.865	0.156646
688.943	0.176414
689.021	0.193956
689.099	0.208598
689.177	0.219597
689.255	0.226765
689.334	0.229811
689.412	0.228555
689.490	0.223426
689.568	0.214453
689.646	0.201974
689.724	0.186832
689.802	0.169417
689.880	0.150103
689.959	0.129169
690.037	0.107041
690.115	0.0838535
690.193	0.0603757
690.271	0.0367903
690.349	0.0137437
690.427	-0.00891403
690.505	-0.0302719
690.584	-0.0498150
690.662	-0.0673029
690.740	-0.0823319
690.818	-0.0948473
690.896	-0.104448
690.974	-0.110832
691.052	-0.114558
691.130	-0.115216
691.209	-0.113453
691.287	-0.109351
691.365	-0.103173
691.443	-0.0955882
691.521	-0.0870890
691.599	-0.0781030
691.677	-0.0690417
691.755	-0.0602097
691.834	-0.0521678
691.912	-0.0448797
691.990	-0.0383072
692.068	-0.0327380
692.146	-0.0281957
692.224	-0.0246870
692.302	-0.0218769
692.380	-0.0201403
692.459	-0.0189497
692.537	-0.0185224
692.615	-0.0183917
692.693	-0.0184716
692.771	-0.0187579
692.849	-0.0191587
692.927	-0.0193452
693.005	-0.0194540
693.084	-0.0192183
693.162	-0.0190914
693.240	-0.0187437
693.318	-0.0180538
693.396	-0.0172900
693.474	-0.0160953
693.552	-0.0147682
693.630	-0.0131061
693.709	-0.0110623
693.787	-0.00909477
693.865	-0.00669609
693.943	-0.00436302
694.021	-0.00243233
694.099	-0.000206757
694.177	0.00164589
694.255	0.00323868
694.334	0.00464851
694.412	0.00577904
694.490	0.00678154
694.568	0.00771385
694.646	0.00819206
694.724	0.00833466
694.802	0.00841286
694.880	0.00833664
694.959	0.00817642
695.037	0.00779449
695.115	0.00753387
695.193	0.00714592
695.271	0.00705566
695.349	0.00666420
695.427	0.00644783
695.505	0.00636360
695.584	0.00647133
695.662	0.00650978
695.740	0.00670525
695.818	0.00734756
695.896	0.00810104
695.974	0.00899574
696.052	0.0100541
696.130	0.0110960
696.209	0.0124963
696.287	0.0138387
696.365	0.0152918
696.443	0.0168348
696.521	0.0183453
696.599	0.0199287
696.677	0.0214999
696.755	0.0231737
696.834	0.0248589
696.912	0.0265554
696.990	0.0279951
697.068	0.0295866
697.146	0.0310611
697.224	0.0323673
697.302	0.0333864
697.380	0.0342812
697.459	0.0350616
697.537	0.0354767
697.615	0.0355251
697.693	0.0354983
697.771	0.0352081
697.849	0.0348541
697.927	0.0340356
698.005	0.0332388
698.084	0.0321824
698.162	0.0311633
698.240	0.0303250
698.318	0.0293772
698.396	0.0285344
698.474	0.0278918
698.552	0.0274274
698.630	0.0270154
698.709	0.0269822
698.787	0.0272240
698.865	0.0275790
698.943	0.0281106
699.021	0.0289433
699.099	0.0297124
699.177	0.0306383
699.255	0.0313971
699.334	0.0322722
699.412	0.0332351
699.490	0.0340048
699.568	0.0347404
699.646	0.0351697
699.724	0.0355692
699.802	0.0358799
699.880	0.0359372
699.959	0.0357787
700.037	0.0352997
700.115	0.0347176
700.193	0.0339225
700.271	0.0327686
700.349	0.0315463
700.427	0.0301550
700.505	0.0285511
700.584	0.0268507
700.662	0.0252452
700.740	0.0235904
700.818	0.0217829
700.896	0.0200280
700.974	0.0184045
701.052	0.0168410
701.130	0.0152428
701.209	0.0138765
701.287	0.0126563
701.365	0.0116226
701.443	0.0105733
701.521	0.00991486
701.599	0.00963997
701.677	0.00928268
701.755	0.00907486
701.834	0.00922424
701.912	0.00951920
701.990	0.00980659
702.068	0.0102526
702.146	0.0103819
702.224	0.0108984
702.302	0.0116551
702.380	0.0120908
702.459	0.0124186
702.537	0.0129279
702.615	0.0135026
702.693	0.0138369
702.771	0.0140195
702.849	0.0140135
702.927	0.0141094
703.005	0.0140059
703.084	0.0136227
703.162	0.0133055
703.240	0.0129903
703.318	0.0125603
703.396	0.0121585
703.474	0.0118584
703.552	0.0118141
703.630	0.0114369
703.709	0.0112018
703.787	0.0112704
703.865	0.0112836
703.943	0.0112888
704.021	0.0114753
704.099	0.0115811
704.177	0.0118211
704.255	0.0121430
704.334	0.0124480
704.412	0.0127126
704.490	0.0130180
704.568	0.0130296
704.646	0.0131390
704.724	0.0132731
704.802	0.0133823
704.880	0.0131757
704.959	0.0131534
705.037	0.0130408
705.115	0.0131060
705.193	0.0131228
705.271	0.0131823
705.349	0.0134624
705.427	0.0136041
705.505	0.0137544
705.584	0.0138626
705.662	0.0138634
705.740	0.0141885
705.818	0.0144799
705.896	0.0145397
705.974	0.0147575
706.052	0.0151525
706.130	0.0156339
706.209	0.0157474
706.287	0.0160689
706.365	0.0162456
706.443	0.0162531
706.521	0.0164698
706.599	0.0167212
706.677	0.0168252
706.755	0.0167178
706.834	0.0166499
706.912	0.0167567
706.990	0.0167271
707.068	0.0165499
707.146	0.0165685
707.224	0.0164683
707.302	0.0162237
707.380	0.0162531
707.459	0.0163110
707.537	0.0164128
707.615	0.0164588
707.693	0.0164799
707.771	0.0167834
707.849	0.0169577
707.927	0.0172848
708.005	0.0172609
708.084	0.0172549
708.162	0.0173190
708.240	0.0171767
708.318	0.0167602
708.396	0.0165349
708.474	0.0160852
708.552	0.0158183
708.630	0.0152085
708.709	0.0146468
708.787	0.0142815
708.865	0.0141269
708.943	0.0135302
709.021	0.0132491
709.099	0.0132700
709.177	0.0134191
709.255	0.0135123
709.334	0.0136496
709.412	0.0140585
709.490	0.0144188
709.568	0.0150291
709.646	0.0154100
709.724	0.0159479
709.802	0.0163421
709.880	0.0166888
709.959	0.0172324
710.037	0.0175438
710.115	0.0175832
710.193	0.0178793
710.271	0.0182305
710.349	0.0185814
710.427	0.0189955
710.505	0.0192570
710.584	0.0196043
710.662	0.0197088
710.740	0.0200628
710.818	0.0202201
710.896	0.0205872
710.974	0.0207604
711.052	0.0207531
711.130	0.0209759
711.209	0.0210873
711.287	0.0210071
711.365	0.0209756
711.443	0.0210918
711.521	0.0211424
711.599	0.0212048
711.677	0.0211729
711.755	0.0213227
711.834	0.0212313
711.912	0.0212013
711.990	0.0212079
712.068	0.0213528
712.146	0.0211752
712.224	0.0212656
712.302	0.0210330
712.380	0.0210534
712.459	0.0212247
712.537	0.0210263
712.615	0.0208365
712.693	0.0208003
712.771	0.0207747
712.849	0.0206434
712.927	0.0204944
713.005	0.0203343
713.084	0.0200533
713.162	0.0199669
713.240	0.0195583
713.318	0.0194341
713.396	0.0189308
713.474	0.0184451
713.552	0.0178696
713.630	0.0172828
713.709	0.0164154
713.787	0.0156930
713.865	0.0147392
713.943	0.0138663
714.021	0.0129655
714.099	0.0120498
714.177	0.0111749
714.255	0.0105109
714.334	0.0100305
714.412	0.00940948
714.490	0.00900551
714.568	0.00873947
714.646	0.00861160
714.724	0.00846672
714.802	0.00840706
714.880	0.00851830
714.959	0.00843765
715.037	0.00878113
715.115	0.00884010
715.193	0.00876129
715.271	0.00908302
715.349	0.00895195
715.427	0.00907959
715.505	0.00931534
715.584	0.00927719
715.662	0.00941902
715.740	0.00959976
715.818	0.00962547
715.896	0.00998428
715.974	0.0102547
716.052	0.0103543
716.130	0.0105704
716.209	0.0109695
716.287	0.0111211
716.365	0.0115447
716.443	0.0117098
716.521	0.0119364
716.599	0.0122542
716.677	0.0123946
716.755	0.0125710
716.834	0.0126491
716.912	0.0126875
716.990	0.0127210
717.068	0.0128123
717.146	0.0127643
717.224	0.0127055
717.302	0.0126490
717.380	0.0125410
717.459	0.0125189
717.537	0.0124923
717.615	0.0124463
717.693	0.0124918
717.771	0.0125626
717.849	0.0126065
717.927	0.0127725
718.005	0.0129761
718.084	0.0132982
718.162	0.0134171
718.240	0.0136426
718.318	0.0138990
718.396	0.0142267
718.474	0.0145102
718.552	0.0147537
718.630	0.0150253
718.709	0.0154285
718.787	0.0156281
718.865	0.0156396
718.943	0.0158662
719.021	0.0158902
719.099	0.0159531
719.177	0.0161314
719.255	0.0159953
719.334	0.0158427
719.412	0.0159824
719.490	0.0158759
719.568	0.0158065
719.646	0.0157701
719.724	0.0158308
719.802	0.0160728
719.880	0.0162711
719.959	0.0160542
