05/19/2022	01:10:09	Ver.	4.1	UNKNOWN
Optical Delay	610.008675	Delta X		0.078125	Sweeps	1	Scan Rate	0/0
Coordinates	Axis 1	NaN	Axis 2	NaN	Axis 3	NaN	Axis 4	NaN	Axis 5	NaN	Axis 6	0.000000
TX Power	0.000000	RX Power	0.000000

610.009	0.0161497
610.087	0.0161169
610.165	0.0161962
610.243	0.0161829
610.321	0.0161240
610.399	0.0161897
610.477	0.0160600
610.556	0.0163020
610.634	0.0160984
610.712	0.0160653
610.790	0.0162081
610.868	0.0162973
610.946	0.0161484
611.024	0.0161287
611.102	0.0161477
611.181	0.0161127
611.259	0.0161092
611.337	0.0161037
611.415	0.0161767
611.493	0.0162624
611.571	0.0161652
611.649	0.0161398
611.727	0.0160827
611.806	0.0162601
611.884	0.0162248
611.962	0.0162550
612.040	0.0161333
612.118	0.0160168
612.196	0.0162035
612.274	0.0161251
612.352	0.0161907
612.431	0.0162043
612.509	0.0161760
612.587	0.0161777
612.665	0.0160780
612.743	0.0163070
612.821	0.0162278
612.899	0.0162269
612.977	0.0162049
613.056	0.0162193
613.134	0.0161330
613.212	0.0162212
613.290	0.0162337
613.368	0.0161942
613.446	0.0162269
613.524	0.0161868
613.602	0.0162389
613.681	0.0163531
613.759	0.0162407
613.837	0.0163162
613.915	0.0163326
613.993	0.0162626
614.071	0.0162347
614.149	0.0163437
614.227	0.0164238
614.306	0.0163286
614.384	0.0164175
614.462	0.0161897
614.540	0.0163191
614.618	0.0164993
614.696	0.0163393
614.774	0.0163679
614.852	0.0162840
614.931	0.0163326
615.009	0.0163091
615.087	0.0163351
615.165	0.0164073
615.243	0.0163955
615.321	0.0162907
615.399	0.0163889
615.477	0.0163805
615.556	0.0162633
615.634	0.0163093
615.712	0.0161814
615.790	0.0162307
615.868	0.0162732
615.946	0.0161867
616.024	0.0161993
616.102	0.0161691
616.181	0.0162359
616.259	0.0163422
616.337	0.0161723
616.415	0.0161687
616.493	0.0160976
616.571	0.0162543
616.649	0.0163112
616.727	0.0162341
616.806	0.0162688
616.884	0.0161242
616.962	0.0161044
617.040	0.0162597
617.118	0.0161746
617.196	0.0161124
617.274	0.0162179
617.352	0.0161896
617.431	0.0161781
617.509	0.0162050
617.587	0.0160564
617.665	0.0161121
617.743	0.0162401
617.821	0.0161534
617.899	0.0161397
617.977	0.0161250
618.056	0.0160842
618.134	0.0161397
618.212	0.0161162
618.290	0.0161369
618.368	0.0161207
618.446	0.0160056
618.524	0.0161581
618.602	0.0161234
618.681	0.0160800
618.759	0.0161362
618.837	0.0162200
618.915	0.0161028
618.993	0.0161895
619.071	0.0161680
619.149	0.0163023
619.227	0.0162319
619.306	0.0161385
619.384	0.0160844
619.462	0.0161156
619.540	0.0163053
619.618	0.0161559
619.696	0.0161899
619.774	0.0160717
619.852	0.0162542
619.931	0.0161540
620.009	0.0162194
620.087	0.0162316
620.165	0.0161256
620.243	0.0162251
620.321	0.0161791
620.399	0.0161689
620.477	0.0161446
620.556	0.0161956
620.634	0.0160413
620.712	0.0161277
620.790	0.0161779
620.868	0.0161119
620.946	0.0161504
621.024	0.0162168
621.102	0.0161715
621.181	0.0161057
621.259	0.0160500
621.337	0.0161302
621.415	0.0161169
621.493	0.0160139
621.571	0.0160312
621.649	0.0160081
621.727	0.0161121
621.806	0.0159863
621.884	0.0159960
621.962	0.0160341
622.040	0.0161195
622.118	0.0159083
622.196	0.0160042
622.274	0.0160694
622.352	0.0160390
622.431	0.0160250
622.509	0.0159996
622.587	0.0157985
622.665	0.0159627
622.743	0.0161540
622.821	0.0159422
622.899	0.0161102
622.977	0.0160615
623.056	0.0159041
623.134	0.0160649
623.212	0.0160352
623.290	0.0161545
623.368	0.0159133
623.446	0.0160114
623.524	0.0159046
623.602	0.0161043
623.681	0.0161040
623.759	0.0161548
623.837	0.0160786
623.915	0.0160260
623.993	0.0160958
624.071	0.0162402
624.149	0.0159412
624.227	0.0161280
624.306	0.0161110
624.384	0.0160689
624.462	0.0161007
624.540	0.0161366
624.618	0.0161918
624.696	0.0162042
624.774	0.0161724
624.852	0.0160970
624.931	0.0161238
625.009	0.0160257
625.087	0.0160220
625.165	0.0162290
625.243	0.0161290
625.321	0.0160410
625.399	0.0161642
625.477	0.0161558
625.556	0.0160860
625.634	0.0162019
625.712	0.0163443
625.790	0.0162377
625.868	0.0160912
625.946	0.0162026
626.024	0.0160814
626.102	0.0161727
626.181	0.0161698
626.259	0.0161331
626.337	0.0162445
626.415	0.0162424
626.493	0.0161852
626.571	0.0161358
626.649	0.0161507
626.727	0.0162110
626.806	0.0160439
626.884	0.0160291
626.962	0.0163107
627.040	0.0162169
627.118	0.0161958
627.196	0.0161776
627.274	0.0161067
627.352	0.0161512
627.431	0.0159995
627.509	0.0162415
627.587	0.0160006
627.665	0.0161285
627.743	0.0159682
627.821	0.0160434
627.899	0.0160720
627.977	0.0161603
628.056	0.0161085
628.134	0.0160993
628.212	0.0160623
628.290	0.0160933
628.368	0.0161393
628.446	0.0160861
628.524	0.0160757
628.602	0.0159158
628.681	0.0160607
628.759	0.0161040
628.837	0.0162625
628.915	0.0160857
628.993	0.0162820
629.071	0.0161346
629.149	0.0161797
629.227	0.0162089
629.306	0.0161770
629.384	0.0163017
629.462	0.0163152
629.540	0.0162602
629.618	0.0160592
629.696	0.0161622
629.774	0.0162041
629.852	0.0162813
629.931	0.0162637
630.009	0.0161932
630.087	0.0164024
630.165	0.0162780
630.243	0.0162604
630.321	0.0162389
630.399	0.0163809
630.477	0.0161709
630.556	0.0161623
630.634	0.0162691
630.712	0.0164075
630.790	0.0162457
630.868	0.0162978
630.946	0.0162128
631.024	0.0163420
631.102	0.0163065
631.181	0.0162605
631.259	0.0163442
631.337	0.0163199
631.415	0.0163169
631.493	0.0164754
631.571	0.0164877
631.649	0.0163775
631.727	0.0164112
631.806	0.0164471
631.884	0.0164608
631.962	0.0163479
632.040	0.0162669
632.118	0.0164658
632.196	0.0165512
632.274	0.0164661
632.352	0.0163967
632.431	0.0163873
632.509	0.0163076
632.587	0.0163615
632.665	0.0162685
632.743	0.0162762
632.821	0.0162879
632.899	0.0162738
632.977	0.0162550
633.056	0.0162626
633.134	0.0163673
633.212	0.0163830
633.290	0.0162431
633.368	0.0161468
633.446	0.0160702
633.524	0.0162973
633.602	0.0163329
633.681	0.0161492
633.759	0.0162724
633.837	0.0160762
633.915	0.0161591
633.993	0.0161962
634.071	0.0160446
634.149	0.0161897
634.227	0.0161423
634.306	0.0161273
634.384	0.0160564
634.462	0.0161153
634.540	0.0161864
634.618	0.0161164
634.696	0.0160703
634.774	0.0161350
634.852	0.0162629
634.931	0.0162762
635.009	0.0162440
635.087	0.0162183
635.165	0.0162013
635.243	0.0162762
635.321	0.0163183
635.399	0.0165300
635.477	0.0163201
635.556	0.0162856
635.634	0.0164508
635.712	0.0162822
635.790	0.0164326
635.868	0.0163027
635.946	0.0164038
636.024	0.0163094
636.102	0.0165692
636.181	0.0164288
636.259	0.0164201
636.337	0.0165504
636.415	0.0164151
636.493	0.0165388
636.571	0.0163762
636.649	0.0164173
636.727	0.0164672
636.806	0.0164870
636.884	0.0164751
636.962	0.0163302
637.040	0.0163834
637.118	0.0162254
637.196	0.0162353
637.274	0.0162686
637.352	0.0162019
637.431	0.0163801
637.509	0.0161768
637.587	0.0161353
637.665	0.0161226
637.743	0.0161147
637.821	0.0160910
637.899	0.0159473
637.977	0.0160462
638.056	0.0161010
638.134	0.0160281
638.212	0.0159385
638.290	0.0159848
638.368	0.0160216
638.446	0.0160701
638.524	0.0158905
638.602	0.0158991
638.681	0.0160132
638.759	0.0159736
638.837	0.0160057
638.915	0.0159290
638.993	0.0160470
639.071	0.0160035
639.149	0.0159589
639.227	0.0161059
639.306	0.0161407
639.384	0.0161037
639.462	0.0162220
639.540	0.0160880
639.618	0.0162547
639.696	0.0163457
639.774	0.0163255
639.852	0.0163605
639.931	0.0163330
640.009	0.0165192
640.087	0.0164155
640.165	0.0163614
640.243	0.0164773
640.321	0.0165857
640.399	0.0163402
640.477	0.0164890
640.556	0.0163870
640.634	0.0164584
640.712	0.0164178
640.790	0.0163490
640.868	0.0163086
640.946	0.0164021
641.024	0.0162235
641.102	0.0161643
641.181	0.0162019
641.259	0.0161546
641.337	0.0161115
641.415	0.0160041
641.493	0.0159093
641.571	0.0159000
641.649	0.0161101
641.727	0.0159399
641.806	0.0159506
641.884	0.0160027
641.962	0.0159170
642.040	0.0158531
642.118	0.0158039
642.196	0.0159085
642.274	0.0158154
642.352	0.0158402
642.431	0.0158954
642.509	0.0158880
642.587	0.0158833
642.665	0.0158389
642.743	0.0159122
642.821	0.0159558
642.899	0.0160297
642.977	0.0160086
643.056	0.0159284
643.134	0.0160293
643.212	0.0161416
643.290	0.0162029
643.368	0.0161903
643.446	0.0161906
643.524	0.0161506
643.602	0.0161510
643.681	0.0163046
643.759	0.0164563
643.837	0.0163971
643.915	0.0161987
643.993	0.0162366
644.071	0.0162183
644.149	0.0163494
644.227	0.0162687
644.306	0.0162336
644.384	0.0163126
644.462	0.0163620
644.540	0.0163068
644.618	0.0162871
644.696	0.0162379
644.774	0.0162623
644.852	0.0162975
644.931	0.0163251
645.009	0.0162081
645.087	0.0161725
645.165	0.0160998
645.243	0.0162141
645.321	0.0161303
645.399	0.0162018
645.477	0.0161612
645.556	0.0161412
645.634	0.0161633
645.712	0.0160674
645.790	0.0160583
645.868	0.0162293
645.946	0.0161703
646.024	0.0162051
646.102	0.0162091
646.181	0.0161395
646.259	0.0161396
646.337	0.0163264
646.415	0.0163081
646.493	0.0162672
646.571	0.0162136
646.649	0.0161620
646.727	0.0162006
646.806	0.0162727
646.884	0.0162681
646.962	0.0162175
647.040	0.0162375
647.118	0.0161920
647.196	0.0161375
647.274	0.0163148
647.352	0.0160907
647.431	0.0160575
647.509	0.0161096
647.587	0.0158662
647.665	0.0159859
647.743	0.0160396
647.821	0.0160897
647.899	0.0159995
647.977	0.0159560
648.056	0.0159189
648.134	0.0159012
648.212	0.0157964
648.290	0.0158866
648.368	0.0158183
648.446	0.0157356
648.524	0.0157588
648.602	0.0157199
648.681	0.0157389
648.759	0.0157240
648.837	0.0158894
648.915	0.0159077
648.993	0.0157404
649.071	0.0158532
649.149	0.0160394
649.227	0.0159325
649.306	0.0158498
649.384	0.0159929
649.462	0.0160455
649.540	0.0161262
649.618	0.0160190
649.696	0.0159498
649.774	0.0159553
649.852	0.0160404
649.931	0.0161107
650.009	0.0160332
650.087	0.0161475
650.165	0.0162100
650.243	0.0161284
650.321	0.0160020
650.399	0.0162073
650.477	0.0161147
650.556	0.0161296
650.634	0.0161665
650.712	0.0163058
650.790	0.0163721
650.868	0.0161929
650.946	0.0162520
651.024	0.0163064
651.102	0.0163017
651.181	0.0163018
651.259	0.0162303
651.337	0.0162209
651.415	0.0162324
651.493	0.0161579
651.571	0.0159756
651.649	0.0162731
651.727	0.0161902
651.806	0.0161253
651.884	0.0160764
651.962	0.0160208
652.040	0.0160463
652.118	0.0160030
652.196	0.0159854
652.274	0.0159885
652.352	0.0159753
652.431	0.0160290
652.509	0.0159674
652.587	0.0159010
652.665	0.0160349
652.743	0.0159479
652.821	0.0158498
652.899	0.0159128
652.977	0.0159947
653.056	0.0158328
653.134	0.0157397
653.212	0.0158773
653.290	0.0157847
653.368	0.0157993
653.446	0.0158534
653.524	0.0158724
653.602	0.0158880
653.681	0.0158483
653.759	0.0157301
653.837	0.0158981
653.915	0.0158247
653.993	0.0158372
654.071	0.0158586
654.149	0.0160453
654.227	0.0160645
654.306	0.0160732
654.384	0.0160323
654.462	0.0162640
654.540	0.0161675
654.618	0.0162466
654.696	0.0163387
654.774	0.0162746
654.852	0.0165074
654.931	0.0165522
655.009	0.0165591
655.087	0.0165569
655.165	0.0167154
655.243	0.0167028
655.321	0.0167413
655.399	0.0168094
655.477	0.0169255
655.556	0.0168571
655.634	0.0169969
655.712	0.0169503
655.790	0.0169312
655.868	0.0170056
655.946	0.0169512
656.024	0.0168633
656.102	0.0167370
656.181	0.0168059
656.259	0.0168066
656.337	0.0166856
656.415	0.0166266
656.493	0.0166614
656.571	0.0166743
656.649	0.0165778
656.727	0.0164703
656.806	0.0164039
656.884	0.0164029
656.962	0.0163713
657.040	0.0162425
657.118	0.0162068
657.196	0.0162795
657.274	0.0161835
657.352	0.0162091
657.431	0.0160733
657.509	0.0160307
657.587	0.0159254
657.665	0.0160116
657.743	0.0160258
657.821	0.0158334
657.899	0.0157494
657.977	0.0158878
658.056	0.0159689
658.134	0.0159909
658.212	0.0158056
658.290	0.0158414
658.368	0.0157660
658.446	0.0156980
658.524	0.0160137
658.602	0.0160205
658.681	0.0159043
658.759	0.0158860
658.837	0.0160172
658.915	0.0160307
658.993	0.0160658
659.071	0.0160366
659.149	0.0160735
659.227	0.0160525
659.306	0.0160733
659.384	0.0160548
659.462	0.0159461
659.540	0.0160646
659.618	0.0160944
659.696	0.0159987
659.774	0.0161967
659.852	0.0160206
659.931	0.0159931
660.009	0.0161488
660.087	0.0161491
660.165	0.0160415
660.243	0.0160352
660.321	0.0161294
660.399	0.0160859
660.477	0.0160391
660.556	0.0160615
660.634	0.0160059
660.712	0.0159546
660.790	0.0160625
660.868	0.0160028
660.946	0.0161619
661.024	0.0159525
661.102	0.0158814
661.181	0.0160522
661.259	0.0159436
661.337	0.0159612
661.415	0.0159544
661.493	0.0159776
661.571	0.0159974
661.649	0.0159867
661.727	0.0159874
661.806	0.0160460
661.884	0.0160533
661.962	0.0160120
662.040	0.0161356
662.118	0.0161153
662.196	0.0160979
662.274	0.0162116
662.352	0.0162845
662.431	0.0162824
662.509	0.0161745
662.587	0.0162054
662.665	0.0163212
662.743	0.0162846
662.821	0.0161909
662.899	0.0162164
662.977	0.0161427
663.056	0.0162650
663.134	0.0163428
663.212	0.0160876
663.290	0.0161788
663.368	0.0161218
663.446	0.0161270
663.524	0.0161819
663.602	0.0160679
663.681	0.0160100
663.759	0.0160015
663.837	0.0161575
663.915	0.0160027
663.993	0.0160298
664.071	0.0160294
664.149	0.0159148
664.227	0.0160497
664.306	0.0161324
664.384	0.0159436
664.462	0.0160097
664.540	0.0160249
664.618	0.0160213
664.696	0.0160940
664.774	0.0160269
664.852	0.0161477
664.931	0.0161222
665.009	0.0160845
665.087	0.0161002
665.165	0.0161389
665.243	0.0161507
665.321	0.0161060
665.399	0.0161498
665.477	0.0162704
665.556	0.0162431
665.634	0.0163911
665.712	0.0163770
665.790	0.0162960
665.868	0.0163116
665.946	0.0164919
666.024	0.0164877
666.102	0.0165120
666.181	0.0166102
666.259	0.0165762
666.337	0.0163752
666.415	0.0164650
666.493	0.0163367
666.571	0.0163914
666.649	0.0164568
666.727	0.0163224
666.806	0.0163709
666.884	0.0163499
666.962	0.0162655
667.040	0.0162552
667.118	0.0162630
667.196	0.0163381
667.274	0.0162941
667.352	0.0161349
667.431	0.0160847
667.509	0.0161781
667.587	0.0161090
667.665	0.0160628
667.743	0.0161311
667.821	0.0161040
667.899	0.0159953
667.977	0.0159581
668.056	0.0160790
668.134	0.0161178
668.212	0.0159758
668.290	0.0160580
668.368	0.0160817
668.446	0.0160086
668.524	0.0159834
668.602	0.0159393
668.681	0.0159894
668.759	0.0159642
668.837	0.0160191
668.915	0.0160154
668.993	0.0159245
669.071	0.0159464
669.149	0.0160718
669.227	0.0161216
669.306	0.0160854
669.384	0.0160121
669.462	0.0161326
669.540	0.0160385
669.618	0.0162326
669.696	0.0161419
669.774	0.0161681
669.852	0.0162102
669.931	0.0161628
670.009	0.0162917
670.087	0.0162247
670.165	0.0162762
670.243	0.0163477
670.321	0.0163738
670.399	0.0162649
670.477	0.0162469
670.556	0.0161790
670.634	0.0163895
670.712	0.0163693
670.790	0.0161784
670.868	0.0161948
670.946	0.0163046
671.024	0.0163225
671.102	0.0161538
671.181	0.0160875
671.259	0.0161685
671.337	0.0161095
671.415	0.0161530
671.493	0.0160434
671.571	0.0160276
671.649	0.0160700
671.727	0.0160045
671.806	0.0158553
671.884	0.0157751
671.962	0.0159180
672.040	0.0159662
672.118	0.0157903
672.196	0.0157525
672.274	0.0156859
672.352	0.0157320
672.431	0.0157523
672.509	0.0157582
672.587	0.0158734
672.665	0.0158966
672.743	0.0157408
672.821	0.0158291
672.899	0.0160151
672.977	0.0160452
673.056	0.0160882
673.134	0.0161032
673.212	0.0160327
673.290	0.0161662
673.368	0.0163422
673.446	0.0163187
673.524	0.0162749
673.602	0.0164013
673.681	0.0163298
673.759	0.0164803
673.837	0.0164497
673.915	0.0165493
673.993	0.0164516
674.071	0.0165125
674.149	0.0164339
674.227	0.0163750
674.306	0.0163757
674.384	0.0164792
674.462	0.0163802
674.540	0.0164925
674.618	0.0164501
674.696	0.0164162
674.774	0.0162990
674.852	0.0162863
674.931	0.0163747
675.009	0.0163409
675.087	0.0162351
675.165	0.0161651
675.243	0.0162283
675.321	0.0160519
675.399	0.0161658
675.477	0.0160938
675.556	0.0160438
675.634	0.0158936
675.712	0.0159116
675.790	0.0160141
675.868	0.0159921
675.946	0.0158834
676.024	0.0157558
676.102	0.0158710
676.181	0.0157696
676.259	0.0157774
676.337	0.0157999
676.415	0.0158489
676.493	0.0158255
676.571	0.0159190
676.649	0.0158282
676.727	0.0157449
676.806	0.0159269
676.884	0.0158512
676.962	0.0158877
677.040	0.0158096
677.118	0.0160456
677.196	0.0158591
677.274	0.0160933
677.352	0.0161581
677.431	0.0160677
677.509	0.0161794
677.587	0.0161897
677.665	0.0161922
677.743	0.0162947
677.821	0.0163517
677.899	0.0164206
677.977	0.0164510
678.056	0.0164405
678.134	0.0164563
678.212	0.0165953
678.290	0.0163982
678.368	0.0165703
678.446	0.0165630
678.524	0.0166544
678.602	0.0165671
678.681	0.0165698
678.759	0.0165146
678.837	0.0166679
678.915	0.0165402
678.993	0.0163685
679.071	0.0164331
679.149	0.0164846
679.227	0.0166351
679.306	0.0165224
679.384	0.0164459
679.462	0.0164019
679.540	0.0162567
679.618	0.0164293
679.696	0.0162289
679.774	0.0161663
679.852	0.0162315
679.931	0.0162369
680.009	0.0160322
680.087	0.0160931
680.165	0.0159956
680.243	0.0158958
680.321	0.0158401
680.399	0.0159119
680.477	0.0158141
680.556	0.0158221
680.634	0.0156564
680.712	0.0157735
680.790	0.0157525
680.868	0.0157822
680.946	0.0158199
681.024	0.0158300
681.102	0.0157394
681.181	0.0157719
681.259	0.0158113
681.337	0.0157558
681.415	0.0157855
681.493	0.0159491
681.571	0.0157791
681.649	0.0157961
681.727	0.0159686
681.806	0.0159615
681.884	0.0159291
681.962	0.0160516
682.040	0.0159644
682.118	0.0159469
682.196	0.0159859
682.274	0.0159988
682.352	0.0160899
682.431	0.0161223
682.509	0.0162376
682.587	0.0162231
682.665	0.0162728
682.743	0.0162307
682.821	0.0162932
682.899	0.0164568
682.977	0.0161589
683.056	0.0161719
683.134	0.0162309
683.212	0.0162367
683.290	0.0161263
683.368	0.0162321
683.446	0.0161584
683.524	0.0162012
683.602	0.0162001
683.681	0.0162048
683.759	0.0161763
683.837	0.0160970
683.915	0.0161095
683.993	0.0161612
684.071	0.0162614
684.149	0.0162371
684.227	0.0162523
684.306	0.0161344
684.384	0.0163514
684.462	0.0163199
684.540	0.0161644
684.618	0.0162284
684.696	0.0161585
684.774	0.0161964
684.852	0.0161484
684.931	0.0162866
685.009	0.0162582
685.087	0.0163380
685.165	0.0163693
685.243	0.0162796
685.321	0.0163071
685.399	0.0162998
685.477	0.0163869
685.556	0.0163834
685.634	0.0162981
685.712	0.0161860
685.790	0.0163750
685.868	0.0162753
685.946	0.0161319
686.024	0.0160812
686.102	0.0159994
686.181	0.0160718
686.259	0.0159900
686.337	0.0159668
686.415	0.0158236
686.493	0.0159318
686.571	0.0159210
686.649	0.0157666
686.727	0.0158832
686.806	0.0158639
686.884	0.0157966
686.962	0.0158434
687.040	0.0158048
687.118	0.0159081
687.196	0.0158807
687.274	0.0158013
687.352	0.0159542
687.431	0.0159022
687.509	0.0159327
687.587	0.0159354
687.665	0.0159946
687.743	0.0160847
687.821	0.0160973
687.899	0.0160513
687.977	0.0161332
688.056	0.0160927
688.134	0.0163005
688.212	0.0162347
688.290	0.0161884
688.368	0.0161761
688.446	0.0161246
688.524	0.0162391
688.602	0.0161888
688.681	0.0162702
688.759	0.0163182
688.837	0.0162502
688.915	0.0162590
688.993	0.0163265
689.071	0.0162871
689.149	0.0162326
689.227	0.0163323
689.306	0.0163493
689.384	0.0162431
689.462	0.0162551
689.540	0.0162811
689.618	0.0163354
689.696	0.0162859
689.774	0.0163171
689.852	0.0162867
689.931	0.0162722
690.009	0.0162293
690.087	0.0161677
690.165	0.0162667
690.243	0.0162918
690.321	0.0161669
690.399	0.0161982
690.477	0.0161104
690.556	0.0162771
690.634	0.0160444
690.712	0.0162824
690.790	0.0161192
690.868	0.0160010
690.946	0.0160258
691.024	0.0160064
691.102	0.0160431
691.181	0.0159409
691.259	0.0159547
691.337	0.0159724
691.415	0.0159444
691.493	0.0159956
691.571	0.0159541
691.649	0.0160024
691.727	0.0160023
691.806	0.0159570
691.884	0.0158961
691.962	0.0160323
692.040	0.0160617
692.118	0.0160727
692.196	0.0160722
692.274	0.0160900
692.352	0.0160301
692.431	0.0162541
692.509	0.0160822
692.587	0.0162272
692.665	0.0161856
692.743	0.0161107
692.821	0.0162158
692.899	0.0161987
692.977	0.0163164
693.056	0.0163828
693.134	0.0164120
693.212	0.0163371
693.290	0.0164224
693.368	0.0163634
693.446	0.0163930
693.524	0.0162876
693.602	0.0162877
693.681	0.0165574
693.759	0.0162231
693.837	0.0162779
693.915	0.0162193
693.993	0.0161721
694.071	0.0161160
694.149	0.0160559
694.227	0.0159294
694.306	0.0160051
694.384	0.0161704
694.462	0.0161820
694.540	0.0162411
694.618	0.0161776
694.696	0.0159495
694.774	0.0161414
694.852	0.0162041
694.931	0.0162161
695.009	0.0162331
695.087	0.0161378
695.165	0.0163381
695.243	0.0161020
695.321	0.0161438
695.399	0.0160532
695.477	0.0161465
695.556	0.0160725
695.634	0.0161015
695.712	0.0159076
695.790	0.0158750
695.868	0.0158474
695.946	0.0159997
696.024	0.0157559
696.102	0.0158860
696.181	0.0158138
696.259	0.0157558
696.337	0.0157935
696.415	0.0155577
696.493	0.0156931
696.571	0.0157503
696.649	0.0157887
696.727	0.0159489
696.806	0.0157005
696.884	0.0157714
696.962	0.0159237
697.040	0.0158968
697.118	0.0158986
697.196	0.0158900
697.274	0.0159740
697.352	0.0160163
697.431	0.0161991
697.509	0.0159961
697.587	0.0161302
697.665	0.0160857
697.743	0.0163207
697.821	0.0163007
697.899	0.0162026
697.977	0.0162817
698.056	0.0162464
698.134	0.0163120
698.212	0.0163802
698.290	0.0164059
698.368	0.0164167
698.446	0.0165047
698.524	0.0164934
698.602	0.0164880
698.681	0.0165082
698.759	0.0164896
698.837	0.0166010
698.915	0.0166027
698.993	0.0165462
699.071	0.0164826
699.149	0.0164726
699.227	0.0164098
699.306	0.0164494
699.384	0.0164099
699.462	0.0162596
699.540	0.0162440
699.618	0.0163126
699.696	0.0161610
699.774	0.0162967
699.852	0.0162252
699.931	0.0161130
700.009	0.0161819
700.087	0.0160180
700.165	0.0160450
700.243	0.0160377
700.321	0.0159809
700.399	0.0159319
700.477	0.0158878
700.556	0.0158689
700.634	0.0157877
700.712	0.0158501
700.790	0.0160249
700.868	0.0158711
700.946	0.0159249
701.024	0.0159412
701.102	0.0158511
701.181	0.0158805
701.259	0.0159438
701.337	0.0159172
701.415	0.0160010
701.493	0.0160646
701.571	0.0159730
701.649	0.0159957
701.727	0.0161412
701.806	0.0161029
701.884	0.0160881
701.962	0.0163139
702.040	0.0162272
702.118	0.0160921
702.196	0.0161205
702.274	0.0161496
702.352	0.0162202
702.431	0.0161457
702.509	0.0161195
702.587	0.0162576
702.665	0.0162810
702.743	0.0162122
702.821	0.0162243
702.899	0.0160575
702.977	0.0161063
703.056	0.0161977
703.134	0.0161858
703.212	0.0161082
703.290	0.0161781
703.368	0.0161626
703.446	0.0162367
703.524	0.0162636
703.602	0.0161732
703.681	0.0162385
703.759	0.0162030
703.837	0.0163790
703.915	0.0163026
703.993	0.0163908
704.071	0.0163513
704.149	0.0163079
704.227	0.0164218
704.306	0.0163126
704.384	0.0164577
704.462	0.0163376
704.540	0.0164841
704.618	0.0165502
704.696	0.0163403
704.774	0.0163242
704.852	0.0164894
704.931	0.0163998
705.009	0.0163464
705.087	0.0163430
705.165	0.0163462
705.243	0.0161002
705.321	0.0162997
705.399	0.0163481
705.477	0.0161564
705.556	0.0161954
705.634	0.0162506
705.712	0.0160970
705.790	0.0160770
705.868	0.0161163
705.946	0.0161167
706.024	0.0159389
706.102	0.0161327
706.181	0.0162004
706.259	0.0160561
706.337	0.0161281
706.415	0.0161149
706.493	0.0161530
706.571	0.0160195
706.649	0.0160188
706.727	0.0158991
706.806	0.0160316
706.884	0.0159454
706.962	0.0159138
707.040	0.0158450
707.118	0.0159052
707.196	0.0160006
707.274	0.0159280
707.352	0.0157695
707.431	0.0157335
707.509	0.0157566
707.587	0.0159366
707.665	0.0157827
707.743	0.0158488
707.821	0.0159141
707.899	0.0158974
707.977	0.0158453
708.056	0.0159185
708.134	0.0159595
708.212	0.0159702
708.290	0.0161002
708.368	0.0160017
708.446	0.0160454
708.524	0.0160757
708.602	0.0160429
708.681	0.0160445
708.759	0.0160772
708.837	0.0160326
708.915	0.0160430
708.993	0.0160051
709.071	0.0162494
709.149	0.0160370
709.227	0.0159673
709.306	0.0161362
709.384	0.0161530
709.462	0.0160616
709.540	0.0159760
709.618	0.0159528
709.696	0.0160505
709.774	0.0159842
709.852	0.0160733
709.931	0.0158163
710.009	0.0159684
710.087	0.0159025
710.165	0.0159766
710.243	0.0158481
710.321	0.0158495
710.399	0.0159322
710.477	0.0159679
710.556	0.0158924
710.634	0.0159329
710.712	0.0160976
710.790	0.0160430
710.868	0.0159369
710.946	0.0160720
711.024	0.0160446
711.102	0.0160700
711.181	0.0161053
711.259	0.0160353
711.337	0.0160007
711.415	0.0159952
711.493	0.0159696
711.571	0.0160619
711.649	0.0161044
711.727	0.0160435
711.806	0.0160023
711.884	0.0160394
711.962	0.0160403
712.040	0.0160103
712.118	0.0160743
712.196	0.0160269
712.274	0.0160833
712.352	0.0160322
712.431	0.0161542
712.509	0.0162511
712.587	0.0160832
712.665	0.0161971
712.743	0.0161883
712.821	0.0162136
712.899	0.0161648
712.977	0.0161279
713.056	0.0160963
713.134	0.0161131
713.212	0.0161569
713.290	0.0161084
713.368	0.0161275
713.446	0.0160663
713.524	0.0160864
713.602	0.0160199
713.681	0.0160754
713.759	0.0160426
713.837	0.0160558
713.915	0.0160726
713.993	0.0160574
714.071	0.0159900
714.149	0.0160144
714.227	0.0160033
714.306	0.0161403
714.384	0.0161338
714.462	0.0162517
714.540	0.0162537
714.618	0.0161735
714.696	0.0161534
714.774	0.0161758
714.852	0.0162399
714.931	0.0164153
715.009	0.0162839
715.087	0.0162177
715.165	0.0163982
715.243	0.0165170
715.321	0.0164640
715.399	0.0163956
715.477	0.0165627
715.556	0.0164241
715.634	0.0164368
715.712	0.0163232
715.790	0.0163780
715.868	0.0164509
715.946	0.0164317
716.024	0.0163114
716.102	0.0163583
716.181	0.0163629
716.259	0.0163167
716.337	0.0163538
716.415	0.0162874
716.493	0.0163836
716.571	0.0162368
716.649	0.0161994
716.727	0.0161798
716.806	0.0162328
716.884	0.0162074
716.962	0.0162276
717.040	0.0162094
717.118	0.0162818
717.196	0.0162638
717.274	0.0161843
717.352	0.0162074
717.431	0.0161405
717.509	0.0162499
717.587	0.0161903
717.665	0.0163142
717.743	0.0162438
717.821	0.0160605
717.899	0.0161053
717.977	0.0163055
718.056	0.0161248
718.134	0.0162975
718.212	0.0161982
718.290	0.0161541
718.368	0.0162719
718.446	0.0162258
718.524	0.0161931
718.602	0.0161841
718.681	0.0161240
718.759	0.0162162
718.837	0.0161665
718.915	0.0161597
718.993	0.0163063
719.071	0.0163592
719.149	0.0163493
719.227	0.0163524
719.306	0.0163363
719.384	0.0162503
719.462	0.0162605
719.540	0.0163032
719.618	0.0162250
719.696	0.0162278
719.774	0.0163118
719.852	0.0161675
719.931	0.0161392
720.009	0.0163457
720.087	0.0160529
720.165	0.0161614
720.243	0.0162079
720.321	0.0162104
720.399	0.0160656
720.477	0.0161102
720.556	0.0160678
720.634	0.0161090
720.712	0.0160654
720.790	0.0159977
720.868	0.0161211
720.946	0.0160254
721.024	0.0159351
721.102	0.0160253
721.181	0.0160648
721.259	0.0160099
721.337	0.0160115
721.415	0.0159415
721.493	0.0159933
721.571	0.0158821
721.649	0.0160099
721.727	0.0160607
721.806	0.0160677
721.884	0.0159618
721.962	0.0160790
722.040	0.0162753
722.118	0.0160680
722.196	0.0161491
722.274	0.0161770
722.352	0.0160960
722.431	0.0162325
722.509	0.0162489
722.587	0.0162639
722.665	0.0163032
722.743	0.0164114
722.821	0.0164076
722.899	0.0164119
722.977	0.0162945
723.056	0.0162882
723.134	0.0163351
723.212	0.0164273
723.290	0.0164815
723.368	0.0163309
723.446	0.0162953
723.524	0.0165620
723.602	0.0163700
723.681	0.0161908
723.759	0.0162031
723.837	0.0163695
723.915	0.0162598
723.993	0.0161643
724.071	0.0162404
724.149	0.0162104
724.227	0.0161794
724.306	0.0161056
724.384	0.0161476
724.462	0.0161647
724.540	0.0160967
724.618	0.0159113
724.696	0.0160228
724.774	0.0160089
724.852	0.0159814
724.931	0.0158965
725.009	0.0158582
725.087	0.0158132
725.165	0.0159371
725.243	0.0160217
725.321	0.0157850
725.399	0.0158469
725.477	0.0157757
725.556	0.0158905
725.634	0.0158449
725.712	0.0158897
725.790	0.0158579
725.868	0.0157527
725.946	0.0158649
726.024	0.0158601
726.102	0.0158354
726.181	0.0159400
726.259	0.0158496
726.337	0.0158969
726.415	0.0159409
726.493	0.0157714
726.571	0.0158076
726.649	0.0158930
726.727	0.0157823
726.806	0.0158265
726.884	0.0159620
726.962	0.0157894
727.040	0.0158815
727.118	0.0159626
727.196	0.0159399
727.274	0.0160104
727.352	0.0159489
727.431	0.0161930
727.509	0.0158738
727.587	0.0159699
727.665	0.0160730
727.743	0.0161734
727.821	0.0160817
727.899	0.0160409
727.977	0.0161304
728.056	0.0162884
728.134	0.0162025
728.212	0.0161013
728.290	0.0162302
728.368	0.0162756
728.446	0.0163054
728.524	0.0162234
728.602	0.0160655
728.681	0.0160800
728.759	0.0162597
728.837	0.0161361
728.915	0.0160307
728.993	0.0160144
729.071	0.0160405
729.149	0.0161523
729.227	0.0162107
729.306	0.0160764
729.384	0.0161073
729.462	0.0159720
729.540	0.0160550
729.618	0.0162193
729.696	0.0160312
729.774	0.0161524
729.852	0.0160370
729.931	0.0159936
730.009	0.0160673
730.087	0.0161073
730.165	0.0160624
730.243	0.0159987
730.321	0.0160587
730.399	0.0161257
730.477	0.0160749
730.556	0.0159834
730.634	0.0162100
730.712	0.0161995
730.790	0.0161610
730.868	0.0160942
730.946	0.0161713
731.024	0.0160626
731.102	0.0162299
731.181	0.0161188
731.259	0.0160544
731.337	0.0161392
731.415	0.0160620
731.493	0.0161576
731.571	0.0162214
731.649	0.0163284
731.727	0.0159945
731.806	0.0160239
731.884	0.0160459
731.962	0.0161446
732.040	0.0162334
732.118	0.0161856
732.196	0.0161846
732.274	0.0161919
732.352	0.0161917
732.431	0.0161324
732.509	0.0160590
732.587	0.0162225
732.665	0.0161449
732.743	0.0162590
732.821	0.0161502
732.899	0.0163148
732.977	0.0161919
733.056	0.0163608
733.134	0.0162929
733.212	0.0163185
733.290	0.0163017
733.368	0.0163116
733.446	0.0163483
733.524	0.0161440
733.602	0.0163248
733.681	0.0162230
733.759	0.0163023
733.837	0.0163912
733.915	0.0163214
733.993	0.0164047
734.071	0.0161979
734.149	0.0162857
734.227	0.0163244
734.306	0.0162694
734.384	0.0162268
734.462	0.0163758
734.540	0.0162457
734.618	0.0161048
734.696	0.0161967
734.774	0.0162386
734.852	0.0161735
734.931	0.0162846
735.009	0.0162064
735.087	0.0161989
735.165	0.0162315
735.243	0.0161089
735.321	0.0162038
735.399	0.0161279
735.477	0.0162413
735.556	0.0162190
735.634	0.0161692
735.712	0.0162202
735.790	0.0159859
735.868	0.0160443
735.946	0.0160574
736.024	0.0160967
736.102	0.0161160
736.181	0.0161115
736.259	0.0159935
736.337	0.0161489
736.415	0.0161228
736.493	0.0160321
736.571	0.0160354
736.649	0.0160054
736.727	0.0159255
736.806	0.0161020
736.884	0.0160958
736.962	0.0160143
737.040	0.0158291
737.118	0.0160023
737.196	0.0160853
737.274	0.0160701
737.352	0.0159740
737.431	0.0159855
737.509	0.0159641
737.587	0.0161303
737.665	0.0160401
737.743	0.0160412
737.821	0.0161320
737.899	0.0159797
737.977	0.0159953
738.056	0.0161691
738.134	0.0159760
738.212	0.0161187
738.290	0.0160445
738.368	0.0161292
738.446	0.0160299
738.524	0.0161937
738.602	0.0161533
738.681	0.0159941
738.759	0.0160583
738.837	0.0161848
738.915	0.0162700
738.993	0.0161375
739.071	0.0162220
739.149	0.0160550
739.227	0.0161041
739.306	0.0161311
739.384	0.0162051
739.462	0.0161154
739.540	0.0161385
739.618	0.0162380
739.696	0.0162264
739.774	0.0162637
739.852	0.0161611
739.931	0.0161786
740.009	0.0162129
740.087	0.0160989
740.165	0.0162261
740.243	0.0160220
740.321	0.0161388
740.399	0.0161626
740.477	0.0161963
740.556	0.0162485
740.634	0.0162655
740.712	0.0162527
740.790	0.0162547
740.868	0.0161984
740.946	0.0161405
741.024	0.0160675
741.102	0.0161581
741.181	0.0162224
741.259	0.0161593
741.337	0.0162415
741.415	0.0161893
741.493	0.0162374
741.571	0.0161431
741.649	0.0161695
741.727	0.0161730
741.806	0.0162399
741.884	0.0161243
741.962	0.0160825
742.040	0.0161650
742.118	0.0160449
742.196	0.0161361
742.274	0.0160573
742.352	0.0160362
742.431	0.0160623
742.509	0.0161417
742.587	0.0159206
742.665	0.0160648
742.743	0.0161048
742.821	0.0161536
742.899	0.0160149
742.977	0.0159256
743.056	0.0160728
743.134	0.0159863
743.212	0.0159109
743.290	0.0159270
743.368	0.0159116
743.446	0.0161207
743.524	0.0160231
743.602	0.0159799
743.681	0.0157800
743.759	0.0159095
743.837	0.0159240
743.915	0.0158570
743.993	0.0159665
744.071	0.0161085
744.149	0.0160414
744.227	0.0160474
744.306	0.0160714
744.384	0.0161648
744.462	0.0162334
744.540	0.0161326
744.618	0.0161325
744.696	0.0161200
744.774	0.0161164
744.852	0.0162191
744.931	0.0161850
745.009	0.0161236
745.087	0.0160756
745.165	0.0162154
745.243	0.0161326
745.321	0.0162415
745.399	0.0162048
745.477	0.0161863
745.556	0.0160960
745.634	0.0163961
745.712	0.0160784
745.790	0.0159882
745.868	0.0160928
745.946	0.0161916
746.024	0.0161191
746.102	0.0161437
746.181	0.0161090
746.259	0.0161549
746.337	0.0162106
746.415	0.0161781
746.493	0.0163380
746.571	0.0162190
746.649	0.0160025
746.727	0.0162928
746.806	0.0163179
746.884	0.0162617
746.962	0.0161676
747.040	0.0162474
747.118	0.0161117
747.196	0.0162441
747.274	0.0162624
747.352	0.0163433
747.431	0.0162699
747.509	0.0163152
747.587	0.0161652
747.665	0.0162660
747.743	0.0161614
747.821	0.0161816
747.899	0.0163326
747.977	0.0163185
748.056	0.0162783
748.134	0.0163652
748.212	0.0162601
748.290	0.0162497
748.368	0.0162935
748.446	0.0163648
748.524	0.0161850
748.602	0.0162377
748.681	0.0163152
748.759	0.0164168
748.837	0.0163488
748.915	0.0163335
748.993	0.0163630
749.071	0.0162825
749.149	0.0162719
749.227	0.0162106
749.306	0.0162449
749.384	0.0162195
749.462	0.0162058
749.540	0.0162033
749.618	0.0162061
749.696	0.0162115
749.774	0.0162891
749.852	0.0161948
749.931	0.0161732
750.009	0.0161488
750.087	0.0161982
750.165	0.0162811
750.243	0.0162722
750.321	0.0162412
750.399	0.0162174
750.477	0.0162122
750.556	0.0162410
750.634	0.0161673
750.712	0.0162265
750.790	0.0161659
750.868	0.0161798
750.946	0.0162394
751.024	0.0161585
751.102	0.0163554
751.181	0.0161577
751.259	0.0160509
751.337	0.0161211
751.415	0.0160698
751.493	0.0163924
751.571	0.0161375
751.649	0.0162431
751.727	0.0160620
751.806	0.0160366
751.884	0.0162103
751.962	0.0162319
752.040	0.0160751
752.118	0.0161005
752.196	0.0161861
752.274	0.0162051
752.352	0.0161546
752.431	0.0161494
752.509	0.0163025
752.587	0.0163457
752.665	0.0162283
752.743	0.0160720
752.821	0.0161311
752.899	0.0161217
752.977	0.0163107
753.056	0.0162708
753.134	0.0163280
753.212	0.0162394
753.290	0.0162204
753.368	0.0163185
753.446	0.0164605
753.524	0.0162560
753.602	0.0163437
753.681	0.0163287
753.759	0.0163489
753.837	0.0161366
753.915	0.0162084
753.993	0.0162471
754.071	0.0161505
754.149	0.0162220
754.227	0.0161901
754.306	0.0162392
754.384	0.0160208
754.462	0.0160300
754.540	0.0160705
754.618	0.0161481
754.696	0.0161248
754.774	0.0160529
754.852	0.0161007
754.931	0.0160470
755.009	0.0159064
755.087	0.0160574
755.165	0.0160312
755.243	0.0160052
755.321	0.0160565
755.399	0.0160213
755.477	0.0160120
755.556	0.0160619
755.634	0.0159698
755.712	0.0159893
755.790	0.0161617
755.868	0.0159854
755.946	0.0160504
756.024	0.0161459
756.102	0.0160860
756.181	0.0160732
756.259	0.0161481
756.337	0.0159827
756.415	0.0160384
756.493	0.0159568
756.571	0.0160936
756.649	0.0161412
756.727	0.0161245
756.806	0.0159403
756.884	0.0160139
756.962	0.0159483
757.040	0.0160521
757.118	0.0159881
757.196	0.0159551
757.274	0.0160528
757.352	0.0160489
757.431	0.0159822
757.509	0.0160369
757.587	0.0159941
757.665	0.0160593
757.743	0.0160892
757.821	0.0160358
757.899	0.0159637
757.977	0.0161320
758.056	0.0160043
758.134	0.0161361
758.212	0.0161292
758.290	0.0160792
758.368	0.0162376
758.446	0.0161714
758.524	0.0160751
758.602	0.0161703
758.681	0.0162135
758.759	0.0162508
758.837	0.0161781
758.915	0.0161887
758.993	0.0161980
759.071	0.0161994
759.149	0.0162280
759.227	0.0162205
759.306	0.0161691
759.384	0.0163180
759.462	0.0161989
759.540	0.0161939
759.618	0.0161615
759.696	0.0162309
759.774	0.0161149
759.852	0.0162275
759.931	0.0162974
760.009	0.0161042
760.087	0.0161209
760.165	0.0162938
760.243	0.0161658
760.321	0.0160583
760.399	0.0162611
760.477	0.0162230
760.556	0.0162201
760.634	0.0161231
760.712	0.0162270
760.790	0.0162041
760.868	0.0161991
760.946	0.0161458
761.024	0.0161475
761.102	0.0163169
761.181	0.0162230
761.259	0.0162234
761.337	0.0161141
761.415	0.0162255
761.493	0.0162209
761.571	0.0163004
761.649	0.0161107
761.727	0.0161604
761.806	0.0162012
761.884	0.0160973
761.962	0.0162905
762.040	0.0161849
762.118	0.0161076
762.196	0.0161140
762.274	0.0161315
762.352	0.0160748
762.431	0.0160927
762.509	0.0161665
762.587	0.0161096
762.665	0.0159467
762.743	0.0161827
762.821	0.0160300
762.899	0.0160746
762.977	0.0160927
763.056	0.0160632
763.134	0.0160281
763.212	0.0160087
763.290	0.0160861
763.368	0.0159249
763.446	0.0160701
763.524	0.0160184
763.602	0.0160569
763.681	0.0162639
763.759	0.0160962
763.837	0.0159931
763.915	0.0159714
763.993	0.0159692
764.071	0.0160093
764.149	0.0161379
764.227	0.0162097
764.306	0.0159489
764.384	0.0159966
764.462	0.0160979
764.540	0.0160224
764.618	0.0160356
764.696	0.0160040
764.774	0.0160630
764.852	0.0160059
764.931	0.0160751
765.009	0.0160567
765.087	0.0161013
765.165	0.0159274
765.243	0.0158543
765.321	0.0160310
765.399	0.0160190
765.477	0.0158483
765.556	0.0160052
765.634	0.0160490
765.712	0.0159847
765.790	0.0160234
765.868	0.0160250
765.946	0.0160434
766.024	0.0160710
766.102	0.0159992
766.181	0.0159868
766.259	0.0160930
766.337	0.0161340
766.415	0.0160493
766.493	0.0161086
766.571	0.0160473
766.649	0.0160973
766.727	0.0160205
766.806	0.0161888
766.884	0.0162456
766.962	0.0162247
767.040	0.0161930
767.118	0.0160905
767.196	0.0162331
767.274	0.0162353
767.352	0.0163612
767.431	0.0162431
767.509	0.0162646
767.587	0.0163421
767.665	0.0163809
767.743	0.0164225
767.821	0.0165164
767.899	0.0164024
767.977	0.0163700
768.056	0.0163847
768.134	0.0163448
768.212	0.0164492
768.290	0.0164160
768.368	0.0165076
768.446	0.0164432
768.524	0.0164378
768.602	0.0164439
768.681	0.0164549
768.759	0.0163483
768.837	0.0163152
768.915	0.0163309
768.993	0.0163146
769.071	0.0162017
769.149	0.0162052
769.227	0.0162140
769.306	0.0162096
769.384	0.0163762
769.462	0.0162476
769.540	0.0162301
769.618	0.0161616
769.696	0.0163538
769.774	0.0161945
769.852	0.0162082
769.931	0.0161764
770.009	0.0161221
770.087	0.0160851
770.165	0.0160980
770.243	0.0162096
770.321	0.0161861
770.399	0.0162768
770.477	0.0162316
770.556	0.0161713
770.634	0.0161185
770.712	0.0161549
770.790	0.0161678
770.868	0.0161175
770.946	0.0160704
771.024	0.0161180
771.102	0.0162335
771.181	0.0162581
771.259	0.0162244
771.337	0.0161224
771.415	0.0161329
771.493	0.0161614
771.571	0.0160981
771.649	0.0161533
771.727	0.0161750
771.806	0.0161300
771.884	0.0161285
771.962	0.0161063
772.040	0.0160313
772.118	0.0162048
772.196	0.0160331
772.274	0.0159900
772.352	0.0161278
772.431	0.0159805
772.509	0.0159806
772.587	0.0159575
772.665	0.0159218
772.743	0.0159693
772.821	0.0160352
772.899	0.0160922
772.977	0.0159875
773.056	0.0160275
773.134	0.0159512
773.212	0.0159330
773.290	0.0159747
773.368	0.0159293
773.446	0.0159235
773.524	0.0159583
773.602	0.0159276
773.681	0.0159132
773.759	0.0160439
773.837	0.0160026
773.915	0.0160847
773.993	0.0158994
774.071	0.0159702
774.149	0.0161662
774.227	0.0159472
774.306	0.0160302
774.384	0.0159453
774.462	0.0159289
774.540	0.0160462
774.618	0.0160059
774.696	0.0160337
774.774	0.0159984
774.852	0.0160433
774.931	0.0161154
775.009	0.0159792
775.087	0.0160057
775.165	0.0162663
775.243	0.0161819
775.321	0.0161356
775.399	0.0161789
775.477	0.0160632
775.556	0.0161465
775.634	0.0162320
775.712	0.0161583
775.790	0.0161087
775.868	0.0161208
775.946	0.0161538
776.024	0.0161655
776.102	0.0162373
776.181	0.0161628
776.259	0.0161227
776.337	0.0161576
776.415	0.0161086
776.493	0.0161721
776.571	0.0161620
776.649	0.0162212
776.727	0.0160874
776.806	0.0161095
776.884	0.0161008
776.962	0.0162348
777.040	0.0161523
777.118	0.0160957
777.196	0.0159528
777.274	0.0160461
777.352	0.0162221
777.431	0.0162262
777.509	0.0160452
777.587	0.0161605
777.665	0.0162403
777.743	0.0163493
777.821	0.0161954
777.899	0.0161998
777.977	0.0162080
778.056	0.0161507
778.134	0.0160283
778.212	0.0161398
778.290	0.0162632
778.368	0.0162379
778.446	0.0161337
778.524	0.0162093
778.602	0.0161259
778.681	0.0162431
778.759	0.0162003
778.837	0.0163069
778.915	0.0163733
778.993	0.0164523
779.071	0.0163485
779.149	0.0162636
779.227	0.0163920
779.306	0.0162097
779.384	0.0163573
779.462	0.0162550
779.540	0.0162051
779.618	0.0163634
779.696	0.0164424
779.774	0.0163502
779.852	0.0163259
779.931	0.0162451
780.009	0.0162881
780.087	0.0164243
780.165	0.0162804
780.243	0.0163362
780.321	0.0163033
780.399	0.0162211
780.477	0.0161908
780.556	0.0162689
780.634	0.0162508
780.712	0.0162441
780.790	0.0162774
780.868	0.0162766
780.946	0.0162283
781.024	0.0163641
781.102	0.0163924
781.181	0.0163412
781.259	0.0162000
781.337	0.0162231
781.415	0.0162881
781.493	0.0162970
781.571	0.0162794
781.649	0.0160923
781.727	0.0161861
781.806	0.0162021
781.884	0.0161232
781.962	0.0161373
782.040	0.0161517
782.118	0.0162746
782.196	0.0160534
782.274	0.0160778
782.352	0.0160670
782.431	0.0160394
782.509	0.0160598
782.587	0.0160266
782.665	0.0160295
782.743	0.0160426
782.821	0.0159984
782.899	0.0159899
782.977	0.0160187
783.056	0.0159715
783.134	0.0160004
783.212	0.0159740
783.290	0.0159349
783.368	0.0159124
783.446	0.0159462
783.524	0.0159440
783.602	0.0161120
783.681	0.0159707
783.759	0.0158395
783.837	0.0159664
783.915	0.0158274
783.993	0.0158812
784.071	0.0158936
784.149	0.0156749
784.227	0.0159611
784.306	0.0157106
784.384	0.0158704
784.462	0.0158794
784.540	0.0158562
784.618	0.0159166
784.696	0.0157006
784.774	0.0157527
784.852	0.0158429
784.931	0.0158614
785.009	0.0159145
785.087	0.0159093
785.165	0.0158381
785.243	0.0160199
785.321	0.0159822
785.399	0.0159680
785.477	0.0159721
785.556	0.0161424
785.634	0.0161623
785.712	0.0160226
785.790	0.0162064
785.868	0.0162780
785.946	0.0161326
786.024	0.0162910
786.102	0.0163055
786.181	0.0163303
786.259	0.0163299
786.337	0.0162074
786.415	0.0162196
786.493	0.0162585
786.571	0.0162525
786.649	0.0162302
786.727	0.0162575
786.806	0.0163832
786.884	0.0162590
786.962	0.0162848
787.040	0.0162823
787.118	0.0164046
787.196	0.0164161
787.274	0.0163416
787.352	0.0163914
787.431	0.0162685
787.509	0.0163007
787.587	0.0163806
787.665	0.0163459
787.743	0.0162399
787.821	0.0163319
787.899	0.0162792
787.977	0.0163110
788.056	0.0163333
788.134	0.0164986
788.212	0.0163412
788.290	0.0163226
788.368	0.0163734
788.446	0.0162189
788.524	0.0162466
788.602	0.0162640
788.681	0.0163671
788.759	0.0161374
788.837	0.0162640
788.915	0.0162558
788.993	0.0161613
789.071	0.0160789
789.149	0.0162271
789.227	0.0161300
789.306	0.0161857
789.384	0.0162703
789.462	0.0162782
789.540	0.0160658
789.618	0.0161928
789.696	0.0161741
789.774	0.0161560
789.852	0.0161191
789.931	0.0161595
790.009	0.0162001
790.087	0.0162298
790.165	0.0159805
790.243	0.0161039
790.321	0.0160252
790.399	0.0160172
790.477	0.0160691
790.556	0.0161802
790.634	0.0162525
790.712	0.0161131
790.790	0.0159933
790.868	0.0161192
790.946	0.0162585
791.024	0.0161385
791.102	0.0161332
791.181	0.0160486
791.259	0.0161391
791.337	0.0160882
791.415	0.0161623
791.493	0.0160795
791.571	0.0160088
791.649	0.0161924
791.727	0.0160050
791.806	0.0159398
791.884	0.0158088
791.962	0.0160582
792.040	0.0161130
792.118	0.0161681
792.196	0.0161479
792.274	0.0159142
792.352	0.0160661
792.431	0.0160729
792.509	0.0160863
792.587	0.0161808
792.665	0.0159952
792.743	0.0160142
792.821	0.0160382
792.899	0.0160294
792.977	0.0160978
793.056	0.0161986
793.134	0.0159778
793.212	0.0160645
793.290	0.0162243
793.368	0.0161465
793.446	0.0160294
793.524	0.0161279
793.602	0.0159941
793.681	0.0162311
793.759	0.0161784
793.837	0.0161398
793.915	0.0159966
793.993	0.0161329
794.071	0.0161443
794.149	0.0160475
794.227	0.0160538
794.306	0.0158614
794.384	0.0159220
794.462	0.0160822
794.540	0.0160497
794.618	0.0159330
794.696	0.0159485
794.774	0.0160563
794.852	0.0160000
794.931	0.0159556
795.009	0.0160044
795.087	0.0160156
795.165	0.0159222
795.243	0.0160547
795.321	0.0158398
795.399	0.0160246
795.477	0.0159927
795.556	0.0159756
795.634	0.0159588
795.712	0.0158969
795.790	0.0159380
795.868	0.0161226
795.946	0.0160862
796.024	0.0159773
796.102	0.0160780
796.181	0.0160708
796.259	0.0161002
796.337	0.0160213
796.415	0.0161901
796.493	0.0161445
796.571	0.0161420
796.649	0.0161353
796.727	0.0161995
796.806	0.0161425
796.884	0.0161930
796.962	0.0161493
797.040	0.0161858
797.118	0.0161880
797.196	0.0162010
797.274	0.0160876
797.352	0.0162914
797.431	0.0162688
797.509	0.0160621
797.587	0.0161352
797.665	0.0161036
797.743	0.0162211
797.821	0.0161728
797.899	0.0161551
797.977	0.0161781
798.056	0.0161467
798.134	0.0161416
798.212	0.0161346
798.290	0.0160967
798.368	0.0160740
798.446	0.0161008
798.524	0.0162507
798.602	0.0161843
798.681	0.0164058
798.759	0.0161782
798.837	0.0160747
798.915	0.0161483
798.993	0.0163299
799.071	0.0161098
799.149	0.0161759
799.227	0.0161320
799.306	0.0161830
799.384	0.0161983
799.462	0.0161791
799.540	0.0160757
799.618	0.0161965
799.696	0.0161488
799.774	0.0161092
799.852	0.0161060
799.931	0.0162685
800.009	0.0161644
800.087	0.0162725
800.165	0.0161949
800.243	0.0161612
800.321	0.0162594
800.399	0.0161676
800.477	0.0162830
800.556	0.0161934
800.634	0.0163879
800.712	0.0161821
800.790	0.0162617
800.868	0.0161466
800.946	0.0162710
801.024	0.0162239
801.102	0.0163433
801.181	0.0163059
801.259	0.0162761
801.337	0.0162805
801.415	0.0162753
801.493	0.0163381
801.571	0.0162891
801.649	0.0163626
801.727	0.0162249
801.806	0.0162850
801.884	0.0162718
801.962	0.0163078
802.040	0.0162428
802.118	0.0161960
802.196	0.0161737
802.274	0.0162248
802.352	0.0163072
802.431	0.0161018
802.509	0.0163456
802.587	0.0163624
802.665	0.0161405
802.743	0.0161453
802.821	0.0161938
802.899	0.0162222
802.977	0.0162303
803.056	0.0163245
803.134	0.0161976
803.212	0.0162011
803.290	0.0162355
803.368	0.0162148
803.446	0.0161773
803.524	0.0162456
803.602	0.0162655
803.681	0.0162009
803.759	0.0160598
803.837	0.0160818
803.915	0.0161720
803.993	0.0160791
804.071	0.0159507
804.149	0.0161649
804.227	0.0159892
804.306	0.0160851
804.384	0.0160420
804.462	0.0159923
804.540	0.0160684
804.618	0.0160139
804.696	0.0160715
804.774	0.0161112
804.852	0.0161472
804.931	0.0159530
805.009	0.0161295
805.087	0.0160057
805.165	0.0159032
805.243	0.0159957
805.321	0.0159744
805.399	0.0160725
805.477	0.0160521
805.556	0.0161140
805.634	0.0160287
805.712	0.0161067
805.790	0.0160819
805.868	0.0160246
805.946	0.0160324
806.024	0.0160007
806.102	0.0158105
806.181	0.0159216
806.259	0.0160684
806.337	0.0158853
806.415	0.0158838
806.493	0.0158700
806.571	0.0158304
806.649	0.0160868
806.727	0.0159559
806.806	0.0160269
806.884	0.0159641
806.962	0.0159054
807.040	0.0157669
807.118	0.0159723
807.196	0.0159403
807.274	0.0159700
807.352	0.0158781
807.431	0.0159304
807.509	0.0159128
807.587	0.0159885
807.665	0.0160319
807.743	0.0159682
807.821	0.0161740
807.899	0.0159254
807.977	0.0161182
808.056	0.0160808
808.134	0.0159998
808.212	0.0161767
808.290	0.0161476
808.368	0.0160891
808.446	0.0161521
808.524	0.0160664
808.602	0.0161024
808.681	0.0162386
808.759	0.0162543
808.837	0.0161671
808.915	0.0161943
808.993	0.0163139
809.071	0.0162328
809.149	0.0162334
809.227	0.0163110
809.306	0.0162019
809.384	0.0161664
809.462	0.0161122
809.540	0.0161575
809.618	0.0161528
809.696	0.0160862
809.774	0.0160825
809.852	0.0161868
809.931	0.0161280
810.009	0.0161253
810.087	0.0161967
810.165	0.0161832
810.243	0.0164028
810.321	0.0163186
810.399	0.0162145
810.477	0.0161890
810.556	0.0162358
810.634	0.0162109
810.712	0.0163011
810.790	0.0161972
810.868	0.0162785
810.946	0.0162402
811.024	0.0162330
811.102	0.0161184
811.181	0.0160822
811.259	0.0160928
811.337	0.0160088
811.415	0.0161578
811.493	0.0161885
811.571	0.0161039
811.649	0.0161366
811.727	0.0161065
811.806	0.0160367
811.884	0.0162161
811.962	0.0160870
812.040	0.0161021
812.118	0.0162581
812.196	0.0160687
812.274	0.0160499
812.352	0.0160436
812.431	0.0160973
812.509	0.0162681
812.587	0.0162032
812.665	0.0160486
812.743	0.0159758
812.821	0.0161491
812.899	0.0161089
812.977	0.0162779
813.056	0.0160796
813.134	0.0159567
813.212	0.0162476
813.290	0.0162274
813.368	0.0161877
813.446	0.0163148
813.524	0.0161298
813.602	0.0160833
813.681	0.0161713
813.759	0.0161858
813.837	0.0162572
813.915	0.0161496
813.993	0.0160068
814.071	0.0161784
814.149	0.0160548
814.227	0.0161559
814.306	0.0161725
814.384	0.0161351
814.462	0.0161404
814.540	0.0161060
814.618	0.0159955
814.696	0.0160261
814.774	0.0162701
814.852	0.0161319
814.931	0.0162316
815.009	0.0160915
815.087	0.0160727
815.165	0.0160004
815.243	0.0161512
815.321	0.0161133
815.399	0.0160254
815.477	0.0162052
815.556	0.0160747
815.634	0.0161408
815.712	0.0161175
815.790	0.0160702
815.868	0.0161377
815.946	0.0160845
816.024	0.0159438
816.102	0.0161135
816.181	0.0160227
816.259	0.0160762
816.337	0.0161708
816.415	0.0159925
816.493	0.0160936
816.571	0.0161604
816.649	0.0162167
816.727	0.0159959
816.806	0.0160371
816.884	0.0161211
816.962	0.0160389
817.040	0.0161653
817.118	0.0161027
817.196	0.0161053
817.274	0.0160954
817.352	0.0160993
817.431	0.0160178
817.509	0.0161408
817.587	0.0160301
817.665	0.0161049
817.743	0.0160484
817.821	0.0160380
817.899	0.0158812
817.977	0.0159946
818.056	0.0159820
818.134	0.0158850
818.212	0.0159369
818.290	0.0158701
818.368	0.0159761
818.446	0.0159570
818.524	0.0161237
818.602	0.0160374
818.681	0.0159188
818.759	0.0159940
818.837	0.0160178
818.915	0.0159010
818.993	0.0159731
819.071	0.0159839
819.149	0.0159510
819.227	0.0159130
819.306	0.0159718
819.384	0.0159863
819.462	0.0160509
819.540	0.0159731
819.618	0.0159595
819.696	0.0159896
819.774	0.0161142
819.852	0.0159595
819.931	0.0159096
820.009	0.0160015
820.087	0.0160455
820.165	0.0159590
820.243	0.0159240
820.321	0.0160529
820.399	0.0159960
820.477	0.0159814
820.556	0.0161854
820.634	0.0161082
820.712	0.0159119
820.790	0.0160732
820.868	0.0162305
820.946	0.0162503
821.024	0.0161629
821.102	0.0162446
821.181	0.0162656
821.259	0.0162189
821.337	0.0161046
821.415	0.0161546
821.493	0.0163520
821.571	0.0162357
821.649	0.0162039
821.727	0.0162163
821.806	0.0161646
821.884	0.0163380
821.962	0.0162577
822.040	0.0162957
822.118	0.0163819
822.196	0.0162657
822.274	0.0161806
822.352	0.0161855
822.431	0.0162189
822.509	0.0163223
822.587	0.0162078
822.665	0.0162845
822.743	0.0163854
822.821	0.0162663
822.899	0.0162369
822.977	0.0163051
823.056	0.0161722
823.134	0.0162276
823.212	0.0162184
823.290	0.0162038
823.368	0.0162351
823.446	0.0161602
823.524	0.0161654
823.602	0.0161465
823.681	0.0162022
823.759	0.0161849
823.837	0.0161385
823.915	0.0161884
823.993	0.0161559
824.071	0.0160932
824.149	0.0160558
824.227	0.0162418
824.306	0.0161300
824.384	0.0161272
824.462	0.0161674
824.540	0.0161507
824.618	0.0162442
824.696	0.0161619
824.774	0.0160459
824.852	0.0161845
824.931	0.0161915
825.009	0.0162658
825.087	0.0161218
825.165	0.0160576
825.243	0.0160137
825.321	0.0161330
825.399	0.0162454
825.477	0.0161299
825.556	0.0161079
825.634	0.0160733
825.712	0.0161298
825.790	0.0161433
825.868	0.0161301
825.946	0.0160590
826.024	0.0160493
826.102	0.0161115
826.181	0.0161712
826.259	0.0159744
826.337	0.0159775
826.415	0.0159552
826.493	0.0160378
826.571	0.0161896
826.649	0.0160112
826.727	0.0158059
826.806	0.0160103
826.884	0.0160006
826.962	0.0158775
827.040	0.0160516
827.118	0.0159794
827.196	0.0159715
827.274	0.0159704
827.352	0.0158028
827.431	0.0160730
827.509	0.0160962
827.587	0.0159287
827.665	0.0159924
827.743	0.0160229
827.821	0.0159027
827.899	0.0160747
827.977	0.0160516
828.056	0.0160183
828.134	0.0160420
828.212	0.0161117
828.290	0.0161400
828.368	0.0160840
828.446	0.0160339
828.524	0.0161171
828.602	0.0160992
828.681	0.0160898
828.759	0.0160464
828.837	0.0161184
828.915	0.0160223
828.993	0.0161682
829.071	0.0160304
829.149	0.0160450
829.227	0.0160847
829.306	0.0161085
829.384	0.0161328
829.462	0.0160524
829.540	0.0161007
829.618	0.0161523
829.696	0.0161308
829.774	0.0161040
829.852	0.0159824
829.931	0.0159974
830.009	0.0160452
830.087	0.0161061
830.165	0.0159709
830.243	0.0161599
830.321	0.0160780
830.399	0.0160464
830.477	0.0162002
830.556	0.0162094
830.634	0.0163275
830.712	0.0161175
830.790	0.0162579
830.868	0.0161801
830.946	0.0162965
831.024	0.0163124
831.102	0.0162467
831.181	0.0162708
831.259	0.0162608
831.337	0.0163440
831.415	0.0162212
831.493	0.0162714
831.571	0.0163282
831.649	0.0162833
831.727	0.0163914
831.806	0.0163618
831.884	0.0164466
831.962	0.0163374
832.040	0.0163325
832.118	0.0164236
832.196	0.0163049
832.274	0.0162682
832.352	0.0163403
832.431	0.0164381
832.509	0.0162661
832.587	0.0161533
832.665	0.0162648
832.743	0.0163715
832.821	0.0162489
832.899	0.0163544
832.977	0.0162685
833.056	0.0162244
833.134	0.0162122
833.212	0.0162177
833.290	0.0163290
833.368	0.0162257
833.446	0.0162744
833.524	0.0162558
833.602	0.0161520
833.681	0.0161845
833.759	0.0163321
833.837	0.0162009
833.915	0.0162178
833.993	0.0161781
834.071	0.0161597
834.149	0.0160036
834.227	0.0160918
834.306	0.0161073
834.384	0.0160565
834.462	0.0160272
834.540	0.0160999
834.618	0.0161918
834.696	0.0160303
834.774	0.0160192
834.852	0.0160826
834.931	0.0159975
835.009	0.0160506
835.087	0.0160814
835.165	0.0160607
835.243	0.0161023
835.321	0.0160665
835.399	0.0160970
835.477	0.0161845
835.556	0.0161485
835.634	0.0161221
835.712	0.0160229
835.790	0.0160600
835.868	0.0160284
835.946	0.0160706
836.024	0.0161221
836.102	0.0161585
836.181	0.0160115
836.259	0.0160659
836.337	0.0161068
836.415	0.0160639
836.493	0.0160506
836.571	0.0158376
836.649	0.0160014
836.727	0.0160596
836.806	0.0159869
836.884	0.0159321
836.962	0.0160197
837.040	0.0160546
837.118	0.0161036
837.196	0.0160404
837.274	0.0160026
837.352	0.0158871
837.431	0.0159126
837.509	0.0161421
837.587	0.0160813
837.665	0.0159895
837.743	0.0159164
837.821	0.0160048
837.899	0.0160712
837.977	0.0159851
838.056	0.0160389
838.134	0.0159800
838.212	0.0160368
838.290	0.0161027
838.368	0.0161577
838.446	0.0159933
838.524	0.0160101
838.602	0.0160938
838.681	0.0160721
838.759	0.0161808
838.837	0.0161109
838.915	0.0161559
838.993	0.0161211
839.071	0.0160451
839.149	0.0161314
839.227	0.0159987
839.306	0.0160604
839.384	0.0162171
839.462	0.0160540
839.540	0.0159763
839.618	0.0161195
839.696	0.0160900
839.774	0.0160977
839.852	0.0161948
839.931	0.0160153
840.009	0.0160054
840.087	0.0159659
840.165	0.0160356
840.243	0.0159704
840.321	0.0159632
840.399	0.0160223
840.477	0.0159891
840.556	0.0160366
840.634	0.0159673
840.712	0.0159599
840.790	0.0159991
840.868	0.0160204
840.946	0.0160624
841.024	0.0159465
841.102	0.0158054
841.181	0.0160259
841.259	0.0157749
841.337	0.0159407
841.415	0.0159573
841.493	0.0159467
841.571	0.0158706
841.649	0.0159991
841.727	0.0160523
841.806	0.0159071
841.884	0.0160072
841.962	0.0159598
842.040	0.0159956
842.118	0.0162327
842.196	0.0160283
842.274	0.0158827
842.352	0.0159702
842.431	0.0160155
842.509	0.0159587
842.587	0.0160961
842.665	0.0161074
842.743	0.0159341
842.821	0.0159148
842.899	0.0162302
842.977	0.0161036
843.056	0.0160760
843.134	0.0160863
843.212	0.0161426
843.290	0.0159808
843.368	0.0159966
843.446	0.0160261
843.524	0.0159579
843.602	0.0160514
843.681	0.0161069
843.759	0.0159895
843.837	0.0160469
843.915	0.0160301
843.993	0.0159196
844.071	0.0158919
844.149	0.0161021
844.227	0.0160699
844.306	0.0160171
844.384	0.0159805
844.462	0.0161959
844.540	0.0161237
844.618	0.0160735
844.696	0.0161195
844.774	0.0162649
844.852	0.0163461
844.931	0.0162861
845.009	0.0163320
845.087	0.0163365
845.165	0.0163491
845.243	0.0164082
845.321	0.0163847
845.399	0.0163554
845.477	0.0162848
845.556	0.0163535
845.634	0.0163913
845.712	0.0164968
845.790	0.0165282
845.868	0.0165922
845.946	0.0164201
846.024	0.0164778
846.102	0.0163982
846.181	0.0164898
846.259	0.0163793
846.337	0.0163617
846.415	0.0162994
846.493	0.0163249
846.571	0.0164540
846.649	0.0164271
846.727	0.0162679
846.806	0.0163476
846.884	0.0163773
846.962	0.0164491
847.040	0.0164671
847.118	0.0163583
847.196	0.0163011
847.274	0.0164159
847.352	0.0164323
847.431	0.0163305
847.509	0.0163002
847.587	0.0163026
847.665	0.0164004
847.743	0.0162121
847.821	0.0162351
847.899	0.0164134
847.977	0.0162001
848.056	0.0162083
848.134	0.0162724
848.212	0.0162099
848.290	0.0162049
848.368	0.0161572
848.446	0.0162386
848.524	0.0161742
848.602	0.0161506
848.681	0.0161147
848.759	0.0160014
848.837	0.0160614
848.915	0.0161060
848.993	0.0160941
849.071	0.0160152
849.149	0.0159077
849.227	0.0159832
849.306	0.0159877
849.384	0.0160912
849.462	0.0158088
849.540	0.0159609
849.618	0.0159294
849.696	0.0158703
849.774	0.0159023
849.852	0.0159090
849.931	0.0158333
850.009	0.0160130
850.087	0.0157753
850.165	0.0160030
850.243	0.0157561
850.321	0.0159832
850.399	0.0160110
850.477	0.0158439
850.556	0.0160078
850.634	0.0159683
850.712	0.0159388
850.790	0.0159796
850.868	0.0159209
850.946	0.0160996
851.024	0.0160342
851.102	0.0159867
851.181	0.0160093
851.259	0.0158775
851.337	0.0160377
851.415	0.0161867
851.493	0.0162691
851.571	0.0162605
851.649	0.0160915
851.727	0.0161793
851.806	0.0161417
851.884	0.0162955
851.962	0.0162310
852.040	0.0163297
852.118	0.0162947
852.196	0.0162620
852.274	0.0161882
852.352	0.0162490
852.431	0.0162562
852.509	0.0161755
852.587	0.0162364
852.665	0.0161929
852.743	0.0162075
852.821	0.0162013
852.899	0.0161249
852.977	0.0161958
853.056	0.0161145
853.134	0.0163586
853.212	0.0163144
853.290	0.0161430
853.368	0.0159634
853.446	0.0161583
853.524	0.0163155
853.602	0.0162964
853.681	0.0161855
853.759	0.0160852
853.837	0.0163414
853.915	0.0162237
853.993	0.0161926
854.071	0.0162955
854.149	0.0161610
854.227	0.0162983
854.306	0.0161995
854.384	0.0160523
854.462	0.0162527
854.540	0.0162060
854.618	0.0161856
854.696	0.0161178
854.774	0.0163425
854.852	0.0162395
854.931	0.0162323
855.009	0.0162984
855.087	0.0161155
855.165	0.0161224
855.243	0.0162796
855.321	0.0161980
855.399	0.0161742
855.477	0.0161985
855.556	0.0162823
855.634	0.0161758
855.712	0.0162278
855.790	0.0162141
855.868	0.0162914
855.946	0.0164055
856.024	0.0161675
856.102	0.0161340
856.181	0.0161746
856.259	0.0162415
856.337	0.0161010
856.415	0.0162717
856.493	0.0163824
856.571	0.0162186
856.649	0.0162534
856.727	0.0162611
856.806	0.0162531
856.884	0.0162064
856.962	0.0161524
857.040	0.0163389
857.118	0.0162808
857.196	0.0162434
857.274	0.0161570
857.352	0.0163226
857.431	0.0163122
857.509	0.0162711
857.587	0.0162148
857.665	0.0161718
857.743	0.0161850
857.821	0.0161615
857.899	0.0161691
857.977	0.0163152
858.056	0.0161665
858.134	0.0161362
858.212	0.0160827
858.290	0.0161604
858.368	0.0162148
858.446	0.0160366
858.524	0.0161613
858.602	0.0161212
858.681	0.0161803
858.759	0.0159969
858.837	0.0162206
858.915	0.0160445
858.993	0.0161012
859.071	0.0161736
859.149	0.0160370
859.227	0.0160136
859.306	0.0159546
859.384	0.0160020
859.462	0.0161141
859.540	0.0161288
859.618	0.0162376
859.696	0.0160495
859.774	0.0160777
859.852	0.0160421
859.931	0.0159570
860.009	0.0160260
860.087	0.0161138
860.165	0.0159098
860.243	0.0160537
860.321	0.0160468
860.399	0.0160218
860.477	0.0160889
860.556	0.0161754
860.634	0.0160419
860.712	0.0160314
860.790	0.0161060
860.868	0.0161591
860.946	0.0160509
861.024	0.0161817
861.102	0.0161046
861.181	0.0160480
861.259	0.0160782
861.337	0.0161132
861.415	0.0162340
861.493	0.0161475
861.571	0.0159853
861.649	0.0159800
861.727	0.0160075
861.806	0.0160497
861.884	0.0160002
861.962	0.0161600
862.040	0.0161949
862.118	0.0161046
862.196	0.0162338
862.274	0.0161760
862.352	0.0160461
862.431	0.0161620
862.509	0.0160394
862.587	0.0162692
862.665	0.0160916
862.743	0.0160045
862.821	0.0161697
862.899	0.0161082
862.977	0.0161814
863.056	0.0162347
863.134	0.0160954
863.212	0.0160235
863.290	0.0161971
863.368	0.0162655
863.446	0.0161443
863.524	0.0161951
863.602	0.0160848
863.681	0.0162152
863.759	0.0160949
863.837	0.0161773
863.915	0.0161738
863.993	0.0162926
864.071	0.0162091
864.149	0.0161277
864.227	0.0162863
864.306	0.0162295
864.384	0.0161459
864.462	0.0162377
864.540	0.0162729
864.618	0.0162133
864.696	0.0161914
864.774	0.0162094
864.852	0.0161861
864.931	0.0162206
865.009	0.0162156
865.087	0.0162050
865.165	0.0162228
865.243	0.0162852
865.321	0.0161997
865.399	0.0162499
865.477	0.0162030
865.556	0.0161220
865.634	0.0161202
865.712	0.0161558
865.790	0.0159645
865.868	0.0161028
865.946	0.0161481
866.024	0.0161037
866.102	0.0161427
866.181	0.0161339
866.259	0.0161263
866.337	0.0161618
866.415	0.0160710
866.493	0.0159966
866.571	0.0159078
866.649	0.0160020
866.727	0.0161662
866.806	0.0160839
866.884	0.0160265
866.962	0.0159722
867.040	0.0160419
867.118	0.0160426
867.196	0.0159943
867.274	0.0161920
867.352	0.0162466
867.431	0.0161087
867.509	0.0159793
867.587	0.0161720
867.665	0.0162133
867.743	0.0161378
867.821	0.0162050
867.899	0.0163244
867.977	0.0162326
868.056	0.0161683
868.134	0.0162610
868.212	0.0163747
868.290	0.0163857
868.368	0.0163525
868.446	0.0164146
868.524	0.0163370
868.602	0.0164034
868.681	0.0163245
868.759	0.0162083
868.837	0.0164382
868.915	0.0163128
868.993	0.0163354
869.071	0.0162769
869.149	0.0162141
869.227	0.0162934
869.306	0.0162419
869.384	0.0160792
869.462	0.0161318
869.540	0.0161452
869.618	0.0161971
869.696	0.0162262
869.774	0.0160920
869.852	0.0161166
869.931	0.0162990
870.009	0.0162009
870.087	0.0160560
870.165	0.0160485
870.243	0.0160919
870.321	0.0162278
870.399	0.0161132
870.477	0.0162321
870.556	0.0161073
870.634	0.0161745
870.712	0.0162006
870.790	0.0162021
870.868	0.0162408
870.946	0.0162360
871.024	0.0161908
871.102	0.0162334
871.181	0.0162417
871.259	0.0162241
871.337	0.0161235
871.415	0.0162434
871.493	0.0163046
871.571	0.0162408
871.649	0.0160975
871.727	0.0162121
871.806	0.0161752
871.884	0.0162650
871.962	0.0160931
872.040	0.0160829
872.118	0.0162722
872.196	0.0161374
872.274	0.0162369
872.352	0.0161762
872.431	0.0161480
872.509	0.0162339
872.587	0.0162116
872.665	0.0163489
872.743	0.0162759
872.821	0.0162724
872.899	0.0163201
872.977	0.0163184
873.056	0.0161880
873.134	0.0161291
873.212	0.0163540
873.290	0.0163109
873.368	0.0161586
873.446	0.0162160
873.524	0.0162879
873.602	0.0162575
873.681	0.0161430
873.759	0.0161203
873.837	0.0161442
873.915	0.0162488
873.993	0.0163065
874.071	0.0162046
874.149	0.0161925
874.227	0.0162449
874.306	0.0162801
874.384	0.0161719
874.462	0.0161314
874.540	0.0160909
874.618	0.0161157
874.696	0.0161045
874.774	0.0160874
874.852	0.0161969
874.931	0.0161973
875.009	0.0160770
875.087	0.0161997
875.165	0.0161973
875.243	0.0161764
875.321	0.0162152
875.399	0.0161808
875.477	0.0160876
875.556	0.0161260
875.634	0.0163522
875.712	0.0163052
875.790	0.0162062
875.868	0.0162420
875.946	0.0161043
876.024	0.0162845
876.102	0.0162940
876.181	0.0162821
876.259	0.0163611
876.337	0.0163741
876.415	0.0163165
876.493	0.0163510
876.571	0.0163744
876.649	0.0161169
876.727	0.0162627
876.806	0.0162353
876.884	0.0163830
876.962	0.0163525
877.040	0.0162184
877.118	0.0162267
877.196	0.0163362
877.274	0.0162742
877.352	0.0163145
877.431	0.0161189
877.509	0.0163206
877.587	0.0162689
877.665	0.0162797
877.743	0.0162000
877.821	0.0162583
877.899	0.0163399
877.977	0.0164082
878.056	0.0162727
878.134	0.0161951
878.212	0.0162399
878.290	0.0162642
878.368	0.0162084
878.446	0.0162663
878.524	0.0161523
878.602	0.0162899
878.681	0.0162745
878.759	0.0163767
878.837	0.0162195
878.915	0.0163113
878.993	0.0161847
879.071	0.0161288
879.149	0.0161033
879.227	0.0163105
879.306	0.0161513
879.384	0.0161319
879.462	0.0161640
879.540	0.0161414
879.618	0.0162563
879.696	0.0161230
879.774	0.0160833
879.852	0.0161765
879.931	0.0160191
880.009	0.0161227
880.087	0.0160696
880.165	0.0160889
880.243	0.0160230
880.321	0.0161678
880.399	0.0161501
880.477	0.0161724
880.556	0.0161548
880.634	0.0162806
880.712	0.0161060
880.790	0.0160046
880.868	0.0160305
880.946	0.0160402
881.024	0.0161765
881.102	0.0159885
881.181	0.0159556
881.259	0.0160183
881.337	0.0158948
881.415	0.0160686
881.493	0.0160835
881.571	0.0160553
881.649	0.0159512
881.727	0.0159829
881.806	0.0159794
881.884	0.0160256
881.962	0.0161629
882.040	0.0160575
882.118	0.0160461
882.196	0.0161492
882.274	0.0160804
882.352	0.0161572
882.431	0.0160096
882.509	0.0161309
882.587	0.0162194
882.665	0.0161082
882.743	0.0160242
882.821	0.0161102
882.899	0.0161069
882.977	0.0160341
883.056	0.0160795
883.134	0.0159037
883.212	0.0160542
883.290	0.0161909
883.368	0.0160138
883.446	0.0161162
883.524	0.0161475
883.602	0.0162077
883.681	0.0161378
883.759	0.0161334
883.837	0.0162088
883.915	0.0161007
883.993	0.0161449
884.071	0.0161501
884.149	0.0161829
884.227	0.0161584
884.306	0.0161036
884.384	0.0161514
884.462	0.0162249
884.540	0.0161440
884.618	0.0161035
884.696	0.0161417
884.774	0.0161868
884.852	0.0161776
884.931	0.0160706
885.009	0.0160516
885.087	0.0159821
885.165	0.0159925
885.243	0.0162984
885.321	0.0161990
885.399	0.0161292
885.477	0.0161021
885.556	0.0161861
885.634	0.0161781
885.712	0.0160951
885.790	0.0161790
885.868	0.0161395
885.946	0.0161123
886.024	0.0161451
886.102	0.0161522
886.181	0.0161959
886.259	0.0162197
886.337	0.0161582
886.415	0.0161842
886.493	0.0162263
886.571	0.0161321
886.649	0.0160846
886.727	0.0162505
886.806	0.0162576
886.884	0.0163078
886.962	0.0162461
887.040	0.0161487
887.118	0.0160845
887.196	0.0162606
887.274	0.0161594
887.352	0.0162059
887.431	0.0161271
887.509	0.0161635
887.587	0.0161790
887.665	0.0161887
887.743	0.0162130
887.821	0.0161609
887.899	0.0162810
887.977	0.0162926
888.056	0.0160558
888.134	0.0159740
888.212	0.0161035
888.290	0.0163126
888.368	0.0162401
888.446	0.0160088
888.524	0.0161086
888.602	0.0161438
888.681	0.0161839
888.759	0.0160717
888.837	0.0160691
888.915	0.0159443
888.993	0.0161288
889.071	0.0162786
889.149	0.0161363
889.227	0.0161363
889.306	0.0160725
889.384	0.0160646
889.462	0.0160720
889.540	0.0160761
889.618	0.0161243
889.696	0.0161459
889.774	0.0159988
889.852	0.0160126
889.931	0.0161498
890.009	0.0161592
890.087	0.0162112
890.165	0.0162396
890.243	0.0161012
890.321	0.0160342
890.399	0.0164050
890.477	0.0163725
890.556	0.0161407
890.634	0.0162242
890.712	0.0163799
890.790	0.0162663
890.868	0.0161736
890.946	0.0162283
891.024	0.0162814
891.102	0.0162634
891.181	0.0161816
891.259	0.0162175
891.337	0.0162512
891.415	0.0162302
891.493	0.0160851
891.571	0.0161385
891.649	0.0161559
891.727	0.0162444
891.806	0.0161543
891.884	0.0162489
891.962	0.0161721
892.040	0.0161398
892.118	0.0162214
892.196	0.0161183
892.274	0.0161188
892.352	0.0160451
892.431	0.0161429
892.509	0.0161877
892.587	0.0161590
892.665	0.0161299
892.743	0.0160536
892.821	0.0160515
892.899	0.0160708
892.977	0.0161739
893.056	0.0162605
893.134	0.0161816
893.212	0.0161000
893.290	0.0161124
893.368	0.0161984
893.446	0.0161626
893.524	0.0162706
893.602	0.0161713
893.681	0.0161499
893.759	0.0162955
893.837	0.0160722
893.915	0.0163102
893.993	0.0162890
894.071	0.0160911
894.149	0.0162478
894.227	0.0161778
894.306	0.0161119
894.384	0.0162972
894.462	0.0162193
894.540	0.0162851
894.618	0.0162447
894.696	0.0161358
894.774	0.0161742
894.852	0.0163514
894.931	0.0163066
895.009	0.0162909
895.087	0.0162120
895.165	0.0160679
895.243	0.0161934
895.321	0.0161510
895.399	0.0163421
895.477	0.0163479
895.556	0.0162185
895.634	0.0161273
895.712	0.0162646
895.790	0.0161806
895.868	0.0162788
895.946	0.0162672
896.024	0.0161057
896.102	0.0162206
896.181	0.0161458
896.259	0.0160796
896.337	0.0161673
896.415	0.0162016
896.493	0.0161857
896.571	0.0160287
896.649	0.0160600
896.727	0.0161138
896.806	0.0161375
896.884	0.0162296
896.962	0.0161338
897.040	0.0159999
897.118	0.0160797
897.196	0.0161238
897.274	0.0160239
897.352	0.0160619
897.431	0.0161095
897.509	0.0161464
897.587	0.0161450
897.665	0.0161460
897.743	0.0162177
897.821	0.0162033
897.899	0.0161913
897.977	0.0162177
898.056	0.0160572
898.134	0.0160887
898.212	0.0162043
898.290	0.0161155
898.368	0.0162437
898.446	0.0161913
898.524	0.0161923
898.602	0.0161864
898.681	0.0161610
898.759	0.0162330
898.837	0.0161640
898.915	0.0162462
898.993	0.0160484
899.071	0.0160663
899.149	0.0161382
899.227	0.0162645
899.306	0.0160782
899.384	0.0160544
899.462	0.0160729
899.540	0.0161159
899.618	0.0162036
899.696	0.0161285
899.774	0.0161281
899.852	0.0160600
899.931	0.0162271
900.009	0.0160205
900.087	0.0162984
900.165	0.0160867
900.243	0.0161336
900.321	0.0162238
900.399	0.0161650
900.477	0.0160683
900.556	0.0162450
900.634	0.0161310
900.712	0.0160663
900.790	0.0162335
900.868	0.0163101
900.946	0.0161562
901.024	0.0162068
901.102	0.0163070
901.181	0.0162907
901.259	0.0162999
901.337	0.0163032
901.415	0.0163578
901.493	0.0162565
901.571	0.0163406
901.649	0.0163725
901.727	0.0163342
901.806	0.0162566
901.884	0.0160819
901.962	0.0161871
902.040	0.0162483
902.118	0.0161450
902.196	0.0161687
902.274	0.0161871
902.352	0.0161263
902.431	0.0161145
902.509	0.0161112
902.587	0.0161511
902.665	0.0162969
902.743	0.0161232
902.821	0.0161632
902.899	0.0162470
902.977	0.0160326
903.056	0.0161667
903.134	0.0160864
903.212	0.0160091
903.290	0.0161488
903.368	0.0160070
903.446	0.0160857
903.524	0.0160139
903.602	0.0161111
903.681	0.0160287
903.759	0.0162334
903.837	0.0159686
903.915	0.0160712
903.993	0.0161037
904.071	0.0161026
904.149	0.0160451
904.227	0.0161584
904.306	0.0161065
904.384	0.0160748
904.462	0.0160859
904.540	0.0161523
904.618	0.0161927
904.696	0.0161783
904.774	0.0161795
904.852	0.0161705
904.931	0.0162925
905.009	0.0162456
905.087	0.0160516
905.165	0.0163860
905.243	0.0162523
905.321	0.0159514
905.399	0.0162579
905.477	0.0162313
905.556	0.0160788
905.634	0.0161671
905.712	0.0162761
905.790	0.0162048
905.868	0.0161444
905.946	0.0162142
906.024	0.0162549
906.102	0.0161465
906.181	0.0162166
906.259	0.0163056
906.337	0.0162724
906.415	0.0162888
906.493	0.0161766
906.571	0.0160847
906.649	0.0162592
906.727	0.0161698
906.806	0.0161209
906.884	0.0161168
906.962	0.0161333
907.040	0.0161515
907.118	0.0162051
907.196	0.0161931
907.274	0.0160151
907.352	0.0161618
907.431	0.0161310
907.509	0.0160491
907.587	0.0161658
907.665	0.0161052
907.743	0.0161001
907.821	0.0160892
907.899	0.0161697
907.977	0.0159507
908.056	0.0159255
908.134	0.0160703
908.212	0.0161855
908.290	0.0160007
908.368	0.0158553
908.446	0.0160332
908.524	0.0160729
908.602	0.0159720
908.681	0.0161317
908.759	0.0159843
908.837	0.0161745
908.915	0.0161004
908.993	0.0161768
909.071	0.0159622
909.149	0.0157803
909.227	0.0159531
909.306	0.0160639
909.384	0.0159950
909.462	0.0159122
909.540	0.0158709
909.618	0.0159863
909.696	0.0160149
909.774	0.0159842
909.852	0.0158716
909.931	0.0160045
910.009	0.0159290
910.087	0.0158837
910.165	0.0159856
910.243	0.0159983
910.321	0.0160226
910.399	0.0159379
910.477	0.0160606
910.556	0.0159995
910.634	0.0159252
910.712	0.0160523
910.790	0.0160983
910.868	0.0160699
910.946	0.0161555
911.024	0.0160754
911.102	0.0160722
911.181	0.0160007
911.259	0.0159149
911.337	0.0160217
911.415	0.0162128
911.493	0.0160921
911.571	0.0162177
911.649	0.0162735
911.727	0.0163007
911.806	0.0162471
911.884	0.0161823
911.962	0.0163136
912.040	0.0163485
912.118	0.0162064
912.196	0.0164030
912.274	0.0162582
912.352	0.0162515
912.431	0.0163017
912.509	0.0162375
912.587	0.0162567
912.665	0.0163098
912.743	0.0164218
912.821	0.0163504
912.899	0.0162374
912.977	0.0162172
913.056	0.0162499
913.134	0.0163666
913.212	0.0161259
913.290	0.0161281
913.368	0.0161476
913.446	0.0162872
913.524	0.0163214
913.602	0.0162108
913.681	0.0160651
913.759	0.0161164
913.837	0.0162755
913.915	0.0160314
913.993	0.0161333
914.071	0.0160102
914.149	0.0160889
914.227	0.0162138
914.306	0.0161355
914.384	0.0159985
914.462	0.0161045
914.540	0.0160223
914.618	0.0160633
914.696	0.0160381
914.774	0.0161575
914.852	0.0161103
914.931	0.0161491
915.009	0.0161784
915.087	0.0161865
915.165	0.0159336
915.243	0.0159933
915.321	0.0160384
915.399	0.0160497
915.477	0.0161297
915.556	0.0160807
915.634	0.0159807
915.712	0.0160118
915.790	0.0160396
915.868	0.0159470
915.946	0.0160632
916.024	0.0160591
916.102	0.0161028
916.181	0.0161204
916.259	0.0160303
916.337	0.0159302
916.415	0.0160542
916.493	0.0159524
916.571	0.0159759
916.649	0.0159792
916.727	0.0160730
916.806	0.0161481
916.884	0.0160596
916.962	0.0159947
917.040	0.0162685
917.118	0.0161646
917.196	0.0161424
917.274	0.0162237
917.352	0.0161542
917.431	0.0162653
917.509	0.0160784
917.587	0.0160619
917.665	0.0161878
917.743	0.0161395
917.821	0.0160902
917.899	0.0160757
917.977	0.0161443
918.056	0.0161008
918.134	0.0162416
918.212	0.0162175
918.290	0.0161915
918.368	0.0161293
918.446	0.0162445
918.524	0.0161402
918.602	0.0162356
918.681	0.0161835
918.759	0.0160310
918.837	0.0160764
918.915	0.0160947
918.993	0.0159841
919.071	0.0161626
919.149	0.0161491
919.227	0.0161001
919.306	0.0159337
919.384	0.0158132
919.462	0.0160422
919.540	0.0160272
919.618	0.0159506
919.696	0.0160454
919.774	0.0160286
919.852	0.0159698
919.931	0.0158538
920.009	0.0159720
920.087	0.0159454
920.165	0.0159811
920.243	0.0159222
920.321	0.0159569
920.399	0.0160845
920.477	0.0159775
920.556	0.0160522
920.634	0.0161886
920.712	0.0160870
920.790	0.0161029
920.868	0.0161459
920.946	0.0160767
921.024	0.0161576
921.102	0.0160804
921.181	0.0161757
921.259	0.0161280
921.337	0.0160135
921.415	0.0160923
921.493	0.0160433
921.571	0.0161600
921.649	0.0160596
921.727	0.0161891
921.806	0.0160728
921.884	0.0159621
921.962	0.0161744
922.040	0.0160941
922.118	0.0160532
922.196	0.0162496
922.274	0.0161298
922.352	0.0160793
922.431	0.0160606
922.509	0.0161285
922.587	0.0161302
922.665	0.0161510
922.743	0.0160311
922.821	0.0160665
922.899	0.0158774
922.977	0.0160368
923.056	0.0160534
923.134	0.0158681
923.212	0.0158475
923.290	0.0160786
923.368	0.0160094
923.446	0.0160210
923.524	0.0159027
923.602	0.0160015
923.681	0.0159680
923.759	0.0160668
923.837	0.0160776
923.915	0.0160707
923.993	0.0161120
924.071	0.0161853
924.149	0.0160740
924.227	0.0160793
924.306	0.0161547
924.384	0.0160558
924.462	0.0160641
924.540	0.0161147
924.618	0.0163049
924.696	0.0162040
924.774	0.0162915
924.852	0.0161699
924.931	0.0161644
925.009	0.0162154
925.087	0.0162430
925.165	0.0163336
925.243	0.0160921
925.321	0.0162415
925.399	0.0162747
925.477	0.0162411
925.556	0.0162226
925.634	0.0161757
925.712	0.0161621
925.790	0.0160767
925.868	0.0162038
925.946	0.0162636
926.024	0.0161917
926.102	0.0161625
926.181	0.0162441
926.259	0.0160686
926.337	0.0160976
926.415	0.0161518
926.493	0.0162582
926.571	0.0161252
926.649	0.0161807
926.727	0.0162489
926.806	0.0161946
926.884	0.0161954
926.962	0.0160781
927.040	0.0161203
927.118	0.0161113
927.196	0.0162146
927.274	0.0160519
927.352	0.0161278
927.431	0.0161541
927.509	0.0160396
927.587	0.0161398
927.665	0.0161500
927.743	0.0161068
927.821	0.0160689
927.899	0.0160757
927.977	0.0161079
928.056	0.0159983
928.134	0.0159941
928.212	0.0159769
928.290	0.0160552
928.368	0.0159552
928.446	0.0162516
928.524	0.0160460
928.602	0.0161210
928.681	0.0161093
928.759	0.0160972
928.837	0.0161616
928.915	0.0160612
928.993	0.0161165
929.071	0.0160652
929.149	0.0161559
929.227	0.0159625
929.306	0.0159048
929.384	0.0160982
929.462	0.0161129
929.540	0.0162156
929.618	0.0161935
929.696	0.0160592
929.774	0.0160277
929.852	0.0159956
929.931	0.0160088
