05/19/2022	00:35:48	Ver.	4.1	UNKNOWN
Optical Delay	630.009178	Delta X		0.078125	Sweeps	1	Scan Rate	0/0
Coordinates	Axis 1	NaN	Axis 2	NaN	Axis 3	NaN	Axis 4	NaN	Axis 5	NaN	Axis 6	0.000000
TX Power	0.000000	RX Power	0.000000

630.009	0.0160587
630.087	0.0161199
630.165	0.0161713
630.244	0.0161897
630.322	0.0159180
630.400	0.0160960
630.478	0.0160548
630.556	0.0160609
630.634	0.0161730
630.712	0.0160299
630.790	0.0161072
630.869	0.0159830
630.947	0.0160123
631.025	0.0161270
631.103	0.0160052
631.181	0.0161371
631.259	0.0160808
631.337	0.0160912
631.415	0.0159830
631.494	0.0159426
631.572	0.0160693
631.650	0.0161169
631.728	0.0160646
631.806	0.0161588
631.884	0.0161005
631.962	0.0162872
632.040	0.0160449
632.119	0.0161938
632.197	0.0160268
632.275	0.0161411
632.353	0.0162346
632.431	0.0161254
632.509	0.0162106
632.587	0.0160312
632.665	0.0159853
632.744	0.0161065
632.822	0.0160971
632.900	0.0160944
632.978	0.0160794
633.056	0.0160745
633.134	0.0159441
633.212	0.0160468
633.290	0.0161819
633.369	0.0160795
633.447	0.0160265
633.525	0.0161596
633.603	0.0160892
633.681	0.0160609
633.759	0.0161695
633.837	0.0160609
633.915	0.0160924
633.994	0.0160744
634.072	0.0160709
634.150	0.0160991
634.228	0.0160398
634.306	0.0161378
634.384	0.0160249
634.462	0.0160111
634.540	0.0160662
634.619	0.0160458
634.697	0.0160660
634.775	0.0161311
634.853	0.0160768
634.931	0.0160865
635.009	0.0160931
635.087	0.0162108
635.165	0.0160846
635.244	0.0160819
635.322	0.0161153
635.400	0.0160201
635.478	0.0161051
635.556	0.0160945
635.634	0.0159356
635.712	0.0162154
635.790	0.0160461
635.869	0.0161759
635.947	0.0162011
636.025	0.0160660
636.103	0.0160590
636.181	0.0160813
636.259	0.0160603
636.337	0.0162125
636.415	0.0161292
636.494	0.0160500
636.572	0.0161432
636.650	0.0159889
636.728	0.0160925
636.806	0.0160789
636.884	0.0161584
636.962	0.0161143
637.040	0.0161115
637.119	0.0160552
637.197	0.0161273
637.275	0.0160406
637.353	0.0159864
637.431	0.0161289
637.509	0.0160913
637.587	0.0161213
637.665	0.0160648
637.744	0.0160292
637.822	0.0161078
637.900	0.0160516
637.978	0.0161121
638.056	0.0159573
638.134	0.0160832
638.212	0.0160742
638.290	0.0160779
638.369	0.0161314
638.447	0.0159368
638.525	0.0161118
638.603	0.0160695
638.681	0.0162222
638.759	0.0160942
638.837	0.0159978
638.915	0.0159958
638.994	0.0161275
639.072	0.0161535
639.150	0.0161056
639.228	0.0161072
639.306	0.0160780
639.384	0.0160181
639.462	0.0160902
639.540	0.0160437
639.619	0.0160818
639.697	0.0160982
639.775	0.0162459
639.853	0.0161375
639.931	0.0160970
640.009	0.0160659
640.087	0.0160285
640.165	0.0160881
640.244	0.0161279
640.322	0.0161286
640.400	0.0161188
640.478	0.0160474
640.556	0.0161584
640.634	0.0161220
640.712	0.0161309
640.790	0.0160829
640.869	0.0161149
640.947	0.0159534
641.025	0.0161004
641.103	0.0160706
641.181	0.0161182
641.259	0.0160199
641.337	0.0161000
641.415	0.0161348
641.494	0.0160188
641.572	0.0160716
641.650	0.0160187
641.728	0.0159977
641.806	0.0160239
641.884	0.0159843
641.962	0.0161295
642.040	0.0160501
642.119	0.0161404
642.197	0.0160395
642.275	0.0160000
642.353	0.0161191
642.431	0.0161683
642.509	0.0160353
642.587	0.0160737
642.665	0.0161442
642.744	0.0160116
642.822	0.0160139
642.900	0.0161381
642.978	0.0160487
643.056	0.0161149
643.134	0.0161066
643.212	0.0159232
643.290	0.0162435
643.369	0.0159866
643.447	0.0159840
643.525	0.0162151
643.603	0.0161775
643.681	0.0162287
643.759	0.0160814
643.837	0.0161719
643.915	0.0161464
643.994	0.0160720
644.072	0.0160990
644.150	0.0160318
644.228	0.0160437
644.306	0.0161233
644.384	0.0161175
644.462	0.0161806
644.540	0.0161635
644.619	0.0160748
644.697	0.0161361
644.775	0.0160242
644.853	0.0160680
644.931	0.0162356
645.009	0.0161290
645.087	0.0160926
645.165	0.0161458
645.244	0.0160793
645.322	0.0160172
645.400	0.0160677
645.478	0.0161014
645.556	0.0160798
645.634	0.0161802
645.712	0.0161722
645.790	0.0161528
645.869	0.0161400
645.947	0.0162186
646.025	0.0160678
646.103	0.0160441
646.181	0.0159760
646.259	0.0162125
646.337	0.0161581
646.415	0.0161147
646.494	0.0161131
646.572	0.0161803
646.650	0.0160679
646.728	0.0160020
646.806	0.0161245
646.884	0.0160227
646.962	0.0160172
647.040	0.0160461
647.119	0.0161834
647.197	0.0162101
647.275	0.0160909
647.353	0.0160975
647.431	0.0162708
647.509	0.0161153
647.587	0.0160545
647.665	0.0161329
647.744	0.0160371
647.822	0.0162000
647.900	0.0161885
647.978	0.0161427
648.056	0.0160614
648.134	0.0161468
648.212	0.0160045
648.290	0.0160849
648.369	0.0160921
648.447	0.0160530
648.525	0.0160123
648.603	0.0161702
648.681	0.0161200
648.759	0.0160884
648.837	0.0161592
648.915	0.0159354
648.994	0.0160757
649.072	0.0160884
649.150	0.0160531
649.228	0.0160635
649.306	0.0161055
649.384	0.0159263
649.462	0.0161075
649.540	0.0159951
649.619	0.0161372
649.697	0.0161435
649.775	0.0161821
649.853	0.0161777
649.931	0.0161035
650.009	0.0160010
650.087	0.0161289
650.165	0.0159337
650.244	0.0160715
650.322	0.0160088
650.400	0.0160606
650.478	0.0161533
650.556	0.0161134
650.634	0.0160753
650.712	0.0160592
650.790	0.0161665
650.869	0.0161851
650.947	0.0160604
651.025	0.0160324
651.103	0.0161803
651.181	0.0160487
651.259	0.0160009
651.337	0.0159818
651.415	0.0161532
651.494	0.0160191
651.572	0.0161021
651.650	0.0161765
651.728	0.0161971
651.806	0.0159546
651.884	0.0160233
651.962	0.0161799
652.040	0.0160301
652.119	0.0161159
652.197	0.0160506
652.275	0.0160273
652.353	0.0161845
652.431	0.0162160
652.509	0.0159646
652.587	0.0161397
652.665	0.0159667
652.744	0.0160407
652.822	0.0159898
652.900	0.0159869
652.978	0.0159679
653.056	0.0161420
653.134	0.0161031
653.212	0.0161013
653.290	0.0160114
653.369	0.0161845
653.447	0.0161759
653.525	0.0160741
653.603	0.0159724
653.681	0.0160130
653.759	0.0160833
653.837	0.0162230
653.915	0.0161774
653.994	0.0161128
654.072	0.0161732
654.150	0.0160429
654.228	0.0160292
654.306	0.0162479
654.384	0.0161668
654.462	0.0161369
654.540	0.0159146
654.619	0.0161066
654.697	0.0161407
654.775	0.0160462
654.853	0.0160886
654.931	0.0162116
655.009	0.0161829
655.087	0.0159760
655.165	0.0161372
655.244	0.0161309
655.322	0.0160959
655.400	0.0160766
655.478	0.0162185
655.556	0.0160543
655.634	0.0161023
655.712	0.0160977
655.790	0.0161157
655.869	0.0161375
655.947	0.0159624
656.025	0.0161670
656.103	0.0161567
656.181	0.0160875
656.259	0.0162016
656.337	0.0161947
656.415	0.0160167
656.494	0.0161697
656.572	0.0161795
656.650	0.0161423
656.728	0.0159678
656.806	0.0162041
656.884	0.0160554
656.962	0.0160191
657.040	0.0160627
657.119	0.0161044
657.197	0.0161987
657.275	0.0160472
657.353	0.0160689
657.431	0.0161324
657.509	0.0161318
657.587	0.0161063
657.665	0.0161414
657.744	0.0162656
657.822	0.0160618
657.900	0.0161485
657.978	0.0161839
658.056	0.0162032
658.134	0.0161604
658.212	0.0161101
658.290	0.0162688
658.369	0.0160318
658.447	0.0161103
658.525	0.0161302
658.603	0.0162079
658.681	0.0160786
658.759	0.0161058
658.837	0.0160122
658.915	0.0162089
658.994	0.0161645
659.072	0.0161229
659.150	0.0160780
659.228	0.0161028
659.306	0.0161158
659.384	0.0160333
659.462	0.0161383
659.540	0.0161285
659.619	0.0161147
659.697	0.0160994
659.775	0.0161297
659.853	0.0160754
659.931	0.0161878
660.009	0.0161349
660.087	0.0161961
660.165	0.0160737
660.244	0.0161907
660.322	0.0161378
660.400	0.0159859
660.478	0.0161936
660.556	0.0160904
660.634	0.0161295
660.712	0.0159913
660.790	0.0159755
660.869	0.0161405
660.947	0.0162130
661.025	0.0160478
661.103	0.0160868
661.181	0.0159633
661.259	0.0162006
661.337	0.0161328
661.415	0.0160102
661.494	0.0159937
661.572	0.0161407
661.650	0.0161642
661.728	0.0161857
661.806	0.0161653
661.884	0.0160102
661.962	0.0159818
662.040	0.0160786
662.119	0.0160715
662.197	0.0161974
662.275	0.0161205
662.353	0.0159914
662.431	0.0160912
662.509	0.0160678
662.587	0.0161818
662.665	0.0160547
662.744	0.0159064
662.822	0.0159329
662.900	0.0161013
662.978	0.0160124
663.056	0.0160095
663.134	0.0160414
663.212	0.0160291
663.290	0.0160548
663.369	0.0160643
663.447	0.0160999
663.525	0.0160886
663.603	0.0160596
663.681	0.0160245
663.759	0.0161182
663.837	0.0160181
663.915	0.0158888
663.994	0.0159379
664.072	0.0159989
664.150	0.0160930
664.228	0.0158656
664.306	0.0160073
664.384	0.0160207
664.462	0.0159808
664.540	0.0161687
664.619	0.0159615
664.697	0.0160181
664.775	0.0159456
664.853	0.0159592
664.931	0.0159160
665.009	0.0159966
665.087	0.0159930
665.165	0.0159330
665.244	0.0160170
665.322	0.0160143
665.400	0.0159343
665.478	0.0159444
665.556	0.0159628
665.634	0.0159048
665.712	0.0160117
665.790	0.0160074
665.869	0.0157820
665.947	0.0158878
666.025	0.0159181
666.103	0.0159232
666.181	0.0158218
666.259	0.0160276
666.337	0.0158694
666.415	0.0158984
666.494	0.0159801
666.572	0.0159177
666.650	0.0160073
666.728	0.0160446
666.806	0.0159187
666.884	0.0159790
666.962	0.0159045
667.040	0.0159801
667.119	0.0161084
667.197	0.0159326
667.275	0.0159606
667.353	0.0161016
667.431	0.0160884
667.509	0.0158064
667.587	0.0159706
667.665	0.0160625
667.744	0.0160202
667.822	0.0159518
667.900	0.0160495
667.978	0.0160856
668.056	0.0159800
668.134	0.0161029
668.212	0.0160028
668.290	0.0161060
668.369	0.0159721
668.447	0.0160329
668.525	0.0161021
668.603	0.0161565
668.681	0.0161290
668.759	0.0160635
668.837	0.0161126
668.915	0.0161459
668.994	0.0161710
669.072	0.0160350
669.150	0.0161945
669.228	0.0162086
669.306	0.0161206
669.384	0.0162772
669.462	0.0161837
669.540	0.0162040
669.619	0.0162437
669.697	0.0161806
669.775	0.0162210
669.853	0.0161387
669.931	0.0163215
670.009	0.0163449
670.087	0.0162008
670.165	0.0162656
670.244	0.0161530
670.322	0.0161819
670.400	0.0162972
670.478	0.0162196
670.556	0.0163377
670.634	0.0162813
670.712	0.0162957
670.790	0.0161774
670.869	0.0162115
670.947	0.0162891
671.025	0.0163627
671.103	0.0163140
671.181	0.0163136
671.259	0.0163776
671.337	0.0162897
671.415	0.0164592
671.494	0.0163658
671.572	0.0163555
671.650	0.0163896
671.728	0.0163129
671.806	0.0161393
671.884	0.0163462
671.962	0.0163423
672.040	0.0164403
672.119	0.0163635
672.197	0.0162881
672.275	0.0163875
672.353	0.0163222
672.431	0.0163831
672.509	0.0162556
672.587	0.0162271
672.665	0.0163767
672.744	0.0163174
672.822	0.0161672
672.900	0.0161134
672.978	0.0162436
673.056	0.0162242
673.134	0.0162640
673.212	0.0161137
673.290	0.0162050
673.369	0.0162422
673.447	0.0162774
673.525	0.0162014
673.603	0.0160662
673.681	0.0161317
673.759	0.0161832
673.837	0.0162154
673.915	0.0161945
673.994	0.0161143
674.072	0.0161183
674.150	0.0162004
674.228	0.0160895
674.306	0.0162411
674.384	0.0161713
674.462	0.0161698
674.540	0.0161047
674.619	0.0160281
674.697	0.0162000
674.775	0.0160452
674.853	0.0160845
674.931	0.0159905
675.009	0.0159945
675.087	0.0159241
675.165	0.0161295
675.244	0.0161247
675.322	0.0159914
675.400	0.0160001
675.478	0.0160123
675.556	0.0161042
675.634	0.0159879
675.712	0.0160754
675.790	0.0159010
675.869	0.0158511
675.947	0.0160514
676.025	0.0160396
676.103	0.0161531
676.181	0.0160392
676.259	0.0159844
676.337	0.0160641
676.415	0.0158791
676.494	0.0158705
676.572	0.0159602
676.650	0.0159982
676.728	0.0159492
676.806	0.0159653
676.884	0.0159637
676.962	0.0158984
677.040	0.0159301
677.119	0.0158176
677.197	0.0160203
677.275	0.0159604
677.353	0.0158984
677.431	0.0159335
677.509	0.0159045
677.587	0.0160959
677.665	0.0159476
677.744	0.0158548
677.822	0.0159377
677.900	0.0158299
677.978	0.0159203
678.056	0.0159164
678.134	0.0160378
678.212	0.0159201
678.290	0.0159048
678.369	0.0159325
678.447	0.0160098
678.525	0.0159114
678.603	0.0159887
678.681	0.0159306
678.759	0.0159122
678.837	0.0160184
678.915	0.0159367
678.994	0.0159212
679.072	0.0160404
679.150	0.0159176
679.228	0.0159828
679.306	0.0160386
679.384	0.0160501
679.462	0.0160148
679.540	0.0158643
679.619	0.0159690
679.697	0.0159787
679.775	0.0160909
679.853	0.0159348
679.931	0.0159406
680.009	0.0160007
680.087	0.0160786
680.165	0.0159173
680.244	0.0159852
680.322	0.0160641
680.400	0.0160866
680.478	0.0160611
680.556	0.0160221
680.634	0.0160750
680.712	0.0160783
680.790	0.0160568
680.869	0.0160883
680.947	0.0160935
681.025	0.0161398
681.103	0.0162034
681.181	0.0159944
681.259	0.0160284
681.337	0.0161120
681.415	0.0161158
681.494	0.0160709
681.572	0.0160941
681.650	0.0161214
681.728	0.0160088
681.806	0.0160278
681.884	0.0159281
681.962	0.0161732
682.040	0.0162222
682.119	0.0161714
682.197	0.0160531
682.275	0.0161190
682.353	0.0161928
682.431	0.0160239
682.509	0.0161486
682.587	0.0161967
682.665	0.0161419
682.744	0.0161781
682.822	0.0161774
682.900	0.0161423
682.978	0.0161147
683.056	0.0161820
683.134	0.0162006
683.212	0.0162854
683.290	0.0161794
683.369	0.0161817
683.447	0.0162514
683.525	0.0161771
683.603	0.0162033
683.681	0.0161765
683.759	0.0162609
683.837	0.0162525
683.915	0.0162486
683.994	0.0162026
684.072	0.0160388
684.150	0.0160997
684.228	0.0160941
684.306	0.0159547
684.384	0.0157831
684.462	0.0160192
684.540	0.0159479
684.619	0.0158003
684.697	0.0156508
684.775	0.0155058
684.853	0.0155061
684.931	0.0155348
685.009	0.0156470
685.087	0.0156615
685.165	0.0156786
685.244	0.0156621
685.322	0.0157078
685.400	0.0159362
685.478	0.0160047
685.556	0.0162758
685.634	0.0163164
685.712	0.0165017
685.790	0.0167113
685.869	0.0167356
685.947	0.0168726
686.025	0.0167959
686.103	0.0169469
686.181	0.0166616
686.259	0.0167515
686.337	0.0165014
686.415	0.0164500
686.494	0.0163537
686.572	0.0161690
686.650	0.0159059
686.728	0.0158771
686.806	0.0157552
686.884	0.0155469
686.962	0.0154726
687.040	0.0152699
687.119	0.0154599
687.197	0.0154074
687.275	0.0155604
687.353	0.0154444
687.431	0.0155383
687.509	0.0156989
687.587	0.0158682
687.665	0.0159312
687.744	0.0160007
687.822	0.0160454
687.900	0.0162492
687.978	0.0163797
688.056	0.0162980
688.134	0.0164480
688.212	0.0165017
688.290	0.0165519
688.369	0.0164612
688.447	0.0164863
688.525	0.0164432
688.603	0.0164300
688.681	0.0163029
688.759	0.0163049
688.837	0.0162627
688.915	0.0161539
688.994	0.0158311
689.072	0.0158666
689.150	0.0159465
689.228	0.0157590
689.306	0.0156145
689.384	0.0155750
689.462	0.0155138
689.540	0.0157143
689.619	0.0156465
689.697	0.0156098
689.775	0.0155410
689.853	0.0154253
689.931	0.0156087
690.009	0.0157230
690.087	0.0157328
690.165	0.0156740
690.244	0.0156913
690.322	0.0157741
690.400	0.0158691
690.478	0.0159383
690.556	0.0160670
690.634	0.0161151
690.712	0.0162706
690.790	0.0163905
690.869	0.0164633
690.947	0.0165162
691.025	0.0165057
691.103	0.0165690
691.181	0.0164367
691.259	0.0164088
691.337	0.0165437
691.415	0.0164079
691.494	0.0163934
691.572	0.0162295
691.650	0.0163287
691.728	0.0163056
691.806	0.0162210
691.884	0.0160875
691.962	0.0160545
692.040	0.0161297
692.119	0.0161346
692.197	0.0161010
692.275	0.0160675
692.353	0.0159653
692.431	0.0160365
692.509	0.0160903
692.587	0.0159250
692.665	0.0160383
692.744	0.0159901
692.822	0.0159997
692.900	0.0159428
692.978	0.0160716
693.056	0.0160223
693.134	0.0159104
693.212	0.0159731
693.290	0.0159802
693.369	0.0158073
693.447	0.0156856
693.525	0.0155993
693.603	0.0156847
693.681	0.0156466
693.759	0.0155502
693.837	0.0156744
693.915	0.0154323
693.994	0.0155238
694.072	0.0155533
694.150	0.0156178
694.228	0.0156760
694.306	0.0155967
694.384	0.0158635
694.462	0.0159060
694.540	0.0159800
694.619	0.0159803
694.697	0.0161410
694.775	0.0160291
694.853	0.0164008
694.931	0.0164703
695.009	0.0164526
695.087	0.0164211
695.165	0.0165500
695.244	0.0164782
695.322	0.0165387
695.400	0.0164034
695.478	0.0165378
695.556	0.0164430
695.634	0.0165303
695.712	0.0164507
695.790	0.0164222
695.869	0.0163644
695.947	0.0163948
696.025	0.0163922
696.103	0.0163390
696.181	0.0163251
696.259	0.0164699
696.337	0.0163768
696.415	0.0162886
696.494	0.0163021
696.572	0.0162712
696.650	0.0162643
696.728	0.0161714
696.806	0.0161764
696.884	0.0162066
696.962	0.0160927
697.040	0.0160993
697.119	0.0160246
697.197	0.0160258
697.275	0.0159167
697.353	0.0158892
697.431	0.0157697
697.509	0.0157673
697.587	0.0157809
697.665	0.0158359
697.744	0.0157744
697.822	0.0157970
697.900	0.0157664
697.978	0.0159138
698.056	0.0159200
698.134	0.0159325
698.212	0.0159245
698.290	0.0160587
698.369	0.0162122
698.447	0.0163140
698.525	0.0162492
698.603	0.0163769
698.681	0.0164788
698.759	0.0165054
698.837	0.0163991
698.915	0.0167186
698.994	0.0165453
699.072	0.0164742
699.150	0.0165112
699.228	0.0164748
699.306	0.0164361
699.384	0.0164259
699.462	0.0163357
699.540	0.0162460
699.619	0.0162518
699.697	0.0161510
699.775	0.0160723
699.853	0.0157250
699.931	0.0158125
700.009	0.0158260
700.087	0.0156832
700.165	0.0156267
700.244	0.0156118
700.322	0.0156691
700.400	0.0157815
700.478	0.0157709
700.556	0.0156857
700.634	0.0158483
700.712	0.0160503
700.790	0.0159837
700.869	0.0158944
700.947	0.0158879
701.025	0.0159300
701.103	0.0160056
701.181	0.0160493
701.259	0.0159979
701.337	0.0159552
701.415	0.0159882
701.494	0.0159757
701.572	0.0157686
701.650	0.0158053
701.728	0.0158276
701.806	0.0155811
701.884	0.0155877
701.962	0.0155704
702.040	0.0155015
702.119	0.0155620
702.197	0.0156361
702.275	0.0157180
702.353	0.0157721
702.431	0.0157445
702.509	0.0159778
702.587	0.0161459
702.665	0.0162080
702.744	0.0163081
702.822	0.0164458
702.900	0.0165618
702.978	0.0165800
703.056	0.0165594
703.134	0.0164678
703.212	0.0164748
703.290	0.0165004
703.369	0.0166129
703.447	0.0164787
703.525	0.0164111
703.603	0.0162243
703.681	0.0161214
703.759	0.0162005
703.837	0.0161862
703.915	0.0159607
703.994	0.0158709
704.072	0.0156532
704.150	0.0157912
704.228	0.0157630
704.306	0.0157852
704.384	0.0157903
704.462	0.0159172
704.540	0.0157973
704.619	0.0159522
704.697	0.0159074
704.775	0.0159124
704.853	0.0160286
704.931	0.0160564
705.009	0.0161555
705.087	0.0161662
705.165	0.0161407
705.244	0.0162500
705.322	0.0162327
705.400	0.0162975
705.478	0.0163359
705.556	0.0161947
705.634	0.0163071
705.712	0.0163098
705.790	0.0162724
705.869	0.0162047
705.947	0.0163332
706.025	0.0162424
706.103	0.0162226
706.181	0.0159814
706.259	0.0159651
706.337	0.0159461
706.415	0.0159464
706.494	0.0159085
706.572	0.0158753
706.650	0.0159184
706.728	0.0158692
706.806	0.0158856
706.884	0.0159480
706.962	0.0160248
707.040	0.0161149
707.119	0.0160641
707.197	0.0161144
707.275	0.0162225
707.353	0.0162022
707.431	0.0160970
707.509	0.0160749
707.587	0.0163305
707.665	0.0163443
707.744	0.0162128
707.822	0.0161798
707.900	0.0162357
707.978	0.0163046
708.056	0.0161550
708.134	0.0161072
708.212	0.0160116
708.290	0.0159444
708.369	0.0160722
708.447	0.0159876
708.525	0.0158480
708.603	0.0157294
708.681	0.0158395
708.759	0.0156751
708.837	0.0157165
708.915	0.0157482
708.994	0.0159279
709.072	0.0159521
709.150	0.0160075
709.228	0.0160413
709.306	0.0161159
709.384	0.0163270
709.462	0.0162936
709.540	0.0163139
709.619	0.0163795
709.697	0.0162661
709.775	0.0163312
709.853	0.0163915
709.931	0.0162399
710.009	0.0162856
710.087	0.0163498
710.165	0.0160882
710.244	0.0160863
710.322	0.0161189
710.400	0.0160761
710.478	0.0161334
710.556	0.0161133
710.634	0.0160770
710.712	0.0160190
710.790	0.0159650
710.869	0.0158912
710.947	0.0159567
711.025	0.0160506
711.103	0.0159370
711.181	0.0159619
711.259	0.0159515
711.337	0.0160251
711.415	0.0160216
711.494	0.0161087
711.572	0.0162344
711.650	0.0162238
711.728	0.0162559
711.806	0.0161987
711.884	0.0160716
711.962	0.0161396
712.040	0.0163286
712.119	0.0160361
712.197	0.0158861
712.275	0.0159518
712.353	0.0160210
712.431	0.0160518
712.509	0.0160064
712.587	0.0160303
712.665	0.0159229
712.744	0.0160033
712.822	0.0161800
712.900	0.0159743
712.978	0.0157767
713.056	0.0158784
713.134	0.0159724
713.212	0.0158067
713.290	0.0158324
713.369	0.0158304
713.447	0.0158819
713.525	0.0157919
713.603	0.0157859
713.681	0.0158008
713.759	0.0158639
713.837	0.0157832
713.915	0.0158057
713.994	0.0158491
714.072	0.0158637
714.150	0.0159874
714.228	0.0158376
714.306	0.0159588
714.384	0.0159949
714.462	0.0159672
714.540	0.0158128
714.619	0.0159512
714.697	0.0159327
714.775	0.0161008
714.853	0.0160455
714.931	0.0160789
715.009	0.0161160
715.087	0.0161907
715.165	0.0160596
715.244	0.0162283
715.322	0.0162418
715.400	0.0161845
715.478	0.0159995
715.556	0.0160996
715.634	0.0162177
715.712	0.0159711
715.790	0.0159674
715.869	0.0158884
715.947	0.0159681
716.025	0.0160203
716.103	0.0161272
716.181	0.0162283
716.259	0.0161594
716.337	0.0159625
716.415	0.0161406
716.494	0.0161132
716.572	0.0162529
716.650	0.0160719
716.728	0.0161060
716.806	0.0162015
716.884	0.0161002
716.962	0.0161909
717.040	0.0160682
717.119	0.0160992
717.197	0.0161784
717.275	0.0161530
717.353	0.0160807
717.431	0.0160644
717.509	0.0160197
717.587	0.0160780
717.665	0.0158909
717.744	0.0159377
717.822	0.0158535
717.900	0.0157867
717.978	0.0157609
718.056	0.0157914
718.134	0.0158109
718.212	0.0157024
718.290	0.0158094
718.369	0.0158669
718.447	0.0159408
718.525	0.0159293
718.603	0.0160536
718.681	0.0159663
718.759	0.0160857
718.837	0.0160802
718.915	0.0163258
718.994	0.0163678
719.072	0.0161072
719.150	0.0162543
719.228	0.0162685
719.306	0.0162621
719.384	0.0162099
719.462	0.0161596
719.540	0.0161564
719.619	0.0159900
719.697	0.0162010
719.775	0.0160284
719.853	0.0160284
719.931	0.0161190
720.009	0.0159579
720.087	0.0159082
720.165	0.0159432
720.244	0.0159897
720.322	0.0160281
720.400	0.0157902
720.478	0.0159529
720.556	0.0160326
720.634	0.0159320
720.712	0.0158945
720.790	0.0159300
720.869	0.0161384
720.947	0.0161287
721.025	0.0161178
721.103	0.0161772
721.181	0.0161617
721.259	0.0162112
721.337	0.0161210
721.415	0.0161412
721.494	0.0160799
721.572	0.0161990
721.650	0.0161857
721.728	0.0160445
721.806	0.0161466
721.884	0.0162064
721.962	0.0162268
722.040	0.0162671
722.119	0.0161783
722.197	0.0161852
722.275	0.0161568
722.353	0.0161604
722.431	0.0161684
722.509	0.0160105
722.587	0.0160780
722.665	0.0159921
722.744	0.0160573
722.822	0.0159490
722.900	0.0160484
722.978	0.0161415
723.056	0.0160863
723.134	0.0160843
723.212	0.0160294
723.290	0.0159975
723.369	0.0162065
723.447	0.0160140
723.525	0.0160186
723.603	0.0161792
723.681	0.0161053
723.759	0.0160291
723.837	0.0161084
723.915	0.0161216
723.994	0.0161098
724.072	0.0162003
724.150	0.0161677
724.228	0.0162504
724.306	0.0162616
724.384	0.0163246
724.462	0.0162658
724.540	0.0162894
724.619	0.0162845
724.697	0.0161771
724.775	0.0161485
724.853	0.0163196
724.931	0.0162398
725.009	0.0162000
725.087	0.0161490
725.165	0.0160553
725.244	0.0160215
725.322	0.0161185
725.400	0.0160023
725.478	0.0160414
725.556	0.0160353
725.634	0.0160344
725.712	0.0158297
725.790	0.0158141
725.869	0.0160601
725.947	0.0159573
726.025	0.0159790
726.103	0.0158850
726.181	0.0159711
726.259	0.0160828
726.337	0.0160639
726.415	0.0159133
726.494	0.0159377
726.572	0.0160593
726.650	0.0160459
726.728	0.0161275
726.806	0.0160719
726.884	0.0159196
726.962	0.0160041
727.040	0.0161002
727.119	0.0161006
727.197	0.0159607
727.275	0.0159525
727.353	0.0160540
727.431	0.0160880
727.509	0.0161272
727.587	0.0160806
727.665	0.0159040
727.744	0.0161431
727.822	0.0160115
727.900	0.0161597
727.978	0.0161456
728.056	0.0159767
728.134	0.0161209
728.212	0.0161375
728.290	0.0161113
728.369	0.0160551
728.447	0.0161504
728.525	0.0160332
728.603	0.0161636
728.681	0.0161195
728.759	0.0160081
728.837	0.0160681
728.915	0.0161574
728.994	0.0160374
729.072	0.0158630
729.150	0.0160157
729.228	0.0160344
729.306	0.0159358
729.384	0.0159215
729.462	0.0159132
729.540	0.0160280
729.619	0.0158558
729.697	0.0159316
729.775	0.0159293
729.853	0.0159412
729.931	0.0158709
730.009	0.0160642
730.087	0.0158627
730.165	0.0160400
730.244	0.0159237
730.322	0.0160204
730.400	0.0159592
730.478	0.0159546
730.556	0.0160110
730.634	0.0158117
730.712	0.0160681
730.790	0.0160773
730.869	0.0160940
730.947	0.0160668
731.025	0.0161796
731.103	0.0161526
731.181	0.0159522
731.259	0.0158733
731.337	0.0161835
731.415	0.0161728
731.494	0.0160724
731.572	0.0161501
731.650	0.0162207
731.728	0.0162549
731.806	0.0160963
731.884	0.0161840
731.962	0.0160958
732.040	0.0161819
732.119	0.0162430
732.197	0.0161674
732.275	0.0161948
732.353	0.0161895
732.431	0.0161333
732.509	0.0161890
732.587	0.0161013
732.665	0.0160625
732.744	0.0160774
732.822	0.0160837
732.900	0.0162718
732.978	0.0162048
733.056	0.0160868
733.134	0.0160449
733.212	0.0161363
733.290	0.0161285
733.369	0.0161365
733.447	0.0160357
733.525	0.0160238
733.603	0.0159772
733.681	0.0161147
733.759	0.0160233
733.837	0.0161218
733.915	0.0160843
733.994	0.0159763
734.072	0.0160740
734.150	0.0160947
734.228	0.0161056
734.306	0.0162352
734.384	0.0161666
734.462	0.0161507
734.540	0.0161092
734.619	0.0160850
734.697	0.0161115
734.775	0.0162029
734.853	0.0162604
734.931	0.0160523
735.009	0.0160773
735.087	0.0160924
735.165	0.0160677
735.244	0.0159906
735.322	0.0158968
735.400	0.0158750
735.478	0.0159677
735.556	0.0158677
735.634	0.0159981
735.712	0.0159882
735.790	0.0160292
735.869	0.0158887
735.947	0.0161175
736.025	0.0159676
736.103	0.0160550
736.181	0.0161191
736.259	0.0162255
736.337	0.0160637
736.415	0.0161817
736.494	0.0160054
736.572	0.0160444
736.650	0.0161584
736.728	0.0160708
736.806	0.0161398
736.884	0.0161659
736.962	0.0160770
737.040	0.0161440
737.119	0.0161678
737.197	0.0162240
737.275	0.0160839
737.353	0.0160124
737.431	0.0160817
737.509	0.0160876
737.587	0.0159908
737.665	0.0161706
737.744	0.0161272
737.822	0.0160607
737.900	0.0161295
737.978	0.0159632
738.056	0.0160220
738.134	0.0160950
738.212	0.0160504
738.290	0.0160358
738.369	0.0160799
738.447	0.0161182
738.525	0.0161012
738.603	0.0160939
738.681	0.0159881
738.759	0.0161875
738.837	0.0162708
738.915	0.0162922
738.994	0.0162695
739.072	0.0162019
739.150	0.0160401
739.228	0.0162022
739.306	0.0160745
739.384	0.0161771
739.462	0.0161808
739.540	0.0160465
739.619	0.0160745
739.697	0.0160428
739.775	0.0160018
739.853	0.0160651
739.931	0.0158196
740.009	0.0159937
740.087	0.0159041
740.165	0.0158504
740.244	0.0158468
740.322	0.0159089
740.400	0.0158680
740.478	0.0160612
740.556	0.0160390
740.634	0.0161344
740.712	0.0161689
740.790	0.0161224
740.869	0.0159704
740.947	0.0160428
741.025	0.0161980
741.103	0.0161553
741.181	0.0161635
741.259	0.0159712
741.337	0.0160809
741.415	0.0161607
741.494	0.0160737
741.572	0.0159715
741.650	0.0158503
741.728	0.0159908
741.806	0.0159163
741.884	0.0159861
741.962	0.0158736
742.040	0.0159112
742.119	0.0158007
742.197	0.0158302
742.275	0.0159603
742.353	0.0160083
742.431	0.0159144
742.509	0.0160671
742.587	0.0160567
742.665	0.0159621
742.744	0.0160725
742.822	0.0160659
742.900	0.0160450
742.978	0.0160220
743.056	0.0159708
743.134	0.0161912
743.212	0.0161196
743.290	0.0159995
743.369	0.0158981
743.447	0.0160526
743.525	0.0160809
743.603	0.0159245
743.681	0.0159895
743.759	0.0160806
743.837	0.0160210
743.915	0.0161006
743.994	0.0160558
744.072	0.0161422
744.150	0.0159989
744.228	0.0161581
744.306	0.0160759
744.384	0.0161388
744.462	0.0161721
744.540	0.0162170
744.619	0.0161532
744.697	0.0161041
744.775	0.0161469
744.853	0.0160591
744.931	0.0160201
745.009	0.0161060
745.087	0.0160950
745.165	0.0161717
745.244	0.0160982
745.322	0.0161203
745.400	0.0161530
745.478	0.0162163
745.556	0.0160848
745.634	0.0161021
745.712	0.0161994
745.790	0.0160292
745.869	0.0160334
745.947	0.0161757
746.025	0.0161366
746.103	0.0160601
746.181	0.0162826
746.259	0.0162230
746.337	0.0159980
746.415	0.0161523
746.494	0.0162257
746.572	0.0162077
746.650	0.0160905
746.728	0.0161795
746.806	0.0160210
746.884	0.0161436
746.962	0.0161887
747.040	0.0161099
747.119	0.0159756
747.197	0.0161640
747.275	0.0161383
747.353	0.0163255
747.431	0.0161064
747.509	0.0160904
747.587	0.0162315
747.665	0.0160490
747.744	0.0159996
747.822	0.0161807
747.900	0.0162202
747.978	0.0160696
748.056	0.0160271
748.134	0.0162792
748.212	0.0160822
748.290	0.0159719
748.369	0.0161436
748.447	0.0161623
748.525	0.0160478
748.603	0.0161209
748.681	0.0161476
748.759	0.0160865
748.837	0.0161265
748.915	0.0161192
748.994	0.0160126
749.072	0.0160603
749.150	0.0159609
749.228	0.0159687
749.306	0.0159782
749.384	0.0161047
749.462	0.0160452
749.540	0.0159925
749.619	0.0159680
749.697	0.0159131
749.775	0.0162332
749.853	0.0160384
749.931	0.0159375
750.009	0.0159910
750.087	0.0160482
750.165	0.0159992
750.244	0.0161102
750.322	0.0160017
750.400	0.0159016
750.478	0.0161743
750.556	0.0162289
750.634	0.0160287
750.712	0.0161762
750.790	0.0160773
750.869	0.0160538
750.947	0.0160441
751.025	0.0160075
751.103	0.0160690
751.181	0.0160173
751.259	0.0160155
751.337	0.0158878
751.415	0.0160842
751.494	0.0159823
751.572	0.0161285
751.650	0.0159855
751.728	0.0159703
751.806	0.0159595
751.884	0.0160238
751.962	0.0158842
752.040	0.0161293
752.119	0.0161285
752.197	0.0158828
752.275	0.0159846
752.353	0.0159473
752.431	0.0160884
752.509	0.0160773
752.587	0.0161604
752.665	0.0160248
752.744	0.0158839
752.822	0.0159135
752.900	0.0160233
752.978	0.0160535
753.056	0.0159963
753.134	0.0159771
753.212	0.0160870
753.290	0.0161247
753.369	0.0160677
753.447	0.0159716
753.525	0.0160648
753.603	0.0162006
753.681	0.0159991
753.759	0.0160834
753.837	0.0160638
753.915	0.0158482
753.994	0.0160607
754.072	0.0159817
754.150	0.0161271
754.228	0.0160107
754.306	0.0160240
754.384	0.0159524
754.462	0.0160120
754.540	0.0160167
754.619	0.0158958
754.697	0.0159882
754.775	0.0160925
754.853	0.0159953
754.931	0.0160724
755.009	0.0161999
755.087	0.0160445
755.165	0.0160410
755.244	0.0160426
755.322	0.0162724
755.400	0.0160919
755.478	0.0161232
755.556	0.0159735
755.634	0.0161578
755.712	0.0161940
755.790	0.0160487
755.869	0.0162114
755.947	0.0161433
756.025	0.0160907
756.103	0.0162659
756.181	0.0161404
756.259	0.0162289
756.337	0.0162963
756.415	0.0162266
756.494	0.0161971
756.572	0.0162386
756.650	0.0162027
756.728	0.0160888
756.806	0.0161614
756.884	0.0162495
756.962	0.0161328
757.040	0.0161589
757.119	0.0160387
757.197	0.0160993
757.275	0.0161819
757.353	0.0162796
757.431	0.0161859
757.509	0.0160915
757.587	0.0160591
757.665	0.0161360
757.744	0.0162095
757.822	0.0160896
757.900	0.0160582
757.978	0.0160718
758.056	0.0161990
758.134	0.0162766
758.212	0.0162161
758.290	0.0161277
758.369	0.0160882
758.447	0.0161215
758.525	0.0159849
758.603	0.0160670
758.681	0.0161347
758.759	0.0161164
758.837	0.0160072
758.915	0.0160596
758.994	0.0160045
759.072	0.0159433
759.150	0.0160362
759.228	0.0160369
759.306	0.0161803
759.384	0.0160063
759.462	0.0160025
759.540	0.0161582
759.619	0.0160406
759.697	0.0160840
759.775	0.0159280
759.853	0.0159706
759.931	0.0160371
760.009	0.0158833
760.087	0.0159722
760.165	0.0159266
760.244	0.0158836
760.322	0.0160421
760.400	0.0159887
760.478	0.0160364
760.556	0.0160606
760.634	0.0159576
760.712	0.0161253
760.790	0.0160130
760.869	0.0161803
760.947	0.0161127
761.025	0.0161774
761.103	0.0162143
761.181	0.0162082
761.259	0.0162375
761.337	0.0160374
761.415	0.0161378
761.494	0.0162530
761.572	0.0160808
761.650	0.0161051
761.728	0.0161402
761.806	0.0160773
761.884	0.0161427
761.962	0.0160608
762.040	0.0161464
762.119	0.0161649
762.197	0.0161400
762.275	0.0160299
762.353	0.0161248
762.431	0.0160983
762.509	0.0160865
762.587	0.0161442
762.665	0.0160782
762.744	0.0161777
762.822	0.0159917
762.900	0.0161536
762.978	0.0161780
763.056	0.0161533
763.134	0.0159985
763.212	0.0160978
763.290	0.0160582
763.369	0.0159221
763.447	0.0160269
763.525	0.0160113
763.603	0.0159943
763.681	0.0158396
763.759	0.0158973
763.837	0.0160229
763.915	0.0160016
763.994	0.0159899
764.072	0.0158966
764.150	0.0160538
764.228	0.0159319
764.306	0.0159564
764.384	0.0159611
764.462	0.0160548
764.540	0.0159408
764.619	0.0160685
764.697	0.0160493
764.775	0.0160653
764.853	0.0159841
764.931	0.0159885
765.009	0.0161500
765.087	0.0161247
765.165	0.0159268
765.244	0.0160606
765.322	0.0160655
765.400	0.0159669
765.478	0.0160336
765.556	0.0160260
765.634	0.0159613
765.712	0.0160484
765.790	0.0160613
765.869	0.0160362
765.947	0.0161366
766.025	0.0162062
766.103	0.0160726
766.181	0.0160879
766.259	0.0160655
766.337	0.0160606
766.415	0.0160554
766.494	0.0160442
766.572	0.0162179
766.650	0.0161297
766.728	0.0161515
766.806	0.0161845
766.884	0.0161711
766.962	0.0161728
767.040	0.0162647
767.119	0.0163034
767.197	0.0161462
767.275	0.0161886
767.353	0.0163161
767.431	0.0161680
767.509	0.0161905
767.587	0.0163344
767.665	0.0163177
767.744	0.0163284
767.822	0.0162593
767.900	0.0162182
767.978	0.0161894
768.056	0.0161386
768.134	0.0161769
768.212	0.0161717
768.290	0.0161639
768.369	0.0161829
768.447	0.0161695
768.525	0.0160431
768.603	0.0161322
768.681	0.0161282
768.759	0.0161462
768.837	0.0161034
768.915	0.0162038
768.994	0.0162217
769.072	0.0160419
769.150	0.0161348
769.228	0.0160986
769.306	0.0161447
769.384	0.0161430
769.462	0.0160827
769.540	0.0160365
769.619	0.0160408
769.697	0.0161116
769.775	0.0161138
769.853	0.0160465
769.931	0.0162292
770.009	0.0161442
770.087	0.0161344
770.165	0.0161722
770.244	0.0159577
770.322	0.0162040
770.400	0.0162868
770.478	0.0161606
770.556	0.0161685
770.634	0.0162717
770.712	0.0162684
770.790	0.0161951
770.869	0.0162434
770.947	0.0162368
771.025	0.0161196
771.103	0.0162611
771.181	0.0161230
771.259	0.0160465
771.337	0.0161813
771.415	0.0160263
771.494	0.0160455
771.572	0.0162157
771.650	0.0160491
771.728	0.0159488
771.806	0.0160307
771.884	0.0161599
771.962	0.0162020
772.040	0.0161414
772.119	0.0162160
772.197	0.0161671
772.275	0.0161327
772.353	0.0161664
772.431	0.0160479
772.509	0.0161441
772.587	0.0161329
772.665	0.0160301
772.744	0.0160579
772.822	0.0160695
772.900	0.0160809
772.978	0.0160592
773.056	0.0160808
773.134	0.0160487
773.212	0.0160416
773.290	0.0160801
773.369	0.0162181
773.447	0.0160602
773.525	0.0160792
773.603	0.0159384
773.681	0.0159892
773.759	0.0158841
773.837	0.0160664
773.915	0.0160596
773.994	0.0160109
774.072	0.0159467
774.150	0.0161203
774.228	0.0161143
774.306	0.0161565
774.384	0.0161063
774.462	0.0159582
774.540	0.0159421
774.619	0.0161144
774.697	0.0161968
774.775	0.0161767
774.853	0.0160846
774.931	0.0161503
775.009	0.0161379
775.087	0.0161431
775.165	0.0161707
775.244	0.0161481
775.322	0.0161509
775.400	0.0160786
775.478	0.0161487
775.556	0.0160509
775.634	0.0160263
775.712	0.0160508
775.790	0.0160123
775.869	0.0160155
775.947	0.0160658
776.025	0.0159603
776.103	0.0159895
776.181	0.0159576
776.259	0.0160378
776.337	0.0161265
776.415	0.0160057
776.494	0.0161249
776.572	0.0159890
776.650	0.0158832
776.728	0.0159279
776.806	0.0159147
776.884	0.0160818
776.962	0.0159927
777.040	0.0160197
777.119	0.0160296
777.197	0.0160185
777.275	0.0160841
777.353	0.0159585
777.431	0.0159887
777.509	0.0159460
777.587	0.0159769
777.665	0.0159714
777.744	0.0160443
777.822	0.0160765
777.900	0.0161334
777.978	0.0160056
778.056	0.0159228
778.134	0.0160590
778.212	0.0160950
778.290	0.0161434
778.369	0.0159838
778.447	0.0160329
778.525	0.0160510
778.603	0.0159679
778.681	0.0161290
778.759	0.0159983
778.837	0.0158898
778.915	0.0159376
778.994	0.0158421
779.072	0.0160476
779.150	0.0160677
779.228	0.0160764
779.306	0.0160310
779.384	0.0161419
779.462	0.0159840
779.540	0.0162009
779.619	0.0160233
779.697	0.0160361
779.775	0.0160495
779.853	0.0160123
779.931	0.0160596
780.009	0.0161817
780.087	0.0160977
780.165	0.0161060
780.244	0.0162432
780.322	0.0161476
780.400	0.0161617
780.478	0.0160748
780.556	0.0162689
780.634	0.0160868
780.712	0.0160961
780.790	0.0160670
780.869	0.0161014
780.947	0.0162244
781.025	0.0160607
781.103	0.0160391
781.181	0.0160029
781.259	0.0161108
781.337	0.0160041
781.415	0.0160682
781.494	0.0159161
781.572	0.0159256
781.650	0.0161499
781.728	0.0161871
781.806	0.0161070
781.884	0.0160689
781.962	0.0163162
782.040	0.0161526
782.119	0.0161093
782.197	0.0162861
782.275	0.0163100
782.353	0.0162659
782.431	0.0162779
782.509	0.0162626
782.587	0.0163155
782.665	0.0161712
782.744	0.0162775
782.822	0.0162069
782.900	0.0161768
782.978	0.0161452
783.056	0.0160633
783.134	0.0161989
783.212	0.0160423
783.290	0.0161856
783.369	0.0160271
783.447	0.0160824
783.525	0.0161752
783.603	0.0161834
783.681	0.0160852
783.759	0.0159896
783.837	0.0161220
783.915	0.0161674
783.994	0.0161153
784.072	0.0161960
784.150	0.0160458
784.228	0.0161101
784.306	0.0160196
784.384	0.0161375
784.462	0.0161328
784.540	0.0161153
784.619	0.0159277
784.697	0.0159089
784.775	0.0160739
784.853	0.0159368
784.931	0.0161210
785.009	0.0161250
785.087	0.0159859
785.165	0.0159583
785.244	0.0158904
785.322	0.0160039
785.400	0.0159867
785.478	0.0159695
785.556	0.0160330
785.634	0.0160983
785.712	0.0160912
785.790	0.0160246
785.869	0.0160990
785.947	0.0160811
786.025	0.0159863
786.103	0.0161150
786.181	0.0161223
786.259	0.0160928
786.337	0.0161819
786.415	0.0161353
786.494	0.0161613
786.572	0.0161282
786.650	0.0160004
786.728	0.0160703
786.806	0.0161273
786.884	0.0161655
786.962	0.0161846
787.040	0.0160262
787.119	0.0161131
787.197	0.0160213
787.275	0.0160682
787.353	0.0160654
787.431	0.0159750
787.509	0.0159602
787.587	0.0159785
787.665	0.0160894
787.744	0.0160178
787.822	0.0160004
787.900	0.0160833
787.978	0.0161263
788.056	0.0160791
788.134	0.0159972
788.212	0.0161319
788.290	0.0161530
788.369	0.0161258
788.447	0.0160769
788.525	0.0161292
788.603	0.0161865
788.681	0.0161536
788.759	0.0160152
788.837	0.0162300
788.915	0.0161588
788.994	0.0161606
789.072	0.0160635
789.150	0.0158964
789.228	0.0161151
789.306	0.0160727
789.384	0.0160683
789.462	0.0161147
789.540	0.0161956
789.619	0.0158770
789.697	0.0159728
789.775	0.0160062
789.853	0.0160598
789.931	0.0160007
790.009	0.0161803
790.087	0.0159752
790.165	0.0161250
790.244	0.0160963
790.322	0.0161533
790.400	0.0162222
790.478	0.0161504
790.556	0.0161333
790.634	0.0160919
790.712	0.0160423
790.790	0.0160485
790.869	0.0160632
790.947	0.0160054
791.025	0.0159219
791.103	0.0160787
791.181	0.0159327
791.259	0.0160788
791.337	0.0159210
791.415	0.0161540
791.494	0.0161366
791.572	0.0161189
791.650	0.0161470
791.728	0.0162021
791.806	0.0161855
791.884	0.0160576
791.962	0.0163179
792.040	0.0161013
792.119	0.0161520
792.197	0.0161942
792.275	0.0162296
792.353	0.0162217
792.431	0.0161604
792.509	0.0162955
792.587	0.0161750
792.665	0.0161256
792.744	0.0161426
792.822	0.0162827
792.900	0.0162740
792.978	0.0161076
793.056	0.0160780
793.134	0.0161041
793.212	0.0163132
793.290	0.0161139
793.369	0.0160899
793.447	0.0162259
793.525	0.0160284
793.603	0.0160465
793.681	0.0161411
793.759	0.0161839
793.837	0.0159579
793.915	0.0160500
793.994	0.0161138
794.072	0.0159728
794.150	0.0160880
794.228	0.0162395
794.306	0.0161009
794.384	0.0161649
794.462	0.0161284
794.540	0.0161121
794.619	0.0160963
794.697	0.0160684
794.775	0.0160918
794.853	0.0160850
794.931	0.0160504
795.009	0.0161971
795.087	0.0162281
795.165	0.0160161
795.244	0.0161255
795.322	0.0160966
795.400	0.0160339
795.478	0.0161035
795.556	0.0160140
795.634	0.0160687
795.712	0.0160398
795.790	0.0161576
795.869	0.0160130
795.947	0.0160207
796.025	0.0161028
796.103	0.0161066
796.181	0.0160445
796.259	0.0159743
796.337	0.0160867
796.415	0.0161392
796.494	0.0162143
796.572	0.0161569
796.650	0.0161041
796.728	0.0160522
796.806	0.0161411
796.884	0.0161687
796.962	0.0162166
797.040	0.0161396
797.119	0.0161874
797.197	0.0161596
797.275	0.0160640
797.353	0.0159707
797.431	0.0160311
797.509	0.0161542
797.587	0.0161046
797.665	0.0157932
797.744	0.0160587
797.822	0.0161211
797.900	0.0160155
797.978	0.0159874
798.056	0.0160476
798.134	0.0160071
798.212	0.0158842
798.290	0.0160706
798.369	0.0160184
798.447	0.0159972
798.525	0.0160065
798.603	0.0159708
798.681	0.0161234
798.759	0.0160462
798.837	0.0161710
798.915	0.0161250
798.994	0.0161053
799.072	0.0160083
799.150	0.0161163
799.228	0.0161662
799.306	0.0161386
799.384	0.0162043
799.462	0.0161277
799.540	0.0161279
799.619	0.0160925
799.697	0.0161613
799.775	0.0160332
799.853	0.0160060
799.931	0.0160590
800.009	0.0161330
800.087	0.0159598
800.165	0.0160204
800.244	0.0160365
800.322	0.0159659
800.400	0.0160252
800.478	0.0160455
800.556	0.0161541
800.634	0.0160069
800.712	0.0158347
800.790	0.0159686
800.869	0.0161531
800.947	0.0160957
801.025	0.0160076
801.103	0.0160094
801.181	0.0159898
801.259	0.0161925
801.337	0.0161324
801.415	0.0161340
801.494	0.0161930
801.572	0.0161968
801.650	0.0161577
801.728	0.0161465
801.806	0.0160583
801.884	0.0160863
801.962	0.0159977
802.040	0.0160827
802.119	0.0161285
802.197	0.0161223
802.275	0.0160461
802.353	0.0161055
802.431	0.0159560
802.509	0.0159769
802.587	0.0159090
802.665	0.0160194
802.744	0.0159473
802.822	0.0161166
802.900	0.0160290
802.978	0.0159026
803.056	0.0159751
803.134	0.0161214
803.212	0.0161050
803.290	0.0160672
803.369	0.0161596
803.447	0.0160706
803.525	0.0160973
803.603	0.0161614
803.681	0.0161191
803.759	0.0160117
803.837	0.0160871
803.915	0.0159739
803.994	0.0160503
804.072	0.0161455
804.150	0.0162062
804.228	0.0161385
804.306	0.0160136
804.384	0.0160922
804.462	0.0162119
804.540	0.0160909
804.619	0.0161176
804.697	0.0161570
804.775	0.0161263
804.853	0.0159367
804.931	0.0161384
805.009	0.0161811
805.087	0.0162163
805.165	0.0160381
805.244	0.0161011
805.322	0.0161133
805.400	0.0160851
805.478	0.0159743
805.556	0.0159557
805.634	0.0160873
805.712	0.0161926
805.790	0.0160806
805.869	0.0160074
805.947	0.0160618
806.025	0.0160287
806.103	0.0160156
806.181	0.0159816
806.259	0.0161597
806.337	0.0161377
806.415	0.0161728
806.494	0.0160767
806.572	0.0161333
806.650	0.0162408
806.728	0.0161377
806.806	0.0162016
806.884	0.0161050
806.962	0.0161536
807.040	0.0160990
807.119	0.0160685
807.197	0.0161581
807.275	0.0159368
807.353	0.0160835
807.431	0.0160823
807.509	0.0160664
807.587	0.0160353
807.665	0.0159003
807.744	0.0159025
807.822	0.0159962
807.900	0.0159482
807.978	0.0157840
808.056	0.0158543
808.134	0.0158950
808.212	0.0160335
808.290	0.0158820
808.369	0.0161105
808.447	0.0159686
808.525	0.0159902
808.603	0.0158058
808.681	0.0160468
808.759	0.0160146
808.837	0.0160091
808.915	0.0158514
808.994	0.0160029
809.072	0.0160381
809.150	0.0160217
809.228	0.0158731
809.306	0.0159392
809.384	0.0159730
809.462	0.0158775
809.540	0.0159947
809.619	0.0159325
809.697	0.0158597
809.775	0.0158952
809.853	0.0157809
809.931	0.0159911
810.009	0.0159331
810.087	0.0158784
810.165	0.0158887
810.244	0.0158244
810.322	0.0159923
810.400	0.0160910
810.478	0.0159669
810.556	0.0159393
810.634	0.0159103
810.712	0.0160146
810.790	0.0160529
810.869	0.0160899
810.947	0.0160750
811.025	0.0160196
811.103	0.0160294
811.181	0.0161326
811.259	0.0161906
811.337	0.0161727
811.415	0.0161419
811.494	0.0161260
811.572	0.0160634
811.650	0.0160046
811.728	0.0160574
811.806	0.0160256
811.884	0.0161523
811.962	0.0160786
812.040	0.0161194
812.119	0.0160379
812.197	0.0159904
812.275	0.0160220
812.353	0.0160435
812.431	0.0159638
812.509	0.0160053
812.587	0.0161495
812.665	0.0161271
812.744	0.0160088
812.822	0.0160897
812.900	0.0159767
812.978	0.0159869
813.056	0.0160345
813.134	0.0159312
813.212	0.0160582
813.290	0.0160925
813.369	0.0159079
813.447	0.0160174
813.525	0.0159279
813.603	0.0159937
813.681	0.0160670
813.759	0.0159295
813.837	0.0159250
813.915	0.0160269
813.994	0.0161603
814.072	0.0161301
814.150	0.0160289
814.228	0.0159615
814.306	0.0160040
814.384	0.0160273
814.462	0.0161018
814.540	0.0158541
814.619	0.0158538
814.697	0.0160260
814.775	0.0159198
814.853	0.0159583
814.931	0.0158759
815.009	0.0159592
815.087	0.0160887
815.165	0.0159190
815.244	0.0161358
815.322	0.0161919
815.400	0.0160073
815.478	0.0161009
815.556	0.0160246
815.634	0.0161446
815.712	0.0162745
815.790	0.0161231
815.869	0.0161204
815.947	0.0161777
816.025	0.0161354
816.103	0.0160268
816.181	0.0161177
816.259	0.0161191
816.337	0.0160972
816.415	0.0160999
816.494	0.0159098
816.572	0.0160207
816.650	0.0159552
816.728	0.0159870
816.806	0.0159320
816.884	0.0158685
816.962	0.0159273
817.040	0.0160038
817.119	0.0160306
817.197	0.0160288
817.275	0.0159192
817.353	0.0159983
817.431	0.0160614
817.509	0.0159958
817.587	0.0160052
817.665	0.0159473
817.744	0.0161050
817.822	0.0159882
817.900	0.0160703
817.978	0.0161047
818.056	0.0161026
818.134	0.0160272
818.212	0.0160827
818.290	0.0162199
818.369	0.0162174
818.447	0.0161295
818.525	0.0161349
818.603	0.0160577
818.681	0.0161343
818.759	0.0160970
818.837	0.0160244
818.915	0.0160642
818.994	0.0161024
819.072	0.0160477
819.150	0.0159073
819.228	0.0159834
819.306	0.0159734
819.384	0.0159324
819.462	0.0159668
819.540	0.0159522
819.619	0.0160217
819.697	0.0160099
819.775	0.0158451
819.853	0.0159917
819.931	0.0160213
820.009	0.0159301
820.087	0.0159343
820.165	0.0161325
820.244	0.0158524
820.322	0.0159933
820.400	0.0160417
820.478	0.0159290
820.556	0.0159925
820.634	0.0159450
820.712	0.0160504
820.790	0.0161059
820.869	0.0159594
820.947	0.0159238
821.025	0.0160934
821.103	0.0160410
821.181	0.0160772
821.259	0.0160439
821.337	0.0161198
821.415	0.0160238
821.494	0.0159786
821.572	0.0160250
821.650	0.0159979
821.728	0.0160610
821.806	0.0161173
821.884	0.0161217
821.962	0.0162561
822.040	0.0161655
822.119	0.0159725
822.197	0.0159428
822.275	0.0161217
822.353	0.0160150
822.431	0.0161633
822.509	0.0160276
822.587	0.0161227
822.665	0.0160706
822.744	0.0160365
822.822	0.0160686
822.900	0.0162158
822.978	0.0160120
823.056	0.0159367
823.134	0.0159795
823.212	0.0160487
823.290	0.0159876
823.369	0.0160790
823.447	0.0158971
823.525	0.0160450
823.603	0.0160880
823.681	0.0160712
823.759	0.0158400
823.837	0.0159274
823.915	0.0159206
823.994	0.0159591
824.072	0.0160266
824.150	0.0160610
824.228	0.0161173
824.306	0.0159747
824.384	0.0160316
824.462	0.0159763
824.540	0.0160278
824.619	0.0160297
824.697	0.0159460
824.775	0.0159705
824.853	0.0160978
824.931	0.0161031
825.009	0.0158981
825.087	0.0160828
825.165	0.0158297
825.244	0.0159794
825.322	0.0160397
825.400	0.0158772
825.478	0.0160019
825.556	0.0159828
825.634	0.0159596
825.712	0.0158532
825.790	0.0159770
825.869	0.0159794
825.947	0.0160585
826.025	0.0159904
826.103	0.0160052
826.181	0.0160219
826.259	0.0160326
826.337	0.0161315
826.415	0.0159787
826.494	0.0161405
826.572	0.0160043
826.650	0.0161395
826.728	0.0159711
826.806	0.0160592
826.884	0.0160743
826.962	0.0160822
827.040	0.0159917
827.119	0.0161201
827.197	0.0159568
827.275	0.0159621
827.353	0.0159772
827.431	0.0160020
827.509	0.0158613
827.587	0.0158164
827.665	0.0160088
827.744	0.0161282
827.822	0.0160547
827.900	0.0159647
827.978	0.0160884
828.056	0.0160630
828.134	0.0160379
828.212	0.0161784
828.290	0.0161514
828.369	0.0160198
828.447	0.0162226
828.525	0.0159563
828.603	0.0160370
828.681	0.0161485
828.759	0.0160222
828.837	0.0161305
828.915	0.0161919
828.994	0.0161122
829.072	0.0161130
829.150	0.0160825
829.228	0.0160228
829.306	0.0159910
829.384	0.0160108
829.462	0.0160665
829.540	0.0160478
829.619	0.0160152
829.697	0.0160059
829.775	0.0161337
829.853	0.0161642
829.931	0.0159846
830.009	0.0160170
830.087	0.0159483
830.165	0.0159738
830.244	0.0160327
830.322	0.0160487
830.400	0.0159163
830.478	0.0159436
830.556	0.0160516
830.634	0.0160682
830.712	0.0160737
830.790	0.0161649
830.869	0.0160940
830.947	0.0160313
831.025	0.0161915
831.103	0.0160369
831.181	0.0161168
831.259	0.0159641
831.337	0.0160725
831.415	0.0159269
831.494	0.0160583
831.572	0.0160963
831.650	0.0160690
831.728	0.0159611
831.806	0.0159976
831.884	0.0159458
831.962	0.0160562
832.040	0.0158613
832.119	0.0159675
832.197	0.0160303
832.275	0.0160623
832.353	0.0160055
832.431	0.0161205
832.509	0.0160203
832.587	0.0161160
832.665	0.0162573
832.744	0.0162240
832.822	0.0161753
832.900	0.0160582
832.978	0.0161044
833.056	0.0160365
833.134	0.0161950
833.212	0.0161963
833.290	0.0161295
833.369	0.0160059
833.447	0.0160938
833.525	0.0158852
833.603	0.0160609
833.681	0.0161161
833.759	0.0160285
833.837	0.0159133
833.915	0.0161308
833.994	0.0160112
834.072	0.0159816
834.150	0.0161456
834.228	0.0160787
834.306	0.0160851
834.384	0.0159452
834.462	0.0160099
834.540	0.0161699
834.619	0.0161322
834.697	0.0161154
834.775	0.0161175
834.853	0.0161481
834.931	0.0159731
835.009	0.0159830
835.087	0.0160738
835.165	0.0160828
835.244	0.0161783
835.322	0.0160494
835.400	0.0160685
835.478	0.0159739
835.556	0.0160886
835.634	0.0160362
835.712	0.0159754
835.790	0.0160416
835.869	0.0160064
835.947	0.0159332
836.025	0.0160387
836.103	0.0161991
836.181	0.0160529
836.259	0.0160297
836.337	0.0161401
836.415	0.0160637
836.494	0.0160468
836.572	0.0160921
836.650	0.0160749
836.728	0.0161532
836.806	0.0160207
836.884	0.0159835
836.962	0.0159643
837.040	0.0160481
837.119	0.0160984
837.197	0.0160863
837.275	0.0160587
837.353	0.0160514
837.431	0.0159621
837.509	0.0160193
837.587	0.0159621
837.665	0.0160450
837.744	0.0160339
837.822	0.0159694
837.900	0.0160079
837.978	0.0161216
838.056	0.0159570
838.134	0.0159833
838.212	0.0159235
838.290	0.0160574
838.369	0.0160178
838.447	0.0161120
838.525	0.0160162
838.603	0.0161086
838.681	0.0160296
838.759	0.0158690
838.837	0.0159718
838.915	0.0159956
838.994	0.0159441
839.072	0.0159460
839.150	0.0159785
839.228	0.0160108
839.306	0.0160156
839.384	0.0159757
839.462	0.0159644
839.540	0.0158930
839.619	0.0158839
839.697	0.0160711
839.775	0.0158450
839.853	0.0158147
839.931	0.0160328
840.009	0.0160005
840.087	0.0159536
840.165	0.0160087
840.244	0.0160445
840.322	0.0159427
840.400	0.0160092
840.478	0.0159086
840.556	0.0160670
840.634	0.0159956
840.712	0.0160224
840.790	0.0160658
840.869	0.0160223
840.947	0.0161025
841.025	0.0160890
841.103	0.0159611
841.181	0.0160056
841.259	0.0161369
841.337	0.0160666
841.415	0.0159641
841.494	0.0161493
841.572	0.0159913
841.650	0.0159471
841.728	0.0160516
841.806	0.0160878
841.884	0.0160850
841.962	0.0161982
842.040	0.0161469
842.119	0.0159836
842.197	0.0159703
842.275	0.0160706
842.353	0.0161506
842.431	0.0161330
842.509	0.0162734
842.587	0.0161377
842.665	0.0160516
842.744	0.0160349
842.822	0.0161153
842.900	0.0160596
842.978	0.0160899
843.056	0.0161449
843.134	0.0159309
843.212	0.0160191
843.290	0.0160107
843.369	0.0160479
843.447	0.0159868
843.525	0.0159709
843.603	0.0159722
843.681	0.0158008
843.759	0.0159296
843.837	0.0159967
843.915	0.0161230
843.994	0.0162408
844.072	0.0160600
844.150	0.0159385
844.228	0.0160497
844.306	0.0160105
844.384	0.0161925
844.462	0.0160912
844.540	0.0161554
844.619	0.0159708
844.697	0.0159665
844.775	0.0161192
844.853	0.0159100
844.931	0.0160614
845.009	0.0159174
845.087	0.0160320
845.165	0.0159692
845.244	0.0160743
845.322	0.0158289
845.400	0.0158794
845.478	0.0160651
845.556	0.0160997
845.634	0.0160255
845.712	0.0161032
845.790	0.0159998
845.869	0.0159907
845.947	0.0160790
846.025	0.0160046
846.103	0.0160943
846.181	0.0161954
846.259	0.0160278
846.337	0.0161658
846.415	0.0163037
846.494	0.0161901
846.572	0.0161771
846.650	0.0161326
846.728	0.0159821
846.806	0.0161044
846.884	0.0160405
846.962	0.0159706
847.040	0.0160498
847.119	0.0160493
847.197	0.0159931
847.275	0.0159719
847.353	0.0160397
847.431	0.0160695
847.509	0.0160032
847.587	0.0159488
847.665	0.0160374
847.744	0.0160400
847.822	0.0159922
847.900	0.0161774
847.978	0.0161082
848.056	0.0161569
848.134	0.0161591
848.212	0.0162116
848.290	0.0161761
848.369	0.0161034
848.447	0.0161708
848.525	0.0161697
848.603	0.0161797
848.681	0.0161056
848.759	0.0160527
848.837	0.0160525
848.915	0.0160586
848.994	0.0160661
849.072	0.0160347
849.150	0.0160561
849.228	0.0159836
849.306	0.0160950
849.384	0.0160181
849.462	0.0159239
849.540	0.0160899
849.619	0.0161159
849.697	0.0159421
849.775	0.0160336
849.853	0.0160573
849.931	0.0160318
850.009	0.0160857
850.087	0.0160454
850.165	0.0160662
850.244	0.0162656
850.322	0.0161648
850.400	0.0161333
850.478	0.0162287
850.556	0.0160680
850.634	0.0161178
850.712	0.0162454
850.790	0.0161320
850.869	0.0160583
850.947	0.0162711
851.025	0.0160605
851.103	0.0160449
851.181	0.0160450
851.259	0.0161297
851.337	0.0160949
851.415	0.0161082
851.494	0.0160966
851.572	0.0160268
851.650	0.0159618
851.728	0.0160685
851.806	0.0160197
851.884	0.0160027
851.962	0.0160742
852.040	0.0161157
852.119	0.0160583
852.197	0.0160265
852.275	0.0160094
852.353	0.0159979
852.431	0.0157859
852.509	0.0159602
852.587	0.0160986
852.665	0.0162523
852.744	0.0160666
852.822	0.0160005
852.900	0.0161062
852.978	0.0161643
853.056	0.0160113
853.134	0.0160806
853.212	0.0161811
853.290	0.0161745
853.369	0.0160825
853.447	0.0161028
853.525	0.0160365
853.603	0.0161582
853.681	0.0161914
853.759	0.0161201
853.837	0.0160637
853.915	0.0160257
853.994	0.0162196
854.072	0.0162600
854.150	0.0161372
854.228	0.0161002
854.306	0.0162540
854.384	0.0161669
854.462	0.0161333
854.540	0.0161378
854.619	0.0161755
854.697	0.0161790
854.775	0.0161422
854.853	0.0161242
854.931	0.0162395
855.009	0.0162674
855.087	0.0161625
855.165	0.0161476
855.244	0.0160436
855.322	0.0160541
855.400	0.0161256
855.478	0.0162072
855.556	0.0160796
855.634	0.0162154
855.712	0.0161487
855.790	0.0161224
855.869	0.0161399
855.947	0.0161105
856.025	0.0159361
856.103	0.0160104
856.181	0.0161362
856.259	0.0162048
856.337	0.0161570
856.415	0.0160858
856.494	0.0159962
856.572	0.0159620
856.650	0.0159373
856.728	0.0160372
856.806	0.0160997
856.884	0.0159259
856.962	0.0159911
857.040	0.0159269
857.119	0.0160076
857.197	0.0159097
857.275	0.0160088
857.353	0.0160833
857.431	0.0160651
857.509	0.0159190
857.587	0.0160227
857.665	0.0160500
857.744	0.0160603
857.822	0.0158402
857.900	0.0158862
857.978	0.0161349
858.056	0.0161240
858.134	0.0160094
858.212	0.0159191
858.290	0.0159773
858.369	0.0160651
858.447	0.0160532
858.525	0.0161768
858.603	0.0161078
858.681	0.0160950
858.759	0.0160461
858.837	0.0160706
858.915	0.0161137
858.994	0.0160960
859.072	0.0162244
859.150	0.0160971
859.228	0.0162130
859.306	0.0163229
859.384	0.0160858
859.462	0.0160862
859.540	0.0160642
859.619	0.0159156
859.697	0.0159599
859.775	0.0160387
859.853	0.0160818
859.931	0.0161411
860.009	0.0159886
860.087	0.0161144
860.165	0.0159258
860.244	0.0160587
860.322	0.0161517
860.400	0.0159805
860.478	0.0161281
860.556	0.0161139
860.634	0.0161070
860.712	0.0161735
860.790	0.0161864
860.869	0.0160268
860.947	0.0160946
861.025	0.0161918
861.103	0.0161405
861.181	0.0161790
861.259	0.0163354
861.337	0.0160509
861.415	0.0161335
861.494	0.0162247
861.572	0.0160821
861.650	0.0160349
861.728	0.0158896
861.806	0.0160272
861.884	0.0159431
861.962	0.0159034
862.040	0.0158516
862.119	0.0160838
862.197	0.0161458
862.275	0.0158838
862.353	0.0161179
862.431	0.0160252
862.509	0.0160662
862.587	0.0159806
862.665	0.0159901
862.744	0.0158920
862.822	0.0161523
862.900	0.0160765
862.978	0.0160859
863.056	0.0160889
863.134	0.0161851
863.212	0.0160633
863.290	0.0160822
863.369	0.0160160
863.447	0.0159737
863.525	0.0159854
863.603	0.0162188
863.681	0.0160878
863.759	0.0162065
863.837	0.0161258
863.915	0.0159696
863.994	0.0160298
864.072	0.0160231
864.150	0.0161245
864.228	0.0161355
864.306	0.0161671
864.384	0.0160751
864.462	0.0158919
864.540	0.0159190
864.619	0.0162278
864.697	0.0160769
864.775	0.0160480
864.853	0.0160159
864.931	0.0160460
865.009	0.0161614
865.087	0.0160551
865.165	0.0159597
865.244	0.0161293
865.322	0.0160902
865.400	0.0161279
865.478	0.0160880
865.556	0.0161774
865.634	0.0160587
865.712	0.0159635
865.790	0.0160935
865.869	0.0159053
865.947	0.0162006
866.025	0.0161392
866.103	0.0160700
866.181	0.0160476
866.259	0.0161045
866.337	0.0160543
866.415	0.0160975
866.494	0.0161575
866.572	0.0159603
866.650	0.0159625
866.728	0.0160555
866.806	0.0161777
866.884	0.0161041
866.962	0.0161732
867.040	0.0160590
867.119	0.0160419
867.197	0.0161065
867.275	0.0159142
867.353	0.0160489
867.431	0.0161399
867.509	0.0160703
867.587	0.0160745
867.665	0.0160676
867.744	0.0160704
867.822	0.0161434
867.900	0.0160684
867.978	0.0159899
868.056	0.0160793
868.134	0.0162905
868.212	0.0161768
868.290	0.0160826
868.369	0.0161720
868.447	0.0162107
868.525	0.0161344
868.603	0.0160007
868.681	0.0160802
868.759	0.0162031
868.837	0.0159971
868.915	0.0159505
868.994	0.0160587
869.072	0.0160052
869.150	0.0159460
869.228	0.0160720
869.306	0.0160405
869.384	0.0159076
869.462	0.0159431
869.540	0.0161051
869.619	0.0159731
869.697	0.0159367
869.775	0.0160683
869.853	0.0161024
869.931	0.0160582
870.009	0.0161725
870.087	0.0161343
870.165	0.0160064
870.244	0.0160064
870.322	0.0159835
870.400	0.0161256
870.478	0.0160282
870.556	0.0160303
870.634	0.0160320
870.712	0.0159610
870.790	0.0158880
870.869	0.0159428
870.947	0.0159966
871.025	0.0160391
871.103	0.0159511
871.181	0.0157971
871.259	0.0160525
871.337	0.0159627
871.415	0.0159482
871.494	0.0159377
871.572	0.0160583
871.650	0.0161400
871.728	0.0160444
871.806	0.0160670
871.884	0.0160133
871.962	0.0160075
872.040	0.0160332
872.119	0.0161384
872.197	0.0159164
872.275	0.0159538
872.353	0.0161568
872.431	0.0160770
872.509	0.0160037
872.587	0.0160385
872.665	0.0159894
872.744	0.0161089
872.822	0.0161374
872.900	0.0160262
872.978	0.0159492
873.056	0.0160752
873.134	0.0160246
873.212	0.0159076
873.290	0.0159888
873.369	0.0159617
873.447	0.0159155
873.525	0.0160207
873.603	0.0160349
873.681	0.0160094
873.759	0.0159715
873.837	0.0161249
873.915	0.0160403
873.994	0.0160659
874.072	0.0160350
874.150	0.0160722
874.228	0.0160252
874.306	0.0160478
874.384	0.0161581
874.462	0.0160764
874.540	0.0159592
874.619	0.0161714
874.697	0.0159683
874.775	0.0160155
874.853	0.0159209
874.931	0.0160947
875.009	0.0158978
875.087	0.0159200
875.165	0.0160324
875.244	0.0159685
875.322	0.0160059
875.400	0.0159718
875.478	0.0159569
875.556	0.0159305
875.634	0.0159761
875.712	0.0161203
875.790	0.0161514
875.869	0.0160792
875.947	0.0160853
876.025	0.0159828
876.103	0.0159517
876.181	0.0160710
876.259	0.0160529
876.337	0.0160305
876.415	0.0159383
876.494	0.0158781
876.572	0.0158997
876.650	0.0158999
876.728	0.0158513
876.806	0.0159085
876.884	0.0158912
876.962	0.0159791
877.040	0.0159749
877.119	0.0159648
877.197	0.0158910
877.275	0.0159487
877.353	0.0160033
877.431	0.0160451
877.509	0.0161694
877.587	0.0161097
877.665	0.0161236
877.744	0.0161941
877.822	0.0161212
877.900	0.0160746
877.978	0.0160715
878.056	0.0160880
878.134	0.0161265
878.212	0.0159933
878.290	0.0160138
878.369	0.0159283
878.447	0.0159368
878.525	0.0158025
878.603	0.0157753
878.681	0.0158781
878.759	0.0157064
878.837	0.0157701
878.915	0.0159016
878.994	0.0159085
879.072	0.0159424
879.150	0.0158270
879.228	0.0158694
879.306	0.0159925
879.384	0.0159396
879.462	0.0160444
879.540	0.0161514
879.619	0.0160704
879.697	0.0160579
879.775	0.0161266
879.853	0.0161378
879.931	0.0160873
880.009	0.0161762
880.087	0.0161950
880.165	0.0162457
880.244	0.0161148
880.322	0.0160354
880.400	0.0161510
880.478	0.0159569
880.556	0.0161042
880.634	0.0160530
880.712	0.0159651
880.790	0.0160194
880.869	0.0159689
880.947	0.0159618
881.025	0.0159500
881.103	0.0160981
881.181	0.0157991
881.259	0.0159048
881.337	0.0159766
881.415	0.0161028
881.494	0.0160082
881.572	0.0161440
881.650	0.0159528
881.728	0.0160276
881.806	0.0161508
881.884	0.0161453
881.962	0.0160648
882.040	0.0160951
882.119	0.0161071
882.197	0.0160693
882.275	0.0160765
882.353	0.0160518
882.431	0.0161041
882.509	0.0160262
882.587	0.0160571
882.665	0.0160447
882.744	0.0160236
882.822	0.0161153
882.900	0.0161178
882.978	0.0158682
883.056	0.0159370
883.134	0.0160110
883.212	0.0159444
883.290	0.0159779
883.369	0.0159907
883.447	0.0160511
883.525	0.0159114
883.603	0.0159061
883.681	0.0159939
883.759	0.0161088
883.837	0.0160639
883.915	0.0161677
883.994	0.0160952
884.072	0.0160452
884.150	0.0161854
884.228	0.0161336
884.306	0.0161038
884.384	0.0162301
884.462	0.0161647
884.540	0.0160311
884.619	0.0160625
884.697	0.0161346
884.775	0.0160538
884.853	0.0160818
884.931	0.0161144
885.009	0.0160799
885.087	0.0160552
885.165	0.0159804
885.244	0.0160027
885.322	0.0159149
885.400	0.0159283
885.478	0.0159818
885.556	0.0159221
885.634	0.0158725
885.712	0.0160335
885.790	0.0159813
885.869	0.0160323
885.947	0.0160333
886.025	0.0159648
886.103	0.0161229
886.181	0.0160339
886.259	0.0160706
886.337	0.0159732
886.415	0.0160567
886.494	0.0161097
886.572	0.0160368
886.650	0.0160584
886.728	0.0161121
886.806	0.0161118
886.884	0.0161065
886.962	0.0161893
887.040	0.0159522
887.119	0.0159540
887.197	0.0160690
887.275	0.0160564
887.353	0.0159956
887.431	0.0159016
887.509	0.0161061
887.587	0.0160707
887.665	0.0159615
887.744	0.0161398
887.822	0.0160288
887.900	0.0160634
887.978	0.0160889
888.056	0.0161186
888.134	0.0160349
888.212	0.0160950
888.290	0.0159458
888.369	0.0160508
888.447	0.0161591
888.525	0.0159718
888.603	0.0159265
888.681	0.0160007
888.759	0.0161028
888.837	0.0160689
888.915	0.0160078
888.994	0.0160629
889.072	0.0159506
889.150	0.0160194
889.228	0.0159303
889.306	0.0159712
889.384	0.0160600
889.462	0.0159306
889.540	0.0160386
889.619	0.0160062
889.697	0.0160714
889.775	0.0159724
889.853	0.0160729
889.931	0.0161216
890.009	0.0161877
890.087	0.0159859
890.165	0.0159125
890.244	0.0161169
890.322	0.0161697
890.400	0.0160194
890.478	0.0161972
890.556	0.0159861
890.634	0.0160702
890.712	0.0161580
890.790	0.0161542
890.869	0.0162005
890.947	0.0160746
891.025	0.0161498
891.103	0.0162033
891.181	0.0161050
891.259	0.0161050
891.337	0.0160783
891.415	0.0160722
891.494	0.0160164
891.572	0.0160608
891.650	0.0160168
891.728	0.0159718
891.806	0.0161012
891.884	0.0160513
891.962	0.0158993
892.040	0.0159705
892.119	0.0160516
892.197	0.0161211
892.275	0.0161314
892.353	0.0161047
892.431	0.0161339
892.509	0.0160480
892.587	0.0161212
892.665	0.0160839
892.744	0.0160833
892.822	0.0160843
892.900	0.0161950
892.978	0.0160920
893.056	0.0161327
893.134	0.0161458
893.212	0.0159565
893.290	0.0159395
893.369	0.0159933
893.447	0.0160172
893.525	0.0159938
893.603	0.0159412
893.681	0.0159353
893.759	0.0159923
893.837	0.0161057
893.915	0.0160078
893.994	0.0159512
894.072	0.0160912
894.150	0.0160328
894.228	0.0160268
894.306	0.0159898
894.384	0.0160789
894.462	0.0160502
894.540	0.0160223
894.619	0.0160971
894.697	0.0160190
894.775	0.0160049
894.853	0.0159431
894.931	0.0159544
895.009	0.0160219
895.087	0.0158196
895.165	0.0157956
895.244	0.0158880
895.322	0.0159492
895.400	0.0158657
895.478	0.0159340
895.556	0.0158275
895.634	0.0157803
895.712	0.0160109
895.790	0.0160122
895.869	0.0158990
895.947	0.0161262
896.025	0.0159536
896.103	0.0158707
896.181	0.0160059
896.259	0.0160600
896.337	0.0159615
896.415	0.0159267
896.494	0.0160785
896.572	0.0160152
896.650	0.0160381
896.728	0.0160027
896.806	0.0158635
896.884	0.0157436
896.962	0.0157094
897.040	0.0158916
897.119	0.0158479
897.197	0.0159261
897.275	0.0158280
897.353	0.0158962
897.431	0.0160519
897.509	0.0158343
897.587	0.0158076
897.665	0.0158160
897.744	0.0158556
897.822	0.0159161
897.900	0.0159051
897.978	0.0161340
898.056	0.0158820
898.134	0.0158648
898.212	0.0159692
898.290	0.0160251
898.369	0.0159376
898.447	0.0158861
898.525	0.0159502
898.603	0.0160774
898.681	0.0160807
898.759	0.0161441
898.837	0.0159625
898.915	0.0159443
898.994	0.0159860
899.072	0.0159908
899.150	0.0160838
899.228	0.0159765
899.306	0.0159564
899.384	0.0159613
899.462	0.0160657
899.540	0.0160296
899.619	0.0159372
899.697	0.0159444
899.775	0.0160978
899.853	0.0161639
899.931	0.0159554
900.009	0.0159947
900.087	0.0161415
900.165	0.0160591
900.244	0.0161918
900.322	0.0161386
900.400	0.0161905
900.478	0.0159821
900.556	0.0161077
900.634	0.0162248
900.712	0.0161323
900.790	0.0160223
900.869	0.0158840
900.947	0.0161073
901.025	0.0160117
901.103	0.0161246
901.181	0.0161098
901.259	0.0161076
901.337	0.0159785
901.415	0.0161729
901.494	0.0159776
901.572	0.0160855
901.650	0.0159436
901.728	0.0161368
901.806	0.0161914
901.884	0.0160283
901.962	0.0160732
902.040	0.0160149
902.119	0.0160516
902.197	0.0161148
902.275	0.0159795
902.353	0.0160244
902.431	0.0159825
902.509	0.0160008
902.587	0.0160542
902.665	0.0159490
902.744	0.0159220
902.822	0.0159021
902.900	0.0159892
902.978	0.0160558
903.056	0.0160142
903.134	0.0159984
903.212	0.0160889
903.290	0.0160068
903.369	0.0160002
903.447	0.0160744
903.525	0.0160929
903.603	0.0160114
903.681	0.0161424
903.759	0.0161272
903.837	0.0159220
903.915	0.0161082
903.994	0.0160796
904.072	0.0159846
904.150	0.0159324
904.228	0.0160313
904.306	0.0160003
904.384	0.0159704
904.462	0.0159268
904.540	0.0158994
904.619	0.0158229
904.697	0.0158569
904.775	0.0159785
904.853	0.0159689
904.931	0.0159951
905.009	0.0159653
905.087	0.0160265
905.165	0.0162016
905.244	0.0160381
905.322	0.0159690
905.400	0.0159521
905.478	0.0160506
905.556	0.0161635
905.634	0.0161543
905.712	0.0160423
905.790	0.0161460
905.869	0.0161327
905.947	0.0160110
906.025	0.0159299
906.103	0.0159706
906.181	0.0160406
906.259	0.0161314
906.337	0.0161107
906.415	0.0160831
906.494	0.0159992
906.572	0.0160734
906.650	0.0161707
906.728	0.0160751
906.806	0.0160614
906.884	0.0160775
906.962	0.0160752
907.040	0.0160120
907.119	0.0160830
907.197	0.0160212
907.275	0.0159825
907.353	0.0160928
907.431	0.0159460
907.509	0.0160075
907.587	0.0159666
907.665	0.0159074
907.744	0.0159054
907.822	0.0158775
907.900	0.0158886
907.978	0.0160126
908.056	0.0160660
908.134	0.0159896
908.212	0.0160139
908.290	0.0160527
908.369	0.0159970
908.447	0.0159991
908.525	0.0161418
908.603	0.0160477
908.681	0.0159529
908.759	0.0160774
908.837	0.0160547
908.915	0.0160886
908.994	0.0159872
909.072	0.0160490
909.150	0.0161919
909.228	0.0160551
909.306	0.0159284
909.384	0.0161372
909.462	0.0160584
909.540	0.0161000
909.619	0.0160824
909.697	0.0159728
909.775	0.0160561
909.853	0.0160300
909.931	0.0160994
910.009	0.0161877
910.087	0.0161126
910.165	0.0161975
910.244	0.0161113
910.322	0.0160565
910.400	0.0160938
910.478	0.0160744
910.556	0.0160902
910.634	0.0161315
910.712	0.0161059
910.790	0.0160736
910.869	0.0160511
910.947	0.0162078
911.025	0.0160120
911.103	0.0160365
911.181	0.0160131
911.259	0.0162273
911.337	0.0161378
911.415	0.0161491
911.494	0.0162166
911.572	0.0160666
911.650	0.0161000
911.728	0.0161994
911.806	0.0161159
911.884	0.0160639
911.962	0.0160607
912.040	0.0161395
912.119	0.0160271
912.197	0.0160619
912.275	0.0160182
912.353	0.0161504
912.431	0.0160457
912.509	0.0159924
912.587	0.0160398
912.665	0.0160381
912.744	0.0159673
912.822	0.0159332
912.900	0.0159079
912.978	0.0159396
913.056	0.0160041
913.134	0.0160641
913.212	0.0159623
913.290	0.0159611
913.369	0.0160632
913.447	0.0159416
913.525	0.0159811
913.603	0.0161205
913.681	0.0159968
913.759	0.0159956
913.837	0.0160789
913.915	0.0159831
913.994	0.0160014
914.072	0.0161004
914.150	0.0161475
914.228	0.0160841
914.306	0.0159838
914.384	0.0161005
914.462	0.0160604
914.540	0.0160389
914.619	0.0161025
914.697	0.0161569
914.775	0.0162720
914.853	0.0159753
914.931	0.0159498
915.009	0.0160094
915.087	0.0160820
915.165	0.0160558
915.244	0.0161044
915.322	0.0161153
915.400	0.0161382
915.478	0.0160759
915.556	0.0161467
915.634	0.0159193
915.712	0.0160711
915.790	0.0160305
915.869	0.0160664
915.947	0.0159429
916.025	0.0160381
916.103	0.0161079
916.181	0.0160741
916.259	0.0160825
916.337	0.0161371
916.415	0.0161572
916.494	0.0160960
916.572	0.0160249
916.650	0.0161720
916.728	0.0161440
916.806	0.0160705
916.884	0.0160419
916.962	0.0159077
917.040	0.0161109
917.119	0.0160078
917.197	0.0160647
917.275	0.0160426
917.353	0.0160205
917.431	0.0160821
917.509	0.0161292
917.587	0.0160951
917.665	0.0161407
917.744	0.0161250
917.822	0.0161964
917.900	0.0160139
917.978	0.0160783
918.056	0.0161584
918.134	0.0161406
918.212	0.0161417
918.290	0.0160391
918.369	0.0161431
918.447	0.0161752
918.525	0.0158935
918.603	0.0159775
918.681	0.0161085
918.759	0.0161350
918.837	0.0160256
918.915	0.0159058
918.994	0.0158620
919.072	0.0159500
919.150	0.0159655
919.228	0.0158862
919.306	0.0159746
919.384	0.0159245
919.462	0.0159638
919.540	0.0159364
919.619	0.0158540
919.697	0.0159358
919.775	0.0159450
919.853	0.0160448
919.931	0.0159544
920.009	0.0159841
920.087	0.0160381
920.165	0.0160697
920.244	0.0160493
920.322	0.0159703
920.400	0.0159994
920.478	0.0159768
920.556	0.0160611
920.634	0.0158457
920.712	0.0160870
920.790	0.0161691
920.869	0.0158801
920.947	0.0158246
921.025	0.0159998
921.103	0.0160839
921.181	0.0158997
921.259	0.0159914
921.337	0.0161520
921.415	0.0159707
921.494	0.0160790
921.572	0.0159713
921.650	0.0160092
921.728	0.0159740
921.806	0.0159660
921.884	0.0159847
921.962	0.0161121
922.040	0.0160799
922.119	0.0161147
922.197	0.0159505
922.275	0.0160542
922.353	0.0161177
922.431	0.0159631
922.509	0.0159411
922.587	0.0161089
922.665	0.0159615
922.744	0.0160197
922.822	0.0161988
922.900	0.0161074
922.978	0.0160551
923.056	0.0159796
923.134	0.0159808
923.212	0.0160056
923.290	0.0160612
923.369	0.0159196
923.447	0.0160459
923.525	0.0161116
923.603	0.0159950
923.681	0.0159514
923.759	0.0159732
923.837	0.0159047
923.915	0.0159657
923.994	0.0160349
924.072	0.0159236
924.150	0.0160124
924.228	0.0160666
924.306	0.0159958
924.384	0.0159863
924.462	0.0160834
924.540	0.0161877
924.619	0.0161402
924.697	0.0161349
924.775	0.0160721
924.853	0.0159584
924.931	0.0160080
925.009	0.0158703
925.087	0.0160398
925.165	0.0159171
925.244	0.0159575
925.322	0.0159636
925.400	0.0159677
925.478	0.0158934
925.556	0.0160074
925.634	0.0159685
925.712	0.0159305
925.790	0.0160756
925.869	0.0159383
925.947	0.0160094
926.025	0.0159181
926.103	0.0158240
926.181	0.0159600
926.259	0.0159564
926.337	0.0160046
926.415	0.0158987
926.494	0.0160002
926.572	0.0160194
926.650	0.0160129
926.728	0.0159422
926.806	0.0160785
926.884	0.0160473
926.962	0.0159792
927.040	0.0159814
927.119	0.0160266
927.197	0.0159934
927.275	0.0161300
927.353	0.0159965
927.431	0.0161880
927.509	0.0160379
927.587	0.0159714
927.665	0.0159647
927.744	0.0161396
927.822	0.0160377
927.900	0.0160589
927.978	0.0161150
928.056	0.0160746
928.134	0.0160046
928.212	0.0161411
928.290	0.0160157
928.369	0.0161250
928.447	0.0160876
928.525	0.0161057
928.603	0.0160880
928.681	0.0161293
928.759	0.0161226
928.837	0.0162646
928.915	0.0162411
928.994	0.0161036
929.072	0.0160361
929.150	0.0162627
929.228	0.0161552
929.306	0.0161096
929.384	0.0160468
929.462	0.0161193
929.540	0.0161724
929.619	0.0161867
929.697	0.0161708
929.775	0.0160958
929.853	0.0161350
929.931	0.0160233
930.009	0.0162036
930.087	0.0161713
930.165	0.0160468
930.244	0.0160201
930.322	0.0160899
930.400	0.0162303
930.478	0.0161239
930.556	0.0161576
930.634	0.0160854
930.712	0.0162183
930.790	0.0160474
930.869	0.0161577
930.947	0.0159782
931.025	0.0160767
931.103	0.0161529
931.181	0.0161406
931.259	0.0160732
931.337	0.0160662
931.415	0.0160574
931.494	0.0160320
931.572	0.0159978
931.650	0.0161061
931.728	0.0160899
931.806	0.0160264
931.884	0.0160023
931.962	0.0160078
932.040	0.0160540
932.119	0.0160193
932.197	0.0159754
932.275	0.0160573
932.353	0.0162348
932.431	0.0162188
932.509	0.0161995
932.587	0.0160572
932.665	0.0162209
932.744	0.0161954
932.822	0.0161822
932.900	0.0162218
932.978	0.0162119
933.056	0.0160453
933.134	0.0161615
933.212	0.0161762
933.290	0.0161418
933.369	0.0160419
933.447	0.0160799
933.525	0.0160583
933.603	0.0160326
933.681	0.0159964
933.759	0.0159272
933.837	0.0160956
933.915	0.0160049
933.994	0.0161634
934.072	0.0159800
934.150	0.0161335
934.228	0.0160476
934.306	0.0161055
934.384	0.0160532
934.462	0.0161407
934.540	0.0161299
934.619	0.0162439
934.697	0.0161241
934.775	0.0160917
934.853	0.0161664
934.931	0.0160435
935.009	0.0161241
935.087	0.0161073
935.165	0.0160755
935.244	0.0161316
935.322	0.0159887
935.400	0.0159844
935.478	0.0161794
935.556	0.0161194
935.634	0.0160993
935.712	0.0160509
935.790	0.0160830
935.869	0.0160580
935.947	0.0161074
936.025	0.0160476
936.103	0.0161347
936.181	0.0160297
936.259	0.0160825
936.337	0.0161366
936.415	0.0162215
936.494	0.0162320
936.572	0.0159469
936.650	0.0160879
936.728	0.0160997
936.806	0.0161739
936.884	0.0160061
936.962	0.0161118
937.040	0.0162057
937.119	0.0162170
937.197	0.0161995
937.275	0.0161743
937.353	0.0161858
937.431	0.0160378
937.509	0.0161435
937.587	0.0160535
937.665	0.0161659
937.744	0.0160935
937.822	0.0161181
937.900	0.0161410
937.978	0.0160883
938.056	0.0161818
938.134	0.0160147
938.212	0.0160546
938.290	0.0160574
938.369	0.0160821
938.447	0.0160970
938.525	0.0160824
938.603	0.0160907
938.681	0.0161327
938.759	0.0161533
938.837	0.0160860
938.915	0.0161212
938.994	0.0162396
939.072	0.0160960
939.150	0.0160842
939.228	0.0160255
939.306	0.0160192
939.384	0.0161653
939.462	0.0160030
939.540	0.0159354
939.619	0.0160562
939.697	0.0162277
939.775	0.0159225
939.853	0.0159983
939.931	0.0160424
940.009	0.0159376
940.087	0.0159238
940.165	0.0159398
940.244	0.0159507
940.322	0.0160150
940.400	0.0159028
940.478	0.0159044
940.556	0.0160020
940.634	0.0159308
940.712	0.0159428
940.790	0.0160686
940.869	0.0160300
940.947	0.0161344
941.025	0.0159816
941.103	0.0160150
941.181	0.0159357
941.259	0.0159164
941.337	0.0159863
941.415	0.0160830
941.494	0.0161524
941.572	0.0159628
941.650	0.0161127
941.728	0.0160168
941.806	0.0158905
941.884	0.0160141
941.962	0.0161620
942.040	0.0161343
942.119	0.0161396
942.197	0.0159896
942.275	0.0160505
942.353	0.0160871
942.431	0.0161488
942.509	0.0160890
942.587	0.0159967
942.665	0.0160622
942.744	0.0159494
942.822	0.0160386
942.900	0.0160646
942.978	0.0159824
943.056	0.0160938
943.134	0.0161181
943.212	0.0161373
943.290	0.0160117
943.369	0.0160949
943.447	0.0160395
943.525	0.0160873
943.603	0.0161184
943.681	0.0161424
943.759	0.0159785
943.837	0.0159446
943.915	0.0160836
943.994	0.0159806
944.072	0.0158894
944.150	0.0160302
944.228	0.0161008
944.306	0.0161288
944.384	0.0159721
944.462	0.0159696
944.540	0.0161341
944.619	0.0160271
944.697	0.0159886
944.775	0.0160357
944.853	0.0160641
944.931	0.0160040
945.009	0.0160538
945.087	0.0160567
945.165	0.0159876
945.244	0.0162997
945.322	0.0161221
945.400	0.0159710
945.478	0.0161017
945.556	0.0160614
945.634	0.0160675
945.712	0.0160223
945.790	0.0160704
945.869	0.0160882
945.947	0.0160708
946.025	0.0160329
946.103	0.0158992
946.181	0.0161044
946.259	0.0160777
946.337	0.0161640
946.415	0.0160732
946.494	0.0158619
946.572	0.0161351
946.650	0.0161060
946.728	0.0160724
946.806	0.0160260
946.884	0.0161666
946.962	0.0160648
947.040	0.0160645
947.119	0.0160271
947.197	0.0161445
947.275	0.0160680
947.353	0.0161369
947.431	0.0162135
947.509	0.0160953
947.587	0.0160189
947.665	0.0161501
947.744	0.0159174
947.822	0.0160697
947.900	0.0160722
947.978	0.0160415
948.056	0.0160874
948.134	0.0160492
948.212	0.0159863
948.290	0.0160085
948.369	0.0159469
948.447	0.0161253
948.525	0.0160733
948.603	0.0160175
948.681	0.0160090
948.759	0.0160407
948.837	0.0161861
948.915	0.0161300
948.994	0.0160717
949.072	0.0161101
949.150	0.0160989
949.228	0.0160235
949.306	0.0160490
949.384	0.0161316
949.462	0.0160544
949.540	0.0161249
949.619	0.0161005
949.697	0.0160951
949.775	0.0162001
949.853	0.0161545
949.931	0.0160483
