05/19/2022	01:11:34	Ver.	4.1	UNKNOWN
Optical Delay	610.008675	Delta X		0.078125	Sweeps	1	Scan Rate	0/0
Coordinates	Axis 1	NaN	Axis 2	NaN	Axis 3	NaN	Axis 4	NaN	Axis 5	NaN	Axis 6	0.000000
TX Power	0.000000	RX Power	0.000000

610.009	0.0160007
610.087	0.0160199
610.165	0.0159464
610.243	0.0159605
610.321	0.0159508
610.399	0.0158959
610.477	0.0159254
610.556	0.0159216
610.634	0.0159196
610.712	0.0160885
610.790	0.0159917
610.868	0.0159445
610.946	0.0159415
611.024	0.0160226
611.102	0.0158937
611.181	0.0158951
611.259	0.0160768
611.337	0.0160724
611.415	0.0159613
611.493	0.0159866
611.571	0.0160989
611.649	0.0161320
611.727	0.0160275
611.806	0.0159947
611.884	0.0160253
611.962	0.0160841
612.040	0.0159696
612.118	0.0161960
612.196	0.0161099
612.274	0.0160450
612.352	0.0159754
612.431	0.0161956
612.509	0.0160763
612.587	0.0159918
612.665	0.0160764
612.743	0.0161056
612.821	0.0160584
612.899	0.0159922
612.977	0.0161405
613.056	0.0159894
613.134	0.0161468
613.212	0.0162081
613.290	0.0161192
613.368	0.0161613
613.446	0.0162730
613.524	0.0161089
613.602	0.0162041
613.681	0.0162161
613.759	0.0160937
613.837	0.0162284
613.915	0.0162422
613.993	0.0161033
614.071	0.0160449
614.149	0.0161639
614.227	0.0162630
614.306	0.0162697
614.384	0.0161964
614.462	0.0161801
614.540	0.0161521
614.618	0.0160888
614.696	0.0160989
614.774	0.0161891
614.852	0.0161948
614.931	0.0160649
615.009	0.0161950
615.087	0.0161095
615.165	0.0164041
615.243	0.0162693
615.321	0.0164044
615.399	0.0161289
615.477	0.0162797
615.556	0.0163026
615.634	0.0162673
615.712	0.0162994
615.790	0.0162588
615.868	0.0161689
615.946	0.0163222
616.024	0.0162336
616.102	0.0161184
616.181	0.0162880
616.259	0.0163168
616.337	0.0162625
616.415	0.0163087
616.493	0.0163271
616.571	0.0162362
616.649	0.0161198
616.727	0.0162830
616.806	0.0162895
616.884	0.0162737
616.962	0.0162164
617.040	0.0161289
617.118	0.0162734
617.196	0.0162156
617.274	0.0161382
617.352	0.0161508
617.431	0.0162521
617.509	0.0160906
617.587	0.0161641
617.665	0.0162247
617.743	0.0161852
617.821	0.0160085
617.899	0.0162016
617.977	0.0162078
618.056	0.0162377
618.134	0.0162683
618.212	0.0162313
618.290	0.0162269
618.368	0.0162125
618.446	0.0162130
618.524	0.0161276
618.602	0.0162288
618.681	0.0161604
618.759	0.0162873
618.837	0.0160963
618.915	0.0161014
618.993	0.0161988
619.071	0.0162487
619.149	0.0161517
619.227	0.0163171
619.306	0.0161288
619.384	0.0161526
619.462	0.0160957
619.540	0.0163043
619.618	0.0161613
619.696	0.0159467
619.774	0.0161639
619.852	0.0161875
619.931	0.0162191
620.009	0.0161117
620.087	0.0159612
620.165	0.0161732
620.243	0.0161051
620.321	0.0160919
620.399	0.0161365
620.477	0.0161050
620.556	0.0159260
620.634	0.0161367
620.712	0.0161436
620.790	0.0161147
620.868	0.0162167
620.946	0.0160871
621.024	0.0159962
621.102	0.0159849
621.181	0.0161603
621.259	0.0160345
621.337	0.0160387
621.415	0.0161723
621.493	0.0160535
621.571	0.0160397
621.649	0.0161558
621.727	0.0160698
621.806	0.0159037
621.884	0.0160454
621.962	0.0161046
622.040	0.0159694
622.118	0.0160419
622.196	0.0159712
622.274	0.0161137
622.352	0.0161442
622.431	0.0160445
622.509	0.0160560
622.587	0.0160948
622.665	0.0160393
622.743	0.0161234
622.821	0.0161199
622.899	0.0163107
622.977	0.0160368
623.056	0.0160676
623.134	0.0161706
623.212	0.0161678
623.290	0.0162505
623.368	0.0162547
623.446	0.0160174
623.524	0.0159960
623.602	0.0161572
623.681	0.0161978
623.759	0.0161281
623.837	0.0161710
623.915	0.0161671
623.993	0.0162496
624.071	0.0160879
624.149	0.0162169
624.227	0.0162569
624.306	0.0163203
624.384	0.0161645
624.462	0.0161741
624.540	0.0162854
624.618	0.0160989
624.696	0.0162615
624.774	0.0161092
624.852	0.0161588
624.931	0.0162752
625.009	0.0161875
625.087	0.0161440
625.165	0.0161339
625.243	0.0161504
625.321	0.0159978
625.399	0.0160239
625.477	0.0161750
625.556	0.0160963
625.634	0.0159436
625.712	0.0160757
625.790	0.0162431
625.868	0.0161589
625.946	0.0160640
626.024	0.0160325
626.102	0.0160733
626.181	0.0161870
626.259	0.0160548
626.337	0.0160973
626.415	0.0159850
626.493	0.0161750
626.571	0.0159970
626.649	0.0160165
626.727	0.0159962
626.806	0.0159712
626.884	0.0159857
626.962	0.0160540
627.040	0.0160443
627.118	0.0161053
627.196	0.0160876
627.274	0.0159592
627.352	0.0160519
627.431	0.0160934
627.509	0.0159640
627.587	0.0161594
627.665	0.0160745
627.743	0.0160153
627.821	0.0160839
627.899	0.0162307
627.977	0.0161530
628.056	0.0161544
628.134	0.0162038
628.212	0.0161679
628.290	0.0161804
628.368	0.0163061
628.446	0.0162671
628.524	0.0162167
628.602	0.0161024
628.681	0.0162412
628.759	0.0162655
628.837	0.0162297
628.915	0.0161435
628.993	0.0163958
629.071	0.0161235
629.149	0.0162341
629.227	0.0163661
629.306	0.0162913
629.384	0.0161504
629.462	0.0162412
629.540	0.0161417
629.618	0.0160753
629.696	0.0161772
629.774	0.0161547
629.852	0.0162061
629.931	0.0161747
630.009	0.0161456
630.087	0.0160428
630.165	0.0160529
630.243	0.0161179
630.321	0.0160385
630.399	0.0159710
630.477	0.0160813
630.556	0.0158546
630.634	0.0159542
630.712	0.0159092
630.790	0.0159286
630.868	0.0157745
630.946	0.0157059
631.024	0.0158116
631.102	0.0158911
631.181	0.0156961
631.259	0.0159189
631.337	0.0157096
631.415	0.0158076
631.493	0.0158033
631.571	0.0157661
631.649	0.0158628
631.727	0.0159424
631.806	0.0158204
631.884	0.0158115
631.962	0.0159851
632.040	0.0157622
632.118	0.0157862
632.196	0.0159489
632.274	0.0158836
632.352	0.0159071
632.431	0.0160506
632.509	0.0160397
632.587	0.0159663
632.665	0.0160848
632.743	0.0161166
632.821	0.0161122
632.899	0.0161446
632.977	0.0160803
633.056	0.0162625
633.134	0.0160204
633.212	0.0161196
633.290	0.0161108
633.368	0.0161904
633.446	0.0161543
633.524	0.0160674
633.602	0.0161421
633.681	0.0161387
633.759	0.0161524
633.837	0.0159904
633.915	0.0160876
633.993	0.0161050
634.071	0.0161938
634.149	0.0161413
634.227	0.0161456
634.306	0.0160831
634.384	0.0160471
634.462	0.0161333
634.540	0.0159592
634.618	0.0160058
634.696	0.0159583
634.774	0.0158018
634.852	0.0157381
634.931	0.0158028
635.009	0.0158449
635.087	0.0159147
635.165	0.0159040
635.243	0.0158504
635.321	0.0158012
635.399	0.0158660
635.477	0.0156673
635.556	0.0157230
635.634	0.0157521
635.712	0.0156057
635.790	0.0156237
635.868	0.0156747
635.946	0.0157144
636.024	0.0157059
636.102	0.0157804
636.181	0.0157211
636.259	0.0156805
636.337	0.0157040
636.415	0.0158142
636.493	0.0158952
636.571	0.0159653
636.649	0.0159539
636.727	0.0158515
636.806	0.0159252
636.884	0.0160135
636.962	0.0161327
637.040	0.0160442
637.118	0.0160496
637.196	0.0161757
637.274	0.0162083
637.352	0.0161819
637.431	0.0162729
637.509	0.0162054
637.587	0.0162955
637.665	0.0163200
637.743	0.0162766
637.821	0.0163145
637.899	0.0164838
637.977	0.0165083
638.056	0.0163898
638.134	0.0163641
638.212	0.0163784
638.290	0.0164996
638.368	0.0165108
638.446	0.0164674
638.524	0.0164438
638.602	0.0163101
638.681	0.0164040
638.759	0.0164469
638.837	0.0163069
638.915	0.0163391
638.993	0.0163763
639.071	0.0163660
639.149	0.0162615
639.227	0.0162038
639.306	0.0162572
639.384	0.0162280
639.462	0.0161972
639.540	0.0161808
639.618	0.0161195
639.696	0.0161536
639.774	0.0161298
639.852	0.0161400
639.931	0.0160207
640.009	0.0161377
640.087	0.0161068
640.165	0.0160065
640.243	0.0161140
640.321	0.0160107
640.399	0.0161084
640.477	0.0161027
640.556	0.0161289
640.634	0.0160658
640.712	0.0161958
640.790	0.0162895
640.868	0.0161745
640.946	0.0162849
641.024	0.0162848
641.102	0.0162140
641.181	0.0162208
641.259	0.0162891
641.337	0.0162052
641.415	0.0161859
641.493	0.0162704
641.571	0.0162346
641.649	0.0162374
641.727	0.0165134
641.806	0.0162386
641.884	0.0161735
641.962	0.0162775
642.040	0.0163155
642.118	0.0163309
642.196	0.0161984
642.274	0.0160374
642.352	0.0160787
642.431	0.0161458
642.509	0.0161773
642.587	0.0162255
642.665	0.0160451
642.743	0.0161740
642.821	0.0161619
642.899	0.0159281
642.977	0.0160765
643.056	0.0160705
643.134	0.0159164
643.212	0.0158168
643.290	0.0160199
643.368	0.0159467
643.446	0.0159035
643.524	0.0159121
643.602	0.0158781
643.681	0.0158347
643.759	0.0158176
643.837	0.0159334
643.915	0.0159005
643.993	0.0157140
644.071	0.0158512
644.149	0.0159053
644.227	0.0158864
644.306	0.0158922
644.384	0.0157425
644.462	0.0157925
644.540	0.0158611
644.618	0.0158881
644.696	0.0158202
644.774	0.0158163
644.852	0.0157738
644.931	0.0158293
645.009	0.0158031
645.087	0.0158893
645.165	0.0158475
645.243	0.0159558
645.321	0.0158405
645.399	0.0157654
645.477	0.0157760
645.556	0.0156457
645.634	0.0158508
645.712	0.0156592
645.790	0.0157114
645.868	0.0158445
645.946	0.0156976
646.024	0.0156994
646.102	0.0157812
646.181	0.0157783
646.259	0.0155622
646.337	0.0157417
646.415	0.0157608
646.493	0.0157740
646.571	0.0158640
646.649	0.0158771
646.727	0.0160341
646.806	0.0160622
646.884	0.0160044
646.962	0.0161557
647.040	0.0160333
647.118	0.0161769
647.196	0.0162055
647.274	0.0162643
647.352	0.0162772
647.431	0.0162348
647.509	0.0164001
647.587	0.0164598
647.665	0.0164333
647.743	0.0163920
647.821	0.0163927
647.899	0.0163702
647.977	0.0165189
648.056	0.0165147
648.134	0.0165903
648.212	0.0165945
648.290	0.0165327
648.368	0.0166062
648.446	0.0165131
648.524	0.0163032
648.602	0.0164511
648.681	0.0163396
648.759	0.0162457
648.837	0.0163065
648.915	0.0163261
648.993	0.0161008
649.071	0.0162298
649.149	0.0162002
649.227	0.0160931
649.306	0.0161933
649.384	0.0160915
649.462	0.0159583
649.540	0.0159911
649.618	0.0160787
649.696	0.0161032
649.774	0.0161127
649.852	0.0158865
649.931	0.0157481
650.009	0.0158837
650.087	0.0158368
650.165	0.0157414
650.243	0.0157526
650.321	0.0157952
650.399	0.0157079
650.477	0.0156584
650.556	0.0156390
650.634	0.0157925
650.712	0.0159153
650.790	0.0157817
650.868	0.0158743
650.946	0.0158167
651.024	0.0158146
651.102	0.0158302
651.181	0.0158030
651.259	0.0158281
651.337	0.0159267
651.415	0.0159490
651.493	0.0158035
651.571	0.0158263
651.649	0.0158716
651.727	0.0159227
651.806	0.0159739
651.884	0.0160007
651.962	0.0160115
652.040	0.0160922
652.118	0.0162168
652.196	0.0160949
652.274	0.0160802
652.352	0.0160889
652.431	0.0161758
652.509	0.0161541
652.587	0.0160764
652.665	0.0162482
652.743	0.0163328
652.821	0.0162294
652.899	0.0164541
652.977	0.0162919
653.056	0.0163456
653.134	0.0164496
653.212	0.0164848
653.290	0.0163784
653.368	0.0165034
653.446	0.0165521
653.524	0.0165523
653.602	0.0165798
653.681	0.0164460
653.759	0.0165161
653.837	0.0164999
653.915	0.0165260
653.993	0.0164268
654.071	0.0165217
654.149	0.0163086
654.227	0.0163811
654.306	0.0163422
654.384	0.0162438
654.462	0.0162320
654.540	0.0162399
654.618	0.0162164
654.696	0.0162537
654.774	0.0161444
654.852	0.0159731
654.931	0.0159104
655.009	0.0159053
655.087	0.0158827
655.165	0.0158800
655.243	0.0157653
655.321	0.0158113
655.399	0.0157852
655.477	0.0156232
655.556	0.0156199
655.634	0.0157355
655.712	0.0155612
655.790	0.0155165
655.868	0.0155405
655.946	0.0156351
656.024	0.0157278
656.102	0.0156952
656.181	0.0155935
656.259	0.0156403
656.337	0.0156564
656.415	0.0156422
656.493	0.0156447
656.571	0.0157794
656.649	0.0156664
656.727	0.0156833
656.806	0.0156245
656.884	0.0157819
656.962	0.0156384
657.040	0.0159039
657.118	0.0159441
657.196	0.0159318
657.274	0.0161162
657.352	0.0160393
657.431	0.0160411
657.509	0.0161169
657.587	0.0161827
657.665	0.0161700
657.743	0.0161327
657.821	0.0161831
657.899	0.0163478
657.977	0.0164077
658.056	0.0164106
658.134	0.0164381
658.212	0.0164709
658.290	0.0162915
658.368	0.0163574
658.446	0.0164911
658.524	0.0163963
658.602	0.0163978
658.681	0.0163811
658.759	0.0164532
658.837	0.0163559
658.915	0.0162888
658.993	0.0163438
659.071	0.0163197
659.149	0.0162194
659.227	0.0162685
659.306	0.0161435
659.384	0.0160718
659.462	0.0159863
659.540	0.0162641
659.618	0.0162381
659.696	0.0159904
659.774	0.0159366
659.852	0.0160920
659.931	0.0160473
660.009	0.0160063
660.087	0.0160110
660.165	0.0159026
660.243	0.0160268
660.321	0.0160611
660.399	0.0159464
660.477	0.0160080
660.556	0.0159390
660.634	0.0158823
660.712	0.0160136
660.790	0.0160800
660.868	0.0159769
660.946	0.0158070
661.024	0.0159261
661.102	0.0160253
661.181	0.0160151
661.259	0.0159756
661.337	0.0160634
661.415	0.0159128
661.493	0.0160949
661.571	0.0160650
661.649	0.0159575
661.727	0.0160757
661.806	0.0160291
661.884	0.0159846
661.962	0.0160688
662.040	0.0160487
662.118	0.0160831
662.196	0.0159441
662.274	0.0159407
662.352	0.0160172
662.431	0.0161321
662.509	0.0160637
662.587	0.0160497
662.665	0.0158779
662.743	0.0161307
662.821	0.0160812
662.899	0.0161271
662.977	0.0159663
663.056	0.0160596
663.134	0.0161189
663.212	0.0162349
663.290	0.0161034
663.368	0.0161992
663.446	0.0162854
663.524	0.0162123
663.602	0.0161638
663.681	0.0162476
663.759	0.0162865
663.837	0.0161114
663.915	0.0162875
663.993	0.0162060
664.071	0.0161912
664.149	0.0161499
664.227	0.0161491
664.306	0.0159884
664.384	0.0162568
664.462	0.0161775
664.540	0.0162585
664.618	0.0160968
664.696	0.0159901
664.774	0.0162645
664.852	0.0161038
664.931	0.0160804
665.009	0.0161818
665.087	0.0161169
665.165	0.0161419
665.243	0.0161991
665.321	0.0161606
665.399	0.0161923
665.477	0.0161406
665.556	0.0160779
665.634	0.0161212
665.712	0.0160837
665.790	0.0159535
665.868	0.0159644
665.946	0.0160675
666.024	0.0159229
666.102	0.0158659
666.181	0.0160007
666.259	0.0160095
666.337	0.0159106
666.415	0.0158975
666.493	0.0159176
666.571	0.0159086
666.649	0.0158491
666.727	0.0159429
666.806	0.0159532
666.884	0.0159650
666.962	0.0158311
667.040	0.0159341
667.118	0.0159783
667.196	0.0159457
667.274	0.0160075
667.352	0.0159516
667.431	0.0159509
667.509	0.0159487
667.587	0.0159357
667.665	0.0160782
667.743	0.0159000
667.821	0.0158837
667.899	0.0160406
667.977	0.0160605
668.056	0.0159953
668.134	0.0160660
668.212	0.0159937
668.290	0.0161192
668.368	0.0162197
668.446	0.0160307
668.524	0.0159933
668.602	0.0162154
668.681	0.0161395
668.759	0.0161620
668.837	0.0161398
668.915	0.0162140
668.993	0.0162879
669.071	0.0162476
669.149	0.0161259
669.227	0.0160835
669.306	0.0162465
669.384	0.0162152
669.462	0.0161469
669.540	0.0161641
669.618	0.0162380
669.696	0.0161568
669.774	0.0160845
669.852	0.0160329
669.931	0.0160763
670.009	0.0160184
670.087	0.0159967
670.165	0.0159675
670.243	0.0159812
670.321	0.0160023
670.399	0.0159353
670.477	0.0160081
670.556	0.0159258
670.634	0.0159937
670.712	0.0159488
670.790	0.0159357
670.868	0.0158958
670.946	0.0159148
671.024	0.0159819
671.102	0.0160546
671.181	0.0158804
671.259	0.0158669
671.337	0.0160462
671.415	0.0158945
671.493	0.0159037
671.571	0.0158900
671.649	0.0159439
671.727	0.0159055
671.806	0.0160257
671.884	0.0160177
671.962	0.0161549
672.040	0.0159766
672.118	0.0160975
672.196	0.0162287
672.274	0.0162727
672.352	0.0162253
672.431	0.0162302
672.509	0.0163762
672.587	0.0163817
672.665	0.0164394
672.743	0.0164258
672.821	0.0163382
672.899	0.0164962
672.977	0.0164011
673.056	0.0163123
673.134	0.0163571
673.212	0.0164043
673.290	0.0163150
673.368	0.0163589
673.446	0.0163243
673.524	0.0162115
673.602	0.0162060
673.681	0.0161308
673.759	0.0161985
673.837	0.0160683
673.915	0.0161726
673.993	0.0160662
674.071	0.0159164
674.149	0.0159644
674.227	0.0159142
674.306	0.0158778
674.384	0.0158403
674.462	0.0157434
674.540	0.0158154
674.618	0.0158863
674.696	0.0159145
674.774	0.0156782
674.852	0.0157014
674.931	0.0158163
675.009	0.0158846
675.087	0.0158664
675.165	0.0159267
675.243	0.0159024
675.321	0.0158193
675.399	0.0159566
675.477	0.0158767
675.556	0.0159324
675.634	0.0158559
675.712	0.0159372
675.790	0.0159991
675.868	0.0158228
675.946	0.0159171
676.024	0.0159796
676.102	0.0161158
676.181	0.0159647
676.259	0.0159760
676.337	0.0160135
676.415	0.0161002
676.493	0.0160610
676.571	0.0160134
676.649	0.0161082
676.727	0.0162067
676.806	0.0161846
676.884	0.0161907
676.962	0.0161775
677.040	0.0162310
677.118	0.0162262
677.196	0.0161742
677.274	0.0162263
677.352	0.0161641
677.431	0.0163053
677.509	0.0161053
677.587	0.0163129
677.665	0.0164023
677.743	0.0162400
677.821	0.0163294
677.899	0.0162376
677.977	0.0162289
678.056	0.0163483
678.134	0.0162503
678.212	0.0163268
678.290	0.0161805
678.368	0.0163170
678.446	0.0163690
678.524	0.0159720
678.602	0.0160233
678.681	0.0160732
678.759	0.0161707
678.837	0.0160495
678.915	0.0160311
678.993	0.0159046
679.071	0.0159566
679.149	0.0159999
679.227	0.0158925
679.306	0.0159070
679.384	0.0158720
679.462	0.0159678
679.540	0.0158179
679.618	0.0158858
679.696	0.0158634
679.774	0.0158753
679.852	0.0157465
679.931	0.0159234
680.009	0.0158717
680.087	0.0157413
680.165	0.0159068
680.243	0.0158183
680.321	0.0157474
680.399	0.0157497
680.477	0.0158885
680.556	0.0159415
680.634	0.0159560
680.712	0.0158440
680.790	0.0158829
680.868	0.0158424
680.946	0.0159024
681.024	0.0159791
681.102	0.0159433
681.181	0.0160246
681.259	0.0160028
681.337	0.0160345
681.415	0.0161382
681.493	0.0160459
681.571	0.0160180
681.649	0.0161411
681.727	0.0161887
681.806	0.0162772
681.884	0.0161346
681.962	0.0162329
682.040	0.0163869
682.118	0.0163831
682.196	0.0163640
682.274	0.0163737
682.352	0.0164753
682.431	0.0163069
682.509	0.0164478
682.587	0.0164745
682.665	0.0163277
682.743	0.0164095
682.821	0.0162624
682.899	0.0162046
682.977	0.0163242
683.056	0.0162135
683.134	0.0162627
683.212	0.0161057
683.290	0.0161872
683.368	0.0160698
683.446	0.0161031
683.524	0.0160290
683.602	0.0160465
683.681	0.0160106
683.759	0.0159063
683.837	0.0159405
683.915	0.0160091
683.993	0.0160156
684.071	0.0159527
684.149	0.0160576
684.227	0.0157861
684.306	0.0158997
684.384	0.0160321
684.462	0.0159074
684.540	0.0158729
684.618	0.0159222
684.696	0.0160497
684.774	0.0159812
684.852	0.0159768
684.931	0.0158927
685.009	0.0159860
685.087	0.0160109
685.165	0.0159968
685.243	0.0159612
685.321	0.0158767
685.399	0.0160789
685.477	0.0158564
685.556	0.0157391
685.634	0.0159152
685.712	0.0159995
685.790	0.0158426
685.868	0.0159181
685.946	0.0158647
686.024	0.0158845
686.102	0.0158171
686.181	0.0157526
686.259	0.0157307
686.337	0.0157234
686.415	0.0158630
686.493	0.0159676
686.571	0.0159644
686.649	0.0159703
686.727	0.0160945
686.806	0.0159845
686.884	0.0160259
686.962	0.0161564
687.040	0.0162372
687.118	0.0160914
687.196	0.0162373
687.274	0.0162942
687.352	0.0162207
687.431	0.0163665
687.509	0.0162690
687.587	0.0163280
687.665	0.0165894
687.743	0.0165228
687.821	0.0163997
687.899	0.0164018
687.977	0.0166261
688.056	0.0166562
688.134	0.0165970
688.212	0.0166293
688.290	0.0165413
688.368	0.0166697
688.446	0.0166959
688.524	0.0165514
688.602	0.0166221
688.681	0.0167781
688.759	0.0165009
688.837	0.0164855
688.915	0.0164816
688.993	0.0164782
689.071	0.0163620
689.149	0.0163873
689.227	0.0161712
689.306	0.0162749
689.384	0.0162374
689.462	0.0163006
689.540	0.0158942
689.618	0.0159538
689.696	0.0159357
689.774	0.0160582
689.852	0.0159574
689.931	0.0159922
690.009	0.0158022
690.087	0.0158813
690.165	0.0159062
690.243	0.0158855
690.321	0.0159947
690.399	0.0160848
690.477	0.0158550
690.556	0.0159702
690.634	0.0157938
690.712	0.0158647
690.790	0.0159911
690.868	0.0159087
690.946	0.0159269
691.024	0.0159636
691.102	0.0159328
691.181	0.0160282
691.259	0.0159775
691.337	0.0159650
691.415	0.0160679
691.493	0.0159701
691.571	0.0159676
691.649	0.0159611
691.727	0.0159098
691.806	0.0158961
691.884	0.0160291
691.962	0.0159867
692.040	0.0158422
692.118	0.0159544
692.196	0.0160661
692.274	0.0161026
692.352	0.0160234
692.431	0.0161222
692.509	0.0161259
692.587	0.0159422
692.665	0.0161671
692.743	0.0162581
692.821	0.0161578
692.899	0.0160609
692.977	0.0161185
693.056	0.0160915
693.134	0.0160571
693.212	0.0161089
693.290	0.0162143
693.368	0.0161083
693.446	0.0161694
693.524	0.0161658
693.602	0.0160791
693.681	0.0160007
693.759	0.0160464
693.837	0.0161083
693.915	0.0159389
693.993	0.0159010
694.071	0.0159019
694.149	0.0159509
694.227	0.0157587
694.306	0.0159621
694.384	0.0157830
694.462	0.0158714
694.540	0.0159145
694.618	0.0158469
694.696	0.0156876
694.774	0.0157052
694.852	0.0158911
694.931	0.0159069
695.009	0.0159052
695.087	0.0158350
695.165	0.0158720
695.243	0.0160156
695.321	0.0158022
695.399	0.0160368
695.477	0.0159673
695.556	0.0159821
695.634	0.0159839
695.712	0.0160957
695.790	0.0160092
695.868	0.0161862
695.946	0.0161304
696.024	0.0161586
696.102	0.0161081
696.181	0.0160783
696.259	0.0161304
696.337	0.0161555
696.415	0.0160759
696.493	0.0160501
696.571	0.0159848
696.649	0.0158624
696.727	0.0158025
696.806	0.0159261
696.884	0.0158705
696.962	0.0158903
697.040	0.0156440
697.118	0.0158327
697.196	0.0158977
697.274	0.0158999
697.352	0.0158704
697.431	0.0157292
697.509	0.0157851
697.587	0.0158976
697.665	0.0158564
697.743	0.0160178
697.821	0.0160023
697.899	0.0160869
697.977	0.0159131
698.056	0.0161093
698.134	0.0160420
698.212	0.0160083
698.290	0.0161120
698.368	0.0161689
698.446	0.0161763
698.524	0.0162191
698.602	0.0162185
698.681	0.0162169
698.759	0.0162604
698.837	0.0162512
698.915	0.0163686
698.993	0.0163539
699.071	0.0162838
699.149	0.0164195
699.227	0.0162852
699.306	0.0164514
699.384	0.0164729
699.462	0.0164523
699.540	0.0164426
699.618	0.0164717
699.696	0.0165579
699.774	0.0163491
699.852	0.0163615
699.931	0.0163909
700.009	0.0163849
700.087	0.0163823
700.165	0.0163868
700.243	0.0163060
700.321	0.0162976
700.399	0.0161819
700.477	0.0160736
700.556	0.0160381
700.634	0.0161649
700.712	0.0160949
700.790	0.0160600
700.868	0.0161324
700.946	0.0161525
701.024	0.0160385
701.102	0.0160231
701.181	0.0162569
701.259	0.0159841
701.337	0.0160712
701.415	0.0160086
701.493	0.0160287
701.571	0.0160764
701.649	0.0161719
701.727	0.0160188
701.806	0.0161417
701.884	0.0161246
701.962	0.0161483
702.040	0.0159743
702.118	0.0160749
702.196	0.0160043
702.274	0.0160884
702.352	0.0160651
702.431	0.0160945
702.509	0.0160728
702.587	0.0161772
702.665	0.0160984
702.743	0.0161863
702.821	0.0162340
702.899	0.0161250
702.977	0.0161765
703.056	0.0162377
703.134	0.0161815
703.212	0.0160847
703.290	0.0159792
703.368	0.0160921
703.446	0.0160379
703.524	0.0160503
703.602	0.0158880
703.681	0.0160120
703.759	0.0160016
703.837	0.0159586
703.915	0.0159702
703.993	0.0159848
704.071	0.0159137
704.149	0.0160540
704.227	0.0159549
704.306	0.0159393
704.384	0.0159388
704.462	0.0162133
704.540	0.0161340
704.618	0.0160148
704.696	0.0159638
704.774	0.0160850
704.852	0.0160134
704.931	0.0160838
705.009	0.0161126
705.087	0.0161796
705.165	0.0162794
705.243	0.0160856
705.321	0.0162370
705.399	0.0162495
705.477	0.0163831
705.556	0.0162982
705.634	0.0164565
705.712	0.0165053
705.790	0.0164223
705.868	0.0163966
705.946	0.0163884
706.024	0.0165207
706.102	0.0163300
706.181	0.0165259
706.259	0.0163628
706.337	0.0162233
706.415	0.0162857
706.493	0.0161975
706.571	0.0161451
706.649	0.0161373
706.727	0.0160460
706.806	0.0161052
706.884	0.0161494
706.962	0.0161079
707.040	0.0161131
707.118	0.0161868
707.196	0.0160740
707.274	0.0160817
707.352	0.0162370
707.431	0.0161345
707.509	0.0159952
707.587	0.0159062
707.665	0.0161057
707.743	0.0161259
707.821	0.0158802
707.899	0.0159676
707.977	0.0159106
708.056	0.0158997
708.134	0.0159271
708.212	0.0157617
708.290	0.0158510
708.368	0.0158476
708.446	0.0157855
708.524	0.0156834
708.602	0.0156986
708.681	0.0157835
708.759	0.0159385
708.837	0.0158470
708.915	0.0158015
708.993	0.0159071
709.071	0.0159400
709.149	0.0160361
709.227	0.0160040
709.306	0.0159956
709.384	0.0160934
709.462	0.0161330
709.540	0.0161114
709.618	0.0160420
709.696	0.0161519
709.774	0.0162579
709.852	0.0161987
709.931	0.0162389
710.009	0.0162750
710.087	0.0161539
710.165	0.0161853
710.243	0.0160384
710.321	0.0162630
710.399	0.0161678
710.477	0.0160913
710.556	0.0161746
710.634	0.0162906
710.712	0.0162247
710.790	0.0160800
710.868	0.0162511
710.946	0.0161623
711.024	0.0162457
711.102	0.0160472
711.181	0.0160249
711.259	0.0160300
711.337	0.0160162
711.415	0.0161058
711.493	0.0159387
711.571	0.0159350
711.649	0.0160353
711.727	0.0159562
711.806	0.0159766
711.884	0.0159779
711.962	0.0159642
712.040	0.0158550
712.118	0.0158022
712.196	0.0158001
712.274	0.0157859
712.352	0.0159521
712.431	0.0159071
712.509	0.0158694
712.587	0.0159304
712.665	0.0158437
712.743	0.0158445
712.821	0.0159953
712.899	0.0159841
712.977	0.0160334
713.056	0.0158994
713.134	0.0160738
713.212	0.0159662
713.290	0.0160223
713.368	0.0160506
713.446	0.0160873
713.524	0.0161131
713.602	0.0161914
713.681	0.0162367
713.759	0.0162527
713.837	0.0161680
713.915	0.0160968
713.993	0.0161939
714.071	0.0160670
714.149	0.0161868
714.227	0.0162566
714.306	0.0161074
714.384	0.0160727
714.462	0.0162106
714.540	0.0161420
714.618	0.0160177
714.696	0.0160365
714.774	0.0160369
714.852	0.0161255
714.931	0.0160093
715.009	0.0160762
715.087	0.0160449
715.165	0.0160046
715.243	0.0159768
715.321	0.0159176
715.399	0.0159847
715.477	0.0160383
715.556	0.0161301
715.634	0.0159493
715.712	0.0158445
715.790	0.0159817
715.868	0.0159122
715.946	0.0160787
716.024	0.0159817
716.102	0.0159979
716.181	0.0161390
716.259	0.0162151
716.337	0.0162314
716.415	0.0162449
716.493	0.0163671
716.571	0.0162425
716.649	0.0163338
716.727	0.0162405
716.806	0.0163017
716.884	0.0164795
716.962	0.0164494
717.040	0.0164375
717.118	0.0163224
717.196	0.0164047
717.274	0.0163980
717.352	0.0163797
717.431	0.0164265
717.509	0.0165240
717.587	0.0164732
717.665	0.0163071
717.743	0.0163295
717.821	0.0164703
717.899	0.0164256
717.977	0.0163573
718.056	0.0163444
718.134	0.0164023
718.212	0.0162830
718.290	0.0163954
718.368	0.0163744
718.446	0.0163170
718.524	0.0162255
718.602	0.0161947
718.681	0.0162508
718.759	0.0161884
718.837	0.0159733
718.915	0.0161089
718.993	0.0160316
719.071	0.0159366
719.149	0.0160516
719.227	0.0159767
719.306	0.0159477
719.384	0.0157761
719.462	0.0158924
719.540	0.0158521
719.618	0.0158881
719.696	0.0160661
719.774	0.0159556
719.852	0.0158549
719.931	0.0159122
720.009	0.0159341
720.087	0.0159022
720.165	0.0158749
720.243	0.0159065
720.321	0.0159875
720.399	0.0158508
720.477	0.0158443
720.556	0.0159136
720.634	0.0160106
720.712	0.0158633
720.790	0.0158162
720.868	0.0157839
720.946	0.0159248
721.024	0.0159308
721.102	0.0159436
721.181	0.0159769
721.259	0.0159874
721.337	0.0158642
721.415	0.0159287
721.493	0.0158918
721.571	0.0159830
721.649	0.0157692
721.727	0.0159633
721.806	0.0160700
721.884	0.0160005
721.962	0.0159794
722.040	0.0159189
722.118	0.0159339
722.196	0.0160036
722.274	0.0160089
722.352	0.0160383
722.431	0.0159222
722.509	0.0160845
722.587	0.0162109
722.665	0.0161027
722.743	0.0161206
722.821	0.0161397
722.899	0.0161912
722.977	0.0160313
723.056	0.0161382
723.134	0.0162163
723.212	0.0161637
723.290	0.0160790
723.368	0.0161446
723.446	0.0161397
723.524	0.0161063
723.602	0.0160723
723.681	0.0161838
723.759	0.0161634
723.837	0.0160816
723.915	0.0160957
723.993	0.0161568
724.071	0.0162545
724.149	0.0162694
724.227	0.0161871
724.306	0.0161417
724.384	0.0161913
724.462	0.0161642
724.540	0.0161383
724.618	0.0160781
724.696	0.0160717
724.774	0.0162325
724.852	0.0161572
724.931	0.0161451
725.009	0.0160677
725.087	0.0160673
725.165	0.0160958
725.243	0.0162175
725.321	0.0160691
725.399	0.0160922
725.477	0.0160802
725.556	0.0159401
725.634	0.0161127
725.712	0.0159480
725.790	0.0158524
725.868	0.0159563
725.946	0.0158611
726.024	0.0160069
726.102	0.0160977
726.181	0.0159286
726.259	0.0158663
726.337	0.0160861
726.415	0.0159954
726.493	0.0161779
726.571	0.0160425
726.649	0.0159260
726.727	0.0159232
726.806	0.0160371
726.884	0.0160442
726.962	0.0159449
727.040	0.0159775
727.118	0.0159520
727.196	0.0159078
727.274	0.0160189
727.352	0.0160468
727.431	0.0159559
727.509	0.0159937
727.587	0.0159784
727.665	0.0159190
727.743	0.0160347
727.821	0.0159171
727.899	0.0161256
727.977	0.0160549
728.056	0.0159913
728.134	0.0161622
728.212	0.0159979
728.290	0.0159763
728.368	0.0160663
728.446	0.0160072
728.524	0.0161082
728.602	0.0161700
728.681	0.0158749
728.759	0.0159491
728.837	0.0160787
728.915	0.0159206
728.993	0.0161547
729.071	0.0161050
729.149	0.0159693
729.227	0.0159794
729.306	0.0161455
729.384	0.0161443
729.462	0.0159965
729.540	0.0161280
729.618	0.0161798
729.696	0.0160809
729.774	0.0161622
729.852	0.0160948
729.931	0.0160420
730.009	0.0161947
730.087	0.0161337
730.165	0.0162577
730.243	0.0162627
730.321	0.0162480
730.399	0.0161855
730.477	0.0161628
730.556	0.0162741
730.634	0.0162377
730.712	0.0162062
730.790	0.0163168
730.868	0.0162256
730.946	0.0161510
731.024	0.0163170
731.102	0.0161864
731.181	0.0161512
731.259	0.0159744
731.337	0.0163158
731.415	0.0161089
731.493	0.0160618
731.571	0.0161984
731.649	0.0162782
731.727	0.0162162
731.806	0.0161299
731.884	0.0162453
731.962	0.0162442
732.040	0.0161308
732.118	0.0164014
732.196	0.0162373
732.274	0.0162051
732.352	0.0160210
732.431	0.0160889
732.509	0.0161470
732.587	0.0161248
732.665	0.0161428
732.743	0.0161797
732.821	0.0161134
732.899	0.0160921
732.977	0.0162016
733.056	0.0161815
733.134	0.0161386
733.212	0.0160634
733.290	0.0159276
733.368	0.0160404
733.446	0.0162955
733.524	0.0160564
733.602	0.0160664
733.681	0.0162056
733.759	0.0162318
733.837	0.0161727
733.915	0.0161495
733.993	0.0163065
734.071	0.0160986
734.149	0.0162759
734.227	0.0161765
734.306	0.0161791
734.384	0.0160989
734.462	0.0161918
734.540	0.0162218
734.618	0.0160545
734.696	0.0160777
734.774	0.0161800
734.852	0.0161034
734.931	0.0161132
735.009	0.0160772
735.087	0.0162946
735.165	0.0161978
735.243	0.0162129
735.321	0.0162744
735.399	0.0160201
735.477	0.0160738
735.556	0.0163031
735.634	0.0161425
735.712	0.0162504
735.790	0.0161378
735.868	0.0160004
735.946	0.0160558
736.024	0.0161308
736.102	0.0160516
736.181	0.0161506
736.259	0.0160466
736.337	0.0160631
736.415	0.0160876
736.493	0.0161047
736.571	0.0159972
736.649	0.0159959
736.727	0.0160049
736.806	0.0159049
736.884	0.0159465
736.962	0.0160498
737.040	0.0160431
737.118	0.0158929
737.196	0.0159185
737.274	0.0159907
737.352	0.0159766
737.431	0.0160409
737.509	0.0159197
737.587	0.0158482
737.665	0.0159518
737.743	0.0160239
737.821	0.0160934
737.899	0.0160056
737.977	0.0158112
738.056	0.0159818
738.134	0.0159524
738.212	0.0158630
738.290	0.0160486
738.368	0.0160465
738.446	0.0161701
738.524	0.0161951
738.602	0.0160706
738.681	0.0160237
738.759	0.0161748
738.837	0.0161920
738.915	0.0160880
738.993	0.0160404
739.071	0.0161378
739.149	0.0160279
739.227	0.0159599
739.306	0.0160485
739.384	0.0161386
739.462	0.0161314
739.540	0.0161073
739.618	0.0161543
739.696	0.0160999
739.774	0.0160484
739.852	0.0159136
739.931	0.0160652
740.009	0.0159425
740.087	0.0160445
740.165	0.0159967
740.243	0.0159287
740.321	0.0158274
740.399	0.0158559
740.477	0.0159640
740.556	0.0158603
740.634	0.0158680
740.712	0.0158463
740.790	0.0157473
740.868	0.0158066
740.946	0.0158157
741.024	0.0158487
741.102	0.0159029
741.181	0.0159601
741.259	0.0159479
741.337	0.0160172
741.415	0.0159361
741.493	0.0160234
741.571	0.0161161
741.649	0.0159519
741.727	0.0159956
741.806	0.0159908
741.884	0.0159802
741.962	0.0158466
742.040	0.0160132
742.118	0.0160706
742.196	0.0159466
742.274	0.0160389
742.352	0.0160232
742.431	0.0161411
742.509	0.0160770
742.587	0.0160480
742.665	0.0159946
742.743	0.0160456
742.821	0.0160421
742.899	0.0161691
742.977	0.0160430
743.056	0.0161099
743.134	0.0161201
743.212	0.0160390
743.290	0.0161223
743.368	0.0161680
743.446	0.0160520
743.524	0.0161388
743.602	0.0162695
743.681	0.0160398
743.759	0.0161666
743.837	0.0160688
743.915	0.0161664
743.993	0.0162073
744.071	0.0160761
744.149	0.0160462
744.227	0.0160455
744.306	0.0160920
744.384	0.0160612
744.462	0.0161473
744.540	0.0161242
744.618	0.0160780
744.696	0.0161288
744.774	0.0161852
744.852	0.0163068
744.931	0.0162707
745.009	0.0161407
745.087	0.0161587
745.165	0.0161987
745.243	0.0162407
745.321	0.0162100
745.399	0.0160697
745.477	0.0161711
745.556	0.0162391
745.634	0.0161172
745.712	0.0161398
745.790	0.0159792
745.868	0.0162269
745.946	0.0160962
746.024	0.0161721
746.102	0.0160932
746.181	0.0160254
746.259	0.0159364
746.337	0.0160930
746.415	0.0160190
746.493	0.0159201
746.571	0.0159550
746.649	0.0158774
746.727	0.0159616
746.806	0.0159379
746.884	0.0159525
746.962	0.0160294
747.040	0.0158186
747.118	0.0161037
747.196	0.0158953
747.274	0.0159414
747.352	0.0159906
747.431	0.0158560
747.509	0.0159493
747.587	0.0159811
747.665	0.0157225
747.743	0.0159212
747.821	0.0159355
747.899	0.0159266
747.977	0.0158488
748.056	0.0158753
748.134	0.0160503
748.212	0.0158980
748.290	0.0159476
748.368	0.0158395
748.446	0.0158028
748.524	0.0159586
748.602	0.0160300
748.681	0.0160025
748.759	0.0159173
748.837	0.0159273
748.915	0.0159837
748.993	0.0159776
749.071	0.0160507
749.149	0.0160173
749.227	0.0159570
749.306	0.0160329
749.384	0.0160730
749.462	0.0161868
749.540	0.0161633
749.618	0.0160140
749.696	0.0160076
749.774	0.0161199
749.852	0.0162039
749.931	0.0159416
750.009	0.0159974
750.087	0.0160330
750.165	0.0161095
750.243	0.0160439
750.321	0.0162170
750.399	0.0161161
750.477	0.0161271
750.556	0.0159656
750.634	0.0159892
750.712	0.0161218
750.790	0.0160567
750.868	0.0159161
750.946	0.0160838
751.024	0.0160960
751.102	0.0160497
751.181	0.0160201
751.259	0.0160421
751.337	0.0161499
751.415	0.0160719
751.493	0.0160850
751.571	0.0161246
751.649	0.0161031
751.727	0.0162074
751.806	0.0160493
751.884	0.0161393
751.962	0.0162327
752.040	0.0161356
752.118	0.0160548
752.196	0.0161477
752.274	0.0161357
752.352	0.0162159
752.431	0.0161066
752.509	0.0161433
752.587	0.0161288
752.665	0.0161308
752.743	0.0162682
752.821	0.0162340
752.899	0.0160998
752.977	0.0161914
753.056	0.0161308
753.134	0.0161176
753.212	0.0161085
753.290	0.0160884
753.368	0.0161916
753.446	0.0161454
753.524	0.0161295
753.602	0.0161523
753.681	0.0160826
753.759	0.0160980
753.837	0.0160937
753.915	0.0161432
753.993	0.0160816
754.071	0.0161418
754.149	0.0160806
754.227	0.0161723
754.306	0.0161028
754.384	0.0161536
754.462	0.0161327
754.540	0.0161881
754.618	0.0161393
754.696	0.0162177
754.774	0.0162383
754.852	0.0162005
754.931	0.0160476
755.009	0.0160767
755.087	0.0160960
755.165	0.0160760
755.243	0.0161409
755.321	0.0161778
755.399	0.0161214
755.477	0.0161198
755.556	0.0161032
755.634	0.0161827
755.712	0.0161728
755.790	0.0161620
755.868	0.0160588
755.946	0.0160128
756.024	0.0160889
756.102	0.0160474
756.181	0.0161301
756.259	0.0162450
756.337	0.0161198
756.415	0.0161171
756.493	0.0160160
756.571	0.0159998
756.649	0.0159940
756.727	0.0161453
756.806	0.0160953
756.884	0.0159782
756.962	0.0160019
757.040	0.0160162
757.118	0.0159422
757.196	0.0159605
757.274	0.0160185
757.352	0.0159644
757.431	0.0159995
757.509	0.0159710
757.587	0.0159755
757.665	0.0159938
757.743	0.0159512
757.821	0.0158790
757.899	0.0159333
757.977	0.0160600
758.056	0.0160154
758.134	0.0160823
758.212	0.0159573
758.290	0.0161208
758.368	0.0160063
758.446	0.0161224
758.524	0.0159879
758.602	0.0161290
758.681	0.0159739
758.759	0.0159012
758.837	0.0159978
758.915	0.0161459
758.993	0.0160442
759.071	0.0160577
759.149	0.0160452
759.227	0.0159976
759.306	0.0161474
759.384	0.0159734
759.462	0.0159189
759.540	0.0160712
759.618	0.0158599
759.696	0.0158585
759.774	0.0159453
759.852	0.0159222
759.931	0.0159921
760.009	0.0159062
760.087	0.0159531
760.165	0.0158147
760.243	0.0158132
760.321	0.0159569
760.399	0.0158031
760.477	0.0158273
760.556	0.0158103
760.634	0.0159101
760.712	0.0159048
760.790	0.0157844
760.868	0.0159530
760.946	0.0159293
761.024	0.0159346
761.102	0.0158977
761.181	0.0158523
761.259	0.0158948
761.337	0.0157919
761.415	0.0159701
761.493	0.0157739
761.571	0.0159008
761.649	0.0157996
761.727	0.0159627
761.806	0.0159647
761.884	0.0159640
761.962	0.0159505
762.040	0.0159793
762.118	0.0159612
762.196	0.0160205
762.274	0.0160807
762.352	0.0161467
762.431	0.0160938
762.509	0.0161405
762.587	0.0160329
762.665	0.0160261
762.743	0.0161044
762.821	0.0161597
762.899	0.0162674
762.977	0.0161471
763.056	0.0161961
763.134	0.0161989
763.212	0.0162273
763.290	0.0161330
763.368	0.0161281
763.446	0.0162752
763.524	0.0161278
763.602	0.0159626
763.681	0.0161009
763.759	0.0162261
763.837	0.0160388
763.915	0.0160780
763.993	0.0161615
764.071	0.0161063
764.149	0.0161492
764.227	0.0162273
764.306	0.0161019
764.384	0.0160678
764.462	0.0160728
764.540	0.0161132
764.618	0.0160530
764.696	0.0160646
764.774	0.0160094
764.852	0.0160789
764.931	0.0160487
765.009	0.0159516
765.087	0.0159673
765.165	0.0161716
765.243	0.0161226
765.321	0.0161116
765.399	0.0160111
765.477	0.0160250
765.556	0.0159415
765.634	0.0161757
765.712	0.0160860
765.790	0.0159165
765.868	0.0160258
765.946	0.0161435
766.024	0.0160204
766.102	0.0160477
766.181	0.0160530
766.259	0.0160900
766.337	0.0159457
766.415	0.0160338
766.493	0.0159994
766.571	0.0160005
766.649	0.0161012
766.727	0.0160577
766.806	0.0160229
766.884	0.0161209
766.962	0.0159656
767.040	0.0159980
767.118	0.0161613
767.196	0.0161356
767.274	0.0160519
767.352	0.0160246
767.431	0.0159383
767.509	0.0159633
767.587	0.0159969
767.665	0.0159895
767.743	0.0160348
767.821	0.0160162
767.899	0.0159115
767.977	0.0159483
768.056	0.0159952
768.134	0.0158720
768.212	0.0159219
768.290	0.0159727
768.368	0.0160194
768.446	0.0157862
768.524	0.0158569
768.602	0.0159775
768.681	0.0159771
768.759	0.0159485
768.837	0.0160616
768.915	0.0158971
768.993	0.0161127
769.071	0.0160675
769.149	0.0159784
769.227	0.0159321
769.306	0.0159376
769.384	0.0160714
769.462	0.0159978
769.540	0.0159438
769.618	0.0160100
769.696	0.0159913
769.774	0.0160165
769.852	0.0160069
769.931	0.0160628
770.009	0.0159830
770.087	0.0158917
770.165	0.0161269
770.243	0.0160818
770.321	0.0159464
770.399	0.0160616
770.477	0.0161060
770.556	0.0161301
770.634	0.0162099
770.712	0.0160880
770.790	0.0162518
770.868	0.0161891
770.946	0.0161068
771.024	0.0161746
771.102	0.0161958
771.181	0.0161714
771.259	0.0163129
771.337	0.0161354
771.415	0.0161108
771.493	0.0161571
771.571	0.0162614
771.649	0.0162412
771.727	0.0160609
771.806	0.0161886
771.884	0.0161819
771.962	0.0160345
772.040	0.0160631
772.118	0.0161205
772.196	0.0161617
772.274	0.0162386
772.352	0.0160450
772.431	0.0160594
772.509	0.0162147
772.587	0.0162183
772.665	0.0161078
772.743	0.0161161
772.821	0.0162255
772.899	0.0160328
772.977	0.0161229
773.056	0.0161715
773.134	0.0161006
773.212	0.0160875
773.290	0.0160533
773.368	0.0160437
773.446	0.0161211
773.524	0.0160849
773.602	0.0161518
773.681	0.0162485
773.759	0.0162254
773.837	0.0161129
773.915	0.0161362
773.993	0.0161968
774.071	0.0162130
774.149	0.0161942
774.227	0.0162074
774.306	0.0162301
774.384	0.0161654
774.462	0.0160560
774.540	0.0161443
774.618	0.0160967
774.696	0.0161272
774.774	0.0160236
774.852	0.0162312
774.931	0.0161989
775.009	0.0159660
775.087	0.0160571
775.165	0.0160226
775.243	0.0159505
775.321	0.0160451
775.399	0.0159606
775.477	0.0158672
775.556	0.0159788
775.634	0.0159045
775.712	0.0159852
775.790	0.0159859
775.868	0.0159798
775.946	0.0159464
776.024	0.0160118
776.102	0.0159940
776.181	0.0159545
776.259	0.0159604
776.337	0.0159174
776.415	0.0161110
776.493	0.0158783
776.571	0.0159038
776.649	0.0159759
776.727	0.0159093
776.806	0.0158893
776.884	0.0158715
776.962	0.0160165
777.040	0.0159512
777.118	0.0159637
777.196	0.0159647
777.274	0.0158691
777.352	0.0159610
777.431	0.0157906
777.509	0.0159259
777.587	0.0159732
777.665	0.0159464
777.743	0.0160239
777.821	0.0159046
777.899	0.0159718
777.977	0.0160695
778.056	0.0160436
778.134	0.0160489
778.212	0.0160681
778.290	0.0161124
778.368	0.0160883
778.446	0.0160593
778.524	0.0161407
778.602	0.0161349
778.681	0.0161395
778.759	0.0161514
778.837	0.0160799
778.915	0.0161929
778.993	0.0160949
779.071	0.0162334
779.149	0.0161325
779.227	0.0161510
779.306	0.0161587
779.384	0.0160175
779.462	0.0160683
779.540	0.0160655
779.618	0.0161990
779.696	0.0160882
779.774	0.0160347
779.852	0.0162231
779.931	0.0160422
780.009	0.0161040
780.087	0.0160600
780.165	0.0161568
780.243	0.0161850
780.321	0.0161496
780.399	0.0161879
780.477	0.0160886
780.556	0.0160589
780.634	0.0161339
780.712	0.0160482
780.790	0.0160253
780.868	0.0160314
780.946	0.0159481
781.024	0.0160947
781.102	0.0160317
781.181	0.0159663
781.259	0.0159824
781.337	0.0161903
781.415	0.0159951
781.493	0.0158973
781.571	0.0159593
781.649	0.0159378
781.727	0.0160439
781.806	0.0160427
781.884	0.0158811
781.962	0.0159881
782.040	0.0159734
782.118	0.0159455
782.196	0.0160051
782.274	0.0159538
782.352	0.0160219
782.431	0.0159960
782.509	0.0159743
782.587	0.0159583
782.665	0.0161276
782.743	0.0158865
782.821	0.0158515
782.899	0.0160265
782.977	0.0160748
783.056	0.0158318
783.134	0.0159427
783.212	0.0158791
783.290	0.0159597
783.368	0.0160141
783.446	0.0160075
783.524	0.0159901
783.602	0.0161172
783.681	0.0160670
783.759	0.0160034
783.837	0.0161340
783.915	0.0161668
783.993	0.0161199
784.071	0.0158775
784.149	0.0160933
784.227	0.0161590
784.306	0.0160932
784.384	0.0162027
784.462	0.0161547
784.540	0.0162060
784.618	0.0161509
784.696	0.0162001
784.774	0.0162592
784.852	0.0161903
784.931	0.0161430
785.009	0.0161225
785.087	0.0162541
785.165	0.0162580
785.243	0.0162270
785.321	0.0162082
785.399	0.0162199
785.477	0.0161576
785.556	0.0162453
785.634	0.0160492
785.712	0.0161903
785.790	0.0162428
785.868	0.0161592
785.946	0.0161470
786.024	0.0162409
786.102	0.0161711
786.181	0.0162845
786.259	0.0161012
786.337	0.0162351
786.415	0.0162650
786.493	0.0161585
786.571	0.0164015
786.649	0.0162763
786.727	0.0161000
786.806	0.0161434
786.884	0.0161983
786.962	0.0161605
787.040	0.0160892
787.118	0.0160688
787.196	0.0161993
787.274	0.0161501
787.352	0.0158305
787.431	0.0160794
787.509	0.0161280
787.587	0.0160745
787.665	0.0160454
787.743	0.0160275
787.821	0.0161189
787.899	0.0159674
787.977	0.0160553
788.056	0.0160413
788.134	0.0160702
788.212	0.0160493
788.290	0.0161034
788.368	0.0160413
788.446	0.0161353
788.524	0.0161492
788.602	0.0159361
788.681	0.0160095
788.759	0.0160818
788.837	0.0160587
788.915	0.0160994
788.993	0.0161424
789.071	0.0159647
789.149	0.0158966
789.227	0.0160474
789.306	0.0159834
789.384	0.0160822
789.462	0.0161107
789.540	0.0159591
789.618	0.0159229
789.696	0.0160810
789.774	0.0160487
789.852	0.0160841
789.931	0.0160057
790.009	0.0160260
790.087	0.0160249
790.165	0.0158810
790.243	0.0160403
790.321	0.0159743
790.399	0.0161168
790.477	0.0160670
790.556	0.0160405
790.634	0.0159919
790.712	0.0159811
790.790	0.0161926
790.868	0.0160078
790.946	0.0160197
791.024	0.0161420
791.102	0.0159630
791.181	0.0159053
791.259	0.0160609
791.337	0.0159987
791.415	0.0160206
791.493	0.0160874
791.571	0.0161018
791.649	0.0160760
791.727	0.0159365
791.806	0.0159837
791.884	0.0159006
791.962	0.0159305
792.040	0.0159417
792.118	0.0160634
792.196	0.0160549
792.274	0.0159248
792.352	0.0158912
792.431	0.0160210
792.509	0.0160777
792.587	0.0160609
792.665	0.0161150
792.743	0.0160381
792.821	0.0160964
792.899	0.0159159
792.977	0.0159900
793.056	0.0159452
793.134	0.0159864
793.212	0.0160523
793.290	0.0159736
793.368	0.0159783
793.446	0.0159618
793.524	0.0160690
793.602	0.0159166
793.681	0.0159787
793.759	0.0159699
793.837	0.0160393
793.915	0.0160064
793.993	0.0159586
794.071	0.0159569
794.149	0.0161047
794.227	0.0161432
794.306	0.0159933
794.384	0.0160166
794.462	0.0159518
794.540	0.0160578
794.618	0.0161621
794.696	0.0161605
794.774	0.0160860
794.852	0.0162379
794.931	0.0161596
795.009	0.0161637
795.087	0.0161224
795.165	0.0162656
795.243	0.0161098
795.321	0.0162398
795.399	0.0161613
795.477	0.0162069
795.556	0.0160883
795.634	0.0161567
795.712	0.0161638
795.790	0.0161877
795.868	0.0163272
795.946	0.0162125
796.024	0.0161840
796.102	0.0160921
796.181	0.0162704
796.259	0.0161513
796.337	0.0162365
796.415	0.0162119
796.493	0.0161420
796.571	0.0162045
796.649	0.0162398
796.727	0.0161834
796.806	0.0162657
796.884	0.0162138
796.962	0.0160635
797.040	0.0161468
797.118	0.0162349
797.196	0.0161266
797.274	0.0161043
797.352	0.0161244
797.431	0.0161728
797.509	0.0160031
797.587	0.0163008
797.665	0.0160391
797.743	0.0161143
797.821	0.0160712
797.899	0.0161420
797.977	0.0161950
798.056	0.0159492
798.134	0.0159842
798.212	0.0160630
798.290	0.0159573
798.368	0.0160635
798.446	0.0158968
798.524	0.0159627
798.602	0.0160059
798.681	0.0160451
798.759	0.0160756
798.837	0.0160410
798.915	0.0161231
798.993	0.0160712
799.071	0.0162103
799.149	0.0160633
799.227	0.0160590
799.306	0.0160748
799.384	0.0159862
799.462	0.0160230
799.540	0.0161803
799.618	0.0160357
799.696	0.0160120
799.774	0.0161531
799.852	0.0161569
799.931	0.0161112
800.009	0.0160657
800.087	0.0160360
800.165	0.0161440
800.243	0.0161497
800.321	0.0160442
800.399	0.0161124
800.477	0.0160598
800.556	0.0161032
800.634	0.0161771
800.712	0.0161433
800.790	0.0162733
800.868	0.0161868
800.946	0.0160058
801.024	0.0159919
801.102	0.0159727
801.181	0.0161225
801.259	0.0158694
801.337	0.0159060
801.415	0.0159414
801.493	0.0159952
801.571	0.0160311
801.649	0.0160088
801.727	0.0159605
801.806	0.0159854
801.884	0.0157327
801.962	0.0159439
802.040	0.0159695
802.118	0.0157641
802.196	0.0159710
802.274	0.0160384
802.352	0.0159964
802.431	0.0157964
802.509	0.0159347
802.587	0.0159978
802.665	0.0158660
802.743	0.0158800
802.821	0.0158942
802.899	0.0159393
802.977	0.0158627
803.056	0.0158391
803.134	0.0159657
803.212	0.0160259
803.290	0.0159945
803.368	0.0158687
803.446	0.0159505
803.524	0.0159750
803.602	0.0159318
803.681	0.0159421
803.759	0.0158888
803.837	0.0158255
803.915	0.0158714
803.993	0.0159243
804.071	0.0158099
804.149	0.0160074
804.227	0.0161427
804.306	0.0160424
804.384	0.0159371
804.462	0.0160092
804.540	0.0161420
804.618	0.0160069
804.696	0.0160653
804.774	0.0159914
804.852	0.0159728
804.931	0.0160504
805.009	0.0160865
805.087	0.0161019
805.165	0.0159641
805.243	0.0158932
805.321	0.0160998
805.399	0.0161317
805.477	0.0161633
805.556	0.0160767
805.634	0.0160793
805.712	0.0161473
805.790	0.0161382
805.868	0.0161101
805.946	0.0161463
806.024	0.0161784
806.102	0.0161852
806.181	0.0162359
806.259	0.0161803
806.337	0.0161303
806.415	0.0162219
806.493	0.0162396
806.571	0.0161189
806.649	0.0162112
806.727	0.0162341
806.806	0.0162213
806.884	0.0162400
806.962	0.0162193
807.040	0.0161416
807.118	0.0162032
807.196	0.0162897
807.274	0.0162287
807.352	0.0162578
807.431	0.0163916
807.509	0.0163805
807.587	0.0163459
807.665	0.0162341
807.743	0.0163934
807.821	0.0162804
807.899	0.0161922
807.977	0.0163079
808.056	0.0162997
808.134	0.0162217
808.212	0.0162835
808.290	0.0164978
808.368	0.0162389
808.446	0.0161616
808.524	0.0163051
808.602	0.0162124
808.681	0.0161627
808.759	0.0161431
808.837	0.0161588
808.915	0.0159779
808.993	0.0162816
809.071	0.0163324
809.149	0.0161760
809.227	0.0161142
809.306	0.0160441
809.384	0.0161979
809.462	0.0161745
809.540	0.0161038
809.618	0.0161025
809.696	0.0159720
809.774	0.0161600
809.852	0.0160600
809.931	0.0160339
810.009	0.0159956
810.087	0.0159563
810.165	0.0159627
810.243	0.0159592
810.321	0.0159429
810.399	0.0159483
810.477	0.0158556
810.556	0.0159684
810.634	0.0157992
810.712	0.0159160
810.790	0.0158987
810.868	0.0159383
810.946	0.0158672
811.024	0.0157419
811.102	0.0156982
811.181	0.0156155
811.259	0.0157867
811.337	0.0158483
811.415	0.0157868
811.493	0.0158175
811.571	0.0158195
811.649	0.0157177
811.727	0.0157670
811.806	0.0157731
811.884	0.0157223
811.962	0.0157640
812.040	0.0158654
812.118	0.0159531
812.196	0.0157680
812.274	0.0159084
812.352	0.0159136
812.431	0.0158906
812.509	0.0159783
812.587	0.0159797
812.665	0.0159821
812.743	0.0160859
812.821	0.0159431
812.899	0.0160143
812.977	0.0160558
813.056	0.0162559
813.134	0.0160306
813.212	0.0160286
813.290	0.0161106
813.368	0.0161732
813.446	0.0161335
813.524	0.0161320
813.602	0.0161522
813.681	0.0161530
813.759	0.0162502
813.837	0.0162027
813.915	0.0161592
813.993	0.0162124
814.071	0.0162486
814.149	0.0162021
814.227	0.0161291
814.306	0.0162450
814.384	0.0162281
814.462	0.0163253
814.540	0.0164326
814.618	0.0163408
814.696	0.0161504
814.774	0.0162019
814.852	0.0162500
814.931	0.0163145
815.009	0.0161736
815.087	0.0162881
815.165	0.0162438
815.243	0.0161954
815.321	0.0162406
815.399	0.0162210
815.477	0.0161314
815.556	0.0161506
815.634	0.0161495
815.712	0.0161513
815.790	0.0161363
815.868	0.0161683
815.946	0.0160941
816.024	0.0162418
816.102	0.0162010
816.181	0.0162770
816.259	0.0162184
816.337	0.0161995
816.415	0.0160954
816.493	0.0162768
816.571	0.0161259
816.649	0.0160703
816.727	0.0160744
816.806	0.0161948
816.884	0.0161688
816.962	0.0160616
817.040	0.0160625
817.118	0.0161174
817.196	0.0160662
817.274	0.0159783
817.352	0.0160603
817.431	0.0160533
817.509	0.0161133
817.587	0.0161564
817.665	0.0160033
817.743	0.0160194
817.821	0.0159774
817.899	0.0159491
817.977	0.0160640
818.056	0.0158645
818.134	0.0158809
818.212	0.0160611
818.290	0.0158553
818.368	0.0159346
818.446	0.0159268
818.524	0.0159913
818.602	0.0159509
818.681	0.0158502
818.759	0.0158377
818.837	0.0158818
818.915	0.0159110
818.993	0.0160638
819.071	0.0160291
819.149	0.0159420
819.227	0.0158904
819.306	0.0159778
819.384	0.0159985
819.462	0.0159666
819.540	0.0159788
819.618	0.0161011
819.696	0.0160672
819.774	0.0161798
819.852	0.0161203
819.931	0.0161100
820.009	0.0161027
820.087	0.0161320
820.165	0.0159612
820.243	0.0160551
820.321	0.0159647
820.399	0.0160030
820.477	0.0160152
820.556	0.0161209
820.634	0.0160359
820.712	0.0161736
820.790	0.0159192
820.868	0.0160052
820.946	0.0160369
821.024	0.0161838
821.102	0.0161166
821.181	0.0160574
821.259	0.0160484
821.337	0.0161432
821.415	0.0160281
821.493	0.0159841
821.571	0.0159879
821.649	0.0159455
821.727	0.0160178
821.806	0.0159985
821.884	0.0159547
821.962	0.0159980
822.040	0.0159822
822.118	0.0159658
822.196	0.0160179
822.274	0.0160783
822.352	0.0161070
822.431	0.0160226
822.509	0.0158965
822.587	0.0158284
822.665	0.0160439
822.743	0.0159973
822.821	0.0160400
822.899	0.0160020
822.977	0.0161063
823.056	0.0160396
823.134	0.0159412
823.212	0.0160699
823.290	0.0161373
823.368	0.0158243
823.446	0.0159766
823.524	0.0160998
823.602	0.0159617
823.681	0.0159578
823.759	0.0161396
823.837	0.0159557
823.915	0.0159413
823.993	0.0159872
824.071	0.0160152
824.149	0.0160176
824.227	0.0158965
824.306	0.0159705
824.384	0.0160646
824.462	0.0161096
824.540	0.0160431
824.618	0.0159515
824.696	0.0160703
824.774	0.0160683
824.852	0.0159419
824.931	0.0159461
825.009	0.0159888
825.087	0.0159966
825.165	0.0159775
825.243	0.0159996
825.321	0.0159513
825.399	0.0159570
825.477	0.0160422
825.556	0.0161031
825.634	0.0159065
825.712	0.0159533
825.790	0.0159932
825.868	0.0158787
825.946	0.0159859
826.024	0.0160094
826.102	0.0159643
826.181	0.0159695
826.259	0.0160011
826.337	0.0160215
826.415	0.0159470
826.493	0.0158790
826.571	0.0160682
826.649	0.0159818
826.727	0.0158620
826.806	0.0160925
826.884	0.0159563
826.962	0.0157440
827.040	0.0158607
827.118	0.0159373
827.196	0.0161040
827.274	0.0160817
827.352	0.0158314
827.431	0.0159145
827.509	0.0160381
827.587	0.0159558
827.665	0.0160151
827.743	0.0159661
827.821	0.0160065
827.899	0.0160501
827.977	0.0159148
828.056	0.0159862
828.134	0.0161231
828.212	0.0160414
828.290	0.0159825
828.368	0.0162157
828.446	0.0161224
828.524	0.0160307
828.602	0.0161076
828.681	0.0161642
828.759	0.0161466
828.837	0.0160983
828.915	0.0162630
828.993	0.0161623
829.071	0.0163180
829.149	0.0161668
829.227	0.0162000
829.306	0.0164276
829.384	0.0163743
829.462	0.0164151
829.540	0.0164544
829.618	0.0164793
829.696	0.0163982
829.774	0.0163721
829.852	0.0163847
829.931	0.0164182
830.009	0.0164773
830.087	0.0165141
830.165	0.0164127
830.243	0.0163161
830.321	0.0164191
830.399	0.0165257
830.477	0.0164484
830.556	0.0163058
830.634	0.0164259
830.712	0.0164719
830.790	0.0164246
830.868	0.0162954
830.946	0.0163261
831.024	0.0163444
831.102	0.0163692
831.181	0.0162947
831.259	0.0163110
831.337	0.0164438
831.415	0.0163602
831.493	0.0163474
831.571	0.0161790
831.649	0.0162351
831.727	0.0161694
831.806	0.0160957
831.884	0.0160558
831.962	0.0162115
832.040	0.0162199
832.118	0.0161269
832.196	0.0160878
832.274	0.0161208
832.352	0.0160759
832.431	0.0160897
832.509	0.0160328
832.587	0.0160731
832.665	0.0160166
832.743	0.0159896
832.821	0.0160179
832.899	0.0160130
832.977	0.0159132
833.056	0.0159068
833.134	0.0158955
833.212	0.0159979
833.290	0.0158221
833.368	0.0158926
833.446	0.0159309
833.524	0.0160188
833.602	0.0158761
833.681	0.0159229
833.759	0.0158771
833.837	0.0158749
833.915	0.0159661
833.993	0.0160324
834.071	0.0158949
834.149	0.0160405
834.227	0.0158952
834.306	0.0160645
834.384	0.0159640
834.462	0.0160006
834.540	0.0158410
834.618	0.0160249
834.696	0.0158820
834.774	0.0160487
834.852	0.0159863
834.931	0.0159948
835.009	0.0161394
835.087	0.0159427
835.165	0.0159980
835.243	0.0160073
835.321	0.0160262
835.399	0.0160475
835.477	0.0160686
835.556	0.0161009
835.634	0.0159772
835.712	0.0160651
835.790	0.0159488
835.868	0.0160630
835.946	0.0161787
836.024	0.0160409
836.102	0.0159373
836.181	0.0160989
836.259	0.0160213
836.337	0.0161380
836.415	0.0161724
836.493	0.0160370
836.571	0.0161153
836.649	0.0161072
836.727	0.0162002
836.806	0.0161616
836.884	0.0161458
836.962	0.0161435
837.040	0.0160374
837.118	0.0162173
837.196	0.0160430
837.274	0.0160989
837.352	0.0161379
837.431	0.0160818
837.509	0.0160278
837.587	0.0159824
837.665	0.0160665
837.743	0.0160047
837.821	0.0161302
837.899	0.0162618
837.977	0.0161246
838.056	0.0161407
838.134	0.0159945
838.212	0.0160577
838.290	0.0161242
838.368	0.0160831
838.446	0.0160569
838.524	0.0160938
838.602	0.0161579
838.681	0.0161932
838.759	0.0160722
838.837	0.0162435
838.915	0.0162589
838.993	0.0162354
839.071	0.0162355
839.149	0.0161706
839.227	0.0161714
839.306	0.0161594
839.384	0.0161648
839.462	0.0160899
839.540	0.0162582
839.618	0.0160280
839.696	0.0162228
839.774	0.0162605
839.852	0.0160867
839.931	0.0161037
840.009	0.0162596
840.087	0.0161064
840.165	0.0160337
840.243	0.0159711
840.321	0.0160998
840.399	0.0160500
840.477	0.0161864
840.556	0.0161971
840.634	0.0159827
840.712	0.0160378
840.790	0.0160708
840.868	0.0160866
840.946	0.0160920
841.024	0.0161266
841.102	0.0160152
841.181	0.0162030
841.259	0.0161762
841.337	0.0161350
841.415	0.0159423
841.493	0.0160605
841.571	0.0161280
841.649	0.0162032
841.727	0.0161745
841.806	0.0160963
841.884	0.0160410
841.962	0.0160163
842.040	0.0161150
842.118	0.0161411
842.196	0.0161808
842.274	0.0161465
842.352	0.0161361
842.431	0.0161210
842.509	0.0161311
842.587	0.0160181
842.665	0.0161356
842.743	0.0160825
842.821	0.0162400
842.899	0.0160880
842.977	0.0160001
843.056	0.0161228
843.134	0.0161631
843.212	0.0161742
843.290	0.0162766
843.368	0.0162389
843.446	0.0161129
843.524	0.0160770
843.602	0.0161860
843.681	0.0160651
843.759	0.0161194
843.837	0.0160900
843.915	0.0160806
843.993	0.0162153
844.071	0.0160883
844.149	0.0160392
844.227	0.0160698
844.306	0.0160318
844.384	0.0159715
844.462	0.0160782
844.540	0.0160981
844.618	0.0159373
844.696	0.0159187
844.774	0.0159952
844.852	0.0160292
844.931	0.0158887
845.009	0.0160468
845.087	0.0160108
845.165	0.0160046
845.243	0.0160383
845.321	0.0158333
845.399	0.0157925
845.477	0.0159664
845.556	0.0159927
845.634	0.0159196
845.712	0.0159068
845.790	0.0159717
845.868	0.0159412
845.946	0.0160693
846.024	0.0159653
846.102	0.0158892
846.181	0.0159632
846.259	0.0159064
846.337	0.0158471
846.415	0.0160414
846.493	0.0160699
846.571	0.0159687
846.649	0.0160374
846.727	0.0160292
846.806	0.0160903
846.884	0.0158806
846.962	0.0159312
847.040	0.0161381
847.118	0.0160736
847.196	0.0159774
847.274	0.0159673
847.352	0.0160517
847.431	0.0159909
847.509	0.0160135
847.587	0.0159595
847.665	0.0159954
847.743	0.0161189
847.821	0.0161135
847.899	0.0161044
847.977	0.0158553
848.056	0.0160106
848.134	0.0160593
848.212	0.0160210
848.290	0.0161227
848.368	0.0161561
848.446	0.0160635
848.524	0.0159347
848.602	0.0161710
848.681	0.0161254
848.759	0.0160873
848.837	0.0161109
848.915	0.0161005
848.993	0.0161208
849.071	0.0161662
849.149	0.0161931
849.227	0.0163541
849.306	0.0162410
849.384	0.0163629
849.462	0.0161830
849.540	0.0162577
849.618	0.0163577
849.696	0.0163019
849.774	0.0161852
849.852	0.0162451
849.931	0.0162114
850.009	0.0161573
850.087	0.0162636
850.165	0.0162776
850.243	0.0161993
850.321	0.0161800
850.399	0.0162761
850.477	0.0161662
850.556	0.0163203
850.634	0.0162442
850.712	0.0162154
850.790	0.0162589
850.868	0.0161887
850.946	0.0161213
851.024	0.0160906
851.102	0.0161435
851.181	0.0161138
851.259	0.0161123
851.337	0.0160881
851.415	0.0160011
851.493	0.0160835
851.571	0.0160354
851.649	0.0160448
851.727	0.0160582
851.806	0.0160542
851.884	0.0161613
851.962	0.0159355
852.040	0.0159964
852.118	0.0160306
852.196	0.0160824
852.274	0.0160473
852.352	0.0159533
852.431	0.0159711
852.509	0.0161763
852.587	0.0160291
852.665	0.0160432
852.743	0.0160652
852.821	0.0161371
852.899	0.0160178
852.977	0.0161934
853.056	0.0161266
853.134	0.0160439
853.212	0.0161417
853.290	0.0160756
853.368	0.0161987
853.446	0.0163020
853.524	0.0163414
853.602	0.0161266
853.681	0.0159264
853.759	0.0161347
853.837	0.0163036
853.915	0.0162038
853.993	0.0162136
854.071	0.0161509
854.149	0.0161660
854.227	0.0162958
854.306	0.0161874
854.384	0.0162182
854.462	0.0162048
854.540	0.0160881
854.618	0.0160625
854.696	0.0164007
854.774	0.0162025
854.852	0.0160428
854.931	0.0161115
855.009	0.0161034
855.087	0.0161144
855.165	0.0161572
855.243	0.0160838
855.321	0.0162002
855.399	0.0158879
855.477	0.0160291
855.556	0.0160935
855.634	0.0160173
855.712	0.0160051
855.790	0.0161533
855.868	0.0161309
855.946	0.0160415
856.024	0.0161565
856.102	0.0160777
856.181	0.0159269
856.259	0.0160340
856.337	0.0160268
856.415	0.0160432
856.493	0.0160510
856.571	0.0158924
856.649	0.0160062
856.727	0.0159082
856.806	0.0159510
856.884	0.0159554
856.962	0.0159527
857.040	0.0159578
857.118	0.0159921
857.196	0.0159282
857.274	0.0160069
857.352	0.0160157
857.431	0.0158517
857.509	0.0158131
857.587	0.0159277
857.665	0.0158125
857.743	0.0158730
857.821	0.0159409
857.899	0.0159799
857.977	0.0158245
858.056	0.0157967
858.134	0.0158616
858.212	0.0158694
858.290	0.0159605
858.368	0.0159981
858.446	0.0161475
858.524	0.0160245
858.602	0.0159772
858.681	0.0159693
858.759	0.0159660
858.837	0.0159319
858.915	0.0159582
858.993	0.0160753
859.071	0.0160234
859.149	0.0159700
859.227	0.0161709
859.306	0.0161520
859.384	0.0160946
859.462	0.0161259
859.540	0.0160411
859.618	0.0161411
859.696	0.0160206
859.774	0.0162313
859.852	0.0161611
859.931	0.0161589
860.009	0.0160791
860.087	0.0162846
860.165	0.0163206
860.243	0.0162381
860.321	0.0162270
860.399	0.0162372
860.477	0.0161714
860.556	0.0162744
860.634	0.0163263
860.712	0.0161306
860.790	0.0163004
860.868	0.0164071
860.946	0.0162476
861.024	0.0163769
861.102	0.0163468
861.181	0.0163173
861.259	0.0162269
861.337	0.0161935
861.415	0.0162359
861.493	0.0164407
861.571	0.0161912
861.649	0.0161874
861.727	0.0162545
861.806	0.0161468
861.884	0.0162751
861.962	0.0162922
862.040	0.0162010
862.118	0.0161383
862.196	0.0161519
862.274	0.0161161
862.352	0.0159976
862.431	0.0159931
862.509	0.0159641
862.587	0.0160007
862.665	0.0160246
862.743	0.0159558
862.821	0.0158759
862.899	0.0157829
862.977	0.0158200
863.056	0.0159036
863.134	0.0158446
863.212	0.0158998
863.290	0.0160019
863.368	0.0158580
863.446	0.0159563
863.524	0.0159906
863.602	0.0158876
863.681	0.0160168
863.759	0.0160485
863.837	0.0159097
863.915	0.0160531
863.993	0.0160674
864.071	0.0159351
864.149	0.0159631
864.227	0.0160155
864.306	0.0160387
864.384	0.0160646
864.462	0.0160101
864.540	0.0160658
864.618	0.0162035
864.696	0.0161224
864.774	0.0161757
864.852	0.0160751
864.931	0.0160506
865.009	0.0160670
865.087	0.0160868
865.165	0.0161607
865.243	0.0160497
865.321	0.0160818
865.399	0.0160149
865.477	0.0159827
865.556	0.0161561
865.634	0.0162075
865.712	0.0161680
865.790	0.0162021
865.868	0.0161269
865.946	0.0161896
866.024	0.0161197
866.102	0.0162137
866.181	0.0161632
866.259	0.0162632
866.337	0.0162729
866.415	0.0161430
866.493	0.0161869
866.571	0.0162436
866.649	0.0162020
866.727	0.0162223
866.806	0.0161532
866.884	0.0161752
866.962	0.0160196
867.040	0.0161514
867.118	0.0161282
867.196	0.0161594
867.274	0.0162242
867.352	0.0162035
867.431	0.0161311
867.509	0.0160403
867.587	0.0161653
867.665	0.0161562
867.743	0.0161867
867.821	0.0160366
867.899	0.0160220
867.977	0.0161807
868.056	0.0160703
868.134	0.0160751
868.212	0.0161925
868.290	0.0161395
868.368	0.0160921
868.446	0.0160674
868.524	0.0159191
868.602	0.0160561
868.681	0.0160067
868.759	0.0161665
868.837	0.0161086
868.915	0.0158143
868.993	0.0161420
869.071	0.0160758
869.149	0.0160870
869.227	0.0161308
869.306	0.0161103
869.384	0.0160043
869.462	0.0160859
869.540	0.0159522
869.618	0.0159653
869.696	0.0159552
869.774	0.0159352
869.852	0.0160805
869.931	0.0159715
870.009	0.0159613
870.087	0.0158856
870.165	0.0159555
870.243	0.0160500
870.321	0.0160194
870.399	0.0160095
870.477	0.0159686
870.556	0.0160000
870.634	0.0159317
870.712	0.0160213
870.790	0.0160883
870.868	0.0161007
870.946	0.0161058
871.024	0.0162014
871.102	0.0161333
871.181	0.0160580
871.259	0.0161037
871.337	0.0161996
871.415	0.0160370
871.493	0.0160040
871.571	0.0159855
871.649	0.0161245
871.727	0.0161370
871.806	0.0160464
871.884	0.0159724
871.962	0.0160987
872.040	0.0159855
872.118	0.0160986
872.196	0.0160726
872.274	0.0159782
872.352	0.0159274
872.431	0.0160097
872.509	0.0160992
872.587	0.0161372
872.665	0.0160283
872.743	0.0160068
872.821	0.0161269
872.899	0.0161028
872.977	0.0160181
873.056	0.0162007
873.134	0.0161369
873.212	0.0160770
873.290	0.0160035
873.368	0.0160876
873.446	0.0161292
873.524	0.0160646
873.602	0.0162025
873.681	0.0161643
873.759	0.0162551
873.837	0.0161788
873.915	0.0161629
873.993	0.0161661
874.071	0.0160859
874.149	0.0161189
874.227	0.0161376
874.306	0.0162211
874.384	0.0161693
874.462	0.0161557
874.540	0.0161445
874.618	0.0161206
874.696	0.0161040
874.774	0.0161453
874.852	0.0161417
874.931	0.0160783
875.009	0.0161668
875.087	0.0160413
875.165	0.0160249
875.243	0.0159379
875.321	0.0160479
875.399	0.0161148
875.477	0.0161185
875.556	0.0160827
875.634	0.0159617
875.712	0.0160930
875.790	0.0160455
875.868	0.0160414
875.946	0.0161557
876.024	0.0160875
876.102	0.0160620
876.181	0.0160667
876.259	0.0160802
876.337	0.0160832
876.415	0.0160885
876.493	0.0160959
876.571	0.0160916
876.649	0.0159061
876.727	0.0160801
876.806	0.0160236
876.884	0.0159901
876.962	0.0160173
877.040	0.0159869
877.118	0.0160951
877.196	0.0161916
877.274	0.0160941
877.352	0.0159990
877.431	0.0159644
877.509	0.0159452
877.587	0.0160199
877.665	0.0162289
877.743	0.0160315
877.821	0.0159199
877.899	0.0159927
877.977	0.0160367
878.056	0.0162132
878.134	0.0161523
878.212	0.0157781
878.290	0.0160083
878.368	0.0160045
878.446	0.0161446
878.524	0.0160760
878.602	0.0160572
878.681	0.0159384
878.759	0.0160819
878.837	0.0159418
878.915	0.0160168
878.993	0.0161858
879.071	0.0161049
879.149	0.0161117
879.227	0.0160672
879.306	0.0161198
879.384	0.0161693
879.462	0.0160538
879.540	0.0161412
879.618	0.0160848
879.696	0.0160693
879.774	0.0161481
879.852	0.0161775
879.931	0.0161392
880.009	0.0159864
880.087	0.0161768
880.165	0.0161627
880.243	0.0161197
880.321	0.0161610
880.399	0.0162113
880.477	0.0161257
880.556	0.0159982
880.634	0.0160243
880.712	0.0161749
880.790	0.0159061
880.868	0.0162019
880.946	0.0161874
881.024	0.0159624
881.102	0.0160468
881.181	0.0162114
881.259	0.0160118
881.337	0.0162404
881.415	0.0160221
881.493	0.0160014
881.571	0.0161211
881.649	0.0162441
881.727	0.0160809
881.806	0.0159710
881.884	0.0160432
881.962	0.0160561
882.040	0.0160569
882.118	0.0160902
882.196	0.0160276
882.274	0.0160780
882.352	0.0159971
882.431	0.0159129
882.509	0.0160102
882.587	0.0162285
882.665	0.0162252
882.743	0.0160141
882.821	0.0160498
882.899	0.0158797
882.977	0.0160956
883.056	0.0161295
883.134	0.0161716
883.212	0.0160590
883.290	0.0159093
883.368	0.0159363
883.446	0.0159381
883.524	0.0160931
883.602	0.0161498
883.681	0.0160159
883.759	0.0159737
883.837	0.0161229
883.915	0.0160742
883.993	0.0161035
884.071	0.0161033
884.149	0.0161297
884.227	0.0159494
884.306	0.0160513
884.384	0.0160298
884.462	0.0160852
884.540	0.0159305
884.618	0.0160821
884.696	0.0162112
884.774	0.0161677
884.852	0.0161509
884.931	0.0161874
885.009	0.0161661
885.087	0.0161137
885.165	0.0160599
885.243	0.0161384
885.321	0.0161342
885.399	0.0161378
885.477	0.0160448
885.556	0.0160487
885.634	0.0160394
885.712	0.0160277
885.790	0.0161308
885.868	0.0160144
885.946	0.0160668
886.024	0.0161319
886.102	0.0161045
886.181	0.0159547
886.259	0.0161509
886.337	0.0162746
886.415	0.0161330
886.493	0.0159466
886.571	0.0161319
886.649	0.0159519
886.727	0.0161864
886.806	0.0160982
886.884	0.0160492
886.962	0.0161925
887.040	0.0162109
887.118	0.0160153
887.196	0.0160368
887.274	0.0162064
887.352	0.0162094
887.431	0.0161518
887.509	0.0161008
887.587	0.0160275
887.665	0.0160519
887.743	0.0161061
887.821	0.0158995
887.899	0.0161031
887.977	0.0161154
888.056	0.0159716
888.134	0.0159216
888.212	0.0158734
888.290	0.0160065
888.368	0.0160126
888.446	0.0159567
888.524	0.0160378
888.602	0.0159560
888.681	0.0159666
888.759	0.0160982
888.837	0.0161978
888.915	0.0160261
888.993	0.0159745
889.071	0.0160684
889.149	0.0160053
889.227	0.0161946
889.306	0.0161600
889.384	0.0162098
889.462	0.0161140
889.540	0.0161988
889.618	0.0161185
889.696	0.0162471
889.774	0.0160722
889.852	0.0159695
889.931	0.0160788
890.009	0.0161748
890.087	0.0161799
890.165	0.0160771
890.243	0.0161946
890.321	0.0160741
890.399	0.0160824
890.477	0.0161631
890.556	0.0161790
890.634	0.0160381
890.712	0.0161126
890.790	0.0159700
890.868	0.0160041
890.946	0.0161038
891.024	0.0159779
891.102	0.0159940
891.181	0.0160580
891.259	0.0161488
891.337	0.0160728
891.415	0.0160401
891.493	0.0160579
891.571	0.0160152
891.649	0.0161008
891.727	0.0160367
891.806	0.0159225
891.884	0.0159267
891.962	0.0160357
892.040	0.0160448
892.118	0.0161237
892.196	0.0160472
892.274	0.0160953
892.352	0.0160008
892.431	0.0159221
892.509	0.0159854
892.587	0.0158852
892.665	0.0159792
892.743	0.0160711
892.821	0.0161600
892.899	0.0160014
892.977	0.0160166
893.056	0.0160146
893.134	0.0159827
893.212	0.0159409
893.290	0.0159282
893.368	0.0159430
893.446	0.0159409
893.524	0.0159677
893.602	0.0159240
893.681	0.0159794
893.759	0.0159183
893.837	0.0158652
893.915	0.0159929
893.993	0.0158493
894.071	0.0158616
894.149	0.0158916
894.227	0.0159103
894.306	0.0159261
894.384	0.0160649
894.462	0.0159926
894.540	0.0159946
894.618	0.0159309
894.696	0.0160223
894.774	0.0159182
894.852	0.0159786
894.931	0.0160358
895.009	0.0159898
895.087	0.0160201
895.165	0.0159859
895.243	0.0159195
895.321	0.0159991
895.399	0.0161268
895.477	0.0159591
895.556	0.0158501
895.634	0.0160832
895.712	0.0161333
895.790	0.0160518
895.868	0.0158168
895.946	0.0159718
896.024	0.0161044
896.102	0.0159371
896.181	0.0160449
896.259	0.0160613
896.337	0.0161320
896.415	0.0159601
896.493	0.0160532
896.571	0.0159226
896.649	0.0159890
896.727	0.0159602
896.806	0.0161686
896.884	0.0160731
896.962	0.0160511
897.040	0.0161688
897.118	0.0160748
897.196	0.0161905
897.274	0.0162811
897.352	0.0161697
897.431	0.0162073
897.509	0.0161647
897.587	0.0160578
897.665	0.0160185
897.743	0.0160820
897.821	0.0161752
897.899	0.0161481
897.977	0.0160921
898.056	0.0160448
898.134	0.0161558
898.212	0.0161435
898.290	0.0162613
898.368	0.0161059
898.446	0.0160380
898.524	0.0161143
898.602	0.0160490
898.681	0.0159332
898.759	0.0161417
898.837	0.0161341
898.915	0.0160609
898.993	0.0160739
899.071	0.0161454
899.149	0.0160565
899.227	0.0161890
899.306	0.0161774
899.384	0.0160236
899.462	0.0160751
899.540	0.0160552
899.618	0.0159670
899.696	0.0161672
899.774	0.0160366
899.852	0.0160768
899.931	0.0161848
900.009	0.0161861
900.087	0.0161478
900.165	0.0161572
900.243	0.0161494
900.321	0.0159853
900.399	0.0160805
900.477	0.0160269
900.556	0.0160578
900.634	0.0159972
900.712	0.0161577
900.790	0.0159852
900.868	0.0160199
900.946	0.0160625
901.024	0.0160400
901.102	0.0159992
901.181	0.0160577
901.259	0.0161978
901.337	0.0161848
901.415	0.0161189
901.493	0.0159904
901.571	0.0160381
901.649	0.0160818
901.727	0.0161171
901.806	0.0159834
901.884	0.0159347
901.962	0.0161573
902.040	0.0160458
902.118	0.0160161
902.196	0.0160383
902.274	0.0160509
902.352	0.0160121
902.431	0.0159148
902.509	0.0158820
902.587	0.0160678
902.665	0.0160690
902.743	0.0160567
902.821	0.0161297
902.899	0.0159593
902.977	0.0159538
903.056	0.0159962
903.134	0.0162646
903.212	0.0159859
903.290	0.0159666
903.368	0.0160783
903.446	0.0162141
903.524	0.0160545
903.602	0.0158891
903.681	0.0159505
903.759	0.0160117
903.837	0.0160438
903.915	0.0160892
903.993	0.0160288
904.071	0.0160405
904.149	0.0160529
904.227	0.0159002
904.306	0.0158944
904.384	0.0159491
904.462	0.0158205
904.540	0.0160529
904.618	0.0159209
904.696	0.0158984
904.774	0.0159099
904.852	0.0159466
904.931	0.0160352
905.009	0.0159626
905.087	0.0160592
905.165	0.0160763
905.243	0.0160542
905.321	0.0159734
905.399	0.0160065
905.477	0.0161212
905.556	0.0160397
905.634	0.0161533
905.712	0.0162275
905.790	0.0161624
905.868	0.0160368
905.946	0.0160098
906.024	0.0161353
906.102	0.0161365
906.181	0.0161629
906.259	0.0160847
906.337	0.0158980
906.415	0.0160307
906.493	0.0160119
906.571	0.0160023
906.649	0.0160837
906.727	0.0160878
906.806	0.0159791
906.884	0.0159721
906.962	0.0159861
907.040	0.0160548
907.118	0.0159924
907.196	0.0159407
907.274	0.0160056
907.352	0.0159919
907.431	0.0158613
907.509	0.0159772
907.587	0.0159538
907.665	0.0159567
907.743	0.0159557
907.821	0.0159364
907.899	0.0159266
907.977	0.0159723
908.056	0.0160773
908.134	0.0160223
908.212	0.0159158
908.290	0.0160056
908.368	0.0160577
908.446	0.0159641
908.524	0.0160651
908.602	0.0159639
908.681	0.0159848
908.759	0.0161920
908.837	0.0159358
908.915	0.0160765
908.993	0.0161589
909.071	0.0160653
909.149	0.0161668
909.227	0.0160706
909.306	0.0159884
909.384	0.0160870
909.462	0.0161410
909.540	0.0160838
909.618	0.0160857
909.696	0.0160047
909.774	0.0161293
909.852	0.0162406
909.931	0.0161337
910.009	0.0160487
910.087	0.0162508
910.165	0.0161146
910.243	0.0160432
910.321	0.0160849
910.399	0.0161519
910.477	0.0162093
910.556	0.0161691
910.634	0.0160946
910.712	0.0160659
910.790	0.0162096
910.868	0.0161008
910.946	0.0161503
911.024	0.0161115
911.102	0.0160075
911.181	0.0158919
911.259	0.0160480
911.337	0.0160883
911.415	0.0159656
911.493	0.0160058
911.571	0.0159247
911.649	0.0159795
911.727	0.0160043
911.806	0.0159824
911.884	0.0159475
911.962	0.0159185
912.040	0.0159109
912.118	0.0160052
912.196	0.0160107
912.274	0.0160773
912.352	0.0158815
912.431	0.0158923
912.509	0.0159096
912.587	0.0159509
912.665	0.0159174
912.743	0.0159691
912.821	0.0159830
912.899	0.0159389
912.977	0.0161742
913.056	0.0159731
913.134	0.0160019
913.212	0.0161607
913.290	0.0161182
913.368	0.0160310
913.446	0.0160011
913.524	0.0159904
913.602	0.0159471
913.681	0.0160093
913.759	0.0160717
913.837	0.0160022
913.915	0.0159559
913.993	0.0159690
914.071	0.0159998
914.149	0.0161375
914.227	0.0161230
914.306	0.0160541
914.384	0.0158920
914.462	0.0160031
914.540	0.0160326
914.618	0.0160070
914.696	0.0160114
914.774	0.0160615
914.852	0.0160296
914.931	0.0161111
915.009	0.0158004
915.087	0.0160009
915.165	0.0158232
915.243	0.0158560
915.321	0.0158488
915.399	0.0159904
915.477	0.0160462
915.556	0.0158800
915.634	0.0158063
915.712	0.0158769
915.790	0.0157369
915.868	0.0158433
915.946	0.0159031
916.024	0.0158871
916.102	0.0157713
916.181	0.0157873
916.259	0.0158712
916.337	0.0158916
916.415	0.0157681
916.493	0.0159372
916.571	0.0157990
916.649	0.0159344
916.727	0.0159660
916.806	0.0159425
916.884	0.0159751
916.962	0.0160167
917.040	0.0161153
917.118	0.0160300
917.196	0.0160594
917.274	0.0160488
917.352	0.0160217
917.431	0.0162508
917.509	0.0162466
917.587	0.0161199
917.665	0.0161452
917.743	0.0161053
917.821	0.0162698
917.899	0.0161937
917.977	0.0163599
918.056	0.0162517
918.134	0.0161906
918.212	0.0162603
918.290	0.0163271
918.368	0.0162167
918.446	0.0161469
918.524	0.0163258
918.602	0.0162094
918.681	0.0162441
918.759	0.0162181
918.837	0.0161888
918.915	0.0162013
918.993	0.0162177
919.071	0.0162138
919.149	0.0161526
919.227	0.0162349
919.306	0.0161949
919.384	0.0161850
919.462	0.0161395
919.540	0.0161515
919.618	0.0161792
919.696	0.0162576
919.774	0.0160982
919.852	0.0161382
919.931	0.0160677
920.009	0.0161693
920.087	0.0160799
920.165	0.0160770
920.243	0.0160408
920.321	0.0159961
920.399	0.0160275
920.477	0.0161182
920.556	0.0159932
920.634	0.0158257
920.712	0.0159765
920.790	0.0158836
920.868	0.0159810
920.946	0.0158428
921.024	0.0160553
921.102	0.0160023
921.181	0.0159286
921.259	0.0159918
921.337	0.0158884
921.415	0.0160376
921.493	0.0159491
921.571	0.0158812
921.649	0.0158217
921.727	0.0157961
921.806	0.0158916
921.884	0.0158626
921.962	0.0160105
922.040	0.0160130
922.118	0.0159921
922.196	0.0160116
922.274	0.0158939
922.352	0.0159753
922.431	0.0160114
922.509	0.0159338
922.587	0.0160337
922.665	0.0159558
922.743	0.0161273
922.821	0.0160502
922.899	0.0161994
922.977	0.0161631
923.056	0.0161848
923.134	0.0160801
923.212	0.0159809
923.290	0.0161160
923.368	0.0161682
923.446	0.0160388
923.524	0.0161022
923.602	0.0160191
923.681	0.0159090
923.759	0.0159959
923.837	0.0159505
923.915	0.0158733
923.993	0.0158459
924.071	0.0159362
924.149	0.0159453
924.227	0.0160089
924.306	0.0158672
924.384	0.0158463
924.462	0.0159317
924.540	0.0158960
924.618	0.0159094
924.696	0.0159541
924.774	0.0157927
924.852	0.0158844
924.931	0.0159241
925.009	0.0157932
925.087	0.0157991
925.165	0.0158896
925.243	0.0158904
925.321	0.0159006
925.399	0.0160046
925.477	0.0158859
925.556	0.0159378
925.634	0.0159639
925.712	0.0161053
925.790	0.0159218
925.868	0.0158357
925.946	0.0159615
926.024	0.0159748
926.102	0.0160048
926.181	0.0160017
926.259	0.0160387
926.337	0.0159364
926.415	0.0159591
926.493	0.0160691
926.571	0.0160500
926.649	0.0161014
926.727	0.0160066
926.806	0.0160966
926.884	0.0160870
926.962	0.0159952
927.040	0.0160453
927.118	0.0161960
927.196	0.0159698
927.274	0.0159956
927.352	0.0160601
927.431	0.0161448
927.509	0.0159989
927.587	0.0160424
927.665	0.0159978
927.743	0.0159795
927.821	0.0159929
927.899	0.0160809
927.977	0.0161124
928.056	0.0159782
928.134	0.0161152
928.212	0.0161295
928.290	0.0160771
928.368	0.0159856
928.446	0.0160284
928.524	0.0161645
928.602	0.0162259
928.681	0.0161440
928.759	0.0160984
928.837	0.0162727
928.915	0.0160979
928.993	0.0161420
929.071	0.0161388
929.149	0.0161804
929.227	0.0162633
929.306	0.0162548
929.384	0.0162998
929.462	0.0161964
929.540	0.0161634
929.618	0.0162228
929.696	0.0161404
929.774	0.0163383
929.852	0.0162617
929.931	0.0161085
