05/19/2022	01:13:10	Ver.	4.1	UNKNOWN
Optical Delay	610.008675	Delta X		0.078125	Sweeps	1	Scan Rate	0/0
Coordinates	Axis 1	NaN	Axis 2	NaN	Axis 3	NaN	Axis 4	NaN	Axis 5	NaN	Axis 6	0.000000
TX Power	0.000000	RX Power	0.000000

610.009	0.0165998
610.087	0.0165598
610.165	0.0166058
610.243	0.0165991
610.321	0.0165441
610.399	0.0163656
610.477	0.0165471
610.556	0.0166515
610.634	0.0164773
610.712	0.0164029
610.790	0.0165025
610.868	0.0164807
610.946	0.0163361
611.024	0.0163773
611.102	0.0165093
611.181	0.0165193
611.259	0.0165170
611.337	0.0165565
611.415	0.0164089
611.493	0.0165812
611.571	0.0165562
611.649	0.0164619
611.727	0.0164595
611.806	0.0164164
611.884	0.0166175
611.962	0.0164058
612.040	0.0165373
612.118	0.0165937
612.196	0.0165730
612.274	0.0164932
612.352	0.0165121
612.431	0.0166098
612.509	0.0166460
612.587	0.0165354
612.665	0.0165044
612.743	0.0164061
612.821	0.0164652
612.899	0.0165349
612.977	0.0164750
613.056	0.0164431
613.134	0.0164113
613.212	0.0164288
613.290	0.0165720
613.368	0.0164820
613.446	0.0164705
613.524	0.0163746
613.602	0.0164541
613.681	0.0163107
613.759	0.0164496
613.837	0.0164616
613.915	0.0165366
613.993	0.0164488
614.071	0.0164019
614.149	0.0164129
614.227	0.0165237
614.306	0.0164188
614.384	0.0166189
614.462	0.0165266
614.540	0.0164015
614.618	0.0165308
614.696	0.0165411
614.774	0.0165463
614.852	0.0165483
614.931	0.0165562
615.009	0.0164427
615.087	0.0164726
615.165	0.0164983
615.243	0.0165674
615.321	0.0166330
615.399	0.0165414
615.477	0.0165003
615.556	0.0165609
615.634	0.0165450
615.712	0.0165634
615.790	0.0165202
615.868	0.0165263
615.946	0.0164951
616.024	0.0164658
616.102	0.0164457
616.181	0.0163836
616.259	0.0164605
616.337	0.0165613
616.415	0.0164680
616.493	0.0163158
616.571	0.0164537
616.649	0.0164542
616.727	0.0163805
616.806	0.0163660
616.884	0.0164183
616.962	0.0163551
617.040	0.0164723
617.118	0.0164792
617.196	0.0164671
617.274	0.0163002
617.352	0.0165073
617.431	0.0163972
617.509	0.0163020
617.587	0.0164677
617.665	0.0164757
617.743	0.0165965
617.821	0.0166730
617.899	0.0164626
617.977	0.0165565
618.056	0.0165869
618.134	0.0165795
618.212	0.0165662
618.290	0.0165007
618.368	0.0164442
618.446	0.0166035
618.524	0.0165125
618.602	0.0165530
618.681	0.0168372
618.759	0.0165746
618.837	0.0165436
618.915	0.0167152
618.993	0.0165646
619.071	0.0165456
619.149	0.0165234
619.227	0.0166679
619.306	0.0166922
619.384	0.0166937
619.462	0.0166178
619.540	0.0166794
619.618	0.0166284
619.696	0.0165363
619.774	0.0167105
619.852	0.0168513
619.931	0.0167152
620.009	0.0166515
620.087	0.0167224
620.165	0.0167803
620.243	0.0168325
620.321	0.0168018
620.399	0.0166867
620.477	0.0167381
620.556	0.0166333
620.634	0.0167125
620.712	0.0167757
620.790	0.0167416
620.868	0.0165953
620.946	0.0165318
621.024	0.0166782
621.102	0.0166230
621.181	0.0166032
621.259	0.0167770
621.337	0.0165786
621.415	0.0166218
621.493	0.0166814
621.571	0.0166798
621.649	0.0164925
621.727	0.0165270
621.806	0.0166743
621.884	0.0165207
621.962	0.0166531
622.040	0.0166100
622.118	0.0164275
622.196	0.0166483
622.274	0.0165498
622.352	0.0164449
622.431	0.0165628
622.509	0.0164005
622.587	0.0165127
622.665	0.0164052
622.743	0.0165553
622.821	0.0164611
622.899	0.0166160
622.977	0.0165482
623.056	0.0165622
623.134	0.0164919
623.212	0.0165601
623.290	0.0164976
623.368	0.0165203
623.446	0.0165228
623.524	0.0165626
623.602	0.0166070
623.681	0.0164748
623.759	0.0164478
623.837	0.0165516
623.915	0.0164471
623.993	0.0165154
624.071	0.0165533
624.149	0.0165534
624.227	0.0164345
624.306	0.0165556
624.384	0.0166560
624.462	0.0164964
624.540	0.0164901
624.618	0.0167040
624.696	0.0165426
624.774	0.0165371
624.852	0.0165796
624.931	0.0165469
625.009	0.0165025
625.087	0.0166351
625.165	0.0165879
625.243	0.0166385
625.321	0.0166398
625.399	0.0165053
625.477	0.0165723
625.556	0.0166116
625.634	0.0166225
625.712	0.0165311
625.790	0.0165405
625.868	0.0165308
625.946	0.0166071
626.024	0.0165859
626.102	0.0165199
626.181	0.0164852
626.259	0.0164684
626.337	0.0165526
626.415	0.0165656
626.493	0.0165774
626.571	0.0165510
626.649	0.0165985
626.727	0.0164532
626.806	0.0164375
626.884	0.0163808
626.962	0.0165783
627.040	0.0164674
627.118	0.0164882
627.196	0.0165406
627.274	0.0165340
627.352	0.0164279
627.431	0.0164935
627.509	0.0165019
627.587	0.0164612
627.665	0.0165184
627.743	0.0166197
627.821	0.0165095
627.899	0.0163598
627.977	0.0164735
628.056	0.0165308
628.134	0.0164375
628.212	0.0163912
628.290	0.0165606
628.368	0.0165623
628.446	0.0164896
628.524	0.0165157
628.602	0.0166524
628.681	0.0165582
628.759	0.0165328
628.837	0.0166874
628.915	0.0166201
628.993	0.0166687
629.071	0.0167631
629.149	0.0166380
629.227	0.0166505
629.306	0.0165902
629.384	0.0166383
629.462	0.0166067
629.540	0.0167279
629.618	0.0167496
629.696	0.0166347
629.774	0.0167586
629.852	0.0167968
629.931	0.0166048
630.009	0.0166653
630.087	0.0166954
630.165	0.0167924
630.243	0.0167545
630.321	0.0167001
630.399	0.0166309
630.477	0.0168024
630.556	0.0166019
630.634	0.0166988
630.712	0.0164880
630.790	0.0166606
630.868	0.0166470
630.946	0.0165111
631.024	0.0166256
631.102	0.0165334
631.181	0.0166692
631.259	0.0164584
631.337	0.0164423
631.415	0.0165078
631.493	0.0164986
631.571	0.0166271
631.649	0.0163512
631.727	0.0163739
631.806	0.0163741
631.884	0.0163690
631.962	0.0163516
632.040	0.0163629
632.118	0.0164058
632.196	0.0164410
632.274	0.0162507
632.352	0.0164217
632.431	0.0163357
632.509	0.0164658
632.587	0.0163921
632.665	0.0162828
632.743	0.0163150
632.821	0.0164349
632.899	0.0164412
632.977	0.0163255
633.056	0.0165463
633.134	0.0164461
633.212	0.0164014
633.290	0.0165048
633.368	0.0165089
633.446	0.0165570
633.524	0.0164791
633.602	0.0165874
633.681	0.0166152
633.759	0.0166718
633.837	0.0166187
633.915	0.0167110
633.993	0.0166567
634.071	0.0166328
634.149	0.0167381
634.227	0.0168898
634.306	0.0168228
634.384	0.0168289
634.462	0.0167589
634.540	0.0168950
634.618	0.0167887
634.696	0.0168517
634.774	0.0169131
634.852	0.0168485
634.931	0.0168322
635.009	0.0168470
635.087	0.0168726
635.165	0.0167341
635.243	0.0167177
635.321	0.0167650
635.399	0.0167622
635.477	0.0165836
635.556	0.0165945
635.634	0.0166557
635.712	0.0165079
635.790	0.0165417
635.868	0.0166016
635.946	0.0163549
636.024	0.0164170
636.102	0.0162881
636.181	0.0163070
636.259	0.0163259
636.337	0.0162368
636.415	0.0161202
636.493	0.0161989
636.571	0.0160639
636.649	0.0160946
636.727	0.0161262
636.806	0.0162757
636.884	0.0161272
636.962	0.0158397
637.040	0.0159573
637.118	0.0159994
637.196	0.0159332
637.274	0.0160371
637.352	0.0161178
637.431	0.0160535
637.509	0.0162308
637.587	0.0162222
637.665	0.0160839
637.743	0.0161304
637.821	0.0163702
637.899	0.0163989
637.977	0.0162495
638.056	0.0163843
638.134	0.0164794
638.212	0.0165210
638.290	0.0166083
638.368	0.0166317
638.446	0.0167373
638.524	0.0167542
638.602	0.0167783
638.681	0.0168788
638.759	0.0168480
638.837	0.0168450
638.915	0.0168808
638.993	0.0169364
639.071	0.0169301
639.149	0.0169827
639.227	0.0169884
639.306	0.0170997
639.384	0.0170012
639.462	0.0169150
639.540	0.0169294
639.618	0.0168855
639.696	0.0168817
639.774	0.0167651
639.852	0.0167119
639.931	0.0166708
640.009	0.0165845
640.087	0.0167541
640.165	0.0166044
640.243	0.0165859
640.321	0.0165122
640.399	0.0165133
640.477	0.0163747
640.556	0.0163090
640.634	0.0164680
640.712	0.0165082
640.790	0.0163549
640.868	0.0163704
640.946	0.0163138
641.024	0.0162537
641.102	0.0163143
641.181	0.0160890
641.259	0.0162355
641.337	0.0162634
641.415	0.0163206
641.493	0.0163279
641.571	0.0161845
641.649	0.0162856
641.727	0.0162396
641.806	0.0161213
641.884	0.0163478
641.962	0.0162823
642.040	0.0163598
642.118	0.0163505
642.196	0.0163643
642.274	0.0164162
642.352	0.0162666
642.431	0.0163760
642.509	0.0165112
642.587	0.0164904
642.665	0.0163339
642.743	0.0163792
642.821	0.0164627
642.899	0.0163562
642.977	0.0164645
643.056	0.0164703
643.134	0.0164583
643.212	0.0165823
643.290	0.0166087
643.368	0.0165215
643.446	0.0164698
643.524	0.0164968
643.602	0.0166419
643.681	0.0165268
643.759	0.0167017
643.837	0.0166567
643.915	0.0165212
643.993	0.0165512
644.071	0.0165659
644.149	0.0166047
644.227	0.0166306
644.306	0.0166358
644.384	0.0166515
644.462	0.0165565
644.540	0.0167369
644.618	0.0166766
644.696	0.0166438
644.774	0.0166003
644.852	0.0165951
644.931	0.0164915
645.009	0.0167156
645.087	0.0167614
645.165	0.0165833
645.243	0.0166837
645.321	0.0166100
645.399	0.0165520
645.477	0.0166594
645.556	0.0166490
645.634	0.0165392
645.712	0.0165659
645.790	0.0165308
645.868	0.0166616
645.946	0.0165687
646.024	0.0165630
646.102	0.0165666
646.181	0.0167638
646.259	0.0166454
646.337	0.0164823
646.415	0.0164322
646.493	0.0164801
646.571	0.0165328
646.649	0.0163651
646.727	0.0164454
646.806	0.0164189
646.884	0.0163337
646.962	0.0163565
647.040	0.0162754
647.118	0.0163488
647.196	0.0164178
647.274	0.0163364
647.352	0.0163393
647.431	0.0163870
647.509	0.0163996
647.587	0.0164094
647.665	0.0164050
647.743	0.0162764
647.821	0.0162798
647.899	0.0163082
647.977	0.0163710
648.056	0.0163553
648.134	0.0163871
648.212	0.0164053
648.290	0.0162265
648.368	0.0163450
648.446	0.0164799
648.524	0.0163776
648.602	0.0165338
648.681	0.0164159
648.759	0.0164635
648.837	0.0165076
648.915	0.0164330
648.993	0.0164827
649.071	0.0165569
649.149	0.0165330
649.227	0.0166190
649.306	0.0166379
649.384	0.0166236
649.462	0.0166555
649.540	0.0166589
649.618	0.0166001
649.696	0.0166566
649.774	0.0168054
649.852	0.0167014
649.931	0.0167637
650.009	0.0166019
650.087	0.0168273
650.165	0.0167118
650.243	0.0166188
650.321	0.0165745
650.399	0.0166943
650.477	0.0168213
650.556	0.0167204
650.634	0.0168114
650.712	0.0168977
650.790	0.0167632
650.868	0.0167940
650.946	0.0167489
651.024	0.0166257
651.102	0.0167003
651.181	0.0168286
651.259	0.0168246
651.337	0.0167617
651.415	0.0169018
651.493	0.0167823
651.571	0.0167431
651.649	0.0166875
651.727	0.0168232
651.806	0.0167937
651.884	0.0166905
651.962	0.0165732
652.040	0.0167567
652.118	0.0166875
652.196	0.0166300
652.274	0.0164674
652.352	0.0165855
652.431	0.0164056
652.509	0.0165157
652.587	0.0165338
652.665	0.0165173
652.743	0.0164137
652.821	0.0162650
652.899	0.0164005
652.977	0.0163225
653.056	0.0163787
653.134	0.0164149
653.212	0.0162836
653.290	0.0161778
653.368	0.0161604
653.446	0.0161077
653.524	0.0163078
653.602	0.0162016
653.681	0.0161959
653.759	0.0161745
653.837	0.0161760
653.915	0.0160751
653.993	0.0161117
654.071	0.0161675
654.149	0.0162053
654.227	0.0161190
654.306	0.0161874
654.384	0.0163569
654.462	0.0160926
654.540	0.0161339
654.618	0.0162665
654.696	0.0162640
654.774	0.0163435
654.852	0.0163429
654.931	0.0163421
655.009	0.0163861
655.087	0.0163483
655.165	0.0165386
655.243	0.0166421
655.321	0.0165432
655.399	0.0166678
655.477	0.0167098
655.556	0.0167625
655.634	0.0168415
655.712	0.0168180
655.790	0.0169292
655.868	0.0168063
655.946	0.0170576
656.024	0.0170856
656.102	0.0170087
656.181	0.0171281
656.259	0.0170767
656.337	0.0170398
656.415	0.0170506
656.493	0.0171352
656.571	0.0168259
656.649	0.0168690
656.727	0.0169182
656.806	0.0168602
656.884	0.0169154
656.962	0.0167470
657.040	0.0165588
657.118	0.0165228
657.196	0.0165990
657.274	0.0165843
657.352	0.0163964
657.431	0.0164167
657.509	0.0163503
657.587	0.0161553
657.665	0.0161024
657.743	0.0161669
657.821	0.0160829
657.899	0.0159716
657.977	0.0160099
658.056	0.0158710
658.134	0.0159351
658.212	0.0159943
658.290	0.0157930
658.368	0.0158141
658.446	0.0157451
658.524	0.0158661
658.602	0.0159100
658.681	0.0158450
658.759	0.0159940
658.837	0.0161695
658.915	0.0158692
658.993	0.0159975
659.071	0.0160712
659.149	0.0160944
659.227	0.0161893
659.306	0.0160622
659.384	0.0162395
659.462	0.0164251
659.540	0.0163705
659.618	0.0163590
659.696	0.0163929
659.774	0.0166019
659.852	0.0165359
659.931	0.0165714
660.009	0.0166936
660.087	0.0167265
660.165	0.0169264
660.243	0.0168044
660.321	0.0166919
660.399	0.0169367
660.477	0.0168595
660.556	0.0168219
660.634	0.0168585
660.712	0.0169690
660.790	0.0170184
660.868	0.0170074
660.946	0.0170079
661.024	0.0169379
661.102	0.0168893
661.181	0.0168964
661.259	0.0169165
661.337	0.0169247
661.415	0.0169496
661.493	0.0167762
661.571	0.0168160
661.649	0.0168316
661.727	0.0168331
661.806	0.0167757
661.884	0.0166856
661.962	0.0166470
662.040	0.0165543
662.118	0.0165871
662.196	0.0164940
662.274	0.0164457
662.352	0.0163927
662.431	0.0164262
662.509	0.0165697
662.587	0.0164637
662.665	0.0164560
662.743	0.0162971
662.821	0.0161737
662.899	0.0162807
662.977	0.0163123
663.056	0.0163707
663.134	0.0163037
663.212	0.0161627
663.290	0.0162148
663.368	0.0161729
663.446	0.0162376
663.524	0.0161818
663.602	0.0164050
663.681	0.0162837
663.759	0.0163311
663.837	0.0162392
663.915	0.0163406
663.993	0.0163665
664.071	0.0162798
664.149	0.0161029
664.227	0.0162833
664.306	0.0164390
664.384	0.0163306
664.462	0.0162605
664.540	0.0163216
664.618	0.0163565
664.696	0.0162204
664.774	0.0163959
664.852	0.0162587
664.931	0.0163388
665.009	0.0164194
665.087	0.0165257
665.165	0.0163778
665.243	0.0163235
665.321	0.0164973
665.399	0.0164798
665.477	0.0165096
665.556	0.0164549
665.634	0.0164182
665.712	0.0165954
665.790	0.0165943
665.868	0.0165427
665.946	0.0166118
666.024	0.0165061
666.102	0.0168014
666.181	0.0168312
666.259	0.0166690
666.337	0.0167069
666.415	0.0166653
666.493	0.0166953
666.571	0.0166370
666.649	0.0167426
666.727	0.0165536
666.806	0.0165074
666.884	0.0165346
666.962	0.0165961
667.040	0.0165953
667.118	0.0165578
667.196	0.0165227
667.274	0.0165545
667.352	0.0165528
667.431	0.0164484
667.509	0.0164902
667.587	0.0165063
667.665	0.0163057
667.743	0.0164683
667.821	0.0166081
667.899	0.0165240
667.977	0.0165475
668.056	0.0165006
668.134	0.0163636
668.212	0.0163392
668.290	0.0164477
668.368	0.0164716
668.446	0.0164639
668.524	0.0165678
668.602	0.0162943
668.681	0.0162377
668.759	0.0163465
668.837	0.0163895
668.915	0.0163753
668.993	0.0165167
669.071	0.0164828
669.149	0.0164220
669.227	0.0164864
669.306	0.0164002
669.384	0.0164561
669.462	0.0164420
669.540	0.0165002
669.618	0.0163796
669.696	0.0163802
669.774	0.0165423
669.852	0.0165565
669.931	0.0165396
670.009	0.0164896
670.087	0.0165556
670.165	0.0165322
670.243	0.0166631
670.321	0.0166222
670.399	0.0165421
670.477	0.0165032
670.556	0.0165151
670.634	0.0165761
670.712	0.0164314
670.790	0.0164957
670.868	0.0165385
670.946	0.0166740
671.024	0.0165409
671.102	0.0164958
671.181	0.0165366
671.259	0.0165420
671.337	0.0165913
671.415	0.0166051
671.493	0.0165625
671.571	0.0165890
671.649	0.0166495
671.727	0.0166767
671.806	0.0164651
671.884	0.0164394
671.962	0.0165517
672.040	0.0165500
672.118	0.0166376
672.196	0.0166035
672.274	0.0165601
672.352	0.0166186
672.431	0.0165930
672.509	0.0167038
672.587	0.0164117
672.665	0.0164746
672.743	0.0164341
672.821	0.0166093
672.899	0.0164925
672.977	0.0166039
673.056	0.0165887
673.134	0.0164649
673.212	0.0165730
673.290	0.0165292
673.368	0.0166222
673.446	0.0164413
673.524	0.0166240
673.602	0.0165685
673.681	0.0165347
673.759	0.0164381
673.837	0.0164707
673.915	0.0165312
673.993	0.0164525
674.071	0.0163877
674.149	0.0164482
674.227	0.0165594
674.306	0.0163154
674.384	0.0164026
674.462	0.0163748
674.540	0.0163658
674.618	0.0163924
674.696	0.0163506
674.774	0.0164338
674.852	0.0163126
674.931	0.0163717
675.009	0.0163770
675.087	0.0162945
675.165	0.0163515
675.243	0.0164130
675.321	0.0163981
675.399	0.0163491
675.477	0.0163860
675.556	0.0163779
675.634	0.0163523
675.712	0.0163609
675.790	0.0164612
675.868	0.0163879
675.946	0.0163998
676.024	0.0164532
676.102	0.0166068
676.181	0.0165906
676.259	0.0164867
676.337	0.0164788
676.415	0.0164651
676.493	0.0166164
676.571	0.0167345
676.649	0.0166134
676.727	0.0166196
676.806	0.0165853
676.884	0.0167422
676.962	0.0168199
677.040	0.0166158
677.118	0.0165614
677.196	0.0166174
677.274	0.0167513
677.352	0.0164843
677.431	0.0166687
677.509	0.0165792
677.587	0.0165239
677.665	0.0164792
677.743	0.0165991
677.821	0.0164605
677.899	0.0164862
677.977	0.0165711
678.056	0.0163448
678.134	0.0164268
678.212	0.0164951
678.290	0.0163155
678.368	0.0162688
678.446	0.0163709
678.524	0.0163487
678.602	0.0162518
678.681	0.0163044
678.759	0.0162637
678.837	0.0161725
678.915	0.0163837
678.993	0.0162832
679.071	0.0163914
679.149	0.0162260
679.227	0.0164564
679.306	0.0165303
679.384	0.0163384
679.462	0.0165393
679.540	0.0166231
679.618	0.0164955
679.696	0.0167818
679.774	0.0165990
679.852	0.0167648
679.931	0.0168328
680.009	0.0168221
680.087	0.0167643
680.165	0.0167834
680.243	0.0168733
680.321	0.0167773
680.399	0.0167461
680.477	0.0168224
680.556	0.0168267
680.634	0.0168297
680.712	0.0168616
680.790	0.0169888
680.868	0.0168262
680.946	0.0169103
681.024	0.0168517
681.102	0.0167930
681.181	0.0168911
681.259	0.0167986
681.337	0.0167435
681.415	0.0168410
681.493	0.0167215
681.571	0.0168601
681.649	0.0167953
681.727	0.0167570
681.806	0.0168715
681.884	0.0167857
681.962	0.0166151
682.040	0.0166468
682.118	0.0166743
682.196	0.0165726
682.274	0.0166333
682.352	0.0166647
682.431	0.0166727
682.509	0.0164726
682.587	0.0165742
682.665	0.0164826
682.743	0.0166032
682.821	0.0164733
682.899	0.0164732
682.977	0.0165147
683.056	0.0163100
683.134	0.0163923
683.212	0.0163060
683.290	0.0163346
683.368	0.0161043
683.446	0.0160823
683.524	0.0161700
683.602	0.0161192
683.681	0.0161353
683.759	0.0162293
683.837	0.0161158
683.915	0.0161723
683.993	0.0161072
684.071	0.0161872
684.149	0.0161919
684.227	0.0163256
684.306	0.0164201
684.384	0.0164597
684.462	0.0165487
684.540	0.0164938
684.618	0.0165745
684.696	0.0167580
684.774	0.0167540
684.852	0.0164905
684.931	0.0168511
685.009	0.0167414
685.087	0.0168330
685.165	0.0168799
685.243	0.0169093
685.321	0.0168049
685.399	0.0169958
685.477	0.0170461
685.556	0.0169234
685.634	0.0169341
685.712	0.0170620
685.790	0.0169654
685.868	0.0170283
685.946	0.0169602
686.024	0.0169520
686.102	0.0166904
686.181	0.0168667
686.259	0.0168230
686.337	0.0167258
686.415	0.0166186
686.493	0.0166289
686.571	0.0166869
686.649	0.0166697
686.727	0.0166002
686.806	0.0165130
686.884	0.0165169
686.962	0.0164390
687.040	0.0165274
687.118	0.0165735
687.196	0.0165405
687.274	0.0164075
687.352	0.0163580
687.431	0.0163918
687.509	0.0164566
687.587	0.0164191
687.665	0.0164717
687.743	0.0164790
687.821	0.0164893
687.899	0.0164407
687.977	0.0165531
688.056	0.0165902
688.134	0.0164587
688.212	0.0164310
688.290	0.0164774
688.368	0.0165482
688.446	0.0165409
688.524	0.0166270
688.602	0.0165048
688.681	0.0166235
688.759	0.0167280
688.837	0.0165286
688.915	0.0166143
688.993	0.0165466
689.071	0.0164996
689.149	0.0165522
689.227	0.0165378
689.306	0.0165738
689.384	0.0163416
689.462	0.0163279
689.540	0.0165439
689.618	0.0164804
689.696	0.0163467
689.774	0.0161655
689.852	0.0162196
689.931	0.0162126
690.009	0.0163016
690.087	0.0162496
690.165	0.0162109
690.243	0.0162632
690.321	0.0163209
690.399	0.0162347
690.477	0.0160625
690.556	0.0162904
690.634	0.0162560
690.712	0.0162733
690.790	0.0162306
690.868	0.0163570
690.946	0.0164843
691.024	0.0164739
691.102	0.0164874
691.181	0.0165582
691.259	0.0165988
691.337	0.0164613
691.415	0.0166337
691.493	0.0166862
691.571	0.0166318
691.649	0.0166929
691.727	0.0167603
691.806	0.0167281
691.884	0.0168222
691.962	0.0166972
692.040	0.0166653
692.118	0.0167857
692.196	0.0167125
692.274	0.0166539
692.352	0.0167132
692.431	0.0167732
692.509	0.0164907
692.587	0.0165282
692.665	0.0165720
692.743	0.0167007
692.821	0.0166477
692.899	0.0164359
692.977	0.0165179
693.056	0.0165728
693.134	0.0165761
693.212	0.0165237
693.290	0.0166064
693.368	0.0165754
693.446	0.0165301
693.524	0.0165806
693.602	0.0165059
693.681	0.0164754
693.759	0.0164207
693.837	0.0164109
693.915	0.0163663
693.993	0.0165717
694.071	0.0164281
694.149	0.0163679
694.227	0.0164071
694.306	0.0164200
694.384	0.0164258
694.462	0.0165238
694.540	0.0165369
694.618	0.0163005
694.696	0.0165103
694.774	0.0164797
694.852	0.0165175
694.931	0.0165695
695.009	0.0165369
695.087	0.0166377
695.165	0.0165876
695.243	0.0165988
695.321	0.0166096
695.399	0.0166663
695.477	0.0166193
695.556	0.0167196
695.634	0.0166500
695.712	0.0166599
695.790	0.0166735
695.868	0.0167814
695.946	0.0167648
696.024	0.0166250
696.102	0.0167302
696.181	0.0167192
696.259	0.0166640
696.337	0.0166742
696.415	0.0165927
696.493	0.0166669
696.571	0.0166838
696.649	0.0167391
696.727	0.0166452
696.806	0.0167130
696.884	0.0167390
696.962	0.0167472
697.040	0.0165735
697.118	0.0166537
697.196	0.0166819
697.274	0.0164530
697.352	0.0166082
697.431	0.0165636
697.509	0.0164565
697.587	0.0164356
697.665	0.0165122
697.743	0.0164823
697.821	0.0164488
697.899	0.0166184
697.977	0.0165910
698.056	0.0164945
698.134	0.0165559
698.212	0.0165543
698.290	0.0166203
698.368	0.0165059
698.446	0.0166070
698.524	0.0166976
698.602	0.0166747
698.681	0.0165538
698.759	0.0167536
698.837	0.0167594
698.915	0.0166432
698.993	0.0167028
699.071	0.0167906
699.149	0.0166721
699.227	0.0166670
699.306	0.0167180
699.384	0.0167064
699.462	0.0166750
699.540	0.0166949
699.618	0.0166161
699.696	0.0166872
699.774	0.0167934
699.852	0.0167619
699.931	0.0167636
700.009	0.0165715
700.087	0.0165667
700.165	0.0166058
700.243	0.0165173
700.321	0.0165524
700.399	0.0165649
700.477	0.0164845
700.556	0.0164133
700.634	0.0165513
700.712	0.0164526
700.790	0.0164047
700.868	0.0163050
700.946	0.0163299
701.024	0.0162306
701.102	0.0162563
701.181	0.0164838
701.259	0.0163777
701.337	0.0161977
701.415	0.0162527
701.493	0.0162521
701.571	0.0162559
701.649	0.0163820
701.727	0.0163884
701.806	0.0163197
701.884	0.0162486
701.962	0.0165189
702.040	0.0163988
702.118	0.0163254
702.196	0.0163952
702.274	0.0165870
702.352	0.0164564
702.431	0.0164699
702.509	0.0165099
702.587	0.0165619
702.665	0.0165544
702.743	0.0165597
702.821	0.0166226
702.899	0.0167973
702.977	0.0166195
703.056	0.0167070
703.134	0.0167447
703.212	0.0166428
703.290	0.0166623
703.368	0.0167595
703.446	0.0166142
703.524	0.0168147
703.602	0.0167155
703.681	0.0167886
703.759	0.0167632
703.837	0.0166510
703.915	0.0167088
703.993	0.0165083
704.071	0.0165720
704.149	0.0165643
704.227	0.0164456
704.306	0.0164436
704.384	0.0164835
704.462	0.0165308
704.540	0.0165344
704.618	0.0164207
704.696	0.0164352
704.774	0.0164398
704.852	0.0163956
704.931	0.0164034
705.009	0.0164554
705.087	0.0163765
705.165	0.0163570
705.243	0.0164018
705.321	0.0162987
705.399	0.0164289
705.477	0.0163938
705.556	0.0165280
705.634	0.0164714
705.712	0.0165614
705.790	0.0165031
705.868	0.0165829
705.946	0.0165385
706.024	0.0165240
706.102	0.0166315
706.181	0.0166376
706.259	0.0166906
706.337	0.0166865
706.415	0.0166953
706.493	0.0167427
706.571	0.0166546
706.649	0.0166737
706.727	0.0166463
706.806	0.0166745
706.884	0.0167349
706.962	0.0166936
707.040	0.0166981
707.118	0.0165072
707.196	0.0166165
707.274	0.0165656
707.352	0.0165435
707.431	0.0166124
707.509	0.0163533
707.587	0.0162680
707.665	0.0163896
707.743	0.0163288
707.821	0.0163577
707.899	0.0163190
707.977	0.0162315
708.056	0.0162453
708.134	0.0162032
708.212	0.0162637
708.290	0.0162166
708.368	0.0163126
708.446	0.0163834
708.524	0.0164041
708.602	0.0163647
708.681	0.0163303
708.759	0.0165724
708.837	0.0164391
708.915	0.0164227
708.993	0.0165313
709.071	0.0166050
709.149	0.0165945
709.227	0.0165948
709.306	0.0167256
709.384	0.0167056
709.462	0.0167168
709.540	0.0166898
709.618	0.0168131
709.696	0.0167453
709.774	0.0165891
709.852	0.0166712
709.931	0.0167171
710.009	0.0167210
710.087	0.0164807
710.165	0.0166776
710.243	0.0166814
710.321	0.0166277
710.399	0.0165952
710.477	0.0165737
710.556	0.0165464
710.634	0.0166402
710.712	0.0165498
710.790	0.0165681
710.868	0.0166315
710.946	0.0166988
711.024	0.0166134
711.102	0.0167446
711.181	0.0166530
711.259	0.0167009
711.337	0.0166599
711.415	0.0168217
711.493	0.0165987
711.571	0.0166533
711.649	0.0165922
711.727	0.0166610
711.806	0.0165671
711.884	0.0165660
711.962	0.0166117
712.040	0.0165553
712.118	0.0167262
712.196	0.0165282
712.274	0.0164529
712.352	0.0164171
712.431	0.0164968
712.509	0.0165189
712.587	0.0165249
712.665	0.0165618
712.743	0.0164188
712.821	0.0163924
712.899	0.0165261
712.977	0.0164404
713.056	0.0164896
713.134	0.0164549
713.212	0.0164716
713.290	0.0163358
713.368	0.0165158
713.446	0.0164375
713.524	0.0164298
713.602	0.0165386
713.681	0.0165588
713.759	0.0165602
713.837	0.0165817
713.915	0.0165776
713.993	0.0165581
714.071	0.0167118
714.149	0.0167842
714.227	0.0165684
714.306	0.0167828
714.384	0.0168298
714.462	0.0168346
714.540	0.0167263
714.618	0.0168062
714.696	0.0166518
714.774	0.0167360
714.852	0.0167497
714.931	0.0167068
715.009	0.0167564
715.087	0.0167142
715.165	0.0167296
715.243	0.0168472
715.321	0.0167155
715.399	0.0167661
715.477	0.0167538
715.556	0.0166932
715.634	0.0165753
715.712	0.0166921
715.790	0.0165862
715.868	0.0167590
715.946	0.0167031
716.024	0.0165050
716.102	0.0164571
716.181	0.0164998
716.259	0.0163972
716.337	0.0164543
716.415	0.0165441
716.493	0.0164325
716.571	0.0164827
716.649	0.0163855
716.727	0.0162932
716.806	0.0163329
716.884	0.0163520
716.962	0.0162851
717.040	0.0163692
717.118	0.0163149
717.196	0.0163226
717.274	0.0163815
717.352	0.0163206
717.431	0.0164140
717.509	0.0163756
717.587	0.0163261
717.665	0.0163379
717.743	0.0164400
717.821	0.0164367
717.899	0.0164244
717.977	0.0164153
718.056	0.0165171
718.134	0.0164883
718.212	0.0165353
718.290	0.0164413
718.368	0.0164391
718.446	0.0165477
718.524	0.0165839
718.602	0.0165602
718.681	0.0166544
718.759	0.0165131
718.837	0.0166083
718.915	0.0166508
718.993	0.0165902
719.071	0.0166617
719.149	0.0166286
719.227	0.0164167
719.306	0.0164983
719.384	0.0166558
719.462	0.0165154
719.540	0.0165918
719.618	0.0164964
719.696	0.0165185
719.774	0.0164619
719.852	0.0165075
719.931	0.0164463
720.009	0.0164651
720.087	0.0163950
720.165	0.0162989
720.243	0.0164226
720.321	0.0163045
720.399	0.0163256
720.477	0.0163390
720.556	0.0164420
720.634	0.0163522
720.712	0.0162588
720.790	0.0164195
720.868	0.0163421
720.946	0.0163007
721.024	0.0164085
721.102	0.0164808
721.181	0.0164221
721.259	0.0163535
721.337	0.0164127
721.415	0.0164784
721.493	0.0164121
721.571	0.0164531
721.649	0.0164765
721.727	0.0165598
721.806	0.0166178
721.884	0.0167019
721.962	0.0166164
722.040	0.0165187
722.118	0.0166113
722.196	0.0166689
722.274	0.0165591
722.352	0.0165905
722.431	0.0167345
722.509	0.0167917
722.587	0.0166521
722.665	0.0165926
722.743	0.0167271
722.821	0.0167043
722.899	0.0166094
722.977	0.0166953
723.056	0.0166918
723.134	0.0165044
723.212	0.0166215
723.290	0.0165975
723.368	0.0165746
723.446	0.0166521
723.524	0.0166389
723.602	0.0165865
723.681	0.0167003
723.759	0.0165276
723.837	0.0164638
723.915	0.0164480
723.993	0.0164397
724.071	0.0164172
724.149	0.0164409
724.227	0.0164638
724.306	0.0165025
724.384	0.0166774
724.462	0.0164452
724.540	0.0164206
724.618	0.0165300
724.696	0.0166598
724.774	0.0166837
724.852	0.0165260
724.931	0.0164935
725.009	0.0166698
725.087	0.0165379
725.165	0.0166574
725.243	0.0166562
725.321	0.0166285
725.399	0.0164662
725.477	0.0166052
725.556	0.0165462
725.634	0.0165265
725.712	0.0166450
725.790	0.0166007
725.868	0.0165897
725.946	0.0164835
726.024	0.0164716
726.102	0.0165857
726.181	0.0165790
726.259	0.0166180
726.337	0.0166106
726.415	0.0164034
726.493	0.0165363
726.571	0.0165343
726.649	0.0164990
726.727	0.0165411
726.806	0.0164595
726.884	0.0163413
726.962	0.0164612
727.040	0.0164314
727.118	0.0164400
727.196	0.0163666
727.274	0.0162669
727.352	0.0164818
727.431	0.0164276
727.509	0.0162933
727.587	0.0161859
727.665	0.0162917
727.743	0.0163040
727.821	0.0163052
727.899	0.0161957
727.977	0.0161955
728.056	0.0163457
728.134	0.0163176
728.212	0.0163586
728.290	0.0163111
728.368	0.0163730
728.446	0.0164626
728.524	0.0163241
728.602	0.0163559
728.681	0.0162688
728.759	0.0164831
728.837	0.0164180
728.915	0.0163963
728.993	0.0164896
729.071	0.0165829
729.149	0.0164639
729.227	0.0165087
729.306	0.0165143
729.384	0.0164842
729.462	0.0165725
729.540	0.0165341
729.618	0.0164955
729.696	0.0165809
729.774	0.0165380
729.852	0.0165178
729.931	0.0165002
730.009	0.0166016
730.087	0.0165463
730.165	0.0165240
730.243	0.0165060
730.321	0.0163884
730.399	0.0165092
730.477	0.0165746
730.556	0.0165565
730.634	0.0163544
730.712	0.0163999
730.790	0.0163362
730.868	0.0163761
730.946	0.0162430
731.024	0.0165128
731.102	0.0163451
731.181	0.0164120
731.259	0.0162482
731.337	0.0162661
731.415	0.0162937
731.493	0.0163704
731.571	0.0165984
731.649	0.0164468
731.727	0.0164816
731.806	0.0164140
731.884	0.0165011
731.962	0.0164966
732.040	0.0165007
732.118	0.0167656
732.196	0.0165474
732.274	0.0165150
732.352	0.0165916
732.431	0.0166000
732.509	0.0167157
732.587	0.0167432
732.665	0.0166997
732.743	0.0167136
732.821	0.0166946
732.899	0.0167392
732.977	0.0165726
733.056	0.0166451
733.134	0.0166928
733.212	0.0166145
733.290	0.0166750
733.368	0.0165659
733.446	0.0166525
733.524	0.0166769
733.602	0.0165727
733.681	0.0164067
733.759	0.0165437
733.837	0.0165534
733.915	0.0164183
733.993	0.0164954
734.071	0.0163911
734.149	0.0163908
734.227	0.0163890
734.306	0.0163499
734.384	0.0163740
734.462	0.0165109
734.540	0.0163475
734.618	0.0163805
734.696	0.0163900
734.774	0.0163113
734.852	0.0163755
734.931	0.0165446
735.009	0.0164087
735.087	0.0163380
735.165	0.0165337
735.243	0.0165759
735.321	0.0164137
735.399	0.0164059
735.477	0.0165198
735.556	0.0165755
735.634	0.0164717
735.712	0.0165518
735.790	0.0165461
735.868	0.0165986
735.946	0.0166257
736.024	0.0164680
736.102	0.0165845
736.181	0.0165353
736.259	0.0165835
736.337	0.0165514
736.415	0.0166971
736.493	0.0165365
736.571	0.0167978
736.649	0.0166759
736.727	0.0166575
736.806	0.0165656
736.884	0.0167075
736.962	0.0168069
737.040	0.0166505
737.118	0.0167606
737.196	0.0167680
737.274	0.0166792
737.352	0.0167222
737.431	0.0167166
737.509	0.0165722
737.587	0.0165614
737.665	0.0165654
737.743	0.0165372
737.821	0.0165057
737.899	0.0166789
737.977	0.0166362
738.056	0.0164838
738.134	0.0165032
738.212	0.0165849
738.290	0.0164711
738.368	0.0164780
738.446	0.0164252
738.524	0.0164838
738.602	0.0164979
738.681	0.0164870
738.759	0.0164603
738.837	0.0165248
738.915	0.0164303
738.993	0.0163378
739.071	0.0164557
739.149	0.0163586
739.227	0.0164285
739.306	0.0164404
739.384	0.0165337
739.462	0.0162719
739.540	0.0163927
739.618	0.0163251
739.696	0.0162320
739.774	0.0163050
739.852	0.0163782
739.931	0.0164216
740.009	0.0163783
740.087	0.0163505
740.165	0.0163174
740.243	0.0162684
740.321	0.0162760
740.399	0.0164145
740.477	0.0163687
740.556	0.0163602
740.634	0.0164056
740.712	0.0164777
740.790	0.0166078
740.868	0.0165543
740.946	0.0164213
741.024	0.0165859
741.102	0.0164182
741.181	0.0164569
741.259	0.0165232
741.337	0.0166797
741.415	0.0165754
741.493	0.0165240
741.571	0.0164607
741.649	0.0164424
741.727	0.0165340
741.806	0.0165556
741.884	0.0165641
741.962	0.0165726
742.040	0.0166225
742.118	0.0165206
742.196	0.0166251
742.274	0.0165812
742.352	0.0165208
742.431	0.0164994
742.509	0.0164852
742.587	0.0165485
742.665	0.0164658
742.743	0.0165556
742.821	0.0165028
742.899	0.0165226
742.977	0.0165274
743.056	0.0166063
743.134	0.0165354
743.212	0.0166467
743.290	0.0165218
743.368	0.0165561
743.446	0.0164761
743.524	0.0163989
743.602	0.0163989
743.681	0.0164453
743.759	0.0164226
743.837	0.0166737
743.915	0.0165864
743.993	0.0163433
744.071	0.0164639
744.149	0.0164725
744.227	0.0166049
744.306	0.0164817
744.384	0.0165009
744.462	0.0164278
744.540	0.0166033
744.618	0.0163348
744.696	0.0165030
744.774	0.0166815
744.852	0.0164108
744.931	0.0163636
745.009	0.0164244
745.087	0.0165070
745.165	0.0165458
745.243	0.0164967
745.321	0.0165695
745.399	0.0165663
745.477	0.0165128
745.556	0.0164852
745.634	0.0164343
745.712	0.0165193
745.790	0.0165414
745.868	0.0165635
745.946	0.0166915
746.024	0.0165158
746.102	0.0166181
746.181	0.0166045
746.259	0.0166362
746.337	0.0164637
746.415	0.0165131
746.493	0.0166140
746.571	0.0164391
746.649	0.0166856
746.727	0.0165067
746.806	0.0166473
746.884	0.0166072
746.962	0.0165273
747.040	0.0166369
747.118	0.0164935
747.196	0.0166022
747.274	0.0166367
747.352	0.0166503
747.431	0.0164376
747.509	0.0166549
747.587	0.0164765
747.665	0.0164214
747.743	0.0165528
747.821	0.0165190
747.899	0.0165176
747.977	0.0166411
748.056	0.0164983
748.134	0.0165218
748.212	0.0164840
748.290	0.0166230
748.368	0.0165762
748.446	0.0165411
748.524	0.0165361
748.602	0.0165344
748.681	0.0164870
748.759	0.0165185
748.837	0.0164697
748.915	0.0164917
748.993	0.0164718
749.071	0.0165034
749.149	0.0165327
749.227	0.0165917
749.306	0.0166252
749.384	0.0164736
749.462	0.0165554
749.540	0.0166240
749.618	0.0164175
749.696	0.0165585
749.774	0.0165817
749.852	0.0165422
749.931	0.0164799
750.009	0.0164827
750.087	0.0165450
750.165	0.0164728
750.243	0.0164053
750.321	0.0165062
750.399	0.0164478
750.477	0.0164785
750.556	0.0164715
750.634	0.0164017
750.712	0.0164738
750.790	0.0165160
750.868	0.0164340
750.946	0.0164847
751.024	0.0164800
751.102	0.0164812
751.181	0.0164894
751.259	0.0164226
751.337	0.0163406
751.415	0.0163137
751.493	0.0164984
751.571	0.0164627
751.649	0.0164281
751.727	0.0163455
751.806	0.0163726
751.884	0.0164725
751.962	0.0165651
752.040	0.0164280
752.118	0.0164372
752.196	0.0163853
752.274	0.0164661
752.352	0.0166068
752.431	0.0165030
752.509	0.0165694
752.587	0.0165389
752.665	0.0165187
752.743	0.0166428
752.821	0.0165539
752.899	0.0165816
752.977	0.0164655
753.056	0.0165936
753.134	0.0165607
753.212	0.0167006
753.290	0.0167112
753.368	0.0165892
753.446	0.0164810
753.524	0.0164237
753.602	0.0164400
753.681	0.0166457
753.759	0.0165827
753.837	0.0165492
753.915	0.0164951
753.993	0.0164883
754.071	0.0166305
754.149	0.0164902
754.227	0.0163644
754.306	0.0164764
754.384	0.0166302
754.462	0.0165718
754.540	0.0164017
754.618	0.0164968
754.696	0.0164720
754.774	0.0166702
754.852	0.0165612
754.931	0.0163595
755.009	0.0163434
755.087	0.0164926
755.165	0.0164503
755.243	0.0163873
755.321	0.0162673
755.399	0.0162762
755.477	0.0164043
755.556	0.0163850
755.634	0.0163741
755.712	0.0165236
755.790	0.0163669
755.868	0.0163903
755.946	0.0165218
756.024	0.0163215
756.102	0.0164702
756.181	0.0163651
756.259	0.0164846
756.337	0.0164598
756.415	0.0165161
756.493	0.0165276
756.571	0.0164989
756.649	0.0162674
756.727	0.0165168
756.806	0.0165373
756.884	0.0164972
756.962	0.0164137
757.040	0.0165108
757.118	0.0164796
757.196	0.0166183
757.274	0.0165591
757.352	0.0165282
757.431	0.0164858
757.509	0.0165979
757.587	0.0165434
757.665	0.0163461
757.743	0.0164830
757.821	0.0165107
757.899	0.0165199
757.977	0.0165995
758.056	0.0164988
758.134	0.0163819
758.212	0.0164893
758.290	0.0165168
758.368	0.0164939
758.446	0.0165048
758.524	0.0165202
758.602	0.0165099
758.681	0.0164838
758.759	0.0163610
758.837	0.0165251
758.915	0.0164116
758.993	0.0165579
759.071	0.0163165
759.149	0.0164292
759.227	0.0164075
759.306	0.0163284
759.384	0.0162265
759.462	0.0164027
759.540	0.0164901
759.618	0.0162446
759.696	0.0163173
759.774	0.0162948
759.852	0.0162106
759.931	0.0162742
760.009	0.0163171
760.087	0.0163040
760.165	0.0163226
760.243	0.0163052
760.321	0.0164459
760.399	0.0163383
760.477	0.0162724
760.556	0.0162460
760.634	0.0162692
760.712	0.0164181
760.790	0.0164630
760.868	0.0163370
760.946	0.0163406
761.024	0.0164371
761.102	0.0164833
761.181	0.0164797
761.259	0.0165048
761.337	0.0163427
761.415	0.0163907
761.493	0.0164033
761.571	0.0166277
761.649	0.0165787
761.727	0.0164855
761.806	0.0164830
761.884	0.0164881
761.962	0.0164590
762.040	0.0163720
762.118	0.0164804
762.196	0.0163660
762.274	0.0164489
762.352	0.0166562
762.431	0.0163844
762.509	0.0164556
762.587	0.0164880
762.665	0.0165465
762.743	0.0165677
762.821	0.0165093
762.899	0.0164794
762.977	0.0165440
763.056	0.0165652
763.134	0.0164475
763.212	0.0166181
763.290	0.0165385
763.368	0.0165251
763.446	0.0166068
763.524	0.0164545
763.602	0.0165639
763.681	0.0164565
763.759	0.0165302
763.837	0.0166843
763.915	0.0165995
763.993	0.0166552
764.071	0.0165598
764.149	0.0167135
764.227	0.0166450
764.306	0.0165166
764.384	0.0166040
764.462	0.0165985
764.540	0.0165781
764.618	0.0165554
764.696	0.0167519
764.774	0.0166981
764.852	0.0166476
764.931	0.0167046
765.009	0.0167666
765.087	0.0166869
765.165	0.0165403
765.243	0.0165902
765.321	0.0165942
765.399	0.0165485
765.477	0.0167048
765.556	0.0165242
765.634	0.0164770
765.712	0.0166089
765.790	0.0166539
765.868	0.0165855
765.946	0.0166889
766.024	0.0164718
766.102	0.0165465
766.181	0.0166573
766.259	0.0165105
766.337	0.0164394
766.415	0.0165929
766.493	0.0165676
766.571	0.0165605
766.649	0.0165015
766.727	0.0165850
766.806	0.0165684
766.884	0.0166227
766.962	0.0166268
767.040	0.0165471
767.118	0.0166068
767.196	0.0165974
767.274	0.0166039
767.352	0.0165832
767.431	0.0165335
767.509	0.0164890
767.587	0.0165807
767.665	0.0165257
767.743	0.0164845
767.821	0.0165402
767.899	0.0164487
767.977	0.0165997
768.056	0.0166264
768.134	0.0165594
768.212	0.0165652
768.290	0.0165706
768.368	0.0166608
768.446	0.0165170
768.524	0.0166006
768.602	0.0165906
768.681	0.0165591
768.759	0.0165961
768.837	0.0166142
768.915	0.0166710
768.993	0.0166590
769.071	0.0166020
769.149	0.0165675
769.227	0.0166274
769.306	0.0166438
769.384	0.0165781
769.462	0.0166391
769.540	0.0165894
769.618	0.0165016
769.696	0.0166497
769.774	0.0167125
769.852	0.0166083
769.931	0.0165630
770.009	0.0164503
770.087	0.0167216
770.165	0.0167329
770.243	0.0166934
770.321	0.0164697
770.399	0.0165913
770.477	0.0166499
770.556	0.0165756
770.634	0.0166783
770.712	0.0165549
770.790	0.0164634
770.868	0.0165239
770.946	0.0164848
771.024	0.0164628
771.102	0.0164345
771.181	0.0163348
771.259	0.0165031
771.337	0.0163848
771.415	0.0163718
771.493	0.0163795
771.571	0.0163390
771.649	0.0162215
771.727	0.0163344
771.806	0.0163431
771.884	0.0163204
771.962	0.0164261
772.040	0.0163235
772.118	0.0163613
772.196	0.0163017
772.274	0.0164053
772.352	0.0164066
772.431	0.0163667
772.509	0.0163821
772.587	0.0164597
772.665	0.0164902
772.743	0.0163933
772.821	0.0164372
772.899	0.0163795
772.977	0.0163653
773.056	0.0166316
773.134	0.0165693
773.212	0.0166039
773.290	0.0164786
773.368	0.0165565
773.446	0.0163113
773.524	0.0165716
773.602	0.0165284
773.681	0.0164736
773.759	0.0166054
773.837	0.0165649
773.915	0.0165582
773.993	0.0165002
774.071	0.0165646
774.149	0.0165649
774.227	0.0165099
774.306	0.0164369
774.384	0.0165124
774.462	0.0165323
774.540	0.0164850
774.618	0.0165313
774.696	0.0163561
774.774	0.0163831
774.852	0.0164512
774.931	0.0164850
775.009	0.0165954
775.087	0.0165417
775.165	0.0164370
775.243	0.0166684
775.321	0.0165219
775.399	0.0165343
775.477	0.0164938
775.556	0.0165474
775.634	0.0166628
775.712	0.0166607
775.790	0.0167488
775.868	0.0166724
775.946	0.0166529
776.024	0.0168362
776.102	0.0166399
776.181	0.0167461
776.259	0.0164750
776.337	0.0166431
776.415	0.0167406
776.493	0.0166295
776.571	0.0165798
776.649	0.0164679
776.727	0.0166286
776.806	0.0165724
776.884	0.0166126
776.962	0.0166713
777.040	0.0165696
777.118	0.0165831
777.196	0.0167424
777.274	0.0166993
777.352	0.0166253
777.431	0.0165847
777.509	0.0166081
777.587	0.0167207
777.665	0.0166581
777.743	0.0167005
777.821	0.0167146
777.899	0.0167225
777.977	0.0165961
778.056	0.0166814
778.134	0.0167062
778.212	0.0166676
778.290	0.0167644
778.368	0.0167652
778.446	0.0166915
778.524	0.0167149
778.602	0.0169057
778.681	0.0167757
778.759	0.0166550
778.837	0.0166571
778.915	0.0167467
778.993	0.0166399
779.071	0.0166581
779.149	0.0166360
779.227	0.0166510
779.306	0.0166980
779.384	0.0166772
779.462	0.0165894
779.540	0.0165643
779.618	0.0165434
779.696	0.0164934
779.774	0.0166023
779.852	0.0165388
779.931	0.0166061
780.009	0.0166985
780.087	0.0166302
780.165	0.0165659
780.243	0.0167017
780.321	0.0166137
780.399	0.0165192
780.477	0.0165389
780.556	0.0164563
780.634	0.0164243
780.712	0.0164566
780.790	0.0165428
780.868	0.0164874
780.946	0.0163592
781.024	0.0162601
781.102	0.0165342
781.181	0.0164490
781.259	0.0165471
781.337	0.0165247
781.415	0.0165116
781.493	0.0163654
781.571	0.0165074
781.649	0.0163985
781.727	0.0164436
781.806	0.0164631
781.884	0.0164636
781.962	0.0164513
782.040	0.0164519
782.118	0.0166039
782.196	0.0163612
782.274	0.0164415
782.352	0.0164184
782.431	0.0166473
782.509	0.0166140
782.587	0.0164321
782.665	0.0164539
782.743	0.0164664
782.821	0.0165874
782.899	0.0166360
782.977	0.0166599
783.056	0.0165577
783.134	0.0165476
783.212	0.0165282
783.290	0.0164153
783.368	0.0164297
783.446	0.0165302
783.524	0.0165101
783.602	0.0165448
783.681	0.0165608
783.759	0.0165289
783.837	0.0165246
783.915	0.0164631
783.993	0.0165128
784.071	0.0165041
784.149	0.0164548
784.227	0.0166502
784.306	0.0166302
784.384	0.0164349
784.462	0.0166348
784.540	0.0165907
784.618	0.0165258
784.696	0.0165634
784.774	0.0164783
784.852	0.0164729
784.931	0.0166469
785.009	0.0165765
785.087	0.0165186
785.165	0.0164195
785.243	0.0166250
785.321	0.0166132
785.399	0.0165514
785.477	0.0165750
785.556	0.0166105
785.634	0.0163937
785.712	0.0165497
785.790	0.0166225
785.868	0.0166054
785.946	0.0165023
786.024	0.0164266
786.102	0.0165781
786.181	0.0166580
786.259	0.0165437
786.337	0.0164476
786.415	0.0165232
786.493	0.0167401
786.571	0.0165926
786.649	0.0165086
786.727	0.0164520
786.806	0.0165810
786.884	0.0167453
786.962	0.0166268
787.040	0.0165453
787.118	0.0166506
787.196	0.0166901
787.274	0.0167322
787.352	0.0166862
787.431	0.0165337
787.509	0.0165286
787.587	0.0166400
787.665	0.0166833
787.743	0.0166486
787.821	0.0165865
787.899	0.0165940
787.977	0.0166382
788.056	0.0166355
788.134	0.0167172
788.212	0.0167076
788.290	0.0166835
788.368	0.0165751
788.446	0.0165102
788.524	0.0165479
788.602	0.0165048
788.681	0.0164413
788.759	0.0166034
788.837	0.0165724
788.915	0.0164673
788.993	0.0165322
789.071	0.0165483
789.149	0.0165058
789.227	0.0164812
789.306	0.0165206
789.384	0.0164465
789.462	0.0164913
789.540	0.0164156
789.618	0.0163096
789.696	0.0164216
789.774	0.0164637
789.852	0.0163743
789.931	0.0163666
790.009	0.0162981
790.087	0.0164429
790.165	0.0163898
790.243	0.0163457
790.321	0.0163293
790.399	0.0163544
790.477	0.0162492
790.556	0.0163519
790.634	0.0162944
790.712	0.0163678
790.790	0.0164138
790.868	0.0162630
790.946	0.0164237
791.024	0.0162769
791.102	0.0163902
791.181	0.0165424
791.259	0.0162300
791.337	0.0163599
791.415	0.0163387
791.493	0.0165134
791.571	0.0164870
791.649	0.0163286
791.727	0.0165684
791.806	0.0164436
791.884	0.0165453
791.962	0.0165412
792.040	0.0166246
792.118	0.0165505
792.196	0.0165601
792.274	0.0166344
792.352	0.0164161
792.431	0.0164785
792.509	0.0167102
792.587	0.0166553
792.665	0.0164592
792.743	0.0166962
792.821	0.0165975
792.899	0.0165789
792.977	0.0167631
793.056	0.0167016
793.134	0.0166194
793.212	0.0166476
793.290	0.0167339
793.368	0.0165849
793.446	0.0168867
793.524	0.0167293
793.602	0.0166209
793.681	0.0165818
793.759	0.0167098
793.837	0.0166635
793.915	0.0167849
793.993	0.0167336
794.071	0.0167567
794.149	0.0168322
794.227	0.0166680
794.306	0.0166995
794.384	0.0167048
794.462	0.0166280
794.540	0.0165977
794.618	0.0165918
794.696	0.0167030
794.774	0.0166219
794.852	0.0167286
794.931	0.0166085
795.009	0.0165390
795.087	0.0167036
795.165	0.0166309
795.243	0.0165937
795.321	0.0166740
795.399	0.0164772
795.477	0.0163876
795.556	0.0166275
795.634	0.0164799
795.712	0.0165561
795.790	0.0165469
795.868	0.0166317
795.946	0.0165272
796.024	0.0165940
796.102	0.0165313
796.181	0.0165023
796.259	0.0166177
796.337	0.0165500
796.415	0.0164503
796.493	0.0164303
796.571	0.0164973
796.649	0.0165766
796.727	0.0165320
796.806	0.0165443
796.884	0.0164333
796.962	0.0165320
797.040	0.0165807
797.118	0.0164783
797.196	0.0164918
797.274	0.0164663
797.352	0.0164197
797.431	0.0164946
797.509	0.0163354
797.587	0.0165388
797.665	0.0165350
797.743	0.0164923
797.821	0.0165198
797.899	0.0165579
797.977	0.0164980
798.056	0.0164415
798.134	0.0166184
798.212	0.0165729
798.290	0.0165124
798.368	0.0165316
798.446	0.0164747
798.524	0.0166382
798.602	0.0165858
798.681	0.0166903
798.759	0.0164976
798.837	0.0165897
798.915	0.0166354
798.993	0.0165285
799.071	0.0165059
799.149	0.0167205
799.227	0.0167493
799.306	0.0165534
799.384	0.0163940
799.462	0.0165854
799.540	0.0166985
799.618	0.0167363
799.696	0.0166597
799.774	0.0165497
799.852	0.0165483
799.931	0.0166323
800.009	0.0167053
800.087	0.0165490
800.165	0.0166254
800.243	0.0166412
800.321	0.0168127
800.399	0.0165863
800.477	0.0165788
800.556	0.0166765
800.634	0.0165785
800.712	0.0166225
800.790	0.0165170
800.868	0.0165552
800.946	0.0165150
801.024	0.0164317
801.102	0.0165777
801.181	0.0165063
801.259	0.0164887
801.337	0.0164510
801.415	0.0165533
801.493	0.0164958
801.571	0.0164319
801.649	0.0165944
801.727	0.0164774
801.806	0.0164091
801.884	0.0164104
801.962	0.0164490
802.040	0.0163912
802.118	0.0164411
802.196	0.0164301
802.274	0.0163187
802.352	0.0164241
802.431	0.0164926
802.509	0.0164680
802.587	0.0164539
802.665	0.0165613
802.743	0.0166396
802.821	0.0166754
802.899	0.0164812
802.977	0.0165570
803.056	0.0164995
803.134	0.0164626
803.212	0.0165483
803.290	0.0165708
803.368	0.0165922
803.446	0.0165928
803.524	0.0166025
803.602	0.0164570
803.681	0.0165691
803.759	0.0164804
803.837	0.0166109
803.915	0.0165034
803.993	0.0166028
804.071	0.0164800
804.149	0.0165861
804.227	0.0165349
804.306	0.0164388
804.384	0.0165829
804.462	0.0166687
804.540	0.0164595
804.618	0.0164459
804.696	0.0164238
804.774	0.0164793
804.852	0.0164503
804.931	0.0163739
805.009	0.0164520
805.087	0.0163544
805.165	0.0164591
805.243	0.0165208
805.321	0.0164365
805.399	0.0163631
805.477	0.0163454
805.556	0.0165100
805.634	0.0164680
805.712	0.0163421
805.790	0.0163596
805.868	0.0165203
805.946	0.0164716
806.024	0.0163442
806.102	0.0163914
806.181	0.0163644
806.259	0.0163651
806.337	0.0164776
806.415	0.0163799
806.493	0.0163477
806.571	0.0165057
806.649	0.0164286
806.727	0.0165418
806.806	0.0164413
806.884	0.0164453
806.962	0.0163614
807.040	0.0164989
807.118	0.0163927
807.196	0.0164286
807.274	0.0165746
807.352	0.0166527
807.431	0.0165400
807.509	0.0164780
807.587	0.0166880
807.665	0.0165476
807.743	0.0166853
807.821	0.0166651
807.899	0.0165701
807.977	0.0167114
808.056	0.0168115
808.134	0.0167028
808.212	0.0168986
808.290	0.0166966
808.368	0.0166785
808.446	0.0166875
808.524	0.0168106
808.602	0.0165416
808.681	0.0167329
808.759	0.0167242
808.837	0.0166348
808.915	0.0166449
808.993	0.0166171
809.071	0.0166699
809.149	0.0166580
809.227	0.0166183
809.306	0.0167590
809.384	0.0167014
809.462	0.0165113
809.540	0.0165803
809.618	0.0166441
809.696	0.0166825
809.774	0.0166203
809.852	0.0165515
809.931	0.0166442
810.009	0.0166534
810.087	0.0166824
810.165	0.0165076
810.243	0.0165012
810.321	0.0165379
810.399	0.0165649
810.477	0.0164696
810.556	0.0165363
810.634	0.0165284
810.712	0.0165606
810.790	0.0164974
810.868	0.0165025
810.946	0.0166457
811.024	0.0164052
811.102	0.0164621
811.181	0.0165316
811.259	0.0165409
811.337	0.0165201
811.415	0.0164315
811.493	0.0164780
811.571	0.0165220
811.649	0.0164622
811.727	0.0164294
811.806	0.0164463
811.884	0.0164822
811.962	0.0164630
812.040	0.0163787
812.118	0.0164782
812.196	0.0164754
812.274	0.0164323
812.352	0.0165334
812.431	0.0162384
812.509	0.0164983
812.587	0.0166747
812.665	0.0166479
812.743	0.0165561
812.821	0.0165382
812.899	0.0165328
812.977	0.0165404
813.056	0.0165600
813.134	0.0166195
813.212	0.0166438
813.290	0.0166213
813.368	0.0166208
813.446	0.0166090
813.524	0.0167985
813.602	0.0166190
813.681	0.0167009
813.759	0.0165316
813.837	0.0165762
813.915	0.0166515
813.993	0.0165873
814.071	0.0166589
814.149	0.0164860
814.227	0.0166248
814.306	0.0165347
814.384	0.0165208
814.462	0.0164972
814.540	0.0165499
814.618	0.0165176
814.696	0.0164986
814.774	0.0164442
814.852	0.0164792
814.931	0.0165623
815.009	0.0165520
815.087	0.0164554
815.165	0.0164504
815.243	0.0163370
815.321	0.0163618
815.399	0.0163267
815.477	0.0165205
815.556	0.0163658
815.634	0.0163575
815.712	0.0163802
815.790	0.0164531
815.868	0.0164803
815.946	0.0163988
816.024	0.0163753
816.102	0.0162902
816.181	0.0163484
816.259	0.0164267
816.337	0.0164131
816.415	0.0164475
816.493	0.0162430
816.571	0.0164167
816.649	0.0164030
816.727	0.0163028
816.806	0.0165186
816.884	0.0164301
816.962	0.0164098
817.040	0.0165002
817.118	0.0164357
817.196	0.0163599
817.274	0.0164357
817.352	0.0165290
817.431	0.0164474
817.509	0.0164684
817.587	0.0163531
817.665	0.0165078
817.743	0.0164379
817.821	0.0164811
817.899	0.0165240
817.977	0.0164516
818.056	0.0164603
818.134	0.0164551
818.212	0.0164842
818.290	0.0164212
818.368	0.0164719
818.446	0.0164934
818.524	0.0164813
818.602	0.0165011
818.681	0.0166777
818.759	0.0165165
818.837	0.0165464
818.915	0.0165826
818.993	0.0164371
819.071	0.0165725
819.149	0.0166470
819.227	0.0166135
819.306	0.0166461
819.384	0.0166693
819.462	0.0164624
819.540	0.0165876
819.618	0.0166724
819.696	0.0166367
819.774	0.0167683
819.852	0.0165949
819.931	0.0165976
820.009	0.0166846
820.087	0.0164732
820.165	0.0165453
820.243	0.0166046
820.321	0.0165255
820.399	0.0165937
820.477	0.0165262
820.556	0.0164324
820.634	0.0164833
820.712	0.0165651
820.790	0.0166370
820.868	0.0165436
820.946	0.0165092
821.024	0.0165100
821.102	0.0164496
821.181	0.0165736
821.259	0.0165581
821.337	0.0165128
821.415	0.0164464
821.493	0.0165065
821.571	0.0165971
821.649	0.0165804
821.727	0.0166860
821.806	0.0164962
821.884	0.0164909
821.962	0.0165760
822.040	0.0166633
822.118	0.0165419
822.196	0.0165955
822.274	0.0165409
822.352	0.0167218
822.431	0.0166534
822.509	0.0165929
822.587	0.0166105
822.665	0.0167356
822.743	0.0167072
822.821	0.0166123
822.899	0.0168000
822.977	0.0166236
823.056	0.0164345
823.134	0.0165887
823.212	0.0166213
823.290	0.0165680
823.368	0.0167611
823.446	0.0166921
823.524	0.0165806
823.602	0.0166672
823.681	0.0165226
823.759	0.0167230
823.837	0.0165949
823.915	0.0165728
823.993	0.0166196
824.071	0.0166971
824.149	0.0167194
824.227	0.0165128
824.306	0.0166148
824.384	0.0164919
824.462	0.0165424
824.540	0.0165346
824.618	0.0166732
824.696	0.0165729
824.774	0.0164992
824.852	0.0164899
824.931	0.0163769
825.009	0.0164882
825.087	0.0165032
825.165	0.0165084
825.243	0.0164577
825.321	0.0165697
825.399	0.0164915
825.477	0.0163496
825.556	0.0165007
825.634	0.0164495
825.712	0.0164272
825.790	0.0164079
825.868	0.0164259
825.946	0.0164990
826.024	0.0165163
826.102	0.0165500
826.181	0.0165874
826.259	0.0165686
826.337	0.0164968
826.415	0.0164625
826.493	0.0164520
826.571	0.0164972
826.649	0.0164617
826.727	0.0163621
826.806	0.0164517
826.884	0.0165690
826.962	0.0164646
827.040	0.0163747
827.118	0.0164262
827.196	0.0165508
827.274	0.0165270
827.352	0.0163983
827.431	0.0163390
827.509	0.0164861
827.587	0.0164678
827.665	0.0164667
827.743	0.0163867
827.821	0.0164636
827.899	0.0166268
827.977	0.0164866
828.056	0.0164539
828.134	0.0163232
828.212	0.0164673
828.290	0.0165840
828.368	0.0165551
828.446	0.0165401
828.524	0.0165188
828.602	0.0164938
828.681	0.0164754
828.759	0.0164357
828.837	0.0164655
828.915	0.0164969
828.993	0.0164391
829.071	0.0165615
829.149	0.0163848
829.227	0.0165430
829.306	0.0164626
829.384	0.0164290
829.462	0.0164619
829.540	0.0165192
829.618	0.0165041
829.696	0.0165657
829.774	0.0165549
829.852	0.0165476
829.931	0.0164713
830.009	0.0165450
830.087	0.0166001
830.165	0.0165457
830.243	0.0164977
830.321	0.0165694
830.399	0.0166281
830.477	0.0165704
830.556	0.0164584
830.634	0.0165609
830.712	0.0166185
830.790	0.0164541
830.868	0.0164488
830.946	0.0165889
831.024	0.0166324
831.102	0.0165143
831.181	0.0165431
831.259	0.0164700
831.337	0.0165622
831.415	0.0165789
831.493	0.0164266
831.571	0.0165804
831.649	0.0165404
831.727	0.0165265
831.806	0.0164821
831.884	0.0165964
831.962	0.0166276
832.040	0.0166335
832.118	0.0164932
832.196	0.0165319
832.274	0.0164891
832.352	0.0165115
832.431	0.0164935
832.509	0.0165209
832.587	0.0164953
832.665	0.0165625
832.743	0.0166042
832.821	0.0166008
832.899	0.0165989
832.977	0.0165994
833.056	0.0166187
833.134	0.0166718
833.212	0.0165681
833.290	0.0165507
833.368	0.0165328
833.446	0.0166718
833.524	0.0166257
833.602	0.0165142
833.681	0.0167207
833.759	0.0165551
833.837	0.0166583
833.915	0.0165820
833.993	0.0164713
834.071	0.0166485
834.149	0.0166829
834.227	0.0166492
834.306	0.0165385
834.384	0.0165788
834.462	0.0165115
834.540	0.0163988
834.618	0.0167679
834.696	0.0165415
834.774	0.0165450
834.852	0.0167257
834.931	0.0165346
835.009	0.0165223
835.087	0.0166610
835.165	0.0166042
835.243	0.0165264
835.321	0.0166540
835.399	0.0165698
835.477	0.0167561
835.556	0.0163866
835.634	0.0165195
835.712	0.0166323
835.790	0.0164812
835.868	0.0165269
835.946	0.0166005
836.024	0.0165852
836.102	0.0166364
836.181	0.0165569
836.259	0.0163977
836.337	0.0165333
836.415	0.0166181
836.493	0.0166313
836.571	0.0164308
836.649	0.0166011
836.727	0.0164308
836.806	0.0164525
836.884	0.0166213
836.962	0.0164591
837.040	0.0164422
837.118	0.0164716
837.196	0.0165984
837.274	0.0163891
837.352	0.0166659
837.431	0.0166003
837.509	0.0164197
837.587	0.0165031
837.665	0.0166625
837.743	0.0164384
837.821	0.0165716
837.899	0.0164300
837.977	0.0164619
838.056	0.0164230
838.134	0.0163413
838.212	0.0165468
838.290	0.0165656
838.368	0.0165371
838.446	0.0164621
838.524	0.0164275
838.602	0.0164822
838.681	0.0165064
838.759	0.0166750
838.837	0.0164272
838.915	0.0165721
838.993	0.0165760
839.071	0.0165656
839.149	0.0165114
839.227	0.0165726
839.306	0.0164912
839.384	0.0165997
839.462	0.0164729
839.540	0.0165863
839.618	0.0165257
839.696	0.0168183
839.774	0.0165868
839.852	0.0164520
839.931	0.0165954
840.009	0.0166837
840.087	0.0166615
840.165	0.0165748
840.243	0.0165210
840.321	0.0166811
840.399	0.0167256
840.477	0.0166064
840.556	0.0167719
840.634	0.0166119
840.712	0.0166606
840.790	0.0166171
840.868	0.0165340
840.946	0.0166423
841.024	0.0167332
841.102	0.0167249
841.181	0.0165211
841.259	0.0165892
841.337	0.0166516
841.415	0.0166036
841.493	0.0165250
841.571	0.0166446
841.649	0.0165236
841.727	0.0165997
841.806	0.0164723
841.884	0.0165981
841.962	0.0164423
842.040	0.0165524
842.118	0.0164267
842.196	0.0166116
842.274	0.0164634
842.352	0.0164693
842.431	0.0164974
842.509	0.0166572
842.587	0.0165665
842.665	0.0165739
842.743	0.0163965
842.821	0.0163844
842.899	0.0166098
842.977	0.0163378
843.056	0.0165110
843.134	0.0165044
843.212	0.0164810
843.290	0.0163451
843.368	0.0164767
843.446	0.0164805
843.524	0.0165234
843.602	0.0164781
843.681	0.0164054
843.759	0.0164333
843.837	0.0163890
843.915	0.0163438
843.993	0.0163540
844.071	0.0164755
844.149	0.0166264
844.227	0.0165184
844.306	0.0165247
844.384	0.0164218
844.462	0.0164972
844.540	0.0164993
844.618	0.0164754
844.696	0.0164546
844.774	0.0165310
844.852	0.0164160
844.931	0.0165868
845.009	0.0164285
845.087	0.0164651
845.165	0.0164594
845.243	0.0165362
845.321	0.0166619
845.399	0.0165205
845.477	0.0164526
845.556	0.0166424
845.634	0.0164689
845.712	0.0165443
845.790	0.0165606
845.868	0.0166443
845.946	0.0166471
846.024	0.0167140
846.102	0.0166542
846.181	0.0166987
846.259	0.0165688
846.337	0.0166395
846.415	0.0165663
846.493	0.0165187
846.571	0.0166115
846.649	0.0165770
846.727	0.0165165
846.806	0.0165607
846.884	0.0165633
846.962	0.0165692
847.040	0.0165845
847.118	0.0166652
847.196	0.0166204
847.274	0.0166513
847.352	0.0166471
847.431	0.0166602
847.509	0.0166805
847.587	0.0165041
847.665	0.0166194
847.743	0.0167136
847.821	0.0166223
847.899	0.0165611
847.977	0.0164374
848.056	0.0165159
848.134	0.0166729
848.212	0.0164676
848.290	0.0165461
848.368	0.0165472
848.446	0.0165214
848.524	0.0164687
848.602	0.0164738
848.681	0.0166270
848.759	0.0165189
848.837	0.0164027
848.915	0.0164342
848.993	0.0164138
849.071	0.0163709
849.149	0.0165924
849.227	0.0165326
849.306	0.0165443
849.384	0.0164944
849.462	0.0164883
849.540	0.0165071
849.618	0.0164087
849.696	0.0165105
849.774	0.0164803
849.852	0.0164657
849.931	0.0165190
850.009	0.0165280
850.087	0.0164604
850.165	0.0165934
850.243	0.0165588
850.321	0.0164719
850.399	0.0166033
850.477	0.0165204
850.556	0.0164666
850.634	0.0166838
850.712	0.0166623
850.790	0.0166610
850.868	0.0167322
850.946	0.0167305
851.024	0.0166533
851.102	0.0167909
851.181	0.0166943
851.259	0.0166819
851.337	0.0167462
851.415	0.0167981
851.493	0.0167957
851.571	0.0166656
851.649	0.0167377
851.727	0.0164966
851.806	0.0167273
851.884	0.0167210
851.962	0.0165913
852.040	0.0166947
852.118	0.0165517
852.196	0.0166101
852.274	0.0165820
852.352	0.0166602
852.431	0.0166374
852.509	0.0166731
852.587	0.0166531
852.665	0.0166245
852.743	0.0165244
852.821	0.0163948
852.899	0.0165504
852.977	0.0166203
853.056	0.0166149
853.134	0.0165619
853.212	0.0165153
853.290	0.0165549
853.368	0.0165137
853.446	0.0165846
853.524	0.0165888
853.602	0.0165054
853.681	0.0164908
853.759	0.0164017
853.837	0.0163914
853.915	0.0165862
853.993	0.0165990
854.071	0.0163940
854.149	0.0164474
854.227	0.0165491
854.306	0.0164989
854.384	0.0164453
854.462	0.0165022
854.540	0.0165275
854.618	0.0164833
854.696	0.0165446
854.774	0.0166476
854.852	0.0165220
854.931	0.0166187
855.009	0.0166003
855.087	0.0166281
855.165	0.0165487
855.243	0.0166509
855.321	0.0165374
855.399	0.0165273
855.477	0.0165717
855.556	0.0166145
855.634	0.0164974
855.712	0.0165163
855.790	0.0165305
855.868	0.0166600
855.946	0.0165736
856.024	0.0164450
856.102	0.0165777
856.181	0.0164819
856.259	0.0167609
856.337	0.0165641
856.415	0.0164681
856.493	0.0164577
856.571	0.0164928
856.649	0.0164606
856.727	0.0164086
856.806	0.0165618
856.884	0.0164499
856.962	0.0163915
857.040	0.0164605
857.118	0.0164098
857.196	0.0163986
857.274	0.0164131
857.352	0.0164375
857.431	0.0164014
857.509	0.0165385
857.587	0.0164407
857.665	0.0164962
857.743	0.0164993
857.821	0.0165691
857.899	0.0164350
857.977	0.0165373
858.056	0.0164884
858.134	0.0164690
858.212	0.0165472
858.290	0.0165961
858.368	0.0164433
858.446	0.0164442
858.524	0.0164404
858.602	0.0166222
858.681	0.0165884
858.759	0.0165155
858.837	0.0166063
858.915	0.0166219
858.993	0.0165237
859.071	0.0165429
859.149	0.0164410
859.227	0.0165072
859.306	0.0164163
859.384	0.0165163
859.462	0.0165285
859.540	0.0165257
859.618	0.0164837
859.696	0.0164503
859.774	0.0164266
859.852	0.0163599
859.931	0.0165695
860.009	0.0164718
860.087	0.0165170
860.165	0.0165469
860.243	0.0166168
860.321	0.0164985
860.399	0.0164576
860.477	0.0164265
860.556	0.0165276
860.634	0.0164314
860.712	0.0165172
860.790	0.0164315
860.868	0.0165040
860.946	0.0164764
861.024	0.0165737
861.102	0.0165170
861.181	0.0165346
861.259	0.0166573
861.337	0.0164933
861.415	0.0166193
861.493	0.0165395
861.571	0.0164074
861.649	0.0166284
861.727	0.0166506
861.806	0.0165271
861.884	0.0167988
861.962	0.0165882
862.040	0.0163959
862.118	0.0165769
862.196	0.0166723
862.274	0.0165520
862.352	0.0166919
862.431	0.0166138
862.509	0.0165000
862.587	0.0165089
862.665	0.0166915
862.743	0.0166380
862.821	0.0165084
862.899	0.0165295
862.977	0.0165288
863.056	0.0164968
863.134	0.0166436
863.212	0.0165275
863.290	0.0165656
863.368	0.0165737
863.446	0.0165844
863.524	0.0165276
863.602	0.0165630
863.681	0.0165016
863.759	0.0165911
863.837	0.0165157
863.915	0.0164719
863.993	0.0165449
864.071	0.0165054
864.149	0.0165432
864.227	0.0166518
864.306	0.0165450
864.384	0.0164696
864.462	0.0166290
864.540	0.0165208
864.618	0.0164320
864.696	0.0165428
864.774	0.0166145
864.852	0.0165768
864.931	0.0165437
865.009	0.0165183
865.087	0.0166698
865.165	0.0167358
865.243	0.0166142
865.321	0.0164739
865.399	0.0166224
865.477	0.0165482
865.556	0.0166448
865.634	0.0164874
865.712	0.0165250
865.790	0.0166528
865.868	0.0165948
865.946	0.0165739
866.024	0.0166662
866.102	0.0165894
866.181	0.0164410
866.259	0.0165739
866.337	0.0165355
866.415	0.0164541
866.493	0.0165845
866.571	0.0166072
866.649	0.0167056
866.727	0.0166789
866.806	0.0164973
866.884	0.0165245
866.962	0.0166431
867.040	0.0166604
867.118	0.0165839
867.196	0.0165096
867.274	0.0164921
867.352	0.0165149
867.431	0.0164674
867.509	0.0165356
867.587	0.0163667
867.665	0.0164719
867.743	0.0164393
867.821	0.0163788
867.899	0.0165827
867.977	0.0164722
868.056	0.0164320
868.134	0.0165235
868.212	0.0165557
868.290	0.0165061
868.368	0.0163596
868.446	0.0164012
868.524	0.0164722
868.602	0.0163698
868.681	0.0165090
868.759	0.0164574
868.837	0.0164034
868.915	0.0165851
868.993	0.0164276
869.071	0.0164770
869.149	0.0165240
869.227	0.0164718
869.306	0.0165659
869.384	0.0165554
869.462	0.0166512
869.540	0.0165719
869.618	0.0166405
869.696	0.0165240
869.774	0.0167031
869.852	0.0164977
869.931	0.0166542
870.009	0.0166245
870.087	0.0166663
870.165	0.0166310
870.243	0.0165627
870.321	0.0166080
870.399	0.0166180
870.477	0.0166406
870.556	0.0166792
870.634	0.0166804
870.712	0.0165772
870.790	0.0166699
870.868	0.0165278
870.946	0.0164665
871.024	0.0166096
871.102	0.0167075
871.181	0.0165989
871.259	0.0164815
871.337	0.0164774
871.415	0.0166972
871.493	0.0166106
871.571	0.0165384
871.649	0.0164820
871.727	0.0165935
871.806	0.0165884
871.884	0.0166019
871.962	0.0165813
872.040	0.0165168
872.118	0.0165479
872.196	0.0166778
872.274	0.0164568
872.352	0.0165180
872.431	0.0167513
872.509	0.0165985
872.587	0.0165376
872.665	0.0166299
872.743	0.0166846
872.821	0.0166428
872.899	0.0165941
872.977	0.0167216
873.056	0.0165503
873.134	0.0165511
873.212	0.0166965
873.290	0.0165905
873.368	0.0164760
873.446	0.0165773
873.524	0.0165118
873.602	0.0164618
873.681	0.0167216
873.759	0.0165751
873.837	0.0165172
873.915	0.0165998
873.993	0.0165418
874.071	0.0165292
874.149	0.0164708
874.227	0.0165675
874.306	0.0165395
874.384	0.0165445
874.462	0.0165224
874.540	0.0164907
874.618	0.0164868
874.696	0.0163618
874.774	0.0164584
874.852	0.0164598
874.931	0.0164913
875.009	0.0165252
875.087	0.0163694
875.165	0.0163423
875.243	0.0163811
875.321	0.0163040
875.399	0.0164148
875.477	0.0164719
875.556	0.0165319
875.634	0.0164877
875.712	0.0164397
875.790	0.0164093
875.868	0.0165308
875.946	0.0164949
876.024	0.0164559
876.102	0.0165322
876.181	0.0164171
876.259	0.0164750
876.337	0.0166217
876.415	0.0164710
876.493	0.0166160
876.571	0.0165593
876.649	0.0165246
876.727	0.0165729
876.806	0.0166463
876.884	0.0166086
876.962	0.0165640
877.040	0.0166155
877.118	0.0164884
877.196	0.0165102
877.274	0.0165629
877.352	0.0165434
877.431	0.0164912
877.509	0.0165048
877.587	0.0164752
877.665	0.0164538
877.743	0.0165109
877.821	0.0163882
877.899	0.0165565
877.977	0.0165637
878.056	0.0165718
878.134	0.0164929
878.212	0.0165126
878.290	0.0165508
878.368	0.0165269
878.446	0.0164790
878.524	0.0164957
878.602	0.0164413
878.681	0.0165054
878.759	0.0167068
878.837	0.0165408
878.915	0.0164024
878.993	0.0167081
879.071	0.0167126
879.149	0.0165786
879.227	0.0166291
879.306	0.0167441
879.384	0.0166007
879.462	0.0166219
879.540	0.0166469
879.618	0.0165781
879.696	0.0165269
879.774	0.0165822
879.852	0.0166982
879.931	0.0164935
880.009	0.0165150
880.087	0.0166512
880.165	0.0166325
880.243	0.0165166
880.321	0.0167482
880.399	0.0166299
880.477	0.0165472
880.556	0.0165752
880.634	0.0164154
880.712	0.0165754
880.790	0.0165276
880.868	0.0165910
880.946	0.0165659
881.024	0.0164629
881.102	0.0165130
881.181	0.0165058
881.259	0.0165408
881.337	0.0164771
881.415	0.0164938
881.493	0.0164261
881.571	0.0164160
881.649	0.0164068
881.727	0.0165613
881.806	0.0165085
881.884	0.0163958
881.962	0.0164492
882.040	0.0163441
882.118	0.0164553
882.196	0.0164429
882.274	0.0164973
882.352	0.0163253
882.431	0.0164902
882.509	0.0164332
882.587	0.0164957
882.665	0.0165204
882.743	0.0164777
882.821	0.0165136
882.899	0.0164743
882.977	0.0164248
883.056	0.0164331
883.134	0.0166533
883.212	0.0164611
883.290	0.0165739
883.368	0.0166354
883.446	0.0165302
883.524	0.0166282
883.602	0.0167161
883.681	0.0166455
883.759	0.0165364
883.837	0.0166090
883.915	0.0164954
883.993	0.0167289
884.071	0.0166703
884.149	0.0166190
884.227	0.0166080
884.306	0.0166176
884.384	0.0165974
884.462	0.0165252
884.540	0.0165601
884.618	0.0165739
884.696	0.0164501
884.774	0.0164591
884.852	0.0165726
884.931	0.0164289
885.009	0.0164188
885.087	0.0164001
885.165	0.0165334
885.243	0.0163902
885.321	0.0164310
885.399	0.0165074
885.477	0.0164916
885.556	0.0164915
885.634	0.0163876
885.712	0.0166283
885.790	0.0166103
885.868	0.0165590
885.946	0.0166277
886.024	0.0164877
886.102	0.0166183
886.181	0.0166344
886.259	0.0165805
886.337	0.0166325
886.415	0.0166439
886.493	0.0166447
886.571	0.0166082
886.649	0.0166176
886.727	0.0166856
886.806	0.0165957
886.884	0.0165690
886.962	0.0165564
887.040	0.0165620
887.118	0.0166273
887.196	0.0166731
887.274	0.0166795
887.352	0.0165227
887.431	0.0166098
887.509	0.0165113
887.587	0.0165813
887.665	0.0165781
887.743	0.0166516
887.821	0.0165695
887.899	0.0166151
887.977	0.0166451
888.056	0.0164595
888.134	0.0166668
888.212	0.0166411
888.290	0.0165388
888.368	0.0164985
888.446	0.0165826
888.524	0.0166070
888.602	0.0166259
888.681	0.0165841
888.759	0.0165925
888.837	0.0165693
888.915	0.0165690
888.993	0.0166006
889.071	0.0165868
889.149	0.0165669
889.227	0.0165357
889.306	0.0165665
889.384	0.0166506
889.462	0.0166056
889.540	0.0164606
889.618	0.0165376
889.696	0.0165090
889.774	0.0164841
889.852	0.0165408
889.931	0.0164703
890.009	0.0165767
890.087	0.0165529
890.165	0.0165126
890.243	0.0165546
890.321	0.0166643
890.399	0.0166217
890.477	0.0164289
890.556	0.0164957
890.634	0.0165210
890.712	0.0167097
890.790	0.0165498
890.868	0.0164756
890.946	0.0166438
891.024	0.0165577
891.102	0.0165672
891.181	0.0165618
891.259	0.0164387
891.337	0.0165224
891.415	0.0164805
891.493	0.0164818
891.571	0.0162222
891.649	0.0162172
891.727	0.0163795
891.806	0.0163858
891.884	0.0163720
891.962	0.0164043
892.040	0.0163355
892.118	0.0162013
892.196	0.0163993
892.274	0.0162780
892.352	0.0164366
892.431	0.0162611
892.509	0.0163520
892.587	0.0163320
892.665	0.0162864
892.743	0.0162901
892.821	0.0163943
892.899	0.0163448
892.977	0.0164178
893.056	0.0162384
893.134	0.0164899
893.212	0.0164082
893.290	0.0164525
893.368	0.0165248
893.446	0.0164486
893.524	0.0164534
893.602	0.0166080
893.681	0.0166162
893.759	0.0165598
893.837	0.0166019
893.915	0.0166251
893.993	0.0165044
894.071	0.0164974
894.149	0.0165860
894.227	0.0166398
894.306	0.0167552
894.384	0.0166464
894.462	0.0165032
894.540	0.0164371
894.618	0.0165312
894.696	0.0165775
894.774	0.0166471
894.852	0.0166610
894.931	0.0167552
895.009	0.0165282
895.087	0.0165700
895.165	0.0165694
895.243	0.0165962
895.321	0.0165961
895.399	0.0166978
895.477	0.0165676
895.556	0.0164838
895.634	0.0164704
895.712	0.0164936
895.790	0.0165192
895.868	0.0165791
895.946	0.0164564
896.024	0.0163742
896.102	0.0164656
896.181	0.0164009
896.259	0.0164204
896.337	0.0166150
896.415	0.0163327
896.493	0.0164698
896.571	0.0164438
896.649	0.0163745
896.727	0.0165121
896.806	0.0165486
896.884	0.0164336
896.962	0.0163677
897.040	0.0166097
897.118	0.0164610
897.196	0.0164242
897.274	0.0164521
897.352	0.0163161
897.431	0.0163844
897.509	0.0165418
897.587	0.0165251
897.665	0.0164211
897.743	0.0164319
897.821	0.0166235
897.899	0.0164867
897.977	0.0165835
898.056	0.0166190
898.134	0.0165668
898.212	0.0165125
898.290	0.0165674
898.368	0.0166077
898.446	0.0165810
898.524	0.0166848
898.602	0.0165620
898.681	0.0164892
898.759	0.0164701
898.837	0.0163899
898.915	0.0166764
898.993	0.0167065
899.071	0.0165616
899.149	0.0164898
899.227	0.0166233
899.306	0.0166044
899.384	0.0164542
899.462	0.0164423
899.540	0.0164986
899.618	0.0164701
899.696	0.0166045
899.774	0.0165719
899.852	0.0165408
899.931	0.0165985
900.009	0.0164848
900.087	0.0165571
900.165	0.0166055
900.243	0.0165441
900.321	0.0165456
900.399	0.0165723
900.477	0.0164801
900.556	0.0165362
900.634	0.0165493
900.712	0.0164576
900.790	0.0165926
900.868	0.0166201
900.946	0.0165737
901.024	0.0165246
901.102	0.0166001
901.181	0.0166235
901.259	0.0165530
901.337	0.0165855
901.415	0.0165559
901.493	0.0165865
901.571	0.0166058
901.649	0.0165138
901.727	0.0165957
901.806	0.0165569
901.884	0.0166132
901.962	0.0165900
902.040	0.0164811
902.118	0.0164024
902.196	0.0164730
902.274	0.0164754
902.352	0.0164504
902.431	0.0164894
902.509	0.0163972
902.587	0.0163644
902.665	0.0165037
902.743	0.0164500
902.821	0.0163165
902.899	0.0164623
902.977	0.0165695
903.056	0.0163514
903.134	0.0165327
903.212	0.0165436
903.290	0.0165926
903.368	0.0163691
903.446	0.0165218
903.524	0.0165038
903.602	0.0165479
903.681	0.0164953
903.759	0.0163464
903.837	0.0164050
903.915	0.0165281
903.993	0.0164762
904.071	0.0164559
904.149	0.0163616
904.227	0.0162846
904.306	0.0164382
904.384	0.0165250
904.462	0.0163997
904.540	0.0163918
904.618	0.0165063
904.696	0.0163327
904.774	0.0164615
904.852	0.0163873
904.931	0.0163192
905.009	0.0164497
905.087	0.0164222
905.165	0.0164732
905.243	0.0164149
905.321	0.0163867
905.399	0.0164075
905.477	0.0164739
905.556	0.0164034
905.634	0.0163969
905.712	0.0163630
905.790	0.0165716
905.868	0.0163588
905.946	0.0163889
906.024	0.0164671
906.102	0.0163628
906.181	0.0165302
906.259	0.0165976
906.337	0.0164963
906.415	0.0165291
906.493	0.0164125
906.571	0.0164909
906.649	0.0165594
906.727	0.0166425
906.806	0.0165501
906.884	0.0164134
906.962	0.0165424
907.040	0.0165249
907.118	0.0165031
907.196	0.0165019
907.274	0.0165612
907.352	0.0165314
907.431	0.0166335
907.509	0.0165901
907.587	0.0165777
907.665	0.0164860
907.743	0.0166105
907.821	0.0164563
907.899	0.0164467
907.977	0.0165459
908.056	0.0166041
908.134	0.0165475
908.212	0.0165269
908.290	0.0165238
908.368	0.0164867
908.446	0.0165253
908.524	0.0164930
908.602	0.0165298
908.681	0.0164136
908.759	0.0164405
908.837	0.0164404
908.915	0.0164285
908.993	0.0163299
909.071	0.0164665
909.149	0.0164659
909.227	0.0165956
909.306	0.0164632
909.384	0.0165250
909.462	0.0165536
909.540	0.0164019
909.618	0.0163766
909.696	0.0164677
909.774	0.0165810
909.852	0.0164629
909.931	0.0165052
910.009	0.0165067
910.087	0.0165398
910.165	0.0164717
910.243	0.0165073
910.321	0.0164761
910.399	0.0164503
910.477	0.0166578
910.556	0.0166524
910.634	0.0166338
910.712	0.0165350
910.790	0.0165076
910.868	0.0166570
910.946	0.0168331
911.024	0.0166752
911.102	0.0165867
911.181	0.0165705
911.259	0.0169038
911.337	0.0167148
911.415	0.0167619
911.493	0.0167609
911.571	0.0166871
911.649	0.0167006
911.727	0.0167285
911.806	0.0168810
911.884	0.0166974
911.962	0.0168026
912.040	0.0167393
912.118	0.0168463
912.196	0.0166608
912.274	0.0166484
912.352	0.0167479
912.431	0.0167126
912.509	0.0166435
912.587	0.0167168
912.665	0.0167234
912.743	0.0168072
912.821	0.0167410
912.899	0.0165591
912.977	0.0165646
913.056	0.0165247
913.134	0.0166463
913.212	0.0165514
913.290	0.0165516
913.368	0.0165637
913.446	0.0164009
913.524	0.0164910
913.602	0.0164645
913.681	0.0165434
913.759	0.0164844
913.837	0.0164059
913.915	0.0163485
913.993	0.0162015
914.071	0.0162509
914.149	0.0163767
914.227	0.0164550
914.306	0.0163397
914.384	0.0163062
914.462	0.0164210
914.540	0.0163272
914.618	0.0163946
914.696	0.0164392
914.774	0.0165742
914.852	0.0165315
914.931	0.0163900
915.009	0.0165066
915.087	0.0165346
915.165	0.0166561
915.243	0.0165485
915.321	0.0165239
915.399	0.0166194
915.477	0.0165637
915.556	0.0166216
915.634	0.0166161
915.712	0.0165786
915.790	0.0166158
915.868	0.0167004
915.946	0.0166330
916.024	0.0166199
916.102	0.0166502
916.181	0.0165417
916.259	0.0165199
916.337	0.0165748
916.415	0.0164776
916.493	0.0165102
916.571	0.0165856
916.649	0.0164768
916.727	0.0163814
916.806	0.0164808
916.884	0.0165076
916.962	0.0163912
917.040	0.0163626
917.118	0.0164700
917.196	0.0164671
917.274	0.0165311
917.352	0.0163366
917.431	0.0164111
917.509	0.0163380
917.587	0.0163592
917.665	0.0164548
917.743	0.0164043
917.821	0.0164303
917.899	0.0164926
917.977	0.0163960
918.056	0.0163319
918.134	0.0165511
918.212	0.0164390
918.290	0.0164848
918.368	0.0165388
918.446	0.0162977
918.524	0.0165286
918.602	0.0166455
918.681	0.0165415
918.759	0.0164746
918.837	0.0165379
918.915	0.0165001
918.993	0.0166158
919.071	0.0165511
919.149	0.0165647
919.227	0.0166707
919.306	0.0166814
919.384	0.0166667
919.462	0.0165612
919.540	0.0166619
919.618	0.0166466
919.696	0.0164729
919.774	0.0166013
919.852	0.0166727
919.931	0.0166357
920.009	0.0165572
920.087	0.0165327
920.165	0.0166078
920.243	0.0165762
920.321	0.0166567
920.399	0.0164382
920.477	0.0165102
920.556	0.0165959
920.634	0.0166068
920.712	0.0165155
920.790	0.0165238
920.868	0.0165343
920.946	0.0165108
921.024	0.0164005
921.102	0.0165900
921.181	0.0164365
921.259	0.0165546
921.337	0.0165861
921.415	0.0164638
921.493	0.0164836
921.571	0.0165362
921.649	0.0164339
921.727	0.0164052
921.806	0.0164674
921.884	0.0164851
921.962	0.0166153
922.040	0.0164126
922.118	0.0164697
922.196	0.0165671
922.274	0.0164843
922.352	0.0164246
922.431	0.0165684
922.509	0.0163979
922.587	0.0164542
922.665	0.0165211
922.743	0.0166382
922.821	0.0165216
922.899	0.0163843
922.977	0.0164124
923.056	0.0164582
923.134	0.0163740
923.212	0.0164954
923.290	0.0163423
923.368	0.0165388
923.446	0.0165450
923.524	0.0164654
923.602	0.0164771
923.681	0.0165401
923.759	0.0165916
923.837	0.0165471
923.915	0.0164722
923.993	0.0165157
924.071	0.0166360
924.149	0.0166350
924.227	0.0165631
924.306	0.0165839
924.384	0.0165161
924.462	0.0165138
924.540	0.0165939
924.618	0.0166158
924.696	0.0165343
924.774	0.0166093
924.852	0.0165569
924.931	0.0166296
925.009	0.0164800
925.087	0.0164658
925.165	0.0164606
925.243	0.0166630
925.321	0.0166943
925.399	0.0164706
925.477	0.0165070
925.556	0.0163730
925.634	0.0164169
925.712	0.0165561
925.790	0.0165599
925.868	0.0165218
925.946	0.0166174
926.024	0.0166827
926.102	0.0164569
926.181	0.0166346
926.259	0.0165514
926.337	0.0164900
926.415	0.0166550
926.493	0.0166530
926.571	0.0166292
926.649	0.0165921
926.727	0.0165535
926.806	0.0164260
926.884	0.0165981
926.962	0.0165705
927.040	0.0166041
927.118	0.0166462
927.196	0.0164497
927.274	0.0166080
927.352	0.0165996
927.431	0.0164701
927.509	0.0165777
927.587	0.0166239
927.665	0.0166104
927.743	0.0165102
927.821	0.0166740
927.899	0.0166450
927.977	0.0165190
928.056	0.0165164
928.134	0.0164950
928.212	0.0165954
928.290	0.0163612
928.368	0.0165250
928.446	0.0165502
928.524	0.0164684
928.602	0.0164423
928.681	0.0165142
928.759	0.0164251
928.837	0.0164666
928.915	0.0165614
928.993	0.0165174
929.071	0.0165096
929.149	0.0165444
929.227	0.0163490
929.306	0.0164086
929.384	0.0165099
929.462	0.0163949
929.540	0.0164663
929.618	0.0163686
929.696	0.0164214
929.774	0.0163850
929.852	0.0164208
929.931	0.0164674
