05/19/2022	01:13:25	Ver.	4.1	UNKNOWN
Optical Delay	610.008675	Delta X		0.078125	Sweeps	1	Scan Rate	0/0
Coordinates	Axis 1	NaN	Axis 2	NaN	Axis 3	NaN	Axis 4	NaN	Axis 5	NaN	Axis 6	0.000000
TX Power	0.000000	RX Power	0.000000

610.009	0.0164581
610.087	0.0162949
610.165	0.0164131
610.243	0.0163896
610.321	0.0163857
610.399	0.0164155
610.477	0.0162440
610.556	0.0163390
610.634	0.0163258
610.712	0.0163206
610.790	0.0163412
610.868	0.0163650
610.946	0.0162201
611.024	0.0164912
611.102	0.0162880
611.181	0.0162948
611.259	0.0163323
611.337	0.0164307
611.415	0.0164841
611.493	0.0164890
611.571	0.0164262
611.649	0.0163642
611.727	0.0163857
611.806	0.0164474
611.884	0.0164017
611.962	0.0164192
612.040	0.0165416
612.118	0.0165981
612.196	0.0164817
612.274	0.0164671
612.352	0.0163569
612.431	0.0164251
612.509	0.0165594
612.587	0.0165718
612.665	0.0163954
612.743	0.0164575
612.821	0.0164097
612.899	0.0164334
612.977	0.0166135
613.056	0.0164740
613.134	0.0165105
613.212	0.0164354
613.290	0.0165847
613.368	0.0165499
613.446	0.0164358
613.524	0.0165163
613.602	0.0164156
613.681	0.0164612
613.759	0.0164242
613.837	0.0165475
613.915	0.0164998
613.993	0.0164982
614.071	0.0164273
614.149	0.0164813
614.227	0.0164816
614.306	0.0164382
614.384	0.0166010
614.462	0.0165643
614.540	0.0165250
614.618	0.0165020
614.696	0.0166096
614.774	0.0165495
614.852	0.0165411
614.931	0.0166283
615.009	0.0166970
615.087	0.0165303
615.165	0.0164830
615.243	0.0165839
615.321	0.0166251
615.399	0.0166955
615.477	0.0166871
615.556	0.0166866
615.634	0.0165231
615.712	0.0165407
615.790	0.0166608
615.868	0.0164999
615.946	0.0167134
616.024	0.0166939
616.102	0.0166096
616.181	0.0165881
616.259	0.0165079
616.337	0.0166129
616.415	0.0165677
616.493	0.0167696
616.571	0.0166006
616.649	0.0165303
616.727	0.0167400
616.806	0.0167622
616.884	0.0165549
616.962	0.0166253
617.040	0.0167088
617.118	0.0165952
617.196	0.0166631
617.274	0.0166919
617.352	0.0166515
617.431	0.0165163
617.509	0.0165270
617.587	0.0165560
617.665	0.0166624
617.743	0.0165685
617.821	0.0167245
617.899	0.0165448
617.977	0.0164707
618.056	0.0164855
618.134	0.0166502
618.212	0.0166048
618.290	0.0164513
618.368	0.0166324
618.446	0.0165363
618.524	0.0164112
618.602	0.0164568
618.681	0.0165858
618.759	0.0166438
618.837	0.0164556
618.915	0.0165922
618.993	0.0165492
619.071	0.0166190
619.149	0.0165402
619.227	0.0165227
619.306	0.0165381
619.384	0.0164646
619.462	0.0165505
619.540	0.0165502
619.618	0.0165934
619.696	0.0166803
619.774	0.0165388
619.852	0.0164726
619.931	0.0165829
620.009	0.0166589
620.087	0.0165293
620.165	0.0165739
620.243	0.0165337
620.321	0.0165659
620.399	0.0164474
620.477	0.0164629
620.556	0.0166495
620.634	0.0165253
620.712	0.0165259
620.790	0.0163592
620.868	0.0165163
620.946	0.0165129
621.024	0.0164606
621.102	0.0165091
621.181	0.0165439
621.259	0.0165821
621.337	0.0166064
621.415	0.0164341
621.493	0.0163331
621.571	0.0164790
621.649	0.0166682
621.727	0.0165036
621.806	0.0163766
621.884	0.0163650
621.962	0.0163248
622.040	0.0165161
622.118	0.0163772
622.196	0.0163379
622.274	0.0163594
622.352	0.0165289
622.431	0.0165032
622.509	0.0163622
622.587	0.0163767
622.665	0.0163786
622.743	0.0165092
622.821	0.0162426
622.899	0.0163883
622.977	0.0164345
623.056	0.0163672
623.134	0.0164580
623.212	0.0163194
623.290	0.0163566
623.368	0.0163795
623.446	0.0163402
623.524	0.0164759
623.602	0.0164422
623.681	0.0162592
623.759	0.0164462
623.837	0.0164549
623.915	0.0164730
623.993	0.0165150
624.071	0.0164944
624.149	0.0164652
624.227	0.0166339
624.306	0.0166537
624.384	0.0165759
624.462	0.0166844
624.540	0.0166077
624.618	0.0167468
624.696	0.0167547
624.774	0.0168356
624.852	0.0166976
624.931	0.0168642
625.009	0.0168388
625.087	0.0168194
625.165	0.0168375
625.243	0.0169041
625.321	0.0167694
625.399	0.0167835
625.477	0.0167902
625.556	0.0166601
625.634	0.0168008
625.712	0.0166122
625.790	0.0166788
625.868	0.0167673
625.946	0.0166621
626.024	0.0165503
626.102	0.0164779
626.181	0.0164953
626.259	0.0165917
626.337	0.0164012
626.415	0.0163621
626.493	0.0162818
626.571	0.0162761
626.649	0.0163847
626.727	0.0163467
626.806	0.0161904
626.884	0.0163625
626.962	0.0162102
627.040	0.0162472
627.118	0.0162503
627.196	0.0161700
627.274	0.0161678
627.352	0.0161763
627.431	0.0162088
627.509	0.0162511
627.587	0.0162769
627.665	0.0163788
627.743	0.0163412
627.821	0.0161469
627.899	0.0163601
627.977	0.0163220
628.056	0.0164317
628.134	0.0163889
628.212	0.0165720
628.290	0.0166096
628.368	0.0165649
628.446	0.0165566
628.524	0.0166463
628.602	0.0165456
628.681	0.0167087
628.759	0.0168565
628.837	0.0168176
628.915	0.0167519
628.993	0.0167834
629.071	0.0167934
629.149	0.0169367
629.227	0.0169248
629.306	0.0169110
629.384	0.0168318
629.462	0.0167591
629.540	0.0168151
629.618	0.0169061
629.696	0.0168118
629.774	0.0168326
629.852	0.0168063
629.931	0.0168430
630.009	0.0167834
630.087	0.0166376
630.165	0.0166477
630.243	0.0165842
630.321	0.0165574
630.399	0.0166688
630.477	0.0165409
630.556	0.0164730
630.634	0.0165285
630.712	0.0163383
630.790	0.0163065
630.868	0.0164998
630.946	0.0163197
631.024	0.0162818
631.102	0.0162147
631.181	0.0162516
631.259	0.0162509
631.337	0.0161251
631.415	0.0162121
631.493	0.0160442
631.571	0.0162164
631.649	0.0160706
631.727	0.0161638
631.806	0.0161596
631.884	0.0160551
631.962	0.0161573
632.040	0.0162446
632.118	0.0161504
632.196	0.0162093
632.274	0.0161562
632.352	0.0161391
632.431	0.0162935
632.509	0.0161335
632.587	0.0163026
632.665	0.0162959
632.743	0.0163835
632.821	0.0165172
632.899	0.0163188
632.977	0.0163020
633.056	0.0164901
633.134	0.0165119
633.212	0.0167013
633.290	0.0166489
633.368	0.0166338
633.446	0.0167336
633.524	0.0167207
633.602	0.0165691
633.681	0.0167732
633.759	0.0167969
633.837	0.0167786
633.915	0.0167509
633.993	0.0167947
634.071	0.0168375
634.149	0.0168909
634.227	0.0168298
634.306	0.0168050
634.384	0.0168571
634.462	0.0168076
634.540	0.0166944
634.618	0.0166712
634.696	0.0166935
634.774	0.0167028
634.852	0.0165344
634.931	0.0166198
635.009	0.0166125
635.087	0.0165712
635.165	0.0165271
635.243	0.0164954
635.321	0.0164831
635.399	0.0165128
635.477	0.0163730
635.556	0.0163482
635.634	0.0163126
635.712	0.0164797
635.790	0.0164310
635.868	0.0162894
635.946	0.0162074
636.024	0.0161082
636.102	0.0160329
636.181	0.0161106
636.259	0.0162789
636.337	0.0162592
636.415	0.0160697
636.493	0.0160999
636.571	0.0161897
636.649	0.0161403
636.727	0.0162630
636.806	0.0160965
636.884	0.0160852
636.962	0.0161178
637.040	0.0162328
637.118	0.0162112
637.196	0.0161732
637.274	0.0163562
637.352	0.0163926
637.431	0.0163828
637.509	0.0163406
637.587	0.0165009
637.665	0.0166765
637.743	0.0168192
637.821	0.0166541
637.899	0.0167509
637.977	0.0165525
638.056	0.0168897
638.134	0.0169096
638.212	0.0169581
638.290	0.0169221
638.368	0.0168263
638.446	0.0170195
638.524	0.0170412
638.602	0.0170296
638.681	0.0168635
638.759	0.0168689
638.837	0.0169175
638.915	0.0168117
638.993	0.0170107
639.071	0.0169052
639.149	0.0168650
639.227	0.0168687
639.306	0.0167508
639.384	0.0168381
639.462	0.0167384
639.540	0.0167152
639.618	0.0166280
639.696	0.0163685
639.774	0.0163814
639.852	0.0164547
639.931	0.0163686
640.009	0.0162912
640.087	0.0161160
640.165	0.0162183
640.243	0.0161130
640.321	0.0161356
640.399	0.0163026
640.477	0.0160781
640.556	0.0159909
640.634	0.0160040
640.712	0.0160439
640.790	0.0161871
640.868	0.0161102
640.946	0.0161355
641.024	0.0160526
641.102	0.0162120
641.181	0.0161773
641.259	0.0161008
641.337	0.0162276
641.415	0.0162454
641.493	0.0161935
641.571	0.0161720
641.649	0.0162075
641.727	0.0161755
641.806	0.0164465
641.884	0.0163758
641.962	0.0163748
642.040	0.0165823
642.118	0.0165013
642.196	0.0164534
642.274	0.0164731
642.352	0.0164798
642.431	0.0165707
642.509	0.0165939
642.587	0.0166668
642.665	0.0166434
642.743	0.0166136
642.821	0.0167358
642.899	0.0166698
642.977	0.0166035
643.056	0.0167984
643.134	0.0168602
643.212	0.0166258
643.290	0.0167383
643.368	0.0167054
643.446	0.0167211
643.524	0.0167049
643.602	0.0167858
643.681	0.0167599
643.759	0.0166694
643.837	0.0166788
643.915	0.0167021
643.993	0.0166479
644.071	0.0166301
644.149	0.0167144
644.227	0.0165816
644.306	0.0166771
644.384	0.0166392
644.462	0.0165518
644.540	0.0164457
644.618	0.0164560
644.696	0.0165940
644.774	0.0165206
644.852	0.0165074
644.931	0.0165480
645.009	0.0164011
645.087	0.0163837
645.165	0.0164264
645.243	0.0164404
645.321	0.0163909
645.399	0.0164234
645.477	0.0163744
645.556	0.0163728
645.634	0.0164175
645.712	0.0163629
645.790	0.0164410
645.868	0.0164513
645.946	0.0164474
646.024	0.0164887
646.102	0.0165428
646.181	0.0163707
646.259	0.0163404
646.337	0.0164220
646.415	0.0162369
646.493	0.0163344
646.571	0.0164052
646.649	0.0162425
646.727	0.0163492
646.806	0.0163635
646.884	0.0163786
646.962	0.0163860
647.040	0.0162935
647.118	0.0163988
647.196	0.0162312
647.274	0.0162808
647.352	0.0164158
647.431	0.0164353
647.509	0.0165401
647.587	0.0163761
647.665	0.0163880
647.743	0.0164422
647.821	0.0164638
647.899	0.0164205
647.977	0.0165665
648.056	0.0164397
648.134	0.0165369
648.212	0.0166174
648.290	0.0165795
648.368	0.0166129
648.446	0.0165943
648.524	0.0166440
648.602	0.0167873
648.681	0.0167651
648.759	0.0165746
648.837	0.0164433
648.915	0.0165685
648.993	0.0165923
649.071	0.0167252
649.149	0.0167079
649.227	0.0165540
649.306	0.0165380
649.384	0.0165775
649.462	0.0165502
649.540	0.0166146
649.618	0.0165853
649.696	0.0166169
649.774	0.0165365
649.852	0.0166148
649.931	0.0166000
650.009	0.0165221
650.087	0.0166075
650.165	0.0166917
650.243	0.0165950
650.321	0.0166147
650.399	0.0165142
650.477	0.0164953
650.556	0.0164640
650.634	0.0165923
650.712	0.0164908
650.790	0.0164720
650.868	0.0165290
650.946	0.0165278
651.024	0.0164983
651.102	0.0165437
651.181	0.0165921
651.259	0.0165789
651.337	0.0164520
651.415	0.0164470
651.493	0.0165116
651.571	0.0165213
651.649	0.0163852
651.727	0.0163972
651.806	0.0163535
651.884	0.0164005
651.962	0.0164526
652.040	0.0164697
652.118	0.0163573
652.196	0.0164404
652.274	0.0163774
652.352	0.0164666
652.431	0.0164770
652.509	0.0163828
652.587	0.0162939
652.665	0.0162991
652.743	0.0163114
652.821	0.0163532
652.899	0.0162118
652.977	0.0161932
653.056	0.0161819
653.134	0.0161727
653.212	0.0160971
653.290	0.0161201
653.368	0.0162116
653.446	0.0161754
653.524	0.0161648
653.602	0.0161018
653.681	0.0161480
653.759	0.0159969
653.837	0.0160664
653.915	0.0160494
653.993	0.0161639
654.071	0.0161269
654.149	0.0161469
654.227	0.0160931
654.306	0.0160754
654.384	0.0161322
654.462	0.0162831
654.540	0.0160596
654.618	0.0162807
654.696	0.0162715
654.774	0.0163022
654.852	0.0163636
654.931	0.0164177
655.009	0.0165362
655.087	0.0166601
655.165	0.0166270
655.243	0.0167161
655.321	0.0167776
655.399	0.0167827
655.477	0.0168428
655.556	0.0169027
655.634	0.0170121
655.712	0.0168649
655.790	0.0170561
655.868	0.0170282
655.946	0.0169576
656.024	0.0169297
656.102	0.0169993
656.181	0.0169721
656.259	0.0170475
656.337	0.0169753
656.415	0.0170906
656.493	0.0171176
656.571	0.0169868
656.649	0.0170770
656.727	0.0167722
656.806	0.0168095
656.884	0.0169215
656.962	0.0167628
657.040	0.0165925
657.118	0.0166334
657.196	0.0165313
657.274	0.0164307
657.352	0.0164156
657.431	0.0163525
657.509	0.0161548
657.587	0.0161350
657.665	0.0161246
657.743	0.0161398
657.821	0.0159402
657.899	0.0160147
657.977	0.0160278
658.056	0.0159090
658.134	0.0159376
658.212	0.0158023
658.290	0.0160238
658.368	0.0160842
658.446	0.0161234
658.524	0.0159716
658.602	0.0159151
658.681	0.0161265
658.759	0.0160804
658.837	0.0161256
658.915	0.0161261
658.993	0.0162089
659.071	0.0161074
659.149	0.0163251
659.227	0.0163609
659.306	0.0164227
659.384	0.0163510
659.462	0.0164654
659.540	0.0164697
659.618	0.0166354
659.696	0.0166267
659.774	0.0168148
659.852	0.0167434
659.931	0.0167096
660.009	0.0166581
660.087	0.0168183
660.165	0.0168810
660.243	0.0168483
660.321	0.0169640
660.399	0.0169072
660.477	0.0168615
660.556	0.0170528
660.634	0.0169395
660.712	0.0169949
660.790	0.0168916
660.868	0.0169717
660.946	0.0171646
661.024	0.0169009
661.102	0.0166548
661.181	0.0167141
661.259	0.0167617
661.337	0.0166048
661.415	0.0167125
661.493	0.0166519
661.571	0.0165995
661.649	0.0165194
661.727	0.0165163
661.806	0.0163897
661.884	0.0164622
661.962	0.0164421
662.040	0.0162897
662.118	0.0163271
662.196	0.0163068
662.274	0.0163723
662.352	0.0162831
662.431	0.0163623
662.509	0.0163419
662.587	0.0163411
662.665	0.0161403
662.743	0.0160896
662.821	0.0160954
662.899	0.0160680
662.977	0.0160544
663.056	0.0160574
663.134	0.0160925
663.212	0.0160506
663.290	0.0160300
663.368	0.0160615
663.446	0.0161275
663.524	0.0160819
663.602	0.0160989
663.681	0.0161478
663.759	0.0161320
663.837	0.0162558
663.915	0.0162285
663.993	0.0162071
664.071	0.0160928
664.149	0.0162690
664.227	0.0164782
664.306	0.0163842
664.384	0.0162507
664.462	0.0163151
664.540	0.0164440
664.618	0.0165396
664.696	0.0165318
664.774	0.0166260
664.852	0.0164980
664.931	0.0165298
665.009	0.0166740
665.087	0.0165765
665.165	0.0166788
665.243	0.0167026
665.321	0.0166827
665.399	0.0167026
665.477	0.0167084
665.556	0.0167952
665.634	0.0167539
665.712	0.0168136
665.790	0.0168531
665.868	0.0166566
665.946	0.0167770
666.024	0.0169148
666.102	0.0168346
666.181	0.0166797
666.259	0.0168325
666.337	0.0166565
666.415	0.0166970
666.493	0.0169471
666.571	0.0167066
666.649	0.0167072
666.727	0.0168237
666.806	0.0167174
666.884	0.0166618
666.962	0.0166718
667.040	0.0166795
667.118	0.0167160
667.196	0.0166335
667.274	0.0165436
667.352	0.0163777
667.431	0.0165517
667.509	0.0165283
667.587	0.0163403
667.665	0.0164941
667.743	0.0164165
667.821	0.0164082
667.899	0.0163945
667.977	0.0164027
668.056	0.0163501
668.134	0.0162239
668.212	0.0163773
668.290	0.0163304
668.368	0.0163171
668.446	0.0163071
668.524	0.0163081
668.602	0.0163326
668.681	0.0164885
668.759	0.0163483
668.837	0.0163387
668.915	0.0163919
668.993	0.0163335
669.071	0.0164575
669.149	0.0163747
669.227	0.0162739
669.306	0.0162294
669.384	0.0164662
669.462	0.0164742
669.540	0.0163871
669.618	0.0164083
669.696	0.0165192
669.774	0.0165193
669.852	0.0164471
669.931	0.0165343
670.009	0.0165754
670.087	0.0164729
670.165	0.0165067
670.243	0.0165489
670.321	0.0166429
670.399	0.0164542
670.477	0.0165481
670.556	0.0163906
670.634	0.0165220
670.712	0.0165179
670.790	0.0164852
670.868	0.0165703
670.946	0.0165117
671.024	0.0166342
671.102	0.0165725
671.181	0.0164845
671.259	0.0165049
671.337	0.0166274
671.415	0.0166576
671.493	0.0164240
671.571	0.0164619
671.649	0.0165899
671.727	0.0167577
671.806	0.0166626
671.884	0.0165529
671.962	0.0165800
672.040	0.0165173
672.118	0.0165073
672.196	0.0165984
672.274	0.0166022
672.352	0.0165939
672.431	0.0166162
672.509	0.0165498
672.587	0.0166991
672.665	0.0165314
672.743	0.0165176
672.821	0.0164497
672.899	0.0165250
672.977	0.0164738
673.056	0.0165456
673.134	0.0164724
673.212	0.0164558
673.290	0.0164642
673.368	0.0163133
673.446	0.0164003
673.524	0.0163759
673.602	0.0162904
673.681	0.0162276
673.759	0.0162968
673.837	0.0163223
673.915	0.0164500
673.993	0.0163206
674.071	0.0162341
674.149	0.0161876
674.227	0.0161688
674.306	0.0163014
674.384	0.0162088
674.462	0.0162113
674.540	0.0162645
674.618	0.0162559
674.696	0.0161855
674.774	0.0162017
674.852	0.0162434
674.931	0.0162936
675.009	0.0163340
675.087	0.0162228
675.165	0.0163422
675.243	0.0162823
675.321	0.0164655
675.399	0.0163976
675.477	0.0164859
675.556	0.0165180
675.634	0.0167597
675.712	0.0166578
675.790	0.0164710
675.868	0.0165948
675.946	0.0167506
676.024	0.0167861
676.102	0.0168159
676.181	0.0168663
676.259	0.0168451
676.337	0.0169650
676.415	0.0169736
676.493	0.0171583
676.571	0.0169308
676.649	0.0170930
676.727	0.0171150
676.806	0.0170708
676.884	0.0169936
676.962	0.0171135
677.040	0.0172102
677.118	0.0170719
677.196	0.0170580
677.274	0.0169380
677.352	0.0169777
677.431	0.0168890
677.509	0.0170050
677.587	0.0167698
677.665	0.0167371
677.743	0.0166045
677.821	0.0165240
677.899	0.0164009
677.977	0.0164558
678.056	0.0165898
678.134	0.0163673
678.212	0.0163253
678.290	0.0163103
678.368	0.0162489
678.446	0.0162266
678.524	0.0161739
678.602	0.0161124
678.681	0.0162040
678.759	0.0160733
678.837	0.0161703
678.915	0.0160784
678.993	0.0160006
679.071	0.0161765
679.149	0.0160445
679.227	0.0160360
679.306	0.0162381
679.384	0.0163108
679.462	0.0161355
679.540	0.0161227
679.618	0.0162101
679.696	0.0163331
679.774	0.0162732
679.852	0.0162298
679.931	0.0164803
680.009	0.0165977
680.087	0.0165005
680.165	0.0164561
680.243	0.0165600
680.321	0.0166035
680.399	0.0165531
680.477	0.0166207
680.556	0.0166559
680.634	0.0166816
680.712	0.0167097
680.790	0.0168198
680.868	0.0168581
680.946	0.0166415
681.024	0.0167354
681.102	0.0169040
681.181	0.0169854
681.259	0.0167632
681.337	0.0171108
681.415	0.0170373
681.493	0.0169439
681.571	0.0170670
681.649	0.0169167
681.727	0.0169411
681.806	0.0170103
681.884	0.0169566
681.962	0.0170841
682.040	0.0169969
682.118	0.0169733
682.196	0.0169485
682.274	0.0169252
682.352	0.0168296
682.431	0.0169886
682.509	0.0169911
682.587	0.0168153
682.665	0.0168056
682.743	0.0167762
682.821	0.0167456
682.899	0.0165410
682.977	0.0165480
683.056	0.0165044
683.134	0.0163898
683.212	0.0163059
683.290	0.0163185
683.368	0.0162360
683.446	0.0161338
683.524	0.0161368
683.602	0.0160786
683.681	0.0161815
683.759	0.0160249
683.837	0.0159701
683.915	0.0158533
683.993	0.0158759
684.071	0.0161523
684.149	0.0161360
684.227	0.0160255
684.306	0.0160632
684.384	0.0161658
684.462	0.0161132
684.540	0.0161379
684.618	0.0161840
684.696	0.0161685
684.774	0.0163245
684.852	0.0162757
684.931	0.0164604
685.009	0.0165439
685.087	0.0165382
685.165	0.0166505
685.243	0.0166212
685.321	0.0166552
685.399	0.0168435
685.477	0.0167335
685.556	0.0167464
685.634	0.0167149
685.712	0.0166457
685.790	0.0166747
685.868	0.0166938
685.946	0.0167255
686.024	0.0167502
686.102	0.0165994
686.181	0.0166845
686.259	0.0167950
686.337	0.0166446
686.415	0.0165400
686.493	0.0164272
686.571	0.0165479
686.649	0.0164897
686.727	0.0164953
686.806	0.0165639
686.884	0.0165305
686.962	0.0165228
687.040	0.0164710
687.118	0.0165051
687.196	0.0164413
687.274	0.0163807
687.352	0.0163763
687.431	0.0164724
687.509	0.0164386
687.587	0.0165421
687.665	0.0163477
687.743	0.0164668
687.821	0.0164864
687.899	0.0164043
687.977	0.0164343
688.056	0.0165066
688.134	0.0162614
688.212	0.0164256
688.290	0.0165087
688.368	0.0165814
688.446	0.0165614
688.524	0.0164748
688.602	0.0165739
688.681	0.0166111
688.759	0.0165178
688.837	0.0165101
688.915	0.0164677
688.993	0.0165950
689.071	0.0165550
689.149	0.0165679
689.227	0.0164747
689.306	0.0165273
689.384	0.0165194
689.462	0.0163982
689.540	0.0164725
689.618	0.0165305
689.696	0.0164918
689.774	0.0163104
689.852	0.0163974
689.931	0.0163490
690.009	0.0163853
690.087	0.0162888
690.165	0.0161059
690.243	0.0164098
690.321	0.0163749
690.399	0.0162855
690.477	0.0163768
690.556	0.0164432
690.634	0.0163803
690.712	0.0162696
690.790	0.0163891
690.868	0.0164508
690.946	0.0164860
691.024	0.0165578
691.102	0.0165660
691.181	0.0166252
691.259	0.0166618
691.337	0.0166795
691.415	0.0165352
691.493	0.0165884
691.571	0.0168867
691.649	0.0167617
691.727	0.0166624
691.806	0.0166579
691.884	0.0166894
691.962	0.0166240
692.040	0.0167175
692.118	0.0167445
692.196	0.0167347
692.274	0.0166879
692.352	0.0166788
692.431	0.0166385
692.509	0.0166309
692.587	0.0166913
692.665	0.0167107
692.743	0.0165697
692.821	0.0164461
692.899	0.0164329
692.977	0.0165340
693.056	0.0165874
693.134	0.0165571
693.212	0.0163990
693.290	0.0165639
693.368	0.0164635
693.446	0.0165892
693.524	0.0165092
693.602	0.0165911
693.681	0.0164624
693.759	0.0167005
693.837	0.0167354
693.915	0.0166807
693.993	0.0166016
694.071	0.0165713
694.149	0.0167414
694.227	0.0166764
694.306	0.0167212
694.384	0.0166807
694.462	0.0166281
694.540	0.0166541
694.618	0.0166359
694.696	0.0167188
694.774	0.0166079
694.852	0.0166954
694.931	0.0168227
695.009	0.0166065
695.087	0.0167416
695.165	0.0166292
695.243	0.0167239
695.321	0.0168663
695.399	0.0167906
695.477	0.0166772
695.556	0.0165775
695.634	0.0166784
695.712	0.0167004
695.790	0.0167214
695.868	0.0167348
695.946	0.0167214
696.024	0.0167297
696.102	0.0167525
696.181	0.0167512
696.259	0.0165292
696.337	0.0164669
696.415	0.0165152
696.493	0.0165541
696.571	0.0165298
696.649	0.0164142
696.727	0.0163102
696.806	0.0164009
696.884	0.0163655
696.962	0.0163008
697.040	0.0163183
697.118	0.0163869
697.196	0.0163056
697.274	0.0162871
697.352	0.0162172
697.431	0.0162125
697.509	0.0162091
697.587	0.0162450
697.665	0.0162630
697.743	0.0164240
697.821	0.0162492
697.899	0.0162941
697.977	0.0164481
698.056	0.0161656
698.134	0.0162726
698.212	0.0164246
698.290	0.0161720
698.368	0.0162920
698.446	0.0166215
698.524	0.0165216
698.602	0.0164368
698.681	0.0163971
698.759	0.0164806
698.837	0.0164549
698.915	0.0166139
698.993	0.0166221
699.071	0.0165393
699.149	0.0168628
699.227	0.0167732
699.306	0.0167891
699.384	0.0166553
699.462	0.0167765
699.540	0.0167144
699.618	0.0166383
699.696	0.0168126
699.774	0.0168278
699.852	0.0169196
699.931	0.0167076
700.009	0.0165988
700.087	0.0168053
700.165	0.0168599
700.243	0.0166867
700.321	0.0168156
700.399	0.0167732
700.477	0.0166030
700.556	0.0167613
700.634	0.0167465
700.712	0.0167308
700.790	0.0165918
700.868	0.0165036
700.946	0.0165217
701.024	0.0165857
701.102	0.0165283
701.181	0.0165242
701.259	0.0164689
701.337	0.0164520
701.415	0.0165034
701.493	0.0166119
701.571	0.0164795
701.649	0.0164358
701.727	0.0163280
701.806	0.0164023
701.884	0.0165157
701.962	0.0164146
702.040	0.0165795
702.118	0.0166090
702.196	0.0164150
702.274	0.0164937
702.352	0.0165917
702.431	0.0166502
702.509	0.0165185
702.587	0.0166321
702.665	0.0166798
702.743	0.0166525
702.821	0.0165571
702.899	0.0167486
702.977	0.0167277
703.056	0.0167610
703.134	0.0167731
703.212	0.0166793
703.290	0.0168536
703.368	0.0168037
703.446	0.0167780
703.524	0.0166818
703.602	0.0168601
703.681	0.0168890
703.759	0.0167647
703.837	0.0165615
703.915	0.0166084
703.993	0.0164647
704.071	0.0166591
704.149	0.0165623
704.227	0.0164396
704.306	0.0164024
704.384	0.0163732
704.462	0.0164061
704.540	0.0163627
704.618	0.0164223
704.696	0.0162799
704.774	0.0161395
704.852	0.0162645
704.931	0.0162846
705.009	0.0162386
705.087	0.0162430
705.165	0.0161110
705.243	0.0162054
705.321	0.0163470
705.399	0.0163549
705.477	0.0164191
705.556	0.0162489
705.634	0.0163950
705.712	0.0164046
705.790	0.0164627
705.868	0.0164143
705.946	0.0164715
706.024	0.0164587
706.102	0.0165063
706.181	0.0164996
706.259	0.0165909
706.337	0.0165199
706.415	0.0165723
706.493	0.0165971
706.571	0.0166167
706.649	0.0168071
706.727	0.0166771
706.806	0.0166785
706.884	0.0166940
706.962	0.0167371
707.040	0.0166170
707.118	0.0166708
707.196	0.0167047
707.274	0.0166971
707.352	0.0167828
707.431	0.0167584
707.509	0.0167168
707.587	0.0166782
707.665	0.0167178
707.743	0.0166225
707.821	0.0165881
707.899	0.0165903
707.977	0.0166038
708.056	0.0166264
708.134	0.0164697
708.212	0.0163905
708.290	0.0165033
708.368	0.0165816
708.446	0.0163119
708.524	0.0164123
708.602	0.0166306
708.681	0.0164607
708.759	0.0165285
708.837	0.0165375
708.915	0.0164599
708.993	0.0166032
709.071	0.0166988
709.149	0.0166618
709.227	0.0166000
709.306	0.0166242
709.384	0.0167182
709.462	0.0167371
709.540	0.0167200
709.618	0.0169387
709.696	0.0168252
709.774	0.0167069
709.852	0.0167785
709.931	0.0168465
710.009	0.0167564
710.087	0.0168161
710.165	0.0167886
710.243	0.0165965
710.321	0.0165327
710.399	0.0166370
710.477	0.0166290
710.556	0.0164825
710.634	0.0165720
710.712	0.0165138
710.790	0.0163702
710.868	0.0165138
710.946	0.0164820
711.024	0.0164277
711.102	0.0166188
711.181	0.0165753
711.259	0.0166869
711.337	0.0166008
711.415	0.0166048
711.493	0.0165097
711.571	0.0166328
711.649	0.0166631
711.727	0.0165208
711.806	0.0167123
711.884	0.0166571
711.962	0.0165736
712.040	0.0166119
712.118	0.0167403
712.196	0.0167575
712.274	0.0166330
712.352	0.0164852
712.431	0.0164381
712.509	0.0165850
712.587	0.0165138
712.665	0.0164944
712.743	0.0165773
712.821	0.0165065
712.899	0.0163773
712.977	0.0163601
713.056	0.0164527
713.134	0.0163847
713.212	0.0164624
713.290	0.0164071
713.368	0.0163284
713.446	0.0164828
713.524	0.0165133
713.602	0.0164161
713.681	0.0165239
713.759	0.0164349
713.837	0.0163289
713.915	0.0165299
713.993	0.0165939
714.071	0.0163776
714.149	0.0163711
714.227	0.0164781
714.306	0.0166080
714.384	0.0165484
714.462	0.0166453
714.540	0.0166474
714.618	0.0165668
714.696	0.0165232
714.774	0.0166060
714.852	0.0167171
714.931	0.0166267
715.009	0.0166367
715.087	0.0166360
715.165	0.0166627
715.243	0.0165926
715.321	0.0167120
715.399	0.0165881
715.477	0.0166370
715.556	0.0165176
715.634	0.0165870
715.712	0.0165620
715.790	0.0165463
715.868	0.0165101
715.946	0.0165760
716.024	0.0164957
716.102	0.0163811
716.181	0.0164646
716.259	0.0164281
716.337	0.0163937
716.415	0.0165443
716.493	0.0164901
716.571	0.0165102
716.649	0.0164413
716.727	0.0163416
716.806	0.0162908
716.884	0.0164481
716.962	0.0164142
717.040	0.0163409
717.118	0.0164373
717.196	0.0163375
717.274	0.0162817
717.352	0.0162690
717.431	0.0164613
717.509	0.0162872
717.587	0.0164360
717.665	0.0164603
717.743	0.0163438
717.821	0.0164466
717.899	0.0163631
717.977	0.0164677
718.056	0.0164163
718.134	0.0162571
718.212	0.0164555
718.290	0.0166714
718.368	0.0165173
718.446	0.0165805
718.524	0.0165507
718.602	0.0164637
718.681	0.0165234
718.759	0.0166010
718.837	0.0166367
718.915	0.0165567
718.993	0.0166779
719.071	0.0166047
719.149	0.0166646
719.227	0.0166813
719.306	0.0168234
719.384	0.0167386
719.462	0.0167553
719.540	0.0167704
719.618	0.0166568
719.696	0.0166805
719.774	0.0167726
719.852	0.0165681
719.931	0.0164400
720.009	0.0165728
720.087	0.0165873
720.165	0.0165665
720.243	0.0165995
720.321	0.0166479
720.399	0.0166544
720.477	0.0166167
720.556	0.0165476
720.634	0.0165427
720.712	0.0166130
720.790	0.0165517
720.868	0.0166149
720.946	0.0164594
721.024	0.0164716
721.102	0.0165768
721.181	0.0166504
721.259	0.0165546
721.337	0.0166444
721.415	0.0166618
721.493	0.0166605
721.571	0.0166570
721.649	0.0166388
721.727	0.0166177
721.806	0.0166059
721.884	0.0166544
721.962	0.0165632
722.040	0.0166403
722.118	0.0166467
722.196	0.0166495
722.274	0.0165858
722.352	0.0164879
722.431	0.0165634
722.509	0.0165469
722.587	0.0165798
722.665	0.0166286
722.743	0.0166877
722.821	0.0164698
722.899	0.0165249
722.977	0.0166435
723.056	0.0167451
723.134	0.0165927
723.212	0.0164617
723.290	0.0163919
723.368	0.0163711
723.446	0.0164046
723.524	0.0164021
723.602	0.0164285
723.681	0.0163923
723.759	0.0162446
723.837	0.0163225
723.915	0.0162431
723.993	0.0163718
724.071	0.0163339
724.149	0.0161765
724.227	0.0161646
724.306	0.0161142
724.384	0.0163392
724.462	0.0164594
724.540	0.0163255
724.618	0.0162653
724.696	0.0163717
724.774	0.0163719
724.852	0.0163377
724.931	0.0163846
725.009	0.0164298
725.087	0.0163511
725.165	0.0164829
725.243	0.0164954
725.321	0.0164703
725.399	0.0165460
725.477	0.0164413
725.556	0.0163922
725.634	0.0165484
725.712	0.0164348
725.790	0.0165404
725.868	0.0164690
725.946	0.0164017
726.024	0.0166592
726.102	0.0166749
726.181	0.0165695
726.259	0.0165105
726.337	0.0165595
726.415	0.0167045
726.493	0.0165492
726.571	0.0165507
726.649	0.0164489
726.727	0.0164425
726.806	0.0165439
726.884	0.0164400
726.962	0.0164658
727.040	0.0164311
727.118	0.0163820
727.196	0.0163294
727.274	0.0162737
727.352	0.0163570
727.431	0.0163968
727.509	0.0162621
727.587	0.0163314
727.665	0.0163725
727.743	0.0162432
727.821	0.0162508
727.899	0.0162627
727.977	0.0162115
728.056	0.0161591
728.134	0.0162218
728.212	0.0161472
728.290	0.0162104
728.368	0.0162712
728.446	0.0163257
728.524	0.0163598
728.602	0.0163748
728.681	0.0163256
728.759	0.0163581
728.837	0.0164462
728.915	0.0163608
728.993	0.0164487
729.071	0.0165959
729.149	0.0166057
729.227	0.0165718
729.306	0.0165035
729.384	0.0166048
729.462	0.0166427
729.540	0.0167426
729.618	0.0167685
729.696	0.0167894
729.774	0.0167814
729.852	0.0167389
729.931	0.0167698
730.009	0.0168448
730.087	0.0167500
730.165	0.0168177
730.243	0.0168085
730.321	0.0167104
730.399	0.0165830
730.477	0.0167547
730.556	0.0165177
730.634	0.0165674
730.712	0.0166627
730.790	0.0164516
730.868	0.0164155
730.946	0.0165826
731.024	0.0164942
731.102	0.0164687
731.181	0.0165324
731.259	0.0165285
731.337	0.0166398
731.415	0.0164043
731.493	0.0163914
731.571	0.0164400
731.649	0.0165668
731.727	0.0165311
731.806	0.0164503
731.884	0.0164555
731.962	0.0165765
732.040	0.0166389
732.118	0.0164388
732.196	0.0164265
732.274	0.0166109
732.352	0.0165652
732.431	0.0164616
732.509	0.0165466
732.587	0.0165226
732.665	0.0165775
732.743	0.0164740
732.821	0.0164145
732.899	0.0165994
732.977	0.0166284
733.056	0.0165050
733.134	0.0165426
733.212	0.0165598
733.290	0.0165811
733.368	0.0164275
733.446	0.0165284
733.524	0.0166260
733.602	0.0165101
733.681	0.0165720
733.759	0.0166268
733.837	0.0164578
733.915	0.0164952
733.993	0.0165249
734.071	0.0165303
734.149	0.0165108
734.227	0.0165088
734.306	0.0164256
734.384	0.0163521
734.462	0.0163421
734.540	0.0164105
734.618	0.0164700
734.696	0.0163927
734.774	0.0164010
734.852	0.0164324
734.931	0.0163871
735.009	0.0165028
735.087	0.0164304
735.165	0.0164001
735.243	0.0163229
735.321	0.0163362
735.399	0.0164189
735.477	0.0163682
735.556	0.0163762
735.634	0.0164702
735.712	0.0164495
735.790	0.0165768
735.868	0.0164730
735.946	0.0163869
736.024	0.0164837
736.102	0.0164715
736.181	0.0165356
736.259	0.0164291
736.337	0.0164314
736.415	0.0164943
736.493	0.0165103
736.571	0.0164687
736.649	0.0164516
736.727	0.0163628
736.806	0.0163500
736.884	0.0164981
736.962	0.0163362
737.040	0.0163953
737.118	0.0164146
737.196	0.0162556
737.274	0.0164722
737.352	0.0165390
737.431	0.0163956
737.509	0.0165285
737.587	0.0163967
737.665	0.0162827
737.743	0.0164280
737.821	0.0163945
737.899	0.0164594
737.977	0.0165097
738.056	0.0165687
738.134	0.0164855
738.212	0.0164676
738.290	0.0165210
738.368	0.0165699
738.446	0.0164640
738.524	0.0165099
738.602	0.0164754
738.681	0.0164680
738.759	0.0164264
738.837	0.0163445
738.915	0.0165388
738.993	0.0164024
739.071	0.0165098
739.149	0.0165257
739.227	0.0165126
739.306	0.0164820
739.384	0.0164050
739.462	0.0165039
739.540	0.0163631
739.618	0.0163416
739.696	0.0163543
739.774	0.0164378
739.852	0.0165298
739.931	0.0165629
740.009	0.0163757
740.087	0.0166287
740.165	0.0165996
740.243	0.0164578
740.321	0.0165372
740.399	0.0165901
740.477	0.0164517
740.556	0.0164168
740.634	0.0165394
740.712	0.0164114
740.790	0.0163241
740.868	0.0166662
740.946	0.0165694
741.024	0.0164332
741.102	0.0165016
741.181	0.0164797
741.259	0.0164185
741.337	0.0166145
741.415	0.0165547
741.493	0.0165662
741.571	0.0162971
741.649	0.0163973
741.727	0.0165472
741.806	0.0165667
741.884	0.0165292
741.962	0.0165495
742.040	0.0165363
742.118	0.0164841
742.196	0.0164609
742.274	0.0165408
742.352	0.0164965
742.431	0.0164748
742.509	0.0164038
742.587	0.0165566
742.665	0.0164909
742.743	0.0164816
742.821	0.0165211
742.899	0.0165499
742.977	0.0164169
743.056	0.0164680
743.134	0.0164484
743.212	0.0166073
743.290	0.0165517
743.368	0.0164433
743.446	0.0165829
743.524	0.0165559
743.602	0.0164454
743.681	0.0164036
743.759	0.0165088
743.837	0.0165324
743.915	0.0165250
743.993	0.0165430
744.071	0.0165068
744.149	0.0164478
744.227	0.0165241
744.306	0.0164666
744.384	0.0164314
744.462	0.0164264
744.540	0.0163686
744.618	0.0165932
744.696	0.0167144
744.774	0.0165880
744.852	0.0166693
744.931	0.0165894
745.009	0.0164809
745.087	0.0165701
745.165	0.0166644
745.243	0.0165793
745.321	0.0165442
745.399	0.0166307
745.477	0.0165347
745.556	0.0166259
745.634	0.0166640
745.712	0.0165368
745.790	0.0164742
745.868	0.0165774
745.946	0.0165610
746.024	0.0163692
746.102	0.0165633
746.181	0.0166642
746.259	0.0165553
746.337	0.0165833
746.415	0.0164549
746.493	0.0165456
746.571	0.0165387
746.649	0.0164737
746.727	0.0166492
746.806	0.0164465
746.884	0.0166142
746.962	0.0164487
747.040	0.0165486
747.118	0.0165503
747.196	0.0165601
747.274	0.0164184
747.352	0.0164337
747.431	0.0164449
747.509	0.0164610
747.587	0.0164159
747.665	0.0163897
747.743	0.0164536
747.821	0.0165108
747.899	0.0163505
747.977	0.0164232
748.056	0.0164464
748.134	0.0163841
748.212	0.0164572
748.290	0.0163359
748.368	0.0163803
748.446	0.0163918
748.524	0.0164561
748.602	0.0163125
748.681	0.0163165
748.759	0.0164969
748.837	0.0164433
748.915	0.0163600
748.993	0.0164285
749.071	0.0164198
749.149	0.0164741
749.227	0.0164755
749.306	0.0165115
749.384	0.0165392
749.462	0.0165402
749.540	0.0163591
749.618	0.0165508
749.696	0.0164558
749.774	0.0164249
749.852	0.0165729
749.931	0.0164465
750.009	0.0166167
750.087	0.0166132
750.165	0.0165669
750.243	0.0166514
750.321	0.0165974
750.399	0.0166004
750.477	0.0164142
750.556	0.0164970
750.634	0.0166109
750.712	0.0165006
750.790	0.0164352
750.868	0.0166051
750.946	0.0165977
751.024	0.0165980
751.102	0.0164871
751.181	0.0165281
751.259	0.0166158
751.337	0.0164408
751.415	0.0165074
751.493	0.0164990
751.571	0.0165517
751.649	0.0163638
751.727	0.0164296
751.806	0.0164658
751.884	0.0165579
751.962	0.0164792
752.040	0.0165052
752.118	0.0164397
752.196	0.0165403
752.274	0.0164325
752.352	0.0164832
752.431	0.0164844
752.509	0.0164801
752.587	0.0164162
752.665	0.0164257
752.743	0.0163815
752.821	0.0163938
752.899	0.0163679
752.977	0.0163982
753.056	0.0163517
753.134	0.0164182
753.212	0.0164507
753.290	0.0163861
753.368	0.0164401
753.446	0.0165582
753.524	0.0163078
753.602	0.0163752
753.681	0.0164135
753.759	0.0164946
753.837	0.0164572
753.915	0.0163112
753.993	0.0164774
754.071	0.0165022
754.149	0.0163669
754.227	0.0164126
754.306	0.0164800
754.384	0.0163323
754.462	0.0162826
754.540	0.0165307
754.618	0.0163920
754.696	0.0163779
754.774	0.0164066
754.852	0.0164412
754.931	0.0165301
755.009	0.0164582
755.087	0.0163308
755.165	0.0163578
755.243	0.0163416
755.321	0.0164159
755.399	0.0165186
755.477	0.0163553
755.556	0.0164365
755.634	0.0165807
755.712	0.0166114
755.790	0.0163287
755.868	0.0164999
755.946	0.0166180
756.024	0.0164687
756.102	0.0164767
756.181	0.0163762
756.259	0.0165178
756.337	0.0163730
756.415	0.0165462
756.493	0.0165838
756.571	0.0164481
756.649	0.0165255
756.727	0.0164556
756.806	0.0165253
756.884	0.0165565
756.962	0.0165261
757.040	0.0165233
757.118	0.0165332
757.196	0.0165324
757.274	0.0162617
757.352	0.0163853
757.431	0.0165245
757.509	0.0166086
757.587	0.0164631
757.665	0.0163676
757.743	0.0164346
757.821	0.0164911
757.899	0.0164685
757.977	0.0164278
758.056	0.0164127
758.134	0.0164631
758.212	0.0164603
758.290	0.0164425
758.368	0.0164246
758.446	0.0164390
758.524	0.0164005
758.602	0.0163949
758.681	0.0166092
758.759	0.0163426
758.837	0.0163821
758.915	0.0164816
758.993	0.0163201
759.071	0.0164184
759.149	0.0163391
759.227	0.0164044
759.306	0.0165192
759.384	0.0164386
759.462	0.0165598
759.540	0.0164368
759.618	0.0163665
759.696	0.0164787
759.774	0.0165708
759.852	0.0165520
759.931	0.0164716
760.009	0.0166457
760.087	0.0165446
760.165	0.0166354
760.243	0.0166615
760.321	0.0167133
760.399	0.0166388
760.477	0.0166357
760.556	0.0165042
760.634	0.0165867
760.712	0.0166422
760.790	0.0166108
760.868	0.0166139
760.946	0.0166035
761.024	0.0166713
761.102	0.0166647
761.181	0.0166518
761.259	0.0167549
761.337	0.0167442
761.415	0.0166905
761.493	0.0167184
761.571	0.0168952
761.649	0.0167587
761.727	0.0167113
761.806	0.0165799
761.884	0.0167176
761.962	0.0168378
762.040	0.0167094
762.118	0.0166142
762.196	0.0167799
762.274	0.0166476
762.352	0.0167566
762.431	0.0166911
762.509	0.0166598
762.587	0.0166682
762.665	0.0165530
762.743	0.0168214
762.821	0.0166888
762.899	0.0165891
762.977	0.0165778
763.056	0.0165245
763.134	0.0165382
763.212	0.0165107
763.290	0.0165389
763.368	0.0165196
763.446	0.0165364
763.524	0.0164775
763.602	0.0165202
763.681	0.0164711
763.759	0.0164651
763.837	0.0165211
763.915	0.0166019
763.993	0.0165082
764.071	0.0164455
764.149	0.0164194
764.227	0.0166310
764.306	0.0165072
764.384	0.0165732
764.462	0.0166375
764.540	0.0165050
764.618	0.0165309
764.696	0.0165805
764.774	0.0164935
764.852	0.0165988
764.931	0.0165261
765.009	0.0165916
765.087	0.0166114
765.165	0.0165561
765.243	0.0167184
765.321	0.0165417
765.399	0.0164941
765.477	0.0163871
765.556	0.0164674
765.634	0.0165996
765.712	0.0164118
765.790	0.0164960
765.868	0.0166810
765.946	0.0165628
766.024	0.0165118
766.102	0.0165390
766.181	0.0166434
766.259	0.0166158
766.337	0.0166207
766.415	0.0166165
766.493	0.0164246
766.571	0.0166238
766.649	0.0165723
766.727	0.0164887
766.806	0.0165692
766.884	0.0165444
766.962	0.0165937
767.040	0.0167074
767.118	0.0165673
767.196	0.0165567
767.274	0.0165055
767.352	0.0165430
767.431	0.0165298
767.509	0.0164756
767.587	0.0164471
767.665	0.0165367
767.743	0.0163745
767.821	0.0164852
767.899	0.0164021
767.977	0.0163976
768.056	0.0165600
768.134	0.0164656
768.212	0.0164738
768.290	0.0164852
768.368	0.0165231
768.446	0.0163985
768.524	0.0163022
768.602	0.0164182
768.681	0.0163847
768.759	0.0164532
768.837	0.0162605
768.915	0.0162698
768.993	0.0163912
769.071	0.0163116
769.149	0.0162914
769.227	0.0162640
769.306	0.0164090
769.384	0.0162838
769.462	0.0163161
769.540	0.0164517
769.618	0.0163661
769.696	0.0162909
769.774	0.0163876
769.852	0.0163601
769.931	0.0164131
770.009	0.0164217
770.087	0.0164042
770.165	0.0165453
770.243	0.0163313
770.321	0.0164262
770.399	0.0164509
770.477	0.0163453
770.556	0.0166193
770.634	0.0165341
770.712	0.0165159
770.790	0.0164995
770.868	0.0164120
770.946	0.0164342
771.024	0.0165130
771.102	0.0165079
771.181	0.0165389
771.259	0.0166825
771.337	0.0163457
771.415	0.0165675
771.493	0.0164890
771.571	0.0165723
771.649	0.0164398
771.727	0.0166582
771.806	0.0165557
771.884	0.0165305
771.962	0.0166238
772.040	0.0166636
772.118	0.0165423
772.196	0.0165421
772.274	0.0166418
772.352	0.0166550
772.431	0.0167329
772.509	0.0165901
772.587	0.0167760
772.665	0.0168221
772.743	0.0166630
772.821	0.0167763
772.899	0.0167641
772.977	0.0168186
773.056	0.0166968
773.134	0.0167043
773.212	0.0166835
773.290	0.0165952
773.368	0.0165887
773.446	0.0165157
773.524	0.0167563
773.602	0.0165794
773.681	0.0164368
773.759	0.0165496
773.837	0.0166454
773.915	0.0165845
773.993	0.0165679
774.071	0.0165993
774.149	0.0164543
774.227	0.0163982
774.306	0.0166013
774.384	0.0165904
774.462	0.0165493
774.540	0.0165685
774.618	0.0165165
774.696	0.0165578
774.774	0.0166670
774.852	0.0166426
774.931	0.0165681
775.009	0.0166041
775.087	0.0166309
775.165	0.0165359
775.243	0.0165788
775.321	0.0166191
775.399	0.0166311
775.477	0.0164766
775.556	0.0165519
775.634	0.0166836
775.712	0.0167075
775.790	0.0166950
775.868	0.0165743
775.946	0.0165880
776.024	0.0167185
776.102	0.0166896
776.181	0.0165851
776.259	0.0166962
776.337	0.0166587
776.415	0.0165568
776.493	0.0166677
776.571	0.0165166
776.649	0.0167120
776.727	0.0166689
776.806	0.0166999
776.884	0.0166552
776.962	0.0165508
777.040	0.0165941
777.118	0.0165317
777.196	0.0166369
777.274	0.0166194
777.352	0.0167101
777.431	0.0164893
777.509	0.0163808
777.587	0.0165407
777.665	0.0165295
777.743	0.0164491
777.821	0.0165139
777.899	0.0164314
777.977	0.0164641
778.056	0.0164943
778.134	0.0165368
778.212	0.0164494
778.290	0.0163978
778.368	0.0163567
778.446	0.0164561
778.524	0.0164283
778.602	0.0163619
778.681	0.0162193
778.759	0.0164439
778.837	0.0163851
778.915	0.0162830
778.993	0.0163583
779.071	0.0165389
779.149	0.0164010
779.227	0.0163935
779.306	0.0164125
779.384	0.0163666
779.462	0.0163759
779.540	0.0163390
779.618	0.0163499
779.696	0.0162693
779.774	0.0164478
779.852	0.0162901
779.931	0.0164795
780.009	0.0163403
780.087	0.0164453
780.165	0.0162992
780.243	0.0163821
780.321	0.0165752
780.399	0.0164708
780.477	0.0163721
780.556	0.0164046
780.634	0.0164705
780.712	0.0164469
780.790	0.0164500
780.868	0.0165107
780.946	0.0165711
781.024	0.0164531
781.102	0.0166070
781.181	0.0164832
781.259	0.0164970
781.337	0.0165936
781.415	0.0165919
781.493	0.0167766
781.571	0.0165859
781.649	0.0165441
781.727	0.0166208
781.806	0.0166231
781.884	0.0166631
781.962	0.0166535
782.040	0.0165926
782.118	0.0165648
782.196	0.0167464
782.274	0.0165723
782.352	0.0165314
782.431	0.0165994
782.509	0.0167229
782.587	0.0166227
782.665	0.0165788
782.743	0.0165338
782.821	0.0165472
782.899	0.0166138
782.977	0.0165376
783.056	0.0166416
783.134	0.0167354
783.212	0.0165791
783.290	0.0166286
783.368	0.0166206
783.446	0.0165224
783.524	0.0166228
783.602	0.0165501
783.681	0.0165320
783.759	0.0167158
783.837	0.0165702
783.915	0.0166187
783.993	0.0165286
784.071	0.0165681
784.149	0.0165651
784.227	0.0164566
784.306	0.0166445
784.384	0.0164616
784.462	0.0165510
784.540	0.0165459
784.618	0.0164751
784.696	0.0165801
784.774	0.0166367
784.852	0.0166498
784.931	0.0164158
785.009	0.0166147
785.087	0.0165960
785.165	0.0165302
785.243	0.0165939
785.321	0.0165504
785.399	0.0164380
785.477	0.0165961
785.556	0.0166676
785.634	0.0165280
785.712	0.0165792
785.790	0.0165595
785.868	0.0166941
785.946	0.0164962
786.024	0.0164751
786.102	0.0164777
786.181	0.0164650
786.259	0.0164722
786.337	0.0164474
786.415	0.0163965
786.493	0.0163039
786.571	0.0164233
786.649	0.0164820
786.727	0.0163995
786.806	0.0162987
786.884	0.0163100
786.962	0.0163429
787.040	0.0164178
787.118	0.0163107
787.196	0.0163248
787.274	0.0162164
787.352	0.0163000
787.431	0.0162904
787.509	0.0163026
787.587	0.0163262
787.665	0.0163881
787.743	0.0161934
787.821	0.0163048
787.899	0.0163745
787.977	0.0163825
788.056	0.0162514
788.134	0.0160880
788.212	0.0162863
788.290	0.0163440
788.368	0.0164842
788.446	0.0165369
788.524	0.0163705
788.602	0.0164207
788.681	0.0163937
788.759	0.0163931
788.837	0.0163938
788.915	0.0164572
788.993	0.0165956
789.071	0.0165495
789.149	0.0165001
789.227	0.0166366
789.306	0.0165614
789.384	0.0165759
789.462	0.0166586
789.540	0.0165073
789.618	0.0166569
789.696	0.0167180
789.774	0.0166570
789.852	0.0167439
789.931	0.0166925
790.009	0.0166696
790.087	0.0167939
790.165	0.0165585
790.243	0.0167333
790.321	0.0166714
790.399	0.0167873
790.477	0.0167786
790.556	0.0166695
790.634	0.0168452
790.712	0.0168007
790.790	0.0165745
790.868	0.0166170
790.946	0.0168490
791.024	0.0166643
791.102	0.0167262
791.181	0.0167202
791.259	0.0166511
791.337	0.0166589
791.415	0.0166892
791.493	0.0166764
791.571	0.0165427
791.649	0.0166332
791.727	0.0167040
791.806	0.0167146
791.884	0.0166803
791.962	0.0165671
792.040	0.0166605
792.118	0.0164970
792.196	0.0165790
792.274	0.0166811
792.352	0.0165273
792.431	0.0165055
792.509	0.0165454
792.587	0.0166134
792.665	0.0166078
792.743	0.0167424
792.821	0.0164819
792.899	0.0164705
792.977	0.0164619
793.056	0.0165440
793.134	0.0165268
793.212	0.0166609
793.290	0.0164868
793.368	0.0166640
793.446	0.0164652
793.524	0.0165630
793.602	0.0164923
793.681	0.0166656
793.759	0.0165102
793.837	0.0165871
793.915	0.0165736
793.993	0.0166044
794.071	0.0166647
794.149	0.0164778
794.227	0.0164953
794.306	0.0163788
794.384	0.0163683
794.462	0.0164330
794.540	0.0164412
794.618	0.0163735
794.696	0.0165180
794.774	0.0166223
794.852	0.0164594
794.931	0.0163686
795.009	0.0164569
795.087	0.0164268
795.165	0.0163490
795.243	0.0164788
795.321	0.0164717
795.399	0.0164285
795.477	0.0164222
795.556	0.0163318
795.634	0.0163647
795.712	0.0164056
795.790	0.0164637
795.868	0.0164954
795.946	0.0164224
796.024	0.0165858
796.102	0.0164447
796.181	0.0164721
796.259	0.0164788
796.337	0.0164129
796.415	0.0164515
796.493	0.0165643
796.571	0.0166934
796.649	0.0165996
796.727	0.0164304
796.806	0.0165228
796.884	0.0166479
796.962	0.0166051
797.040	0.0165958
797.118	0.0165598
797.196	0.0166084
797.274	0.0165801
797.352	0.0165356
797.431	0.0165395
797.509	0.0165884
797.587	0.0166186
797.665	0.0165825
797.743	0.0165824
797.821	0.0165533
797.899	0.0165868
797.977	0.0166456
798.056	0.0165541
798.134	0.0165313
798.212	0.0163647
798.290	0.0164622
798.368	0.0164905
798.446	0.0165756
798.524	0.0165419
798.602	0.0164301
798.681	0.0164762
798.759	0.0164500
798.837	0.0163937
798.915	0.0163153
798.993	0.0164938
799.071	0.0164360
799.149	0.0164049
799.227	0.0163388
799.306	0.0163976
799.384	0.0164638
799.462	0.0162859
799.540	0.0164882
799.618	0.0163810
799.696	0.0164027
799.774	0.0163879
799.852	0.0164619
799.931	0.0164879
800.009	0.0164815
800.087	0.0164251
800.165	0.0164925
800.243	0.0164903
800.321	0.0164245
800.399	0.0164562
800.477	0.0164132
800.556	0.0164811
800.634	0.0163679
800.712	0.0163739
800.790	0.0166479
800.868	0.0165829
800.946	0.0164512
801.024	0.0164791
801.102	0.0164932
801.181	0.0164307
801.259	0.0165353
801.337	0.0164831
801.415	0.0164068
801.493	0.0164927
801.571	0.0165153
801.649	0.0164810
801.727	0.0163789
801.806	0.0164159
801.884	0.0164554
801.962	0.0164822
802.040	0.0163155
802.118	0.0162714
802.196	0.0165240
802.274	0.0164546
802.352	0.0163684
802.431	0.0165450
802.509	0.0164785
802.587	0.0164252
802.665	0.0165349
802.743	0.0164150
802.821	0.0163741
802.899	0.0161993
802.977	0.0163390
803.056	0.0163287
803.134	0.0163959
803.212	0.0163293
803.290	0.0165034
803.368	0.0164235
803.446	0.0164153
803.524	0.0166092
803.602	0.0165414
803.681	0.0164317
803.759	0.0165923
803.837	0.0165371
803.915	0.0166174
803.993	0.0165276
804.071	0.0164507
804.149	0.0166721
804.227	0.0165804
804.306	0.0165515
804.384	0.0165135
804.462	0.0166093
804.540	0.0166032
804.618	0.0166779
804.696	0.0165931
804.774	0.0165965
804.852	0.0166820
804.931	0.0165466
805.009	0.0167672
805.087	0.0164643
805.165	0.0165225
805.243	0.0166102
805.321	0.0167648
805.399	0.0167339
805.477	0.0166468
805.556	0.0165179
805.634	0.0166872
805.712	0.0166375
805.790	0.0166062
805.868	0.0167178
805.946	0.0166669
806.024	0.0167242
806.102	0.0165771
806.181	0.0165211
806.259	0.0165612
806.337	0.0166525
806.415	0.0165956
806.493	0.0165359
806.571	0.0166169
806.649	0.0165322
806.727	0.0166947
806.806	0.0165388
806.884	0.0164548
806.962	0.0165678
807.040	0.0165965
807.118	0.0164716
807.196	0.0163662
807.274	0.0164825
807.352	0.0165199
807.431	0.0164273
807.509	0.0164327
807.587	0.0164596
807.665	0.0164878
807.743	0.0162859
807.821	0.0163503
807.899	0.0165247
807.977	0.0164915
808.056	0.0163695
808.134	0.0164026
808.212	0.0164850
808.290	0.0163647
808.368	0.0163219
808.446	0.0163036
808.524	0.0164810
808.602	0.0164021
808.681	0.0163852
808.759	0.0163678
808.837	0.0164422
808.915	0.0164521
808.993	0.0165485
809.071	0.0165147
809.149	0.0163907
809.227	0.0163457
809.306	0.0165462
809.384	0.0164562
809.462	0.0165716
809.540	0.0165060
809.618	0.0164815
809.696	0.0165869
809.774	0.0164996
809.852	0.0165192
809.931	0.0165691
810.009	0.0165882
810.087	0.0165889
810.165	0.0165468
810.243	0.0165874
810.321	0.0165929
810.399	0.0165979
810.477	0.0165225
810.556	0.0166100
810.634	0.0168033
810.712	0.0165685
810.790	0.0165111
810.868	0.0165780
810.946	0.0167351
811.024	0.0165543
811.102	0.0165967
811.181	0.0165277
811.259	0.0165588
811.337	0.0165757
811.415	0.0165853
811.493	0.0165189
811.571	0.0164091
811.649	0.0163564
811.727	0.0163979
811.806	0.0163078
811.884	0.0163834
811.962	0.0162990
812.040	0.0163376
812.118	0.0162976
812.196	0.0164816
812.274	0.0163246
812.352	0.0162298
812.431	0.0162583
812.509	0.0162774
812.587	0.0163696
812.665	0.0162949
812.743	0.0162192
812.821	0.0162908
812.899	0.0164108
812.977	0.0163111
813.056	0.0163328
813.134	0.0163437
813.212	0.0163834
813.290	0.0163162
813.368	0.0164243
813.446	0.0164053
813.524	0.0164433
813.602	0.0163939
813.681	0.0164278
813.759	0.0163900
813.837	0.0164947
813.915	0.0164819
813.993	0.0165295
814.071	0.0165598
814.149	0.0166493
814.227	0.0165865
814.306	0.0166394
814.384	0.0166013
814.462	0.0165396
814.540	0.0165437
814.618	0.0166660
814.696	0.0165389
814.774	0.0165408
814.852	0.0166351
814.931	0.0166294
815.009	0.0166805
815.087	0.0166209
815.165	0.0167653
815.243	0.0165362
815.321	0.0164445
815.399	0.0165051
815.477	0.0165498
815.556	0.0165088
815.634	0.0165012
815.712	0.0166546
815.790	0.0165649
815.868	0.0165166
815.946	0.0165366
816.024	0.0164500
816.102	0.0165278
816.181	0.0165880
816.259	0.0164244
816.337	0.0165188
816.415	0.0165096
816.493	0.0166393
816.571	0.0164368
816.649	0.0164348
816.727	0.0164381
816.806	0.0164571
816.884	0.0165108
816.962	0.0163953
817.040	0.0165201
817.118	0.0166158
817.196	0.0164911
817.274	0.0163210
817.352	0.0164024
817.431	0.0164970
817.509	0.0164503
817.587	0.0163728
817.665	0.0164074
817.743	0.0164291
817.821	0.0163884
817.899	0.0163661
817.977	0.0164214
818.056	0.0164280
818.134	0.0164851
818.212	0.0166208
818.290	0.0166311
818.368	0.0166769
818.446	0.0165070
818.524	0.0163501
818.602	0.0166791
818.681	0.0165876
818.759	0.0167202
818.837	0.0167937
818.915	0.0165435
818.993	0.0166286
819.071	0.0164775
819.149	0.0165847
819.227	0.0166383
819.306	0.0167105
819.384	0.0166695
819.462	0.0165204
819.540	0.0165168
819.618	0.0166461
819.696	0.0166425
819.774	0.0165771
819.852	0.0164739
819.931	0.0165266
820.009	0.0166269
820.087	0.0166438
820.165	0.0165669
820.243	0.0166141
820.321	0.0164491
820.399	0.0165693
820.477	0.0165506
820.556	0.0165305
820.634	0.0165463
820.712	0.0165845
820.790	0.0165128
820.868	0.0164590
820.946	0.0165234
821.024	0.0165302
821.102	0.0165498
821.181	0.0166025
821.259	0.0164668
821.337	0.0165343
821.415	0.0165709
821.493	0.0165672
821.571	0.0165766
821.649	0.0164470
821.727	0.0163557
821.806	0.0164124
821.884	0.0165913
821.962	0.0163952
822.040	0.0164133
822.118	0.0164649
822.196	0.0164193
822.274	0.0164822
822.352	0.0163768
822.431	0.0163890
822.509	0.0163549
822.587	0.0164233
822.665	0.0162654
822.743	0.0162824
822.821	0.0164275
822.899	0.0164470
822.977	0.0163603
823.056	0.0164610
823.134	0.0164633
823.212	0.0164053
823.290	0.0162772
823.368	0.0163879
823.446	0.0163830
823.524	0.0164478
823.602	0.0163689
823.681	0.0164556
823.759	0.0163930
823.837	0.0165039
823.915	0.0164579
823.993	0.0162972
824.071	0.0166079
824.149	0.0164541
824.227	0.0164260
824.306	0.0164601
824.384	0.0164420
824.462	0.0164504
824.540	0.0163713
824.618	0.0163159
824.696	0.0163631
824.774	0.0163401
824.852	0.0164510
824.931	0.0163603
825.009	0.0163986
825.087	0.0163731
825.165	0.0162525
825.243	0.0164688
825.321	0.0162711
825.399	0.0161856
825.477	0.0163574
825.556	0.0163593
825.634	0.0164721
825.712	0.0164924
825.790	0.0163805
825.868	0.0164494
825.946	0.0165093
826.024	0.0164693
826.102	0.0162705
826.181	0.0164515
826.259	0.0164368
826.337	0.0164231
826.415	0.0165099
826.493	0.0164800
826.571	0.0164351
826.649	0.0165575
826.727	0.0165771
826.806	0.0164484
826.884	0.0164968
826.962	0.0164605
827.040	0.0164001
827.118	0.0163654
827.196	0.0163789
827.274	0.0164652
827.352	0.0163545
827.431	0.0164522
827.509	0.0163688
827.587	0.0164210
827.665	0.0164843
827.743	0.0163364
827.821	0.0164906
827.899	0.0164612
827.977	0.0164330
828.056	0.0164776
828.134	0.0164503
828.212	0.0164117
828.290	0.0165131
828.368	0.0164158
828.446	0.0164925
828.524	0.0164696
828.602	0.0165057
828.681	0.0165050
828.759	0.0163689
828.837	0.0166466
828.915	0.0166879
828.993	0.0165214
829.071	0.0165294
829.149	0.0163892
829.227	0.0165619
829.306	0.0166348
829.384	0.0164925
829.462	0.0166503
829.540	0.0165015
829.618	0.0166861
829.696	0.0165091
829.774	0.0164143
829.852	0.0164912
829.931	0.0165425
830.009	0.0166966
830.087	0.0167030
830.165	0.0166105
830.243	0.0166512
830.321	0.0166071
830.399	0.0166998
830.477	0.0165566
830.556	0.0165250
830.634	0.0165981
830.712	0.0167394
830.790	0.0164603
830.868	0.0166732
830.946	0.0164857
831.024	0.0165722
831.102	0.0165611
831.181	0.0165989
831.259	0.0165954
831.337	0.0164687
831.415	0.0165576
831.493	0.0166978
831.571	0.0164648
831.649	0.0164469
831.727	0.0165124
831.806	0.0165869
831.884	0.0166098
831.962	0.0166367
832.040	0.0165570
832.118	0.0165659
832.196	0.0164919
832.274	0.0166242
832.352	0.0165704
832.431	0.0164919
832.509	0.0166077
832.587	0.0166096
832.665	0.0163496
832.743	0.0164535
832.821	0.0164456
832.899	0.0164529
832.977	0.0165807
833.056	0.0166645
833.134	0.0165262
833.212	0.0164185
833.290	0.0164986
833.368	0.0165810
833.446	0.0165560
833.524	0.0165394
833.602	0.0163908
833.681	0.0165205
833.759	0.0164738
833.837	0.0165729
833.915	0.0164989
833.993	0.0164319
834.071	0.0166239
834.149	0.0165619
834.227	0.0163927
834.306	0.0164749
834.384	0.0165269
834.462	0.0164394
834.540	0.0165596
834.618	0.0166323
834.696	0.0164763
834.774	0.0165062
834.852	0.0164215
834.931	0.0164668
835.009	0.0164000
835.087	0.0165128
835.165	0.0164577
835.243	0.0164086
835.321	0.0164262
835.399	0.0163824
835.477	0.0164809
835.556	0.0164104
835.634	0.0164622
835.712	0.0164823
835.790	0.0163441
835.868	0.0164798
835.946	0.0164746
836.024	0.0166557
836.102	0.0164801
836.181	0.0165089
836.259	0.0164309
836.337	0.0165591
836.415	0.0165900
836.493	0.0165077
836.571	0.0166552
836.649	0.0165654
836.727	0.0165768
836.806	0.0165908
836.884	0.0166602
836.962	0.0165537
837.040	0.0165614
837.118	0.0166785
837.196	0.0166427
837.274	0.0167082
837.352	0.0167332
837.431	0.0165036
837.509	0.0166474
837.587	0.0165562
837.665	0.0165311
837.743	0.0165263
837.821	0.0165703
837.899	0.0165482
837.977	0.0165586
838.056	0.0165901
838.134	0.0167133
838.212	0.0166277
838.290	0.0165993
838.368	0.0166161
838.446	0.0163960
838.524	0.0164309
838.602	0.0167518
838.681	0.0164640
838.759	0.0165404
838.837	0.0165121
838.915	0.0164941
838.993	0.0164484
839.071	0.0164426
839.149	0.0165362
839.227	0.0166755
839.306	0.0165833
839.384	0.0164244
839.462	0.0165220
839.540	0.0165065
839.618	0.0165114
839.696	0.0166298
839.774	0.0165963
839.852	0.0164610
839.931	0.0163612
840.009	0.0165010
840.087	0.0164600
840.165	0.0164369
840.243	0.0163171
840.321	0.0163433
840.399	0.0164981
840.477	0.0163377
840.556	0.0163736
840.634	0.0163545
840.712	0.0162660
840.790	0.0163418
840.868	0.0164512
840.946	0.0162889
841.024	0.0163590
841.102	0.0163973
841.181	0.0164172
841.259	0.0164440
841.337	0.0162685
841.415	0.0163225
841.493	0.0164100
841.571	0.0164654
841.649	0.0164553
841.727	0.0164393
841.806	0.0164103
841.884	0.0163779
841.962	0.0163582
842.040	0.0164523
842.118	0.0166235
842.196	0.0164565
842.274	0.0166093
842.352	0.0163892
842.431	0.0165099
842.509	0.0166869
842.587	0.0165295
842.665	0.0166591
842.743	0.0165826
842.821	0.0165649
842.899	0.0165092
842.977	0.0163911
843.056	0.0166280
843.134	0.0166128
843.212	0.0165108
843.290	0.0166469
843.368	0.0165358
843.446	0.0166689
843.524	0.0164906
843.602	0.0164409
843.681	0.0165057
843.759	0.0166356
843.837	0.0165475
843.915	0.0164138
843.993	0.0165334
844.071	0.0163925
844.149	0.0164798
844.227	0.0165128
844.306	0.0164810
844.384	0.0165212
844.462	0.0164333
844.540	0.0164520
844.618	0.0164711
844.696	0.0164612
844.774	0.0165808
844.852	0.0166904
844.931	0.0165414
845.009	0.0166463
845.087	0.0166662
845.165	0.0165625
845.243	0.0166403
845.321	0.0166556
845.399	0.0166361
845.477	0.0166330
845.556	0.0164848
845.634	0.0166267
845.712	0.0165234
845.790	0.0164557
845.868	0.0165766
845.946	0.0166089
846.024	0.0167345
846.102	0.0165456
846.181	0.0165313
846.259	0.0166436
846.337	0.0165932
846.415	0.0165462
846.493	0.0165412
846.571	0.0166347
846.649	0.0166714
846.727	0.0166722
846.806	0.0165220
846.884	0.0166459
846.962	0.0166396
847.040	0.0164573
847.118	0.0165519
847.196	0.0165096
847.274	0.0165233
847.352	0.0164477
847.431	0.0165723
847.509	0.0164405
847.587	0.0165112
847.665	0.0163824
847.743	0.0162904
847.821	0.0164615
847.899	0.0165358
847.977	0.0164417
848.056	0.0165611
848.134	0.0164447
848.212	0.0164904
848.290	0.0164957
848.368	0.0162672
848.446	0.0164861
848.524	0.0161945
848.602	0.0162785
848.681	0.0163878
848.759	0.0163676
848.837	0.0163636
848.915	0.0163092
848.993	0.0164494
849.071	0.0164816
849.149	0.0163492
849.227	0.0164046
849.306	0.0164285
849.384	0.0164194
849.462	0.0164459
849.540	0.0165060
849.618	0.0163792
849.696	0.0164279
849.774	0.0164792
849.852	0.0164480
849.931	0.0166090
850.009	0.0165284
850.087	0.0165870
850.165	0.0165543
850.243	0.0164294
850.321	0.0165015
850.399	0.0165321
850.477	0.0165088
850.556	0.0164869
850.634	0.0167732
850.712	0.0167438
850.790	0.0165375
850.868	0.0166760
850.946	0.0165746
851.024	0.0166175
851.102	0.0166708
851.181	0.0165543
851.259	0.0164919
851.337	0.0166726
851.415	0.0165961
851.493	0.0166981
851.571	0.0166739
851.649	0.0166592
851.727	0.0165801
851.806	0.0165546
851.884	0.0166081
851.962	0.0167599
852.040	0.0165948
852.118	0.0165502
852.196	0.0165611
852.274	0.0165163
852.352	0.0165849
852.431	0.0166424
852.509	0.0164359
852.587	0.0165105
852.665	0.0164740
852.743	0.0164037
852.821	0.0164922
852.899	0.0164127
852.977	0.0164219
853.056	0.0163706
853.134	0.0164176
853.212	0.0163271
853.290	0.0164220
853.368	0.0162332
853.446	0.0162576
853.524	0.0162974
853.602	0.0163117
853.681	0.0162880
853.759	0.0164509
853.837	0.0163020
853.915	0.0162451
853.993	0.0163007
854.071	0.0163945
854.149	0.0162852
854.227	0.0164339
854.306	0.0163984
854.384	0.0163726
854.462	0.0165421
854.540	0.0163921
854.618	0.0161725
854.696	0.0163120
854.774	0.0164104
854.852	0.0163149
854.931	0.0163940
855.009	0.0164983
855.087	0.0164738
855.165	0.0164983
855.243	0.0165280
855.321	0.0165586
855.399	0.0165668
855.477	0.0163795
855.556	0.0166357
855.634	0.0167474
855.712	0.0165585
855.790	0.0166258
855.868	0.0165031
855.946	0.0167020
856.024	0.0164629
856.102	0.0166066
856.181	0.0164755
856.259	0.0165127
856.337	0.0166415
856.415	0.0166424
856.493	0.0165482
856.571	0.0164828
856.649	0.0164505
856.727	0.0166234
856.806	0.0165978
856.884	0.0164483
856.962	0.0164642
857.040	0.0165353
857.118	0.0164709
857.196	0.0165494
857.274	0.0165042
857.352	0.0163947
857.431	0.0165091
857.509	0.0165567
857.587	0.0164531
857.665	0.0164567
857.743	0.0165262
857.821	0.0165426
857.899	0.0164523
857.977	0.0166467
858.056	0.0163956
858.134	0.0162759
858.212	0.0165048
858.290	0.0164989
858.368	0.0165916
858.446	0.0165504
858.524	0.0163811
858.602	0.0164268
858.681	0.0165393
858.759	0.0164524
858.837	0.0163350
858.915	0.0165557
858.993	0.0164408
859.071	0.0164650
859.149	0.0164005
859.227	0.0164425
859.306	0.0165420
859.384	0.0165138
859.462	0.0164785
859.540	0.0165585
859.618	0.0165125
859.696	0.0165774
859.774	0.0164809
859.852	0.0163866
859.931	0.0166473
860.009	0.0166039
860.087	0.0165672
860.165	0.0165447
860.243	0.0164446
860.321	0.0168145
860.399	0.0165679
860.477	0.0164996
860.556	0.0164784
860.634	0.0164878
860.712	0.0165314
860.790	0.0166248
860.868	0.0165524
860.946	0.0164402
861.024	0.0165240
861.102	0.0165000
861.181	0.0164922
861.259	0.0166610
861.337	0.0165344
861.415	0.0164377
861.493	0.0166689
861.571	0.0165505
861.649	0.0165005
861.727	0.0166499
861.806	0.0166505
861.884	0.0166073
861.962	0.0163984
862.040	0.0166313
862.118	0.0166808
862.196	0.0164604
862.274	0.0164253
862.352	0.0164807
862.431	0.0166143
862.509	0.0164409
862.587	0.0164612
862.665	0.0163771
862.743	0.0163863
862.821	0.0164048
862.899	0.0163245
862.977	0.0163272
863.056	0.0164406
863.134	0.0164905
863.212	0.0164246
863.290	0.0163330
863.368	0.0163336
863.446	0.0164393
863.524	0.0164493
863.602	0.0163594
863.681	0.0164266
863.759	0.0164733
863.837	0.0163716
863.915	0.0164082
863.993	0.0163634
864.071	0.0164356
864.149	0.0164705
864.227	0.0165404
864.306	0.0164810
864.384	0.0165479
864.462	0.0164742
864.540	0.0163899
864.618	0.0164674
864.696	0.0165607
864.774	0.0165380
864.852	0.0165177
864.931	0.0164119
865.009	0.0164149
865.087	0.0166385
865.165	0.0165430
865.243	0.0164458
865.321	0.0163900
865.399	0.0164715
865.477	0.0163269
865.556	0.0164219
865.634	0.0164176
865.712	0.0164534
865.790	0.0164937
865.868	0.0162720
865.946	0.0164001
866.024	0.0164677
866.102	0.0164761
866.181	0.0165234
866.259	0.0165230
866.337	0.0164955
866.415	0.0164169
866.493	0.0165894
866.571	0.0168143
866.649	0.0165438
866.727	0.0165631
866.806	0.0166422
866.884	0.0165402
866.962	0.0168078
867.040	0.0165971
867.118	0.0165237
867.196	0.0166431
867.274	0.0166377
867.352	0.0165584
867.431	0.0165295
867.509	0.0165863
867.587	0.0165938
867.665	0.0166276
867.743	0.0165837
867.821	0.0164929
867.899	0.0165680
867.977	0.0165203
868.056	0.0165194
868.134	0.0165690
868.212	0.0166022
868.290	0.0165417
868.368	0.0164590
868.446	0.0165386
868.524	0.0165545
868.602	0.0165760
868.681	0.0164508
868.759	0.0165739
868.837	0.0166224
868.915	0.0165752
868.993	0.0166675
869.071	0.0164998
869.149	0.0164950
869.227	0.0165257
869.306	0.0165447
869.384	0.0164736
869.462	0.0165812
869.540	0.0164250
869.618	0.0165043
869.696	0.0165717
869.774	0.0164526
869.852	0.0165553
869.931	0.0164670
870.009	0.0166177
870.087	0.0165623
870.165	0.0164453
870.243	0.0164001
870.321	0.0164099
870.399	0.0164125
870.477	0.0162762
870.556	0.0163666
870.634	0.0163827
870.712	0.0161846
870.790	0.0164393
870.868	0.0163474
870.946	0.0163174
871.024	0.0164175
871.102	0.0162991
871.181	0.0162478
871.259	0.0162223
871.337	0.0163348
871.415	0.0163545
871.493	0.0163785
871.571	0.0162943
871.649	0.0162249
871.727	0.0163141
871.806	0.0163958
871.884	0.0162213
871.962	0.0163883
872.040	0.0163616
872.118	0.0164110
872.196	0.0164709
872.274	0.0164942
872.352	0.0163059
872.431	0.0165929
872.509	0.0164312
872.587	0.0165013
872.665	0.0164518
872.743	0.0165813
872.821	0.0165372
872.899	0.0165418
872.977	0.0166676
873.056	0.0166807
873.134	0.0166542
873.212	0.0165192
873.290	0.0165726
873.368	0.0166081
873.446	0.0164499
873.524	0.0165873
873.602	0.0166479
873.681	0.0165343
873.759	0.0165763
873.837	0.0165753
873.915	0.0166145
873.993	0.0164942
874.071	0.0165192
874.149	0.0164790
874.227	0.0163917
874.306	0.0164748
874.384	0.0165518
874.462	0.0164923
874.540	0.0163797
874.618	0.0164209
874.696	0.0164382
874.774	0.0164403
874.852	0.0164834
874.931	0.0165689
875.009	0.0163477
875.087	0.0164503
875.165	0.0165147
875.243	0.0164735
875.321	0.0163783
875.399	0.0163301
875.477	0.0163726
875.556	0.0163921
875.634	0.0163635
875.712	0.0163400
875.790	0.0164157
875.868	0.0163787
875.946	0.0164727
876.024	0.0164645
876.102	0.0164552
876.181	0.0164694
876.259	0.0165076
876.337	0.0165425
876.415	0.0164816
876.493	0.0165536
876.571	0.0164091
876.649	0.0165886
876.727	0.0165035
876.806	0.0164584
876.884	0.0165482
876.962	0.0166713
877.040	0.0165469
877.118	0.0165385
877.196	0.0165212
877.274	0.0165064
877.352	0.0165269
877.431	0.0165173
877.509	0.0165232
877.587	0.0166137
877.665	0.0165672
877.743	0.0165078
877.821	0.0164658
877.899	0.0166471
877.977	0.0166492
878.056	0.0165905
878.134	0.0165578
878.212	0.0164931
878.290	0.0165978
878.368	0.0165228
878.446	0.0165842
878.524	0.0164278
878.602	0.0165383
878.681	0.0164081
878.759	0.0164989
878.837	0.0166163
878.915	0.0164607
878.993	0.0164140
879.071	0.0165884
879.149	0.0165040
879.227	0.0164545
879.306	0.0163135
879.384	0.0165224
879.462	0.0164854
879.540	0.0164391
879.618	0.0165002
879.696	0.0165810
879.774	0.0165569
879.852	0.0165205
879.931	0.0164258
880.009	0.0165166
880.087	0.0165153
880.165	0.0165768
880.243	0.0164939
880.321	0.0166029
880.399	0.0165894
880.477	0.0166480
880.556	0.0164847
880.634	0.0164760
880.712	0.0165347
880.790	0.0164484
880.868	0.0164381
880.946	0.0163578
881.024	0.0164632
881.102	0.0164915
881.181	0.0163803
881.259	0.0164832
881.337	0.0164454
881.415	0.0163313
881.493	0.0162695
881.571	0.0164479
881.649	0.0164366
881.727	0.0163558
881.806	0.0162556
881.884	0.0162964
881.962	0.0163527
882.040	0.0163261
882.118	0.0162180
882.196	0.0162351
882.274	0.0163692
882.352	0.0163241
882.431	0.0162704
882.509	0.0164842
882.587	0.0162809
882.665	0.0163730
882.743	0.0163448
882.821	0.0164484
882.899	0.0165120
882.977	0.0165115
883.056	0.0165577
883.134	0.0164619
883.212	0.0166537
883.290	0.0167815
883.368	0.0165675
883.446	0.0165690
883.524	0.0166799
883.602	0.0166305
883.681	0.0166807
883.759	0.0167312
883.837	0.0167100
883.915	0.0166293
883.993	0.0166380
884.071	0.0166840
884.149	0.0166985
884.227	0.0166338
884.306	0.0166042
884.384	0.0166890
884.462	0.0166510
884.540	0.0165320
884.618	0.0165904
884.696	0.0166128
884.774	0.0166880
884.852	0.0165470
884.931	0.0165465
885.009	0.0165733
885.087	0.0165529
885.165	0.0164648
885.243	0.0164983
885.321	0.0166354
885.399	0.0165229
885.477	0.0164501
885.556	0.0164198
885.634	0.0163600
885.712	0.0165010
885.790	0.0164758
885.868	0.0163651
885.946	0.0163804
886.024	0.0164744
886.102	0.0165129
886.181	0.0163197
886.259	0.0163681
886.337	0.0164122
886.415	0.0164296
886.493	0.0164112
886.571	0.0164396
886.649	0.0163794
886.727	0.0163322
886.806	0.0163999
886.884	0.0163021
886.962	0.0162461
887.040	0.0162950
887.118	0.0164310
887.196	0.0162531
887.274	0.0163013
887.352	0.0163519
887.431	0.0163026
887.509	0.0163346
887.587	0.0164811
887.665	0.0163669
887.743	0.0163786
887.821	0.0163266
887.899	0.0163589
887.977	0.0163075
888.056	0.0162979
888.134	0.0164681
888.212	0.0163373
888.290	0.0163459
888.368	0.0162965
888.446	0.0164037
888.524	0.0163622
888.602	0.0164377
888.681	0.0164132
888.759	0.0162471
888.837	0.0162493
888.915	0.0163774
888.993	0.0163748
889.071	0.0163612
889.149	0.0164383
889.227	0.0164619
889.306	0.0163799
889.384	0.0165358
889.462	0.0165083
889.540	0.0164445
889.618	0.0163654
889.696	0.0164039
889.774	0.0164761
889.852	0.0163949
889.931	0.0164267
890.009	0.0165205
890.087	0.0164493
890.165	0.0163483
890.243	0.0163804
890.321	0.0165108
890.399	0.0165726
890.477	0.0163840
890.556	0.0165784
890.634	0.0164794
890.712	0.0164881
890.790	0.0164009
890.868	0.0163941
890.946	0.0165696
891.024	0.0165511
891.102	0.0165128
891.181	0.0165524
891.259	0.0165312
891.337	0.0164606
891.415	0.0164274
891.493	0.0164097
891.571	0.0163839
891.649	0.0164124
891.727	0.0163667
891.806	0.0164863
891.884	0.0164091
891.962	0.0164336
892.040	0.0164484
892.118	0.0164088
892.196	0.0163412
892.274	0.0164001
892.352	0.0165871
892.431	0.0164610
892.509	0.0163279
892.587	0.0164096
892.665	0.0164349
892.743	0.0164433
892.821	0.0164011
892.899	0.0163400
892.977	0.0163446
893.056	0.0162852
893.134	0.0164445
893.212	0.0163880
893.290	0.0164159
893.368	0.0163446
893.446	0.0164560
893.524	0.0164082
893.602	0.0163142
893.681	0.0162921
893.759	0.0164117
893.837	0.0163753
893.915	0.0163787
893.993	0.0164761
894.071	0.0164214
894.149	0.0164114
894.227	0.0164784
894.306	0.0165057
894.384	0.0165298
894.462	0.0164827
894.540	0.0163931
894.618	0.0164650
894.696	0.0166063
894.774	0.0165157
894.852	0.0165681
894.931	0.0166087
895.009	0.0165991
895.087	0.0166717
895.165	0.0164943
895.243	0.0165226
895.321	0.0164960
895.399	0.0165661
895.477	0.0164839
895.556	0.0164495
895.634	0.0164516
895.712	0.0164503
895.790	0.0163744
895.868	0.0163526
895.946	0.0165239
896.024	0.0164512
896.102	0.0165192
896.181	0.0164048
896.259	0.0163750
896.337	0.0165351
896.415	0.0164575
896.493	0.0164967
896.571	0.0164340
896.649	0.0165092
896.727	0.0163342
896.806	0.0163952
896.884	0.0163590
896.962	0.0164343
897.040	0.0164497
897.118	0.0164322
897.196	0.0164419
897.274	0.0162998
897.352	0.0163483
897.431	0.0164034
897.509	0.0163082
897.587	0.0162961
897.665	0.0163155
897.743	0.0162943
897.821	0.0164437
897.899	0.0162759
897.977	0.0163992
898.056	0.0164812
898.134	0.0164615
898.212	0.0163509
898.290	0.0163781
898.368	0.0164019
898.446	0.0164373
898.524	0.0164640
898.602	0.0164905
898.681	0.0164974
898.759	0.0164417
898.837	0.0165157
898.915	0.0165343
898.993	0.0165178
899.071	0.0164739
899.149	0.0165398
899.227	0.0164145
899.306	0.0164053
899.384	0.0165437
899.462	0.0165274
899.540	0.0163745
899.618	0.0162992
899.696	0.0163748
899.774	0.0163802
899.852	0.0164762
899.931	0.0163776
900.009	0.0162791
900.087	0.0163879
900.165	0.0163059
900.243	0.0163633
900.321	0.0163181
900.399	0.0162547
900.477	0.0164390
900.556	0.0163352
900.634	0.0162927
900.712	0.0164458
900.790	0.0164231
900.868	0.0164122
900.946	0.0164841
901.024	0.0163531
901.102	0.0164127
901.181	0.0163472
901.259	0.0166165
901.337	0.0165709
901.415	0.0164423
901.493	0.0163793
901.571	0.0164410
901.649	0.0165132
901.727	0.0164766
901.806	0.0164426
901.884	0.0164281
901.962	0.0164827
902.040	0.0164999
902.118	0.0163400
902.196	0.0163470
902.274	0.0163084
902.352	0.0164203
902.431	0.0164733
902.509	0.0163342
902.587	0.0164267
902.665	0.0164229
902.743	0.0164014
902.821	0.0162807
902.899	0.0164868
902.977	0.0163777
903.056	0.0164472
903.134	0.0165027
903.212	0.0164224
903.290	0.0164799
903.368	0.0164069
903.446	0.0164855
903.524	0.0166512
903.602	0.0164724
903.681	0.0162467
903.759	0.0164684
903.837	0.0165266
903.915	0.0166124
903.993	0.0166413
904.071	0.0164301
904.149	0.0164794
904.227	0.0165030
904.306	0.0164922
904.384	0.0164185
904.462	0.0165527
904.540	0.0164488
904.618	0.0165528
904.696	0.0163571
904.774	0.0164730
904.852	0.0164785
904.931	0.0164711
905.009	0.0164505
905.087	0.0163914
905.165	0.0162910
905.243	0.0162760
905.321	0.0161656
905.399	0.0162895
905.477	0.0163770
905.556	0.0162625
905.634	0.0162050
905.712	0.0163396
905.790	0.0163320
905.868	0.0162032
905.946	0.0163329
906.024	0.0162682
906.102	0.0163822
906.181	0.0163143
906.259	0.0164314
906.337	0.0164506
906.415	0.0165977
906.493	0.0166830
906.571	0.0165442
906.649	0.0165200
906.727	0.0165799
906.806	0.0167540
906.884	0.0165879
906.962	0.0165667
907.040	0.0166322
907.118	0.0167377
907.196	0.0167128
907.274	0.0166840
907.352	0.0166136
907.431	0.0166785
907.509	0.0165907
907.587	0.0167253
907.665	0.0166856
907.743	0.0167425
907.821	0.0166951
907.899	0.0167604
907.977	0.0167557
908.056	0.0168507
908.134	0.0168961
908.212	0.0168208
908.290	0.0167799
908.368	0.0167311
908.446	0.0167097
908.524	0.0167178
908.602	0.0167445
908.681	0.0167654
908.759	0.0167285
908.837	0.0166984
908.915	0.0167053
908.993	0.0166591
909.071	0.0166670
909.149	0.0166821
909.227	0.0166712
909.306	0.0165366
909.384	0.0166261
909.462	0.0165995
909.540	0.0165392
909.618	0.0165076
909.696	0.0165118
909.774	0.0165784
909.852	0.0164338
909.931	0.0166226
910.009	0.0164209
910.087	0.0163544
910.165	0.0164195
910.243	0.0164592
910.321	0.0164688
910.399	0.0163551
910.477	0.0164885
910.556	0.0164040
910.634	0.0164639
910.712	0.0163967
910.790	0.0164215
910.868	0.0164228
910.946	0.0163988
911.024	0.0165016
911.102	0.0164692
911.181	0.0165233
911.259	0.0163644
911.337	0.0165060
911.415	0.0164869
911.493	0.0164706
911.571	0.0164706
911.649	0.0164096
911.727	0.0165184
911.806	0.0164651
911.884	0.0166018
911.962	0.0164442
912.040	0.0164122
912.118	0.0164243
912.196	0.0165667
912.274	0.0164627
912.352	0.0165183
912.431	0.0164299
912.509	0.0163754
912.587	0.0164819
912.665	0.0167053
912.743	0.0164771
912.821	0.0164835
912.899	0.0163064
912.977	0.0164938
913.056	0.0162276
913.134	0.0163998
913.212	0.0164281
913.290	0.0164360
913.368	0.0162747
913.446	0.0162748
913.524	0.0164397
913.602	0.0163142
913.681	0.0161063
913.759	0.0162707
913.837	0.0161274
913.915	0.0162096
913.993	0.0162614
914.071	0.0162898
914.149	0.0163420
914.227	0.0162849
914.306	0.0162716
914.384	0.0163349
914.462	0.0163930
914.540	0.0163037
914.618	0.0163431
914.696	0.0164117
914.774	0.0164765
914.852	0.0164177
914.931	0.0164196
915.009	0.0165359
915.087	0.0164412
915.165	0.0166042
915.243	0.0164282
915.321	0.0165604
915.399	0.0165400
915.477	0.0166068
915.556	0.0165751
915.634	0.0165466
915.712	0.0166199
915.790	0.0166892
915.868	0.0166850
915.946	0.0167090
916.024	0.0166841
916.102	0.0167927
916.181	0.0167631
916.259	0.0167675
916.337	0.0167947
916.415	0.0166994
916.493	0.0166129
916.571	0.0166734
916.649	0.0165511
916.727	0.0165958
916.806	0.0166176
916.884	0.0166168
916.962	0.0165559
917.040	0.0166645
917.118	0.0165191
917.196	0.0165643
917.274	0.0165694
917.352	0.0166267
917.431	0.0165524
917.509	0.0164495
917.587	0.0164833
917.665	0.0164412
917.743	0.0165777
917.821	0.0165474
917.899	0.0164190
917.977	0.0163400
918.056	0.0164713
918.134	0.0164688
918.212	0.0163288
918.290	0.0163650
918.368	0.0164824
918.446	0.0165287
918.524	0.0163700
918.602	0.0163794
918.681	0.0163415
918.759	0.0164133
918.837	0.0163687
918.915	0.0163649
918.993	0.0163791
919.071	0.0164767
919.149	0.0164364
919.227	0.0164384
919.306	0.0164124
919.384	0.0164799
919.462	0.0164471
919.540	0.0165002
919.618	0.0164526
919.696	0.0164156
919.774	0.0163829
919.852	0.0166096
919.931	0.0165027
920.009	0.0164986
920.087	0.0165887
920.165	0.0165708
920.243	0.0165699
920.321	0.0164991
920.399	0.0165467
920.477	0.0167169
920.556	0.0165628
920.634	0.0166582
920.712	0.0165938
920.790	0.0166375
920.868	0.0166642
920.946	0.0166801
921.024	0.0165689
921.102	0.0165611
921.181	0.0165565
921.259	0.0165364
921.337	0.0165028
921.415	0.0165319
921.493	0.0166135
921.571	0.0165357
921.649	0.0166866
921.727	0.0165267
921.806	0.0165152
921.884	0.0164980
921.962	0.0164997
922.040	0.0164764
922.118	0.0164050
922.196	0.0164485
922.274	0.0164413
922.352	0.0164245
922.431	0.0164851
922.509	0.0163814
922.587	0.0163888
922.665	0.0163879
922.743	0.0165195
922.821	0.0164976
922.899	0.0164544
922.977	0.0164609
923.056	0.0165759
923.134	0.0164543
923.212	0.0163636
923.290	0.0163103
923.368	0.0162799
923.446	0.0165417
923.524	0.0163332
923.602	0.0163851
923.681	0.0164029
923.759	0.0164465
923.837	0.0164876
923.915	0.0164228
923.993	0.0164230
924.071	0.0165568
924.149	0.0165052
924.227	0.0164291
924.306	0.0164588
924.384	0.0164127
924.462	0.0163950
924.540	0.0165041
924.618	0.0164731
924.696	0.0164426
924.774	0.0164759
924.852	0.0163998
924.931	0.0163165
925.009	0.0163736
925.087	0.0164928
925.165	0.0164978
925.243	0.0164751
925.321	0.0164484
925.399	0.0164695
925.477	0.0164680
925.556	0.0164611
925.634	0.0164394
925.712	0.0164760
925.790	0.0164009
925.868	0.0165011
925.946	0.0166047
926.024	0.0164800
926.102	0.0164882
926.181	0.0164277
926.259	0.0163924
926.337	0.0164736
926.415	0.0164764
926.493	0.0165284
926.571	0.0164196
926.649	0.0164014
926.727	0.0164375
926.806	0.0165925
926.884	0.0164935
926.962	0.0163856
927.040	0.0164983
927.118	0.0165812
927.196	0.0164876
927.274	0.0165052
927.352	0.0164972
927.431	0.0166653
927.509	0.0165461
927.587	0.0165083
927.665	0.0164604
927.743	0.0164329
927.821	0.0164983
927.899	0.0166154
927.977	0.0166014
928.056	0.0165536
928.134	0.0164299
928.212	0.0163896
928.290	0.0162986
928.368	0.0163425
928.446	0.0165085
928.524	0.0163510
928.602	0.0164781
928.681	0.0164124
928.759	0.0163104
928.837	0.0164311
928.915	0.0166111
928.993	0.0163760
929.071	0.0163194
929.149	0.0165345
929.227	0.0164589
929.306	0.0164471
929.384	0.0165179
929.462	0.0163547
929.540	0.0165407
929.618	0.0165826
929.696	0.0162397
929.774	0.0164752
929.852	0.0165147
929.931	0.0165465
