05/19/2022	01:13:55	Ver.	4.1	UNKNOWN
Optical Delay	610.008675	Delta X		0.078125	Sweeps	1	Scan Rate	0/0
Coordinates	Axis 1	NaN	Axis 2	NaN	Axis 3	NaN	Axis 4	NaN	Axis 5	NaN	Axis 6	0.000000
TX Power	0.000000	RX Power	0.000000

610.009	0.0163779
610.087	0.0164284
610.165	0.0165163
610.243	0.0165173
610.321	0.0165251
610.399	0.0165295
610.477	0.0163757
610.556	0.0165137
610.634	0.0164617
610.712	0.0164709
610.790	0.0164049
610.868	0.0164214
610.946	0.0164238
611.024	0.0162137
611.102	0.0163384
611.181	0.0163194
611.259	0.0164459
611.337	0.0164651
611.415	0.0163972
611.493	0.0163960
611.571	0.0164771
611.649	0.0163551
611.727	0.0162762
611.806	0.0163563
611.884	0.0163049
611.962	0.0163100
612.040	0.0163961
612.118	0.0164366
612.196	0.0163643
612.274	0.0163398
612.352	0.0163335
612.431	0.0163380
612.509	0.0163871
612.587	0.0164628
612.665	0.0162936
612.743	0.0163226
612.821	0.0162740
612.899	0.0162623
612.977	0.0164370
613.056	0.0164574
613.134	0.0162851
613.212	0.0163736
613.290	0.0162923
613.368	0.0164178
613.446	0.0163289
613.524	0.0163367
613.602	0.0163135
613.681	0.0163338
613.759	0.0164034
613.837	0.0164120
613.915	0.0163495
613.993	0.0162799
614.071	0.0163123
614.149	0.0162847
614.227	0.0163084
614.306	0.0162424
614.384	0.0163713
614.462	0.0162780
614.540	0.0161887
614.618	0.0162975
614.696	0.0161808
614.774	0.0161347
614.852	0.0162286
614.931	0.0162332
615.009	0.0161821
615.087	0.0163130
615.165	0.0161523
615.243	0.0162349
615.321	0.0164307
615.399	0.0163222
615.477	0.0162613
615.556	0.0161642
615.634	0.0161848
615.712	0.0162754
615.790	0.0162061
615.868	0.0163928
615.946	0.0163702
616.024	0.0162109
616.102	0.0163364
616.181	0.0161500
616.259	0.0163658
616.337	0.0162688
616.415	0.0163141
616.493	0.0161382
616.571	0.0162531
616.649	0.0163428
616.727	0.0163609
616.806	0.0162794
616.884	0.0163642
616.962	0.0164611
617.040	0.0163873
617.118	0.0162737
617.196	0.0163097
617.274	0.0162977
617.352	0.0163074
617.431	0.0161546
617.509	0.0162501
617.587	0.0163770
617.665	0.0163390
617.743	0.0162523
617.821	0.0162040
617.899	0.0163773
617.977	0.0164674
618.056	0.0164220
618.134	0.0162558
618.212	0.0164803
618.290	0.0164885
618.368	0.0164106
618.446	0.0162051
618.524	0.0163823
618.602	0.0165240
618.681	0.0163638
618.759	0.0163853
618.837	0.0165707
618.915	0.0166209
618.993	0.0162586
619.071	0.0162288
619.149	0.0163300
619.227	0.0163811
619.306	0.0163171
619.384	0.0163294
619.462	0.0162859
619.540	0.0162336
619.618	0.0163065
619.696	0.0162839
619.774	0.0163185
619.852	0.0163538
619.931	0.0163794
620.009	0.0163368
620.087	0.0165359
620.165	0.0163374
620.243	0.0162805
620.321	0.0163828
620.399	0.0163518
620.477	0.0162990
620.556	0.0162572
620.634	0.0163706
620.712	0.0163126
620.790	0.0162890
620.868	0.0163326
620.946	0.0163223
621.024	0.0163303
621.102	0.0162656
621.181	0.0163087
621.259	0.0162954
621.337	0.0163982
621.415	0.0162956
621.493	0.0163729
621.571	0.0163055
621.649	0.0164388
621.727	0.0162514
621.806	0.0162547
621.884	0.0163882
621.962	0.0163740
622.040	0.0164265
622.118	0.0164732
622.196	0.0162711
622.274	0.0163065
622.352	0.0162708
622.431	0.0162007
622.509	0.0162438
622.587	0.0164396
622.665	0.0164062
622.743	0.0162070
622.821	0.0163073
622.899	0.0164143
622.977	0.0162229
623.056	0.0163774
623.134	0.0164079
623.212	0.0163895
623.290	0.0163730
623.368	0.0162383
623.446	0.0163743
623.524	0.0164232
623.602	0.0164128
623.681	0.0163655
623.759	0.0163358
623.837	0.0163294
623.915	0.0164501
623.993	0.0162522
624.071	0.0163168
624.149	0.0161758
624.227	0.0162098
624.306	0.0162981
624.384	0.0163202
624.462	0.0161340
624.540	0.0162770
624.618	0.0162532
624.696	0.0163058
624.774	0.0162675
624.852	0.0162550
624.931	0.0162467
625.009	0.0162178
625.087	0.0164063
625.165	0.0162617
625.243	0.0163104
625.321	0.0162592
625.399	0.0162718
625.477	0.0161441
625.556	0.0162276
625.634	0.0161797
625.712	0.0162901
625.790	0.0162756
625.868	0.0161259
625.946	0.0162264
626.024	0.0163769
626.102	0.0162446
626.181	0.0163125
626.259	0.0162543
626.337	0.0162136
626.415	0.0163026
626.493	0.0163663
626.571	0.0161975
626.649	0.0162846
626.727	0.0162861
626.806	0.0164908
626.884	0.0162895
626.962	0.0163412
627.040	0.0164082
627.118	0.0163516
627.196	0.0163696
627.274	0.0164426
627.352	0.0163860
627.431	0.0164404
627.509	0.0163548
627.587	0.0163538
627.665	0.0164307
627.743	0.0164392
627.821	0.0164742
627.899	0.0163407
627.977	0.0164034
628.056	0.0164979
628.134	0.0163685
628.212	0.0164104
628.290	0.0163747
628.368	0.0163689
628.446	0.0163829
628.524	0.0163197
628.602	0.0162929
628.681	0.0161118
628.759	0.0163093
628.837	0.0163631
628.915	0.0161889
628.993	0.0162594
629.071	0.0163455
629.149	0.0163068
629.227	0.0163033
629.306	0.0162457
629.384	0.0163287
629.462	0.0163136
629.540	0.0163520
629.618	0.0162493
629.696	0.0161430
629.774	0.0162946
629.852	0.0162648
629.931	0.0161510
630.009	0.0161228
630.087	0.0161625
630.165	0.0162450
630.243	0.0163799
630.321	0.0162169
630.399	0.0161723
630.477	0.0162714
630.556	0.0162672
630.634	0.0164192
630.712	0.0163981
630.790	0.0162334
630.868	0.0161873
630.946	0.0163278
631.024	0.0163994
631.102	0.0164983
631.181	0.0163901
631.259	0.0164317
631.337	0.0163485
631.415	0.0162823
631.493	0.0164113
631.571	0.0163678
631.649	0.0164387
631.727	0.0163377
631.806	0.0164116
631.884	0.0163824
631.962	0.0164136
632.040	0.0164407
632.118	0.0165320
632.196	0.0163058
632.274	0.0164928
632.352	0.0164854
632.431	0.0164362
632.509	0.0164140
632.587	0.0164584
632.665	0.0164346
632.743	0.0164114
632.821	0.0164832
632.899	0.0164120
632.977	0.0163783
633.056	0.0162514
633.134	0.0161975
633.212	0.0162997
633.290	0.0163783
633.368	0.0161236
633.446	0.0161542
633.524	0.0161295
633.602	0.0161797
633.681	0.0163512
633.759	0.0163445
633.837	0.0161654
633.915	0.0161617
633.993	0.0161742
634.071	0.0160448
634.149	0.0161966
634.227	0.0162814
634.306	0.0162152
634.384	0.0161251
634.462	0.0160486
634.540	0.0162376
634.618	0.0161709
634.696	0.0161182
634.774	0.0161395
634.852	0.0159747
634.931	0.0161088
635.009	0.0161323
635.087	0.0162073
635.165	0.0161241
635.243	0.0161208
635.321	0.0160449
635.399	0.0162161
635.477	0.0164249
635.556	0.0163287
635.634	0.0161723
635.712	0.0163422
635.790	0.0163708
635.868	0.0164179
635.946	0.0164111
636.024	0.0163049
636.102	0.0162520
636.181	0.0163969
636.259	0.0164027
636.337	0.0163863
636.415	0.0165175
636.493	0.0165674
636.571	0.0164758
636.649	0.0165930
636.727	0.0165739
636.806	0.0164750
636.884	0.0165347
636.962	0.0166006
637.040	0.0165342
637.118	0.0165250
637.196	0.0165090
637.274	0.0165262
637.352	0.0165633
637.431	0.0165250
637.509	0.0164354
637.587	0.0165073
637.665	0.0164239
637.743	0.0163705
637.821	0.0162999
637.899	0.0163332
637.977	0.0163631
638.056	0.0163193
638.134	0.0162269
638.212	0.0162657
638.290	0.0163281
638.368	0.0162106
638.446	0.0161156
638.524	0.0162331
638.602	0.0162110
638.681	0.0161792
638.759	0.0162258
638.837	0.0162371
638.915	0.0161411
638.993	0.0161604
639.071	0.0161169
639.149	0.0161416
639.227	0.0160873
639.306	0.0162610
639.384	0.0161621
639.462	0.0162073
639.540	0.0161638
639.618	0.0161047
639.696	0.0162176
639.774	0.0162436
639.852	0.0163374
639.931	0.0162712
640.009	0.0162220
640.087	0.0163538
640.165	0.0163656
640.243	0.0164590
640.321	0.0163538
640.399	0.0164239
640.477	0.0164257
640.556	0.0164201
640.634	0.0164402
640.712	0.0164738
640.790	0.0165974
640.868	0.0164645
640.946	0.0162932
641.024	0.0164713
641.102	0.0163962
641.181	0.0165150
641.259	0.0165335
641.337	0.0165388
641.415	0.0164903
641.493	0.0165891
641.571	0.0166098
641.649	0.0165589
641.727	0.0165388
641.806	0.0165570
641.884	0.0165188
641.962	0.0165672
642.040	0.0166605
642.118	0.0165450
642.196	0.0164870
642.274	0.0165347
642.352	0.0163097
642.431	0.0165010
642.509	0.0164069
642.587	0.0164769
642.665	0.0163950
642.743	0.0164301
642.821	0.0163597
642.899	0.0162412
642.977	0.0163814
643.056	0.0162259
643.134	0.0162601
643.212	0.0163724
643.290	0.0162388
643.368	0.0162644
643.446	0.0163209
643.524	0.0161911
643.602	0.0160968
643.681	0.0161315
643.759	0.0162603
643.837	0.0162055
643.915	0.0162088
643.993	0.0161694
644.071	0.0160873
644.149	0.0161748
644.227	0.0161175
644.306	0.0161574
644.384	0.0162574
644.462	0.0162617
644.540	0.0161245
644.618	0.0161564
644.696	0.0162556
644.774	0.0162150
644.852	0.0162346
644.931	0.0161367
645.009	0.0163324
645.087	0.0161317
645.165	0.0162750
645.243	0.0161969
645.321	0.0162664
645.399	0.0162537
645.477	0.0162173
645.556	0.0161244
645.634	0.0162000
645.712	0.0162959
645.790	0.0163493
645.868	0.0164213
645.946	0.0160513
646.024	0.0161536
646.102	0.0162135
646.181	0.0162130
646.259	0.0163280
646.337	0.0162766
646.415	0.0163945
646.493	0.0162879
646.571	0.0162788
646.649	0.0162311
646.727	0.0162911
646.806	0.0162885
646.884	0.0162128
646.962	0.0163468
647.040	0.0162721
647.118	0.0164107
647.196	0.0164065
647.274	0.0163898
647.352	0.0161993
647.431	0.0164370
647.509	0.0163964
647.587	0.0163490
647.665	0.0163569
647.743	0.0162965
647.821	0.0165213
647.899	0.0164581
647.977	0.0164485
648.056	0.0164095
648.134	0.0162818
648.212	0.0164046
648.290	0.0164355
648.368	0.0164205
648.446	0.0164587
648.524	0.0163966
648.602	0.0163879
648.681	0.0164919
648.759	0.0163795
648.837	0.0163512
648.915	0.0163075
648.993	0.0163424
649.071	0.0163170
649.149	0.0162607
649.227	0.0164351
649.306	0.0162826
649.384	0.0162801
649.462	0.0162939
649.540	0.0163178
649.618	0.0164075
649.696	0.0163930
649.774	0.0164439
649.852	0.0164233
649.931	0.0163307
650.009	0.0161980
650.087	0.0162364
650.165	0.0163512
650.243	0.0164479
650.321	0.0162234
650.399	0.0163697
650.477	0.0163048
650.556	0.0163430
650.634	0.0163560
650.712	0.0162379
650.790	0.0162193
650.868	0.0162601
650.946	0.0162051
651.024	0.0162079
651.102	0.0163279
651.181	0.0163362
651.259	0.0163682
651.337	0.0162103
651.415	0.0162554
651.493	0.0163979
651.571	0.0163447
651.649	0.0163629
651.727	0.0163487
651.806	0.0163431
651.884	0.0162126
651.962	0.0162392
652.040	0.0162548
652.118	0.0162807
652.196	0.0162686
652.274	0.0161732
652.352	0.0163552
652.431	0.0163880
652.509	0.0163796
652.587	0.0163429
652.665	0.0164705
652.743	0.0163567
652.821	0.0163005
652.899	0.0163511
652.977	0.0162707
653.056	0.0165032
653.134	0.0164626
653.212	0.0163528
653.290	0.0164423
653.368	0.0163957
653.446	0.0161942
653.524	0.0164691
653.602	0.0164417
653.681	0.0166478
653.759	0.0165557
653.837	0.0165390
653.915	0.0164420
653.993	0.0165220
654.071	0.0164634
654.149	0.0165143
654.227	0.0164265
654.306	0.0164838
654.384	0.0166053
654.462	0.0164768
654.540	0.0164743
654.618	0.0164133
654.696	0.0165420
654.774	0.0164688
654.852	0.0162851
654.931	0.0164136
655.009	0.0163775
655.087	0.0164675
655.165	0.0163065
655.243	0.0164487
655.321	0.0164274
655.399	0.0163824
655.477	0.0163469
655.556	0.0162848
655.634	0.0163483
655.712	0.0163312
655.790	0.0162384
655.868	0.0161289
655.946	0.0160576
656.024	0.0162048
656.102	0.0161700
656.181	0.0160612
656.259	0.0160825
656.337	0.0160345
656.415	0.0160558
656.493	0.0160493
656.571	0.0161620
656.649	0.0159881
656.727	0.0160038
656.806	0.0161768
656.884	0.0161363
656.962	0.0160704
657.040	0.0160845
657.118	0.0160911
657.196	0.0160552
657.274	0.0162479
657.352	0.0161835
657.431	0.0161909
657.509	0.0161953
657.587	0.0162978
657.665	0.0164187
657.743	0.0164420
657.821	0.0163905
657.899	0.0164174
657.977	0.0163168
658.056	0.0162847
658.134	0.0164648
658.212	0.0164220
658.290	0.0164160
658.368	0.0164514
658.446	0.0166150
658.524	0.0166247
658.602	0.0165606
658.681	0.0164919
658.759	0.0165202
658.837	0.0166351
658.915	0.0165110
658.993	0.0166461
659.071	0.0165518
659.149	0.0165764
659.227	0.0165022
659.306	0.0165757
659.384	0.0165891
659.462	0.0166521
659.540	0.0164797
659.618	0.0166345
659.696	0.0165299
659.774	0.0165544
659.852	0.0166340
659.931	0.0164441
660.009	0.0163673
660.087	0.0164525
660.165	0.0165454
660.243	0.0163412
660.321	0.0164214
660.399	0.0162840
660.477	0.0163616
660.556	0.0165961
660.634	0.0163922
660.712	0.0163456
660.790	0.0163271
660.868	0.0163107
660.946	0.0161840
661.024	0.0162195
661.102	0.0161990
661.181	0.0163052
661.259	0.0160429
661.337	0.0161555
661.415	0.0161963
661.493	0.0161317
661.571	0.0160059
661.649	0.0162247
661.727	0.0163235
661.806	0.0161358
661.884	0.0160159
661.962	0.0161353
662.040	0.0161965
662.118	0.0161306
662.196	0.0161495
662.274	0.0163071
662.352	0.0162084
662.431	0.0161696
662.509	0.0162953
662.587	0.0162029
662.665	0.0162299
662.743	0.0163793
662.821	0.0164565
662.899	0.0163396
662.977	0.0161881
663.056	0.0161954
663.134	0.0163921
663.212	0.0164218
663.290	0.0165278
663.368	0.0165341
663.446	0.0164946
663.524	0.0164443
663.602	0.0164695
663.681	0.0164506
663.759	0.0165366
663.837	0.0166493
663.915	0.0165533
663.993	0.0163120
664.071	0.0164495
664.149	0.0163587
664.227	0.0164646
664.306	0.0165568
664.384	0.0165617
664.462	0.0162849
664.540	0.0164876
664.618	0.0163302
664.696	0.0164841
664.774	0.0163592
664.852	0.0164165
664.931	0.0163101
665.009	0.0164116
665.087	0.0163445
665.165	0.0164264
665.243	0.0164024
665.321	0.0164065
665.399	0.0163126
665.477	0.0163414
665.556	0.0163400
665.634	0.0162180
665.712	0.0162610
665.790	0.0163136
665.868	0.0163330
665.946	0.0162082
666.024	0.0161869
666.102	0.0162472
666.181	0.0161446
666.259	0.0161977
666.337	0.0162325
666.415	0.0161960
666.493	0.0161238
666.571	0.0161621
666.649	0.0162342
666.727	0.0160744
666.806	0.0160887
666.884	0.0161882
666.962	0.0162130
667.040	0.0161919
667.118	0.0162037
667.196	0.0161752
667.274	0.0162289
667.352	0.0162106
667.431	0.0161611
667.509	0.0161933
667.587	0.0162817
667.665	0.0163762
667.743	0.0163941
667.821	0.0162164
667.899	0.0162894
667.977	0.0163626
668.056	0.0163480
668.134	0.0162148
668.212	0.0164579
668.290	0.0164841
668.368	0.0165315
668.446	0.0165103
668.524	0.0163727
668.602	0.0164405
668.681	0.0164764
668.759	0.0163962
668.837	0.0164063
668.915	0.0166148
668.993	0.0164312
669.071	0.0165411
669.149	0.0165382
669.227	0.0164479
669.306	0.0165188
669.384	0.0164353
669.462	0.0164804
669.540	0.0164961
669.618	0.0165551
669.696	0.0165038
669.774	0.0165649
669.852	0.0166502
669.931	0.0165403
670.009	0.0165054
670.087	0.0165750
670.165	0.0165584
670.243	0.0164229
670.321	0.0165054
670.399	0.0164481
670.477	0.0164758
670.556	0.0165865
670.634	0.0164401
670.712	0.0163612
670.790	0.0165940
670.868	0.0164285
670.946	0.0163483
671.024	0.0165142
671.102	0.0163907
671.181	0.0165128
671.259	0.0163934
671.337	0.0163983
671.415	0.0164402
671.493	0.0164217
671.571	0.0162858
671.649	0.0163958
671.727	0.0163742
671.806	0.0162067
671.884	0.0163275
671.962	0.0164008
672.040	0.0163155
672.118	0.0162890
672.196	0.0162595
672.274	0.0163387
672.352	0.0161919
672.431	0.0162262
672.509	0.0162311
672.587	0.0162139
672.665	0.0163284
672.743	0.0162416
672.821	0.0162710
672.899	0.0163229
672.977	0.0163645
673.056	0.0161820
673.134	0.0162833
673.212	0.0162021
673.290	0.0162234
673.368	0.0163924
673.446	0.0163486
673.524	0.0162764
673.602	0.0163555
673.681	0.0164485
673.759	0.0164203
673.837	0.0162409
673.915	0.0163456
673.993	0.0164343
674.071	0.0164757
674.149	0.0163757
674.227	0.0162191
674.306	0.0165289
674.384	0.0164391
674.462	0.0165008
674.540	0.0163828
674.618	0.0164567
674.696	0.0165208
674.774	0.0162756
674.852	0.0164996
674.931	0.0166946
675.009	0.0165214
675.087	0.0164624
675.165	0.0164902
675.243	0.0163674
675.321	0.0164729
675.399	0.0165466
675.477	0.0166583
675.556	0.0165691
675.634	0.0165093
675.712	0.0165950
675.790	0.0165526
675.868	0.0164754
675.946	0.0163573
676.024	0.0164296
676.102	0.0164522
676.181	0.0164762
676.259	0.0164514
676.337	0.0165026
676.415	0.0164324
676.493	0.0163553
676.571	0.0162420
676.649	0.0162776
676.727	0.0163678
676.806	0.0162483
676.884	0.0160902
676.962	0.0162701
677.040	0.0162119
677.118	0.0163168
677.196	0.0162255
677.274	0.0162032
677.352	0.0162109
677.431	0.0161694
677.509	0.0163094
677.587	0.0162262
677.665	0.0160593
677.743	0.0160845
677.821	0.0161609
677.899	0.0160047
677.977	0.0162891
678.056	0.0161375
678.134	0.0160806
678.212	0.0161511
678.290	0.0162067
678.368	0.0164008
678.446	0.0162037
678.524	0.0162258
678.602	0.0162336
678.681	0.0164385
678.759	0.0163884
678.837	0.0162866
678.915	0.0163448
678.993	0.0163419
679.071	0.0164200
679.149	0.0163477
679.227	0.0163599
679.306	0.0163620
679.384	0.0164005
679.462	0.0165005
679.540	0.0165019
679.618	0.0165634
679.696	0.0165230
679.774	0.0163543
679.852	0.0162611
679.931	0.0163435
680.009	0.0163718
680.087	0.0164434
680.165	0.0166023
680.243	0.0162785
680.321	0.0164987
680.399	0.0163521
680.477	0.0164040
680.556	0.0163876
680.634	0.0164114
680.712	0.0163966
680.790	0.0164510
680.868	0.0163241
680.946	0.0164634
681.024	0.0163454
681.102	0.0162542
681.181	0.0164240
681.259	0.0163623
681.337	0.0163737
681.415	0.0164147
681.493	0.0164997
681.571	0.0163093
681.649	0.0163863
681.727	0.0163335
681.806	0.0164164
681.884	0.0164197
681.962	0.0164520
682.040	0.0164059
682.118	0.0163839
682.196	0.0163919
682.274	0.0162759
682.352	0.0162517
682.431	0.0163190
682.509	0.0163293
682.587	0.0162688
682.665	0.0162917
682.743	0.0164072
682.821	0.0163828
682.899	0.0161419
682.977	0.0162256
683.056	0.0163464
683.134	0.0163326
683.212	0.0162430
683.290	0.0162991
683.368	0.0162019
683.446	0.0162642
683.524	0.0163355
683.602	0.0162498
683.681	0.0162355
683.759	0.0163518
683.837	0.0164237
683.915	0.0163731
683.993	0.0165335
684.071	0.0162664
684.149	0.0165147
684.227	0.0165546
684.306	0.0165685
684.384	0.0164151
684.462	0.0164887
684.540	0.0165143
684.618	0.0164632
684.696	0.0164560
684.774	0.0164880
684.852	0.0164996
684.931	0.0166402
685.009	0.0166047
685.087	0.0166634
685.165	0.0165958
685.243	0.0165602
685.321	0.0165900
685.399	0.0165726
685.477	0.0166119
685.556	0.0165621
685.634	0.0165360
685.712	0.0165478
685.790	0.0165022
685.868	0.0164110
685.946	0.0164689
686.024	0.0165833
686.102	0.0166381
686.181	0.0164973
686.259	0.0163895
686.337	0.0165231
686.415	0.0165541
686.493	0.0164538
686.571	0.0163408
686.649	0.0163718
686.727	0.0164948
686.806	0.0164256
686.884	0.0162811
686.962	0.0164636
687.040	0.0165588
687.118	0.0164092
687.196	0.0163152
687.274	0.0162848
687.352	0.0164750
687.431	0.0162843
687.509	0.0162918
687.587	0.0163363
687.665	0.0164812
687.743	0.0166235
687.821	0.0164523
687.899	0.0165042
687.977	0.0163989
688.056	0.0165160
688.134	0.0164703
688.212	0.0164898
688.290	0.0164438
688.368	0.0164989
688.446	0.0164295
688.524	0.0164238
688.602	0.0164446
688.681	0.0163206
688.759	0.0163084
688.837	0.0163686
688.915	0.0163430
688.993	0.0163783
689.071	0.0163425
689.149	0.0163146
689.227	0.0163476
689.306	0.0162947
689.384	0.0163796
689.462	0.0163023
689.540	0.0162524
689.618	0.0162827
689.696	0.0162428
689.774	0.0163098
689.852	0.0162852
689.931	0.0162360
690.009	0.0161523
690.087	0.0162657
690.165	0.0162780
690.243	0.0162417
690.321	0.0161179
690.399	0.0162743
690.477	0.0165065
690.556	0.0163661
690.634	0.0161885
690.712	0.0161014
690.790	0.0163132
690.868	0.0163457
690.946	0.0163419
691.024	0.0163731
691.102	0.0163880
691.181	0.0163901
691.259	0.0163489
691.337	0.0163929
691.415	0.0165176
691.493	0.0163962
691.571	0.0164632
691.649	0.0164000
691.727	0.0164810
691.806	0.0164356
691.884	0.0163325
691.962	0.0163985
692.040	0.0163638
692.118	0.0163081
692.196	0.0164045
692.274	0.0163968
692.352	0.0163599
692.431	0.0164019
692.509	0.0163444
692.587	0.0162682
692.665	0.0164074
692.743	0.0164124
692.821	0.0163777
692.899	0.0164296
692.977	0.0164876
693.056	0.0164531
693.134	0.0164046
693.212	0.0163860
693.290	0.0163270
693.368	0.0164331
693.446	0.0163896
693.524	0.0163190
693.602	0.0162181
693.681	0.0164816
693.759	0.0163946
693.837	0.0163114
693.915	0.0163403
693.993	0.0163206
694.071	0.0164352
694.149	0.0162830
694.227	0.0164374
694.306	0.0162547
694.384	0.0163223
694.462	0.0163210
694.540	0.0163464
694.618	0.0164029
694.696	0.0164352
694.774	0.0164005
694.852	0.0163197
694.931	0.0163275
695.009	0.0163104
695.087	0.0163774
695.165	0.0162773
695.243	0.0162551
695.321	0.0164073
695.399	0.0163431
695.477	0.0162807
695.556	0.0163073
695.634	0.0164513
695.712	0.0163954
695.790	0.0164206
695.868	0.0163078
695.946	0.0162756
696.024	0.0164192
696.102	0.0163217
696.181	0.0163416
696.259	0.0163490
696.337	0.0163034
696.415	0.0162962
696.493	0.0162524
696.571	0.0163683
696.649	0.0161926
696.727	0.0163336
696.806	0.0164420
696.884	0.0163500
696.962	0.0162955
697.040	0.0163916
697.118	0.0163094
697.196	0.0163181
697.274	0.0163402
697.352	0.0162343
697.431	0.0162124
697.509	0.0163747
697.587	0.0162817
697.665	0.0163383
697.743	0.0163008
697.821	0.0162421
697.899	0.0162688
697.977	0.0161372
698.056	0.0160813
698.134	0.0161661
698.212	0.0163033
698.290	0.0162174
698.368	0.0162162
698.446	0.0162725
698.524	0.0162699
698.602	0.0164162
698.681	0.0161232
698.759	0.0162514
698.837	0.0162788
698.915	0.0163655
698.993	0.0162347
699.071	0.0163486
699.149	0.0164216
699.227	0.0163387
699.306	0.0163039
699.384	0.0162518
699.462	0.0165166
699.540	0.0164099
699.618	0.0163843
699.696	0.0163457
699.774	0.0163830
699.852	0.0165286
699.931	0.0164515
700.009	0.0164854
700.087	0.0164935
700.165	0.0164494
700.243	0.0165417
700.321	0.0164169
700.399	0.0163918
700.477	0.0164491
700.556	0.0165936
700.634	0.0165089
700.712	0.0164954
700.790	0.0163341
700.868	0.0164320
700.946	0.0164202
701.024	0.0164016
701.102	0.0163311
701.181	0.0165215
701.259	0.0164211
701.337	0.0165277
701.415	0.0162934
701.493	0.0163040
701.571	0.0163377
701.649	0.0163011
701.727	0.0164465
701.806	0.0164481
701.884	0.0163087
701.962	0.0163942
702.040	0.0164939
702.118	0.0163316
702.196	0.0164098
702.274	0.0164153
702.352	0.0163264
702.431	0.0163895
702.509	0.0165714
702.587	0.0164134
702.665	0.0163383
702.743	0.0163855
702.821	0.0164232
702.899	0.0163477
702.977	0.0164975
703.056	0.0164742
703.134	0.0163856
703.212	0.0163450
703.290	0.0165332
703.368	0.0164972
703.446	0.0164210
703.524	0.0163775
703.602	0.0164719
703.681	0.0165489
703.759	0.0164531
703.837	0.0164777
703.915	0.0165482
703.993	0.0164166
704.071	0.0162412
704.149	0.0163232
704.227	0.0163694
704.306	0.0163752
704.384	0.0164426
704.462	0.0164015
704.540	0.0163774
704.618	0.0162113
704.696	0.0163841
704.774	0.0162866
704.852	0.0162974
704.931	0.0164474
705.009	0.0165080
705.087	0.0164585
705.165	0.0164122
705.243	0.0165126
705.321	0.0163468
705.399	0.0164481
705.477	0.0163694
705.556	0.0165132
705.634	0.0164823
705.712	0.0163728
705.790	0.0162154
705.868	0.0163003
705.946	0.0163930
706.024	0.0163997
706.102	0.0164577
706.181	0.0165742
706.259	0.0163828
706.337	0.0164153
706.415	0.0162895
706.493	0.0164380
706.571	0.0165215
706.649	0.0164708
706.727	0.0165175
706.806	0.0163086
706.884	0.0164125
706.962	0.0165239
707.040	0.0163539
707.118	0.0164503
707.196	0.0164917
707.274	0.0163905
707.352	0.0162328
707.431	0.0163292
707.509	0.0163473
707.587	0.0163225
707.665	0.0164002
707.743	0.0163390
707.821	0.0163268
707.899	0.0163917
707.977	0.0163222
708.056	0.0164082
708.134	0.0162965
708.212	0.0162601
708.290	0.0162577
708.368	0.0161819
708.446	0.0162942
708.524	0.0161589
708.602	0.0161435
708.681	0.0163574
708.759	0.0163612
708.837	0.0164072
708.915	0.0163148
708.993	0.0162847
709.071	0.0164114
709.149	0.0162691
709.227	0.0165499
709.306	0.0163731
709.384	0.0162246
709.462	0.0162875
709.540	0.0164488
709.618	0.0163337
709.696	0.0164563
709.774	0.0164101
709.852	0.0164288
709.931	0.0164409
710.009	0.0163657
710.087	0.0163746
710.165	0.0162816
710.243	0.0162764
710.321	0.0162888
710.399	0.0163103
710.477	0.0161984
710.556	0.0162386
710.634	0.0162930
710.712	0.0162869
710.790	0.0164272
710.868	0.0161407
710.946	0.0161555
711.024	0.0162463
711.102	0.0163169
711.181	0.0162311
711.259	0.0162470
711.337	0.0163297
711.415	0.0163087
711.493	0.0162687
711.571	0.0162739
711.649	0.0161686
711.727	0.0162891
711.806	0.0162499
711.884	0.0163671
711.962	0.0163416
712.040	0.0163572
712.118	0.0164429
712.196	0.0163962
712.274	0.0162863
712.352	0.0163552
712.431	0.0163295
712.509	0.0163764
712.587	0.0163961
712.665	0.0165125
712.743	0.0164738
712.821	0.0164748
712.899	0.0164171
712.977	0.0161572
713.056	0.0163459
713.134	0.0164211
713.212	0.0165398
713.290	0.0164219
713.368	0.0163003
713.446	0.0163475
713.524	0.0165495
713.602	0.0164850
713.681	0.0164182
713.759	0.0165162
713.837	0.0163437
713.915	0.0164202
713.993	0.0165039
714.071	0.0164356
714.149	0.0165706
714.227	0.0165533
714.306	0.0164928
714.384	0.0164515
714.462	0.0165585
714.540	0.0165029
714.618	0.0164204
714.696	0.0163927
714.774	0.0164647
714.852	0.0164582
714.931	0.0164454
715.009	0.0165035
715.087	0.0165035
715.165	0.0163760
715.243	0.0163572
715.321	0.0163459
715.399	0.0163561
715.477	0.0163483
715.556	0.0163403
715.634	0.0164248
715.712	0.0163264
715.790	0.0162392
715.868	0.0161765
715.946	0.0162926
716.024	0.0162595
716.102	0.0161848
716.181	0.0161896
716.259	0.0161079
716.337	0.0162714
716.415	0.0164117
716.493	0.0161117
716.571	0.0161800
716.649	0.0162050
716.727	0.0161752
716.806	0.0163552
716.884	0.0163629
716.962	0.0163667
717.040	0.0161846
717.118	0.0163083
717.196	0.0162643
717.274	0.0162163
717.352	0.0162511
717.431	0.0161740
717.509	0.0162479
717.587	0.0162870
717.665	0.0161941
717.743	0.0162547
717.821	0.0161577
717.899	0.0161938
717.977	0.0161915
718.056	0.0161231
718.134	0.0161885
718.212	0.0162876
718.290	0.0161895
718.368	0.0162241
718.446	0.0162260
718.524	0.0162593
718.602	0.0161439
718.681	0.0161668
718.759	0.0163081
718.837	0.0161883
718.915	0.0163512
718.993	0.0163315
719.071	0.0162584
719.149	0.0163011
719.227	0.0163165
719.306	0.0161540
719.384	0.0162864
719.462	0.0161398
719.540	0.0161663
719.618	0.0163187
719.696	0.0163207
719.774	0.0163767
719.852	0.0161707
719.931	0.0163098
720.009	0.0163062
720.087	0.0163155
720.165	0.0164072
720.243	0.0163184
720.321	0.0162950
720.399	0.0163134
720.477	0.0163107
720.556	0.0163356
720.634	0.0163368
720.712	0.0163573
720.790	0.0163237
720.868	0.0161977
720.946	0.0162035
721.024	0.0161805
721.102	0.0163694
721.181	0.0163204
721.259	0.0163309
721.337	0.0162549
721.415	0.0162271
721.493	0.0161907
721.571	0.0163028
721.649	0.0163635
721.727	0.0162964
721.806	0.0162356
721.884	0.0162788
721.962	0.0164517
722.040	0.0163499
722.118	0.0162349
722.196	0.0163695
722.274	0.0164742
722.352	0.0163394
722.431	0.0163497
722.509	0.0162383
722.587	0.0162959
722.665	0.0164593
722.743	0.0164967
722.821	0.0163691
722.899	0.0164311
722.977	0.0164178
723.056	0.0164397
723.134	0.0164430
723.212	0.0164680
723.290	0.0163544
723.368	0.0164923
723.446	0.0163039
723.524	0.0163146
723.602	0.0163811
723.681	0.0164225
723.759	0.0165222
723.837	0.0162614
723.915	0.0164108
723.993	0.0162901
724.071	0.0162386
724.149	0.0164281
724.227	0.0164850
724.306	0.0163860
724.384	0.0164025
724.462	0.0162323
724.540	0.0162963
724.618	0.0164275
724.696	0.0162642
724.774	0.0162064
724.852	0.0163897
724.931	0.0162367
725.009	0.0163616
725.087	0.0163551
725.165	0.0162840
725.243	0.0162160
725.321	0.0163871
725.399	0.0162733
725.477	0.0163680
725.556	0.0161940
725.634	0.0162143
725.712	0.0162889
725.790	0.0162291
725.868	0.0162171
725.946	0.0162847
726.024	0.0163077
726.102	0.0162080
726.181	0.0163543
726.259	0.0162109
726.337	0.0163364
726.415	0.0163921
726.493	0.0163631
726.571	0.0163505
726.649	0.0163897
726.727	0.0163950
726.806	0.0163927
726.884	0.0163804
726.962	0.0163507
727.040	0.0162799
727.118	0.0163652
727.196	0.0163494
727.274	0.0163669
727.352	0.0163586
727.431	0.0164661
727.509	0.0163478
727.587	0.0164410
727.665	0.0164649
727.743	0.0161476
727.821	0.0162658
727.899	0.0163123
727.977	0.0163163
728.056	0.0163232
728.134	0.0163927
728.212	0.0163098
728.290	0.0162867
728.368	0.0162933
728.446	0.0163264
728.524	0.0163479
728.602	0.0162118
728.681	0.0164871
728.759	0.0164668
728.837	0.0162845
728.915	0.0163328
728.993	0.0164065
729.071	0.0162854
729.149	0.0161827
729.227	0.0163812
729.306	0.0163660
729.384	0.0162287
729.462	0.0164832
729.540	0.0162981
729.618	0.0163139
729.696	0.0164029
729.774	0.0163037
729.852	0.0163405
729.931	0.0162988
730.009	0.0161903
730.087	0.0163380
730.165	0.0164587
730.243	0.0163728
730.321	0.0163344
730.399	0.0163435
730.477	0.0163792
730.556	0.0161684
730.634	0.0162315
730.712	0.0163896
730.790	0.0162630
730.868	0.0163951
730.946	0.0162183
731.024	0.0162892
731.102	0.0164297
731.181	0.0164019
731.259	0.0163049
731.337	0.0163293
731.415	0.0163804
731.493	0.0163236
731.571	0.0163306
731.649	0.0163345
731.727	0.0162464
731.806	0.0163251
731.884	0.0162943
731.962	0.0162518
732.040	0.0162994
732.118	0.0162238
732.196	0.0162959
732.274	0.0164105
732.352	0.0163132
732.431	0.0163419
732.509	0.0163202
732.587	0.0163175
732.665	0.0164430
732.743	0.0163364
732.821	0.0162395
732.899	0.0162240
732.977	0.0163359
733.056	0.0164099
733.134	0.0163540
733.212	0.0163232
733.290	0.0164904
733.368	0.0163683
733.446	0.0163353
733.524	0.0162553
733.602	0.0162708
733.681	0.0163881
733.759	0.0164095
733.837	0.0163119
733.915	0.0165383
733.993	0.0162468
734.071	0.0163340
734.149	0.0163010
734.227	0.0163438
734.306	0.0163622
734.384	0.0163047
734.462	0.0161973
734.540	0.0162588
734.618	0.0163441
734.696	0.0163264
734.774	0.0164114
734.852	0.0163166
734.931	0.0161329
735.009	0.0162023
735.087	0.0162753
735.165	0.0162740
735.243	0.0161874
735.321	0.0163112
735.399	0.0162484
735.477	0.0163342
735.556	0.0162563
735.634	0.0163258
735.712	0.0162804
735.790	0.0163696
735.868	0.0163148
735.946	0.0163972
736.024	0.0162531
736.102	0.0160609
736.181	0.0162962
736.259	0.0164339
736.337	0.0163078
736.415	0.0162267
736.493	0.0162170
736.571	0.0163709
736.649	0.0164798
736.727	0.0162344
736.806	0.0163285
736.884	0.0162930
736.962	0.0162733
737.040	0.0163932
737.118	0.0163716
737.196	0.0162307
737.274	0.0162456
737.352	0.0162751
737.431	0.0162871
737.509	0.0164262
737.587	0.0163662
737.665	0.0162758
737.743	0.0164202
737.821	0.0164755
737.899	0.0163092
737.977	0.0163640
738.056	0.0163136
738.134	0.0162643
738.212	0.0162481
738.290	0.0163972
738.368	0.0163011
738.446	0.0164330
738.524	0.0162947
738.602	0.0163441
738.681	0.0163152
738.759	0.0164653
738.837	0.0163264
738.915	0.0162447
738.993	0.0161877
739.071	0.0163124
739.149	0.0163061
739.227	0.0163025
739.306	0.0162187
739.384	0.0162970
739.462	0.0162193
739.540	0.0163410
739.618	0.0162582
739.696	0.0161855
739.774	0.0162777
739.852	0.0163140
739.931	0.0163802
740.009	0.0162288
740.087	0.0161736
740.165	0.0163164
740.243	0.0162486
740.321	0.0163161
740.399	0.0162696
740.477	0.0161767
740.556	0.0163182
740.634	0.0163155
740.712	0.0162876
740.790	0.0162643
740.868	0.0162144
740.946	0.0161925
741.024	0.0163985
741.102	0.0162385
741.181	0.0163053
741.259	0.0163243
741.337	0.0163775
741.415	0.0161792
741.493	0.0161735
741.571	0.0164353
741.649	0.0163083
741.727	0.0163056
741.806	0.0164305
741.884	0.0163594
741.962	0.0165129
742.040	0.0164861
742.118	0.0162606
742.196	0.0163007
742.274	0.0164884
742.352	0.0162659
742.431	0.0163624
742.509	0.0162859
742.587	0.0164097
742.665	0.0164594
742.743	0.0163192
742.821	0.0164218
742.899	0.0163567
742.977	0.0163597
743.056	0.0162817
743.134	0.0162888
743.212	0.0163265
743.290	0.0163313
743.368	0.0164664
743.446	0.0164281
743.524	0.0162358
743.602	0.0163533
743.681	0.0163660
743.759	0.0163283
743.837	0.0164303
743.915	0.0163685
743.993	0.0164214
744.071	0.0163859
744.149	0.0163525
744.227	0.0162825
744.306	0.0163198
744.384	0.0164117
744.462	0.0164224
744.540	0.0162299
744.618	0.0162932
744.696	0.0162852
744.774	0.0163522
744.852	0.0161116
744.931	0.0163063
745.009	0.0162968
745.087	0.0163623
745.165	0.0162736
745.243	0.0163034
745.321	0.0162085
745.399	0.0162247
745.477	0.0162175
745.556	0.0162703
745.634	0.0162199
745.712	0.0161768
745.790	0.0162048
745.868	0.0164302
745.946	0.0162550
746.024	0.0161624
746.102	0.0161613
746.181	0.0162965
746.259	0.0162554
746.337	0.0161818
746.415	0.0162070
746.493	0.0163091
746.571	0.0160934
746.649	0.0161912
746.727	0.0162690
746.806	0.0163085
746.884	0.0162923
746.962	0.0161927
747.040	0.0162343
747.118	0.0162168
747.196	0.0160368
747.274	0.0163022
747.352	0.0162456
747.431	0.0163103
747.509	0.0163672
747.587	0.0161450
747.665	0.0163451
747.743	0.0163483
747.821	0.0161453
747.899	0.0161954
747.977	0.0160724
748.056	0.0162692
748.134	0.0162283
748.212	0.0163084
748.290	0.0161829
748.368	0.0161583
748.446	0.0161223
748.524	0.0162570
748.602	0.0161756
748.681	0.0162852
748.759	0.0163931
748.837	0.0162978
748.915	0.0162869
748.993	0.0162083
749.071	0.0162606
749.149	0.0163365
749.227	0.0163567
749.306	0.0163074
749.384	0.0162524
749.462	0.0163844
749.540	0.0164085
749.618	0.0163883
749.696	0.0162497
749.774	0.0163405
749.852	0.0163351
749.931	0.0161565
750.009	0.0161994
750.087	0.0163602
750.165	0.0162446
750.243	0.0161532
750.321	0.0161828
750.399	0.0163325
750.477	0.0161922
750.556	0.0161958
750.634	0.0163232
750.712	0.0160457
750.790	0.0163132
750.868	0.0162277
750.946	0.0164246
751.024	0.0164907
751.102	0.0163236
751.181	0.0163181
751.259	0.0163794
751.337	0.0163942
751.415	0.0163213
751.493	0.0163690
751.571	0.0162962
751.649	0.0164437
751.727	0.0163346
751.806	0.0162141
751.884	0.0164383
751.962	0.0163070
752.040	0.0164187
752.118	0.0162691
752.196	0.0163727
752.274	0.0162535
752.352	0.0163478
752.431	0.0163800
752.509	0.0163126
752.587	0.0162193
752.665	0.0163870
752.743	0.0164330
752.821	0.0163812
752.899	0.0162710
752.977	0.0162045
753.056	0.0162437
753.134	0.0163645
753.212	0.0162839
753.290	0.0164931
753.368	0.0163963
753.446	0.0163227
753.524	0.0164125
753.602	0.0165160
753.681	0.0164942
753.759	0.0164269
753.837	0.0162921
753.915	0.0165264
753.993	0.0164931
754.071	0.0164088
754.149	0.0164194
754.227	0.0164436
754.306	0.0165028
754.384	0.0165009
754.462	0.0164101
754.540	0.0164117
754.618	0.0165910
754.696	0.0165777
754.774	0.0163738
754.852	0.0164415
754.931	0.0164903
755.009	0.0164783
755.087	0.0165375
755.165	0.0164597
755.243	0.0164998
755.321	0.0164811
755.399	0.0164983
755.477	0.0162855
755.556	0.0165285
755.634	0.0165798
755.712	0.0163654
755.790	0.0164091
755.868	0.0164333
755.946	0.0163893
756.024	0.0165511
756.102	0.0163493
756.181	0.0162826
756.259	0.0163983
756.337	0.0163713
756.415	0.0163956
756.493	0.0163669
756.571	0.0163102
756.649	0.0163380
756.727	0.0162994
756.806	0.0163340
756.884	0.0163008
756.962	0.0162672
757.040	0.0162793
757.118	0.0163104
757.196	0.0162997
757.274	0.0162753
757.352	0.0163619
757.431	0.0163700
757.509	0.0164280
757.587	0.0163074
757.665	0.0162193
757.743	0.0162984
757.821	0.0163551
757.899	0.0162748
757.977	0.0163207
758.056	0.0164528
758.134	0.0163082
758.212	0.0161858
758.290	0.0162439
758.368	0.0163364
758.446	0.0162994
758.524	0.0163866
758.602	0.0162943
758.681	0.0163188
758.759	0.0164700
758.837	0.0160583
758.915	0.0164119
758.993	0.0162646
759.071	0.0164494
759.149	0.0163421
759.227	0.0164290
759.306	0.0163197
759.384	0.0162605
759.462	0.0165022
759.540	0.0164443
759.618	0.0163537
759.696	0.0164893
759.774	0.0164590
759.852	0.0164472
759.931	0.0162592
760.009	0.0162943
760.087	0.0163588
760.165	0.0164411
760.243	0.0164536
760.321	0.0163792
760.399	0.0163977
760.477	0.0163073
760.556	0.0162856
760.634	0.0162567
760.712	0.0162952
760.790	0.0163152
760.868	0.0163267
760.946	0.0162720
761.024	0.0162470
761.102	0.0161939
761.181	0.0162681
761.259	0.0162959
761.337	0.0162142
761.415	0.0163246
761.493	0.0162989
761.571	0.0163865
761.649	0.0163165
761.727	0.0162155
761.806	0.0163285
761.884	0.0162727
761.962	0.0162672
762.040	0.0162748
762.118	0.0163557
762.196	0.0163286
762.274	0.0163538
762.352	0.0163090
762.431	0.0162418
762.509	0.0162933
762.587	0.0163485
762.665	0.0162402
762.743	0.0163503
762.821	0.0163368
762.899	0.0162524
762.977	0.0164236
763.056	0.0164016
763.134	0.0162118
763.212	0.0161401
763.290	0.0162997
763.368	0.0162885
763.446	0.0164098
763.524	0.0163101
763.602	0.0162247
763.681	0.0163915
763.759	0.0164204
763.837	0.0162985
763.915	0.0164179
763.993	0.0163786
764.071	0.0163712
764.149	0.0164309
764.227	0.0164499
764.306	0.0163998
764.384	0.0162599
764.462	0.0163821
764.540	0.0163378
764.618	0.0164097
764.696	0.0164457
764.774	0.0163640
764.852	0.0164294
764.931	0.0164801
765.009	0.0163915
765.087	0.0163701
765.165	0.0164228
765.243	0.0164522
765.321	0.0165071
765.399	0.0164736
765.477	0.0163047
765.556	0.0164183
765.634	0.0164117
765.712	0.0164059
765.790	0.0164544
765.868	0.0164514
765.946	0.0164606
766.024	0.0164722
766.102	0.0164347
766.181	0.0165290
766.259	0.0165058
766.337	0.0164734
766.415	0.0163265
766.493	0.0164660
766.571	0.0164468
766.649	0.0165011
766.727	0.0165389
766.806	0.0164371
766.884	0.0163945
766.962	0.0165118
767.040	0.0165518
767.118	0.0164754
767.196	0.0164819
767.274	0.0163963
767.352	0.0164419
767.431	0.0165111
767.509	0.0164671
767.587	0.0164026
767.665	0.0165113
767.743	0.0164868
767.821	0.0164538
767.899	0.0165308
767.977	0.0164772
768.056	0.0162762
768.134	0.0163588
768.212	0.0165575
768.290	0.0165016
768.368	0.0162872
768.446	0.0163947
768.524	0.0164225
768.602	0.0164459
768.681	0.0163928
768.759	0.0164292
768.837	0.0163242
768.915	0.0164084
768.993	0.0165766
769.071	0.0164951
769.149	0.0163332
769.227	0.0164878
769.306	0.0165495
769.384	0.0162788
769.462	0.0163191
769.540	0.0164091
769.618	0.0165224
769.696	0.0164234
769.774	0.0163657
769.852	0.0162756
769.931	0.0164928
770.009	0.0163635
770.087	0.0163570
770.165	0.0161817
770.243	0.0162687
770.321	0.0163466
770.399	0.0164280
770.477	0.0164027
770.556	0.0164320
770.634	0.0162053
770.712	0.0162564
770.790	0.0162209
770.868	0.0164647
770.946	0.0161036
771.024	0.0162044
771.102	0.0162834
771.181	0.0163028
771.259	0.0162870
771.337	0.0164098
771.415	0.0163122
771.493	0.0162786
771.571	0.0161028
771.649	0.0163239
771.727	0.0164017
771.806	0.0162726
771.884	0.0164548
771.962	0.0163625
772.040	0.0163972
772.118	0.0162865
772.196	0.0161210
772.274	0.0161835
772.352	0.0163731
772.431	0.0162482
772.509	0.0162154
772.587	0.0163921
772.665	0.0164139
772.743	0.0163545
772.821	0.0163021
772.899	0.0163907
772.977	0.0163300
773.056	0.0164712
773.134	0.0164272
773.212	0.0163036
773.290	0.0164304
773.368	0.0163901
773.446	0.0162791
773.524	0.0164719
773.602	0.0163657
773.681	0.0163371
773.759	0.0163626
773.837	0.0163550
773.915	0.0163818
773.993	0.0163607
774.071	0.0163918
774.149	0.0163461
774.227	0.0164284
774.306	0.0163885
774.384	0.0165766
774.462	0.0163693
774.540	0.0164311
774.618	0.0163400
774.696	0.0164941
774.774	0.0165556
774.852	0.0164316
774.931	0.0163417
775.009	0.0163479
775.087	0.0164668
775.165	0.0164529
775.243	0.0163804
775.321	0.0164794
775.399	0.0165235
775.477	0.0163666
775.556	0.0164442
775.634	0.0165475
775.712	0.0164204
775.790	0.0164083
775.868	0.0164110
775.946	0.0164198
776.024	0.0164910
776.102	0.0163275
776.181	0.0165169
776.259	0.0163643
776.337	0.0163270
776.415	0.0163255
776.493	0.0163992
776.571	0.0164874
776.649	0.0164997
776.727	0.0164490
776.806	0.0165421
776.884	0.0164782
776.962	0.0164005
777.040	0.0164170
777.118	0.0163957
777.196	0.0164025
777.274	0.0164263
777.352	0.0162897
777.431	0.0163706
777.509	0.0164791
777.587	0.0164117
777.665	0.0163812
777.743	0.0163190
777.821	0.0162894
777.899	0.0163928
777.977	0.0163113
778.056	0.0162719
778.134	0.0162849
778.212	0.0163840
778.290	0.0163749
778.368	0.0162864
778.446	0.0162044
778.524	0.0162081
778.602	0.0164099
778.681	0.0162963
778.759	0.0162483
778.837	0.0163269
778.915	0.0163424
778.993	0.0163526
779.071	0.0163371
779.149	0.0163148
779.227	0.0163334
779.306	0.0163557
779.384	0.0162928
779.462	0.0162061
779.540	0.0164033
779.618	0.0162052
779.696	0.0161662
779.774	0.0161655
779.852	0.0162437
779.931	0.0161313
780.009	0.0163455
780.087	0.0163210
780.165	0.0162504
780.243	0.0161752
780.321	0.0162434
780.399	0.0162569
780.477	0.0163161
780.556	0.0163201
780.634	0.0162982
780.712	0.0163080
780.790	0.0163563
780.868	0.0163551
780.946	0.0163319
781.024	0.0163001
781.102	0.0163091
781.181	0.0162310
781.259	0.0163319
781.337	0.0164829
781.415	0.0162749
781.493	0.0163705
781.571	0.0164530
781.649	0.0164021
781.727	0.0165823
781.806	0.0163318
781.884	0.0163451
781.962	0.0164372
782.040	0.0164391
782.118	0.0164165
782.196	0.0165604
782.274	0.0164615
782.352	0.0164027
782.431	0.0165670
782.509	0.0164935
782.587	0.0163928
782.665	0.0163759
782.743	0.0164085
782.821	0.0164712
782.899	0.0164322
782.977	0.0164442
783.056	0.0164328
783.134	0.0164986
783.212	0.0164384
783.290	0.0164384
783.368	0.0164707
783.446	0.0163524
783.524	0.0163114
783.602	0.0164577
783.681	0.0164373
783.759	0.0163705
783.837	0.0164085
783.915	0.0164484
783.993	0.0165471
784.071	0.0164867
784.149	0.0163688
784.227	0.0163715
784.306	0.0165161
784.384	0.0164990
784.462	0.0163970
784.540	0.0163957
784.618	0.0164241
784.696	0.0165331
784.774	0.0164886
784.852	0.0164546
784.931	0.0164318
785.009	0.0164651
785.087	0.0165096
785.165	0.0165192
785.243	0.0164170
785.321	0.0165105
785.399	0.0163347
785.477	0.0165096
785.556	0.0164002
785.634	0.0165334
785.712	0.0164399
785.790	0.0165012
785.868	0.0163826
785.946	0.0164085
786.024	0.0163927
786.102	0.0164352
786.181	0.0162741
786.259	0.0164330
786.337	0.0162993
786.415	0.0164169
786.493	0.0164188
786.571	0.0163857
786.649	0.0162973
786.727	0.0163501
786.806	0.0164642
786.884	0.0164088
786.962	0.0162881
787.040	0.0164034
787.118	0.0162669
787.196	0.0161964
787.274	0.0163935
787.352	0.0164374
787.431	0.0162743
787.509	0.0163499
787.587	0.0163948
787.665	0.0164343
787.743	0.0163933
787.821	0.0162567
787.899	0.0164199
787.977	0.0164659
788.056	0.0164449
788.134	0.0164319
788.212	0.0163232
788.290	0.0163763
788.368	0.0164505
788.446	0.0164421
788.524	0.0163696
788.602	0.0165594
788.681	0.0163886
788.759	0.0162975
788.837	0.0164774
788.915	0.0164991
788.993	0.0163811
789.071	0.0164066
789.149	0.0164729
789.227	0.0164227
789.306	0.0165179
789.384	0.0164000
789.462	0.0164720
789.540	0.0162997
789.618	0.0164474
789.696	0.0163438
789.774	0.0163924
789.852	0.0164921
789.931	0.0164806
790.009	0.0163982
790.087	0.0163522
790.165	0.0164661
790.243	0.0165044
790.321	0.0164839
790.399	0.0163976
790.477	0.0162880
790.556	0.0163161
790.634	0.0162701
790.712	0.0164696
790.790	0.0163515
790.868	0.0163358
790.946	0.0163374
791.024	0.0163122
791.102	0.0163998
791.181	0.0163613
791.259	0.0164230
791.337	0.0164994
791.415	0.0163474
791.493	0.0163949
791.571	0.0164472
791.649	0.0164253
791.727	0.0164337
791.806	0.0163859
791.884	0.0164143
791.962	0.0163702
792.040	0.0162856
792.118	0.0163977
792.196	0.0162649
792.274	0.0163005
792.352	0.0162955
792.431	0.0162270
792.509	0.0161974
792.587	0.0162267
792.665	0.0162848
792.743	0.0162647
792.821	0.0162271
792.899	0.0164104
792.977	0.0164100
793.056	0.0162901
793.134	0.0163190
793.212	0.0162795
793.290	0.0162630
793.368	0.0161400
793.446	0.0161929
793.524	0.0162234
793.602	0.0161947
793.681	0.0161782
793.759	0.0163266
793.837	0.0163501
793.915	0.0161938
793.993	0.0162394
794.071	0.0161755
794.149	0.0162862
794.227	0.0164030
794.306	0.0162154
794.384	0.0162623
794.462	0.0163478
794.540	0.0163114
794.618	0.0163634
794.696	0.0163857
794.774	0.0162675
794.852	0.0162219
794.931	0.0163225
795.009	0.0164641
795.087	0.0162955
795.165	0.0163596
795.243	0.0163817
795.321	0.0163842
795.399	0.0162744
795.477	0.0163625
795.556	0.0162907
795.634	0.0163657
795.712	0.0162854
795.790	0.0163773
795.868	0.0165052
795.946	0.0163155
796.024	0.0163960
796.102	0.0163702
796.181	0.0162816
796.259	0.0164039
796.337	0.0163862
796.415	0.0163895
796.493	0.0164164
796.571	0.0161818
796.649	0.0163550
796.727	0.0163196
796.806	0.0163792
796.884	0.0163962
796.962	0.0163154
797.040	0.0163737
797.118	0.0165026
797.196	0.0165472
797.274	0.0164095
797.352	0.0163835
797.431	0.0164246
797.509	0.0163972
797.587	0.0162911
797.665	0.0164696
797.743	0.0163076
797.821	0.0164376
797.899	0.0164391
797.977	0.0164543
798.056	0.0164478
798.134	0.0163850
798.212	0.0165296
798.290	0.0164635
798.368	0.0164201
798.446	0.0164289
798.524	0.0163099
798.602	0.0164129
798.681	0.0164427
798.759	0.0162518
798.837	0.0163802
798.915	0.0165067
798.993	0.0164157
799.071	0.0162868
799.149	0.0163073
799.227	0.0163335
799.306	0.0163292
799.384	0.0162961
799.462	0.0162760
799.540	0.0164407
799.618	0.0164251
799.696	0.0162822
799.774	0.0163396
799.852	0.0164980
799.931	0.0163307
800.009	0.0163052
800.087	0.0163978
800.165	0.0163378
800.243	0.0164182
800.321	0.0161835
800.399	0.0162701
800.477	0.0165004
800.556	0.0163765
800.634	0.0163168
800.712	0.0163175
800.790	0.0163743
800.868	0.0163744
800.946	0.0162988
801.024	0.0163463
801.102	0.0164101
801.181	0.0163480
801.259	0.0162045
801.337	0.0161974
801.415	0.0163045
801.493	0.0163475
801.571	0.0163447
801.649	0.0163509
801.727	0.0162745
801.806	0.0163850
801.884	0.0164524
801.962	0.0163210
802.040	0.0163335
802.118	0.0163525
802.196	0.0163597
802.274	0.0164568
802.352	0.0163685
802.431	0.0162189
802.509	0.0162737
802.587	0.0164245
802.665	0.0164877
802.743	0.0162974
802.821	0.0162862
802.899	0.0163214
802.977	0.0163584
803.056	0.0163248
803.134	0.0163362
803.212	0.0163374
803.290	0.0165152
803.368	0.0164112
803.446	0.0163612
803.524	0.0163831
803.602	0.0163527
803.681	0.0162467
803.759	0.0164444
803.837	0.0163300
803.915	0.0164339
803.993	0.0163643
804.071	0.0165271
804.149	0.0163882
804.227	0.0163409
804.306	0.0163893
804.384	0.0164655
804.462	0.0163730
804.540	0.0163990
804.618	0.0163589
804.696	0.0162854
804.774	0.0165189
804.852	0.0164559
804.931	0.0164417
805.009	0.0163372
805.087	0.0164043
805.165	0.0163013
805.243	0.0163153
805.321	0.0163773
805.399	0.0164381
805.477	0.0161720
805.556	0.0162359
805.634	0.0163439
805.712	0.0164369
805.790	0.0162046
805.868	0.0163999
805.946	0.0163190
806.024	0.0162037
806.102	0.0164124
806.181	0.0164408
806.259	0.0163264
806.337	0.0164310
806.415	0.0163964
806.493	0.0162653
806.571	0.0163091
806.649	0.0164230
806.727	0.0163074
806.806	0.0163628
806.884	0.0162818
806.962	0.0162491
807.040	0.0163121
807.118	0.0164497
807.196	0.0163079
807.274	0.0164023
807.352	0.0162512
807.431	0.0163728
807.509	0.0164860
807.587	0.0163715
807.665	0.0162685
807.743	0.0163607
807.821	0.0163162
807.899	0.0163692
807.977	0.0163290
808.056	0.0163569
808.134	0.0163506
808.212	0.0162817
808.290	0.0164658
808.368	0.0164706
808.446	0.0164385
808.524	0.0164851
808.602	0.0164053
808.681	0.0164373
808.759	0.0163770
808.837	0.0163299
808.915	0.0163083
808.993	0.0165096
809.071	0.0163319
809.149	0.0164261
809.227	0.0162093
809.306	0.0164510
809.384	0.0162781
809.462	0.0163454
809.540	0.0163354
809.618	0.0162308
809.696	0.0164394
809.774	0.0163880
809.852	0.0163945
809.931	0.0164675
810.009	0.0163593
810.087	0.0164251
810.165	0.0164357
810.243	0.0164191
810.321	0.0162525
810.399	0.0165428
810.477	0.0164515
810.556	0.0164059
810.634	0.0164930
810.712	0.0164574
810.790	0.0164027
810.868	0.0162711
810.946	0.0164060
811.024	0.0163111
811.102	0.0164123
811.181	0.0164558
811.259	0.0165231
811.337	0.0163963
811.415	0.0163467
811.493	0.0164266
811.571	0.0163647
811.649	0.0163978
811.727	0.0164554
811.806	0.0164068
811.884	0.0163811
811.962	0.0164025
812.040	0.0164743
812.118	0.0165161
812.196	0.0163588
812.274	0.0164357
812.352	0.0163862
812.431	0.0165292
812.509	0.0165121
812.587	0.0162260
812.665	0.0164305
812.743	0.0163964
812.821	0.0164986
812.899	0.0163622
812.977	0.0163496
813.056	0.0163609
813.134	0.0164371
813.212	0.0164335
813.290	0.0163590
813.368	0.0163906
813.446	0.0162742
813.524	0.0163849
813.602	0.0163049
813.681	0.0163525
813.759	0.0163264
813.837	0.0163714
813.915	0.0162960
813.993	0.0164307
814.071	0.0163175
814.149	0.0163171
814.227	0.0163895
814.306	0.0162952
814.384	0.0162062
814.462	0.0162620
814.540	0.0163802
814.618	0.0162826
814.696	0.0163288
814.774	0.0163811
814.852	0.0162650
814.931	0.0162720
815.009	0.0164520
815.087	0.0163075
815.165	0.0163915
815.243	0.0164626
815.321	0.0163451
815.399	0.0163133
815.477	0.0162627
815.556	0.0162358
815.634	0.0163704
815.712	0.0163329
815.790	0.0164095
815.868	0.0163612
815.946	0.0163450
816.024	0.0161237
816.102	0.0163382
816.181	0.0162317
816.259	0.0162312
816.337	0.0164256
816.415	0.0162064
816.493	0.0163558
816.571	0.0162762
816.649	0.0163899
816.727	0.0163358
816.806	0.0162866
816.884	0.0162628
816.962	0.0162923
817.040	0.0163933
817.118	0.0164447
817.196	0.0163551
817.274	0.0163013
817.352	0.0163264
817.431	0.0163084
817.509	0.0163943
817.587	0.0163655
817.665	0.0162712
817.743	0.0162723
817.821	0.0164040
817.899	0.0163400
817.977	0.0162931
818.056	0.0163976
818.134	0.0163134
818.212	0.0162597
818.290	0.0163332
818.368	0.0162704
818.446	0.0162678
818.524	0.0163797
818.602	0.0163004
818.681	0.0163512
818.759	0.0163131
818.837	0.0162996
818.915	0.0163334
818.993	0.0163139
819.071	0.0162614
819.149	0.0162975
819.227	0.0162673
819.306	0.0161972
819.384	0.0162741
819.462	0.0163081
819.540	0.0163272
819.618	0.0162817
819.696	0.0163519
819.774	0.0162160
819.852	0.0163562
819.931	0.0163274
820.009	0.0162556
820.087	0.0163358
820.165	0.0164352
820.243	0.0163020
820.321	0.0163724
820.399	0.0163959
820.477	0.0164555
820.556	0.0162469
820.634	0.0162060
820.712	0.0163797
820.790	0.0163567
820.868	0.0163747
820.946	0.0163476
821.024	0.0163644
821.102	0.0163825
821.181	0.0163976
821.259	0.0163373
821.337	0.0163175
821.415	0.0164101
821.493	0.0162803
821.571	0.0164276
821.649	0.0163555
821.727	0.0163895
821.806	0.0163621
821.884	0.0164413
821.962	0.0164103
822.040	0.0163723
822.118	0.0164516
822.196	0.0163719
822.274	0.0164037
822.352	0.0163379
822.431	0.0163090
822.509	0.0162622
822.587	0.0163078
822.665	0.0164993
822.743	0.0162914
822.821	0.0165036
822.899	0.0163766
822.977	0.0163384
823.056	0.0163065
823.134	0.0165093
823.212	0.0164587
823.290	0.0163602
823.368	0.0164338
823.446	0.0163262
823.524	0.0163142
823.602	0.0164954
823.681	0.0165123
823.759	0.0163847
823.837	0.0164325
823.915	0.0162632
823.993	0.0162980
824.071	0.0164357
824.149	0.0163746
824.227	0.0164024
824.306	0.0163872
824.384	0.0163985
824.462	0.0163589
824.540	0.0164373
824.618	0.0164545
824.696	0.0164928
824.774	0.0163283
824.852	0.0162466
824.931	0.0163599
825.009	0.0163906
825.087	0.0163247
825.165	0.0163844
825.243	0.0163525
825.321	0.0163205
825.399	0.0163100
825.477	0.0162109
825.556	0.0162922
825.634	0.0161906
825.712	0.0163729
825.790	0.0163210
825.868	0.0162459
825.946	0.0163458
826.024	0.0162522
826.102	0.0162910
826.181	0.0163831
826.259	0.0164508
826.337	0.0163905
826.415	0.0162219
826.493	0.0162682
826.571	0.0162251
826.649	0.0164017
826.727	0.0162946
826.806	0.0163167
826.884	0.0163325
826.962	0.0165112
827.040	0.0163990
827.118	0.0163052
827.196	0.0163538
827.274	0.0163374
827.352	0.0162959
827.431	0.0162784
827.509	0.0163612
827.587	0.0164941
827.665	0.0164663
827.743	0.0163640
827.821	0.0163315
827.899	0.0163581
827.977	0.0164898
828.056	0.0163906
828.134	0.0163381
828.212	0.0164067
828.290	0.0164293
828.368	0.0164162
828.446	0.0164446
828.524	0.0162595
828.602	0.0163522
828.681	0.0162587
828.759	0.0163414
828.837	0.0163316
828.915	0.0163047
828.993	0.0164164
829.071	0.0162993
829.149	0.0164191
829.227	0.0165144
829.306	0.0163467
829.384	0.0163714
829.462	0.0162884
829.540	0.0162769
829.618	0.0163761
829.696	0.0164854
829.774	0.0164024
829.852	0.0164141
829.931	0.0164102
830.009	0.0164467
830.087	0.0164325
830.165	0.0164680
830.243	0.0164268
830.321	0.0163464
830.399	0.0163957
830.477	0.0163756
830.556	0.0164962
830.634	0.0163950
830.712	0.0163971
830.790	0.0164317
830.868	0.0164147
830.946	0.0163094
831.024	0.0164644
831.102	0.0165052
831.181	0.0163750
831.259	0.0164160
831.337	0.0164359
831.415	0.0164733
831.493	0.0164372
831.571	0.0164023
831.649	0.0163284
831.727	0.0163979
831.806	0.0163844
831.884	0.0163750
831.962	0.0162769
832.040	0.0164677
832.118	0.0163392
832.196	0.0163355
832.274	0.0163522
832.352	0.0164222
832.431	0.0163463
832.509	0.0162814
832.587	0.0163878
832.665	0.0164369
832.743	0.0162990
832.821	0.0165549
832.899	0.0163118
832.977	0.0163026
833.056	0.0163423
833.134	0.0162514
833.212	0.0164189
833.290	0.0162463
833.368	0.0163904
833.446	0.0162556
833.524	0.0163743
833.602	0.0163375
833.681	0.0162976
833.759	0.0162790
833.837	0.0162875
833.915	0.0163808
833.993	0.0162560
834.071	0.0162810
834.149	0.0162735
834.227	0.0163664
834.306	0.0163128
834.384	0.0162855
834.462	0.0163400
834.540	0.0162909
834.618	0.0161552
834.696	0.0162988
834.774	0.0163233
834.852	0.0162636
834.931	0.0162540
835.009	0.0162741
835.087	0.0163557
835.165	0.0162801
835.243	0.0163851
835.321	0.0162762
835.399	0.0162715
835.477	0.0163297
835.556	0.0162894
835.634	0.0162714
835.712	0.0163195
835.790	0.0163788
835.868	0.0164674
835.946	0.0163486
836.024	0.0162892
836.102	0.0163968
836.181	0.0164349
836.259	0.0162970
836.337	0.0162843
836.415	0.0162223
836.493	0.0164404
836.571	0.0163902
836.649	0.0163406
836.727	0.0162997
836.806	0.0163181
836.884	0.0163094
836.962	0.0163055
837.040	0.0165379
837.118	0.0163590
837.196	0.0164545
837.274	0.0163214
837.352	0.0164084
837.431	0.0162984
837.509	0.0162388
837.587	0.0163572
837.665	0.0164155
837.743	0.0163264
837.821	0.0163834
837.899	0.0163979
837.977	0.0163569
838.056	0.0165507
838.134	0.0163396
838.212	0.0162170
838.290	0.0164406
838.368	0.0164783
838.446	0.0163666
838.524	0.0163196
838.602	0.0163700
838.681	0.0163631
838.759	0.0163947
838.837	0.0165594
838.915	0.0163187
838.993	0.0162197
839.071	0.0162779
839.149	0.0164842
839.227	0.0162901
839.306	0.0163953
839.384	0.0164408
839.462	0.0163535
839.540	0.0163831
839.618	0.0164396
839.696	0.0163582
839.774	0.0164166
839.852	0.0163135
839.931	0.0163266
840.009	0.0164622
840.087	0.0163271
840.165	0.0163385
840.243	0.0163480
840.321	0.0163084
840.399	0.0164787
840.477	0.0162646
840.556	0.0163136
840.634	0.0162699
840.712	0.0163062
840.790	0.0162635
840.868	0.0162810
840.946	0.0162985
841.024	0.0163560
841.102	0.0163378
841.181	0.0162151
841.259	0.0162874
841.337	0.0164786
841.415	0.0162827
841.493	0.0163353
841.571	0.0163680
841.649	0.0163592
841.727	0.0162387
841.806	0.0163144
841.884	0.0162473
841.962	0.0164100
842.040	0.0164536
842.118	0.0163033
842.196	0.0164467
842.274	0.0164227
842.352	0.0164012
842.431	0.0162897
842.509	0.0162439
842.587	0.0163862
842.665	0.0163478
842.743	0.0162639
842.821	0.0162989
842.899	0.0163806
842.977	0.0163143
843.056	0.0162975
843.134	0.0163030
843.212	0.0164516
843.290	0.0165225
843.368	0.0164174
843.446	0.0162887
843.524	0.0163216
843.602	0.0164587
843.681	0.0163109
843.759	0.0164127
843.837	0.0163460
843.915	0.0163276
843.993	0.0164510
844.071	0.0164254
844.149	0.0164585
844.227	0.0164433
844.306	0.0164478
844.384	0.0163552
844.462	0.0163821
844.540	0.0165958
844.618	0.0164318
844.696	0.0163136
844.774	0.0164347
844.852	0.0163015
844.931	0.0163418
845.009	0.0163280
845.087	0.0164934
845.165	0.0164635
845.243	0.0164153
845.321	0.0163935
845.399	0.0163857
845.477	0.0164618
845.556	0.0163729
845.634	0.0162818
845.712	0.0164053
845.790	0.0162221
845.868	0.0162015
845.946	0.0163744
846.024	0.0163147
846.102	0.0162035
846.181	0.0165035
846.259	0.0163023
846.337	0.0163587
846.415	0.0164391
846.493	0.0163280
846.571	0.0163009
846.649	0.0162514
846.727	0.0164398
846.806	0.0162948
846.884	0.0161224
846.962	0.0162975
847.040	0.0164330
847.118	0.0163084
847.196	0.0163562
847.274	0.0163034
847.352	0.0160995
847.431	0.0162959
847.509	0.0162833
847.587	0.0163070
847.665	0.0163004
847.743	0.0164168
847.821	0.0161932
847.899	0.0163091
847.977	0.0164273
848.056	0.0162040
848.134	0.0161430
848.212	0.0162897
848.290	0.0163602
848.368	0.0162759
848.446	0.0162694
848.524	0.0162048
848.602	0.0162761
848.681	0.0163680
848.759	0.0163599
848.837	0.0163294
848.915	0.0164207
848.993	0.0165028
849.071	0.0162491
849.149	0.0162804
849.227	0.0163953
849.306	0.0165208
849.384	0.0163463
849.462	0.0163961
849.540	0.0164933
849.618	0.0164980
849.696	0.0164247
849.774	0.0162955
849.852	0.0161850
849.931	0.0164455
850.009	0.0163532
850.087	0.0163488
850.165	0.0164388
850.243	0.0163421
850.321	0.0163555
850.399	0.0162583
850.477	0.0163313
850.556	0.0163520
850.634	0.0163019
850.712	0.0161820
850.790	0.0163150
850.868	0.0162998
850.946	0.0162782
851.024	0.0163116
851.102	0.0162360
851.181	0.0162070
851.259	0.0165318
851.337	0.0164464
851.415	0.0161760
851.493	0.0164192
851.571	0.0164194
851.649	0.0163783
851.727	0.0162945
851.806	0.0162891
851.884	0.0162212
851.962	0.0163599
852.040	0.0163476
852.118	0.0164483
852.196	0.0164375
852.274	0.0163060
852.352	0.0164413
852.431	0.0163056
852.509	0.0162722
852.587	0.0161775
852.665	0.0162703
852.743	0.0163618
852.821	0.0162699
852.899	0.0163116
852.977	0.0164645
853.056	0.0164275
853.134	0.0163511
853.212	0.0163938
853.290	0.0164287
853.368	0.0164835
853.446	0.0165300
853.524	0.0164587
853.602	0.0165021
853.681	0.0163432
853.759	0.0164512
853.837	0.0163417
853.915	0.0164806
853.993	0.0163583
854.071	0.0166048
854.149	0.0163946
854.227	0.0164070
854.306	0.0163464
854.384	0.0163160
854.462	0.0163926
854.540	0.0165315
854.618	0.0164229
854.696	0.0163633
854.774	0.0163859
854.852	0.0163771
854.931	0.0164591
855.009	0.0163711
855.087	0.0163754
855.165	0.0165430
855.243	0.0164272
855.321	0.0163768
855.399	0.0164082
855.477	0.0162930
855.556	0.0164253
855.634	0.0163500
855.712	0.0163777
855.790	0.0163737
855.868	0.0163006
855.946	0.0162415
856.024	0.0164016
856.102	0.0164165
856.181	0.0162471
856.259	0.0164314
856.337	0.0162406
856.415	0.0163623
856.493	0.0162559
856.571	0.0162965
856.649	0.0163330
856.727	0.0163972
856.806	0.0163408
856.884	0.0162599
856.962	0.0163260
857.040	0.0163133
857.118	0.0163411
857.196	0.0163537
857.274	0.0163953
857.352	0.0162548
857.431	0.0162538
857.509	0.0162927
857.587	0.0163082
857.665	0.0163556
857.743	0.0162763
857.821	0.0162694
857.899	0.0162410
857.977	0.0162079
858.056	0.0162427
858.134	0.0163786
858.212	0.0162944
858.290	0.0163154
858.368	0.0161678
858.446	0.0163264
858.524	0.0164340
858.602	0.0165188
858.681	0.0163888
858.759	0.0163128
858.837	0.0163450
858.915	0.0162757
858.993	0.0162069
859.071	0.0163263
859.149	0.0164095
859.227	0.0164528
859.306	0.0162819
859.384	0.0162709
859.462	0.0163389
859.540	0.0162090
859.618	0.0163548
859.696	0.0162963
859.774	0.0161887
859.852	0.0164166
859.931	0.0162404
860.009	0.0162877
860.087	0.0162111
860.165	0.0163058
860.243	0.0162932
860.321	0.0164075
860.399	0.0163866
860.477	0.0164381
860.556	0.0162756
860.634	0.0163870
860.712	0.0164540
860.790	0.0162908
860.868	0.0164109
860.946	0.0162784
861.024	0.0164166
861.102	0.0164376
861.181	0.0163854
861.259	0.0163625
861.337	0.0165105
861.415	0.0163970
861.493	0.0163184
861.571	0.0163129
861.649	0.0165001
861.727	0.0163654
861.806	0.0162485
861.884	0.0164268
861.962	0.0164245
862.040	0.0164298
862.118	0.0163772
862.196	0.0162988
862.274	0.0163652
862.352	0.0163715
862.431	0.0163046
862.509	0.0164107
862.587	0.0164281
862.665	0.0164178
862.743	0.0164038
862.821	0.0161919
862.899	0.0163722
862.977	0.0163198
863.056	0.0162331
863.134	0.0164005
863.212	0.0163305
863.290	0.0163857
863.368	0.0163508
863.446	0.0164278
863.524	0.0162448
863.602	0.0161979
863.681	0.0163275
863.759	0.0163266
863.837	0.0163223
863.915	0.0163288
863.993	0.0163373
864.071	0.0162849
864.149	0.0161949
864.227	0.0163332
864.306	0.0163645
864.384	0.0164080
864.462	0.0163754
864.540	0.0163522
864.618	0.0163873
864.696	0.0164017
864.774	0.0163296
864.852	0.0164481
864.931	0.0163661
865.009	0.0163248
865.087	0.0161541
865.165	0.0163653
865.243	0.0164462
865.321	0.0162600
865.399	0.0163409
865.477	0.0163272
865.556	0.0162843
865.634	0.0163826
865.712	0.0162882
865.790	0.0163771
865.868	0.0162746
865.946	0.0162002
866.024	0.0164606
866.102	0.0163996
866.181	0.0162257
866.259	0.0163597
866.337	0.0163464
866.415	0.0163387
866.493	0.0163816
866.571	0.0163327
866.649	0.0163020
866.727	0.0163109
866.806	0.0163654
866.884	0.0163685
866.962	0.0162695
867.040	0.0163441
867.118	0.0163659
867.196	0.0162888
867.274	0.0162029
867.352	0.0162066
867.431	0.0163438
867.509	0.0164352
867.587	0.0163577
867.665	0.0165108
867.743	0.0163365
867.821	0.0163471
867.899	0.0163244
867.977	0.0162431
868.056	0.0164452
868.134	0.0163296
868.212	0.0161534
868.290	0.0162804
868.368	0.0163259
868.446	0.0163017
868.524	0.0162695
868.602	0.0162805
868.681	0.0164964
868.759	0.0163445
868.837	0.0162986
868.915	0.0163508
868.993	0.0163029
869.071	0.0163157
869.149	0.0162703
869.227	0.0163451
869.306	0.0163423
869.384	0.0162037
869.462	0.0164460
869.540	0.0163601
869.618	0.0163824
869.696	0.0163370
869.774	0.0163380
869.852	0.0164062
869.931	0.0163264
870.009	0.0163036
870.087	0.0163629
870.165	0.0163043
870.243	0.0163780
870.321	0.0163885
870.399	0.0163491
870.477	0.0162206
870.556	0.0163316
870.634	0.0163134
870.712	0.0162006
870.790	0.0163232
870.868	0.0163228
870.946	0.0164308
871.024	0.0164131
871.102	0.0163851
871.181	0.0164111
871.259	0.0163958
871.337	0.0164152
871.415	0.0163765
871.493	0.0163881
871.571	0.0163838
871.649	0.0163322
871.727	0.0165083
871.806	0.0163610
871.884	0.0163741
871.962	0.0163658
872.040	0.0163049
872.118	0.0163318
872.196	0.0162923
872.274	0.0162936
872.352	0.0163161
872.431	0.0161645
872.509	0.0163849
872.587	0.0163648
872.665	0.0164180
872.743	0.0163288
872.821	0.0163068
872.899	0.0161944
872.977	0.0162398
873.056	0.0162801
873.134	0.0161173
873.212	0.0163165
873.290	0.0163442
873.368	0.0162273
873.446	0.0161025
873.524	0.0161630
873.602	0.0162524
873.681	0.0162856
873.759	0.0162065
873.837	0.0162894
873.915	0.0162170
873.993	0.0160920
874.071	0.0162542
874.149	0.0162757
874.227	0.0162288
874.306	0.0163011
874.384	0.0164750
874.462	0.0163758
874.540	0.0163684
874.618	0.0164552
874.696	0.0163720
874.774	0.0162067
874.852	0.0163419
874.931	0.0164687
875.009	0.0163107
875.087	0.0163632
875.165	0.0162820
875.243	0.0163667
875.321	0.0164168
875.399	0.0162394
875.477	0.0162986
875.556	0.0162537
875.634	0.0164210
875.712	0.0163179
875.790	0.0163639
875.868	0.0163923
875.946	0.0164497
876.024	0.0164179
876.102	0.0163939
876.181	0.0163869
876.259	0.0163053
876.337	0.0164529
876.415	0.0164816
876.493	0.0164740
876.571	0.0163509
876.649	0.0163395
876.727	0.0163660
876.806	0.0164674
876.884	0.0163640
876.962	0.0164644
877.040	0.0166603
877.118	0.0165659
877.196	0.0164272
877.274	0.0164020
877.352	0.0164961
877.431	0.0164107
877.509	0.0163744
877.587	0.0165444
877.665	0.0164698
877.743	0.0163471
877.821	0.0163412
877.899	0.0165231
877.977	0.0163902
878.056	0.0163390
878.134	0.0163447
878.212	0.0164422
878.290	0.0163943
878.368	0.0163500
878.446	0.0163465
878.524	0.0163104
878.602	0.0164008
878.681	0.0163470
878.759	0.0163637
878.837	0.0162232
878.915	0.0162139
878.993	0.0163647
879.071	0.0165099
879.149	0.0162014
879.227	0.0162422
879.306	0.0163221
879.384	0.0163354
879.462	0.0162476
879.540	0.0162180
879.618	0.0163377
879.696	0.0163178
879.774	0.0161716
879.852	0.0162857
879.931	0.0163554
880.009	0.0163682
880.087	0.0162225
880.165	0.0162814
880.243	0.0162811
880.321	0.0163268
880.399	0.0162769
880.477	0.0164113
880.556	0.0163276
880.634	0.0163093
880.712	0.0164397
880.790	0.0161351
880.868	0.0161711
880.946	0.0163776
881.024	0.0163210
881.102	0.0162798
881.181	0.0162820
881.259	0.0161834
881.337	0.0163594
881.415	0.0163086
881.493	0.0163511
881.571	0.0164007
881.649	0.0163649
881.727	0.0162475
881.806	0.0163207
881.884	0.0164368
881.962	0.0162953
882.040	0.0162886
882.118	0.0163549
882.196	0.0163688
882.274	0.0162874
882.352	0.0162953
882.431	0.0162571
882.509	0.0162878
882.587	0.0164661
882.665	0.0162979
882.743	0.0162590
882.821	0.0163045
882.899	0.0162906
882.977	0.0162632
883.056	0.0162743
883.134	0.0163363
883.212	0.0162930
883.290	0.0161639
883.368	0.0163306
883.446	0.0161913
883.524	0.0163702
883.602	0.0162969
883.681	0.0162971
883.759	0.0162791
883.837	0.0163146
883.915	0.0163350
883.993	0.0163781
884.071	0.0163600
884.149	0.0161566
884.227	0.0163735
884.306	0.0163779
884.384	0.0161748
884.462	0.0162621
884.540	0.0164045
884.618	0.0163294
884.696	0.0162917
884.774	0.0162895
884.852	0.0162378
884.931	0.0162684
885.009	0.0162960
885.087	0.0162569
885.165	0.0162985
885.243	0.0162326
885.321	0.0163233
885.399	0.0163153
885.477	0.0162779
885.556	0.0162717
885.634	0.0162032
885.712	0.0164003
885.790	0.0162598
885.868	0.0161552
885.946	0.0163688
886.024	0.0162808
886.102	0.0162920
886.181	0.0163115
886.259	0.0161362
886.337	0.0163371
886.415	0.0162390
886.493	0.0163149
886.571	0.0163796
886.649	0.0163192
886.727	0.0162881
886.806	0.0163208
886.884	0.0164177
886.962	0.0162640
887.040	0.0162898
887.118	0.0163084
887.196	0.0164392
887.274	0.0162865
887.352	0.0165459
887.431	0.0162290
887.509	0.0163609
887.587	0.0164634
887.665	0.0163544
887.743	0.0163434
887.821	0.0163315
887.899	0.0165131
887.977	0.0165351
888.056	0.0163907
888.134	0.0162865
888.212	0.0163621
888.290	0.0163586
888.368	0.0163792
888.446	0.0163058
888.524	0.0163514
888.602	0.0164253
888.681	0.0163955
888.759	0.0163597
888.837	0.0163406
888.915	0.0163232
888.993	0.0163542
889.071	0.0163854
889.149	0.0163099
889.227	0.0163332
889.306	0.0163557
889.384	0.0161319
889.462	0.0161805
889.540	0.0163406
889.618	0.0163527
889.696	0.0163295
889.774	0.0162379
889.852	0.0162207
889.931	0.0162597
890.009	0.0160851
890.087	0.0162571
890.165	0.0162910
890.243	0.0164098
890.321	0.0161735
890.399	0.0163126
890.477	0.0163573
890.556	0.0162449
890.634	0.0161929
890.712	0.0163007
890.790	0.0163789
890.868	0.0163609
890.946	0.0162335
891.024	0.0162690
891.102	0.0162943
891.181	0.0161192
891.259	0.0162890
891.337	0.0162967
891.415	0.0161613
891.493	0.0163327
891.571	0.0164124
891.649	0.0162468
891.727	0.0163197
891.806	0.0161921
891.884	0.0162325
891.962	0.0163158
892.040	0.0163219
892.118	0.0162778
892.196	0.0161602
892.274	0.0162266
892.352	0.0163800
892.431	0.0162212
892.509	0.0163528
892.587	0.0163319
892.665	0.0163400
892.743	0.0163445
892.821	0.0162249
892.899	0.0162949
892.977	0.0163599
893.056	0.0162273
893.134	0.0163375
893.212	0.0164342
893.290	0.0161419
893.368	0.0163026
893.446	0.0162843
893.524	0.0163183
893.602	0.0163518
893.681	0.0164027
893.759	0.0162695
893.837	0.0163107
893.915	0.0162527
893.993	0.0163915
894.071	0.0163784
894.149	0.0162703
894.227	0.0162910
894.306	0.0163554
894.384	0.0162680
894.462	0.0164453
894.540	0.0164476
894.618	0.0163080
894.696	0.0162855
894.774	0.0162773
894.852	0.0163966
894.931	0.0163409
895.009	0.0164493
895.087	0.0163488
895.165	0.0163371
895.243	0.0163781
895.321	0.0163335
895.399	0.0163638
895.477	0.0163438
895.556	0.0163707
895.634	0.0163174
895.712	0.0165283
895.790	0.0163445
895.868	0.0162981
895.946	0.0163770
896.024	0.0164284
896.102	0.0163214
896.181	0.0163246
896.259	0.0164480
896.337	0.0163068
896.415	0.0162753
896.493	0.0163084
896.571	0.0164355
896.649	0.0161637
896.727	0.0163445
896.806	0.0162820
896.884	0.0164092
896.962	0.0163956
897.040	0.0163427
897.118	0.0162379
897.196	0.0164890
897.274	0.0163884
897.352	0.0162920
897.431	0.0163751
897.509	0.0163717
897.587	0.0162521
897.665	0.0162226
897.743	0.0163303
897.821	0.0163883
897.899	0.0162949
897.977	0.0162704
898.056	0.0163335
898.134	0.0164062
898.212	0.0163904
898.290	0.0162386
898.368	0.0164532
898.446	0.0164956
898.524	0.0162437
898.602	0.0163010
898.681	0.0162447
898.759	0.0162940
898.837	0.0163252
898.915	0.0164273
898.993	0.0164583
899.071	0.0161967
899.149	0.0163005
899.227	0.0163556
899.306	0.0162877
899.384	0.0163374
899.462	0.0163268
899.540	0.0163490
899.618	0.0164260
899.696	0.0163692
899.774	0.0162707
899.852	0.0162968
899.931	0.0163292
900.009	0.0163586
900.087	0.0163829
900.165	0.0163817
900.243	0.0163970
900.321	0.0164294
900.399	0.0163943
900.477	0.0163914
900.556	0.0163797
900.634	0.0163778
900.712	0.0165511
900.790	0.0163731
900.868	0.0164497
900.946	0.0164886
901.024	0.0166230
901.102	0.0165291
901.181	0.0163770
901.259	0.0164040
901.337	0.0166187
901.415	0.0164812
901.493	0.0165025
901.571	0.0164454
901.649	0.0164632
901.727	0.0164842
901.806	0.0165393
901.884	0.0165427
901.962	0.0164856
902.040	0.0165543
902.118	0.0165055
902.196	0.0164517
902.274	0.0165660
902.352	0.0163623
902.431	0.0163556
902.509	0.0163481
902.587	0.0165142
902.665	0.0164823
902.743	0.0163948
902.821	0.0163477
902.899	0.0162976
902.977	0.0164756
903.056	0.0164159
903.134	0.0163964
903.212	0.0163733
903.290	0.0163297
903.368	0.0162349
903.446	0.0164281
903.524	0.0164413
903.602	0.0163905
903.681	0.0163425
903.759	0.0163876
903.837	0.0164622
903.915	0.0164754
903.993	0.0164725
904.071	0.0164486
904.149	0.0163318
904.227	0.0164870
904.306	0.0165163
904.384	0.0163129
904.462	0.0163676
904.540	0.0165796
904.618	0.0163416
904.696	0.0163251
904.774	0.0163322
904.852	0.0162516
904.931	0.0163258
905.009	0.0163114
905.087	0.0162541
905.165	0.0162898
905.243	0.0163918
905.321	0.0162804
905.399	0.0163528
905.477	0.0163857
905.556	0.0163777
905.634	0.0163263
905.712	0.0163892
905.790	0.0163982
905.868	0.0163863
905.946	0.0162870
906.024	0.0162758
906.102	0.0163097
906.181	0.0164178
906.259	0.0163674
906.337	0.0163338
906.415	0.0163512
906.493	0.0163701
906.571	0.0165228
906.649	0.0163315
906.727	0.0164426
906.806	0.0163933
906.884	0.0164003
906.962	0.0163467
907.040	0.0162159
907.118	0.0162534
907.196	0.0164223
907.274	0.0164211
907.352	0.0164377
907.431	0.0163174
907.509	0.0162650
907.587	0.0163834
907.665	0.0165341
907.743	0.0164208
907.821	0.0163211
907.899	0.0162732
907.977	0.0163488
908.056	0.0164991
908.134	0.0164571
908.212	0.0163551
908.290	0.0163470
908.368	0.0164167
908.446	0.0162489
908.524	0.0164043
908.602	0.0164441
908.681	0.0164465
908.759	0.0163684
908.837	0.0163876
908.915	0.0164471
908.993	0.0165318
909.071	0.0164330
909.149	0.0164841
909.227	0.0164749
909.306	0.0164257
909.384	0.0163384
909.462	0.0164751
909.540	0.0164536
909.618	0.0163531
909.696	0.0163155
909.774	0.0163998
909.852	0.0164334
909.931	0.0163841
910.009	0.0163644
910.087	0.0164601
910.165	0.0162882
910.243	0.0164303
910.321	0.0163472
910.399	0.0163079
910.477	0.0164665
910.556	0.0163530
910.634	0.0163518
910.712	0.0164631
910.790	0.0162690
910.868	0.0163261
910.946	0.0163745
911.024	0.0165377
911.102	0.0163770
911.181	0.0162722
911.259	0.0164134
911.337	0.0163914
911.415	0.0163965
911.493	0.0163599
911.571	0.0163107
911.649	0.0163487
911.727	0.0163693
911.806	0.0164222
911.884	0.0164320
911.962	0.0162790
912.040	0.0162976
912.118	0.0164830
912.196	0.0164207
912.274	0.0163511
912.352	0.0163302
912.431	0.0163132
912.509	0.0163250
912.587	0.0163445
912.665	0.0163100
912.743	0.0164135
912.821	0.0162466
912.899	0.0162147
912.977	0.0162537
913.056	0.0164045
913.134	0.0161880
913.212	0.0163466
913.290	0.0162909
913.368	0.0163415
913.446	0.0163159
913.524	0.0163483
913.602	0.0162177
913.681	0.0163313
913.759	0.0163865
913.837	0.0163702
913.915	0.0162985
913.993	0.0163330
914.071	0.0163783
914.149	0.0163094
914.227	0.0163427
914.306	0.0164230
914.384	0.0164256
914.462	0.0163043
914.540	0.0164177
914.618	0.0163319
914.696	0.0163737
914.774	0.0163477
914.852	0.0163826
914.931	0.0164391
915.009	0.0162161
915.087	0.0162827
915.165	0.0165114
915.243	0.0163785
915.321	0.0164136
915.399	0.0162582
915.477	0.0162385
915.556	0.0162728
915.634	0.0161887
915.712	0.0162991
915.790	0.0162538
915.868	0.0164881
915.946	0.0162522
916.024	0.0163014
916.102	0.0162541
916.181	0.0163474
916.259	0.0163041
916.337	0.0163406
916.415	0.0164886
916.493	0.0162257
916.571	0.0163039
916.649	0.0163344
916.727	0.0162575
916.806	0.0162766
916.884	0.0163680
916.962	0.0162558
917.040	0.0164238
917.118	0.0162214
917.196	0.0162222
917.274	0.0161617
917.352	0.0162401
917.431	0.0162401
917.509	0.0163397
917.587	0.0165123
917.665	0.0163388
917.743	0.0161855
917.821	0.0162634
917.899	0.0165283
917.977	0.0163241
918.056	0.0162365
918.134	0.0162820
918.212	0.0163261
918.290	0.0163773
918.368	0.0162658
918.446	0.0163436
918.524	0.0164278
918.602	0.0163068
918.681	0.0163023
918.759	0.0163721
918.837	0.0164043
918.915	0.0163924
918.993	0.0162975
919.071	0.0163182
919.149	0.0164913
919.227	0.0163539
919.306	0.0163121
919.384	0.0164106
919.462	0.0163798
919.540	0.0163355
919.618	0.0163444
919.696	0.0164965
919.774	0.0162993
919.852	0.0164122
919.931	0.0164252
920.009	0.0163078
920.087	0.0164246
920.165	0.0163857
920.243	0.0162839
920.321	0.0163954
920.399	0.0163956
920.477	0.0163480
920.556	0.0164084
920.634	0.0163077
920.712	0.0163791
920.790	0.0164444
920.868	0.0163041
920.946	0.0163016
921.024	0.0164329
921.102	0.0163116
921.181	0.0164551
921.259	0.0163477
921.337	0.0164361
921.415	0.0162854
921.493	0.0163876
921.571	0.0163952
921.649	0.0163247
921.727	0.0164053
921.806	0.0164462
921.884	0.0163743
921.962	0.0164298
922.040	0.0163597
922.118	0.0162740
922.196	0.0162861
922.274	0.0163796
922.352	0.0165135
922.431	0.0164426
922.509	0.0164913
922.587	0.0163308
922.665	0.0162888
922.743	0.0163234
922.821	0.0164477
922.899	0.0162899
922.977	0.0165038
923.056	0.0163002
923.134	0.0163649
923.212	0.0164158
923.290	0.0164431
923.368	0.0163969
923.446	0.0162955
923.524	0.0163992
923.602	0.0164697
923.681	0.0163721
923.759	0.0163573
923.837	0.0165974
923.915	0.0163173
923.993	0.0163006
924.071	0.0164181
924.149	0.0164136
924.227	0.0165307
924.306	0.0165181
924.384	0.0166352
924.462	0.0164281
924.540	0.0164469
924.618	0.0164336
924.696	0.0166045
924.774	0.0165302
924.852	0.0164429
924.931	0.0164806
925.009	0.0164102
925.087	0.0165552
925.165	0.0163654
925.243	0.0164550
925.321	0.0166096
925.399	0.0164713
925.477	0.0165675
925.556	0.0164761
925.634	0.0164201
925.712	0.0166867
925.790	0.0165340
925.868	0.0165030
925.946	0.0164578
926.024	0.0164098
926.102	0.0165497
926.181	0.0165389
926.259	0.0164346
926.337	0.0165600
926.415	0.0165202
926.493	0.0165446
926.571	0.0165523
926.649	0.0165346
926.727	0.0165710
926.806	0.0164989
926.884	0.0163612
926.962	0.0163689
927.040	0.0165273
927.118	0.0164659
927.196	0.0164594
927.274	0.0165133
927.352	0.0164117
927.431	0.0164603
927.509	0.0164656
927.587	0.0165094
927.665	0.0164555
927.743	0.0164156
927.821	0.0162888
927.899	0.0164568
927.977	0.0164539
928.056	0.0163054
928.134	0.0163434
928.212	0.0164613
928.290	0.0164688
928.368	0.0163384
928.446	0.0163390
928.524	0.0163197
928.602	0.0164063
928.681	0.0163894
928.759	0.0162395
928.837	0.0164566
928.915	0.0164156
928.993	0.0164581
929.071	0.0165507
929.149	0.0164199
929.227	0.0163596
929.306	0.0163557
929.384	0.0163764
929.462	0.0164276
929.540	0.0164695
929.618	0.0164362
929.696	0.0165053
929.774	0.0163727
929.852	0.0163084
929.931	0.0163227
