05/19/2022	01:14:50	Ver.	4.1	UNKNOWN
Optical Delay	610.008675	Delta X		0.078125	Sweeps	1	Scan Rate	0/0
Coordinates	Axis 1	NaN	Axis 2	NaN	Axis 3	NaN	Axis 4	NaN	Axis 5	NaN	Axis 6	0.000000
TX Power	0.000000	RX Power	0.000000

610.009	0.0160397
610.087	0.0160407
610.165	0.0160410
610.243	0.0159406
610.321	0.0158034
610.399	0.0159592
610.477	0.0159454
610.556	0.0158881
610.634	0.0160168
610.712	0.0158528
610.790	0.0158428
610.868	0.0159607
610.946	0.0159547
611.024	0.0160792
611.102	0.0160863
611.181	0.0159353
611.259	0.0160610
611.337	0.0159748
611.415	0.0159523
611.493	0.0158125
611.571	0.0161514
611.649	0.0160254
611.727	0.0160432
611.806	0.0160023
611.884	0.0159595
611.962	0.0158157
612.040	0.0159464
612.118	0.0159693
612.196	0.0160143
612.274	0.0159460
612.352	0.0159956
612.431	0.0159679
612.509	0.0159186
612.587	0.0160629
612.665	0.0159612
612.743	0.0160349
612.821	0.0160059
612.899	0.0158292
612.977	0.0160485
613.056	0.0160085
613.134	0.0161667
613.212	0.0159808
613.290	0.0159956
613.368	0.0159563
613.446	0.0160629
613.524	0.0161880
613.602	0.0158989
613.681	0.0160217
613.759	0.0161559
613.837	0.0160836
613.915	0.0159985
613.993	0.0159541
614.071	0.0160416
614.149	0.0160823
614.227	0.0161877
614.306	0.0160595
614.384	0.0160624
614.462	0.0161504
614.540	0.0160777
614.618	0.0161198
614.696	0.0160480
614.774	0.0161575
614.852	0.0160948
614.931	0.0161255
615.009	0.0160688
615.087	0.0159736
615.165	0.0160313
615.243	0.0160841
615.321	0.0159444
615.399	0.0159395
615.477	0.0158446
615.556	0.0160126
615.634	0.0161552
615.712	0.0160260
615.790	0.0158556
615.868	0.0159856
615.946	0.0159612
616.024	0.0160616
616.102	0.0159061
616.181	0.0160001
616.259	0.0159897
616.337	0.0159547
616.415	0.0160779
616.493	0.0160104
616.571	0.0159241
616.649	0.0160082
616.727	0.0159523
616.806	0.0161644
616.884	0.0160386
616.962	0.0160076
617.040	0.0159618
617.118	0.0160355
617.196	0.0160062
617.274	0.0158925
617.352	0.0158955
617.431	0.0158008
617.509	0.0159666
617.587	0.0158885
617.665	0.0159113
617.743	0.0158991
617.821	0.0158679
617.899	0.0159093
617.977	0.0160150
618.056	0.0159619
618.134	0.0159069
618.212	0.0159978
618.290	0.0159390
618.368	0.0159297
618.446	0.0159909
618.524	0.0158720
618.602	0.0158600
618.681	0.0159122
618.759	0.0159179
618.837	0.0157741
618.915	0.0159690
618.993	0.0159347
619.071	0.0159387
619.149	0.0160116
619.227	0.0160515
619.306	0.0160204
619.384	0.0159480
619.462	0.0159479
619.540	0.0161149
619.618	0.0159990
619.696	0.0159955
619.774	0.0161212
619.852	0.0161991
619.931	0.0160735
620.009	0.0161805
620.087	0.0160677
620.165	0.0159639
620.243	0.0160977
620.321	0.0160166
620.399	0.0160890
620.477	0.0161958
620.556	0.0162262
620.634	0.0160699
620.712	0.0159912
620.790	0.0159955
620.868	0.0160831
620.946	0.0159936
621.024	0.0161002
621.102	0.0160935
621.181	0.0160412
621.259	0.0159992
621.337	0.0158423
621.415	0.0158863
621.493	0.0162038
621.571	0.0160829
621.649	0.0159398
621.727	0.0160699
621.806	0.0161585
621.884	0.0159473
621.962	0.0161856
622.040	0.0162291
622.118	0.0162914
622.196	0.0162313
622.274	0.0160380
622.352	0.0161233
622.431	0.0160814
622.509	0.0160855
622.587	0.0160940
622.665	0.0159227
622.743	0.0161009
622.821	0.0159163
622.899	0.0160429
622.977	0.0160511
623.056	0.0160053
623.134	0.0160584
623.212	0.0160964
623.290	0.0159127
623.368	0.0158691
623.446	0.0158246
623.524	0.0159062
623.602	0.0159109
623.681	0.0157764
623.759	0.0158510
623.837	0.0158512
623.915	0.0158966
623.993	0.0158748
624.071	0.0156599
624.149	0.0158568
624.227	0.0159373
624.306	0.0158289
624.384	0.0158228
624.462	0.0157418
624.540	0.0156973
624.618	0.0158109
624.696	0.0159077
624.774	0.0157420
624.852	0.0158432
624.931	0.0158419
625.009	0.0158644
625.087	0.0159702
625.165	0.0159754
625.243	0.0158474
625.321	0.0159145
625.399	0.0158939
625.477	0.0159633
625.556	0.0159448
625.634	0.0161276
625.712	0.0159846
625.790	0.0159872
625.868	0.0160868
625.946	0.0162310
626.024	0.0161972
626.102	0.0159385
626.181	0.0161037
626.259	0.0161785
626.337	0.0160130
626.415	0.0162350
626.493	0.0162781
626.571	0.0162767
626.649	0.0161814
626.727	0.0160851
626.806	0.0160085
626.884	0.0160370
626.962	0.0161047
627.040	0.0161395
627.118	0.0160196
627.196	0.0161540
627.274	0.0162428
627.352	0.0161273
627.431	0.0161205
627.509	0.0160451
627.587	0.0159631
627.665	0.0159415
627.743	0.0159846
627.821	0.0159283
627.899	0.0160232
627.977	0.0160198
628.056	0.0158723
628.134	0.0158543
628.212	0.0157790
628.290	0.0158440
628.368	0.0157076
628.446	0.0158258
628.524	0.0157214
628.602	0.0156818
628.681	0.0157495
628.759	0.0157182
628.837	0.0156081
628.915	0.0155404
628.993	0.0156031
629.071	0.0156702
629.149	0.0156302
629.227	0.0156480
629.306	0.0156900
629.384	0.0155927
629.462	0.0157370
629.540	0.0158670
629.618	0.0157450
629.696	0.0156785
629.774	0.0157368
629.852	0.0157666
629.931	0.0160472
630.009	0.0160915
630.087	0.0160385
630.165	0.0159515
630.243	0.0160507
630.321	0.0160504
630.399	0.0161962
630.477	0.0162204
630.556	0.0161140
630.634	0.0160982
630.712	0.0163721
630.790	0.0163315
630.868	0.0163822
630.946	0.0163278
631.024	0.0163192
631.102	0.0163116
631.181	0.0164137
631.259	0.0164355
631.337	0.0164735
631.415	0.0162737
631.493	0.0165032
631.571	0.0163521
631.649	0.0164454
631.727	0.0164359
631.806	0.0164116
631.884	0.0163385
631.962	0.0163359
632.040	0.0163614
632.118	0.0163291
632.196	0.0162708
632.274	0.0161594
632.352	0.0163409
632.431	0.0161449
632.509	0.0160375
632.587	0.0160627
632.665	0.0160335
632.743	0.0159679
632.821	0.0159994
632.899	0.0157218
632.977	0.0158162
633.056	0.0157471
633.134	0.0157440
633.212	0.0157676
633.290	0.0157990
633.368	0.0156563
633.446	0.0155078
633.524	0.0156290
633.602	0.0156050
633.681	0.0156776
633.759	0.0156494
633.837	0.0155697
633.915	0.0154714
633.993	0.0156567
634.071	0.0157286
634.149	0.0156418
634.227	0.0154948
634.306	0.0157178
634.384	0.0156570
634.462	0.0158308
634.540	0.0158289
634.618	0.0156204
634.696	0.0158867
634.774	0.0158920
634.852	0.0159447
634.931	0.0159132
635.009	0.0160790
635.087	0.0162862
635.165	0.0161016
635.243	0.0160877
635.321	0.0162585
635.399	0.0162621
635.477	0.0163037
635.556	0.0162138
635.634	0.0162637
635.712	0.0163138
635.790	0.0163631
635.868	0.0165030
635.946	0.0165391
636.024	0.0163873
636.102	0.0164265
636.181	0.0165034
636.259	0.0165504
636.337	0.0164711
636.415	0.0163516
636.493	0.0165656
636.571	0.0165203
636.649	0.0162439
636.727	0.0165720
636.806	0.0163890
636.884	0.0162990
636.962	0.0162502
637.040	0.0161626
637.118	0.0161704
637.196	0.0161372
637.274	0.0160159
637.352	0.0160954
637.431	0.0159746
637.509	0.0158513
637.587	0.0158911
637.665	0.0157656
637.743	0.0157530
637.821	0.0156444
637.899	0.0155087
637.977	0.0154879
638.056	0.0154654
638.134	0.0154084
638.212	0.0153153
638.290	0.0153835
638.368	0.0154562
638.446	0.0154126
638.524	0.0151115
638.602	0.0151337
638.681	0.0153719
638.759	0.0152818
638.837	0.0152789
638.915	0.0152749
638.993	0.0154569
639.071	0.0154593
639.149	0.0155383
639.227	0.0153669
639.306	0.0157928
639.384	0.0157479
639.462	0.0158797
639.540	0.0158600
639.618	0.0159423
639.696	0.0159668
639.774	0.0161365
639.852	0.0162568
639.931	0.0164217
640.009	0.0162148
640.087	0.0163406
640.165	0.0164794
640.243	0.0163089
640.321	0.0164721
640.399	0.0165764
640.477	0.0164888
640.556	0.0165296
640.634	0.0165525
640.712	0.0164137
640.790	0.0165130
640.868	0.0165478
640.946	0.0165173
641.024	0.0163783
641.102	0.0163985
641.181	0.0163662
641.259	0.0164799
641.337	0.0163558
641.415	0.0161832
641.493	0.0162717
641.571	0.0162657
641.649	0.0162311
641.727	0.0161700
641.806	0.0162154
641.884	0.0162201
641.962	0.0161076
642.040	0.0159270
642.118	0.0158650
642.196	0.0160016
642.274	0.0157833
642.352	0.0157963
642.431	0.0159114
642.509	0.0158940
642.587	0.0158321
642.665	0.0157920
642.743	0.0157549
642.821	0.0157535
642.899	0.0156412
642.977	0.0157183
643.056	0.0156577
643.134	0.0158246
643.212	0.0159472
643.290	0.0157470
643.368	0.0158411
643.446	0.0157166
643.524	0.0158675
643.602	0.0158303
643.681	0.0158398
643.759	0.0158530
643.837	0.0159665
643.915	0.0159883
643.993	0.0160391
644.071	0.0159785
644.149	0.0158541
644.227	0.0159508
644.306	0.0160054
644.384	0.0160130
644.462	0.0159246
644.540	0.0159879
644.618	0.0159169
644.696	0.0159367
644.774	0.0158846
644.852	0.0159331
644.931	0.0159429
645.009	0.0158765
645.087	0.0161327
645.165	0.0159228
645.243	0.0158876
645.321	0.0158181
645.399	0.0158785
645.477	0.0159342
645.556	0.0159629
645.634	0.0161110
645.712	0.0159747
645.790	0.0159401
645.868	0.0160543
645.946	0.0158826
646.024	0.0161730
646.102	0.0160686
646.181	0.0161120
646.259	0.0160437
646.337	0.0159753
646.415	0.0160532
646.493	0.0161277
646.571	0.0160142
646.649	0.0160262
646.727	0.0160117
646.806	0.0160751
646.884	0.0161884
646.962	0.0161142
647.040	0.0161330
647.118	0.0160506
647.196	0.0159831
647.274	0.0160294
647.352	0.0161739
647.431	0.0159877
647.509	0.0161269
647.587	0.0161284
647.665	0.0161338
647.743	0.0161627
647.821	0.0161201
647.899	0.0158922
647.977	0.0161040
648.056	0.0160142
648.134	0.0161513
648.212	0.0161184
648.290	0.0161546
648.368	0.0160654
648.446	0.0160291
648.524	0.0158687
648.602	0.0161547
648.681	0.0161798
648.759	0.0160145
648.837	0.0159402
648.915	0.0160621
648.993	0.0160427
649.071	0.0161694
649.149	0.0161196
649.227	0.0159549
649.306	0.0160304
649.384	0.0160539
649.462	0.0161919
649.540	0.0161478
649.618	0.0161797
649.696	0.0161510
649.774	0.0159858
649.852	0.0160123
649.931	0.0159874
650.009	0.0161420
650.087	0.0159791
650.165	0.0160670
650.243	0.0161631
650.321	0.0159479
650.399	0.0160452
650.477	0.0159335
650.556	0.0159145
650.634	0.0158698
650.712	0.0160627
650.790	0.0159357
650.868	0.0159849
650.946	0.0159510
651.024	0.0160501
651.102	0.0159256
651.181	0.0159449
651.259	0.0158689
651.337	0.0158398
651.415	0.0159725
651.493	0.0159837
651.571	0.0158569
651.649	0.0158364
651.727	0.0158858
651.806	0.0159021
651.884	0.0159462
651.962	0.0160162
652.040	0.0158633
652.118	0.0159343
652.196	0.0159512
652.274	0.0159595
652.352	0.0159583
652.431	0.0160526
652.509	0.0160345
652.587	0.0159798
652.665	0.0160823
652.743	0.0161749
652.821	0.0160144
652.899	0.0162675
652.977	0.0161935
653.056	0.0162228
653.134	0.0162893
653.212	0.0162391
653.290	0.0162704
653.368	0.0162995
653.446	0.0164120
653.524	0.0163221
653.602	0.0163078
653.681	0.0164563
653.759	0.0163542
653.837	0.0165568
653.915	0.0164605
653.993	0.0166500
654.071	0.0165258
654.149	0.0166529
654.227	0.0165980
654.306	0.0165803
654.384	0.0164571
654.462	0.0164764
654.540	0.0163209
654.618	0.0164905
654.696	0.0163758
654.774	0.0162818
654.852	0.0161201
654.931	0.0161302
655.009	0.0160745
655.087	0.0161258
655.165	0.0158821
655.243	0.0157566
655.321	0.0159228
655.399	0.0159518
655.477	0.0156837
655.556	0.0156779
655.634	0.0158249
655.712	0.0157108
655.790	0.0156510
655.868	0.0157337
655.946	0.0156460
656.024	0.0154621
656.102	0.0154596
656.181	0.0155968
656.259	0.0156932
656.337	0.0156562
656.415	0.0155281
656.493	0.0155446
656.571	0.0156024
656.649	0.0156767
656.727	0.0157076
656.806	0.0155769
656.884	0.0156373
656.962	0.0156478
657.040	0.0157633
657.118	0.0157964
657.196	0.0158744
657.274	0.0159373
657.352	0.0160448
657.431	0.0161553
657.509	0.0160296
657.587	0.0160891
657.665	0.0160123
657.743	0.0160771
657.821	0.0161726
657.899	0.0162627
657.977	0.0163325
658.056	0.0163927
658.134	0.0163894
658.212	0.0163509
658.290	0.0165569
658.368	0.0166174
658.446	0.0165216
658.524	0.0166205
658.602	0.0165795
658.681	0.0166170
658.759	0.0165549
658.837	0.0164754
658.915	0.0165676
658.993	0.0164364
659.071	0.0164128
659.149	0.0164620
659.227	0.0164111
659.306	0.0164057
659.384	0.0163625
659.462	0.0163076
659.540	0.0164043
659.618	0.0163956
659.696	0.0162433
659.774	0.0164030
659.852	0.0163184
659.931	0.0161833
660.009	0.0161527
660.087	0.0161087
660.165	0.0161362
660.243	0.0160995
660.321	0.0161356
660.399	0.0160342
660.477	0.0159901
660.556	0.0159791
660.634	0.0157966
660.712	0.0157932
660.790	0.0157809
660.868	0.0158078
660.946	0.0157252
661.024	0.0156596
661.102	0.0157299
661.181	0.0156618
661.259	0.0158251
661.337	0.0157417
661.415	0.0156977
661.493	0.0158625
661.571	0.0157671
661.649	0.0158247
661.727	0.0158245
661.806	0.0158590
661.884	0.0159371
661.962	0.0157437
662.040	0.0160191
662.118	0.0159395
662.196	0.0160744
662.274	0.0160284
662.352	0.0160453
662.431	0.0160663
662.509	0.0161555
662.587	0.0161706
662.665	0.0161182
662.743	0.0159615
662.821	0.0161105
662.899	0.0161446
662.977	0.0160816
663.056	0.0161491
663.134	0.0161176
663.212	0.0160658
663.290	0.0162946
663.368	0.0161310
663.446	0.0160408
663.524	0.0161652
663.602	0.0161689
663.681	0.0162387
663.759	0.0161698
663.837	0.0162448
663.915	0.0161131
663.993	0.0163013
664.071	0.0162348
664.149	0.0161570
664.227	0.0161681
664.306	0.0162513
664.384	0.0162582
664.462	0.0160939
664.540	0.0161610
664.618	0.0162491
664.696	0.0162058
664.774	0.0161290
664.852	0.0161877
664.931	0.0161630
665.009	0.0160871
665.087	0.0161513
665.165	0.0162006
665.243	0.0161936
665.321	0.0161954
665.399	0.0160710
665.477	0.0162535
665.556	0.0161826
665.634	0.0160461
665.712	0.0160519
665.790	0.0160874
665.868	0.0160187
665.946	0.0160001
666.024	0.0161158
666.102	0.0160957
666.181	0.0160487
666.259	0.0160533
666.337	0.0160806
666.415	0.0160207
666.493	0.0159875
666.571	0.0159663
666.649	0.0160148
666.727	0.0159806
666.806	0.0158848
666.884	0.0159181
666.962	0.0158763
667.040	0.0158109
667.118	0.0160934
667.196	0.0160629
667.274	0.0159444
667.352	0.0161192
667.431	0.0160634
667.509	0.0159441
667.587	0.0160895
667.665	0.0161324
667.743	0.0159704
667.821	0.0159127
667.899	0.0162726
667.977	0.0160715
668.056	0.0161878
668.134	0.0162616
668.212	0.0161524
668.290	0.0160665
668.368	0.0161679
668.446	0.0161959
668.524	0.0160724
668.602	0.0162309
668.681	0.0161307
668.759	0.0159558
668.837	0.0160346
668.915	0.0160366
668.993	0.0160384
669.071	0.0160984
669.149	0.0160486
669.227	0.0160261
669.306	0.0158954
669.384	0.0159594
669.462	0.0161810
669.540	0.0159354
669.618	0.0158504
669.696	0.0160030
669.774	0.0159569
669.852	0.0160777
669.931	0.0161009
670.009	0.0160597
670.087	0.0160382
670.165	0.0160023
670.243	0.0159794
670.321	0.0161388
670.399	0.0161299
670.477	0.0161226
670.556	0.0162321
670.634	0.0161432
670.712	0.0160378
670.790	0.0161873
670.868	0.0161032
670.946	0.0160958
671.024	0.0162908
671.102	0.0161272
671.181	0.0161707
671.259	0.0161423
671.337	0.0162046
671.415	0.0160594
671.493	0.0160932
671.571	0.0161885
671.649	0.0161649
671.727	0.0160823
671.806	0.0162374
671.884	0.0161419
671.962	0.0161922
672.040	0.0159878
672.118	0.0159232
672.196	0.0161125
672.274	0.0160445
672.352	0.0160186
672.431	0.0160231
672.509	0.0159631
672.587	0.0159400
672.665	0.0159153
672.743	0.0158823
672.821	0.0158619
672.899	0.0159453
672.977	0.0160303
673.056	0.0158237
673.134	0.0158563
673.212	0.0158734
673.290	0.0158041
673.368	0.0159404
673.446	0.0160522
673.524	0.0159899
673.602	0.0160062
673.681	0.0160028
673.759	0.0160537
673.837	0.0159660
673.915	0.0159473
673.993	0.0161552
674.071	0.0160415
674.149	0.0160870
674.227	0.0161571
674.306	0.0162572
674.384	0.0161227
674.462	0.0160926
674.540	0.0162280
674.618	0.0163058
674.696	0.0162715
674.774	0.0162462
674.852	0.0161564
674.931	0.0160867
675.009	0.0162433
675.087	0.0162171
675.165	0.0161909
675.243	0.0163021
675.321	0.0162909
675.399	0.0162672
675.477	0.0161601
675.556	0.0161006
675.634	0.0162330
675.712	0.0162062
675.790	0.0161435
675.868	0.0162132
675.946	0.0162218
676.024	0.0161047
676.102	0.0161099
676.181	0.0161799
676.259	0.0161010
676.337	0.0160865
676.415	0.0160410
676.493	0.0161456
676.571	0.0160625
676.649	0.0161261
676.727	0.0160307
676.806	0.0160408
676.884	0.0159898
676.962	0.0160931
677.040	0.0158678
677.118	0.0158280
677.196	0.0158788
677.274	0.0159297
677.352	0.0161000
677.431	0.0158438
677.509	0.0159437
677.587	0.0160870
677.665	0.0161440
677.743	0.0159460
677.821	0.0159439
677.899	0.0158641
677.977	0.0160060
678.056	0.0161052
678.134	0.0159523
678.212	0.0159386
678.290	0.0158671
678.368	0.0160901
678.446	0.0160567
678.524	0.0161243
678.602	0.0160874
678.681	0.0161127
678.759	0.0160670
678.837	0.0161232
678.915	0.0161480
678.993	0.0162270
679.071	0.0162937
679.149	0.0160638
679.227	0.0161240
679.306	0.0163116
679.384	0.0162219
679.462	0.0161800
679.540	0.0163169
679.618	0.0162357
679.696	0.0162517
679.774	0.0162925
679.852	0.0162048
679.931	0.0162042
680.009	0.0161633
680.087	0.0159911
680.165	0.0162070
680.243	0.0162990
680.321	0.0162797
680.399	0.0162337
680.477	0.0161879
680.556	0.0160108
680.634	0.0161011
680.712	0.0162163
680.790	0.0161188
680.868	0.0159290
680.946	0.0160995
681.024	0.0161613
681.102	0.0161488
681.181	0.0160725
681.259	0.0160091
681.337	0.0160053
681.415	0.0161745
681.493	0.0160529
681.571	0.0160366
681.649	0.0160372
681.727	0.0160452
681.806	0.0161089
681.884	0.0160349
681.962	0.0160278
682.040	0.0160026
682.118	0.0159467
682.196	0.0158724
682.274	0.0158360
682.352	0.0158656
682.431	0.0157890
682.509	0.0157732
682.587	0.0157037
682.665	0.0156029
682.743	0.0157129
682.821	0.0157387
682.899	0.0155692
682.977	0.0157423
683.056	0.0156747
683.134	0.0155242
683.212	0.0156181
683.290	0.0156360
683.368	0.0157320
683.446	0.0156676
683.524	0.0156443
683.602	0.0156964
683.681	0.0158753
683.759	0.0158498
683.837	0.0158534
683.915	0.0159116
683.993	0.0161112
684.071	0.0161801
684.149	0.0161065
684.227	0.0161696
684.306	0.0161471
684.384	0.0164043
684.462	0.0163346
684.540	0.0163545
684.618	0.0162795
684.696	0.0163917
684.774	0.0164182
684.852	0.0164910
684.931	0.0164893
685.009	0.0165032
685.087	0.0164035
685.165	0.0165022
685.243	0.0163855
685.321	0.0163395
685.399	0.0162952
685.477	0.0163171
685.556	0.0163196
685.634	0.0162320
685.712	0.0162402
685.790	0.0163570
685.868	0.0160384
685.946	0.0160579
686.024	0.0159743
686.102	0.0161123
686.181	0.0160300
686.259	0.0159777
686.337	0.0158885
686.415	0.0158798
686.493	0.0159610
686.571	0.0159989
686.649	0.0160194
686.727	0.0159416
686.806	0.0159120
686.884	0.0159476
686.962	0.0159318
687.040	0.0158882
687.118	0.0158317
687.196	0.0158279
687.274	0.0158295
687.352	0.0158794
687.431	0.0157531
687.509	0.0158535
687.587	0.0158502
687.665	0.0159862
687.743	0.0160667
687.821	0.0161259
687.899	0.0159590
687.977	0.0159766
688.056	0.0160181
688.134	0.0160815
688.212	0.0159250
688.290	0.0159266
688.368	0.0159245
688.446	0.0160233
688.524	0.0159628
688.602	0.0159099
688.681	0.0158690
688.759	0.0159426
688.837	0.0159901
688.915	0.0157989
688.993	0.0158805
689.071	0.0159223
689.149	0.0157801
689.227	0.0158352
689.306	0.0158842
689.384	0.0158499
689.462	0.0158405
689.540	0.0158574
689.618	0.0158635
689.696	0.0160427
689.774	0.0159319
689.852	0.0160587
689.931	0.0158792
690.009	0.0158511
690.087	0.0158798
690.165	0.0159998
690.243	0.0159740
690.321	0.0160191
690.399	0.0159373
690.477	0.0160134
690.556	0.0159174
690.634	0.0161526
690.712	0.0160329
690.790	0.0159826
690.868	0.0160238
690.946	0.0161388
691.024	0.0161334
691.102	0.0161733
691.181	0.0161143
691.259	0.0162071
691.337	0.0161993
691.415	0.0161896
691.493	0.0162399
691.571	0.0163168
691.649	0.0162061
691.727	0.0162672
691.806	0.0162254
691.884	0.0163107
691.962	0.0163936
692.040	0.0162025
692.118	0.0161834
692.196	0.0160631
692.274	0.0161876
692.352	0.0162529
692.431	0.0161742
692.509	0.0160929
692.587	0.0160480
692.665	0.0162032
692.743	0.0161345
692.821	0.0161070
692.899	0.0160518
692.977	0.0162639
693.056	0.0160960
693.134	0.0160521
693.212	0.0162640
693.290	0.0161428
693.368	0.0163029
693.446	0.0160721
693.524	0.0161003
693.602	0.0159919
693.681	0.0160773
693.759	0.0161031
693.837	0.0160994
693.915	0.0158899
693.993	0.0159843
694.071	0.0160888
694.149	0.0159074
694.227	0.0160130
694.306	0.0159561
694.384	0.0160024
694.462	0.0161136
694.540	0.0159708
694.618	0.0161256
694.696	0.0160969
694.774	0.0162182
694.852	0.0162502
694.931	0.0162009
695.009	0.0161765
695.087	0.0161736
695.165	0.0161960
695.243	0.0163138
695.321	0.0160809
695.399	0.0161397
695.477	0.0161594
695.556	0.0162720
695.634	0.0161602
695.712	0.0160720
695.790	0.0161907
695.868	0.0160575
695.946	0.0161543
696.024	0.0161975
696.102	0.0163509
696.181	0.0162120
696.259	0.0161971
696.337	0.0161884
696.415	0.0160278
696.493	0.0160771
696.571	0.0162204
696.649	0.0162529
696.727	0.0161453
696.806	0.0160800
696.884	0.0158775
696.962	0.0160969
697.040	0.0161337
697.118	0.0161402
697.196	0.0160500
697.274	0.0158735
697.352	0.0159368
697.431	0.0160206
697.509	0.0159276
697.587	0.0157506
697.665	0.0158155
697.743	0.0158978
697.821	0.0158947
697.899	0.0158253
697.977	0.0158718
698.056	0.0158484
698.134	0.0158462
698.212	0.0158320
698.290	0.0158442
698.368	0.0158624
698.446	0.0158400
698.524	0.0158053
698.602	0.0159148
698.681	0.0159258
698.759	0.0159231
698.837	0.0160730
698.915	0.0158455
698.993	0.0159997
699.071	0.0159596
699.149	0.0159336
699.227	0.0160128
699.306	0.0160824
699.384	0.0161254
699.462	0.0161169
699.540	0.0160748
699.618	0.0161105
699.696	0.0160311
699.774	0.0161530
699.852	0.0162773
699.931	0.0162203
700.009	0.0161591
700.087	0.0162068
700.165	0.0162204
700.243	0.0160542
700.321	0.0159866
700.399	0.0160492
700.477	0.0159968
700.556	0.0160329
700.634	0.0160439
700.712	0.0160399
700.790	0.0157924
700.868	0.0157398
700.946	0.0159114
701.024	0.0157918
701.102	0.0158115
701.181	0.0158461
701.259	0.0158685
701.337	0.0157218
701.415	0.0158668
701.493	0.0157690
701.571	0.0159561
701.649	0.0158184
701.727	0.0159068
701.806	0.0157981
701.884	0.0157664
701.962	0.0159431
702.040	0.0159003
702.118	0.0159818
702.196	0.0159307
702.274	0.0158681
702.352	0.0159962
702.431	0.0160423
702.509	0.0160705
702.587	0.0160323
702.665	0.0160493
702.743	0.0161646
702.821	0.0161367
702.899	0.0160748
702.977	0.0160770
703.056	0.0160699
703.134	0.0160677
703.212	0.0161507
703.290	0.0162216
703.368	0.0160002
703.446	0.0160816
703.524	0.0161340
703.602	0.0161883
703.681	0.0160663
703.759	0.0161112
703.837	0.0162453
703.915	0.0161526
703.993	0.0159844
704.071	0.0159480
704.149	0.0161129
704.227	0.0160709
704.306	0.0161168
704.384	0.0159394
704.462	0.0160837
704.540	0.0161677
704.618	0.0159547
704.696	0.0159756
704.774	0.0159338
704.852	0.0161067
704.931	0.0160511
705.009	0.0159229
705.087	0.0159671
705.165	0.0158860
705.243	0.0159992
705.321	0.0159983
705.399	0.0159719
705.477	0.0158572
705.556	0.0159097
705.634	0.0158460
705.712	0.0158977
705.790	0.0159563
705.868	0.0158401
705.946	0.0158835
706.024	0.0159273
706.102	0.0158923
706.181	0.0158810
706.259	0.0160406
706.337	0.0159805
706.415	0.0160352
706.493	0.0158949
706.571	0.0161401
706.649	0.0160262
706.727	0.0160274
706.806	0.0160004
706.884	0.0160555
706.962	0.0159454
707.040	0.0159467
707.118	0.0161059
707.196	0.0160144
707.274	0.0160316
707.352	0.0160809
707.431	0.0160616
707.509	0.0159883
707.587	0.0161235
707.665	0.0162412
707.743	0.0161462
707.821	0.0160341
707.899	0.0161026
707.977	0.0160163
708.056	0.0160136
708.134	0.0160515
708.212	0.0160587
708.290	0.0160360
708.368	0.0159416
708.446	0.0160245
708.524	0.0158937
708.602	0.0160683
708.681	0.0159275
708.759	0.0158990
708.837	0.0158653
708.915	0.0159480
708.993	0.0158723
709.071	0.0159218
709.149	0.0158937
709.227	0.0159135
709.306	0.0158985
709.384	0.0159677
709.462	0.0160159
709.540	0.0159034
709.618	0.0158426
709.696	0.0159496
709.774	0.0159834
709.852	0.0159274
709.931	0.0160008
710.009	0.0159217
710.087	0.0157961
710.165	0.0159447
710.243	0.0158775
710.321	0.0158380
710.399	0.0159057
710.477	0.0157668
710.556	0.0158329
710.634	0.0158540
710.712	0.0158626
710.790	0.0157085
710.868	0.0158799
710.946	0.0158259
711.024	0.0157670
711.102	0.0158776
711.181	0.0157729
711.259	0.0158044
711.337	0.0157213
711.415	0.0158358
711.493	0.0158606
711.571	0.0158052
711.649	0.0158107
711.727	0.0159232
711.806	0.0157973
711.884	0.0158820
711.962	0.0159440
712.040	0.0158941
712.118	0.0158459
712.196	0.0159583
712.274	0.0158934
712.352	0.0158560
712.431	0.0159354
712.509	0.0159093
712.587	0.0158565
712.665	0.0159445
712.743	0.0161193
712.821	0.0159492
712.899	0.0160085
712.977	0.0161720
713.056	0.0159787
713.134	0.0160175
713.212	0.0161019
713.290	0.0161309
713.368	0.0161481
713.446	0.0161596
713.524	0.0162105
713.602	0.0160830
713.681	0.0162011
713.759	0.0160030
713.837	0.0159808
713.915	0.0161322
713.993	0.0161517
714.071	0.0160117
714.149	0.0159974
714.227	0.0160414
714.306	0.0160323
714.384	0.0160666
714.462	0.0160133
714.540	0.0159089
714.618	0.0160199
714.696	0.0158980
714.774	0.0159963
714.852	0.0159306
714.931	0.0160513
715.009	0.0159595
715.087	0.0159491
715.165	0.0161042
715.243	0.0159918
715.321	0.0160224
715.399	0.0159604
715.477	0.0160469
715.556	0.0160539
715.634	0.0161559
715.712	0.0160531
715.790	0.0159374
715.868	0.0158477
715.946	0.0159107
716.024	0.0159968
716.102	0.0160128
716.181	0.0158782
716.259	0.0160028
716.337	0.0158962
716.415	0.0158478
716.493	0.0159190
716.571	0.0157609
716.649	0.0158241
716.727	0.0158143
716.806	0.0160715
716.884	0.0158441
716.962	0.0158039
717.040	0.0157777
717.118	0.0159280
717.196	0.0158540
717.274	0.0160159
717.352	0.0159720
717.431	0.0159377
717.509	0.0159692
717.587	0.0158739
717.665	0.0161181
717.743	0.0159608
717.821	0.0159481
717.899	0.0159304
717.977	0.0160828
718.056	0.0160037
718.134	0.0160426
718.212	0.0160591
718.290	0.0159922
718.368	0.0160202
718.446	0.0159682
718.524	0.0160798
718.602	0.0160676
718.681	0.0160425
718.759	0.0160005
718.837	0.0160360
718.915	0.0161423
718.993	0.0160011
719.071	0.0161704
719.149	0.0161020
719.227	0.0161127
719.306	0.0160872
719.384	0.0160988
719.462	0.0161012
719.540	0.0160050
719.618	0.0161034
719.696	0.0160735
719.774	0.0160900
719.852	0.0160253
719.931	0.0162698
720.009	0.0161429
720.087	0.0161740
720.165	0.0160791
720.243	0.0161345
720.321	0.0161679
720.399	0.0161085
720.477	0.0162920
720.556	0.0161730
720.634	0.0160188
720.712	0.0160484
720.790	0.0160136
720.868	0.0160236
720.946	0.0161121
721.024	0.0159985
721.102	0.0160197
721.181	0.0159813
721.259	0.0159199
721.337	0.0160584
721.415	0.0158945
721.493	0.0159240
721.571	0.0159499
721.649	0.0159141
721.727	0.0159434
721.806	0.0158111
721.884	0.0157675
721.962	0.0158547
722.040	0.0159306
722.118	0.0159529
722.196	0.0158985
722.274	0.0158955
722.352	0.0159411
722.431	0.0158381
722.509	0.0159062
722.587	0.0158498
722.665	0.0159467
722.743	0.0160265
722.821	0.0158855
722.899	0.0159108
722.977	0.0159036
723.056	0.0160462
723.134	0.0160303
723.212	0.0160832
723.290	0.0159899
723.368	0.0160374
723.446	0.0160863
723.524	0.0159749
723.602	0.0160535
723.681	0.0161368
723.759	0.0160423
723.837	0.0159419
723.915	0.0160756
723.993	0.0160816
724.071	0.0159908
724.149	0.0159470
724.227	0.0158628
724.306	0.0160071
724.384	0.0159866
724.462	0.0159981
724.540	0.0160766
724.618	0.0160024
724.696	0.0158508
724.774	0.0161293
724.852	0.0159502
724.931	0.0158317
725.009	0.0159269
725.087	0.0161308
725.165	0.0159875
725.243	0.0160815
725.321	0.0159975
725.399	0.0159262
725.477	0.0160161
725.556	0.0159985
725.634	0.0159806
725.712	0.0158492
725.790	0.0158573
725.868	0.0160104
725.946	0.0159097
726.024	0.0159332
726.102	0.0158634
726.181	0.0158720
726.259	0.0158881
726.337	0.0157766
726.415	0.0160032
726.493	0.0159325
726.571	0.0158849
726.649	0.0160099
726.727	0.0159729
726.806	0.0160562
726.884	0.0159924
726.962	0.0159615
727.040	0.0160017
727.118	0.0159901
727.196	0.0161668
727.274	0.0161787
727.352	0.0159412
727.431	0.0161435
727.509	0.0161769
727.587	0.0159644
727.665	0.0160954
727.743	0.0161562
727.821	0.0160382
727.899	0.0159477
727.977	0.0159500
728.056	0.0159973
728.134	0.0160196
728.212	0.0159851
728.290	0.0160114
728.368	0.0160465
728.446	0.0160710
728.524	0.0160190
728.602	0.0158948
728.681	0.0159199
728.759	0.0158669
728.837	0.0160262
728.915	0.0159841
728.993	0.0158598
729.071	0.0159634
729.149	0.0159289
729.227	0.0158948
729.306	0.0158692
729.384	0.0158275
729.462	0.0159724
729.540	0.0160201
729.618	0.0159323
729.696	0.0160410
729.774	0.0159581
729.852	0.0159297
729.931	0.0159116
730.009	0.0160276
730.087	0.0159921
730.165	0.0159334
730.243	0.0160279
730.321	0.0160435
730.399	0.0160358
730.477	0.0159691
730.556	0.0161548
730.634	0.0160113
730.712	0.0159539
730.790	0.0158897
730.868	0.0159682
730.946	0.0159556
731.024	0.0160245
731.102	0.0159975
731.181	0.0157858
731.259	0.0159416
731.337	0.0159673
731.415	0.0158683
731.493	0.0158290
731.571	0.0159324
731.649	0.0158015
731.727	0.0158544
731.806	0.0158228
731.884	0.0158630
731.962	0.0160096
732.040	0.0159376
732.118	0.0159407
732.196	0.0159992
732.274	0.0159704
732.352	0.0160229
732.431	0.0160531
732.509	0.0158984
732.587	0.0159434
732.665	0.0160317
732.743	0.0160288
732.821	0.0161050
732.899	0.0159797
732.977	0.0160743
733.056	0.0160516
733.134	0.0160069
733.212	0.0159645
733.290	0.0161002
733.368	0.0159634
733.446	0.0160918
733.524	0.0160780
733.602	0.0159158
733.681	0.0160465
733.759	0.0161311
733.837	0.0160009
733.915	0.0160436
733.993	0.0160395
734.071	0.0160725
734.149	0.0160461
734.227	0.0160164
734.306	0.0159521
734.384	0.0160850
734.462	0.0160217
734.540	0.0160526
734.618	0.0158577
734.696	0.0160226
734.774	0.0160777
734.852	0.0159357
734.931	0.0160003
735.009	0.0160129
735.087	0.0159509
735.165	0.0159309
735.243	0.0159096
735.321	0.0159991
735.399	0.0160027
735.477	0.0159633
735.556	0.0160123
735.634	0.0158699
735.712	0.0159542
735.790	0.0159391
735.868	0.0160619
735.946	0.0158750
736.024	0.0159697
736.102	0.0159087
736.181	0.0159460
736.259	0.0159579
736.337	0.0158482
736.415	0.0159234
736.493	0.0161564
736.571	0.0160539
736.649	0.0158505
736.727	0.0158714
736.806	0.0159902
736.884	0.0160355
736.962	0.0159492
737.040	0.0159602
737.118	0.0158635
737.196	0.0161092
737.274	0.0159442
737.352	0.0159380
737.431	0.0159361
737.509	0.0159048
737.587	0.0160522
737.665	0.0160710
737.743	0.0160636
737.821	0.0162107
737.899	0.0161517
737.977	0.0159419
738.056	0.0160780
738.134	0.0160963
738.212	0.0160090
738.290	0.0159616
738.368	0.0159356
738.446	0.0158327
738.524	0.0159126
738.602	0.0161478
738.681	0.0159601
738.759	0.0159135
738.837	0.0159693
738.915	0.0160609
738.993	0.0159583
739.071	0.0159721
739.149	0.0160084
739.227	0.0159218
739.306	0.0159486
739.384	0.0158981
739.462	0.0159422
739.540	0.0159894
739.618	0.0160443
739.696	0.0158749
739.774	0.0158245
739.852	0.0158617
739.931	0.0158909
740.009	0.0158613
740.087	0.0159355
740.165	0.0160518
740.243	0.0159043
740.321	0.0159075
740.399	0.0159136
740.477	0.0157888
740.556	0.0159678
740.634	0.0159715
740.712	0.0159869
740.790	0.0159937
740.868	0.0158773
740.946	0.0158398
741.024	0.0159252
741.102	0.0158018
741.181	0.0158637
741.259	0.0159324
741.337	0.0160233
741.415	0.0158527
741.493	0.0159007
741.571	0.0159632
741.649	0.0158606
741.727	0.0159609
741.806	0.0159184
741.884	0.0160142
741.962	0.0160205
742.040	0.0159438
742.118	0.0159549
742.196	0.0160376
742.274	0.0159177
742.352	0.0159774
742.431	0.0160661
742.509	0.0161330
742.587	0.0159060
742.665	0.0160752
742.743	0.0160477
742.821	0.0159116
742.899	0.0159761
742.977	0.0161110
743.056	0.0159063
743.134	0.0159254
743.212	0.0160991
743.290	0.0159874
743.368	0.0159166
743.446	0.0160180
743.524	0.0160538
743.602	0.0160937
743.681	0.0159847
743.759	0.0159818
743.837	0.0160638
743.915	0.0160723
743.993	0.0161423
744.071	0.0159636
744.149	0.0161678
744.227	0.0161032
744.306	0.0159779
744.384	0.0159908
744.462	0.0161007
744.540	0.0160245
744.618	0.0160653
744.696	0.0160635
744.774	0.0162110
744.852	0.0161314
744.931	0.0160973
745.009	0.0161961
745.087	0.0162765
745.165	0.0160593
745.243	0.0160808
745.321	0.0160172
745.399	0.0162337
745.477	0.0161498
745.556	0.0160848
745.634	0.0162154
745.712	0.0162456
745.790	0.0161797
745.868	0.0161255
745.946	0.0161155
746.024	0.0161465
746.102	0.0160891
746.181	0.0160815
746.259	0.0163192
746.337	0.0161574
746.415	0.0161369
746.493	0.0160772
746.571	0.0161439
746.649	0.0160390
746.727	0.0161128
746.806	0.0160839
746.884	0.0160632
746.962	0.0159407
747.040	0.0159558
747.118	0.0160210
747.196	0.0160857
747.274	0.0160333
747.352	0.0160479
747.431	0.0159937
747.509	0.0160034
747.587	0.0159383
747.665	0.0159348
747.743	0.0160577
747.821	0.0161055
747.899	0.0159178
747.977	0.0159975
748.056	0.0161861
748.134	0.0160261
748.212	0.0159476
748.290	0.0160638
748.368	0.0159653
748.446	0.0159641
748.524	0.0160107
748.602	0.0160423
748.681	0.0159451
748.759	0.0158128
748.837	0.0159019
748.915	0.0159303
748.993	0.0159932
749.071	0.0160326
749.149	0.0159835
749.227	0.0159286
749.306	0.0160683
749.384	0.0161868
749.462	0.0161230
749.540	0.0161419
749.618	0.0161588
749.696	0.0160216
749.774	0.0161333
749.852	0.0161806
749.931	0.0162640
750.009	0.0161394
750.087	0.0161655
750.165	0.0160793
750.243	0.0161980
750.321	0.0161904
750.399	0.0161590
750.477	0.0160503
750.556	0.0160256
750.634	0.0160508
750.712	0.0162354
750.790	0.0161773
750.868	0.0160897
750.946	0.0160849
751.024	0.0160086
751.102	0.0160689
751.181	0.0160190
751.259	0.0160744
751.337	0.0159646
751.415	0.0160345
751.493	0.0160226
751.571	0.0161124
751.649	0.0160206
751.727	0.0159730
751.806	0.0159841
751.884	0.0160007
751.962	0.0160919
752.040	0.0160889
752.118	0.0159135
752.196	0.0158624
752.274	0.0159367
752.352	0.0159245
752.431	0.0158517
752.509	0.0158160
752.587	0.0159689
752.665	0.0159770
752.743	0.0158225
752.821	0.0158367
752.899	0.0159559
752.977	0.0159300
753.056	0.0158443
753.134	0.0157413
753.212	0.0158100
753.290	0.0158720
753.368	0.0158541
753.446	0.0158544
753.524	0.0157549
753.602	0.0158401
753.681	0.0159769
753.759	0.0158990
753.837	0.0158878
753.915	0.0158839
753.993	0.0158666
754.071	0.0158934
754.149	0.0158131
754.227	0.0158579
754.306	0.0159707
754.384	0.0160272
754.462	0.0160938
754.540	0.0160001
754.618	0.0160097
754.696	0.0159879
754.774	0.0160220
754.852	0.0160504
754.931	0.0162078
755.009	0.0159021
755.087	0.0160042
755.165	0.0160432
755.243	0.0162073
755.321	0.0161797
755.399	0.0160925
755.477	0.0161035
755.556	0.0160909
755.634	0.0160502
755.712	0.0160397
755.790	0.0161057
755.868	0.0161858
755.946	0.0161113
756.024	0.0160291
756.102	0.0160646
756.181	0.0160338
756.259	0.0161222
756.337	0.0161466
756.415	0.0161198
756.493	0.0160851
756.571	0.0161122
756.649	0.0160910
756.727	0.0161246
756.806	0.0160416
756.884	0.0161316
756.962	0.0160851
757.040	0.0160542
757.118	0.0160359
757.196	0.0160601
757.274	0.0160468
757.352	0.0160911
757.431	0.0159756
757.509	0.0159017
757.587	0.0160342
757.665	0.0160240
757.743	0.0160885
757.821	0.0159782
757.899	0.0159598
757.977	0.0160074
758.056	0.0160420
758.134	0.0161700
758.212	0.0161181
758.290	0.0162669
758.368	0.0160590
758.446	0.0161210
758.524	0.0159368
758.602	0.0161047
758.681	0.0159862
758.759	0.0160426
758.837	0.0161156
758.915	0.0160421
758.993	0.0160746
759.071	0.0161625
759.149	0.0161298
759.227	0.0160718
759.306	0.0161356
759.384	0.0160937
759.462	0.0159502
759.540	0.0159840
759.618	0.0162357
759.696	0.0159838
759.774	0.0160547
759.852	0.0161366
759.931	0.0160123
760.009	0.0159241
760.087	0.0159768
760.165	0.0160606
760.243	0.0161953
760.321	0.0161510
760.399	0.0159886
760.477	0.0161137
760.556	0.0161615
760.634	0.0160358
760.712	0.0161343
760.790	0.0160236
760.868	0.0160575
760.946	0.0160789
761.024	0.0161911
761.102	0.0161009
761.181	0.0160429
761.259	0.0159214
761.337	0.0159445
761.415	0.0160271
761.493	0.0159572
761.571	0.0160078
761.649	0.0159559
761.727	0.0159941
761.806	0.0159665
761.884	0.0160519
761.962	0.0158752
762.040	0.0159657
762.118	0.0159544
762.196	0.0160313
762.274	0.0159332
762.352	0.0159716
762.431	0.0158974
762.509	0.0158717
762.587	0.0159601
762.665	0.0159578
762.743	0.0159521
762.821	0.0159309
762.899	0.0159180
762.977	0.0158006
763.056	0.0160195
763.134	0.0157464
763.212	0.0158669
763.290	0.0159506
763.368	0.0159875
763.446	0.0159329
763.524	0.0159464
763.602	0.0158830
763.681	0.0159929
763.759	0.0159463
763.837	0.0159856
763.915	0.0159608
763.993	0.0160064
764.071	0.0160503
764.149	0.0159253
764.227	0.0158268
764.306	0.0158949
764.384	0.0160175
764.462	0.0158270
764.540	0.0158803
764.618	0.0159045
764.696	0.0158124
764.774	0.0158041
764.852	0.0159860
764.931	0.0160283
765.009	0.0158704
765.087	0.0159023
765.165	0.0159285
765.243	0.0159473
765.321	0.0159579
765.399	0.0159795
765.477	0.0160054
765.556	0.0158747
765.634	0.0159390
765.712	0.0160264
765.790	0.0159904
765.868	0.0159251
765.946	0.0161116
766.024	0.0161010
766.102	0.0160841
766.181	0.0160834
766.259	0.0161600
766.337	0.0161765
766.415	0.0161127
766.493	0.0160778
766.571	0.0161674
766.649	0.0162090
766.727	0.0162303
766.806	0.0161209
766.884	0.0161701
766.962	0.0160903
767.040	0.0161170
767.118	0.0162198
767.196	0.0161863
767.274	0.0161323
767.352	0.0161671
767.431	0.0162077
767.509	0.0161279
767.587	0.0160849
767.665	0.0162846
767.743	0.0163168
767.821	0.0162667
767.899	0.0161612
767.977	0.0160879
768.056	0.0161586
768.134	0.0160729
768.212	0.0162484
768.290	0.0161995
768.368	0.0161295
768.446	0.0161801
768.524	0.0163216
768.602	0.0161552
768.681	0.0162762
768.759	0.0161318
768.837	0.0160224
768.915	0.0161694
768.993	0.0161246
769.071	0.0159490
769.149	0.0161192
769.227	0.0160434
769.306	0.0161208
769.384	0.0161160
769.462	0.0161074
769.540	0.0160062
769.618	0.0162002
769.696	0.0159454
769.774	0.0159303
769.852	0.0159615
769.931	0.0159525
770.009	0.0159171
770.087	0.0158765
770.165	0.0160185
770.243	0.0160083
770.321	0.0160408
770.399	0.0158251
770.477	0.0159100
770.556	0.0158485
770.634	0.0158138
770.712	0.0159014
770.790	0.0158997
770.868	0.0159161
770.946	0.0158930
771.024	0.0157239
771.102	0.0158794
771.181	0.0157506
771.259	0.0159120
771.337	0.0157926
771.415	0.0158138
771.493	0.0158623
771.571	0.0157003
771.649	0.0157028
771.727	0.0158630
771.806	0.0158479
771.884	0.0158623
771.962	0.0160040
772.040	0.0158737
772.118	0.0158602
772.196	0.0159853
772.274	0.0159018
772.352	0.0158118
772.431	0.0159461
772.509	0.0159471
772.587	0.0160126
772.665	0.0161628
772.743	0.0160671
772.821	0.0161478
772.899	0.0162036
772.977	0.0160593
773.056	0.0161457
773.134	0.0162408
773.212	0.0162379
773.290	0.0162287
773.368	0.0161340
773.446	0.0161906
773.524	0.0161631
773.602	0.0161861
773.681	0.0162271
773.759	0.0160698
773.837	0.0161537
773.915	0.0162171
773.993	0.0161471
774.071	0.0161156
774.149	0.0161972
774.227	0.0161945
774.306	0.0162459
774.384	0.0161766
774.462	0.0161424
774.540	0.0161096
774.618	0.0160642
774.696	0.0160844
774.774	0.0161388
774.852	0.0161385
774.931	0.0161182
775.009	0.0161578
775.087	0.0159492
775.165	0.0160422
775.243	0.0159318
775.321	0.0162402
775.399	0.0162051
775.477	0.0161515
775.556	0.0160783
775.634	0.0160264
775.712	0.0160291
775.790	0.0159766
775.868	0.0160075
775.946	0.0159959
776.024	0.0160744
776.102	0.0160052
776.181	0.0160300
776.259	0.0161478
776.337	0.0160421
776.415	0.0161324
776.493	0.0160239
776.571	0.0160932
776.649	0.0160262
776.727	0.0159663
776.806	0.0161394
776.884	0.0160727
776.962	0.0159514
777.040	0.0160472
777.118	0.0160651
777.196	0.0160692
777.274	0.0160356
777.352	0.0159921
777.431	0.0159265
777.509	0.0157748
777.587	0.0160336
777.665	0.0161540
777.743	0.0159147
777.821	0.0160671
777.899	0.0159923
777.977	0.0160596
778.056	0.0160437
778.134	0.0159764
778.212	0.0160637
778.290	0.0161162
778.368	0.0160109
778.446	0.0160576
778.524	0.0160086
778.602	0.0160038
778.681	0.0160064
778.759	0.0159695
778.837	0.0161159
778.915	0.0160390
778.993	0.0160088
779.071	0.0159614
779.149	0.0160970
779.227	0.0159833
779.306	0.0160020
779.384	0.0159536
779.462	0.0159748
779.540	0.0159843
779.618	0.0160938
779.696	0.0160784
779.774	0.0160254
779.852	0.0160336
779.931	0.0159448
780.009	0.0160915
780.087	0.0159770
780.165	0.0160869
780.243	0.0160928
780.321	0.0159825
780.399	0.0160991
780.477	0.0161908
780.556	0.0161050
780.634	0.0161075
780.712	0.0161408
780.790	0.0160507
780.868	0.0159353
780.946	0.0160142
781.024	0.0159811
781.102	0.0161060
781.181	0.0162037
781.259	0.0159325
781.337	0.0160275
781.415	0.0159915
781.493	0.0159760
781.571	0.0160194
781.649	0.0161687
781.727	0.0159657
781.806	0.0160410
781.884	0.0160035
781.962	0.0160025
782.040	0.0158634
782.118	0.0160593
782.196	0.0160171
782.274	0.0159597
782.352	0.0160258
782.431	0.0159816
782.509	0.0157479
782.587	0.0159295
782.665	0.0158878
782.743	0.0159051
782.821	0.0159517
782.899	0.0158551
782.977	0.0158704
783.056	0.0157632
783.134	0.0158280
783.212	0.0159672
783.290	0.0158426
783.368	0.0158839
783.446	0.0159354
783.524	0.0158090
783.602	0.0159763
783.681	0.0159937
783.759	0.0158556
783.837	0.0159213
783.915	0.0158766
783.993	0.0159692
784.071	0.0160519
784.149	0.0159707
784.227	0.0160786
784.306	0.0161069
784.384	0.0159862
784.462	0.0160385
784.540	0.0160529
784.618	0.0158971
784.696	0.0159808
784.774	0.0159200
784.852	0.0158526
784.931	0.0160547
785.009	0.0160661
785.087	0.0159747
785.165	0.0158256
785.243	0.0159824
785.321	0.0159791
785.399	0.0159970
785.477	0.0159847
785.556	0.0159728
785.634	0.0160168
785.712	0.0159443
785.790	0.0159636
785.868	0.0157799
785.946	0.0160154
786.024	0.0159353
786.102	0.0158829
786.181	0.0159587
786.259	0.0159340
786.337	0.0158199
786.415	0.0158836
786.493	0.0158707
786.571	0.0158137
786.649	0.0158543
786.727	0.0158511
786.806	0.0158808
786.884	0.0158799
786.962	0.0157174
787.040	0.0158635
787.118	0.0158508
787.196	0.0158588
787.274	0.0158081
787.352	0.0156898
787.431	0.0157030
787.509	0.0159088
787.587	0.0158432
787.665	0.0159996
787.743	0.0158852
787.821	0.0159470
787.899	0.0159266
787.977	0.0159849
788.056	0.0158015
788.134	0.0158145
788.212	0.0157925
788.290	0.0159045
788.368	0.0160446
788.446	0.0159418
788.524	0.0158090
788.602	0.0159293
788.681	0.0160484
788.759	0.0160550
788.837	0.0160231
788.915	0.0161146
788.993	0.0161107
789.071	0.0160851
789.149	0.0161347
789.227	0.0162206
789.306	0.0162007
789.384	0.0160561
789.462	0.0159826
789.540	0.0160573
789.618	0.0160732
789.696	0.0161366
789.774	0.0160561
789.852	0.0160500
789.931	0.0160332
790.009	0.0161897
790.087	0.0161612
790.165	0.0161536
790.243	0.0159817
790.321	0.0160765
790.399	0.0160959
790.477	0.0160870
790.556	0.0161746
790.634	0.0160086
790.712	0.0160865
790.790	0.0160581
790.868	0.0160315
790.946	0.0161690
791.024	0.0161017
791.102	0.0161348
791.181	0.0159933
791.259	0.0161952
791.337	0.0160455
791.415	0.0160519
791.493	0.0159598
791.571	0.0161098
791.649	0.0159632
791.727	0.0159916
791.806	0.0160872
791.884	0.0159486
791.962	0.0158715
792.040	0.0158981
792.118	0.0159546
792.196	0.0159770
792.274	0.0159945
792.352	0.0159893
792.431	0.0160588
792.509	0.0159438
792.587	0.0158427
792.665	0.0159582
792.743	0.0158162
792.821	0.0159976
792.899	0.0158608
792.977	0.0159215
793.056	0.0159589
793.134	0.0159931
793.212	0.0159355
793.290	0.0158817
793.368	0.0160667
793.446	0.0159769
793.524	0.0158379
793.602	0.0158008
793.681	0.0159200
793.759	0.0161010
793.837	0.0160384
793.915	0.0159500
793.993	0.0159798
794.071	0.0159370
794.149	0.0160663
794.227	0.0160295
794.306	0.0158854
794.384	0.0159395
794.462	0.0158322
794.540	0.0159843
794.618	0.0161446
794.696	0.0161384
794.774	0.0159309
794.852	0.0159913
794.931	0.0160541
795.009	0.0159541
795.087	0.0159953
795.165	0.0160988
795.243	0.0159965
795.321	0.0160307
795.399	0.0160678
795.477	0.0160735
795.556	0.0159609
795.634	0.0158674
795.712	0.0160962
795.790	0.0161590
795.868	0.0159124
795.946	0.0159528
796.024	0.0159731
796.102	0.0159702
796.181	0.0158641
796.259	0.0159579
796.337	0.0160332
796.415	0.0159383
796.493	0.0160575
796.571	0.0160295
796.649	0.0159519
796.727	0.0160032
796.806	0.0159523
796.884	0.0160437
796.962	0.0160574
797.040	0.0160343
797.118	0.0159229
797.196	0.0158982
797.274	0.0161007
797.352	0.0160970
797.431	0.0160347
797.509	0.0159158
797.587	0.0158540
797.665	0.0160802
797.743	0.0160735
797.821	0.0160103
797.899	0.0160321
797.977	0.0160991
798.056	0.0161909
798.134	0.0162276
798.212	0.0159805
798.290	0.0161509
798.368	0.0160585
798.446	0.0159401
798.524	0.0160968
798.602	0.0161372
798.681	0.0161528
798.759	0.0161537
798.837	0.0162217
798.915	0.0160772
798.993	0.0160572
799.071	0.0160069
799.149	0.0161472
799.227	0.0159398
799.306	0.0161387
799.384	0.0162041
799.462	0.0161732
799.540	0.0159561
799.618	0.0160268
799.696	0.0160212
799.774	0.0160478
799.852	0.0158897
799.931	0.0160282
800.009	0.0158781
800.087	0.0159758
800.165	0.0158359
800.243	0.0159323
800.321	0.0159487
800.399	0.0160615
800.477	0.0158288
800.556	0.0158552
800.634	0.0158633
800.712	0.0158286
800.790	0.0160059
800.868	0.0158605
800.946	0.0158262
801.024	0.0158131
801.102	0.0157986
801.181	0.0158274
801.259	0.0158492
801.337	0.0158606
801.415	0.0159164
801.493	0.0159729
801.571	0.0159042
801.649	0.0158112
801.727	0.0158693
801.806	0.0158932
801.884	0.0159135
801.962	0.0160078
802.040	0.0160490
802.118	0.0158108
802.196	0.0158331
802.274	0.0159428
802.352	0.0159766
802.431	0.0159994
802.509	0.0159809
802.587	0.0159196
802.665	0.0160115
802.743	0.0160986
802.821	0.0160561
802.899	0.0160081
802.977	0.0158895
803.056	0.0158617
803.134	0.0159680
803.212	0.0160063
803.290	0.0161105
803.368	0.0161175
803.446	0.0159605
803.524	0.0160663
803.602	0.0160372
803.681	0.0160127
803.759	0.0159828
803.837	0.0160726
803.915	0.0162030
803.993	0.0161714
804.071	0.0161658
804.149	0.0162177
804.227	0.0161129
804.306	0.0160942
804.384	0.0160985
804.462	0.0160629
804.540	0.0161845
804.618	0.0161393
804.696	0.0160275
804.774	0.0161237
804.852	0.0159962
804.931	0.0159517
805.009	0.0160637
805.087	0.0161541
805.165	0.0159783
805.243	0.0160339
805.321	0.0161221
805.399	0.0161164
805.477	0.0160268
805.556	0.0159798
805.634	0.0160007
805.712	0.0161168
805.790	0.0159697
805.868	0.0160022
805.946	0.0159476
806.024	0.0159434
806.102	0.0158716
806.181	0.0158904
806.259	0.0159927
806.337	0.0159202
806.415	0.0158934
806.493	0.0158880
806.571	0.0159480
806.649	0.0160378
806.727	0.0157529
806.806	0.0159177
806.884	0.0160001
806.962	0.0159336
807.040	0.0158848
807.118	0.0158994
807.196	0.0159821
807.274	0.0160323
807.352	0.0158663
807.431	0.0159191
807.509	0.0157623
807.587	0.0159082
807.665	0.0158862
807.743	0.0157987
807.821	0.0158421
807.899	0.0158712
807.977	0.0158250
808.056	0.0159188
808.134	0.0159472
808.212	0.0158479
808.290	0.0159439
808.368	0.0160499
808.446	0.0159378
808.524	0.0160141
808.602	0.0157891
808.681	0.0158340
808.759	0.0158689
808.837	0.0158810
808.915	0.0159560
808.993	0.0159332
809.071	0.0158978
809.149	0.0159576
809.227	0.0159447
809.306	0.0158900
809.384	0.0158255
809.462	0.0160210
809.540	0.0158116
809.618	0.0159824
809.696	0.0158586
809.774	0.0160603
809.852	0.0161067
809.931	0.0159022
810.009	0.0158450
810.087	0.0159761
810.165	0.0159890
810.243	0.0161050
810.321	0.0160101
810.399	0.0159093
810.477	0.0158533
810.556	0.0158207
810.634	0.0160970
810.712	0.0159406
810.790	0.0160598
810.868	0.0161058
810.946	0.0160223
811.024	0.0159833
811.102	0.0158354
811.181	0.0159621
811.259	0.0160378
811.337	0.0161704
811.415	0.0160027
811.493	0.0161195
811.571	0.0159383
811.649	0.0161161
811.727	0.0161432
811.806	0.0158788
811.884	0.0159772
811.962	0.0159725
812.040	0.0160271
812.118	0.0160384
812.196	0.0159847
812.274	0.0160934
812.352	0.0159644
812.431	0.0160024
812.509	0.0160076
812.587	0.0161271
812.665	0.0161016
812.743	0.0160720
812.821	0.0160912
812.899	0.0160931
812.977	0.0159496
813.056	0.0160489
813.134	0.0160950
813.212	0.0159978
813.290	0.0160865
813.368	0.0160874
813.446	0.0159734
813.524	0.0160632
813.602	0.0160551
813.681	0.0158624
813.759	0.0160024
813.837	0.0160249
813.915	0.0160349
813.993	0.0159365
814.071	0.0159200
814.149	0.0159054
814.227	0.0160210
814.306	0.0160493
814.384	0.0159943
814.462	0.0159658
814.540	0.0160307
814.618	0.0160726
814.696	0.0160651
814.774	0.0160107
814.852	0.0159458
814.931	0.0159966
815.009	0.0162096
815.087	0.0160113
815.165	0.0159736
815.243	0.0159339
815.321	0.0159651
815.399	0.0159792
815.477	0.0160276
815.556	0.0159804
815.634	0.0161484
815.712	0.0161326
815.790	0.0159628
815.868	0.0159779
815.946	0.0159811
816.024	0.0159451
816.102	0.0159794
816.181	0.0159495
816.259	0.0159730
816.337	0.0161452
816.415	0.0161074
816.493	0.0160645
816.571	0.0159918
816.649	0.0160350
816.727	0.0161533
816.806	0.0160144
816.884	0.0160718
816.962	0.0160715
817.040	0.0160732
817.118	0.0160931
817.196	0.0160450
817.274	0.0160814
817.352	0.0160897
817.431	0.0160181
817.509	0.0161542
817.587	0.0161487
817.665	0.0160812
817.743	0.0159665
817.821	0.0160498
817.899	0.0159713
817.977	0.0159117
818.056	0.0158751
818.134	0.0159100
818.212	0.0159014
818.290	0.0160444
818.368	0.0159554
818.446	0.0159442
818.524	0.0159120
818.602	0.0159425
818.681	0.0160137
818.759	0.0159639
818.837	0.0158639
818.915	0.0158755
818.993	0.0160045
819.071	0.0159143
819.149	0.0159653
819.227	0.0159503
819.306	0.0159238
819.384	0.0159319
819.462	0.0160004
819.540	0.0161179
819.618	0.0158398
819.696	0.0159910
819.774	0.0158641
819.852	0.0159821
819.931	0.0159746
820.009	0.0159123
820.087	0.0159509
820.165	0.0160046
820.243	0.0160592
820.321	0.0160641
820.399	0.0160011
820.477	0.0161179
820.556	0.0161510
820.634	0.0160631
820.712	0.0161366
820.790	0.0162492
820.868	0.0162112
820.946	0.0161922
821.024	0.0160651
821.102	0.0160929
821.181	0.0161825
821.259	0.0163680
821.337	0.0162724
821.415	0.0162814
821.493	0.0162310
821.571	0.0162858
821.649	0.0162177
821.727	0.0162833
821.806	0.0162263
821.884	0.0161445
821.962	0.0162757
822.040	0.0161148
822.118	0.0161964
822.196	0.0163036
822.274	0.0161959
822.352	0.0161126
822.431	0.0161256
822.509	0.0162311
822.587	0.0161050
822.665	0.0160741
822.743	0.0161716
822.821	0.0161723
822.899	0.0161045
822.977	0.0162071
823.056	0.0161440
823.134	0.0161576
823.212	0.0161340
823.290	0.0161240
823.368	0.0161892
823.446	0.0161786
823.524	0.0159922
823.602	0.0159803
823.681	0.0160697
823.759	0.0160577
823.837	0.0161996
823.915	0.0159647
823.993	0.0160098
824.071	0.0159991
824.149	0.0159302
824.227	0.0159326
824.306	0.0159565
824.384	0.0159692
824.462	0.0158699
824.540	0.0160912
824.618	0.0159854
824.696	0.0160576
824.774	0.0159754
824.852	0.0160654
824.931	0.0158796
825.009	0.0159783
825.087	0.0159309
825.165	0.0159444
825.243	0.0160062
825.321	0.0160624
825.399	0.0157991
825.477	0.0158441
825.556	0.0159875
825.634	0.0160354
825.712	0.0158379
825.790	0.0159513
825.868	0.0159843
825.946	0.0158705
826.024	0.0159099
826.102	0.0159832
826.181	0.0159094
826.259	0.0159380
826.337	0.0158450
826.415	0.0160088
826.493	0.0159304
826.571	0.0159844
826.649	0.0158764
826.727	0.0159743
826.806	0.0160188
826.884	0.0160093
826.962	0.0159669
827.040	0.0160267
827.118	0.0160022
827.196	0.0160498
827.274	0.0160519
827.352	0.0160666
827.431	0.0160878
827.509	0.0160399
827.587	0.0161021
827.665	0.0160154
827.743	0.0160037
827.821	0.0158982
827.899	0.0159612
827.977	0.0159993
828.056	0.0159634
828.134	0.0159992
828.212	0.0159912
828.290	0.0159401
828.368	0.0159297
828.446	0.0158724
828.524	0.0160875
828.602	0.0160713
828.681	0.0159260
828.759	0.0159940
828.837	0.0159622
828.915	0.0159930
828.993	0.0160118
829.071	0.0159583
829.149	0.0158747
829.227	0.0160578
829.306	0.0159708
829.384	0.0159894
829.462	0.0159325
829.540	0.0159399
829.618	0.0161674
829.696	0.0159921
829.774	0.0159893
829.852	0.0160016
829.931	0.0159290
830.009	0.0159628
830.087	0.0159137
830.165	0.0159736
830.243	0.0158987
830.321	0.0159660
830.399	0.0160123
830.477	0.0159538
830.556	0.0160171
830.634	0.0160329
830.712	0.0158808
830.790	0.0159694
830.868	0.0160575
830.946	0.0158489
831.024	0.0159419
831.102	0.0160050
831.181	0.0159322
831.259	0.0159715
831.337	0.0159850
831.415	0.0159050
831.493	0.0160208
831.571	0.0159656
831.649	0.0160017
831.727	0.0160006
831.806	0.0159399
831.884	0.0158935
831.962	0.0160411
832.040	0.0160960
832.118	0.0160619
832.196	0.0160255
832.274	0.0160951
832.352	0.0160981
832.431	0.0160551
832.509	0.0161583
832.587	0.0161044
832.665	0.0161656
832.743	0.0160151
832.821	0.0159472
832.899	0.0160406
832.977	0.0160678
833.056	0.0161182
833.134	0.0158574
833.212	0.0158788
833.290	0.0160180
833.368	0.0161636
833.446	0.0161032
833.524	0.0159579
833.602	0.0159000
833.681	0.0158812
833.759	0.0159824
833.837	0.0160180
833.915	0.0158981
833.993	0.0160108
834.071	0.0159333
834.149	0.0160464
834.227	0.0160223
834.306	0.0159348
834.384	0.0160183
834.462	0.0160956
834.540	0.0159500
834.618	0.0160611
834.696	0.0159178
834.774	0.0159613
834.852	0.0159860
834.931	0.0159481
835.009	0.0159344
835.087	0.0160099
835.165	0.0160654
835.243	0.0160168
835.321	0.0160853
835.399	0.0160090
835.477	0.0159621
835.556	0.0158942
835.634	0.0160024
835.712	0.0160162
835.790	0.0159718
835.868	0.0159892
835.946	0.0159164
836.024	0.0159095
836.102	0.0160239
836.181	0.0160053
836.259	0.0159660
836.337	0.0159795
836.415	0.0159351
836.493	0.0158538
836.571	0.0160288
836.649	0.0159221
836.727	0.0158787
836.806	0.0159760
836.884	0.0159190
836.962	0.0159698
837.040	0.0160103
837.118	0.0160136
837.196	0.0160006
837.274	0.0159739
837.352	0.0158369
837.431	0.0159236
837.509	0.0159670
837.587	0.0159925
837.665	0.0159803
837.743	0.0159588
837.821	0.0158974
837.899	0.0160605
837.977	0.0161420
838.056	0.0160334
838.134	0.0160468
838.212	0.0159508
838.290	0.0160219
838.368	0.0160729
838.446	0.0161020
838.524	0.0161502
838.602	0.0160968
838.681	0.0160641
838.759	0.0160271
838.837	0.0159976
838.915	0.0160389
838.993	0.0161063
839.071	0.0159346
839.149	0.0160431
839.227	0.0160240
839.306	0.0160712
839.384	0.0160862
839.462	0.0160947
839.540	0.0161101
839.618	0.0161599
839.696	0.0161308
839.774	0.0159442
839.852	0.0161222
839.931	0.0159712
840.009	0.0160928
840.087	0.0160590
840.165	0.0161621
840.243	0.0159811
840.321	0.0159095
840.399	0.0159251
840.477	0.0159290
840.556	0.0159207
840.634	0.0160004
840.712	0.0160679
840.790	0.0158665
840.868	0.0158604
840.946	0.0159138
841.024	0.0159456
841.102	0.0159538
841.181	0.0160471
841.259	0.0159476
841.337	0.0158918
841.415	0.0159496
841.493	0.0158758
841.571	0.0159248
841.649	0.0160387
841.727	0.0160177
841.806	0.0159897
841.884	0.0159919
841.962	0.0159312
842.040	0.0159863
842.118	0.0159492
842.196	0.0160162
842.274	0.0160471
842.352	0.0159853
842.431	0.0159731
842.509	0.0160618
842.587	0.0160200
842.665	0.0161465
842.743	0.0160195
842.821	0.0159304
842.899	0.0160367
842.977	0.0161566
843.056	0.0159884
843.134	0.0159566
843.212	0.0159461
843.290	0.0159142
843.368	0.0160528
843.446	0.0162045
843.524	0.0160712
843.602	0.0160677
843.681	0.0160653
843.759	0.0161353
843.837	0.0159953
843.915	0.0160299
843.993	0.0161391
844.071	0.0161615
844.149	0.0161501
844.227	0.0160397
844.306	0.0160707
844.384	0.0159830
844.462	0.0162208
844.540	0.0161591
844.618	0.0160195
844.696	0.0160725
844.774	0.0160277
844.852	0.0161032
844.931	0.0161195
845.009	0.0161936
845.087	0.0161131
845.165	0.0160824
845.243	0.0159292
845.321	0.0159708
845.399	0.0161630
845.477	0.0160976
845.556	0.0159951
845.634	0.0161159
845.712	0.0159393
845.790	0.0160831
845.868	0.0160680
845.946	0.0161646
846.024	0.0159610
846.102	0.0161227
846.181	0.0160484
846.259	0.0162308
846.337	0.0159402
846.415	0.0160063
846.493	0.0160445
846.571	0.0160728
846.649	0.0159744
846.727	0.0159583
846.806	0.0159628
846.884	0.0160751
846.962	0.0160898
847.040	0.0159760
847.118	0.0158758
847.196	0.0159901
847.274	0.0160178
847.352	0.0160242
847.431	0.0160442
847.509	0.0161341
847.587	0.0159569
847.665	0.0160316
847.743	0.0161439
847.821	0.0160057
847.899	0.0158953
847.977	0.0161831
848.056	0.0161718
848.134	0.0160288
848.212	0.0159364
848.290	0.0159118
848.368	0.0160532
848.446	0.0160192
848.524	0.0160748
848.602	0.0159332
848.681	0.0159235
848.759	0.0161019
848.837	0.0160650
848.915	0.0158749
848.993	0.0159950
849.071	0.0159432
849.149	0.0159750
849.227	0.0159533
849.306	0.0160029
849.384	0.0160496
849.462	0.0158727
849.540	0.0159509
849.618	0.0159457
849.696	0.0160107
849.774	0.0160407
849.852	0.0159882
849.931	0.0159839
850.009	0.0158993
850.087	0.0158881
850.165	0.0159358
850.243	0.0159636
850.321	0.0159554
850.399	0.0159257
850.477	0.0159952
850.556	0.0159673
850.634	0.0159482
850.712	0.0159705
850.790	0.0159016
850.868	0.0159564
850.946	0.0158872
851.024	0.0159396
851.102	0.0159877
851.181	0.0157330
851.259	0.0159492
851.337	0.0159370
851.415	0.0159835
851.493	0.0158949
851.571	0.0158205
851.649	0.0160423
851.727	0.0158351
851.806	0.0160094
851.884	0.0161127
851.962	0.0160072
852.040	0.0160777
852.118	0.0160574
852.196	0.0159581
852.274	0.0161985
852.352	0.0161702
852.431	0.0160960
852.509	0.0160339
852.587	0.0160802
852.665	0.0161343
852.743	0.0161969
852.821	0.0160474
852.899	0.0161217
852.977	0.0160658
853.056	0.0161845
853.134	0.0160846
853.212	0.0160168
853.290	0.0160300
853.368	0.0161527
853.446	0.0161316
853.524	0.0161352
853.602	0.0160691
853.681	0.0161244
853.759	0.0161940
853.837	0.0161632
853.915	0.0160809
853.993	0.0160251
854.071	0.0163111
854.149	0.0161123
854.227	0.0160927
854.306	0.0162556
854.384	0.0160394
854.462	0.0161757
854.540	0.0161064
854.618	0.0161597
854.696	0.0161349
854.774	0.0160714
854.852	0.0160217
854.931	0.0160735
855.009	0.0160263
855.087	0.0160017
855.165	0.0159253
855.243	0.0161143
855.321	0.0161780
855.399	0.0159924
855.477	0.0158569
855.556	0.0160040
855.634	0.0159177
855.712	0.0160135
855.790	0.0159781
855.868	0.0160423
855.946	0.0161004
856.024	0.0158673
856.102	0.0159778
856.181	0.0160313
856.259	0.0159742
856.337	0.0159684
856.415	0.0160602
856.493	0.0160199
856.571	0.0159880
856.649	0.0161312
856.727	0.0159290
856.806	0.0159959
856.884	0.0160274
856.962	0.0160761
857.040	0.0160274
857.118	0.0161248
857.196	0.0160479
857.274	0.0159364
857.352	0.0160127
857.431	0.0159921
857.509	0.0159602
857.587	0.0159205
857.665	0.0160865
857.743	0.0160855
857.821	0.0160363
857.899	0.0160541
857.977	0.0159707
858.056	0.0160371
858.134	0.0158670
858.212	0.0160706
858.290	0.0159926
858.368	0.0160539
858.446	0.0160406
858.524	0.0160561
858.602	0.0159889
858.681	0.0159615
858.759	0.0159949
858.837	0.0159344
858.915	0.0161040
858.993	0.0160742
859.071	0.0159795
859.149	0.0159344
859.227	0.0158089
859.306	0.0160598
859.384	0.0160167
859.462	0.0159859
859.540	0.0159709
859.618	0.0160484
859.696	0.0160867
859.774	0.0160020
859.852	0.0159697
859.931	0.0161295
860.009	0.0161259
860.087	0.0159972
860.165	0.0160839
860.243	0.0160803
860.321	0.0160869
860.399	0.0160321
860.477	0.0160105
860.556	0.0159909
860.634	0.0159389
860.712	0.0159235
860.790	0.0158321
860.868	0.0160166
860.946	0.0162499
861.024	0.0158535
861.102	0.0159578
861.181	0.0158986
861.259	0.0159769
861.337	0.0159698
861.415	0.0161483
861.493	0.0161337
861.571	0.0160865
861.649	0.0161460
861.727	0.0161785
861.806	0.0161043
861.884	0.0160560
861.962	0.0160186
862.040	0.0160273
862.118	0.0159531
862.196	0.0160484
862.274	0.0161519
862.352	0.0159141
862.431	0.0161260
862.509	0.0160168
862.587	0.0159481
862.665	0.0159545
862.743	0.0160956
862.821	0.0159583
862.899	0.0158140
862.977	0.0159332
863.056	0.0158546
863.134	0.0159663
863.212	0.0160000
863.290	0.0160802
863.368	0.0158907
863.446	0.0160744
863.524	0.0160740
863.602	0.0160413
863.681	0.0159449
863.759	0.0159837
863.837	0.0161102
863.915	0.0159515
863.993	0.0159657
864.071	0.0158876
864.149	0.0160294
864.227	0.0160833
864.306	0.0161275
864.384	0.0159090
864.462	0.0161559
864.540	0.0160766
864.618	0.0160775
864.696	0.0160564
864.774	0.0160300
864.852	0.0160162
864.931	0.0161155
865.009	0.0159561
865.087	0.0159905
865.165	0.0160732
865.243	0.0158681
865.321	0.0160577
865.399	0.0160020
865.477	0.0159532
865.556	0.0160095
865.634	0.0160419
865.712	0.0158263
865.790	0.0159699
865.868	0.0159785
865.946	0.0159619
866.024	0.0158707
866.102	0.0160014
866.181	0.0159168
866.259	0.0158269
866.337	0.0158373
866.415	0.0160287
866.493	0.0161176
866.571	0.0161254
866.649	0.0159788
866.727	0.0160227
866.806	0.0161221
866.884	0.0160185
866.962	0.0160110
867.040	0.0161757
867.118	0.0161574
867.196	0.0162283
867.274	0.0160793
867.352	0.0160587
867.431	0.0160992
867.509	0.0161416
867.587	0.0162122
867.665	0.0161716
867.743	0.0161923
867.821	0.0161199
867.899	0.0161404
867.977	0.0162571
868.056	0.0161755
868.134	0.0160819
868.212	0.0161031
868.290	0.0161964
868.368	0.0161719
868.446	0.0161153
868.524	0.0160966
868.602	0.0161901
868.681	0.0161147
868.759	0.0161349
868.837	0.0160272
868.915	0.0161729
868.993	0.0161124
869.071	0.0160319
869.149	0.0160475
869.227	0.0159869
869.306	0.0160714
869.384	0.0161915
869.462	0.0159587
869.540	0.0159358
869.618	0.0159901
869.696	0.0160197
869.774	0.0158013
869.852	0.0159745
869.931	0.0159737
870.009	0.0160625
870.087	0.0159943
870.165	0.0159322
870.243	0.0158723
870.321	0.0158844
870.399	0.0158795
870.477	0.0159845
870.556	0.0160593
870.634	0.0159483
870.712	0.0158808
870.790	0.0159366
870.868	0.0158907
870.946	0.0158495
871.024	0.0158931
871.102	0.0158717
871.181	0.0157279
871.259	0.0158852
871.337	0.0160158
871.415	0.0159405
871.493	0.0160163
871.571	0.0158883
871.649	0.0158326
871.727	0.0158936
871.806	0.0157790
871.884	0.0157928
871.962	0.0158291
872.040	0.0159827
872.118	0.0161145
872.196	0.0159097
872.274	0.0159957
872.352	0.0159313
872.431	0.0159249
872.509	0.0159580
872.587	0.0159290
872.665	0.0159624
872.743	0.0159218
872.821	0.0158891
872.899	0.0158693
872.977	0.0159522
873.056	0.0159134
873.134	0.0158926
873.212	0.0159441
873.290	0.0159049
873.368	0.0159101
873.446	0.0159590
873.524	0.0158028
873.602	0.0159258
873.681	0.0157999
873.759	0.0159811
873.837	0.0158380
873.915	0.0159933
873.993	0.0160275
874.071	0.0159277
874.149	0.0160567
874.227	0.0160396
874.306	0.0160418
874.384	0.0160793
874.462	0.0160964
874.540	0.0160175
874.618	0.0159375
874.696	0.0161063
874.774	0.0160215
874.852	0.0160687
874.931	0.0160208
875.009	0.0159672
875.087	0.0160429
875.165	0.0161649
875.243	0.0159859
875.321	0.0160712
875.399	0.0161172
875.477	0.0161590
875.556	0.0160080
875.634	0.0159965
875.712	0.0162974
875.790	0.0161269
875.868	0.0160928
875.946	0.0162011
876.024	0.0162673
876.102	0.0162407
876.181	0.0162019
876.259	0.0161330
876.337	0.0160783
876.415	0.0160697
876.493	0.0160558
876.571	0.0160934
876.649	0.0160126
876.727	0.0160480
876.806	0.0160903
876.884	0.0159882
876.962	0.0159761
877.040	0.0159661
877.118	0.0160381
877.196	0.0158685
877.274	0.0159943
877.352	0.0160141
877.431	0.0158912
877.509	0.0160045
877.587	0.0159120
877.665	0.0158860
877.743	0.0160241
877.821	0.0158833
877.899	0.0158485
877.977	0.0160298
878.056	0.0159037
878.134	0.0159135
878.212	0.0158885
878.290	0.0159573
878.368	0.0159009
878.446	0.0158714
878.524	0.0159097
878.602	0.0158461
878.681	0.0158326
878.759	0.0158892
878.837	0.0158987
878.915	0.0158421
878.993	0.0159151
879.071	0.0158253
879.149	0.0158614
879.227	0.0160335
879.306	0.0160231
879.384	0.0160471
879.462	0.0159636
879.540	0.0160164
879.618	0.0160402
879.696	0.0160916
879.774	0.0160639
879.852	0.0160726
879.931	0.0160767
880.009	0.0161655
880.087	0.0162207
880.165	0.0161402
880.243	0.0160290
880.321	0.0161495
880.399	0.0160639
880.477	0.0160622
880.556	0.0161366
880.634	0.0160881
880.712	0.0160477
880.790	0.0161157
880.868	0.0160098
880.946	0.0160933
881.024	0.0159350
881.102	0.0159323
881.181	0.0159798
881.259	0.0159779
881.337	0.0160807
881.415	0.0158926
881.493	0.0159312
881.571	0.0160211
881.649	0.0159264
881.727	0.0160444
881.806	0.0159433
881.884	0.0159090
881.962	0.0159134
882.040	0.0160601
882.118	0.0159779
882.196	0.0159872
882.274	0.0161135
882.352	0.0160031
882.431	0.0159669
882.509	0.0161582
882.587	0.0161596
882.665	0.0160575
882.743	0.0160225
882.821	0.0160497
882.899	0.0160889
882.977	0.0160889
883.056	0.0159227
883.134	0.0160820
883.212	0.0161587
883.290	0.0160838
883.368	0.0159817
883.446	0.0160133
883.524	0.0161063
883.602	0.0159925
883.681	0.0159434
883.759	0.0159928
883.837	0.0160324
883.915	0.0161411
883.993	0.0159193
884.071	0.0158991
884.149	0.0160171
884.227	0.0159140
884.306	0.0158879
884.384	0.0159491
884.462	0.0158620
884.540	0.0158647
884.618	0.0158888
884.696	0.0158572
884.774	0.0158946
884.852	0.0158974
884.931	0.0158250
885.009	0.0157408
885.087	0.0159262
885.165	0.0160031
885.243	0.0158687
885.321	0.0158679
885.399	0.0160106
885.477	0.0160435
885.556	0.0159913
885.634	0.0159027
885.712	0.0160342
885.790	0.0160371
885.868	0.0159704
885.946	0.0159937
886.024	0.0160662
886.102	0.0160868
886.181	0.0159480
886.259	0.0159794
886.337	0.0160159
886.415	0.0159151
886.493	0.0159045
886.571	0.0160838
886.649	0.0159822
886.727	0.0160411
886.806	0.0160341
886.884	0.0160021
886.962	0.0159718
887.040	0.0159895
887.118	0.0160565
887.196	0.0160625
887.274	0.0159891
887.352	0.0159633
887.431	0.0161329
887.509	0.0161598
887.587	0.0161131
887.665	0.0162159
887.743	0.0160163
887.821	0.0161735
887.899	0.0161034
887.977	0.0160405
888.056	0.0162178
888.134	0.0161424
888.212	0.0160821
888.290	0.0161015
888.368	0.0162241
888.446	0.0162027
888.524	0.0161565
888.602	0.0162000
888.681	0.0161823
888.759	0.0160461
888.837	0.0161349
888.915	0.0160877
888.993	0.0160091
889.071	0.0159215
889.149	0.0160322
889.227	0.0160732
889.306	0.0160257
889.384	0.0159331
889.462	0.0159285
889.540	0.0159165
889.618	0.0159769
889.696	0.0159241
889.774	0.0158831
889.852	0.0159333
889.931	0.0161003
890.009	0.0159110
890.087	0.0160128
890.165	0.0159502
890.243	0.0158639
890.321	0.0159032
890.399	0.0159635
890.477	0.0160265
890.556	0.0158616
890.634	0.0159053
890.712	0.0159956
890.790	0.0159592
890.868	0.0160902
890.946	0.0160509
891.024	0.0159880
891.102	0.0160126
891.181	0.0161126
891.259	0.0159660
891.337	0.0159454
891.415	0.0160672
891.493	0.0161391
891.571	0.0159869
891.649	0.0159030
891.727	0.0159623
891.806	0.0162061
891.884	0.0161471
891.962	0.0161531
892.040	0.0159233
892.118	0.0161340
892.196	0.0160915
892.274	0.0161752
892.352	0.0160858
892.431	0.0160692
892.509	0.0163034
892.587	0.0161212
892.665	0.0160743
892.743	0.0161504
892.821	0.0160841
892.899	0.0160586
892.977	0.0160846
893.056	0.0160616
893.134	0.0161220
893.212	0.0161155
893.290	0.0161635
893.368	0.0161249
893.446	0.0161567
893.524	0.0161870
893.602	0.0161159
893.681	0.0160249
893.759	0.0159711
893.837	0.0161419
893.915	0.0160371
893.993	0.0160982
894.071	0.0161933
894.149	0.0159431
894.227	0.0160546
894.306	0.0160960
894.384	0.0160379
894.462	0.0160387
894.540	0.0160297
894.618	0.0160048
894.696	0.0158793
894.774	0.0160470
894.852	0.0160304
894.931	0.0159010
895.009	0.0159014
895.087	0.0158459
895.165	0.0158804
895.243	0.0158934
895.321	0.0158710
895.399	0.0159943
895.477	0.0159927
895.556	0.0158755
895.634	0.0159717
895.712	0.0159932
895.790	0.0159254
895.868	0.0158658
895.946	0.0159776
896.024	0.0159438
896.102	0.0160213
896.181	0.0161458
896.259	0.0160242
896.337	0.0160819
896.415	0.0160046
896.493	0.0160138
896.571	0.0159828
896.649	0.0159850
896.727	0.0160534
896.806	0.0160156
896.884	0.0158704
896.962	0.0159846
897.040	0.0158992
897.118	0.0159223
897.196	0.0159003
897.274	0.0159402
897.352	0.0157919
897.431	0.0158833
897.509	0.0159158
897.587	0.0158797
897.665	0.0159550
897.743	0.0159341
897.821	0.0159163
897.899	0.0159763
897.977	0.0159945
898.056	0.0159035
898.134	0.0159154
898.212	0.0159759
898.290	0.0159006
898.368	0.0159042
898.446	0.0160840
898.524	0.0159303
898.602	0.0158941
898.681	0.0158891
898.759	0.0158321
898.837	0.0160249
898.915	0.0160438
898.993	0.0159817
899.071	0.0160911
899.149	0.0159573
899.227	0.0158701
899.306	0.0160681
899.384	0.0160410
899.462	0.0159869
899.540	0.0162011
899.618	0.0161359
899.696	0.0161297
899.774	0.0161312
899.852	0.0161314
899.931	0.0161617
900.009	0.0161192
900.087	0.0162186
900.165	0.0163486
900.243	0.0162216
900.321	0.0159676
900.399	0.0163055
900.477	0.0162231
900.556	0.0161124
900.634	0.0160553
900.712	0.0160983
900.790	0.0162749
900.868	0.0160091
900.946	0.0159310
901.024	0.0160536
901.102	0.0160329
901.181	0.0160432
901.259	0.0160177
901.337	0.0160600
901.415	0.0159624
901.493	0.0158764
901.571	0.0159293
901.649	0.0158737
901.727	0.0157878
901.806	0.0158363
901.884	0.0159480
901.962	0.0158143
902.040	0.0157247
902.118	0.0158092
902.196	0.0158057
902.274	0.0157397
902.352	0.0158180
902.431	0.0157338
902.509	0.0158878
902.587	0.0159106
902.665	0.0158458
902.743	0.0160516
902.821	0.0160423
902.899	0.0159264
902.977	0.0159881
903.056	0.0159872
903.134	0.0161557
903.212	0.0160367
903.290	0.0160416
903.368	0.0161132
903.446	0.0161786
903.524	0.0161429
903.602	0.0162914
903.681	0.0161702
903.759	0.0162412
903.837	0.0163889
903.915	0.0162195
903.993	0.0162688
904.071	0.0164030
904.149	0.0162845
904.227	0.0162876
904.306	0.0163966
904.384	0.0162328
904.462	0.0161121
904.540	0.0162585
904.618	0.0161894
904.696	0.0161532
904.774	0.0161576
904.852	0.0162047
904.931	0.0161443
905.009	0.0160139
905.087	0.0160157
905.165	0.0160622
905.243	0.0160110
905.321	0.0160072
905.399	0.0160472
905.477	0.0159966
905.556	0.0158547
905.634	0.0160303
905.712	0.0160457
905.790	0.0158733
905.868	0.0159461
905.946	0.0158132
906.024	0.0160160
906.102	0.0159690
906.181	0.0158318
906.259	0.0157385
906.337	0.0159003
906.415	0.0159536
906.493	0.0159776
906.571	0.0159743
906.649	0.0159320
906.727	0.0159386
906.806	0.0159241
906.884	0.0160053
906.962	0.0160422
907.040	0.0158876
907.118	0.0159447
907.196	0.0160508
907.274	0.0159901
907.352	0.0158986
907.431	0.0159894
907.509	0.0160484
907.587	0.0160456
907.665	0.0161359
907.743	0.0160628
907.821	0.0160612
907.899	0.0160544
907.977	0.0160894
908.056	0.0161687
908.134	0.0159849
908.212	0.0160106
908.290	0.0161648
908.368	0.0161921
908.446	0.0160783
908.524	0.0160406
908.602	0.0158978
908.681	0.0160259
908.759	0.0161752
908.837	0.0162272
908.915	0.0160493
908.993	0.0159539
909.071	0.0161137
909.149	0.0160198
909.227	0.0159935
909.306	0.0159561
909.384	0.0160587
909.462	0.0158528
909.540	0.0158144
909.618	0.0159605
909.696	0.0159692
909.774	0.0159225
909.852	0.0159606
909.931	0.0159793
910.009	0.0159393
910.087	0.0157288
910.165	0.0159812
910.243	0.0159278
910.321	0.0159791
910.399	0.0159480
910.477	0.0160485
910.556	0.0160448
910.634	0.0159653
910.712	0.0159877
910.790	0.0161594
910.868	0.0159867
910.946	0.0159435
911.024	0.0159740
911.102	0.0161375
911.181	0.0160669
911.259	0.0161436
911.337	0.0161075
911.415	0.0160391
911.493	0.0160944
911.571	0.0162029
911.649	0.0161233
911.727	0.0161040
911.806	0.0161517
911.884	0.0160808
911.962	0.0160178
912.040	0.0160920
912.118	0.0161723
912.196	0.0161082
912.274	0.0160849
912.352	0.0160059
912.431	0.0162436
912.509	0.0160621
912.587	0.0159629
912.665	0.0159506
912.743	0.0161685
912.821	0.0159925
912.899	0.0160003
912.977	0.0159295
913.056	0.0159715
913.134	0.0160294
913.212	0.0158411
913.290	0.0159715
913.368	0.0160612
913.446	0.0159655
913.524	0.0158647
913.602	0.0160585
913.681	0.0159572
913.759	0.0159274
913.837	0.0160003
913.915	0.0160480
913.993	0.0159702
914.071	0.0161027
914.149	0.0160780
914.227	0.0160827
914.306	0.0160522
914.384	0.0161042
914.462	0.0160565
914.540	0.0160806
914.618	0.0160252
914.696	0.0159918
914.774	0.0160672
914.852	0.0161158
914.931	0.0160746
915.009	0.0161081
915.087	0.0161555
915.165	0.0160728
915.243	0.0161324
915.321	0.0160810
915.399	0.0161175
915.477	0.0161447
915.556	0.0160994
915.634	0.0161152
915.712	0.0161341
915.790	0.0160328
915.868	0.0159907
915.946	0.0161214
916.024	0.0161254
916.102	0.0160876
916.181	0.0160915
916.259	0.0158965
916.337	0.0160852
916.415	0.0160773
916.493	0.0160492
916.571	0.0160767
916.649	0.0160342
916.727	0.0159609
916.806	0.0159969
916.884	0.0159793
916.962	0.0160796
917.040	0.0159966
917.118	0.0159229
917.196	0.0161804
917.274	0.0159797
917.352	0.0160709
917.431	0.0159904
917.509	0.0160126
917.587	0.0161620
917.665	0.0158383
917.743	0.0160004
917.821	0.0160818
917.899	0.0159329
917.977	0.0160272
918.056	0.0160235
918.134	0.0158952
918.212	0.0160522
918.290	0.0159238
918.368	0.0159782
918.446	0.0160545
918.524	0.0160415
918.602	0.0160259
918.681	0.0161098
918.759	0.0160459
918.837	0.0161007
918.915	0.0161417
918.993	0.0159942
919.071	0.0160184
919.149	0.0161951
919.227	0.0161410
919.306	0.0160534
919.384	0.0159939
919.462	0.0160134
919.540	0.0160699
919.618	0.0159843
919.696	0.0159842
919.774	0.0160677
919.852	0.0161499
919.931	0.0160078
920.009	0.0159597
920.087	0.0160186
920.165	0.0161598
920.243	0.0160786
920.321	0.0160823
920.399	0.0160212
920.477	0.0159294
920.556	0.0160676
920.634	0.0161066
920.712	0.0159997
920.790	0.0161274
920.868	0.0162450
920.946	0.0159544
921.024	0.0159788
921.102	0.0160501
921.181	0.0159167
921.259	0.0159423
921.337	0.0160649
921.415	0.0160362
921.493	0.0160459
921.571	0.0161250
921.649	0.0159534
921.727	0.0159233
921.806	0.0160520
921.884	0.0161789
921.962	0.0159797
922.040	0.0159068
922.118	0.0160818
922.196	0.0160731
922.274	0.0160806
922.352	0.0160152
922.431	0.0159860
922.509	0.0159673
922.587	0.0160934
922.665	0.0159396
922.743	0.0159705
922.821	0.0160620
922.899	0.0159906
922.977	0.0159232
923.056	0.0161148
923.134	0.0161393
923.212	0.0159618
923.290	0.0161527
923.368	0.0160152
923.446	0.0159453
923.524	0.0159927
923.602	0.0159895
923.681	0.0158106
923.759	0.0161247
923.837	0.0160500
923.915	0.0159903
923.993	0.0158296
924.071	0.0160188
924.149	0.0161375
924.227	0.0161176
924.306	0.0161253
924.384	0.0160560
924.462	0.0161042
924.540	0.0160003
924.618	0.0159723
924.696	0.0160892
924.774	0.0160596
924.852	0.0160632
924.931	0.0159451
925.009	0.0159195
925.087	0.0160126
925.165	0.0160210
925.243	0.0159823
925.321	0.0160029
925.399	0.0159007
925.477	0.0159798
925.556	0.0159962
925.634	0.0159918
925.712	0.0158882
925.790	0.0159914
925.868	0.0158735
925.946	0.0157896
926.024	0.0159774
926.102	0.0159483
926.181	0.0159911
926.259	0.0159711
926.337	0.0159347
926.415	0.0160172
926.493	0.0160219
926.571	0.0159210
926.649	0.0158575
926.727	0.0160047
926.806	0.0161019
926.884	0.0160609
926.962	0.0160549
927.040	0.0160141
927.118	0.0160682
927.196	0.0160885
927.274	0.0160779
927.352	0.0161433
927.431	0.0162007
927.509	0.0161674
927.587	0.0162286
927.665	0.0160478
927.743	0.0160420
927.821	0.0162337
927.899	0.0162139
927.977	0.0162624
928.056	0.0161807
928.134	0.0161306
928.212	0.0162849
928.290	0.0161930
928.368	0.0162238
928.446	0.0161506
928.524	0.0160570
928.602	0.0161971
928.681	0.0161763
928.759	0.0162981
928.837	0.0161817
928.915	0.0160033
928.993	0.0162695
929.071	0.0162028
929.149	0.0160117
929.227	0.0161631
929.306	0.0161492
929.384	0.0160796
929.462	0.0161240
929.540	0.0160558
929.618	0.0160740
929.696	0.0159755
929.774	0.0159139
929.852	0.0158083
929.931	0.0160130
