05/19/2022	01:15:25	Ver.	4.1	UNKNOWN
Optical Delay	610.008675	Delta X		0.078125	Sweeps	1	Scan Rate	0/0
Coordinates	Axis 1	NaN	Axis 2	NaN	Axis 3	NaN	Axis 4	NaN	Axis 5	NaN	Axis 6	0.000000
TX Power	0.000000	RX Power	0.000000

610.009	0.0160831
610.087	0.0160307
610.165	0.0160616
610.243	0.0160849
610.321	0.0160338
610.399	0.0161408
610.477	0.0161200
610.556	0.0160112
610.634	0.0160783
610.712	0.0160145
610.790	0.0161214
610.868	0.0159856
610.946	0.0160924
611.024	0.0161005
611.102	0.0160330
611.181	0.0160617
611.259	0.0160718
611.337	0.0160300
611.415	0.0159824
611.493	0.0160250
611.571	0.0161122
611.649	0.0160374
611.727	0.0159749
611.806	0.0160386
611.884	0.0160986
611.962	0.0159464
612.040	0.0160270
612.118	0.0160201
612.196	0.0158640
612.274	0.0158797
612.352	0.0159725
612.431	0.0158437
612.509	0.0159116
612.587	0.0159491
612.665	0.0159993
612.743	0.0161488
612.821	0.0160373
612.899	0.0161391
612.977	0.0159981
613.056	0.0160176
613.134	0.0160604
613.212	0.0160462
613.290	0.0160556
613.368	0.0161195
613.446	0.0161554
613.524	0.0161332
613.602	0.0161110
613.681	0.0159953
613.759	0.0161108
613.837	0.0160834
613.915	0.0161518
613.993	0.0160740
614.071	0.0161993
614.149	0.0161041
614.227	0.0161021
614.306	0.0160844
614.384	0.0161845
614.462	0.0160412
614.540	0.0160946
614.618	0.0161480
614.696	0.0160801
614.774	0.0162501
614.852	0.0162336
614.931	0.0162213
615.009	0.0161001
615.087	0.0162201
615.165	0.0162372
615.243	0.0162139
615.321	0.0161057
615.399	0.0161979
615.477	0.0161671
615.556	0.0160033
615.634	0.0160641
615.712	0.0159863
615.790	0.0160690
615.868	0.0160957
615.946	0.0161243
616.024	0.0161510
616.102	0.0160859
616.181	0.0160619
616.259	0.0161591
616.337	0.0160873
616.415	0.0161230
616.493	0.0161052
616.571	0.0161682
616.649	0.0159472
616.727	0.0161082
616.806	0.0161739
616.884	0.0160066
616.962	0.0160179
617.040	0.0161691
617.118	0.0159093
617.196	0.0160535
617.274	0.0159733
617.352	0.0160168
617.431	0.0159839
617.509	0.0159085
617.587	0.0159894
617.665	0.0160303
617.743	0.0160698
617.821	0.0159200
617.899	0.0159082
617.977	0.0161755
618.056	0.0160204
618.134	0.0160376
618.212	0.0159879
618.290	0.0159943
618.368	0.0160035
618.446	0.0159875
618.524	0.0160252
618.602	0.0160028
618.681	0.0160655
618.759	0.0161523
618.837	0.0160796
618.915	0.0160950
618.993	0.0161070
619.071	0.0161028
619.149	0.0161115
619.227	0.0159756
619.306	0.0160381
619.384	0.0160525
619.462	0.0160632
619.540	0.0160909
619.618	0.0160322
619.696	0.0160279
619.774	0.0160073
619.852	0.0159810
619.931	0.0160649
620.009	0.0160567
620.087	0.0162473
620.165	0.0160337
620.243	0.0160430
620.321	0.0160163
620.399	0.0160725
620.477	0.0161031
620.556	0.0161463
620.634	0.0162197
620.712	0.0161940
620.790	0.0161258
620.868	0.0161676
620.946	0.0160594
621.024	0.0161543
621.102	0.0162312
621.181	0.0162215
621.259	0.0161649
621.337	0.0162780
621.415	0.0159649
621.493	0.0160950
621.571	0.0159998
621.649	0.0160680
621.727	0.0161123
621.806	0.0161250
621.884	0.0160852
621.962	0.0161217
622.040	0.0159796
622.118	0.0160048
622.196	0.0161294
622.274	0.0159917
622.352	0.0158994
622.431	0.0160584
622.509	0.0159343
622.587	0.0159324
622.665	0.0159922
622.743	0.0160094
622.821	0.0159901
622.899	0.0159825
622.977	0.0159354
623.056	0.0159124
623.134	0.0159626
623.212	0.0159310
623.290	0.0159439
623.368	0.0158862
623.446	0.0158641
623.524	0.0158015
623.602	0.0159660
623.681	0.0159537
623.759	0.0159558
623.837	0.0158828
623.915	0.0158647
623.993	0.0159595
624.071	0.0160071
624.149	0.0159531
624.227	0.0160553
624.306	0.0160616
624.384	0.0161188
624.462	0.0160399
624.540	0.0160854
624.618	0.0160845
624.696	0.0161369
624.774	0.0161541
624.852	0.0161265
624.931	0.0161317
625.009	0.0162450
625.087	0.0163494
625.165	0.0161208
625.243	0.0163110
625.321	0.0162545
625.399	0.0163725
625.477	0.0162681
625.556	0.0163769
625.634	0.0162079
625.712	0.0163232
625.790	0.0162215
625.868	0.0164132
625.946	0.0163882
626.024	0.0161984
626.102	0.0161651
626.181	0.0162624
626.259	0.0162094
626.337	0.0161925
626.415	0.0163723
626.493	0.0162431
626.571	0.0160825
626.649	0.0160690
626.727	0.0160472
626.806	0.0160133
626.884	0.0160349
626.962	0.0161684
627.040	0.0159637
627.118	0.0159673
627.196	0.0158900
627.274	0.0159106
627.352	0.0159528
627.431	0.0159554
627.509	0.0157800
627.587	0.0158623
627.665	0.0159366
627.743	0.0158739
627.821	0.0157442
627.899	0.0158196
627.977	0.0158991
628.056	0.0157945
628.134	0.0157880
628.212	0.0156681
628.290	0.0159197
628.368	0.0159092
628.446	0.0159198
628.524	0.0158535
628.602	0.0159460
628.681	0.0159956
628.759	0.0159161
628.837	0.0161060
628.915	0.0160590
628.993	0.0160231
629.071	0.0161237
629.149	0.0161046
629.227	0.0160969
629.306	0.0161369
629.384	0.0159677
629.462	0.0160672
629.540	0.0162557
629.618	0.0161397
629.696	0.0162852
629.774	0.0162076
629.852	0.0162624
629.931	0.0163461
630.009	0.0163264
630.087	0.0162441
630.165	0.0164822
630.243	0.0163659
630.321	0.0163074
630.399	0.0162440
630.477	0.0163200
630.556	0.0163246
630.634	0.0163915
630.712	0.0163598
630.790	0.0162627
630.868	0.0164114
630.946	0.0161647
631.024	0.0162995
631.102	0.0161707
631.181	0.0162836
631.259	0.0161944
631.337	0.0162083
631.415	0.0160381
631.493	0.0160172
631.571	0.0158691
631.649	0.0159821
631.727	0.0159742
631.806	0.0159543
631.884	0.0160576
631.962	0.0157370
632.040	0.0157740
632.118	0.0157217
632.196	0.0156420
632.274	0.0156050
632.352	0.0154759
632.431	0.0156083
632.509	0.0156255
632.587	0.0154062
632.665	0.0153391
632.743	0.0154992
632.821	0.0155024
632.899	0.0155819
632.977	0.0154205
633.056	0.0154274
633.134	0.0154755
633.212	0.0154959
633.290	0.0156175
633.368	0.0156861
633.446	0.0156340
633.524	0.0157324
633.602	0.0156555
633.681	0.0157843
633.759	0.0161112
633.837	0.0160423
633.915	0.0161037
633.993	0.0161332
634.071	0.0162470
634.149	0.0161646
634.227	0.0163091
634.306	0.0162779
634.384	0.0164231
634.462	0.0164242
634.540	0.0164356
634.618	0.0165157
634.696	0.0164297
634.774	0.0165660
634.852	0.0164416
634.931	0.0164040
635.009	0.0165010
635.087	0.0166658
635.165	0.0166946
635.243	0.0165998
635.321	0.0165819
635.399	0.0166971
635.477	0.0165005
635.556	0.0165834
635.634	0.0164682
635.712	0.0164108
635.790	0.0165256
635.868	0.0162383
635.946	0.0162183
636.024	0.0162444
636.102	0.0163177
636.181	0.0161326
636.259	0.0161239
636.337	0.0161261
636.415	0.0160544
636.493	0.0159850
636.571	0.0160017
636.649	0.0158576
636.727	0.0158643
636.806	0.0157434
636.884	0.0155882
636.962	0.0155262
637.040	0.0155718
637.118	0.0155711
637.196	0.0154577
637.274	0.0155096
637.352	0.0154926
637.431	0.0154811
637.509	0.0153872
637.587	0.0155920
637.665	0.0156686
637.743	0.0156062
637.821	0.0155920
637.899	0.0156855
637.977	0.0156826
638.056	0.0157488
638.134	0.0159402
638.212	0.0159037
638.290	0.0159865
638.368	0.0158894
638.446	0.0159404
638.524	0.0161369
638.602	0.0162199
638.681	0.0161089
638.759	0.0161496
638.837	0.0162169
638.915	0.0163314
638.993	0.0164378
639.071	0.0163280
639.149	0.0163644
639.227	0.0163141
639.306	0.0163368
639.384	0.0164716
639.462	0.0164543
639.540	0.0164977
639.618	0.0165406
639.696	0.0164433
639.774	0.0163832
639.852	0.0164980
639.931	0.0165549
640.009	0.0164465
640.087	0.0165388
640.165	0.0163923
640.243	0.0163078
640.321	0.0163425
640.399	0.0162076
640.477	0.0162895
640.556	0.0162964
640.634	0.0162051
640.712	0.0161891
640.790	0.0160947
640.868	0.0160736
640.946	0.0161183
641.024	0.0159962
641.102	0.0158749
641.181	0.0158221
641.259	0.0159111
641.337	0.0156481
641.415	0.0156730
641.493	0.0156683
641.571	0.0157325
641.649	0.0157742
641.727	0.0156847
641.806	0.0158518
641.884	0.0158006
641.962	0.0157905
642.040	0.0158260
642.118	0.0158125
642.196	0.0156821
642.274	0.0158113
642.352	0.0158083
642.431	0.0159554
642.509	0.0157855
642.587	0.0159924
642.665	0.0158546
642.743	0.0159066
642.821	0.0158601
642.899	0.0160461
642.977	0.0159973
643.056	0.0160342
643.134	0.0161028
643.212	0.0161079
643.290	0.0160548
643.368	0.0160954
643.446	0.0161463
643.524	0.0161877
643.602	0.0160432
643.681	0.0162955
643.759	0.0162348
643.837	0.0162471
643.915	0.0162989
643.993	0.0162601
644.071	0.0162278
644.149	0.0161883
644.227	0.0161334
644.306	0.0161640
644.384	0.0161369
644.462	0.0161045
644.540	0.0159704
644.618	0.0161116
644.696	0.0163274
644.774	0.0161802
644.852	0.0160283
644.931	0.0161500
645.009	0.0161834
645.087	0.0161372
645.165	0.0161169
645.243	0.0160924
645.321	0.0160989
645.399	0.0162182
645.477	0.0162128
645.556	0.0161856
645.634	0.0162506
645.712	0.0162212
645.790	0.0161887
645.868	0.0161327
645.946	0.0163492
646.024	0.0162777
646.102	0.0161308
646.181	0.0162597
646.259	0.0161576
646.337	0.0162695
646.415	0.0163278
646.493	0.0161904
646.571	0.0161774
646.649	0.0163305
646.727	0.0162112
646.806	0.0161327
646.884	0.0161485
646.962	0.0161717
647.040	0.0161688
647.118	0.0162051
647.196	0.0161407
647.274	0.0160822
647.352	0.0161131
647.431	0.0160450
647.509	0.0161130
647.587	0.0160538
647.665	0.0160093
647.743	0.0160886
647.821	0.0160361
647.899	0.0160231
647.977	0.0160520
648.056	0.0158765
648.134	0.0159555
648.212	0.0160622
648.290	0.0161170
648.368	0.0161252
648.446	0.0160587
648.524	0.0160403
648.602	0.0160268
648.681	0.0159957
648.759	0.0159847
648.837	0.0160120
648.915	0.0161039
648.993	0.0158874
649.071	0.0160786
649.149	0.0160574
649.227	0.0159971
649.306	0.0158620
649.384	0.0160227
649.462	0.0159343
649.540	0.0159692
649.618	0.0160607
649.696	0.0159222
649.774	0.0159895
649.852	0.0159660
649.931	0.0159452
650.009	0.0159596
650.087	0.0159965
650.165	0.0159461
650.243	0.0159502
650.321	0.0159534
650.399	0.0159421
650.477	0.0159866
650.556	0.0160296
650.634	0.0160617
650.712	0.0159517
650.790	0.0160375
650.868	0.0160613
650.946	0.0158946
651.024	0.0160131
651.102	0.0160329
651.181	0.0159155
651.259	0.0159887
651.337	0.0160268
651.415	0.0161510
651.493	0.0160363
651.571	0.0159499
651.649	0.0161298
651.727	0.0160569
651.806	0.0160427
651.884	0.0160701
651.962	0.0160976
652.040	0.0163357
652.118	0.0162454
652.196	0.0161359
652.274	0.0162495
652.352	0.0163142
652.431	0.0161160
652.509	0.0161916
652.587	0.0164261
652.665	0.0164124
652.743	0.0163390
652.821	0.0163984
652.899	0.0164246
652.977	0.0164220
653.056	0.0163131
653.134	0.0164336
653.212	0.0164165
653.290	0.0164873
653.368	0.0164272
653.446	0.0162957
653.524	0.0163405
653.602	0.0162693
653.681	0.0162025
653.759	0.0163645
653.837	0.0163210
653.915	0.0162804
653.993	0.0161869
654.071	0.0162018
654.149	0.0161705
654.227	0.0160597
654.306	0.0162434
654.384	0.0161662
654.462	0.0160702
654.540	0.0159295
654.618	0.0159016
654.696	0.0159228
654.774	0.0158852
654.852	0.0158514
654.931	0.0158115
655.009	0.0157902
655.087	0.0155978
655.165	0.0157712
655.243	0.0158823
655.321	0.0157857
655.399	0.0157817
655.477	0.0157607
655.556	0.0158025
655.634	0.0157832
655.712	0.0157473
655.790	0.0157481
655.868	0.0157485
655.946	0.0159534
656.024	0.0158740
656.102	0.0157230
656.181	0.0158315
656.259	0.0158785
656.337	0.0159975
656.415	0.0160081
656.493	0.0159208
656.571	0.0159631
656.649	0.0160052
656.727	0.0161974
656.806	0.0161102
656.884	0.0161533
656.962	0.0161351
657.040	0.0162342
657.118	0.0161656
657.196	0.0163025
657.274	0.0162298
657.352	0.0164261
657.431	0.0163895
657.509	0.0163912
657.587	0.0163640
657.665	0.0164413
657.743	0.0165083
657.821	0.0165617
657.899	0.0164255
657.977	0.0165228
658.056	0.0164730
658.134	0.0166163
658.212	0.0165514
658.290	0.0165639
658.368	0.0165701
658.446	0.0164373
658.524	0.0163760
658.602	0.0164121
658.681	0.0164967
658.759	0.0164534
658.837	0.0163595
658.915	0.0162997
658.993	0.0162528
659.071	0.0162291
659.149	0.0161231
659.227	0.0161552
659.306	0.0160297
659.384	0.0160792
659.462	0.0160283
659.540	0.0160072
659.618	0.0159335
659.696	0.0160338
659.774	0.0158321
659.852	0.0157322
659.931	0.0158431
660.009	0.0158266
660.087	0.0157006
660.165	0.0157561
660.243	0.0156379
660.321	0.0158044
660.399	0.0157354
660.477	0.0156838
660.556	0.0158160
660.634	0.0157514
660.712	0.0158076
660.790	0.0158786
660.868	0.0158786
660.946	0.0159379
661.024	0.0159138
661.102	0.0158076
661.181	0.0159529
661.259	0.0160403
661.337	0.0161376
661.415	0.0160954
661.493	0.0161048
661.571	0.0162450
661.649	0.0162885
661.727	0.0161153
661.806	0.0163026
661.884	0.0163261
661.962	0.0163503
662.040	0.0161784
662.118	0.0163704
662.196	0.0164891
662.274	0.0164539
662.352	0.0163983
662.431	0.0164684
662.509	0.0165395
662.587	0.0163745
662.665	0.0165122
662.743	0.0164946
662.821	0.0164574
662.899	0.0164320
662.977	0.0163276
663.056	0.0164436
663.134	0.0163151
663.212	0.0162868
663.290	0.0162906
663.368	0.0162793
663.446	0.0162394
663.524	0.0162949
663.602	0.0161728
663.681	0.0162103
663.759	0.0162664
663.837	0.0160251
663.915	0.0160502
663.993	0.0159930
664.071	0.0160854
664.149	0.0159681
664.227	0.0159871
664.306	0.0160225
664.384	0.0158656
664.462	0.0159888
664.540	0.0160005
664.618	0.0159178
664.696	0.0160680
664.774	0.0160909
664.852	0.0160249
664.931	0.0160728
665.009	0.0160252
665.087	0.0159866
665.165	0.0159555
665.243	0.0159069
665.321	0.0159929
665.399	0.0159361
665.477	0.0161287
665.556	0.0160342
665.634	0.0159155
665.712	0.0161411
665.790	0.0160691
665.868	0.0159562
665.946	0.0159979
666.024	0.0159684
666.102	0.0158671
666.181	0.0159282
666.259	0.0159479
666.337	0.0158714
666.415	0.0158565
666.493	0.0161360
666.571	0.0160365
666.649	0.0160127
666.727	0.0158647
666.806	0.0160599
666.884	0.0159802
666.962	0.0160320
667.040	0.0161094
667.118	0.0162510
667.196	0.0163589
667.274	0.0161543
667.352	0.0161003
667.431	0.0161316
667.509	0.0163699
667.587	0.0164054
667.665	0.0162672
667.743	0.0163008
667.821	0.0163525
667.899	0.0163729
667.977	0.0164314
668.056	0.0163065
668.134	0.0161574
668.212	0.0162861
668.290	0.0161852
668.368	0.0160699
668.446	0.0162581
668.524	0.0161961
668.602	0.0161147
668.681	0.0160320
668.759	0.0161290
668.837	0.0160551
668.915	0.0161317
668.993	0.0160766
669.071	0.0161954
669.149	0.0161549
669.227	0.0158765
669.306	0.0160706
669.384	0.0161000
669.462	0.0160251
669.540	0.0161079
669.618	0.0160153
669.696	0.0160316
669.774	0.0161595
669.852	0.0160285
669.931	0.0161892
670.009	0.0162026
670.087	0.0160545
670.165	0.0162022
670.243	0.0161085
670.321	0.0161350
670.399	0.0161720
670.477	0.0160890
670.556	0.0159862
670.634	0.0161930
670.712	0.0162420
670.790	0.0161867
670.868	0.0161721
670.946	0.0161066
671.024	0.0161687
671.102	0.0161330
671.181	0.0161456
671.259	0.0162463
671.337	0.0160912
671.415	0.0162599
671.493	0.0161857
671.571	0.0162924
671.649	0.0161501
671.727	0.0162060
671.806	0.0161896
671.884	0.0161121
671.962	0.0160833
672.040	0.0160889
672.118	0.0164252
672.196	0.0162286
672.274	0.0162762
672.352	0.0161918
672.431	0.0160718
672.509	0.0159367
672.587	0.0161614
672.665	0.0161065
672.743	0.0159641
672.821	0.0160761
672.899	0.0160403
672.977	0.0158475
673.056	0.0159914
673.134	0.0161710
673.212	0.0159571
673.290	0.0160066
673.368	0.0159602
673.446	0.0159989
673.524	0.0160413
673.602	0.0160781
673.681	0.0161411
673.759	0.0161786
673.837	0.0162908
673.915	0.0161220
673.993	0.0161278
674.071	0.0162113
674.149	0.0161618
674.227	0.0161231
674.306	0.0161158
674.384	0.0159174
674.462	0.0159952
674.540	0.0160598
674.618	0.0160250
674.696	0.0161426
674.774	0.0160423
674.852	0.0159904
674.931	0.0160755
675.009	0.0160110
675.087	0.0160506
675.165	0.0159480
675.243	0.0160410
675.321	0.0161757
675.399	0.0160936
675.477	0.0160283
675.556	0.0158947
675.634	0.0159853
675.712	0.0161084
675.790	0.0160201
675.868	0.0160147
675.946	0.0162655
676.024	0.0160085
676.102	0.0159634
676.181	0.0160291
676.259	0.0159293
676.337	0.0159187
676.415	0.0158764
676.493	0.0159185
676.571	0.0159737
676.649	0.0158838
676.727	0.0158611
676.806	0.0158488
676.884	0.0157169
676.962	0.0157774
677.040	0.0158715
677.118	0.0157282
677.196	0.0158170
677.274	0.0157365
677.352	0.0157500
677.431	0.0156379
677.509	0.0157677
677.587	0.0157601
677.665	0.0157703
677.743	0.0159289
677.821	0.0158150
677.899	0.0158492
677.977	0.0158649
678.056	0.0159189
678.134	0.0159068
678.212	0.0159259
678.290	0.0160928
678.368	0.0160696
678.446	0.0161788
678.524	0.0161241
678.602	0.0161342
678.681	0.0162743
678.759	0.0161906
678.837	0.0162344
678.915	0.0162685
678.993	0.0164162
679.071	0.0164040
679.149	0.0163889
679.227	0.0164597
679.306	0.0164163
679.384	0.0163229
679.462	0.0163423
679.540	0.0163182
679.618	0.0162296
679.696	0.0162951
679.774	0.0162976
679.852	0.0162685
679.931	0.0161957
680.009	0.0161353
680.087	0.0162756
680.165	0.0163412
680.243	0.0163022
680.321	0.0163294
680.399	0.0162258
680.477	0.0161416
680.556	0.0162331
680.634	0.0162537
680.712	0.0162792
680.790	0.0162437
680.868	0.0162143
680.946	0.0161438
681.024	0.0160700
681.102	0.0161845
681.181	0.0162920
681.259	0.0160898
681.337	0.0161414
681.415	0.0161757
681.493	0.0160934
681.571	0.0161228
681.649	0.0160710
681.727	0.0160545
681.806	0.0158453
681.884	0.0157288
681.962	0.0159465
682.040	0.0158839
682.118	0.0157500
682.196	0.0158530
682.274	0.0159454
682.352	0.0157634
682.431	0.0158105
682.509	0.0157948
682.587	0.0158169
682.665	0.0158092
682.743	0.0157846
682.821	0.0159312
682.899	0.0158704
682.977	0.0159058
683.056	0.0159715
683.134	0.0159171
683.212	0.0158298
683.290	0.0161015
683.368	0.0159972
683.446	0.0161199
683.524	0.0161811
683.602	0.0160830
683.681	0.0161834
683.759	0.0162264
683.837	0.0161694
683.915	0.0162890
683.993	0.0161881
684.071	0.0162508
684.149	0.0163795
684.227	0.0164429
684.306	0.0163116
684.384	0.0162289
684.462	0.0163467
684.540	0.0163365
684.618	0.0163948
684.696	0.0163822
684.774	0.0162534
684.852	0.0163419
684.931	0.0163982
685.009	0.0163911
685.087	0.0162717
685.165	0.0164359
685.243	0.0163126
685.321	0.0163566
685.399	0.0164419
685.477	0.0162496
685.556	0.0164093
685.634	0.0163456
685.712	0.0163194
685.790	0.0161706
685.868	0.0162946
685.946	0.0162373
686.024	0.0162068
686.102	0.0160574
686.181	0.0161195
686.259	0.0159728
686.337	0.0158839
686.415	0.0158956
686.493	0.0157381
686.571	0.0159583
686.649	0.0159650
686.727	0.0159187
686.806	0.0159010
686.884	0.0160327
686.962	0.0159834
687.040	0.0159239
687.118	0.0160257
687.196	0.0161257
687.274	0.0160031
687.352	0.0160170
687.431	0.0161978
687.509	0.0162976
687.587	0.0162446
687.665	0.0161526
687.743	0.0160281
687.821	0.0161929
687.899	0.0162940
687.977	0.0161179
688.056	0.0162425
688.134	0.0161549
688.212	0.0162412
688.290	0.0162074
688.368	0.0159785
688.446	0.0162085
688.524	0.0163796
688.602	0.0162164
688.681	0.0161960
688.759	0.0161557
688.837	0.0161422
688.915	0.0161855
688.993	0.0161623
689.071	0.0162289
689.149	0.0162125
689.227	0.0162231
689.306	0.0163083
689.384	0.0162466
689.462	0.0162772
689.540	0.0160921
689.618	0.0161404
689.696	0.0161890
689.774	0.0160555
689.852	0.0162038
689.931	0.0161885
690.009	0.0161162
690.087	0.0160742
690.165	0.0161929
690.243	0.0163090
690.321	0.0162275
690.399	0.0161227
690.477	0.0162453
690.556	0.0163189
690.634	0.0163498
690.712	0.0161970
690.790	0.0162088
690.868	0.0163731
690.946	0.0163074
691.024	0.0161636
691.102	0.0163527
691.181	0.0161591
691.259	0.0161929
691.337	0.0162251
691.415	0.0162284
691.493	0.0161729
691.571	0.0161623
691.649	0.0162438
691.727	0.0160999
691.806	0.0160703
691.884	0.0160707
691.962	0.0160189
692.040	0.0159917
692.118	0.0160915
692.196	0.0160561
692.274	0.0159656
692.352	0.0158752
692.431	0.0160591
692.509	0.0159308
692.587	0.0158967
692.665	0.0159321
692.743	0.0159114
692.821	0.0159567
692.899	0.0158585
692.977	0.0158351
693.056	0.0158678
693.134	0.0159059
693.212	0.0161086
693.290	0.0160667
693.368	0.0159454
693.446	0.0160555
693.524	0.0160614
693.602	0.0160429
693.681	0.0161199
693.759	0.0159530
693.837	0.0160219
693.915	0.0160706
693.993	0.0160310
694.071	0.0159757
694.149	0.0160260
694.227	0.0160104
694.306	0.0160654
694.384	0.0160740
694.462	0.0161215
694.540	0.0160966
694.618	0.0160526
694.696	0.0160229
694.774	0.0160400
694.852	0.0160545
694.931	0.0160286
695.009	0.0162251
695.087	0.0162058
695.165	0.0161831
695.243	0.0159718
695.321	0.0161407
695.399	0.0160776
695.477	0.0161779
695.556	0.0159528
695.634	0.0159981
695.712	0.0160839
695.790	0.0159599
695.868	0.0160365
695.946	0.0161265
696.024	0.0160929
696.102	0.0160645
696.181	0.0160812
696.259	0.0160285
696.337	0.0159872
696.415	0.0161448
696.493	0.0160943
696.571	0.0162365
696.649	0.0160896
696.727	0.0161153
696.806	0.0161079
696.884	0.0161216
696.962	0.0160065
697.040	0.0159779
697.118	0.0160480
697.196	0.0160801
697.274	0.0160743
697.352	0.0160477
697.431	0.0159628
697.509	0.0160132
697.587	0.0160937
697.665	0.0160365
697.743	0.0159920
697.821	0.0161266
697.899	0.0159068
697.977	0.0161709
698.056	0.0160592
698.134	0.0160865
698.212	0.0160496
698.290	0.0160553
698.368	0.0161142
698.446	0.0160114
698.524	0.0160791
698.602	0.0161381
698.681	0.0160645
698.759	0.0160800
698.837	0.0160574
698.915	0.0160249
698.993	0.0160021
699.071	0.0159794
699.149	0.0159980
699.227	0.0161473
699.306	0.0161174
699.384	0.0160516
699.462	0.0162016
699.540	0.0160170
699.618	0.0160738
699.696	0.0161060
699.774	0.0160304
699.852	0.0160645
699.931	0.0160323
700.009	0.0160078
700.087	0.0160561
700.165	0.0160236
700.243	0.0159805
700.321	0.0160509
700.399	0.0161827
700.477	0.0158824
700.556	0.0158735
700.634	0.0160876
700.712	0.0160537
700.790	0.0159431
700.868	0.0159900
700.946	0.0159716
701.024	0.0159754
701.102	0.0159167
701.181	0.0160299
701.259	0.0159943
701.337	0.0158192
701.415	0.0160181
701.493	0.0160021
701.571	0.0159321
701.649	0.0160249
701.727	0.0157567
701.806	0.0159620
701.884	0.0160376
701.962	0.0160347
702.040	0.0161092
702.118	0.0158502
702.196	0.0160129
702.274	0.0159563
702.352	0.0160289
702.431	0.0160124
702.509	0.0160354
702.587	0.0160403
702.665	0.0158916
702.743	0.0159409
702.821	0.0160110
702.899	0.0160795
702.977	0.0160809
703.056	0.0160246
703.134	0.0159341
703.212	0.0159586
703.290	0.0159147
703.368	0.0160115
703.446	0.0159737
703.524	0.0159313
703.602	0.0160744
703.681	0.0161375
703.759	0.0159668
703.837	0.0159717
703.915	0.0158534
703.993	0.0159758
704.071	0.0159691
704.149	0.0157947
704.227	0.0160201
704.306	0.0161777
704.384	0.0158818
704.462	0.0159595
704.540	0.0158296
704.618	0.0158669
704.696	0.0159395
704.774	0.0160206
704.852	0.0159505
704.931	0.0159545
705.009	0.0158189
705.087	0.0159737
705.165	0.0159854
705.243	0.0159953
705.321	0.0158519
705.399	0.0157561
705.477	0.0159919
705.556	0.0159032
705.634	0.0157502
705.712	0.0158968
705.790	0.0158553
705.868	0.0158124
705.946	0.0159204
706.024	0.0159030
706.102	0.0159916
706.181	0.0158594
706.259	0.0159720
706.337	0.0160509
706.415	0.0160062
706.493	0.0159790
706.571	0.0159029
706.649	0.0160271
706.727	0.0159582
706.806	0.0159879
706.884	0.0160290
706.962	0.0161555
707.040	0.0160772
707.118	0.0160089
707.196	0.0161384
707.274	0.0160346
707.352	0.0162102
707.431	0.0162648
707.509	0.0162187
707.587	0.0161160
707.665	0.0162224
707.743	0.0161903
707.821	0.0162857
707.899	0.0162395
707.977	0.0162100
708.056	0.0161822
708.134	0.0160991
708.212	0.0163044
708.290	0.0163707
708.368	0.0161572
708.446	0.0161263
708.524	0.0160844
708.602	0.0161279
708.681	0.0161102
708.759	0.0160527
708.837	0.0158873
708.915	0.0160390
708.993	0.0158991
709.071	0.0159530
709.149	0.0158656
709.227	0.0159113
709.306	0.0158508
709.384	0.0159188
709.462	0.0160020
709.540	0.0159758
709.618	0.0159142
709.696	0.0160011
709.774	0.0160244
709.852	0.0160246
709.931	0.0159171
710.009	0.0160950
710.087	0.0161166
710.165	0.0159353
710.243	0.0159921
710.321	0.0159969
710.399	0.0160105
710.477	0.0159871
710.556	0.0160693
710.634	0.0161400
710.712	0.0160545
710.790	0.0160111
710.868	0.0160622
710.946	0.0160776
711.024	0.0161143
711.102	0.0160820
711.181	0.0161391
711.259	0.0160959
711.337	0.0160652
711.415	0.0161287
711.493	0.0160358
711.571	0.0160487
711.649	0.0160896
711.727	0.0161205
711.806	0.0160378
711.884	0.0160760
711.962	0.0161145
712.040	0.0162234
712.118	0.0162081
712.196	0.0161829
712.274	0.0161016
712.352	0.0161654
712.431	0.0161265
712.509	0.0161207
712.587	0.0160576
712.665	0.0161208
712.743	0.0162213
712.821	0.0161287
712.899	0.0160970
712.977	0.0160931
713.056	0.0161954
713.134	0.0162692
713.212	0.0162581
713.290	0.0161817
713.368	0.0162389
713.446	0.0162373
713.524	0.0163332
713.602	0.0162904
713.681	0.0162554
713.759	0.0162672
713.837	0.0163153
713.915	0.0161439
713.993	0.0162690
714.071	0.0162030
714.149	0.0161490
714.227	0.0160803
714.306	0.0161040
714.384	0.0159855
714.462	0.0159694
714.540	0.0160259
714.618	0.0160490
714.696	0.0160136
714.774	0.0159650
714.852	0.0157766
714.931	0.0158462
715.009	0.0159487
715.087	0.0159530
715.165	0.0158575
715.243	0.0159195
715.321	0.0158197
715.399	0.0159832
715.477	0.0159376
715.556	0.0159413
715.634	0.0159373
715.712	0.0160485
715.790	0.0160371
715.868	0.0160374
715.946	0.0160019
716.024	0.0159927
716.102	0.0161487
716.181	0.0161481
716.259	0.0161503
716.337	0.0161243
716.415	0.0161771
716.493	0.0159914
716.571	0.0160728
716.649	0.0159987
716.727	0.0160213
716.806	0.0161405
716.884	0.0160283
716.962	0.0159090
717.040	0.0159451
717.118	0.0159113
717.196	0.0159902
717.274	0.0160609
717.352	0.0158868
717.431	0.0160490
717.509	0.0160204
717.587	0.0159032
717.665	0.0159448
717.743	0.0159845
717.821	0.0159365
717.899	0.0161262
717.977	0.0162080
718.056	0.0161073
718.134	0.0160491
718.212	0.0160866
718.290	0.0160566
718.368	0.0160729
718.446	0.0158147
718.524	0.0160175
718.602	0.0160861
718.681	0.0161231
718.759	0.0159185
718.837	0.0159363
718.915	0.0160602
718.993	0.0159562
719.071	0.0160190
719.149	0.0160124
719.227	0.0159279
719.306	0.0160089
719.384	0.0158875
719.462	0.0158624
719.540	0.0159667
719.618	0.0160079
719.696	0.0161556
719.774	0.0160949
719.852	0.0161145
719.931	0.0162912
720.009	0.0162022
720.087	0.0161851
720.165	0.0161666
720.243	0.0162704
720.321	0.0161649
720.399	0.0162882
720.477	0.0160252
720.556	0.0162415
720.634	0.0162689
720.712	0.0162135
720.790	0.0162531
720.868	0.0161868
720.946	0.0162790
721.024	0.0162837
721.102	0.0162461
721.181	0.0162096
721.259	0.0162554
721.337	0.0162288
721.415	0.0161175
721.493	0.0160286
721.571	0.0161275
721.649	0.0161991
721.727	0.0160603
721.806	0.0159863
721.884	0.0158944
721.962	0.0160700
722.040	0.0158788
722.118	0.0159099
722.196	0.0159125
722.274	0.0159344
722.352	0.0157653
722.431	0.0160191
722.509	0.0159059
722.587	0.0158546
722.665	0.0158667
722.743	0.0159964
722.821	0.0160475
722.899	0.0158461
722.977	0.0158755
723.056	0.0158253
723.134	0.0159332
723.212	0.0160115
723.290	0.0159274
723.368	0.0159109
723.446	0.0159633
723.524	0.0160104
723.602	0.0158744
723.681	0.0160469
723.759	0.0160210
723.837	0.0159983
723.915	0.0159296
723.993	0.0159979
724.071	0.0159539
724.149	0.0159684
724.227	0.0161871
724.306	0.0159119
724.384	0.0158874
724.462	0.0160139
724.540	0.0158537
724.618	0.0161351
724.696	0.0159621
724.774	0.0159046
724.852	0.0159994
724.931	0.0160822
725.009	0.0159352
725.087	0.0160752
725.165	0.0160840
725.243	0.0159025
725.321	0.0159785
725.399	0.0159853
725.477	0.0158847
725.556	0.0160729
725.634	0.0161828
725.712	0.0161404
725.790	0.0159880
725.868	0.0160185
725.946	0.0159821
726.024	0.0159267
726.102	0.0160174
726.181	0.0160034
726.259	0.0159789
726.337	0.0160258
726.415	0.0160061
726.493	0.0159163
726.571	0.0158976
726.649	0.0159914
726.727	0.0159998
726.806	0.0159672
726.884	0.0161086
726.962	0.0161508
727.040	0.0160201
727.118	0.0160440
727.196	0.0161773
727.274	0.0160394
727.352	0.0162811
727.431	0.0161743
727.509	0.0161780
727.587	0.0162892
727.665	0.0161839
727.743	0.0161327
727.821	0.0161781
727.899	0.0162109
727.977	0.0161935
728.056	0.0160603
728.134	0.0162508
728.212	0.0162542
728.290	0.0162307
728.368	0.0162305
728.446	0.0161643
728.524	0.0162447
728.602	0.0161685
728.681	0.0161997
728.759	0.0162721
728.837	0.0162191
728.915	0.0159996
728.993	0.0160274
729.071	0.0161832
729.149	0.0162691
729.227	0.0161610
729.306	0.0162003
729.384	0.0161985
729.462	0.0162050
729.540	0.0162291
729.618	0.0161407
729.696	0.0160418
729.774	0.0160017
729.852	0.0160902
729.931	0.0160654
730.009	0.0160435
730.087	0.0159974
730.165	0.0159705
730.243	0.0160332
730.321	0.0159725
730.399	0.0161318
730.477	0.0161466
730.556	0.0161485
730.634	0.0159783
730.712	0.0161253
730.790	0.0160854
730.868	0.0161477
730.946	0.0160018
731.024	0.0162258
731.102	0.0160964
731.181	0.0160782
731.259	0.0161645
731.337	0.0160786
731.415	0.0160197
731.493	0.0161675
731.571	0.0162534
731.649	0.0159885
731.727	0.0159900
731.806	0.0160601
731.884	0.0160596
731.962	0.0160781
732.040	0.0161934
732.118	0.0159686
732.196	0.0159570
732.274	0.0161119
732.352	0.0161817
732.431	0.0159704
732.509	0.0159554
732.587	0.0160390
732.665	0.0161159
732.743	0.0161453
732.821	0.0160144
732.899	0.0158828
732.977	0.0162137
733.056	0.0162199
733.134	0.0160944
733.212	0.0161037
733.290	0.0160740
733.368	0.0160706
733.446	0.0160592
733.524	0.0161933
733.602	0.0161522
733.681	0.0158756
733.759	0.0159608
733.837	0.0160055
733.915	0.0160268
733.993	0.0159670
734.071	0.0160361
734.149	0.0161335
734.227	0.0159876
734.306	0.0160917
734.384	0.0159821
734.462	0.0160756
734.540	0.0160540
734.618	0.0159997
734.696	0.0159114
734.774	0.0160639
734.852	0.0160381
734.931	0.0160331
735.009	0.0160025
735.087	0.0160680
735.165	0.0159607
735.243	0.0160677
735.321	0.0161548
735.399	0.0160674
735.477	0.0161401
735.556	0.0161340
735.634	0.0161022
735.712	0.0162537
735.790	0.0161652
735.868	0.0162100
735.946	0.0161272
736.024	0.0162982
736.102	0.0162905
736.181	0.0162122
736.259	0.0162781
736.337	0.0163193
736.415	0.0161508
736.493	0.0161370
736.571	0.0159727
736.649	0.0161579
736.727	0.0162080
736.806	0.0161403
736.884	0.0161851
736.962	0.0160378
737.040	0.0161395
737.118	0.0161974
737.196	0.0160423
737.274	0.0162523
737.352	0.0160336
737.431	0.0159353
737.509	0.0159902
737.587	0.0161286
737.665	0.0161122
737.743	0.0161890
737.821	0.0161768
737.899	0.0161258
737.977	0.0160744
738.056	0.0162568
738.134	0.0162080
738.212	0.0161292
738.290	0.0163377
738.368	0.0162278
738.446	0.0162321
738.524	0.0162009
738.602	0.0161459
738.681	0.0160812
738.759	0.0161668
738.837	0.0161860
738.915	0.0161327
738.993	0.0161591
739.071	0.0162597
739.149	0.0161338
739.227	0.0161102
739.306	0.0161073
739.384	0.0162902
739.462	0.0162382
739.540	0.0162680
739.618	0.0162731
739.696	0.0161954
739.774	0.0162321
739.852	0.0162171
739.931	0.0162284
740.009	0.0162129
740.087	0.0161338
740.165	0.0160903
740.243	0.0161865
740.321	0.0161230
740.399	0.0161817
740.477	0.0162418
740.556	0.0162072
740.634	0.0163045
740.712	0.0162017
740.790	0.0162799
740.868	0.0161613
740.946	0.0161441
741.024	0.0161974
741.102	0.0161306
741.181	0.0162414
741.259	0.0161541
741.337	0.0161701
741.415	0.0161707
741.493	0.0159676
741.571	0.0161832
741.649	0.0160841
741.727	0.0160931
741.806	0.0161573
741.884	0.0161538
741.962	0.0161990
742.040	0.0161005
742.118	0.0160142
742.196	0.0162948
742.274	0.0161884
742.352	0.0161562
742.431	0.0162224
742.509	0.0161355
742.587	0.0162148
742.665	0.0161732
742.743	0.0159925
742.821	0.0160622
742.899	0.0161072
742.977	0.0161510
743.056	0.0161160
743.134	0.0161755
743.212	0.0161428
743.290	0.0161603
743.368	0.0161296
743.446	0.0161533
743.524	0.0161257
743.602	0.0162088
743.681	0.0161287
743.759	0.0161272
743.837	0.0160819
743.915	0.0162446
743.993	0.0163113
744.071	0.0163222
744.149	0.0162276
744.227	0.0161680
744.306	0.0163338
744.384	0.0163235
744.462	0.0161719
744.540	0.0162353
744.618	0.0162225
744.696	0.0163613
744.774	0.0161986
744.852	0.0161134
744.931	0.0162131
745.009	0.0161910
745.087	0.0161336
745.165	0.0161157
745.243	0.0160836
745.321	0.0161626
745.399	0.0161531
745.477	0.0161393
745.556	0.0161232
745.634	0.0160446
745.712	0.0160576
745.790	0.0161629
745.868	0.0160974
745.946	0.0163081
746.024	0.0160402
746.102	0.0161951
746.181	0.0162576
746.259	0.0160715
746.337	0.0159000
746.415	0.0160770
746.493	0.0160506
746.571	0.0159512
746.649	0.0160027
746.727	0.0159591
746.806	0.0160204
746.884	0.0158196
746.962	0.0160177
747.040	0.0159666
747.118	0.0159206
747.196	0.0160272
747.274	0.0161318
747.352	0.0160403
747.431	0.0159393
747.509	0.0158190
747.587	0.0159719
747.665	0.0162269
747.743	0.0160226
747.821	0.0159526
747.899	0.0160119
747.977	0.0160779
748.056	0.0159978
748.134	0.0160178
748.212	0.0160396
748.290	0.0159719
748.368	0.0161189
748.446	0.0160614
748.524	0.0159948
748.602	0.0162250
748.681	0.0161987
748.759	0.0159556
748.837	0.0161620
748.915	0.0162290
748.993	0.0162426
749.071	0.0162013
749.149	0.0161345
749.227	0.0161244
749.306	0.0162727
749.384	0.0163116
749.462	0.0162151
749.540	0.0161211
749.618	0.0160862
749.696	0.0161996
749.774	0.0161873
749.852	0.0159951
749.931	0.0161797
750.009	0.0161658
750.087	0.0162131
750.165	0.0160873
750.243	0.0161198
750.321	0.0159386
750.399	0.0160229
750.477	0.0161495
750.556	0.0161481
750.634	0.0161250
750.712	0.0160695
750.790	0.0160194
750.868	0.0163272
750.946	0.0160039
751.024	0.0161366
751.102	0.0160850
751.181	0.0161363
751.259	0.0161528
751.337	0.0161100
751.415	0.0160707
751.493	0.0160252
751.571	0.0162109
751.649	0.0162797
751.727	0.0161545
751.806	0.0159748
751.884	0.0161375
751.962	0.0161471
752.040	0.0160648
752.118	0.0161151
752.196	0.0161378
752.274	0.0161826
752.352	0.0162606
752.431	0.0160732
752.509	0.0160363
752.587	0.0160840
752.665	0.0162475
752.743	0.0161721
752.821	0.0161931
752.899	0.0159755
752.977	0.0160351
753.056	0.0161695
753.134	0.0161018
753.212	0.0160950
753.290	0.0160010
753.368	0.0161192
753.446	0.0161457
753.524	0.0161742
753.602	0.0161488
753.681	0.0161151
753.759	0.0160244
753.837	0.0160584
753.915	0.0162099
753.993	0.0161858
754.071	0.0160661
754.149	0.0161418
754.227	0.0161291
754.306	0.0161355
754.384	0.0162070
754.462	0.0159195
754.540	0.0160345
754.618	0.0161099
754.696	0.0161486
754.774	0.0161791
754.852	0.0161263
754.931	0.0161035
755.009	0.0161626
755.087	0.0160260
755.165	0.0162208
755.243	0.0161033
755.321	0.0160754
755.399	0.0160334
755.477	0.0161726
755.556	0.0161569
755.634	0.0160400
755.712	0.0159354
755.790	0.0160055
755.868	0.0160943
755.946	0.0159528
756.024	0.0159740
756.102	0.0160219
756.181	0.0160736
756.259	0.0160210
756.337	0.0159869
756.415	0.0160482
756.493	0.0159447
756.571	0.0158664
756.649	0.0159974
756.727	0.0159441
756.806	0.0159626
756.884	0.0159973
756.962	0.0159720
757.040	0.0159639
757.118	0.0159184
757.196	0.0159177
757.274	0.0160200
757.352	0.0159732
757.431	0.0161051
757.509	0.0161741
757.587	0.0161169
757.665	0.0160256
757.743	0.0162491
757.821	0.0161662
757.899	0.0160544
757.977	0.0161214
758.056	0.0163270
758.134	0.0161909
758.212	0.0160851
758.290	0.0162666
758.368	0.0161386
758.446	0.0161838
758.524	0.0162159
758.602	0.0161375
758.681	0.0161433
758.759	0.0160705
758.837	0.0162067
758.915	0.0162303
758.993	0.0162862
759.071	0.0162019
759.149	0.0162397
759.227	0.0162679
759.306	0.0162450
759.384	0.0161932
759.462	0.0162622
759.540	0.0163482
759.618	0.0163090
759.696	0.0161713
759.774	0.0162338
759.852	0.0163403
759.931	0.0162743
760.009	0.0162223
760.087	0.0162244
760.165	0.0162887
760.243	0.0164054
760.321	0.0162717
760.399	0.0162942
760.477	0.0164115
760.556	0.0163755
760.634	0.0163074
760.712	0.0162920
760.790	0.0163266
760.868	0.0162979
760.946	0.0162753
761.024	0.0162255
761.102	0.0161651
761.181	0.0165312
761.259	0.0162576
761.337	0.0161945
761.415	0.0162074
761.493	0.0162765
761.571	0.0162499
761.649	0.0163049
761.727	0.0163101
761.806	0.0163026
761.884	0.0162488
761.962	0.0161033
762.040	0.0162267
762.118	0.0162140
762.196	0.0161116
762.274	0.0160672
762.352	0.0162497
762.431	0.0161884
762.509	0.0160006
762.587	0.0161784
762.665	0.0161781
762.743	0.0160717
762.821	0.0160971
762.899	0.0161522
762.977	0.0160445
763.056	0.0161273
763.134	0.0160685
763.212	0.0160730
763.290	0.0159781
763.368	0.0160016
763.446	0.0159565
763.524	0.0160142
763.602	0.0159435
763.681	0.0160390
763.759	0.0160715
763.837	0.0159175
763.915	0.0160525
763.993	0.0158347
764.071	0.0159710
764.149	0.0160223
764.227	0.0158459
764.306	0.0158897
764.384	0.0160240
764.462	0.0159100
764.540	0.0158739
764.618	0.0159512
764.696	0.0159934
764.774	0.0158770
764.852	0.0160908
764.931	0.0159904
765.009	0.0159392
765.087	0.0159932
765.165	0.0160443
765.243	0.0159866
765.321	0.0158923
765.399	0.0159879
765.477	0.0159397
765.556	0.0160249
765.634	0.0159900
765.712	0.0161987
765.790	0.0159881
765.868	0.0161277
765.946	0.0161066
766.024	0.0161301
766.102	0.0161584
766.181	0.0162797
766.259	0.0162012
766.337	0.0161849
766.415	0.0162650
766.493	0.0162393
766.571	0.0161786
766.649	0.0163753
766.727	0.0163504
766.806	0.0162550
766.884	0.0163061
766.962	0.0162124
767.040	0.0162563
767.118	0.0162746
767.196	0.0162397
767.274	0.0163926
767.352	0.0162858
767.431	0.0162988
767.509	0.0163689
767.587	0.0161957
767.665	0.0162691
767.743	0.0162318
767.821	0.0162930
767.899	0.0161234
767.977	0.0162994
768.056	0.0163850
768.134	0.0162028
768.212	0.0163683
768.290	0.0161726
768.368	0.0160996
768.446	0.0163757
768.524	0.0161244
768.602	0.0160501
768.681	0.0161278
768.759	0.0161465
768.837	0.0160352
768.915	0.0160923
768.993	0.0161169
769.071	0.0160232
769.149	0.0162202
769.227	0.0161935
769.306	0.0160789
769.384	0.0159794
769.462	0.0160719
769.540	0.0161279
769.618	0.0161129
769.696	0.0159966
769.774	0.0160589
769.852	0.0161190
769.931	0.0160190
770.009	0.0161417
770.087	0.0162331
770.165	0.0160484
770.243	0.0159953
770.321	0.0159821
770.399	0.0161634
770.477	0.0160921
770.556	0.0161196
770.634	0.0159621
770.712	0.0160641
770.790	0.0160439
770.868	0.0161167
770.946	0.0160643
771.024	0.0159943
771.102	0.0161359
771.181	0.0160759
771.259	0.0160670
771.337	0.0160375
771.415	0.0160486
771.493	0.0161208
771.571	0.0159561
771.649	0.0160296
771.727	0.0160556
771.806	0.0160778
771.884	0.0161097
771.962	0.0161185
772.040	0.0160130
772.118	0.0161427
772.196	0.0160201
772.274	0.0160568
772.352	0.0160403
772.431	0.0160829
772.509	0.0160811
772.587	0.0160552
772.665	0.0161275
772.743	0.0161079
772.821	0.0160459
772.899	0.0161536
772.977	0.0161010
773.056	0.0160300
773.134	0.0162009
773.212	0.0159395
773.290	0.0161642
773.368	0.0161427
773.446	0.0159953
773.524	0.0162147
773.602	0.0161425
773.681	0.0161456
773.759	0.0162553
773.837	0.0160279
773.915	0.0160767
773.993	0.0159700
774.071	0.0161253
774.149	0.0161932
774.227	0.0161792
774.306	0.0161486
774.384	0.0161585
774.462	0.0160823
774.540	0.0160725
774.618	0.0161131
774.696	0.0160940
774.774	0.0160645
774.852	0.0159017
774.931	0.0160857
775.009	0.0160123
775.087	0.0160644
775.165	0.0160564
775.243	0.0160415
775.321	0.0161618
775.399	0.0160919
775.477	0.0159862
775.556	0.0161367
775.634	0.0160662
775.712	0.0162099
775.790	0.0160717
775.868	0.0160873
775.946	0.0160962
776.024	0.0161044
776.102	0.0160863
776.181	0.0160208
776.259	0.0160409
776.337	0.0160841
776.415	0.0160622
776.493	0.0159319
776.571	0.0159763
776.649	0.0159292
776.727	0.0160485
776.806	0.0159242
776.884	0.0160005
776.962	0.0160860
777.040	0.0157950
777.118	0.0158866
777.196	0.0160141
777.274	0.0157907
777.352	0.0158917
777.431	0.0159889
777.509	0.0159837
777.587	0.0158790
777.665	0.0159262
777.743	0.0158073
777.821	0.0158951
777.899	0.0158751
777.977	0.0157742
778.056	0.0159725
778.134	0.0160158
778.212	0.0160901
778.290	0.0158575
778.368	0.0159979
778.446	0.0159145
778.524	0.0159315
778.602	0.0160187
778.681	0.0160275
778.759	0.0160026
778.837	0.0160002
778.915	0.0159106
778.993	0.0160471
779.071	0.0158092
779.149	0.0159634
779.227	0.0157876
779.306	0.0159317
779.384	0.0159396
779.462	0.0160090
779.540	0.0159494
779.618	0.0159267
779.696	0.0160144
779.774	0.0161194
779.852	0.0158979
779.931	0.0158834
780.009	0.0160483
780.087	0.0160882
780.165	0.0160818
780.243	0.0159974
780.321	0.0159723
780.399	0.0160240
780.477	0.0160942
780.556	0.0161496
780.634	0.0160542
780.712	0.0160697
780.790	0.0160256
780.868	0.0160460
780.946	0.0159689
781.024	0.0161053
781.102	0.0161003
781.181	0.0160241
781.259	0.0162299
781.337	0.0161065
781.415	0.0160050
781.493	0.0160361
781.571	0.0161146
781.649	0.0161945
781.727	0.0161530
781.806	0.0161341
781.884	0.0162876
781.962	0.0161575
782.040	0.0161182
782.118	0.0160799
782.196	0.0162037
782.274	0.0163103
782.352	0.0161512
782.431	0.0161121
782.509	0.0161023
782.587	0.0161987
782.665	0.0161732
782.743	0.0160958
782.821	0.0161560
782.899	0.0161337
782.977	0.0161769
783.056	0.0160447
783.134	0.0160844
783.212	0.0161566
783.290	0.0160886
783.368	0.0161801
783.446	0.0162009
783.524	0.0161947
783.602	0.0161148
783.681	0.0160417
783.759	0.0161352
783.837	0.0162598
783.915	0.0161727
783.993	0.0160686
784.071	0.0160610
784.149	0.0161181
784.227	0.0161282
784.306	0.0161909
784.384	0.0161266
784.462	0.0161854
784.540	0.0160938
784.618	0.0161009
784.696	0.0162363
784.774	0.0162025
784.852	0.0161855
784.931	0.0160828
785.009	0.0161411
785.087	0.0162873
785.165	0.0161535
785.243	0.0161172
785.321	0.0161378
785.399	0.0161159
785.477	0.0161900
785.556	0.0161051
785.634	0.0161379
785.712	0.0160719
785.790	0.0160814
785.868	0.0161225
785.946	0.0160555
786.024	0.0160863
786.102	0.0160666
786.181	0.0161442
786.259	0.0160461
786.337	0.0159937
786.415	0.0161361
786.493	0.0159907
786.571	0.0160766
786.649	0.0159161
786.727	0.0160946
786.806	0.0159572
786.884	0.0160736
786.962	0.0160763
787.040	0.0159564
787.118	0.0160786
787.196	0.0159781
787.274	0.0160163
787.352	0.0161196
787.431	0.0160920
787.509	0.0160922
787.587	0.0161232
787.665	0.0160767
787.743	0.0160769
787.821	0.0161056
787.899	0.0160720
787.977	0.0160112
788.056	0.0161230
788.134	0.0160602
788.212	0.0161286
788.290	0.0161584
788.368	0.0161170
788.446	0.0160806
788.524	0.0162969
788.602	0.0162364
788.681	0.0161741
788.759	0.0161393
788.837	0.0161204
788.915	0.0160379
788.993	0.0161461
789.071	0.0161340
789.149	0.0160701
789.227	0.0159958
789.306	0.0161546
789.384	0.0161099
789.462	0.0160323
789.540	0.0160811
789.618	0.0158958
789.696	0.0160936
789.774	0.0158749
789.852	0.0158710
789.931	0.0161096
790.009	0.0160684
790.087	0.0159807
790.165	0.0158855
790.243	0.0158889
790.321	0.0159966
790.399	0.0160854
790.477	0.0158533
790.556	0.0158939
790.634	0.0160079
790.712	0.0158530
790.790	0.0160046
790.868	0.0160444
790.946	0.0159075
791.024	0.0159972
791.102	0.0160143
791.181	0.0159767
791.259	0.0160616
791.337	0.0160013
791.415	0.0160272
791.493	0.0161937
791.571	0.0159564
791.649	0.0160658
791.727	0.0161929
791.806	0.0163351
791.884	0.0161209
791.962	0.0160983
792.040	0.0162611
792.118	0.0160751
792.196	0.0161083
792.274	0.0161628
792.352	0.0162984
792.431	0.0161468
792.509	0.0161993
792.587	0.0161210
792.665	0.0162300
792.743	0.0161257
792.821	0.0161953
792.899	0.0163364
792.977	0.0161165
793.056	0.0161235
793.134	0.0161973
793.212	0.0161560
793.290	0.0160289
793.368	0.0159459
793.446	0.0160820
793.524	0.0160609
793.602	0.0160867
793.681	0.0161712
793.759	0.0160935
793.837	0.0161113
793.915	0.0161378
793.993	0.0160326
794.071	0.0160373
794.149	0.0161176
794.227	0.0160938
794.306	0.0159405
794.384	0.0161236
794.462	0.0160953
794.540	0.0160387
794.618	0.0159657
794.696	0.0158160
794.774	0.0159449
794.852	0.0160537
794.931	0.0159011
795.009	0.0160001
795.087	0.0159869
795.165	0.0159944
795.243	0.0159750
795.321	0.0158516
795.399	0.0159189
795.477	0.0159970
795.556	0.0159773
795.634	0.0159478
795.712	0.0160004
795.790	0.0159037
795.868	0.0160680
795.946	0.0159840
796.024	0.0160229
796.102	0.0160938
796.181	0.0160321
796.259	0.0160516
796.337	0.0160591
796.415	0.0160414
796.493	0.0160628
796.571	0.0160159
796.649	0.0159775
796.727	0.0161462
796.806	0.0160236
796.884	0.0159859
796.962	0.0162469
797.040	0.0160712
797.118	0.0160995
797.196	0.0161211
797.274	0.0160498
797.352	0.0161774
797.431	0.0160817
797.509	0.0161314
797.587	0.0160770
797.665	0.0161808
797.743	0.0161568
797.821	0.0160784
797.899	0.0161331
797.977	0.0161493
798.056	0.0161745
798.134	0.0161349
798.212	0.0160925
798.290	0.0162878
798.368	0.0162225
798.446	0.0161792
798.524	0.0161214
798.602	0.0161617
798.681	0.0161992
798.759	0.0163065
798.837	0.0161036
798.915	0.0161204
798.993	0.0162749
799.071	0.0162222
799.149	0.0160506
799.227	0.0162617
799.306	0.0160803
799.384	0.0160280
799.462	0.0161301
799.540	0.0161220
799.618	0.0161079
799.696	0.0161205
799.774	0.0161886
799.852	0.0161340
799.931	0.0160787
800.009	0.0160946
800.087	0.0159071
800.165	0.0160334
800.243	0.0160077
800.321	0.0159447
800.399	0.0161230
800.477	0.0160907
800.556	0.0160330
800.634	0.0160327
800.712	0.0159849
800.790	0.0159372
800.868	0.0160117
800.946	0.0159607
801.024	0.0159081
801.102	0.0159647
801.181	0.0160046
801.259	0.0160451
801.337	0.0160657
801.415	0.0159039
801.493	0.0160066
801.571	0.0158766
801.649	0.0157893
801.727	0.0159275
801.806	0.0158014
801.884	0.0158739
801.962	0.0160480
802.040	0.0159004
802.118	0.0160803
802.196	0.0160950
802.274	0.0159303
802.352	0.0158521
802.431	0.0158554
802.509	0.0160372
802.587	0.0158678
802.665	0.0159444
802.743	0.0159847
802.821	0.0159943
802.899	0.0159266
802.977	0.0159866
803.056	0.0159393
803.134	0.0161323
803.212	0.0160049
803.290	0.0159602
803.368	0.0161642
803.446	0.0159682
803.524	0.0159295
803.602	0.0159380
803.681	0.0160283
803.759	0.0159760
803.837	0.0161198
803.915	0.0159744
803.993	0.0161315
804.071	0.0161510
804.149	0.0159754
804.227	0.0159940
804.306	0.0160989
804.384	0.0160662
804.462	0.0160331
804.540	0.0160298
804.618	0.0161561
804.696	0.0161115
804.774	0.0162257
804.852	0.0162117
804.931	0.0161322
805.009	0.0161249
805.087	0.0161885
805.165	0.0162349
805.243	0.0161872
805.321	0.0162702
805.399	0.0161371
805.477	0.0161288
805.556	0.0161831
805.634	0.0161655
805.712	0.0160630
805.790	0.0162763
805.868	0.0163439
805.946	0.0160523
806.024	0.0161089
806.102	0.0162196
806.181	0.0161533
806.259	0.0160266
806.337	0.0160346
806.415	0.0161538
806.493	0.0161369
806.571	0.0161883
806.649	0.0160372
806.727	0.0160422
806.806	0.0161341
806.884	0.0160417
806.962	0.0162268
807.040	0.0161065
807.118	0.0160153
807.196	0.0160789
807.274	0.0161259
807.352	0.0160449
807.431	0.0159433
807.509	0.0159191
807.587	0.0160912
807.665	0.0162182
807.743	0.0160287
807.821	0.0160049
807.899	0.0160857
807.977	0.0160735
808.056	0.0160119
808.134	0.0160474
808.212	0.0161129
808.290	0.0160519
808.368	0.0161754
808.446	0.0159978
808.524	0.0158871
808.602	0.0160222
808.681	0.0160915
808.759	0.0161595
808.837	0.0160736
808.915	0.0160976
808.993	0.0161258
809.071	0.0161528
809.149	0.0159356
809.227	0.0160999
809.306	0.0160612
809.384	0.0160372
809.462	0.0160711
809.540	0.0160100
809.618	0.0160648
809.696	0.0161651
809.774	0.0161147
809.852	0.0160584
809.931	0.0160765
810.009	0.0161425
810.087	0.0162434
810.165	0.0161752
810.243	0.0161671
810.321	0.0161270
810.399	0.0161930
810.477	0.0159872
810.556	0.0162253
810.634	0.0161242
810.712	0.0161422
810.790	0.0162228
810.868	0.0162155
810.946	0.0161364
811.024	0.0160495
811.102	0.0163355
811.181	0.0161111
811.259	0.0161365
811.337	0.0162570
811.415	0.0160360
811.493	0.0160852
811.571	0.0161303
811.649	0.0161282
811.727	0.0161756
811.806	0.0160894
811.884	0.0161008
811.962	0.0162249
812.040	0.0162280
812.118	0.0161369
812.196	0.0160649
812.274	0.0161613
812.352	0.0159844
812.431	0.0160284
812.509	0.0160733
812.587	0.0160416
812.665	0.0161190
812.743	0.0159554
812.821	0.0159847
812.899	0.0160447
812.977	0.0159952
813.056	0.0159778
813.134	0.0160008
813.212	0.0161060
813.290	0.0160595
813.368	0.0159211
813.446	0.0160690
813.524	0.0160950
813.602	0.0159460
813.681	0.0161714
813.759	0.0160739
813.837	0.0161221
813.915	0.0161477
813.993	0.0161151
814.071	0.0161349
814.149	0.0160480
814.227	0.0160685
814.306	0.0159944
814.384	0.0160330
814.462	0.0161103
814.540	0.0160825
814.618	0.0163000
814.696	0.0161772
814.774	0.0159952
814.852	0.0161456
814.931	0.0160954
815.009	0.0162070
815.087	0.0161967
815.165	0.0161449
815.243	0.0162132
815.321	0.0162034
815.399	0.0161908
815.477	0.0162598
815.556	0.0162285
815.634	0.0162949
815.712	0.0163365
815.790	0.0163129
815.868	0.0161106
815.946	0.0162379
816.024	0.0161647
816.102	0.0162587
816.181	0.0161691
816.259	0.0162440
816.337	0.0162511
816.415	0.0164033
816.493	0.0163280
816.571	0.0161251
816.649	0.0162414
816.727	0.0161887
816.806	0.0161845
816.884	0.0161308
816.962	0.0160746
817.040	0.0161975
817.118	0.0162708
817.196	0.0162275
817.274	0.0163531
817.352	0.0160632
817.431	0.0159964
817.509	0.0161433
817.587	0.0162104
817.665	0.0161508
817.743	0.0161623
817.821	0.0160609
817.899	0.0160534
817.977	0.0162061
818.056	0.0161958
818.134	0.0161211
818.212	0.0160689
818.290	0.0159770
818.368	0.0160996
818.446	0.0159684
818.524	0.0160657
818.602	0.0159476
818.681	0.0159317
818.759	0.0160423
818.837	0.0160329
818.915	0.0161076
818.993	0.0161168
819.071	0.0159528
819.149	0.0159482
819.227	0.0160180
819.306	0.0159609
819.384	0.0159054
819.462	0.0159360
819.540	0.0159909
819.618	0.0160815
819.696	0.0160110
819.774	0.0161185
819.852	0.0160866
819.931	0.0159243
820.009	0.0161294
820.087	0.0161169
820.165	0.0160389
820.243	0.0160429
820.321	0.0159190
820.399	0.0160209
820.477	0.0160226
820.556	0.0160551
820.634	0.0161130
820.712	0.0160206
820.790	0.0162297
820.868	0.0161308
820.946	0.0161075
821.024	0.0161082
821.102	0.0161713
821.181	0.0160496
821.259	0.0162354
821.337	0.0161773
821.415	0.0161848
821.493	0.0161079
821.571	0.0161864
821.649	0.0160670
821.727	0.0161720
821.806	0.0160964
821.884	0.0160785
821.962	0.0161224
822.040	0.0161183
822.118	0.0161075
822.196	0.0161894
822.274	0.0161590
822.352	0.0162391
822.431	0.0161947
822.509	0.0160320
822.587	0.0162221
822.665	0.0160786
822.743	0.0161575
822.821	0.0159977
822.899	0.0161599
822.977	0.0161111
823.056	0.0161699
823.134	0.0161467
823.212	0.0160794
823.290	0.0160195
823.368	0.0161681
823.446	0.0160260
823.524	0.0158489
823.602	0.0159413
823.681	0.0159766
823.759	0.0159763
823.837	0.0159898
823.915	0.0160416
823.993	0.0158555
824.071	0.0160066
824.149	0.0158275
824.227	0.0159673
824.306	0.0159482
824.384	0.0159207
824.462	0.0158823
824.540	0.0158671
824.618	0.0160283
824.696	0.0160673
824.774	0.0161266
824.852	0.0160425
824.931	0.0160377
825.009	0.0159988
825.087	0.0160648
825.165	0.0159920
825.243	0.0159381
825.321	0.0159730
825.399	0.0159360
825.477	0.0159128
825.556	0.0160654
825.634	0.0159808
825.712	0.0161433
825.790	0.0159016
825.868	0.0160741
825.946	0.0160624
826.024	0.0159016
826.102	0.0159737
826.181	0.0159919
826.259	0.0160315
826.337	0.0161164
826.415	0.0160255
826.493	0.0159927
826.571	0.0160453
826.649	0.0161246
826.727	0.0162333
826.806	0.0161906
826.884	0.0160361
826.962	0.0161146
827.040	0.0160850
827.118	0.0162121
827.196	0.0162099
827.274	0.0161450
827.352	0.0161501
827.431	0.0160869
827.509	0.0161384
827.587	0.0161050
827.665	0.0161149
827.743	0.0162278
827.821	0.0161349
827.899	0.0160733
827.977	0.0161010
828.056	0.0161761
828.134	0.0161152
828.212	0.0162448
828.290	0.0160891
828.368	0.0162171
828.446	0.0160557
828.524	0.0160840
828.602	0.0162798
828.681	0.0159494
828.759	0.0160159
828.837	0.0161295
828.915	0.0159985
828.993	0.0160182
829.071	0.0160216
829.149	0.0160137
829.227	0.0161556
829.306	0.0160915
829.384	0.0160787
829.462	0.0161383
829.540	0.0159536
829.618	0.0161730
829.696	0.0160513
829.774	0.0158928
829.852	0.0160082
829.931	0.0159294
830.009	0.0160082
830.087	0.0160124
830.165	0.0161067
830.243	0.0161297
830.321	0.0161565
830.399	0.0161871
830.477	0.0161732
830.556	0.0161166
830.634	0.0161264
830.712	0.0159969
830.790	0.0160609
830.868	0.0160092
830.946	0.0163099
831.024	0.0161388
831.102	0.0160860
831.181	0.0160593
831.259	0.0160396
831.337	0.0160895
831.415	0.0161716
831.493	0.0161752
831.571	0.0161575
831.649	0.0160534
831.727	0.0159577
831.806	0.0161011
831.884	0.0161015
831.962	0.0161794
832.040	0.0159927
832.118	0.0160918
832.196	0.0161613
832.274	0.0161256
832.352	0.0160296
832.431	0.0159686
832.509	0.0160497
832.587	0.0160084
832.665	0.0160259
832.743	0.0161237
832.821	0.0161146
832.899	0.0161459
832.977	0.0160759
833.056	0.0159856
833.134	0.0161257
833.212	0.0161274
833.290	0.0161739
833.368	0.0161366
833.446	0.0160338
833.524	0.0161484
833.602	0.0161515
833.681	0.0160936
833.759	0.0161335
833.837	0.0163223
833.915	0.0162082
833.993	0.0163522
834.071	0.0163386
834.149	0.0162639
834.227	0.0162006
834.306	0.0162267
834.384	0.0160963
834.462	0.0163613
834.540	0.0161239
834.618	0.0161718
834.696	0.0160965
834.774	0.0161896
834.852	0.0162122
834.931	0.0161627
835.009	0.0162901
835.087	0.0162601
835.165	0.0161828
835.243	0.0161646
835.321	0.0161784
835.399	0.0162476
835.477	0.0162199
835.556	0.0161920
835.634	0.0163069
835.712	0.0162421
835.790	0.0162138
835.868	0.0162376
835.946	0.0161498
836.024	0.0161167
836.102	0.0161369
836.181	0.0161420
836.259	0.0162313
836.337	0.0162439
836.415	0.0161173
836.493	0.0161366
836.571	0.0161350
836.649	0.0161697
836.727	0.0161233
836.806	0.0160336
836.884	0.0162141
836.962	0.0161923
837.040	0.0161302
837.118	0.0161505
837.196	0.0161237
837.274	0.0159568
837.352	0.0160011
837.431	0.0161218
837.509	0.0161996
837.587	0.0160191
837.665	0.0160461
837.743	0.0161247
837.821	0.0160449
837.899	0.0160091
837.977	0.0161816
838.056	0.0160963
838.134	0.0161185
838.212	0.0160555
838.290	0.0159819
838.368	0.0161507
838.446	0.0160875
838.524	0.0160970
838.602	0.0161221
838.681	0.0162708
838.759	0.0160775
838.837	0.0160515
838.915	0.0162125
838.993	0.0161271
839.071	0.0159685
839.149	0.0161664
839.227	0.0161393
839.306	0.0161143
839.384	0.0160715
839.462	0.0162465
839.540	0.0160549
839.618	0.0161092
839.696	0.0161605
839.774	0.0162200
839.852	0.0161926
839.931	0.0161587
840.009	0.0161240
840.087	0.0159846
840.165	0.0162034
840.243	0.0162933
840.321	0.0160935
840.399	0.0162615
840.477	0.0161389
840.556	0.0160964
840.634	0.0160615
840.712	0.0161406
840.790	0.0161082
840.868	0.0160328
840.946	0.0160091
841.024	0.0161002
841.102	0.0161399
841.181	0.0161003
841.259	0.0160791
841.337	0.0160458
841.415	0.0161353
841.493	0.0159595
841.571	0.0161236
841.649	0.0162012
841.727	0.0160666
841.806	0.0161249
841.884	0.0161229
841.962	0.0160593
842.040	0.0161167
842.118	0.0163208
842.196	0.0161343
842.274	0.0160933
842.352	0.0161428
842.431	0.0162432
842.509	0.0161701
842.587	0.0161379
842.665	0.0162070
842.743	0.0160774
842.821	0.0159850
842.899	0.0161757
842.977	0.0160679
843.056	0.0161720
843.134	0.0161498
843.212	0.0161137
843.290	0.0160760
843.368	0.0161467
843.446	0.0160505
843.524	0.0161042
843.602	0.0160843
843.681	0.0160922
843.759	0.0161489
843.837	0.0159950
843.915	0.0161337
843.993	0.0160003
844.071	0.0161496
844.149	0.0160862
844.227	0.0157887
844.306	0.0161316
844.384	0.0160899
844.462	0.0161122
844.540	0.0159484
844.618	0.0160690
844.696	0.0160284
844.774	0.0160303
844.852	0.0161505
844.931	0.0160318
845.009	0.0161295
845.087	0.0160535
845.165	0.0158897
845.243	0.0160789
845.321	0.0162172
845.399	0.0160700
845.477	0.0159884
845.556	0.0159091
845.634	0.0159904
845.712	0.0161481
845.790	0.0161082
845.868	0.0161370
845.946	0.0161123
846.024	0.0160149
846.102	0.0160089
846.181	0.0159130
846.259	0.0162206
846.337	0.0161588
846.415	0.0160864
846.493	0.0160850
846.571	0.0161136
846.649	0.0162072
846.727	0.0161461
846.806	0.0161168
846.884	0.0160327
846.962	0.0160483
847.040	0.0161314
847.118	0.0159529
847.196	0.0162057
847.274	0.0162471
847.352	0.0161047
847.431	0.0161913
847.509	0.0161829
847.587	0.0162044
847.665	0.0160619
847.743	0.0160605
847.821	0.0161263
847.899	0.0160739
847.977	0.0161124
848.056	0.0159812
848.134	0.0161990
848.212	0.0161840
848.290	0.0161184
848.368	0.0160590
848.446	0.0160512
848.524	0.0161139
848.602	0.0160886
848.681	0.0160213
848.759	0.0160094
848.837	0.0161832
848.915	0.0160164
848.993	0.0160058
849.071	0.0159072
849.149	0.0159843
849.227	0.0161328
849.306	0.0159406
849.384	0.0160751
849.462	0.0160564
849.540	0.0160629
849.618	0.0160482
849.696	0.0159379
849.774	0.0161089
849.852	0.0161805
849.931	0.0159474
850.009	0.0160719
850.087	0.0160655
850.165	0.0161731
850.243	0.0161065
850.321	0.0160185
850.399	0.0159040
850.477	0.0160014
850.556	0.0160433
850.634	0.0159603
850.712	0.0159676
850.790	0.0161131
850.868	0.0161354
850.946	0.0160479
851.024	0.0160034
851.102	0.0161045
851.181	0.0161000
851.259	0.0161631
851.337	0.0161359
851.415	0.0161450
851.493	0.0161595
851.571	0.0161414
851.649	0.0159709
851.727	0.0159880
851.806	0.0160950
851.884	0.0161118
851.962	0.0161065
852.040	0.0161684
852.118	0.0162204
852.196	0.0160122
852.274	0.0163456
852.352	0.0161327
852.431	0.0161887
852.509	0.0162646
852.587	0.0161343
852.665	0.0161400
852.743	0.0161295
852.821	0.0161953
852.899	0.0160566
852.977	0.0160632
853.056	0.0159919
853.134	0.0160781
853.212	0.0161170
853.290	0.0159985
853.368	0.0161151
853.446	0.0161552
853.524	0.0161518
853.602	0.0161639
853.681	0.0159075
853.759	0.0160281
853.837	0.0160815
853.915	0.0160612
853.993	0.0161396
854.071	0.0159064
854.149	0.0160921
854.227	0.0160767
854.306	0.0160049
854.384	0.0159928
854.462	0.0159291
854.540	0.0159389
854.618	0.0159187
854.696	0.0160983
854.774	0.0160841
854.852	0.0159383
854.931	0.0160558
855.009	0.0160351
855.087	0.0159520
855.165	0.0161180
855.243	0.0160797
855.321	0.0159659
855.399	0.0159713
855.477	0.0160502
855.556	0.0161884
855.634	0.0160716
855.712	0.0159680
855.790	0.0160908
855.868	0.0162724
855.946	0.0160405
856.024	0.0158945
856.102	0.0161542
856.181	0.0161523
856.259	0.0161054
856.337	0.0161994
856.415	0.0160979
856.493	0.0160921
856.571	0.0162437
856.649	0.0163039
856.727	0.0161808
856.806	0.0161030
856.884	0.0161369
856.962	0.0162325
857.040	0.0161935
857.118	0.0160985
857.196	0.0160962
857.274	0.0159930
857.352	0.0161702
857.431	0.0161048
857.509	0.0161163
857.587	0.0162175
857.665	0.0161286
857.743	0.0161152
857.821	0.0161388
857.899	0.0162207
857.977	0.0161127
858.056	0.0161030
858.134	0.0163095
858.212	0.0161820
858.290	0.0161677
858.368	0.0162031
858.446	0.0161466
858.524	0.0161337
858.602	0.0161684
858.681	0.0161305
858.759	0.0160893
858.837	0.0161188
858.915	0.0161337
858.993	0.0160833
859.071	0.0161865
859.149	0.0162337
859.227	0.0160230
859.306	0.0161206
859.384	0.0160850
859.462	0.0161144
859.540	0.0161443
859.618	0.0161112
859.696	0.0162020
859.774	0.0161562
859.852	0.0159923
859.931	0.0159810
860.009	0.0160712
860.087	0.0159808
860.165	0.0161333
860.243	0.0159378
860.321	0.0162135
860.399	0.0160632
860.477	0.0159659
860.556	0.0160482
860.634	0.0161748
860.712	0.0161435
860.790	0.0160741
860.868	0.0160523
860.946	0.0161415
861.024	0.0161012
861.102	0.0161832
861.181	0.0162101
861.259	0.0160698
861.337	0.0160494
861.415	0.0161975
861.493	0.0161195
861.571	0.0161832
861.649	0.0162006
861.727	0.0161434
861.806	0.0161792
861.884	0.0162400
861.962	0.0161408
862.040	0.0161879
862.118	0.0162488
862.196	0.0161771
862.274	0.0163443
862.352	0.0162347
862.431	0.0163515
862.509	0.0162762
862.587	0.0163557
862.665	0.0161319
862.743	0.0161333
862.821	0.0162314
862.899	0.0161829
862.977	0.0161691
863.056	0.0161932
863.134	0.0162579
863.212	0.0160550
863.290	0.0160610
863.368	0.0160371
863.446	0.0160439
863.524	0.0162512
863.602	0.0161295
863.681	0.0161560
863.759	0.0160806
863.837	0.0160253
863.915	0.0161555
863.993	0.0160238
864.071	0.0159771
864.149	0.0160390
864.227	0.0159707
864.306	0.0159862
864.384	0.0159210
864.462	0.0158740
864.540	0.0160210
864.618	0.0160276
864.696	0.0159322
864.774	0.0160934
864.852	0.0158573
864.931	0.0158791
865.009	0.0158966
865.087	0.0158672
865.165	0.0159125
865.243	0.0160248
865.321	0.0158993
865.399	0.0158246
865.477	0.0158788
865.556	0.0160608
865.634	0.0159984
865.712	0.0160027
865.790	0.0159765
865.868	0.0159130
865.946	0.0159833
866.024	0.0159686
866.102	0.0159836
866.181	0.0161036
866.259	0.0160809
866.337	0.0159779
866.415	0.0160881
866.493	0.0161359
866.571	0.0161343
866.649	0.0161082
866.727	0.0161297
866.806	0.0161723
866.884	0.0160310
866.962	0.0160568
867.040	0.0161179
867.118	0.0160111
867.196	0.0159449
867.274	0.0159808
867.352	0.0159151
867.431	0.0159765
867.509	0.0159576
867.587	0.0160657
867.665	0.0160059
867.743	0.0159483
867.821	0.0159353
867.899	0.0161594
867.977	0.0160973
868.056	0.0159186
868.134	0.0160514
868.212	0.0159800
868.290	0.0159927
868.368	0.0159855
868.446	0.0160185
868.524	0.0160409
868.602	0.0160258
868.681	0.0161086
868.759	0.0159732
868.837	0.0161099
868.915	0.0160421
868.993	0.0160061
869.071	0.0159637
869.149	0.0162330
869.227	0.0161819
869.306	0.0162232
869.384	0.0160397
869.462	0.0160511
869.540	0.0160954
869.618	0.0161182
869.696	0.0161502
869.774	0.0161304
869.852	0.0161644
869.931	0.0161330
870.009	0.0161677
870.087	0.0160415
870.165	0.0162038
870.243	0.0161855
870.321	0.0160456
870.399	0.0160607
870.477	0.0161190
870.556	0.0161581
870.634	0.0161533
870.712	0.0159451
870.790	0.0161412
870.868	0.0160736
870.946	0.0160840
871.024	0.0160281
871.102	0.0160261
871.181	0.0160091
871.259	0.0161205
871.337	0.0160417
871.415	0.0160941
871.493	0.0158909
871.571	0.0159000
871.649	0.0159281
871.727	0.0159828
871.806	0.0158975
871.884	0.0160384
871.962	0.0159694
872.040	0.0159516
872.118	0.0160001
872.196	0.0160362
872.274	0.0160439
872.352	0.0159559
872.431	0.0159679
872.509	0.0158111
872.587	0.0159245
872.665	0.0159672
872.743	0.0159830
872.821	0.0159483
872.899	0.0158952
872.977	0.0159500
873.056	0.0159418
873.134	0.0159938
873.212	0.0160221
873.290	0.0159272
873.368	0.0159979
873.446	0.0159686
873.524	0.0159698
873.602	0.0160181
873.681	0.0160120
873.759	0.0160838
873.837	0.0161170
873.915	0.0161629
873.993	0.0160658
874.071	0.0161866
874.149	0.0160191
874.227	0.0160675
874.306	0.0162401
874.384	0.0162019
874.462	0.0162747
874.540	0.0160796
874.618	0.0162402
874.696	0.0162207
874.774	0.0161366
874.852	0.0162553
874.931	0.0161749
875.009	0.0161434
875.087	0.0162614
875.165	0.0162043
875.243	0.0162971
875.321	0.0160435
875.399	0.0162538
875.477	0.0162811
875.556	0.0161977
875.634	0.0160968
875.712	0.0161736
875.790	0.0161935
875.868	0.0160854
875.946	0.0162305
876.024	0.0161981
876.102	0.0160742
876.181	0.0161319
876.259	0.0161563
876.337	0.0162145
876.415	0.0162547
876.493	0.0161507
876.571	0.0160347
876.649	0.0161123
876.727	0.0160045
876.806	0.0161472
876.884	0.0161141
876.962	0.0159476
877.040	0.0161384
877.118	0.0161586
877.196	0.0160928
877.274	0.0160776
877.352	0.0161343
877.431	0.0160718
877.509	0.0160227
877.587	0.0159256
877.665	0.0161236
877.743	0.0160426
877.821	0.0159345
877.899	0.0161357
877.977	0.0159772
878.056	0.0159687
878.134	0.0157738
878.212	0.0159724
878.290	0.0161072
878.368	0.0159429
878.446	0.0158498
878.524	0.0160679
878.602	0.0159968
878.681	0.0159465
878.759	0.0159349
878.837	0.0158745
878.915	0.0159246
878.993	0.0159220
879.071	0.0159147
879.149	0.0157986
879.227	0.0158510
879.306	0.0160579
879.384	0.0160313
879.462	0.0159994
879.540	0.0159103
879.618	0.0160507
879.696	0.0159933
879.774	0.0160740
879.852	0.0160842
879.931	0.0161569
880.009	0.0160623
880.087	0.0161638
880.165	0.0159631
880.243	0.0160985
880.321	0.0160722
880.399	0.0161630
880.477	0.0161063
880.556	0.0161851
880.634	0.0160717
880.712	0.0161789
880.790	0.0161750
880.868	0.0161266
880.946	0.0159874
881.024	0.0161033
881.102	0.0161730
881.181	0.0162793
881.259	0.0161500
881.337	0.0160459
881.415	0.0162103
881.493	0.0160590
881.571	0.0161250
881.649	0.0161092
881.727	0.0161050
881.806	0.0161584
881.884	0.0161594
881.962	0.0161098
882.040	0.0161342
882.118	0.0161890
882.196	0.0161086
882.274	0.0160626
882.352	0.0159898
882.431	0.0160903
882.509	0.0160855
882.587	0.0160592
882.665	0.0160423
882.743	0.0161003
882.821	0.0160600
882.899	0.0159875
882.977	0.0161440
883.056	0.0160031
883.134	0.0159847
883.212	0.0160662
883.290	0.0161025
883.368	0.0159818
883.446	0.0160090
883.524	0.0161234
883.602	0.0160611
883.681	0.0160144
883.759	0.0161348
883.837	0.0161129
883.915	0.0160242
883.993	0.0160410
884.071	0.0160300
884.149	0.0159808
884.227	0.0159736
884.306	0.0161607
884.384	0.0160804
884.462	0.0159339
884.540	0.0159916
884.618	0.0160822
884.696	0.0160728
884.774	0.0160928
884.852	0.0159645
884.931	0.0160306
885.009	0.0160409
885.087	0.0161636
885.165	0.0161431
885.243	0.0162373
885.321	0.0161001
885.399	0.0162063
885.477	0.0161308
885.556	0.0161130
885.634	0.0162000
885.712	0.0161464
885.790	0.0161241
885.868	0.0161564
885.946	0.0162283
886.024	0.0161903
886.102	0.0162124
886.181	0.0162211
886.259	0.0161479
886.337	0.0161713
886.415	0.0161787
886.493	0.0162372
886.571	0.0161977
886.649	0.0160277
886.727	0.0162080
886.806	0.0162501
886.884	0.0161091
886.962	0.0161773
887.040	0.0161163
887.118	0.0162679
887.196	0.0162164
887.274	0.0162393
887.352	0.0161572
887.431	0.0160544
887.509	0.0161523
887.587	0.0162454
887.665	0.0162008
887.743	0.0160915
887.821	0.0161681
887.899	0.0160941
887.977	0.0162164
888.056	0.0161348
888.134	0.0160905
888.212	0.0160346
888.290	0.0160872
888.368	0.0160303
888.446	0.0161293
888.524	0.0160757
888.602	0.0160538
888.681	0.0161768
888.759	0.0160908
888.837	0.0161150
888.915	0.0159754
888.993	0.0160481
889.071	0.0161298
889.149	0.0160826
889.227	0.0161307
889.306	0.0160607
889.384	0.0160692
889.462	0.0160273
889.540	0.0160339
889.618	0.0159178
889.696	0.0160388
889.774	0.0161478
889.852	0.0160454
889.931	0.0160189
890.009	0.0160905
890.087	0.0159126
890.165	0.0161207
890.243	0.0161187
890.321	0.0160633
890.399	0.0160957
890.477	0.0160233
890.556	0.0159586
890.634	0.0162228
890.712	0.0161411
890.790	0.0161016
890.868	0.0160616
890.946	0.0160007
891.024	0.0161102
891.102	0.0161063
891.181	0.0161591
891.259	0.0161919
891.337	0.0161025
891.415	0.0160929
891.493	0.0161438
891.571	0.0161022
891.649	0.0161787
891.727	0.0161737
891.806	0.0160162
891.884	0.0161843
891.962	0.0161131
892.040	0.0160328
892.118	0.0160697
892.196	0.0160088
892.274	0.0160446
892.352	0.0161868
892.431	0.0161234
892.509	0.0160350
892.587	0.0160423
892.665	0.0162160
892.743	0.0161051
892.821	0.0160503
892.899	0.0161604
892.977	0.0160533
893.056	0.0161054
893.134	0.0161336
893.212	0.0160988
893.290	0.0160543
893.368	0.0160960
893.446	0.0161539
893.524	0.0162609
893.602	0.0161782
893.681	0.0162534
893.759	0.0161809
893.837	0.0161504
893.915	0.0160667
893.993	0.0161050
894.071	0.0161546
894.149	0.0160258
894.227	0.0160667
894.306	0.0160317
894.384	0.0160620
894.462	0.0160653
894.540	0.0158722
894.618	0.0158883
894.696	0.0160139
894.774	0.0160641
894.852	0.0158624
894.931	0.0159297
895.009	0.0158674
895.087	0.0158442
895.165	0.0157766
895.243	0.0159059
895.321	0.0157848
895.399	0.0159891
895.477	0.0158714
895.556	0.0159044
895.634	0.0158630
895.712	0.0159945
895.790	0.0159173
895.868	0.0160461
895.946	0.0160563
896.024	0.0160709
896.102	0.0161797
896.181	0.0160933
896.259	0.0161391
896.337	0.0161439
896.415	0.0159702
896.493	0.0160577
896.571	0.0162274
896.649	0.0161958
896.727	0.0162326
896.806	0.0162163
896.884	0.0162173
896.962	0.0162461
897.040	0.0162393
897.118	0.0162548
897.196	0.0161321
897.274	0.0161905
897.352	0.0162688
897.431	0.0161978
897.509	0.0162225
897.587	0.0162301
897.665	0.0162303
897.743	0.0162387
897.821	0.0160787
897.899	0.0160656
897.977	0.0163284
898.056	0.0161642
898.134	0.0160285
898.212	0.0161227
898.290	0.0162079
898.368	0.0161761
898.446	0.0161572
898.524	0.0161543
898.602	0.0161576
898.681	0.0162981
898.759	0.0162405
898.837	0.0161761
898.915	0.0161106
898.993	0.0160159
899.071	0.0161699
899.149	0.0162183
899.227	0.0159695
899.306	0.0160535
899.384	0.0160398
899.462	0.0162708
899.540	0.0161449
899.618	0.0161363
899.696	0.0161388
899.774	0.0163084
899.852	0.0161223
899.931	0.0161417
900.009	0.0162549
900.087	0.0162416
900.165	0.0162386
900.243	0.0161914
900.321	0.0161028
900.399	0.0161113
900.477	0.0163033
900.556	0.0162149
900.634	0.0160482
900.712	0.0161743
900.790	0.0163136
900.868	0.0162763
900.946	0.0161633
901.024	0.0159872
901.102	0.0160715
901.181	0.0161503
901.259	0.0159447
901.337	0.0159061
901.415	0.0160582
901.493	0.0159872
901.571	0.0159962
901.649	0.0160001
901.727	0.0160085
901.806	0.0159367
901.884	0.0157771
901.962	0.0160017
902.040	0.0158498
902.118	0.0160081
902.196	0.0158913
902.274	0.0159271
902.352	0.0158768
902.431	0.0159091
902.509	0.0161210
902.587	0.0158167
902.665	0.0158183
902.743	0.0159988
902.821	0.0160499
902.899	0.0158913
902.977	0.0159775
903.056	0.0159763
903.134	0.0161205
903.212	0.0162154
903.290	0.0161130
903.368	0.0160432
903.446	0.0161568
903.524	0.0161587
903.602	0.0161129
903.681	0.0162530
903.759	0.0161978
903.837	0.0162543
903.915	0.0161131
903.993	0.0162491
904.071	0.0163143
904.149	0.0161160
904.227	0.0161018
904.306	0.0160890
904.384	0.0162938
904.462	0.0161443
904.540	0.0160633
904.618	0.0162563
904.696	0.0161688
904.774	0.0161595
904.852	0.0160775
904.931	0.0160676
905.009	0.0159766
905.087	0.0161069
905.165	0.0161018
905.243	0.0160290
905.321	0.0159846
905.399	0.0160607
905.477	0.0161504
905.556	0.0160829
905.634	0.0161024
905.712	0.0160648
905.790	0.0160971
905.868	0.0161650
905.946	0.0159562
906.024	0.0160848
906.102	0.0161083
906.181	0.0160076
906.259	0.0159986
906.337	0.0160604
906.415	0.0160233
906.493	0.0159176
906.571	0.0160907
906.649	0.0160326
906.727	0.0160215
906.806	0.0162518
906.884	0.0159673
906.962	0.0160259
907.040	0.0161667
907.118	0.0160691
907.196	0.0160883
907.274	0.0161489
907.352	0.0161855
907.431	0.0160584
907.509	0.0161665
907.587	0.0161406
907.665	0.0161224
907.743	0.0161343
907.821	0.0162261
907.899	0.0163331
907.977	0.0162253
908.056	0.0163554
908.134	0.0161763
908.212	0.0161369
908.290	0.0161456
908.368	0.0162457
908.446	0.0162056
908.524	0.0162150
908.602	0.0160385
908.681	0.0160186
908.759	0.0161169
908.837	0.0160432
908.915	0.0161346
908.993	0.0160387
909.071	0.0159853
909.149	0.0159801
909.227	0.0160718
909.306	0.0159977
909.384	0.0160239
909.462	0.0161197
909.540	0.0159942
909.618	0.0160912
909.696	0.0160993
909.774	0.0160038
909.852	0.0159525
909.931	0.0161247
910.009	0.0161107
910.087	0.0159472
910.165	0.0161040
910.243	0.0161240
910.321	0.0161012
910.399	0.0161279
910.477	0.0161497
910.556	0.0161558
910.634	0.0161333
910.712	0.0161327
910.790	0.0160512
910.868	0.0161802
910.946	0.0162032
911.024	0.0161698
911.102	0.0162745
911.181	0.0162332
911.259	0.0163377
911.337	0.0162913
911.415	0.0162016
911.493	0.0161099
911.571	0.0160038
911.649	0.0161736
911.727	0.0161543
911.806	0.0161885
911.884	0.0161231
911.962	0.0160850
912.040	0.0161497
912.118	0.0159544
912.196	0.0160844
912.274	0.0160495
912.352	0.0160536
912.431	0.0160168
912.509	0.0159338
912.587	0.0160145
912.665	0.0160549
912.743	0.0160668
912.821	0.0159654
912.899	0.0160625
912.977	0.0159250
913.056	0.0160688
913.134	0.0159544
913.212	0.0160456
913.290	0.0160117
913.368	0.0159746
913.446	0.0161044
913.524	0.0162720
913.602	0.0161642
913.681	0.0161829
913.759	0.0160693
913.837	0.0160472
913.915	0.0161954
913.993	0.0161781
914.071	0.0162915
914.149	0.0161436
914.227	0.0161612
914.306	0.0162527
914.384	0.0161953
914.462	0.0162329
914.540	0.0161449
914.618	0.0163370
914.696	0.0161861
914.774	0.0161628
914.852	0.0161945
914.931	0.0161343
915.009	0.0161626
915.087	0.0160400
915.165	0.0161208
915.243	0.0162323
915.321	0.0161343
915.399	0.0160719
915.477	0.0161156
915.556	0.0162748
915.634	0.0162143
915.712	0.0161873
915.790	0.0160815
915.868	0.0161690
915.946	0.0161243
916.024	0.0161485
916.102	0.0162748
916.181	0.0161495
916.259	0.0160488
916.337	0.0160921
916.415	0.0160015
916.493	0.0161707
916.571	0.0160837
916.649	0.0160532
916.727	0.0161251
916.806	0.0161102
916.884	0.0161383
916.962	0.0161561
917.040	0.0161725
917.118	0.0161390
917.196	0.0162171
917.274	0.0161578
917.352	0.0161922
917.431	0.0162385
917.509	0.0160335
917.587	0.0161604
917.665	0.0162510
917.743	0.0162391
917.821	0.0162102
917.899	0.0161921
917.977	0.0162477
918.056	0.0162045
918.134	0.0162437
918.212	0.0161834
918.290	0.0161917
918.368	0.0161697
918.446	0.0162473
918.524	0.0162241
918.602	0.0161613
918.681	0.0161062
918.759	0.0163137
918.837	0.0160929
918.915	0.0161023
918.993	0.0162476
919.071	0.0162563
919.149	0.0161907
919.227	0.0162044
919.306	0.0161971
919.384	0.0160809
919.462	0.0161076
919.540	0.0160629
919.618	0.0160680
919.696	0.0158596
919.774	0.0158604
919.852	0.0160196
919.931	0.0160246
920.009	0.0161118
920.087	0.0162501
920.165	0.0160620
920.243	0.0159930
920.321	0.0160278
920.399	0.0159961
920.477	0.0160342
920.556	0.0162208
920.634	0.0161582
920.712	0.0159649
920.790	0.0161125
920.868	0.0162231
920.946	0.0160841
921.024	0.0161005
921.102	0.0161598
921.181	0.0161054
921.259	0.0160149
921.337	0.0160997
921.415	0.0161207
921.493	0.0160471
921.571	0.0161606
921.649	0.0162006
921.727	0.0162385
921.806	0.0162787
921.884	0.0162106
921.962	0.0161783
922.040	0.0162183
922.118	0.0161584
922.196	0.0162534
922.274	0.0160917
922.352	0.0161754
922.431	0.0162016
922.509	0.0161390
922.587	0.0162474
922.665	0.0160493
922.743	0.0160188
922.821	0.0161607
922.899	0.0161391
922.977	0.0161437
923.056	0.0161430
923.134	0.0160022
923.212	0.0160557
923.290	0.0161801
923.368	0.0160110
923.446	0.0161176
923.524	0.0159817
923.602	0.0160712
923.681	0.0160412
923.759	0.0160844
923.837	0.0159967
923.915	0.0161172
923.993	0.0159576
924.071	0.0160990
924.149	0.0161317
924.227	0.0159724
924.306	0.0159584
924.384	0.0160339
924.462	0.0160513
924.540	0.0160545
924.618	0.0160291
924.696	0.0160618
924.774	0.0161495
924.852	0.0160983
924.931	0.0161388
925.009	0.0160926
925.087	0.0160434
925.165	0.0161549
925.243	0.0161220
925.321	0.0160354
925.399	0.0160752
925.477	0.0160758
925.556	0.0161789
925.634	0.0160183
925.712	0.0160998
925.790	0.0161246
925.868	0.0161462
925.946	0.0160636
926.024	0.0160799
926.102	0.0160085
926.181	0.0161668
926.259	0.0161712
926.337	0.0162032
926.415	0.0160854
926.493	0.0162204
926.571	0.0160748
926.649	0.0161243
926.727	0.0162159
926.806	0.0161485
926.884	0.0161465
926.962	0.0160896
927.040	0.0161204
927.118	0.0160582
927.196	0.0160502
927.274	0.0161237
927.352	0.0161440
927.431	0.0161656
927.509	0.0162112
927.587	0.0162101
927.665	0.0161706
927.743	0.0161787
927.821	0.0161758
927.899	0.0161291
927.977	0.0160205
928.056	0.0160905
928.134	0.0162100
928.212	0.0162093
928.290	0.0160734
928.368	0.0159634
928.446	0.0159627
928.524	0.0160766
928.602	0.0161092
928.681	0.0159814
928.759	0.0159564
928.837	0.0160881
928.915	0.0161315
928.993	0.0159627
929.071	0.0160148
929.149	0.0158884
929.227	0.0158928
929.306	0.0159378
929.384	0.0159418
929.462	0.0160520
929.540	0.0159912
929.618	0.0158522
929.696	0.0160085
929.774	0.0159995
929.852	0.0159392
929.931	0.0158612
