05/19/2022	01:15:55	Ver.	4.1	UNKNOWN
Optical Delay	610.008675	Delta X		0.078125	Sweeps	1	Scan Rate	0/0
Coordinates	Axis 1	NaN	Axis 2	NaN	Axis 3	NaN	Axis 4	NaN	Axis 5	NaN	Axis 6	0.000000
TX Power	0.000000	RX Power	0.000000

610.009	0.0160191
610.087	0.0161469
610.165	0.0159988
610.243	0.0159735
610.321	0.0161270
610.399	0.0159475
610.477	0.0158601
610.556	0.0159736
610.634	0.0159634
610.712	0.0159886
610.790	0.0159079
610.868	0.0159563
610.946	0.0160658
611.024	0.0160616
611.102	0.0161285
611.181	0.0160242
611.259	0.0159743
611.337	0.0160143
611.415	0.0159976
611.493	0.0158533
611.571	0.0161549
611.649	0.0159612
611.727	0.0158592
611.806	0.0159843
611.884	0.0161520
611.962	0.0161015
612.040	0.0160886
612.118	0.0159917
612.196	0.0161235
612.274	0.0160793
612.352	0.0161081
612.431	0.0160217
612.509	0.0160451
612.587	0.0160342
612.665	0.0161506
612.743	0.0161939
612.821	0.0159473
612.899	0.0161191
612.977	0.0160546
613.056	0.0159101
613.134	0.0158624
613.212	0.0161568
613.290	0.0160530
613.368	0.0160593
613.446	0.0160207
613.524	0.0159967
613.602	0.0158886
613.681	0.0159895
613.759	0.0160220
613.837	0.0159751
613.915	0.0160636
613.993	0.0159707
614.071	0.0158900
614.149	0.0160128
614.227	0.0160031
614.306	0.0160089
614.384	0.0159612
614.462	0.0160503
614.540	0.0160796
614.618	0.0161369
614.696	0.0159822
614.774	0.0161475
614.852	0.0160484
614.931	0.0161354
615.009	0.0161878
615.087	0.0160163
615.165	0.0161049
615.243	0.0159949
615.321	0.0159315
615.399	0.0160196
615.477	0.0161945
615.556	0.0160693
615.634	0.0159586
615.712	0.0159852
615.790	0.0159766
615.868	0.0161002
615.946	0.0160179
616.024	0.0159097
616.102	0.0159551
616.181	0.0159537
616.259	0.0158686
616.337	0.0159987
616.415	0.0158875
616.493	0.0160059
616.571	0.0162074
616.649	0.0159721
616.727	0.0158863
616.806	0.0159917
616.884	0.0159802
616.962	0.0158508
617.040	0.0159488
617.118	0.0159544
617.196	0.0158824
617.274	0.0159421
617.352	0.0159388
617.431	0.0161464
617.509	0.0159747
617.587	0.0159586
617.665	0.0160306
617.743	0.0161191
617.821	0.0160685
617.899	0.0159554
617.977	0.0159265
618.056	0.0160997
618.134	0.0160188
618.212	0.0160614
618.290	0.0159336
618.368	0.0160204
618.446	0.0161845
618.524	0.0160952
618.602	0.0160032
618.681	0.0160602
618.759	0.0159928
618.837	0.0160652
618.915	0.0162296
618.993	0.0160307
619.071	0.0159912
619.149	0.0159467
619.227	0.0160254
619.306	0.0160386
619.384	0.0159604
619.462	0.0159235
619.540	0.0159560
619.618	0.0160114
619.696	0.0160005
619.774	0.0161165
619.852	0.0160208
619.931	0.0160985
620.009	0.0160554
620.087	0.0161819
620.165	0.0161344
620.243	0.0160396
620.321	0.0161467
620.399	0.0162474
620.477	0.0160062
620.556	0.0160368
620.634	0.0161640
620.712	0.0160963
620.790	0.0159901
620.868	0.0160495
620.946	0.0161781
621.024	0.0160345
621.102	0.0161236
621.181	0.0160658
621.259	0.0160276
621.337	0.0160433
621.415	0.0160036
621.493	0.0158926
621.571	0.0159921
621.649	0.0160027
621.727	0.0161243
621.806	0.0160656
621.884	0.0160536
621.962	0.0160027
622.040	0.0158725
622.118	0.0159574
622.196	0.0160114
622.274	0.0160146
622.352	0.0160963
622.431	0.0158734
622.509	0.0160365
622.587	0.0160267
622.665	0.0158996
622.743	0.0159595
622.821	0.0158125
622.899	0.0158747
622.977	0.0158070
623.056	0.0159914
623.134	0.0159716
623.212	0.0159366
623.290	0.0158872
623.368	0.0160870
623.446	0.0159988
623.524	0.0158181
623.602	0.0161296
623.681	0.0161247
623.759	0.0161205
623.837	0.0159998
623.915	0.0159496
623.993	0.0160967
624.071	0.0160029
624.149	0.0161598
624.227	0.0161126
624.306	0.0160749
624.384	0.0161108
624.462	0.0161812
624.540	0.0161368
624.618	0.0162439
624.696	0.0162309
624.774	0.0160734
624.852	0.0161620
624.931	0.0161428
625.009	0.0161839
625.087	0.0161691
625.165	0.0160472
625.243	0.0160902
625.321	0.0160313
625.399	0.0159907
625.477	0.0160716
625.556	0.0161376
625.634	0.0159848
625.712	0.0160535
625.790	0.0160725
625.868	0.0160352
625.946	0.0159892
626.024	0.0159372
626.102	0.0160082
626.181	0.0159589
626.259	0.0158318
626.337	0.0158418
626.415	0.0158188
626.493	0.0158898
626.571	0.0158414
626.649	0.0157290
626.727	0.0156213
626.806	0.0157453
626.884	0.0157735
626.962	0.0157477
627.040	0.0155345
627.118	0.0156808
627.196	0.0159079
627.274	0.0156412
627.352	0.0157912
627.431	0.0157156
627.509	0.0158488
627.587	0.0156193
627.665	0.0158661
627.743	0.0159368
627.821	0.0157923
627.899	0.0160873
627.977	0.0160630
628.056	0.0160559
628.134	0.0158904
628.212	0.0159399
628.290	0.0161425
628.368	0.0161374
628.446	0.0161127
628.524	0.0162085
628.602	0.0161588
628.681	0.0161784
628.759	0.0162763
628.837	0.0163945
628.915	0.0162365
628.993	0.0163654
629.071	0.0161990
629.149	0.0162825
629.227	0.0163799
629.306	0.0164011
629.384	0.0162706
629.462	0.0164226
629.540	0.0164043
629.618	0.0163776
629.696	0.0164737
629.774	0.0163634
629.852	0.0162428
629.931	0.0163010
630.009	0.0164427
630.087	0.0164321
630.165	0.0163489
630.243	0.0163246
630.321	0.0162666
630.399	0.0163477
630.477	0.0162977
630.556	0.0162611
630.634	0.0161427
630.712	0.0161191
630.790	0.0160069
630.868	0.0160629
630.946	0.0160802
631.024	0.0159475
631.102	0.0159778
631.181	0.0158188
631.259	0.0158595
631.337	0.0159158
631.415	0.0158331
631.493	0.0156761
631.571	0.0156748
631.649	0.0157526
631.727	0.0157033
631.806	0.0156155
631.884	0.0156567
631.962	0.0157275
632.040	0.0155849
632.118	0.0156861
632.196	0.0156120
632.274	0.0157146
632.352	0.0157648
632.431	0.0156292
632.509	0.0158244
632.587	0.0156102
632.665	0.0157469
632.743	0.0157624
632.821	0.0158121
632.899	0.0158341
632.977	0.0158968
633.056	0.0159712
633.134	0.0159443
633.212	0.0159835
633.290	0.0160973
633.368	0.0160726
633.446	0.0161436
633.524	0.0161281
633.602	0.0161282
633.681	0.0162213
633.759	0.0161495
633.837	0.0161954
633.915	0.0163638
633.993	0.0162737
634.071	0.0163070
634.149	0.0164340
634.227	0.0163945
634.306	0.0163625
634.384	0.0164119
634.462	0.0165833
634.540	0.0163983
634.618	0.0164757
634.696	0.0164422
634.774	0.0164805
634.852	0.0164040
634.931	0.0165107
635.009	0.0161826
635.087	0.0163617
635.165	0.0164034
635.243	0.0163154
635.321	0.0163098
635.399	0.0162052
635.477	0.0161488
635.556	0.0160454
635.634	0.0161307
635.712	0.0159708
635.790	0.0160950
635.868	0.0157441
635.946	0.0157542
636.024	0.0159901
636.102	0.0158282
636.181	0.0157243
636.259	0.0157086
636.337	0.0156373
636.415	0.0156459
636.493	0.0156880
636.571	0.0155505
636.649	0.0155158
636.727	0.0154878
636.806	0.0155869
636.884	0.0154729
636.962	0.0153259
637.040	0.0154106
637.118	0.0155038
637.196	0.0154694
637.274	0.0155250
637.352	0.0155056
637.431	0.0156812
637.509	0.0156327
637.587	0.0157519
637.665	0.0158487
637.743	0.0158684
637.821	0.0159559
637.899	0.0159586
637.977	0.0159422
638.056	0.0160654
638.134	0.0161597
638.212	0.0162211
638.290	0.0163024
638.368	0.0164519
638.446	0.0163474
638.524	0.0163902
638.602	0.0165385
638.681	0.0165504
638.759	0.0167064
638.837	0.0166211
638.915	0.0164852
638.993	0.0164785
639.071	0.0167148
639.149	0.0167017
639.227	0.0166259
639.306	0.0165834
639.384	0.0167050
639.462	0.0167210
639.540	0.0166602
639.618	0.0166660
639.696	0.0167310
639.774	0.0166830
639.852	0.0165128
639.931	0.0166486
640.009	0.0164996
640.087	0.0164024
640.165	0.0163100
640.243	0.0162744
640.321	0.0162033
640.399	0.0162617
640.477	0.0161505
640.556	0.0160947
640.634	0.0160181
640.712	0.0160002
640.790	0.0158911
640.868	0.0158944
640.946	0.0158051
641.024	0.0158750
641.102	0.0157820
641.181	0.0157720
641.259	0.0157414
641.337	0.0157726
641.415	0.0156944
641.493	0.0156441
641.571	0.0158253
641.649	0.0158932
641.727	0.0158778
641.806	0.0157936
641.884	0.0157773
641.962	0.0159167
642.040	0.0158158
642.118	0.0157289
642.196	0.0158653
642.274	0.0157695
642.352	0.0159878
642.431	0.0160097
642.509	0.0159861
642.587	0.0159862
642.665	0.0160524
642.743	0.0160816
642.821	0.0160419
642.899	0.0161121
642.977	0.0161884
643.056	0.0160222
643.134	0.0163023
643.212	0.0162823
643.290	0.0160414
643.368	0.0161117
643.446	0.0162000
643.524	0.0162090
643.602	0.0161869
643.681	0.0160777
643.759	0.0161243
643.837	0.0160124
643.915	0.0162897
643.993	0.0162653
644.071	0.0161237
644.149	0.0161037
644.227	0.0160873
644.306	0.0161129
644.384	0.0160777
644.462	0.0160715
644.540	0.0160168
644.618	0.0160353
644.696	0.0162319
644.774	0.0162299
644.852	0.0159732
644.931	0.0161143
645.009	0.0162314
645.087	0.0159738
645.165	0.0160375
645.243	0.0162055
645.321	0.0161172
645.399	0.0160426
645.477	0.0161337
645.556	0.0163049
645.634	0.0160909
645.712	0.0161282
645.790	0.0160526
645.868	0.0161189
645.946	0.0161544
646.024	0.0161307
646.102	0.0160524
646.181	0.0160847
646.259	0.0161706
646.337	0.0161052
646.415	0.0158526
646.493	0.0160371
646.571	0.0161117
646.649	0.0159730
646.727	0.0160120
646.806	0.0161549
646.884	0.0160757
646.962	0.0159567
647.040	0.0159740
647.118	0.0160352
647.196	0.0158142
647.274	0.0158884
647.352	0.0158037
647.431	0.0159690
647.509	0.0159978
647.587	0.0159032
647.665	0.0159798
647.743	0.0159521
647.821	0.0159376
647.899	0.0160701
647.977	0.0159538
648.056	0.0159589
648.134	0.0158983
648.212	0.0159163
648.290	0.0159672
648.368	0.0160366
648.446	0.0158778
648.524	0.0158829
648.602	0.0159381
648.681	0.0160305
648.759	0.0159682
648.837	0.0158249
648.915	0.0159825
648.993	0.0160805
649.071	0.0160426
649.149	0.0159449
649.227	0.0159709
649.306	0.0161230
649.384	0.0159823
649.462	0.0160800
649.540	0.0158978
649.618	0.0160172
649.696	0.0161104
649.774	0.0159715
649.852	0.0161018
649.931	0.0160287
650.009	0.0159866
650.087	0.0160268
650.165	0.0159766
650.243	0.0160493
650.321	0.0160982
650.399	0.0159043
650.477	0.0159348
650.556	0.0160237
650.634	0.0161268
650.712	0.0160132
650.790	0.0161375
650.868	0.0161342
650.946	0.0160352
651.024	0.0160588
651.102	0.0160345
651.181	0.0160268
651.259	0.0161646
651.337	0.0162051
651.415	0.0160977
651.493	0.0160251
651.571	0.0160498
651.649	0.0162222
651.727	0.0161097
651.806	0.0160129
651.884	0.0161510
651.962	0.0161228
652.040	0.0160207
652.118	0.0161750
652.196	0.0162888
652.274	0.0162540
652.352	0.0161958
652.431	0.0163406
652.509	0.0162974
652.587	0.0163577
652.665	0.0163731
652.743	0.0161803
652.821	0.0164053
652.899	0.0163998
652.977	0.0163415
653.056	0.0163812
653.134	0.0162770
653.212	0.0162926
653.290	0.0162637
653.368	0.0163575
653.446	0.0162499
653.524	0.0163019
653.602	0.0164163
653.681	0.0162424
653.759	0.0160940
653.837	0.0161780
653.915	0.0161303
653.993	0.0160840
654.071	0.0161705
654.149	0.0161648
654.227	0.0160310
654.306	0.0159453
654.384	0.0158916
654.462	0.0159462
654.540	0.0158787
654.618	0.0158704
654.696	0.0158582
654.774	0.0159103
654.852	0.0157815
654.931	0.0158096
655.009	0.0157101
655.087	0.0157323
655.165	0.0157444
655.243	0.0158408
655.321	0.0157304
655.399	0.0157835
655.477	0.0156890
655.556	0.0156384
655.634	0.0157681
655.712	0.0158313
655.790	0.0157568
655.868	0.0157707
655.946	0.0159210
656.024	0.0158361
656.102	0.0158491
656.181	0.0158686
656.259	0.0159737
656.337	0.0161095
656.415	0.0159770
656.493	0.0161585
656.571	0.0161426
656.649	0.0161211
656.727	0.0162791
656.806	0.0162292
656.884	0.0163899
656.962	0.0165356
657.040	0.0164960
657.118	0.0164184
657.196	0.0164182
657.274	0.0164804
657.352	0.0166284
657.431	0.0164365
657.509	0.0165615
657.587	0.0165160
657.665	0.0165676
657.743	0.0166395
657.821	0.0165205
657.899	0.0165141
657.977	0.0165277
658.056	0.0165259
658.134	0.0164382
658.212	0.0164078
658.290	0.0164259
658.368	0.0163720
658.446	0.0163548
658.524	0.0162458
658.602	0.0162893
658.681	0.0162092
658.759	0.0160026
658.837	0.0160126
658.915	0.0161465
658.993	0.0159734
659.071	0.0159976
659.149	0.0158247
659.227	0.0157975
659.306	0.0158499
659.384	0.0157967
659.462	0.0157037
659.540	0.0157980
659.618	0.0157014
659.696	0.0157062
659.774	0.0157374
659.852	0.0157571
659.931	0.0156863
660.009	0.0156891
660.087	0.0157492
660.165	0.0155664
660.243	0.0157347
660.321	0.0157129
660.399	0.0156397
660.477	0.0156688
660.556	0.0158049
660.634	0.0157622
660.712	0.0157899
660.790	0.0158553
660.868	0.0157673
660.946	0.0158205
661.024	0.0159000
661.102	0.0160202
661.181	0.0160711
661.259	0.0161192
661.337	0.0163421
661.415	0.0160596
661.493	0.0163339
661.571	0.0163922
661.649	0.0161904
661.727	0.0163224
661.806	0.0163789
661.884	0.0164552
661.962	0.0165061
662.040	0.0164699
662.118	0.0164564
662.196	0.0165036
662.274	0.0164235
662.352	0.0164925
662.431	0.0164488
662.509	0.0163991
662.587	0.0164668
662.665	0.0162805
662.743	0.0163367
662.821	0.0164299
662.899	0.0162988
662.977	0.0163614
663.056	0.0163515
663.134	0.0163065
663.212	0.0162440
663.290	0.0161105
663.368	0.0161259
663.446	0.0163158
663.524	0.0162720
663.602	0.0161467
663.681	0.0161095
663.759	0.0158305
663.837	0.0159904
663.915	0.0160141
663.993	0.0160960
664.071	0.0159846
664.149	0.0160459
664.227	0.0159541
664.306	0.0159035
664.384	0.0159077
664.462	0.0159146
664.540	0.0159333
664.618	0.0159676
664.696	0.0159093
664.774	0.0158881
664.852	0.0158293
664.931	0.0160743
665.009	0.0158204
665.087	0.0158827
665.165	0.0160642
665.243	0.0159448
665.321	0.0159961
665.399	0.0159885
665.477	0.0161047
665.556	0.0161255
665.634	0.0161422
665.712	0.0161118
665.790	0.0160138
665.868	0.0161137
665.946	0.0160328
666.024	0.0159872
666.102	0.0159798
666.181	0.0160519
666.259	0.0160931
666.337	0.0159497
666.415	0.0160011
666.493	0.0160004
666.571	0.0160406
666.649	0.0160606
666.727	0.0160297
666.806	0.0159625
666.884	0.0159478
666.962	0.0160213
667.040	0.0161634
667.118	0.0161409
667.196	0.0162112
667.274	0.0161745
667.352	0.0160707
667.431	0.0162576
667.509	0.0160929
667.587	0.0162535
667.665	0.0162897
667.743	0.0162150
667.821	0.0162162
667.899	0.0163416
667.977	0.0161971
668.056	0.0161734
668.134	0.0161157
668.212	0.0160471
668.290	0.0160686
668.368	0.0160311
668.446	0.0160157
668.524	0.0160754
668.602	0.0159765
668.681	0.0159323
668.759	0.0158591
668.837	0.0158018
668.915	0.0159202
668.993	0.0158101
669.071	0.0158668
669.149	0.0158360
669.227	0.0158463
669.306	0.0159303
669.384	0.0158539
669.462	0.0158693
669.540	0.0158484
669.618	0.0158963
669.696	0.0160473
669.774	0.0160097
669.852	0.0159209
669.931	0.0161221
670.009	0.0159165
670.087	0.0159024
670.165	0.0159840
670.243	0.0159821
670.321	0.0160938
670.399	0.0160801
670.477	0.0161815
670.556	0.0161124
670.634	0.0160914
670.712	0.0159414
670.790	0.0159370
670.868	0.0159476
670.946	0.0160461
671.024	0.0160123
671.102	0.0158585
671.181	0.0159212
671.259	0.0160488
671.337	0.0159396
671.415	0.0160489
671.493	0.0160091
671.571	0.0160442
671.649	0.0160398
671.727	0.0161180
671.806	0.0160856
671.884	0.0159846
671.962	0.0161380
672.040	0.0162122
672.118	0.0160233
672.196	0.0160014
672.274	0.0161851
672.352	0.0160893
672.431	0.0160159
672.509	0.0160497
672.587	0.0160448
672.665	0.0160621
672.743	0.0160711
672.821	0.0160221
672.899	0.0159551
672.977	0.0161176
673.056	0.0161507
673.134	0.0160792
673.212	0.0160366
673.290	0.0159479
673.368	0.0161279
673.446	0.0160765
673.524	0.0160867
673.602	0.0160440
673.681	0.0161175
673.759	0.0160706
673.837	0.0161115
673.915	0.0161066
673.993	0.0161389
674.071	0.0162815
674.149	0.0161578
674.227	0.0162311
674.306	0.0160703
674.384	0.0160928
674.462	0.0161662
674.540	0.0160445
674.618	0.0160835
674.696	0.0162566
674.774	0.0160876
674.852	0.0160647
674.931	0.0161191
675.009	0.0160989
675.087	0.0161773
675.165	0.0161278
675.243	0.0161524
675.321	0.0160799
675.399	0.0160608
675.477	0.0162507
675.556	0.0161943
675.634	0.0160963
675.712	0.0160810
675.790	0.0162237
675.868	0.0162469
675.946	0.0160874
676.024	0.0161242
676.102	0.0160823
676.181	0.0161107
676.259	0.0160947
676.337	0.0159359
676.415	0.0160635
676.493	0.0160512
676.571	0.0159335
676.649	0.0159840
676.727	0.0159537
676.806	0.0159620
676.884	0.0158128
676.962	0.0159252
677.040	0.0157966
677.118	0.0158309
677.196	0.0159875
677.274	0.0158909
677.352	0.0159152
677.431	0.0158212
677.509	0.0158794
677.587	0.0158948
677.665	0.0158382
677.743	0.0159264
677.821	0.0159528
677.899	0.0160437
677.977	0.0159882
678.056	0.0159321
678.134	0.0159467
678.212	0.0159155
678.290	0.0160475
678.368	0.0160686
678.446	0.0160688
678.524	0.0160448
678.602	0.0161230
678.681	0.0161837
678.759	0.0162749
678.837	0.0161446
678.915	0.0162229
678.993	0.0162029
679.071	0.0162773
679.149	0.0162514
679.227	0.0163451
679.306	0.0163035
679.384	0.0163271
679.462	0.0162910
679.540	0.0162572
679.618	0.0162561
679.696	0.0163061
679.774	0.0161431
679.852	0.0161959
679.931	0.0163670
680.009	0.0162279
680.087	0.0162320
680.165	0.0162191
680.243	0.0161190
680.321	0.0162241
680.399	0.0162064
680.477	0.0161505
680.556	0.0160838
680.634	0.0161329
680.712	0.0161150
680.790	0.0160493
680.868	0.0160155
680.946	0.0161411
681.024	0.0161742
681.102	0.0160358
681.181	0.0159306
681.259	0.0160966
681.337	0.0160392
681.415	0.0159647
681.493	0.0160971
681.571	0.0160694
681.649	0.0160083
681.727	0.0159406
681.806	0.0159900
681.884	0.0160748
681.962	0.0159193
682.040	0.0159924
682.118	0.0160585
682.196	0.0160159
682.274	0.0159829
682.352	0.0158727
682.431	0.0158329
682.509	0.0160371
682.587	0.0160071
682.665	0.0158926
682.743	0.0159676
682.821	0.0159707
682.899	0.0160056
682.977	0.0160292
683.056	0.0159511
683.134	0.0160408
683.212	0.0161051
683.290	0.0160123
683.368	0.0159515
683.446	0.0160640
683.524	0.0161082
683.602	0.0158677
683.681	0.0160045
683.759	0.0160188
683.837	0.0160748
683.915	0.0159988
683.993	0.0160873
684.071	0.0161520
684.149	0.0161154
684.227	0.0161301
684.306	0.0162720
684.384	0.0161823
684.462	0.0163609
684.540	0.0164104
684.618	0.0163366
684.696	0.0161727
684.774	0.0162332
684.852	0.0163319
684.931	0.0164645
685.009	0.0163564
685.087	0.0163029
685.165	0.0164896
685.243	0.0164700
685.321	0.0164008
685.399	0.0162634
685.477	0.0163042
685.556	0.0163801
685.634	0.0162656
685.712	0.0162128
685.790	0.0162350
685.868	0.0163041
685.946	0.0162144
686.024	0.0161302
686.102	0.0159870
686.181	0.0160497
686.259	0.0158551
686.337	0.0160791
686.415	0.0159628
686.493	0.0158932
686.571	0.0159435
686.649	0.0158267
686.727	0.0157941
686.806	0.0159433
686.884	0.0157974
686.962	0.0158504
687.040	0.0157235
687.118	0.0158379
687.196	0.0159410
687.274	0.0158215
687.352	0.0156467
687.431	0.0158477
687.509	0.0157836
687.587	0.0156492
687.665	0.0157890
687.743	0.0158167
687.821	0.0158257
687.899	0.0158992
687.977	0.0158636
688.056	0.0159175
688.134	0.0159348
688.212	0.0159393
688.290	0.0161323
688.368	0.0159863
688.446	0.0160392
688.524	0.0161141
688.602	0.0161412
688.681	0.0160958
688.759	0.0161694
688.837	0.0161709
688.915	0.0160167
688.993	0.0162685
689.071	0.0162481
689.149	0.0161355
689.227	0.0161524
689.306	0.0161806
689.384	0.0160988
689.462	0.0160709
689.540	0.0159289
689.618	0.0162348
689.696	0.0161107
689.774	0.0160231
689.852	0.0160493
689.931	0.0161940
690.009	0.0161906
690.087	0.0160484
690.165	0.0160292
690.243	0.0160464
690.321	0.0159993
690.399	0.0160146
690.477	0.0160831
690.556	0.0161395
690.634	0.0161465
690.712	0.0160766
690.790	0.0160065
690.868	0.0160701
690.946	0.0160233
691.024	0.0161334
691.102	0.0161037
691.181	0.0161496
691.259	0.0160288
691.337	0.0159511
691.415	0.0160564
691.493	0.0160607
691.571	0.0159811
691.649	0.0159253
691.727	0.0161216
691.806	0.0159541
691.884	0.0159023
691.962	0.0159346
692.040	0.0158200
692.118	0.0159083
692.196	0.0160143
692.274	0.0159265
692.352	0.0159785
692.431	0.0160264
692.509	0.0160419
692.587	0.0160012
692.665	0.0158804
692.743	0.0158756
692.821	0.0159763
692.899	0.0159512
692.977	0.0158453
693.056	0.0159956
693.134	0.0159856
693.212	0.0159689
693.290	0.0158739
693.368	0.0158817
693.446	0.0159486
693.524	0.0159509
693.602	0.0159631
693.681	0.0159639
693.759	0.0160413
693.837	0.0160329
693.915	0.0160442
693.993	0.0160596
694.071	0.0161469
694.149	0.0161270
694.227	0.0160957
694.306	0.0161407
694.384	0.0160810
694.462	0.0159352
694.540	0.0161179
694.618	0.0159985
694.696	0.0159200
694.774	0.0162170
694.852	0.0160471
694.931	0.0159196
695.009	0.0158636
695.087	0.0160474
695.165	0.0160072
695.243	0.0160791
695.321	0.0159935
695.399	0.0160109
695.477	0.0160715
695.556	0.0160976
695.634	0.0157959
695.712	0.0159963
695.790	0.0159187
695.868	0.0160384
695.946	0.0160388
696.024	0.0160286
696.102	0.0159864
696.181	0.0159557
696.259	0.0159586
696.337	0.0160348
696.415	0.0159972
696.493	0.0159935
696.571	0.0160205
696.649	0.0160817
696.727	0.0159924
696.806	0.0161960
696.884	0.0161199
696.962	0.0159982
697.040	0.0160594
697.118	0.0160292
697.196	0.0159689
697.274	0.0159564
697.352	0.0159041
697.431	0.0159363
697.509	0.0160360
697.587	0.0161343
697.665	0.0160735
697.743	0.0158268
697.821	0.0157608
697.899	0.0158292
697.977	0.0159251
698.056	0.0160629
698.134	0.0159471
698.212	0.0159725
698.290	0.0161150
698.368	0.0157922
698.446	0.0159609
698.524	0.0159188
698.602	0.0160466
698.681	0.0159090
698.759	0.0158799
698.837	0.0157723
698.915	0.0158772
698.993	0.0159111
699.071	0.0159957
699.149	0.0159451
699.227	0.0159342
699.306	0.0158543
699.384	0.0159119
699.462	0.0159849
699.540	0.0158060
699.618	0.0156724
699.696	0.0159444
699.774	0.0159698
699.852	0.0159612
699.931	0.0157983
700.009	0.0158999
700.087	0.0160432
700.165	0.0160418
700.243	0.0161756
700.321	0.0160759
700.399	0.0161021
700.477	0.0160902
700.556	0.0160999
700.634	0.0162199
700.712	0.0161931
700.790	0.0162377
700.868	0.0160648
700.946	0.0160591
701.024	0.0161021
701.102	0.0160970
701.181	0.0161645
701.259	0.0160052
701.337	0.0161147
701.415	0.0160210
701.493	0.0160458
701.571	0.0160078
701.649	0.0159844
701.727	0.0158919
701.806	0.0160415
701.884	0.0159892
701.962	0.0159677
702.040	0.0159661
702.118	0.0159541
702.196	0.0158929
702.274	0.0160390
702.352	0.0159706
702.431	0.0159334
702.509	0.0160445
702.587	0.0158854
702.665	0.0160772
702.743	0.0158617
702.821	0.0159018
702.899	0.0161843
702.977	0.0161018
703.056	0.0160544
703.134	0.0161091
703.212	0.0159192
703.290	0.0160652
703.368	0.0160742
703.446	0.0161447
703.524	0.0160860
703.602	0.0161409
703.681	0.0159668
703.759	0.0161452
703.837	0.0161150
703.915	0.0160421
703.993	0.0161049
704.071	0.0160019
704.149	0.0161285
704.227	0.0160664
704.306	0.0160037
704.384	0.0160790
704.462	0.0160291
704.540	0.0160422
704.618	0.0163035
704.696	0.0160613
704.774	0.0161439
704.852	0.0160144
704.931	0.0159535
705.009	0.0159780
705.087	0.0161192
705.165	0.0161594
705.243	0.0161548
705.321	0.0160088
705.399	0.0160980
705.477	0.0159190
705.556	0.0157996
705.634	0.0159778
705.712	0.0160513
705.790	0.0161273
705.868	0.0158580
705.946	0.0159544
706.024	0.0157681
706.102	0.0159519
706.181	0.0160589
706.259	0.0159563
706.337	0.0159044
706.415	0.0158811
706.493	0.0158397
706.571	0.0159328
706.649	0.0158969
706.727	0.0158464
706.806	0.0161458
706.884	0.0160217
706.962	0.0160140
707.040	0.0160227
707.118	0.0160903
707.196	0.0160764
707.274	0.0160535
707.352	0.0160883
707.431	0.0160948
707.509	0.0160418
707.587	0.0162701
707.665	0.0160590
707.743	0.0161459
707.821	0.0162057
707.899	0.0161460
707.977	0.0160973
708.056	0.0161209
708.134	0.0161485
708.212	0.0161623
708.290	0.0161021
708.368	0.0160545
708.446	0.0161220
708.524	0.0162013
708.602	0.0161926
708.681	0.0161463
708.759	0.0161320
708.837	0.0161007
708.915	0.0161145
708.993	0.0160224
709.071	0.0160159
709.149	0.0160429
709.227	0.0158258
709.306	0.0158263
709.384	0.0159289
709.462	0.0158176
709.540	0.0158587
709.618	0.0157146
709.696	0.0159080
709.774	0.0159450
709.852	0.0157233
709.931	0.0159339
710.009	0.0158573
710.087	0.0157533
710.165	0.0158736
710.243	0.0160101
710.321	0.0159695
710.399	0.0158241
710.477	0.0158588
710.556	0.0159088
710.634	0.0159042
710.712	0.0159894
710.790	0.0161302
710.868	0.0161033
710.946	0.0160938
711.024	0.0160251
711.102	0.0161526
711.181	0.0159933
711.259	0.0159206
711.337	0.0160898
711.415	0.0160588
711.493	0.0160545
711.571	0.0160594
711.649	0.0160437
711.727	0.0161257
711.806	0.0161290
711.884	0.0162487
711.962	0.0160450
712.040	0.0161753
712.118	0.0160152
712.196	0.0160861
712.274	0.0160915
712.352	0.0160783
712.431	0.0160896
712.509	0.0161219
712.587	0.0160600
712.665	0.0158557
712.743	0.0162600
712.821	0.0161862
712.899	0.0159804
712.977	0.0160593
713.056	0.0161699
713.134	0.0158896
713.212	0.0159373
713.290	0.0159784
713.368	0.0158743
713.446	0.0158002
713.524	0.0158739
713.602	0.0159479
713.681	0.0157803
713.759	0.0159119
713.837	0.0159874
713.915	0.0160165
713.993	0.0160426
714.071	0.0159039
714.149	0.0160834
714.227	0.0161165
714.306	0.0160053
714.384	0.0159727
714.462	0.0161082
714.540	0.0161454
714.618	0.0160603
714.696	0.0161655
714.774	0.0161111
714.852	0.0160162
714.931	0.0160809
715.009	0.0160072
715.087	0.0159605
715.165	0.0159285
715.243	0.0158668
715.321	0.0158293
715.399	0.0159422
715.477	0.0160101
715.556	0.0158867
715.634	0.0156892
715.712	0.0158062
715.790	0.0159798
715.868	0.0158940
715.946	0.0158663
716.024	0.0159715
716.102	0.0159457
716.181	0.0160600
716.259	0.0160636
716.337	0.0160749
716.415	0.0161622
716.493	0.0162925
716.571	0.0162060
716.649	0.0161732
716.727	0.0160629
716.806	0.0160365
716.884	0.0162077
716.962	0.0161429
717.040	0.0162273
717.118	0.0160235
717.196	0.0161082
717.274	0.0159552
717.352	0.0160042
717.431	0.0160218
717.509	0.0160764
717.587	0.0160378
717.665	0.0158528
717.743	0.0159460
717.821	0.0160187
717.899	0.0158742
717.977	0.0158924
718.056	0.0157520
718.134	0.0158015
718.212	0.0160461
718.290	0.0160011
718.368	0.0160472
718.446	0.0160371
718.524	0.0160439
718.602	0.0158372
718.681	0.0160298
718.759	0.0160825
718.837	0.0160342
718.915	0.0161469
718.993	0.0160090
719.071	0.0160257
719.149	0.0160034
719.227	0.0159022
719.306	0.0158852
719.384	0.0160834
719.462	0.0160251
719.540	0.0160479
719.618	0.0160407
719.696	0.0159496
719.774	0.0160087
719.852	0.0160372
719.931	0.0159860
720.009	0.0159353
720.087	0.0159604
720.165	0.0160559
720.243	0.0161366
720.321	0.0160078
720.399	0.0160801
720.477	0.0160686
720.556	0.0161616
720.634	0.0161707
720.712	0.0161750
720.790	0.0162753
720.868	0.0162280
720.946	0.0162022
721.024	0.0163297
721.102	0.0163319
721.181	0.0161427
721.259	0.0163591
721.337	0.0162119
721.415	0.0162445
721.493	0.0163262
721.571	0.0162330
721.649	0.0162112
721.727	0.0161076
721.806	0.0161301
721.884	0.0162397
721.962	0.0162594
722.040	0.0161391
722.118	0.0161227
722.196	0.0162144
722.274	0.0160077
722.352	0.0160243
722.431	0.0161751
722.509	0.0159898
722.587	0.0159668
722.665	0.0158920
722.743	0.0159439
722.821	0.0159278
722.899	0.0158640
722.977	0.0159867
723.056	0.0159751
723.134	0.0159055
723.212	0.0158504
723.290	0.0159136
723.368	0.0159393
723.446	0.0158403
723.524	0.0160313
723.602	0.0160744
723.681	0.0159084
723.759	0.0159749
723.837	0.0160877
723.915	0.0160909
723.993	0.0161704
724.071	0.0161404
724.149	0.0159388
724.227	0.0160984
724.306	0.0159969
724.384	0.0161171
724.462	0.0162593
724.540	0.0161871
724.618	0.0160693
724.696	0.0161134
724.774	0.0161225
724.852	0.0160973
724.931	0.0160944
725.009	0.0163079
725.087	0.0160092
725.165	0.0161840
725.243	0.0160686
725.321	0.0160012
725.399	0.0160405
725.477	0.0161150
725.556	0.0161647
725.634	0.0162527
725.712	0.0162124
725.790	0.0161644
725.868	0.0162288
725.946	0.0161222
726.024	0.0160191
726.102	0.0160500
726.181	0.0160708
726.259	0.0160555
726.337	0.0160479
726.415	0.0160683
726.493	0.0160594
726.571	0.0161518
726.649	0.0161200
726.727	0.0161530
726.806	0.0160533
726.884	0.0160240
726.962	0.0160352
727.040	0.0159006
727.118	0.0159945
727.196	0.0160159
727.274	0.0160914
727.352	0.0161109
727.431	0.0160230
727.509	0.0159766
727.587	0.0160710
727.665	0.0161415
727.743	0.0161001
727.821	0.0160818
727.899	0.0161714
727.977	0.0161536
728.056	0.0160561
728.134	0.0161236
728.212	0.0159974
728.290	0.0159828
728.368	0.0161948
728.446	0.0162011
728.524	0.0160708
728.602	0.0160860
728.681	0.0160078
728.759	0.0159743
728.837	0.0161069
728.915	0.0160860
728.993	0.0160123
729.071	0.0160921
729.149	0.0160507
729.227	0.0160625
729.306	0.0160561
729.384	0.0160148
729.462	0.0161679
729.540	0.0160583
729.618	0.0160405
729.696	0.0160983
729.774	0.0161338
729.852	0.0160545
729.931	0.0159792
730.009	0.0159676
730.087	0.0160666
730.165	0.0160246
730.243	0.0159862
730.321	0.0160824
730.399	0.0159344
730.477	0.0160971
730.556	0.0160638
730.634	0.0160029
730.712	0.0160225
730.790	0.0160925
730.868	0.0160045
730.946	0.0160041
731.024	0.0160152
731.102	0.0161024
731.181	0.0160181
731.259	0.0160943
731.337	0.0160497
731.415	0.0163827
731.493	0.0162148
731.571	0.0161492
731.649	0.0160664
731.727	0.0161612
731.806	0.0162413
731.884	0.0161656
731.962	0.0161368
732.040	0.0163184
732.118	0.0161406
732.196	0.0161559
732.274	0.0161147
732.352	0.0162014
732.431	0.0162870
732.509	0.0162411
732.587	0.0161231
732.665	0.0161582
732.743	0.0161597
732.821	0.0162038
732.899	0.0161105
732.977	0.0161360
733.056	0.0161658
733.134	0.0161249
733.212	0.0161509
733.290	0.0161631
733.368	0.0159801
733.446	0.0159834
733.524	0.0162059
733.602	0.0161049
733.681	0.0161456
733.759	0.0161204
733.837	0.0161304
733.915	0.0160574
733.993	0.0160251
734.071	0.0160674
734.149	0.0162288
734.227	0.0162593
734.306	0.0161124
734.384	0.0162397
734.462	0.0161105
734.540	0.0161332
734.618	0.0162750
734.696	0.0161565
734.774	0.0161945
734.852	0.0162775
734.931	0.0160608
735.009	0.0160548
735.087	0.0162823
735.165	0.0161902
735.243	0.0162200
735.321	0.0162162
735.399	0.0162890
735.477	0.0162544
735.556	0.0162379
735.634	0.0161763
735.712	0.0162830
735.790	0.0160827
735.868	0.0160263
735.946	0.0162016
736.024	0.0161967
736.102	0.0162050
736.181	0.0161626
736.259	0.0161176
736.337	0.0161228
736.415	0.0160818
736.493	0.0161253
736.571	0.0160675
736.649	0.0160308
736.727	0.0160050
736.806	0.0160969
736.884	0.0159613
736.962	0.0161024
737.040	0.0159392
737.118	0.0160531
737.196	0.0160659
737.274	0.0160415
737.352	0.0161006
737.431	0.0160325
737.509	0.0160039
737.587	0.0159286
737.665	0.0160701
737.743	0.0159850
737.821	0.0160182
737.899	0.0159949
737.977	0.0160992
738.056	0.0160831
738.134	0.0160738
738.212	0.0160458
738.290	0.0161738
738.368	0.0160510
738.446	0.0160798
738.524	0.0161270
738.602	0.0161066
738.681	0.0160711
738.759	0.0161966
738.837	0.0161642
738.915	0.0161889
738.993	0.0162118
739.071	0.0161754
739.149	0.0162331
739.227	0.0161020
739.306	0.0162330
739.384	0.0161877
739.462	0.0160473
739.540	0.0162051
739.618	0.0161134
739.696	0.0161289
739.774	0.0161069
739.852	0.0161525
739.931	0.0161031
740.009	0.0160431
740.087	0.0160703
740.165	0.0161877
740.243	0.0162429
740.321	0.0160577
740.399	0.0160662
740.477	0.0160721
740.556	0.0159389
740.634	0.0160395
740.712	0.0160019
740.790	0.0159957
740.868	0.0162189
740.946	0.0159089
741.024	0.0159814
741.102	0.0160034
741.181	0.0159264
741.259	0.0160379
741.337	0.0159837
741.415	0.0159184
741.493	0.0160484
741.571	0.0159287
741.649	0.0159875
741.727	0.0158752
741.806	0.0159863
741.884	0.0159315
741.962	0.0160376
742.040	0.0159869
742.118	0.0160521
742.196	0.0160674
742.274	0.0160672
742.352	0.0160163
742.431	0.0159476
742.509	0.0159712
742.587	0.0160166
742.665	0.0160783
742.743	0.0160165
742.821	0.0160563
742.899	0.0160977
742.977	0.0160400
743.056	0.0160384
743.134	0.0160284
743.212	0.0159828
743.290	0.0160464
743.368	0.0163315
743.446	0.0160825
743.524	0.0160748
743.602	0.0161153
743.681	0.0161030
743.759	0.0160976
743.837	0.0160310
743.915	0.0161301
743.993	0.0162383
744.071	0.0161397
744.149	0.0161058
744.227	0.0162877
744.306	0.0161128
744.384	0.0161017
744.462	0.0161853
744.540	0.0161697
744.618	0.0160908
744.696	0.0161696
744.774	0.0161428
744.852	0.0160929
744.931	0.0162048
745.009	0.0160906
745.087	0.0160460
745.165	0.0162612
745.243	0.0160783
745.321	0.0159959
745.399	0.0160899
745.477	0.0160091
745.556	0.0161571
745.634	0.0160605
745.712	0.0159681
745.790	0.0160477
745.868	0.0160231
745.946	0.0159660
746.024	0.0160854
746.102	0.0159142
746.181	0.0160162
746.259	0.0159619
746.337	0.0159446
746.415	0.0160580
746.493	0.0158952
746.571	0.0158485
746.649	0.0159776
746.727	0.0159661
746.806	0.0160850
746.884	0.0160760
746.962	0.0159465
747.040	0.0159712
747.118	0.0160085
747.196	0.0160222
747.274	0.0159612
747.352	0.0159221
747.431	0.0160068
747.509	0.0161910
747.587	0.0158191
747.665	0.0160715
747.743	0.0161359
747.821	0.0160434
747.899	0.0160565
747.977	0.0160608
748.056	0.0160919
748.134	0.0161317
748.212	0.0160493
748.290	0.0160808
748.368	0.0161217
748.446	0.0161044
748.524	0.0161484
748.602	0.0161932
748.681	0.0161915
748.759	0.0161829
748.837	0.0161946
748.915	0.0161302
748.993	0.0161059
749.071	0.0163213
749.149	0.0161066
749.227	0.0161236
749.306	0.0163741
749.384	0.0162630
749.462	0.0163268
749.540	0.0161905
749.618	0.0161419
749.696	0.0160504
749.774	0.0161689
749.852	0.0161819
749.931	0.0161185
750.009	0.0160728
750.087	0.0161064
750.165	0.0160796
750.243	0.0163072
750.321	0.0162024
750.399	0.0160848
750.477	0.0160246
750.556	0.0160388
750.634	0.0160863
750.712	0.0159355
750.790	0.0158121
750.868	0.0159258
750.946	0.0159425
751.024	0.0159921
751.102	0.0160669
751.181	0.0160490
751.259	0.0160014
751.337	0.0160004
751.415	0.0159769
751.493	0.0160200
751.571	0.0160576
751.649	0.0160874
751.727	0.0160633
751.806	0.0160150
751.884	0.0162743
751.962	0.0162300
752.040	0.0160532
752.118	0.0160754
752.196	0.0161232
752.274	0.0160366
752.352	0.0161602
752.431	0.0163075
752.509	0.0161533
752.587	0.0160869
752.665	0.0162188
752.743	0.0161801
752.821	0.0160118
752.899	0.0161530
752.977	0.0162791
753.056	0.0162338
753.134	0.0160497
753.212	0.0161799
753.290	0.0161298
753.368	0.0161767
753.446	0.0161333
753.524	0.0161170
753.602	0.0162128
753.681	0.0161826
753.759	0.0161603
753.837	0.0160551
753.915	0.0160351
753.993	0.0161471
754.071	0.0160420
754.149	0.0161449
754.227	0.0161567
754.306	0.0160798
754.384	0.0160128
754.462	0.0160565
754.540	0.0161379
754.618	0.0160363
754.696	0.0159608
754.774	0.0161593
754.852	0.0160844
754.931	0.0161673
755.009	0.0162843
755.087	0.0160900
755.165	0.0161695
755.243	0.0161566
755.321	0.0160833
755.399	0.0161229
755.477	0.0162289
755.556	0.0161356
755.634	0.0162419
755.712	0.0161035
755.790	0.0161175
755.868	0.0159761
755.946	0.0160203
756.024	0.0161739
756.102	0.0160087
756.181	0.0160435
756.259	0.0161317
756.337	0.0161298
756.415	0.0161638
756.493	0.0161459
756.571	0.0160715
756.649	0.0160371
756.727	0.0159959
756.806	0.0161983
756.884	0.0160672
756.962	0.0160680
757.040	0.0159230
757.118	0.0159109
757.196	0.0161014
757.274	0.0160648
757.352	0.0159946
757.431	0.0159972
757.509	0.0160550
757.587	0.0159659
757.665	0.0161072
757.743	0.0160609
757.821	0.0159926
757.899	0.0161092
757.977	0.0160085
758.056	0.0160994
758.134	0.0160088
758.212	0.0161594
758.290	0.0160776
758.368	0.0160220
758.446	0.0161091
758.524	0.0160580
758.602	0.0161166
758.681	0.0159609
758.759	0.0161137
758.837	0.0159430
758.915	0.0159908
758.993	0.0160312
759.071	0.0160379
759.149	0.0160373
759.227	0.0161308
759.306	0.0160301
759.384	0.0160774
759.462	0.0161132
759.540	0.0160865
759.618	0.0160671
759.696	0.0161845
759.774	0.0161913
759.852	0.0160914
759.931	0.0160876
760.009	0.0161535
760.087	0.0160867
760.165	0.0161192
760.243	0.0162627
760.321	0.0160775
760.399	0.0160528
760.477	0.0163539
760.556	0.0161485
760.634	0.0160268
760.712	0.0162672
760.790	0.0160831
760.868	0.0161632
760.946	0.0160877
761.024	0.0161401
761.102	0.0162255
761.181	0.0161932
761.259	0.0162667
761.337	0.0162646
761.415	0.0161937
761.493	0.0161185
761.571	0.0161172
761.649	0.0162106
761.727	0.0161376
761.806	0.0162050
761.884	0.0160593
761.962	0.0160819
762.040	0.0162865
762.118	0.0161539
762.196	0.0161232
762.274	0.0160836
762.352	0.0160207
762.431	0.0161339
762.509	0.0159964
762.587	0.0161056
762.665	0.0160860
762.743	0.0160368
762.821	0.0160312
762.899	0.0161014
762.977	0.0161076
763.056	0.0160538
763.134	0.0160243
763.212	0.0161966
763.290	0.0160859
763.368	0.0159834
763.446	0.0159628
763.524	0.0160976
763.602	0.0160661
763.681	0.0160477
763.759	0.0160870
763.837	0.0161150
763.915	0.0158728
763.993	0.0159807
764.071	0.0160098
764.149	0.0158474
764.227	0.0161205
764.306	0.0160353
764.384	0.0160212
764.462	0.0159282
764.540	0.0160190
764.618	0.0159478
764.696	0.0158939
764.774	0.0160741
764.852	0.0160226
764.931	0.0161136
765.009	0.0159869
765.087	0.0159811
765.165	0.0161423
765.243	0.0160317
765.321	0.0161238
765.399	0.0161372
765.477	0.0160352
765.556	0.0161169
765.634	0.0160517
765.712	0.0160002
765.790	0.0161189
765.868	0.0161617
765.946	0.0160382
766.024	0.0159142
766.102	0.0160514
766.181	0.0160836
766.259	0.0160210
766.337	0.0160770
766.415	0.0160722
766.493	0.0161740
766.571	0.0161757
766.649	0.0160104
766.727	0.0160861
766.806	0.0160916
766.884	0.0160883
766.962	0.0159743
767.040	0.0161208
767.118	0.0161220
767.196	0.0160776
767.274	0.0161149
767.352	0.0161565
767.431	0.0161321
767.509	0.0160513
767.587	0.0161105
767.665	0.0159280
767.743	0.0159718
767.821	0.0161252
767.899	0.0160814
767.977	0.0158895
768.056	0.0161395
768.134	0.0161017
768.212	0.0160216
768.290	0.0160155
768.368	0.0160650
768.446	0.0159942
768.524	0.0160292
768.602	0.0159394
768.681	0.0158965
768.759	0.0160127
768.837	0.0159209
768.915	0.0158701
768.993	0.0160246
769.071	0.0159991
769.149	0.0158871
769.227	0.0158961
769.306	0.0159280
769.384	0.0158956
769.462	0.0159424
769.540	0.0158157
769.618	0.0158864
769.696	0.0157829
769.774	0.0158867
769.852	0.0159215
769.931	0.0158801
770.009	0.0159940
770.087	0.0158971
770.165	0.0159689
770.243	0.0157944
770.321	0.0160172
770.399	0.0159756
770.477	0.0159322
770.556	0.0160484
770.634	0.0157826
770.712	0.0158855
770.790	0.0158310
770.868	0.0159996
770.946	0.0158971
771.024	0.0158058
771.102	0.0158776
771.181	0.0159052
771.259	0.0160085
771.337	0.0159327
771.415	0.0160400
771.493	0.0159886
771.571	0.0158547
771.649	0.0159034
771.727	0.0159689
771.806	0.0159640
771.884	0.0158479
771.962	0.0159163
772.040	0.0159856
772.118	0.0160340
772.196	0.0160192
772.274	0.0159307
772.352	0.0160724
772.431	0.0160215
772.509	0.0158826
772.587	0.0159341
772.665	0.0161270
772.743	0.0162325
772.821	0.0159117
772.899	0.0160004
772.977	0.0161400
773.056	0.0162927
773.134	0.0159848
773.212	0.0161001
773.290	0.0161446
773.368	0.0160142
773.446	0.0159711
773.524	0.0161616
773.602	0.0161630
773.681	0.0159539
773.759	0.0160934
773.837	0.0160722
773.915	0.0161330
773.993	0.0160826
774.071	0.0159756
774.149	0.0160120
774.227	0.0159782
774.306	0.0160163
774.384	0.0158402
774.462	0.0159633
774.540	0.0160267
774.618	0.0160106
774.696	0.0160610
774.774	0.0160823
774.852	0.0157890
774.931	0.0160127
775.009	0.0161624
775.087	0.0160041
775.165	0.0160284
775.243	0.0160476
775.321	0.0160497
775.399	0.0159799
775.477	0.0160220
775.556	0.0161911
775.634	0.0161532
775.712	0.0160535
775.790	0.0160159
775.868	0.0159953
775.946	0.0160892
776.024	0.0161900
776.102	0.0161176
776.181	0.0159225
776.259	0.0160397
776.337	0.0162659
776.415	0.0160838
776.493	0.0160227
776.571	0.0159987
776.649	0.0162415
776.727	0.0160730
776.806	0.0160840
776.884	0.0159505
776.962	0.0160422
777.040	0.0161093
777.118	0.0160145
777.196	0.0159850
777.274	0.0159276
777.352	0.0161385
777.431	0.0159335
777.509	0.0160493
777.587	0.0159664
777.665	0.0159258
777.743	0.0159473
777.821	0.0158878
777.899	0.0159759
777.977	0.0160151
778.056	0.0160209
778.134	0.0159528
778.212	0.0160715
778.290	0.0160638
778.368	0.0161623
778.446	0.0160404
778.524	0.0160563
778.602	0.0161712
778.681	0.0161978
778.759	0.0160241
778.837	0.0159986
778.915	0.0160299
778.993	0.0161119
779.071	0.0160748
779.149	0.0159894
779.227	0.0160133
779.306	0.0162360
779.384	0.0161128
779.462	0.0160587
779.540	0.0161028
779.618	0.0162041
779.696	0.0161557
779.774	0.0160447
779.852	0.0162447
779.931	0.0162556
780.009	0.0161140
780.087	0.0161633
780.165	0.0160841
780.243	0.0160941
780.321	0.0159966
780.399	0.0161022
780.477	0.0161449
780.556	0.0159947
780.634	0.0161777
780.712	0.0160950
780.790	0.0161557
780.868	0.0162224
780.946	0.0162154
781.024	0.0161856
781.102	0.0162141
781.181	0.0162269
781.259	0.0161394
781.337	0.0162277
781.415	0.0161712
781.493	0.0162482
781.571	0.0161929
781.649	0.0160448
781.727	0.0162369
781.806	0.0162278
781.884	0.0161334
781.962	0.0161541
782.040	0.0160773
782.118	0.0160055
782.196	0.0161189
782.274	0.0159808
782.352	0.0162231
782.431	0.0162475
782.509	0.0161968
782.587	0.0160173
782.665	0.0161562
782.743	0.0160482
782.821	0.0162029
782.899	0.0161002
782.977	0.0161546
783.056	0.0161507
783.134	0.0161869
783.212	0.0161719
783.290	0.0159476
783.368	0.0159734
783.446	0.0159998
783.524	0.0161077
783.602	0.0160651
783.681	0.0159793
783.759	0.0159957
783.837	0.0160506
783.915	0.0159785
783.993	0.0159846
784.071	0.0159421
784.149	0.0159480
784.227	0.0159951
784.306	0.0158918
784.384	0.0158979
784.462	0.0159921
784.540	0.0159524
784.618	0.0159814
784.696	0.0158852
784.774	0.0159809
784.852	0.0159448
784.931	0.0159933
785.009	0.0158437
785.087	0.0158931
785.165	0.0159180
785.243	0.0159356
785.321	0.0160477
785.399	0.0158038
785.477	0.0159373
785.556	0.0159926
785.634	0.0159300
785.712	0.0159628
785.790	0.0159759
785.868	0.0160433
785.946	0.0159548
786.024	0.0159337
786.102	0.0160236
786.181	0.0159093
786.259	0.0159426
786.337	0.0160901
786.415	0.0160742
786.493	0.0159920
786.571	0.0160610
786.649	0.0160325
786.727	0.0159535
786.806	0.0159513
786.884	0.0161063
786.962	0.0161503
787.040	0.0162246
787.118	0.0160468
787.196	0.0162944
787.274	0.0161021
787.352	0.0160963
787.431	0.0161228
787.509	0.0161405
787.587	0.0161586
787.665	0.0162619
787.743	0.0162099
787.821	0.0160499
787.899	0.0160186
787.977	0.0161283
788.056	0.0161327
788.134	0.0160931
788.212	0.0161044
788.290	0.0160490
788.368	0.0158804
788.446	0.0160086
788.524	0.0159788
788.602	0.0160252
788.681	0.0158932
788.759	0.0159087
788.837	0.0159439
788.915	0.0159052
788.993	0.0157935
789.071	0.0159028
789.149	0.0159389
789.227	0.0160929
789.306	0.0158960
789.384	0.0157869
789.462	0.0158234
789.540	0.0159093
789.618	0.0159059
789.696	0.0159206
789.774	0.0159501
789.852	0.0159259
789.931	0.0159383
790.009	0.0158527
790.087	0.0160364
790.165	0.0159772
790.243	0.0159523
790.321	0.0159063
790.399	0.0158618
790.477	0.0159496
790.556	0.0158681
790.634	0.0159588
790.712	0.0158135
790.790	0.0159775
790.868	0.0159042
790.946	0.0160213
791.024	0.0160275
791.102	0.0159589
791.181	0.0160202
791.259	0.0159468
791.337	0.0159555
791.415	0.0159979
791.493	0.0158216
791.571	0.0159915
791.649	0.0160668
791.727	0.0160297
791.806	0.0159686
791.884	0.0160898
791.962	0.0159185
792.040	0.0160785
792.118	0.0160851
792.196	0.0160036
792.274	0.0161127
792.352	0.0160511
792.431	0.0160934
792.509	0.0159960
792.587	0.0160419
792.665	0.0160807
792.743	0.0160294
792.821	0.0161249
792.899	0.0160038
792.977	0.0159909
793.056	0.0159173
793.134	0.0159566
793.212	0.0161197
793.290	0.0160128
793.368	0.0159197
793.446	0.0160049
793.524	0.0160335
793.602	0.0159832
793.681	0.0160815
793.759	0.0160667
793.837	0.0161523
793.915	0.0159617
793.993	0.0159693
794.071	0.0158868
794.149	0.0160033
794.227	0.0159052
794.306	0.0159254
794.384	0.0160088
794.462	0.0159972
794.540	0.0159991
794.618	0.0160261
794.696	0.0158979
794.774	0.0159824
794.852	0.0160391
794.931	0.0161292
795.009	0.0159422
795.087	0.0159136
795.165	0.0161086
795.243	0.0159873
795.321	0.0159301
795.399	0.0159287
795.477	0.0160535
795.556	0.0160026
795.634	0.0159304
795.712	0.0159978
795.790	0.0158453
795.868	0.0157989
795.946	0.0159801
796.024	0.0159148
796.102	0.0158050
796.181	0.0160645
796.259	0.0161247
796.337	0.0159627
796.415	0.0159715
796.493	0.0160255
796.571	0.0161154
796.649	0.0160825
796.727	0.0160471
796.806	0.0160866
796.884	0.0159385
796.962	0.0160540
797.040	0.0158585
797.118	0.0160023
797.196	0.0160394
797.274	0.0160506
797.352	0.0160324
797.431	0.0160403
797.509	0.0160647
797.587	0.0161506
797.665	0.0161694
797.743	0.0160014
797.821	0.0160593
797.899	0.0159090
797.977	0.0159775
798.056	0.0158689
798.134	0.0159348
798.212	0.0160889
798.290	0.0160487
798.368	0.0159942
798.446	0.0161390
798.524	0.0161024
798.602	0.0160798
798.681	0.0160561
798.759	0.0159978
798.837	0.0162131
798.915	0.0159986
798.993	0.0160225
799.071	0.0160361
799.149	0.0161116
799.227	0.0161148
799.306	0.0160436
799.384	0.0160002
799.462	0.0161301
799.540	0.0162072
799.618	0.0160868
799.696	0.0159647
799.774	0.0160480
799.852	0.0160885
799.931	0.0160552
800.009	0.0160261
800.087	0.0159618
800.165	0.0159168
800.243	0.0158978
800.321	0.0160286
800.399	0.0159083
800.477	0.0158641
800.556	0.0158532
800.634	0.0160325
800.712	0.0161198
800.790	0.0160294
800.868	0.0160137
800.946	0.0160194
801.024	0.0159496
801.102	0.0158694
801.181	0.0160050
801.259	0.0161050
801.337	0.0159259
801.415	0.0160696
801.493	0.0160268
801.571	0.0160279
801.649	0.0160558
801.727	0.0159605
801.806	0.0161020
801.884	0.0160622
801.962	0.0160336
802.040	0.0159867
802.118	0.0160887
802.196	0.0162544
802.274	0.0159755
802.352	0.0159838
802.431	0.0160603
802.509	0.0160126
802.587	0.0159354
802.665	0.0161101
802.743	0.0159878
802.821	0.0159637
802.899	0.0160743
802.977	0.0161199
803.056	0.0159718
803.134	0.0161230
803.212	0.0160175
803.290	0.0160563
803.368	0.0162585
803.446	0.0159817
803.524	0.0159258
803.602	0.0162791
803.681	0.0160430
803.759	0.0160480
803.837	0.0161997
803.915	0.0162326
803.993	0.0162385
804.071	0.0162073
804.149	0.0162205
804.227	0.0161826
804.306	0.0161003
804.384	0.0159934
804.462	0.0160922
804.540	0.0160677
804.618	0.0161495
804.696	0.0161058
804.774	0.0160493
804.852	0.0160149
804.931	0.0161301
805.009	0.0161558
805.087	0.0161302
805.165	0.0161043
805.243	0.0159771
805.321	0.0159882
805.399	0.0161907
805.477	0.0161839
805.556	0.0160960
805.634	0.0161552
805.712	0.0160831
805.790	0.0161181
805.868	0.0160486
805.946	0.0160587
806.024	0.0160725
806.102	0.0161211
806.181	0.0160426
806.259	0.0160962
806.337	0.0160100
806.415	0.0159637
806.493	0.0161526
806.571	0.0159347
806.649	0.0158808
806.727	0.0158824
806.806	0.0159874
806.884	0.0161028
806.962	0.0160530
807.040	0.0159231
807.118	0.0159266
807.196	0.0159843
807.274	0.0159030
807.352	0.0159303
807.431	0.0159746
807.509	0.0160406
807.587	0.0160694
807.665	0.0160190
807.743	0.0160918
807.821	0.0161463
807.899	0.0160950
807.977	0.0160577
808.056	0.0160338
808.134	0.0159775
808.212	0.0159573
808.290	0.0161369
808.368	0.0161469
808.446	0.0160065
808.524	0.0160082
808.602	0.0160584
808.681	0.0160083
808.759	0.0160222
808.837	0.0159446
808.915	0.0160048
808.993	0.0158891
809.071	0.0159785
809.149	0.0159801
809.227	0.0159947
809.306	0.0160476
809.384	0.0159299
809.462	0.0158807
809.540	0.0159691
809.618	0.0159405
809.696	0.0158860
809.774	0.0159691
809.852	0.0160204
809.931	0.0160157
810.009	0.0159199
810.087	0.0160435
810.165	0.0160416
810.243	0.0160855
810.321	0.0162008
810.399	0.0161140
810.477	0.0160595
810.556	0.0160949
810.634	0.0160609
810.712	0.0161535
810.790	0.0161570
810.868	0.0159650
810.946	0.0161642
811.024	0.0162830
811.102	0.0160503
811.181	0.0161192
811.259	0.0160921
811.337	0.0160455
811.415	0.0161799
811.493	0.0161831
811.571	0.0162016
811.649	0.0161222
811.727	0.0161324
811.806	0.0160769
811.884	0.0161901
811.962	0.0161031
812.040	0.0162320
812.118	0.0161678
812.196	0.0160740
812.274	0.0160782
812.352	0.0162107
812.431	0.0160987
812.509	0.0161129
812.587	0.0161355
812.665	0.0160694
812.743	0.0160548
812.821	0.0161743
812.899	0.0161852
812.977	0.0160506
813.056	0.0159994
813.134	0.0160822
813.212	0.0160579
813.290	0.0159442
813.368	0.0160858
813.446	0.0159991
813.524	0.0159835
813.602	0.0159300
813.681	0.0159247
813.759	0.0159058
813.837	0.0159278
813.915	0.0159991
813.993	0.0159099
814.071	0.0158144
814.149	0.0160086
814.227	0.0159641
814.306	0.0160037
814.384	0.0160115
814.462	0.0159545
814.540	0.0159589
814.618	0.0159169
814.696	0.0159562
814.774	0.0160217
814.852	0.0159041
814.931	0.0159660
815.009	0.0159262
815.087	0.0160374
815.165	0.0160782
815.243	0.0159103
815.321	0.0160126
815.399	0.0160059
815.477	0.0159683
815.556	0.0160680
815.634	0.0161504
815.712	0.0159524
815.790	0.0161752
815.868	0.0160931
815.946	0.0160015
816.024	0.0160734
816.102	0.0161660
816.181	0.0161505
816.259	0.0161259
816.337	0.0160167
816.415	0.0161314
816.493	0.0159990
816.571	0.0160745
816.649	0.0159261
816.727	0.0159956
816.806	0.0159485
816.884	0.0158929
816.962	0.0161520
817.040	0.0160693
817.118	0.0160360
817.196	0.0160149
817.274	0.0159543
817.352	0.0158924
817.431	0.0160020
817.509	0.0159216
817.587	0.0159624
817.665	0.0160574
817.743	0.0160562
817.821	0.0158814
817.899	0.0159515
817.977	0.0158992
818.056	0.0159632
818.134	0.0160553
818.212	0.0159648
818.290	0.0159935
818.368	0.0159134
818.446	0.0160560
818.524	0.0160717
818.602	0.0158728
818.681	0.0159156
818.759	0.0160107
818.837	0.0158932
818.915	0.0159010
818.993	0.0158689
819.071	0.0159364
819.149	0.0161173
819.227	0.0160729
819.306	0.0159762
819.384	0.0159353
819.462	0.0159750
819.540	0.0161479
819.618	0.0159877
819.696	0.0160442
819.774	0.0161555
819.852	0.0161726
819.931	0.0161285
820.009	0.0159418
820.087	0.0160695
820.165	0.0162312
820.243	0.0160816
820.321	0.0161390
820.399	0.0160740
820.477	0.0161337
820.556	0.0161772
820.634	0.0160336
820.712	0.0161249
820.790	0.0161697
820.868	0.0161889
820.946	0.0160858
821.024	0.0161716
821.102	0.0161222
821.181	0.0161461
821.259	0.0161709
821.337	0.0162015
821.415	0.0161736
821.493	0.0161386
821.571	0.0161575
821.649	0.0161284
821.727	0.0161856
821.806	0.0161901
821.884	0.0162164
821.962	0.0162161
822.040	0.0161133
822.118	0.0161022
822.196	0.0161248
822.274	0.0161279
822.352	0.0161788
822.431	0.0162146
822.509	0.0162064
822.587	0.0161109
822.665	0.0160928
822.743	0.0161444
822.821	0.0161351
822.899	0.0160603
822.977	0.0160667
823.056	0.0160755
823.134	0.0160712
823.212	0.0160220
823.290	0.0160114
823.368	0.0159177
823.446	0.0159631
823.524	0.0161780
823.602	0.0159783
823.681	0.0159671
823.759	0.0159296
823.837	0.0160579
823.915	0.0159525
823.993	0.0160722
824.071	0.0160385
824.149	0.0160497
824.227	0.0160500
824.306	0.0161688
824.384	0.0159873
824.462	0.0160431
824.540	0.0161607
824.618	0.0159785
824.696	0.0159184
824.774	0.0158917
824.852	0.0160322
824.931	0.0161304
825.009	0.0160443
825.087	0.0160604
825.165	0.0161196
825.243	0.0160262
825.321	0.0160234
825.399	0.0161633
825.477	0.0161172
825.556	0.0161512
825.634	0.0161829
825.712	0.0161683
825.790	0.0161967
825.868	0.0162125
825.946	0.0161874
826.024	0.0161443
826.102	0.0160184
826.181	0.0160314
826.259	0.0162217
826.337	0.0161255
826.415	0.0161584
826.493	0.0160776
826.571	0.0161779
826.649	0.0161640
826.727	0.0160709
826.806	0.0160533
826.884	0.0162167
826.962	0.0160954
827.040	0.0161970
827.118	0.0163919
827.196	0.0162270
827.274	0.0162443
827.352	0.0161304
827.431	0.0162736
827.509	0.0163248
827.587	0.0162293
827.665	0.0162479
827.743	0.0161172
827.821	0.0163240
827.899	0.0162466
827.977	0.0161723
828.056	0.0161724
828.134	0.0161120
828.212	0.0162024
828.290	0.0161620
828.368	0.0160997
828.446	0.0161316
828.524	0.0163361
828.602	0.0163232
828.681	0.0161217
828.759	0.0161209
828.837	0.0162093
828.915	0.0162034
828.993	0.0162622
829.071	0.0162112
829.149	0.0161967
829.227	0.0163032
829.306	0.0162489
829.384	0.0162153
829.462	0.0162246
829.540	0.0161800
829.618	0.0161677
829.696	0.0162434
829.774	0.0162025
829.852	0.0161294
829.931	0.0161668
830.009	0.0162876
830.087	0.0163368
830.165	0.0160049
830.243	0.0161392
830.321	0.0160938
830.399	0.0161876
830.477	0.0160985
830.556	0.0160509
830.634	0.0161466
830.712	0.0160634
830.790	0.0161842
830.868	0.0160598
830.946	0.0160354
831.024	0.0160559
831.102	0.0161609
831.181	0.0161530
831.259	0.0160870
831.337	0.0160773
831.415	0.0161546
831.493	0.0161425
831.571	0.0159877
831.649	0.0159316
831.727	0.0161151
831.806	0.0160517
831.884	0.0159322
831.962	0.0160132
832.040	0.0160589
832.118	0.0161098
832.196	0.0160164
832.274	0.0159577
832.352	0.0160093
832.431	0.0159677
832.509	0.0161485
832.587	0.0160579
832.665	0.0161603
832.743	0.0159812
832.821	0.0159648
832.899	0.0160287
832.977	0.0161377
833.056	0.0160945
833.134	0.0161124
833.212	0.0160862
833.290	0.0160338
833.368	0.0161594
833.446	0.0160835
833.524	0.0160433
833.602	0.0161476
833.681	0.0161898
833.759	0.0162305
833.837	0.0161641
833.915	0.0161404
833.993	0.0161597
834.071	0.0161517
834.149	0.0162381
834.227	0.0161142
834.306	0.0161534
834.384	0.0162023
834.462	0.0161932
834.540	0.0162617
834.618	0.0161975
834.696	0.0161810
834.774	0.0161268
834.852	0.0161561
834.931	0.0161344
835.009	0.0162051
835.087	0.0159887
835.165	0.0161620
835.243	0.0161777
835.321	0.0161079
835.399	0.0161809
835.477	0.0162621
835.556	0.0160741
835.634	0.0160601
835.712	0.0160697
835.790	0.0159847
835.868	0.0160487
835.946	0.0161317
836.024	0.0160055
836.102	0.0160706
836.181	0.0160167
836.259	0.0160650
836.337	0.0159928
836.415	0.0159766
836.493	0.0159357
836.571	0.0161002
836.649	0.0159880
836.727	0.0160442
836.806	0.0160088
836.884	0.0159419
836.962	0.0159715
837.040	0.0158939
837.118	0.0160307
837.196	0.0160393
837.274	0.0159368
837.352	0.0159480
837.431	0.0159919
837.509	0.0160149
837.587	0.0159114
837.665	0.0158451
837.743	0.0158729
837.821	0.0159199
837.899	0.0160392
837.977	0.0159644
838.056	0.0159812
838.134	0.0159859
838.212	0.0158994
838.290	0.0159229
838.368	0.0158494
838.446	0.0159238
838.524	0.0159492
838.602	0.0158772
838.681	0.0159364
838.759	0.0159158
838.837	0.0159753
838.915	0.0159380
838.993	0.0158907
839.071	0.0159927
839.149	0.0160180
839.227	0.0158863
839.306	0.0160525
839.384	0.0159708
839.462	0.0159622
839.540	0.0159512
839.618	0.0159267
839.696	0.0159309
839.774	0.0159379
839.852	0.0158618
839.931	0.0159618
840.009	0.0158936
840.087	0.0160143
840.165	0.0159692
840.243	0.0160139
840.321	0.0160508
840.399	0.0159055
840.477	0.0158743
840.556	0.0160602
840.634	0.0159706
840.712	0.0159130
840.790	0.0158872
840.868	0.0161474
840.946	0.0159949
841.024	0.0160075
841.102	0.0159926
841.181	0.0160369
841.259	0.0159949
841.337	0.0161060
841.415	0.0160911
841.493	0.0161893
841.571	0.0161069
841.649	0.0161348
841.727	0.0161182
841.806	0.0159695
841.884	0.0160915
841.962	0.0162315
842.040	0.0161362
842.118	0.0161913
842.196	0.0161485
842.274	0.0162573
842.352	0.0160754
842.431	0.0161073
842.509	0.0160649
842.587	0.0162205
842.665	0.0162328
842.743	0.0161366
842.821	0.0161035
842.899	0.0160941
842.977	0.0160825
843.056	0.0162003
843.134	0.0161606
843.212	0.0161238
843.290	0.0161081
843.368	0.0161986
843.446	0.0161250
843.524	0.0160772
843.602	0.0160095
843.681	0.0161240
843.759	0.0159022
843.837	0.0159825
843.915	0.0162309
843.993	0.0160074
844.071	0.0160426
844.149	0.0160139
844.227	0.0160691
844.306	0.0160493
844.384	0.0160419
844.462	0.0161130
844.540	0.0161312
844.618	0.0158995
844.696	0.0161707
844.774	0.0161222
844.852	0.0159877
844.931	0.0160371
845.009	0.0159690
845.087	0.0160973
845.165	0.0161190
845.243	0.0161932
845.321	0.0159616
845.399	0.0160332
845.477	0.0159781
845.556	0.0160066
845.634	0.0161285
845.712	0.0159189
845.790	0.0160696
845.868	0.0159695
845.946	0.0160310
846.024	0.0159372
846.102	0.0161261
846.181	0.0161683
846.259	0.0160847
846.337	0.0160128
846.415	0.0160002
846.493	0.0160087
846.571	0.0160252
846.649	0.0160481
846.727	0.0160638
846.806	0.0159382
846.884	0.0161820
846.962	0.0161752
847.040	0.0160327
847.118	0.0161198
847.196	0.0160000
847.274	0.0161053
847.352	0.0162492
847.431	0.0161215
847.509	0.0161208
847.587	0.0162009
847.665	0.0160892
847.743	0.0160526
847.821	0.0162094
847.899	0.0161440
847.977	0.0161382
848.056	0.0161079
848.134	0.0160140
848.212	0.0161847
848.290	0.0161909
848.368	0.0161418
848.446	0.0162552
848.524	0.0160599
848.602	0.0160018
848.681	0.0160856
848.759	0.0161687
848.837	0.0161755
848.915	0.0161872
848.993	0.0161022
849.071	0.0162195
849.149	0.0161896
849.227	0.0161722
849.306	0.0160458
849.384	0.0161491
849.462	0.0162374
849.540	0.0159924
849.618	0.0161335
849.696	0.0160436
849.774	0.0160310
849.852	0.0159686
849.931	0.0160959
850.009	0.0160958
850.087	0.0162267
850.165	0.0160847
850.243	0.0159946
850.321	0.0160501
850.399	0.0161880
850.477	0.0160023
850.556	0.0160865
850.634	0.0160091
850.712	0.0160384
850.790	0.0160840
850.868	0.0159505
850.946	0.0160229
851.024	0.0161164
851.102	0.0160307
851.181	0.0162086
851.259	0.0161697
851.337	0.0161400
851.415	0.0160775
851.493	0.0161864
851.571	0.0162003
851.649	0.0161443
851.727	0.0161046
851.806	0.0160360
851.884	0.0160741
851.962	0.0161179
852.040	0.0160558
852.118	0.0161732
852.196	0.0161473
852.274	0.0160484
852.352	0.0159911
852.431	0.0161324
852.509	0.0161022
852.587	0.0160981
852.665	0.0160596
852.743	0.0160822
852.821	0.0162261
852.899	0.0162128
852.977	0.0160362
853.056	0.0158941
853.134	0.0159761
853.212	0.0160322
853.290	0.0160140
853.368	0.0159517
853.446	0.0159599
853.524	0.0160072
853.602	0.0159773
853.681	0.0159069
853.759	0.0159373
853.837	0.0160430
853.915	0.0158807
853.993	0.0159299
854.071	0.0159328
854.149	0.0161094
854.227	0.0159791
854.306	0.0158971
854.384	0.0160185
854.462	0.0158916
854.540	0.0160437
854.618	0.0159359
854.696	0.0160766
854.774	0.0159186
854.852	0.0159901
854.931	0.0160315
855.009	0.0160138
855.087	0.0159843
855.165	0.0160796
855.243	0.0160854
855.321	0.0161634
855.399	0.0160588
855.477	0.0162395
855.556	0.0160618
855.634	0.0161092
855.712	0.0161121
855.790	0.0161110
855.868	0.0161884
855.946	0.0160039
856.024	0.0160914
856.102	0.0161606
856.181	0.0161182
856.259	0.0161662
856.337	0.0162636
856.415	0.0161929
856.493	0.0162505
856.571	0.0160030
856.649	0.0160120
856.727	0.0161784
856.806	0.0161691
856.884	0.0162345
856.962	0.0161449
857.040	0.0159748
857.118	0.0160754
857.196	0.0160474
857.274	0.0160468
857.352	0.0162062
857.431	0.0160851
857.509	0.0159475
857.587	0.0160410
857.665	0.0161614
857.743	0.0160802
857.821	0.0160179
857.899	0.0160020
857.977	0.0159832
858.056	0.0160981
858.134	0.0159956
858.212	0.0160162
858.290	0.0159752
858.368	0.0160616
858.446	0.0160658
858.524	0.0159420
858.602	0.0160490
858.681	0.0159598
858.759	0.0160574
858.837	0.0160000
858.915	0.0161108
858.993	0.0161173
859.071	0.0159787
859.149	0.0159978
859.227	0.0160157
859.306	0.0159579
859.384	0.0159274
859.462	0.0161185
859.540	0.0158752
859.618	0.0159328
859.696	0.0160623
859.774	0.0160508
859.852	0.0160561
859.931	0.0159444
860.009	0.0159892
860.087	0.0159583
860.165	0.0158785
860.243	0.0160624
860.321	0.0160950
860.399	0.0160774
860.477	0.0159740
860.556	0.0160617
860.634	0.0160416
860.712	0.0159595
860.790	0.0159479
860.868	0.0160922
860.946	0.0158898
861.024	0.0161213
861.102	0.0160610
861.181	0.0160929
861.259	0.0160497
861.337	0.0159760
861.415	0.0158611
861.493	0.0159847
861.571	0.0159536
861.649	0.0160236
861.727	0.0160825
861.806	0.0160218
861.884	0.0159911
861.962	0.0160564
862.040	0.0160026
862.118	0.0159914
862.196	0.0160000
862.274	0.0159470
862.352	0.0159961
862.431	0.0161868
862.509	0.0160746
862.587	0.0159851
862.665	0.0160750
862.743	0.0159613
862.821	0.0160123
862.899	0.0160538
862.977	0.0161982
863.056	0.0161035
863.134	0.0158868
863.212	0.0160799
863.290	0.0160601
863.368	0.0161494
863.446	0.0161427
863.524	0.0159431
863.602	0.0159114
863.681	0.0160106
863.759	0.0160709
863.837	0.0162135
863.915	0.0160041
863.993	0.0161932
864.071	0.0159563
864.149	0.0159315
864.227	0.0159318
864.306	0.0159054
864.384	0.0159667
864.462	0.0160263
864.540	0.0160526
864.618	0.0159415
864.696	0.0159207
864.774	0.0160043
864.852	0.0160319
864.931	0.0159416
865.009	0.0159070
865.087	0.0161960
865.165	0.0159745
865.243	0.0159306
865.321	0.0158975
865.399	0.0160004
865.477	0.0160501
865.556	0.0162065
865.634	0.0160166
865.712	0.0160412
865.790	0.0161852
865.868	0.0159988
865.946	0.0160470
866.024	0.0159435
866.102	0.0160353
866.181	0.0160210
866.259	0.0161072
866.337	0.0160805
866.415	0.0159197
866.493	0.0161179
866.571	0.0160844
866.649	0.0161464
866.727	0.0159197
866.806	0.0160573
866.884	0.0160231
866.962	0.0160889
867.040	0.0160682
867.118	0.0160038
867.196	0.0160226
867.274	0.0160310
867.352	0.0160752
867.431	0.0160446
867.509	0.0160458
867.587	0.0158704
867.665	0.0160555
867.743	0.0160262
867.821	0.0160931
867.899	0.0160487
867.977	0.0160322
868.056	0.0161774
868.134	0.0160181
868.212	0.0159329
868.290	0.0161169
868.368	0.0160512
868.446	0.0161374
868.524	0.0160704
868.602	0.0158967
868.681	0.0159355
868.759	0.0159600
868.837	0.0160279
868.915	0.0160954
868.993	0.0159733
869.071	0.0159102
869.149	0.0162308
869.227	0.0161153
869.306	0.0160138
869.384	0.0159138
869.462	0.0162363
869.540	0.0159983
869.618	0.0160614
869.696	0.0160171
869.774	0.0159634
869.852	0.0160403
869.931	0.0160598
870.009	0.0160369
870.087	0.0160396
870.165	0.0161266
870.243	0.0160677
870.321	0.0160759
870.399	0.0160474
870.477	0.0161228
870.556	0.0160058
870.634	0.0161232
870.712	0.0162280
870.790	0.0161389
870.868	0.0161147
870.946	0.0160574
871.024	0.0162516
871.102	0.0161357
871.181	0.0161514
871.259	0.0160197
871.337	0.0162017
871.415	0.0161134
871.493	0.0160335
871.571	0.0160798
871.649	0.0160466
871.727	0.0161471
871.806	0.0161992
871.884	0.0162096
871.962	0.0159331
872.040	0.0159826
872.118	0.0160157
872.196	0.0158703
872.274	0.0159805
872.352	0.0159421
872.431	0.0159135
872.509	0.0158147
872.587	0.0159934
872.665	0.0160602
872.743	0.0158454
872.821	0.0158344
872.899	0.0159196
872.977	0.0159361
873.056	0.0158694
873.134	0.0159856
873.212	0.0158424
873.290	0.0158972
873.368	0.0157857
873.446	0.0158789
873.524	0.0160596
873.602	0.0159201
873.681	0.0159550
873.759	0.0160568
873.837	0.0159231
873.915	0.0158312
873.993	0.0159962
874.071	0.0160894
874.149	0.0161005
874.227	0.0159806
874.306	0.0160571
874.384	0.0160564
874.462	0.0160809
874.540	0.0160158
874.618	0.0161047
874.696	0.0159917
874.774	0.0160972
874.852	0.0159660
874.931	0.0159715
875.009	0.0160571
875.087	0.0160259
875.165	0.0160575
875.243	0.0161275
875.321	0.0160826
875.399	0.0159895
875.477	0.0160789
875.556	0.0160707
875.634	0.0161878
875.712	0.0159863
875.790	0.0161170
875.868	0.0162135
875.946	0.0161367
876.024	0.0160892
876.102	0.0161440
876.181	0.0160854
876.259	0.0161280
876.337	0.0160931
876.415	0.0160035
876.493	0.0159785
876.571	0.0160780
876.649	0.0161021
876.727	0.0161427
876.806	0.0160964
876.884	0.0160619
876.962	0.0159877
877.040	0.0160944
877.118	0.0159204
877.196	0.0159829
877.274	0.0161096
877.352	0.0159797
877.431	0.0160406
877.509	0.0158999
877.587	0.0159311
877.665	0.0160674
877.743	0.0160989
877.821	0.0160027
877.899	0.0160255
877.977	0.0159824
878.056	0.0160502
878.134	0.0160007
878.212	0.0160513
878.290	0.0160329
878.368	0.0160357
878.446	0.0159486
878.524	0.0161454
878.602	0.0159648
878.681	0.0160542
878.759	0.0159708
878.837	0.0161691
878.915	0.0162142
878.993	0.0161599
879.071	0.0161271
879.149	0.0160282
879.227	0.0161192
879.306	0.0161047
879.384	0.0161267
879.462	0.0160745
879.540	0.0162160
879.618	0.0161662
879.696	0.0161336
879.774	0.0160576
879.852	0.0161572
879.931	0.0161501
880.009	0.0162052
880.087	0.0162306
880.165	0.0161605
880.243	0.0162335
880.321	0.0161328
880.399	0.0160399
880.477	0.0162434
880.556	0.0161050
880.634	0.0160960
880.712	0.0162641
880.790	0.0161782
880.868	0.0161665
880.946	0.0159985
881.024	0.0161749
881.102	0.0161744
881.181	0.0161084
881.259	0.0161564
881.337	0.0161794
881.415	0.0160977
881.493	0.0161320
881.571	0.0160886
881.649	0.0161419
881.727	0.0160538
881.806	0.0160611
881.884	0.0161788
881.962	0.0160035
882.040	0.0160402
882.118	0.0160681
882.196	0.0160486
882.274	0.0161946
882.352	0.0160590
882.431	0.0160161
882.509	0.0160838
882.587	0.0160998
882.665	0.0161931
882.743	0.0159860
882.821	0.0159980
882.899	0.0160490
882.977	0.0160958
883.056	0.0161266
883.134	0.0159694
883.212	0.0160616
883.290	0.0160529
883.368	0.0159996
883.446	0.0160178
883.524	0.0160355
883.602	0.0160483
883.681	0.0160720
883.759	0.0160378
883.837	0.0161823
883.915	0.0159169
883.993	0.0160318
884.071	0.0162746
884.149	0.0160879
884.227	0.0160012
884.306	0.0160664
884.384	0.0159898
884.462	0.0161383
884.540	0.0160329
884.618	0.0159110
884.696	0.0160155
884.774	0.0159328
884.852	0.0160410
884.931	0.0160023
885.009	0.0159945
885.087	0.0160707
885.165	0.0160288
885.243	0.0161877
885.321	0.0160715
885.399	0.0159543
885.477	0.0161192
885.556	0.0160915
885.634	0.0161585
885.712	0.0161334
885.790	0.0161092
885.868	0.0160838
885.946	0.0160011
886.024	0.0161593
886.102	0.0162920
886.181	0.0161438
886.259	0.0160472
886.337	0.0161266
886.415	0.0161220
886.493	0.0160687
886.571	0.0161279
886.649	0.0161131
886.727	0.0160768
886.806	0.0162062
886.884	0.0160913
886.962	0.0160774
887.040	0.0161624
887.118	0.0160782
887.196	0.0161246
887.274	0.0160573
887.352	0.0162740
887.431	0.0160236
887.509	0.0158678
887.587	0.0159276
887.665	0.0158842
887.743	0.0159519
887.821	0.0159776
887.899	0.0160952
887.977	0.0158425
888.056	0.0159093
888.134	0.0159036
888.212	0.0160009
888.290	0.0159052
888.368	0.0159198
888.446	0.0159641
888.524	0.0160352
888.602	0.0160547
888.681	0.0159752
888.759	0.0160238
888.837	0.0161432
888.915	0.0160809
888.993	0.0160230
889.071	0.0159734
889.149	0.0161131
889.227	0.0161156
889.306	0.0159644
889.384	0.0159754
889.462	0.0159579
889.540	0.0160163
889.618	0.0160257
889.696	0.0161413
889.774	0.0162254
889.852	0.0160321
889.931	0.0160447
890.009	0.0161070
890.087	0.0161761
890.165	0.0161494
890.243	0.0161041
890.321	0.0161515
890.399	0.0162021
890.477	0.0162354
890.556	0.0160607
890.634	0.0161991
890.712	0.0162737
890.790	0.0162959
890.868	0.0161137
890.946	0.0161102
891.024	0.0161533
891.102	0.0162321
891.181	0.0161894
891.259	0.0161394
891.337	0.0161639
891.415	0.0161758
891.493	0.0161452
891.571	0.0160524
891.649	0.0161043
891.727	0.0161983
891.806	0.0160635
891.884	0.0161539
891.962	0.0160886
892.040	0.0161153
892.118	0.0161519
892.196	0.0160773
892.274	0.0160616
892.352	0.0160833
892.431	0.0160685
892.509	0.0159056
892.587	0.0161354
892.665	0.0162435
892.743	0.0161933
892.821	0.0160370
892.899	0.0160431
892.977	0.0160861
893.056	0.0160027
893.134	0.0160686
893.212	0.0161253
893.290	0.0160218
893.368	0.0161880
893.446	0.0161912
893.524	0.0161121
893.602	0.0161488
893.681	0.0160873
893.759	0.0162057
893.837	0.0162306
893.915	0.0162454
893.993	0.0161912
894.071	0.0161750
894.149	0.0161385
894.227	0.0160063
894.306	0.0162332
894.384	0.0161570
894.462	0.0160791
894.540	0.0161005
894.618	0.0161221
894.696	0.0161677
894.774	0.0160381
894.852	0.0160533
894.931	0.0160252
895.009	0.0158018
895.087	0.0160189
895.165	0.0160386
895.243	0.0160075
895.321	0.0159756
895.399	0.0159278
895.477	0.0159953
895.556	0.0158167
895.634	0.0159424
895.712	0.0158266
895.790	0.0158597
895.868	0.0160548
895.946	0.0158842
896.024	0.0160297
896.102	0.0159402
896.181	0.0159221
896.259	0.0159892
896.337	0.0160160
896.415	0.0160366
896.493	0.0161365
896.571	0.0161005
896.649	0.0161375
896.727	0.0160654
896.806	0.0161819
896.884	0.0161375
896.962	0.0161980
897.040	0.0161660
897.118	0.0161160
897.196	0.0162309
897.274	0.0161902
897.352	0.0161017
897.431	0.0161917
897.509	0.0159811
897.587	0.0161737
897.665	0.0161770
897.743	0.0161698
897.821	0.0161266
897.899	0.0160577
897.977	0.0160213
898.056	0.0159798
898.134	0.0160113
898.212	0.0161604
898.290	0.0160693
898.368	0.0159763
898.446	0.0160519
898.524	0.0160674
898.602	0.0161430
898.681	0.0160158
898.759	0.0160445
898.837	0.0159583
898.915	0.0161266
898.993	0.0160778
899.071	0.0160333
899.149	0.0160464
899.227	0.0158379
899.306	0.0159357
899.384	0.0160157
899.462	0.0159381
899.540	0.0159509
899.618	0.0158774
899.696	0.0159604
899.774	0.0159338
899.852	0.0160785
899.931	0.0159715
900.009	0.0159731
900.087	0.0160993
900.165	0.0161014
900.243	0.0161407
900.321	0.0159998
900.399	0.0161279
900.477	0.0159797
900.556	0.0160208
900.634	0.0161488
900.712	0.0160645
900.790	0.0160432
900.868	0.0161396
900.946	0.0161491
901.024	0.0161760
901.102	0.0161513
901.181	0.0160356
901.259	0.0159976
901.337	0.0161470
901.415	0.0161121
901.493	0.0160352
901.571	0.0159849
901.649	0.0160027
901.727	0.0161065
901.806	0.0161569
901.884	0.0159370
901.962	0.0161625
902.040	0.0160438
902.118	0.0160166
902.196	0.0160999
902.274	0.0161456
902.352	0.0160634
902.431	0.0159995
902.509	0.0159589
902.587	0.0159172
902.665	0.0159776
902.743	0.0159921
902.821	0.0160286
902.899	0.0159471
902.977	0.0160010
903.056	0.0160834
903.134	0.0161417
903.212	0.0161061
903.290	0.0160456
903.368	0.0161366
903.446	0.0160365
903.524	0.0161520
903.602	0.0160741
903.681	0.0160278
903.759	0.0161280
903.837	0.0161076
903.915	0.0161662
903.993	0.0161823
904.071	0.0160207
904.149	0.0162540
904.227	0.0161338
904.306	0.0160764
904.384	0.0160887
904.462	0.0161996
904.540	0.0162109
904.618	0.0161922
904.696	0.0162207
904.774	0.0161459
904.852	0.0159740
904.931	0.0160674
905.009	0.0161180
905.087	0.0160043
905.165	0.0159972
905.243	0.0162003
905.321	0.0161014
905.399	0.0159609
905.477	0.0159881
905.556	0.0160384
905.634	0.0160120
905.712	0.0159658
905.790	0.0160632
905.868	0.0160601
905.946	0.0160434
906.024	0.0160134
906.102	0.0161081
906.181	0.0160732
906.259	0.0162220
906.337	0.0162173
906.415	0.0160973
906.493	0.0160966
906.571	0.0161555
906.649	0.0161578
906.727	0.0161255
906.806	0.0160562
906.884	0.0160881
906.962	0.0161495
907.040	0.0161015
907.118	0.0161862
907.196	0.0161931
907.274	0.0161927
907.352	0.0161244
907.431	0.0162638
907.509	0.0161526
907.587	0.0161871
907.665	0.0162386
907.743	0.0161211
907.821	0.0162337
907.899	0.0162972
907.977	0.0162708
908.056	0.0161571
908.134	0.0162379
908.212	0.0162082
908.290	0.0161845
908.368	0.0162808
908.446	0.0162105
908.524	0.0161958
908.602	0.0161135
908.681	0.0160886
908.759	0.0162545
908.837	0.0161851
908.915	0.0162115
908.993	0.0161212
909.071	0.0162163
909.149	0.0161903
909.227	0.0161284
909.306	0.0159411
909.384	0.0161145
909.462	0.0161353
909.540	0.0160751
909.618	0.0160787
909.696	0.0160699
909.774	0.0161387
909.852	0.0161404
909.931	0.0160737
910.009	0.0161839
910.087	0.0160858
910.165	0.0161326
910.243	0.0161479
910.321	0.0161375
910.399	0.0161450
910.477	0.0160941
910.556	0.0160678
910.634	0.0160771
910.712	0.0162410
910.790	0.0162196
910.868	0.0160812
910.946	0.0159991
911.024	0.0161095
911.102	0.0162125
911.181	0.0162030
911.259	0.0161842
911.337	0.0160912
911.415	0.0160521
911.493	0.0161658
911.571	0.0161112
911.649	0.0161650
911.727	0.0161769
911.806	0.0160524
911.884	0.0160287
911.962	0.0161391
912.040	0.0162029
912.118	0.0160560
912.196	0.0160638
912.274	0.0159588
912.352	0.0160275
912.431	0.0160126
912.509	0.0161036
912.587	0.0161287
912.665	0.0159017
912.743	0.0159042
912.821	0.0159892
912.899	0.0161264
912.977	0.0160799
913.056	0.0159493
913.134	0.0158464
913.212	0.0159953
913.290	0.0159852
913.368	0.0159358
913.446	0.0160715
913.524	0.0160101
913.602	0.0160773
913.681	0.0161031
913.759	0.0160689
913.837	0.0159924
913.915	0.0161647
913.993	0.0159864
914.071	0.0160766
914.149	0.0162446
914.227	0.0160394
914.306	0.0160336
914.384	0.0160454
914.462	0.0161020
914.540	0.0159878
914.618	0.0161294
914.696	0.0160697
914.774	0.0161198
914.852	0.0161452
914.931	0.0161856
915.009	0.0161292
915.087	0.0160322
915.165	0.0160593
915.243	0.0161486
915.321	0.0161441
915.399	0.0161095
915.477	0.0160476
915.556	0.0160759
915.634	0.0160160
915.712	0.0161743
915.790	0.0160586
915.868	0.0160427
915.946	0.0161942
916.024	0.0160057
916.102	0.0161680
916.181	0.0160138
916.259	0.0161472
916.337	0.0161134
916.415	0.0160990
916.493	0.0163005
916.571	0.0162029
916.649	0.0161536
916.727	0.0160570
916.806	0.0160308
916.884	0.0160550
916.962	0.0161320
917.040	0.0162106
917.118	0.0160107
917.196	0.0159545
917.274	0.0160095
917.352	0.0159719
917.431	0.0161526
917.509	0.0161455
917.587	0.0161960
917.665	0.0161690
917.743	0.0161383
917.821	0.0159242
917.899	0.0161137
917.977	0.0161137
918.056	0.0160503
918.134	0.0160822
918.212	0.0161688
918.290	0.0160522
918.368	0.0161602
918.446	0.0161552
918.524	0.0161306
918.602	0.0160077
918.681	0.0161284
918.759	0.0161836
918.837	0.0160560
918.915	0.0160413
918.993	0.0160284
919.071	0.0159811
919.149	0.0160529
919.227	0.0160519
919.306	0.0160178
919.384	0.0160941
919.462	0.0160508
919.540	0.0159872
919.618	0.0159993
919.696	0.0160855
919.774	0.0160381
919.852	0.0160964
919.931	0.0161234
920.009	0.0160601
920.087	0.0160496
920.165	0.0161214
920.243	0.0161153
920.321	0.0160947
920.399	0.0160046
920.477	0.0161584
920.556	0.0160825
920.634	0.0161743
920.712	0.0162032
920.790	0.0160549
920.868	0.0160628
920.946	0.0161533
921.024	0.0160238
921.102	0.0161633
921.181	0.0161810
921.259	0.0161382
921.337	0.0160912
921.415	0.0161996
921.493	0.0161152
921.571	0.0160328
921.649	0.0160801
921.727	0.0161538
921.806	0.0161183
921.884	0.0161287
921.962	0.0161184
922.040	0.0162130
922.118	0.0160747
922.196	0.0161276
922.274	0.0161202
922.352	0.0161789
922.431	0.0161431
922.509	0.0160236
922.587	0.0160465
922.665	0.0162054
922.743	0.0161473
922.821	0.0160234
922.899	0.0159996
922.977	0.0160139
923.056	0.0159712
923.134	0.0159378
923.212	0.0159542
923.290	0.0160400
923.368	0.0159401
923.446	0.0160491
923.524	0.0159375
923.602	0.0158844
923.681	0.0158880
923.759	0.0160632
923.837	0.0160059
923.915	0.0159287
923.993	0.0158623
924.071	0.0159801
924.149	0.0160126
924.227	0.0161005
924.306	0.0160452
924.384	0.0160619
924.462	0.0160699
924.540	0.0160177
924.618	0.0160526
924.696	0.0160274
924.774	0.0160755
924.852	0.0159589
924.931	0.0159521
925.009	0.0159499
925.087	0.0159756
925.165	0.0161671
925.243	0.0158608
925.321	0.0160679
925.399	0.0159640
925.477	0.0159962
925.556	0.0159738
925.634	0.0160667
925.712	0.0160345
925.790	0.0160652
925.868	0.0161278
925.946	0.0161447
926.024	0.0160980
926.102	0.0160377
926.181	0.0161961
926.259	0.0161492
926.337	0.0162225
926.415	0.0159685
926.493	0.0161142
926.571	0.0161976
926.649	0.0161677
926.727	0.0162148
926.806	0.0161350
926.884	0.0161263
926.962	0.0161279
927.040	0.0162022
927.118	0.0162728
927.196	0.0160513
927.274	0.0161091
927.352	0.0161138
927.431	0.0160455
927.509	0.0161164
927.587	0.0159978
927.665	0.0160574
927.743	0.0159945
927.821	0.0159695
927.899	0.0159230
927.977	0.0160167
928.056	0.0160044
928.134	0.0160328
928.212	0.0160193
928.290	0.0160090
928.368	0.0159077
928.446	0.0158832
928.524	0.0159494
928.602	0.0159724
928.681	0.0160171
928.759	0.0159991
928.837	0.0158806
928.915	0.0160986
928.993	0.0160543
929.071	0.0158204
929.149	0.0160181
929.227	0.0160012
929.306	0.0160401
929.384	0.0159350
929.462	0.0158383
929.540	0.0159404
929.618	0.0159517
929.696	0.0160193
929.774	0.0159569
929.852	0.0159984
929.931	0.0160023
