05/19/2022	01:16:10	Ver.	4.1	UNKNOWN
Optical Delay	610.008675	Delta X		0.078125	Sweeps	1	Scan Rate	0/0
Coordinates	Axis 1	NaN	Axis 2	NaN	Axis 3	NaN	Axis 4	NaN	Axis 5	NaN	Axis 6	0.000000
TX Power	0.000000	RX Power	0.000000

610.009	0.0160978
610.087	0.0159768
610.165	0.0160340
610.243	0.0160853
610.321	0.0160826
610.399	0.0161053
610.477	0.0160401
610.556	0.0160199
610.634	0.0160255
610.712	0.0159973
610.790	0.0160788
610.868	0.0159739
610.946	0.0160606
611.024	0.0160545
611.102	0.0160698
611.181	0.0161179
611.259	0.0160208
611.337	0.0159442
611.415	0.0160571
611.493	0.0162163
611.571	0.0160837
611.649	0.0160963
611.727	0.0160769
611.806	0.0160172
611.884	0.0161552
611.962	0.0161945
612.040	0.0160279
612.118	0.0161549
612.196	0.0161800
612.274	0.0160478
612.352	0.0160786
612.431	0.0163081
612.509	0.0162093
612.587	0.0161949
612.665	0.0161778
612.743	0.0160577
612.821	0.0160307
612.899	0.0160633
612.977	0.0160352
613.056	0.0159994
613.134	0.0160980
613.212	0.0160674
613.290	0.0161311
613.368	0.0160305
613.446	0.0159186
613.524	0.0159661
613.602	0.0161011
613.681	0.0160192
613.759	0.0160366
613.837	0.0160532
613.915	0.0160031
613.993	0.0160611
614.071	0.0160303
614.149	0.0160312
614.227	0.0161267
614.306	0.0160622
614.384	0.0161628
614.462	0.0160978
614.540	0.0160813
614.618	0.0160577
614.696	0.0161678
614.774	0.0161936
614.852	0.0160575
614.931	0.0162014
615.009	0.0161873
615.087	0.0159496
615.165	0.0160744
615.243	0.0161161
615.321	0.0161476
615.399	0.0160658
615.477	0.0159277
615.556	0.0159948
615.634	0.0161078
615.712	0.0161157
615.790	0.0159272
615.868	0.0160960
615.946	0.0160216
616.024	0.0159223
616.102	0.0159201
616.181	0.0159289
616.259	0.0160413
616.337	0.0161432
616.415	0.0160328
616.493	0.0161475
616.571	0.0161544
616.649	0.0162333
616.727	0.0160799
616.806	0.0160294
616.884	0.0161328
616.962	0.0160731
617.040	0.0161774
617.118	0.0162363
617.196	0.0161938
617.274	0.0161133
617.352	0.0160945
617.431	0.0160892
617.509	0.0162042
617.587	0.0161951
617.665	0.0161701
617.743	0.0161729
617.821	0.0161817
617.899	0.0161397
617.977	0.0161900
618.056	0.0161461
618.134	0.0161560
618.212	0.0162392
618.290	0.0160467
618.368	0.0160149
618.446	0.0160913
618.524	0.0161870
618.602	0.0160604
618.681	0.0160364
618.759	0.0162867
618.837	0.0160757
618.915	0.0160812
618.993	0.0162872
619.071	0.0160128
619.149	0.0159779
619.227	0.0161311
619.306	0.0160159
619.384	0.0161705
619.462	0.0160638
619.540	0.0162196
619.618	0.0162100
619.696	0.0161903
619.774	0.0161352
619.852	0.0161906
619.931	0.0161604
620.009	0.0160854
620.087	0.0161282
620.165	0.0160622
620.243	0.0159421
620.321	0.0161371
620.399	0.0162601
620.477	0.0162170
620.556	0.0160283
620.634	0.0161857
620.712	0.0160990
620.790	0.0161217
620.868	0.0161134
620.946	0.0161402
621.024	0.0159586
621.102	0.0160284
621.181	0.0160621
621.259	0.0161470
621.337	0.0160133
621.415	0.0160474
621.493	0.0160120
621.571	0.0162053
621.649	0.0159561
621.727	0.0159162
621.806	0.0159444
621.884	0.0160784
621.962	0.0160589
622.040	0.0160149
622.118	0.0161047
622.196	0.0160122
622.274	0.0160013
622.352	0.0160077
622.431	0.0160991
622.509	0.0160648
622.587	0.0159933
622.665	0.0159595
622.743	0.0160265
622.821	0.0158740
622.899	0.0161200
622.977	0.0161101
623.056	0.0160153
623.134	0.0162863
623.212	0.0160917
623.290	0.0160271
623.368	0.0160587
623.446	0.0161160
623.524	0.0162213
623.602	0.0162308
623.681	0.0161048
623.759	0.0161184
623.837	0.0161465
623.915	0.0161802
623.993	0.0162878
624.071	0.0161621
624.149	0.0162401
624.227	0.0161541
624.306	0.0162017
624.384	0.0162579
624.462	0.0161681
624.540	0.0161685
624.618	0.0161903
624.696	0.0161861
624.774	0.0161822
624.852	0.0161402
624.931	0.0161167
625.009	0.0160821
625.087	0.0161510
625.165	0.0163061
625.243	0.0160801
625.321	0.0161135
625.399	0.0160437
625.477	0.0161263
625.556	0.0160962
625.634	0.0160709
625.712	0.0160799
625.790	0.0160050
625.868	0.0161304
625.946	0.0161597
626.024	0.0159777
626.102	0.0159990
626.181	0.0159207
626.259	0.0159590
626.337	0.0160049
626.415	0.0160686
626.493	0.0159061
626.571	0.0158278
626.649	0.0160690
626.727	0.0159869
626.806	0.0158813
626.884	0.0158640
626.962	0.0160214
627.040	0.0159270
627.118	0.0159193
627.196	0.0159559
627.274	0.0160407
627.352	0.0160825
627.431	0.0159956
627.509	0.0160207
627.587	0.0161410
627.665	0.0160516
627.743	0.0161616
627.821	0.0161139
627.899	0.0161684
627.977	0.0159397
628.056	0.0161142
628.134	0.0162386
628.212	0.0160161
628.290	0.0161594
628.368	0.0163876
628.446	0.0163127
628.524	0.0162802
628.602	0.0162691
628.681	0.0162993
628.759	0.0163718
628.837	0.0163649
628.915	0.0163494
628.993	0.0164228
629.071	0.0163533
629.149	0.0165583
629.227	0.0163507
629.306	0.0163130
629.384	0.0164191
629.462	0.0163240
629.540	0.0163557
629.618	0.0164332
629.696	0.0163481
629.774	0.0162479
629.852	0.0163541
629.931	0.0162359
630.009	0.0163652
630.087	0.0163867
630.165	0.0160750
630.243	0.0161008
630.321	0.0161804
630.399	0.0160780
630.477	0.0162651
630.556	0.0162326
630.634	0.0160168
630.712	0.0160363
630.790	0.0159465
630.868	0.0160233
630.946	0.0159998
631.024	0.0158925
631.102	0.0158308
631.181	0.0158328
631.259	0.0158650
631.337	0.0158614
631.415	0.0158758
631.493	0.0157747
631.571	0.0156536
631.649	0.0157203
631.727	0.0158569
631.806	0.0158261
631.884	0.0156442
631.962	0.0157153
632.040	0.0158342
632.118	0.0156802
632.196	0.0157218
632.274	0.0159642
632.352	0.0158682
632.431	0.0158104
632.509	0.0158527
632.587	0.0159599
632.665	0.0159361
632.743	0.0158424
632.821	0.0159848
632.899	0.0161018
632.977	0.0161470
633.056	0.0160731
633.134	0.0160132
633.212	0.0161937
633.290	0.0162290
633.368	0.0161511
633.446	0.0163481
633.524	0.0163451
633.602	0.0164960
633.681	0.0163846
633.759	0.0163430
633.837	0.0164867
633.915	0.0164330
633.993	0.0164942
634.071	0.0165007
634.149	0.0164890
634.227	0.0165273
634.306	0.0164144
634.384	0.0164673
634.462	0.0166635
634.540	0.0165102
634.618	0.0163935
634.696	0.0164417
634.774	0.0166223
634.852	0.0163586
634.931	0.0163972
635.009	0.0164929
635.087	0.0164103
635.165	0.0161700
635.243	0.0162025
635.321	0.0161977
635.399	0.0163424
635.477	0.0162302
635.556	0.0161576
635.634	0.0160233
635.712	0.0160298
635.790	0.0158736
635.868	0.0159621
635.946	0.0158725
636.024	0.0159014
636.102	0.0159057
636.181	0.0157642
636.259	0.0156548
636.337	0.0157894
636.415	0.0155533
636.493	0.0156850
636.571	0.0155832
636.649	0.0156210
636.727	0.0156125
636.806	0.0157173
636.884	0.0156659
636.962	0.0157035
637.040	0.0157624
637.118	0.0156801
637.196	0.0157338
637.274	0.0158141
637.352	0.0157283
637.431	0.0159016
637.509	0.0159177
637.587	0.0160702
637.665	0.0161374
637.743	0.0162735
637.821	0.0162360
637.899	0.0162366
637.977	0.0163924
638.056	0.0163466
638.134	0.0164764
638.212	0.0165650
638.290	0.0165755
638.368	0.0165966
638.446	0.0166214
638.524	0.0166362
638.602	0.0166162
638.681	0.0165984
638.759	0.0167557
638.837	0.0166853
638.915	0.0167477
638.993	0.0166671
639.071	0.0167138
639.149	0.0167105
639.227	0.0166135
639.306	0.0166861
639.384	0.0166113
639.462	0.0165436
639.540	0.0165552
639.618	0.0163100
639.696	0.0164918
639.774	0.0164815
639.852	0.0163670
639.931	0.0162426
640.009	0.0162473
640.087	0.0161738
640.165	0.0161939
640.243	0.0160129
640.321	0.0161143
640.399	0.0160800
640.477	0.0159523
640.556	0.0159390
640.634	0.0160591
640.712	0.0159107
640.790	0.0157882
640.868	0.0156734
640.946	0.0157223
641.024	0.0157882
641.102	0.0158047
641.181	0.0157416
641.259	0.0156264
641.337	0.0158321
641.415	0.0157091
641.493	0.0157610
641.571	0.0158327
641.649	0.0157964
641.727	0.0158732
641.806	0.0159187
641.884	0.0159101
641.962	0.0158862
642.040	0.0158515
642.118	0.0158979
642.196	0.0159853
642.274	0.0160012
642.352	0.0159485
642.431	0.0160033
642.509	0.0161121
642.587	0.0160907
642.665	0.0161386
642.743	0.0162770
642.821	0.0160715
642.899	0.0162251
642.977	0.0161730
643.056	0.0161075
643.134	0.0160709
643.212	0.0161768
643.290	0.0162447
643.368	0.0161514
643.446	0.0160553
643.524	0.0161961
643.602	0.0162602
643.681	0.0160894
643.759	0.0161864
643.837	0.0162920
643.915	0.0161662
643.993	0.0161572
644.071	0.0161179
644.149	0.0160357
644.227	0.0160497
644.306	0.0160503
644.384	0.0161777
644.462	0.0160882
644.540	0.0160594
644.618	0.0161153
644.696	0.0161959
644.774	0.0162190
644.852	0.0160207
644.931	0.0160220
645.009	0.0161007
645.087	0.0161264
645.165	0.0160361
645.243	0.0160551
645.321	0.0160777
645.399	0.0160986
645.477	0.0161986
645.556	0.0161269
645.634	0.0162161
645.712	0.0160859
645.790	0.0161034
645.868	0.0161077
645.946	0.0162349
646.024	0.0162224
646.102	0.0161595
646.181	0.0161066
646.259	0.0161228
646.337	0.0161469
646.415	0.0161266
646.493	0.0160809
646.571	0.0162064
646.649	0.0160358
646.727	0.0160635
646.806	0.0161059
646.884	0.0161503
646.962	0.0161129
647.040	0.0161734
647.118	0.0161414
647.196	0.0161420
647.274	0.0160307
647.352	0.0159552
647.431	0.0159371
647.509	0.0160155
647.587	0.0160815
647.665	0.0159624
647.743	0.0160500
647.821	0.0161318
647.899	0.0160592
647.977	0.0159322
648.056	0.0159962
648.134	0.0162061
648.212	0.0160175
648.290	0.0159757
648.368	0.0161026
648.446	0.0162177
648.524	0.0160191
648.602	0.0160252
648.681	0.0160895
648.759	0.0160913
648.837	0.0161904
648.915	0.0160802
648.993	0.0160870
649.071	0.0161440
649.149	0.0160223
649.227	0.0161115
649.306	0.0161240
649.384	0.0162008
649.462	0.0161977
649.540	0.0160983
649.618	0.0160453
649.696	0.0160966
649.774	0.0161996
649.852	0.0161919
649.931	0.0162175
650.009	0.0161861
650.087	0.0161852
650.165	0.0161340
650.243	0.0161423
650.321	0.0162519
650.399	0.0163069
650.477	0.0161505
650.556	0.0162960
650.634	0.0162982
650.712	0.0163264
650.790	0.0162494
650.868	0.0163257
650.946	0.0163049
651.024	0.0163399
651.102	0.0162565
651.181	0.0162734
651.259	0.0163549
651.337	0.0163605
651.415	0.0163660
651.493	0.0164659
651.571	0.0162363
651.649	0.0163644
651.727	0.0163023
651.806	0.0163545
651.884	0.0162897
651.962	0.0163089
652.040	0.0162565
652.118	0.0163588
652.196	0.0163828
652.274	0.0164700
652.352	0.0164940
652.431	0.0164235
652.509	0.0162895
652.587	0.0163777
652.665	0.0163931
652.743	0.0165120
652.821	0.0164040
652.899	0.0162847
652.977	0.0161431
653.056	0.0162135
653.134	0.0164050
653.212	0.0161996
653.290	0.0162576
653.368	0.0161185
653.446	0.0161273
653.524	0.0160332
653.602	0.0160895
653.681	0.0160844
653.759	0.0159966
653.837	0.0158665
653.915	0.0160344
653.993	0.0160236
654.071	0.0159562
654.149	0.0158310
654.227	0.0158675
654.306	0.0159338
654.384	0.0159080
654.462	0.0159927
654.540	0.0157155
654.618	0.0156967
654.696	0.0159406
654.774	0.0157446
654.852	0.0156915
654.931	0.0158745
655.009	0.0157436
655.087	0.0157428
655.165	0.0156824
655.243	0.0157117
655.321	0.0157039
655.399	0.0157745
655.477	0.0157777
655.556	0.0158650
655.634	0.0157829
655.712	0.0158186
655.790	0.0158942
655.868	0.0158249
655.946	0.0159497
656.024	0.0158841
656.102	0.0161028
656.181	0.0161028
656.259	0.0161401
656.337	0.0162236
656.415	0.0162434
656.493	0.0163351
656.571	0.0163981
656.649	0.0163201
656.727	0.0163652
656.806	0.0165020
656.884	0.0166377
656.962	0.0165581
657.040	0.0165794
657.118	0.0167011
657.196	0.0167242
657.274	0.0166966
657.352	0.0165623
657.431	0.0166130
657.509	0.0167675
657.587	0.0165939
657.665	0.0165261
657.743	0.0166553
657.821	0.0167668
657.899	0.0166008
657.977	0.0164108
658.056	0.0165639
658.134	0.0164642
658.212	0.0164001
658.290	0.0163676
658.368	0.0162496
658.446	0.0162981
658.524	0.0161775
658.602	0.0160644
658.681	0.0159718
658.759	0.0161008
658.837	0.0160180
658.915	0.0159011
658.993	0.0158953
659.071	0.0158807
659.149	0.0158051
659.227	0.0158298
659.306	0.0158015
659.384	0.0158669
659.462	0.0156937
659.540	0.0157212
659.618	0.0157431
659.696	0.0157776
659.774	0.0157655
659.852	0.0156616
659.931	0.0156022
660.009	0.0156940
660.087	0.0157466
660.165	0.0156567
660.243	0.0159119
660.321	0.0158429
660.399	0.0156927
660.477	0.0157862
660.556	0.0157805
660.634	0.0159232
660.712	0.0159246
660.790	0.0159903
660.868	0.0160474
660.946	0.0160095
661.024	0.0162819
661.102	0.0162748
661.181	0.0162243
661.259	0.0163274
661.337	0.0162530
661.415	0.0163169
661.493	0.0164384
661.571	0.0165284
661.649	0.0165578
661.727	0.0163270
661.806	0.0165337
661.884	0.0164290
661.962	0.0165005
662.040	0.0166309
662.118	0.0164938
662.196	0.0165451
662.274	0.0165182
662.352	0.0163938
662.431	0.0165117
662.509	0.0164219
662.587	0.0162856
662.665	0.0164128
662.743	0.0163297
662.821	0.0164551
662.899	0.0164590
662.977	0.0162814
663.056	0.0162740
663.134	0.0163743
663.212	0.0161519
663.290	0.0161037
663.368	0.0162479
663.446	0.0162942
663.524	0.0161050
663.602	0.0160894
663.681	0.0161629
663.759	0.0160941
663.837	0.0162740
663.915	0.0160902
663.993	0.0160664
664.071	0.0160292
664.149	0.0159915
664.227	0.0160764
664.306	0.0158933
664.384	0.0158582
664.462	0.0159933
664.540	0.0160470
664.618	0.0160300
664.696	0.0158784
664.774	0.0158714
664.852	0.0158157
664.931	0.0158702
665.009	0.0158935
665.087	0.0160175
665.165	0.0158934
665.243	0.0158971
665.321	0.0158598
665.399	0.0158908
665.477	0.0160303
665.556	0.0159885
665.634	0.0158916
665.712	0.0158826
665.790	0.0159931
665.868	0.0159317
665.946	0.0160497
666.024	0.0160602
666.102	0.0160002
666.181	0.0158595
666.259	0.0160320
666.337	0.0159309
666.415	0.0158537
666.493	0.0159324
666.571	0.0158480
666.649	0.0159553
666.727	0.0158691
666.806	0.0160860
666.884	0.0159255
666.962	0.0162815
667.040	0.0162778
667.118	0.0160823
667.196	0.0161916
667.274	0.0161161
667.352	0.0162083
667.431	0.0161155
667.509	0.0162561
667.587	0.0161254
667.665	0.0161641
667.743	0.0161433
667.821	0.0161566
667.899	0.0161177
667.977	0.0161782
668.056	0.0161791
668.134	0.0161303
668.212	0.0161588
668.290	0.0160444
668.368	0.0160974
668.446	0.0160068
668.524	0.0160252
668.602	0.0159717
668.681	0.0159470
668.759	0.0159595
668.837	0.0159568
668.915	0.0160183
668.993	0.0159625
669.071	0.0159867
669.149	0.0159855
669.227	0.0159073
669.306	0.0160323
669.384	0.0160723
669.462	0.0160426
669.540	0.0159045
669.618	0.0161449
669.696	0.0161971
669.774	0.0160769
669.852	0.0159620
669.931	0.0159872
670.009	0.0160442
670.087	0.0160159
670.165	0.0160658
670.243	0.0161070
670.321	0.0161269
670.399	0.0161678
670.477	0.0160030
670.556	0.0161756
670.634	0.0161077
670.712	0.0162624
670.790	0.0161066
670.868	0.0161308
670.946	0.0160965
671.024	0.0162157
671.102	0.0160926
671.181	0.0161015
671.259	0.0161182
671.337	0.0161720
671.415	0.0160622
671.493	0.0161536
671.571	0.0163229
671.649	0.0161983
671.727	0.0163117
671.806	0.0161818
671.884	0.0161732
671.962	0.0161088
672.040	0.0160828
672.118	0.0162062
672.196	0.0161897
672.274	0.0162178
672.352	0.0162637
672.431	0.0161481
672.509	0.0161399
672.587	0.0161853
672.665	0.0160548
672.743	0.0160360
672.821	0.0162175
672.899	0.0161657
672.977	0.0160840
673.056	0.0160972
673.134	0.0161709
673.212	0.0161149
673.290	0.0161472
673.368	0.0161904
673.446	0.0160909
673.524	0.0161353
673.602	0.0159452
673.681	0.0160829
673.759	0.0161607
673.837	0.0162125
673.915	0.0162486
673.993	0.0161913
674.071	0.0161599
674.149	0.0161082
674.227	0.0161968
674.306	0.0161978
674.384	0.0162176
674.462	0.0162122
674.540	0.0160076
674.618	0.0160881
674.696	0.0160731
674.774	0.0161575
674.852	0.0160993
674.931	0.0160849
675.009	0.0159625
675.087	0.0160983
675.165	0.0160294
675.243	0.0161627
675.321	0.0162097
675.399	0.0161033
675.477	0.0161097
675.556	0.0159965
675.634	0.0161767
675.712	0.0161963
675.790	0.0162569
675.868	0.0160742
675.946	0.0162236
676.024	0.0162015
676.102	0.0163847
676.181	0.0160463
676.259	0.0160534
676.337	0.0161224
676.415	0.0161800
676.493	0.0162040
676.571	0.0160172
676.649	0.0161723
676.727	0.0159251
676.806	0.0160575
676.884	0.0159650
676.962	0.0159934
677.040	0.0159538
677.118	0.0159459
677.196	0.0158883
677.274	0.0158285
677.352	0.0158321
677.431	0.0159470
677.509	0.0159686
677.587	0.0158802
677.665	0.0159315
677.743	0.0160059
677.821	0.0160455
677.899	0.0159290
677.977	0.0159438
678.056	0.0160146
678.134	0.0161152
678.212	0.0159883
678.290	0.0159490
678.368	0.0160777
678.446	0.0162433
678.524	0.0161026
678.602	0.0160812
678.681	0.0161574
678.759	0.0163673
678.837	0.0162156
678.915	0.0162978
678.993	0.0163336
679.071	0.0161194
679.149	0.0164169
679.227	0.0163982
679.306	0.0163308
679.384	0.0161242
679.462	0.0163396
679.540	0.0163996
679.618	0.0164281
679.696	0.0163910
679.774	0.0163553
679.852	0.0163104
679.931	0.0162410
680.009	0.0162545
680.087	0.0161907
680.165	0.0162252
680.243	0.0163197
680.321	0.0161440
680.399	0.0161133
680.477	0.0161414
680.556	0.0161781
680.634	0.0160281
680.712	0.0161238
680.790	0.0160896
680.868	0.0160648
680.946	0.0159846
681.024	0.0159834
681.102	0.0160136
681.181	0.0160419
681.259	0.0160855
681.337	0.0160765
681.415	0.0160703
681.493	0.0159486
681.571	0.0161995
681.649	0.0160539
681.727	0.0160667
681.806	0.0160468
681.884	0.0160003
681.962	0.0160356
682.040	0.0160528
682.118	0.0160349
682.196	0.0159634
682.274	0.0161187
682.352	0.0158733
682.431	0.0159233
682.509	0.0160596
682.587	0.0160495
682.665	0.0160435
682.743	0.0160252
682.821	0.0160352
682.899	0.0159896
682.977	0.0160802
683.056	0.0161040
683.134	0.0160381
683.212	0.0161333
683.290	0.0160597
683.368	0.0161192
683.446	0.0160128
683.524	0.0161643
683.602	0.0160407
683.681	0.0160401
683.759	0.0162414
683.837	0.0161481
683.915	0.0160724
683.993	0.0161674
684.071	0.0161456
684.149	0.0161337
684.227	0.0161127
684.306	0.0162286
684.384	0.0161961
684.462	0.0162040
684.540	0.0162486
684.618	0.0163398
684.696	0.0165164
684.774	0.0163538
684.852	0.0161777
684.931	0.0164056
685.009	0.0163043
685.087	0.0162301
685.165	0.0162961
685.243	0.0162954
685.321	0.0164423
685.399	0.0163021
685.477	0.0163133
685.556	0.0163503
685.634	0.0162492
685.712	0.0162470
685.790	0.0162861
685.868	0.0161352
685.946	0.0161246
686.024	0.0161061
686.102	0.0161858
686.181	0.0160938
686.259	0.0159563
686.337	0.0159946
686.415	0.0159649
686.493	0.0160429
686.571	0.0157922
686.649	0.0159311
686.727	0.0159241
686.806	0.0159524
686.884	0.0158975
686.962	0.0158231
687.040	0.0156932
687.118	0.0158132
687.196	0.0159007
687.274	0.0158194
687.352	0.0158508
687.431	0.0158146
687.509	0.0157760
687.587	0.0157539
687.665	0.0157599
687.743	0.0158918
687.821	0.0158196
687.899	0.0159238
687.977	0.0158690
688.056	0.0159106
688.134	0.0158636
688.212	0.0160380
688.290	0.0159621
688.368	0.0160657
688.446	0.0160666
688.524	0.0160582
688.602	0.0161552
688.681	0.0162807
688.759	0.0162109
688.837	0.0162710
688.915	0.0162836
688.993	0.0162686
689.071	0.0163690
689.149	0.0162119
689.227	0.0161664
689.306	0.0161874
689.384	0.0162929
689.462	0.0163529
689.540	0.0163168
689.618	0.0163223
689.696	0.0162724
689.774	0.0163145
689.852	0.0160897
689.931	0.0161771
690.009	0.0161958
690.087	0.0160253
690.165	0.0161806
690.243	0.0159544
690.321	0.0161508
690.399	0.0162672
690.477	0.0161005
690.556	0.0160694
690.634	0.0160927
690.712	0.0161559
690.790	0.0161644
690.868	0.0161468
690.946	0.0159590
691.024	0.0161130
691.102	0.0160986
691.181	0.0160543
691.259	0.0161240
691.337	0.0158609
691.415	0.0161007
691.493	0.0161828
691.571	0.0161355
691.649	0.0159375
691.727	0.0158970
691.806	0.0158349
691.884	0.0160222
691.962	0.0159958
692.040	0.0159093
692.118	0.0159813
692.196	0.0158611
692.274	0.0160729
692.352	0.0162289
692.431	0.0160818
692.509	0.0160046
692.587	0.0160063
692.665	0.0160964
692.743	0.0160307
692.821	0.0160629
692.899	0.0161467
692.977	0.0162283
693.056	0.0160664
693.134	0.0160447
693.212	0.0160865
693.290	0.0162038
693.368	0.0162396
693.446	0.0160128
693.524	0.0161176
693.602	0.0160708
693.681	0.0160300
693.759	0.0160139
693.837	0.0162043
693.915	0.0160416
693.993	0.0160794
694.071	0.0161701
694.149	0.0161565
694.227	0.0161135
694.306	0.0160003
694.384	0.0160555
694.462	0.0159483
694.540	0.0160280
694.618	0.0159959
694.696	0.0158752
694.774	0.0159952
694.852	0.0160258
694.931	0.0161343
695.009	0.0161709
695.087	0.0160018
695.165	0.0158668
695.243	0.0158858
695.321	0.0159949
695.399	0.0161168
695.477	0.0159209
695.556	0.0159706
695.634	0.0162359
695.712	0.0160262
695.790	0.0160321
695.868	0.0159495
695.946	0.0160140
696.024	0.0159200
696.102	0.0161026
696.181	0.0160793
696.259	0.0160061
696.337	0.0159735
696.415	0.0160265
696.493	0.0160399
696.571	0.0159232
696.649	0.0159884
696.727	0.0160461
696.806	0.0160983
696.884	0.0161533
696.962	0.0161581
697.040	0.0161233
697.118	0.0160577
697.196	0.0162157
697.274	0.0160743
697.352	0.0162522
697.431	0.0160796
697.509	0.0160744
697.587	0.0160194
697.665	0.0159029
697.743	0.0160496
697.821	0.0159834
697.899	0.0160465
697.977	0.0160667
698.056	0.0158880
698.134	0.0159541
698.212	0.0161002
698.290	0.0160003
698.368	0.0160952
698.446	0.0160451
698.524	0.0160725
698.602	0.0160917
698.681	0.0160133
698.759	0.0159718
698.837	0.0159907
698.915	0.0160833
698.993	0.0160788
699.071	0.0161033
699.149	0.0160710
699.227	0.0160061
699.306	0.0160049
699.384	0.0160177
699.462	0.0160481
699.540	0.0161023
699.618	0.0159601
699.696	0.0159558
699.774	0.0160738
699.852	0.0161007
699.931	0.0161803
700.009	0.0161488
700.087	0.0160256
700.165	0.0161199
700.243	0.0161377
700.321	0.0163035
700.399	0.0162662
700.477	0.0161636
700.556	0.0162479
700.634	0.0161214
700.712	0.0161297
700.790	0.0161365
700.868	0.0161958
700.946	0.0162228
701.024	0.0162538
701.102	0.0161320
701.181	0.0160402
701.259	0.0160589
701.337	0.0162267
701.415	0.0160402
701.493	0.0159545
701.571	0.0160092
701.649	0.0159705
701.727	0.0159474
701.806	0.0160114
701.884	0.0159669
701.962	0.0159459
702.040	0.0159544
702.118	0.0159077
702.196	0.0160863
702.274	0.0159760
702.352	0.0159345
702.431	0.0160193
702.509	0.0159084
702.587	0.0159986
702.665	0.0160476
702.743	0.0160576
702.821	0.0160773
702.899	0.0159288
702.977	0.0160724
703.056	0.0161639
703.134	0.0161278
703.212	0.0161015
703.290	0.0160544
703.368	0.0161065
703.446	0.0160728
703.524	0.0161546
703.602	0.0161954
703.681	0.0161082
703.759	0.0161156
703.837	0.0161494
703.915	0.0161386
703.993	0.0161336
704.071	0.0161804
704.149	0.0161307
704.227	0.0161169
704.306	0.0161260
704.384	0.0161380
704.462	0.0161995
704.540	0.0161084
704.618	0.0160260
704.696	0.0162959
704.774	0.0162455
704.852	0.0160491
704.931	0.0160305
705.009	0.0161237
705.087	0.0161887
705.165	0.0160445
705.243	0.0161649
705.321	0.0161599
705.399	0.0159433
705.477	0.0162032
705.556	0.0160631
705.634	0.0161051
705.712	0.0159927
705.790	0.0160431
705.868	0.0161084
705.946	0.0160664
706.024	0.0161141
706.102	0.0160816
706.181	0.0160514
706.259	0.0158415
706.337	0.0159408
706.415	0.0160211
706.493	0.0159489
706.571	0.0159092
706.649	0.0157674
706.727	0.0159201
706.806	0.0159470
706.884	0.0160138
706.962	0.0160831
707.040	0.0160136
707.118	0.0160643
707.196	0.0160560
707.274	0.0161924
707.352	0.0160723
707.431	0.0161459
707.509	0.0161679
707.587	0.0159740
707.665	0.0161163
707.743	0.0162054
707.821	0.0163647
707.899	0.0161712
707.977	0.0161051
708.056	0.0162161
708.134	0.0162582
708.212	0.0161311
708.290	0.0161843
708.368	0.0161726
708.446	0.0162457
708.524	0.0163984
708.602	0.0162183
708.681	0.0161753
708.759	0.0162730
708.837	0.0161841
708.915	0.0162025
708.993	0.0161858
709.071	0.0161763
709.149	0.0161700
709.227	0.0159664
709.306	0.0159715
709.384	0.0160269
709.462	0.0161593
709.540	0.0158080
709.618	0.0159429
709.696	0.0159225
709.774	0.0159557
709.852	0.0159557
709.931	0.0158264
710.009	0.0160325
710.087	0.0158535
710.165	0.0159988
710.243	0.0158891
710.321	0.0158819
710.399	0.0159747
710.477	0.0158383
710.556	0.0160353
710.634	0.0159496
710.712	0.0158820
710.790	0.0159032
710.868	0.0159472
710.946	0.0159841
711.024	0.0160743
711.102	0.0159994
711.181	0.0161674
711.259	0.0162089
711.337	0.0162579
711.415	0.0161034
711.493	0.0161488
711.571	0.0161456
711.649	0.0162359
711.727	0.0162225
711.806	0.0161376
711.884	0.0161534
711.962	0.0160963
712.040	0.0162498
712.118	0.0161903
712.196	0.0162754
712.274	0.0163634
712.352	0.0162819
712.431	0.0162136
712.509	0.0162161
712.587	0.0163068
712.665	0.0162282
712.743	0.0162650
712.821	0.0161495
712.899	0.0162771
712.977	0.0162067
713.056	0.0161249
713.134	0.0161965
713.212	0.0161682
713.290	0.0159992
713.368	0.0161569
713.446	0.0161860
713.524	0.0160420
713.602	0.0161462
713.681	0.0161545
713.759	0.0160229
713.837	0.0160412
713.915	0.0162418
713.993	0.0160286
714.071	0.0160802
714.149	0.0160858
714.227	0.0160834
714.306	0.0162923
714.384	0.0162020
714.462	0.0161533
714.540	0.0161964
714.618	0.0161694
714.696	0.0163287
714.774	0.0162886
714.852	0.0162881
714.931	0.0162289
715.009	0.0160403
715.087	0.0162112
715.165	0.0162173
715.243	0.0162781
715.321	0.0161974
715.399	0.0162146
715.477	0.0161071
715.556	0.0159924
715.634	0.0160123
715.712	0.0160073
715.790	0.0158800
715.868	0.0160275
715.946	0.0158965
716.024	0.0160946
716.102	0.0161923
716.181	0.0161293
716.259	0.0161095
716.337	0.0160921
716.415	0.0161282
716.493	0.0161624
716.571	0.0161092
716.649	0.0162193
716.727	0.0160545
716.806	0.0162251
716.884	0.0162598
716.962	0.0162019
717.040	0.0162924
717.118	0.0161900
717.196	0.0160969
717.274	0.0161860
717.352	0.0161955
717.431	0.0161916
717.509	0.0161086
717.587	0.0161638
717.665	0.0161047
717.743	0.0160287
717.821	0.0161227
717.899	0.0160199
717.977	0.0161089
718.056	0.0160816
718.134	0.0159770
718.212	0.0159557
718.290	0.0158979
718.368	0.0158969
718.446	0.0161698
718.524	0.0159525
718.602	0.0159121
718.681	0.0160725
718.759	0.0159573
718.837	0.0160123
718.915	0.0161597
718.993	0.0160101
719.071	0.0160030
719.149	0.0160630
719.227	0.0159431
719.306	0.0160944
719.384	0.0162094
719.462	0.0160477
719.540	0.0161166
719.618	0.0161117
719.696	0.0161575
719.774	0.0162186
719.852	0.0162565
719.931	0.0160645
720.009	0.0163243
720.087	0.0161243
720.165	0.0160435
720.243	0.0161734
720.321	0.0162412
720.399	0.0162409
720.477	0.0162814
720.556	0.0161792
720.634	0.0161424
720.712	0.0163075
720.790	0.0162737
720.868	0.0161789
720.946	0.0160942
721.024	0.0160806
721.102	0.0163206
721.181	0.0161581
721.259	0.0161810
721.337	0.0162463
721.415	0.0163399
721.493	0.0162547
721.571	0.0163106
721.649	0.0163003
721.727	0.0161854
721.806	0.0161621
721.884	0.0161782
721.962	0.0161619
722.040	0.0162868
722.118	0.0162070
722.196	0.0161436
722.274	0.0161904
722.352	0.0161098
722.431	0.0162112
722.509	0.0159987
722.587	0.0160674
722.665	0.0160339
722.743	0.0160517
722.821	0.0160355
722.899	0.0159514
722.977	0.0159769
723.056	0.0160264
723.134	0.0159675
723.212	0.0160629
723.290	0.0159444
723.368	0.0159486
723.446	0.0160290
723.524	0.0160265
723.602	0.0157672
723.681	0.0158288
723.759	0.0159736
723.837	0.0159097
723.915	0.0160167
723.993	0.0159789
724.071	0.0161748
724.149	0.0159612
724.227	0.0160203
724.306	0.0161318
724.384	0.0159592
724.462	0.0161054
724.540	0.0161805
724.618	0.0161265
724.696	0.0161150
724.774	0.0161638
724.852	0.0161896
724.931	0.0161807
725.009	0.0161506
725.087	0.0161541
725.165	0.0161392
725.243	0.0160623
725.321	0.0161848
725.399	0.0161655
725.477	0.0162841
725.556	0.0162446
725.634	0.0162568
725.712	0.0161371
725.790	0.0160926
725.868	0.0160656
725.946	0.0162167
726.024	0.0163069
726.102	0.0161369
726.181	0.0162109
726.259	0.0162379
726.337	0.0162470
726.415	0.0162489
726.493	0.0160870
726.571	0.0161274
726.649	0.0161432
726.727	0.0161951
726.806	0.0161207
726.884	0.0162108
726.962	0.0161239
727.040	0.0159647
727.118	0.0161594
727.196	0.0161172
727.274	0.0160937
727.352	0.0159440
727.431	0.0161272
727.509	0.0160555
727.587	0.0161662
727.665	0.0159910
727.743	0.0159371
727.821	0.0159835
727.899	0.0160189
727.977	0.0160332
728.056	0.0159168
728.134	0.0158981
728.212	0.0159785
728.290	0.0160461
728.368	0.0160879
728.446	0.0161737
728.524	0.0159554
728.602	0.0159071
728.681	0.0161799
728.759	0.0161002
728.837	0.0161691
728.915	0.0161183
728.993	0.0161192
729.071	0.0160737
729.149	0.0159906
729.227	0.0162415
729.306	0.0160968
729.384	0.0161749
729.462	0.0161459
729.540	0.0161133
729.618	0.0161922
729.696	0.0161788
729.774	0.0160028
729.852	0.0161477
729.931	0.0162839
730.009	0.0161877
730.087	0.0161646
730.165	0.0161512
730.243	0.0162570
730.321	0.0161091
730.399	0.0162747
730.477	0.0161584
730.556	0.0161811
730.634	0.0162445
730.712	0.0161800
730.790	0.0161953
730.868	0.0161473
730.946	0.0162488
731.024	0.0161521
731.102	0.0161312
731.181	0.0162959
731.259	0.0162549
731.337	0.0161348
731.415	0.0163353
731.493	0.0162761
731.571	0.0162940
731.649	0.0162219
731.727	0.0162092
731.806	0.0162891
731.884	0.0164526
731.962	0.0162718
732.040	0.0161616
732.118	0.0161906
732.196	0.0162508
732.274	0.0162112
732.352	0.0163315
732.431	0.0161373
732.509	0.0162079
732.587	0.0161600
732.665	0.0161898
732.743	0.0161408
732.821	0.0161143
732.899	0.0160762
732.977	0.0162438
733.056	0.0161159
733.134	0.0161584
733.212	0.0161829
733.290	0.0160897
733.368	0.0161674
733.446	0.0160186
733.524	0.0160617
733.602	0.0160826
733.681	0.0160827
733.759	0.0161533
733.837	0.0160920
733.915	0.0160886
733.993	0.0160767
734.071	0.0160954
734.149	0.0160599
734.227	0.0161169
734.306	0.0161388
734.384	0.0161058
734.462	0.0162177
734.540	0.0160229
734.618	0.0160291
734.696	0.0162778
734.774	0.0162810
734.852	0.0162046
734.931	0.0162303
735.009	0.0163166
735.087	0.0162492
735.165	0.0161452
735.243	0.0162452
735.321	0.0162086
735.399	0.0161246
735.477	0.0161700
735.556	0.0163597
735.634	0.0161889
735.712	0.0163552
735.790	0.0163728
735.868	0.0161809
735.946	0.0161705
736.024	0.0161997
736.102	0.0161927
736.181	0.0161914
736.259	0.0161461
736.337	0.0163286
736.415	0.0161275
736.493	0.0161363
736.571	0.0160905
736.649	0.0160753
736.727	0.0161845
736.806	0.0161613
736.884	0.0162701
736.962	0.0161554
737.040	0.0159950
737.118	0.0160840
737.196	0.0159853
737.274	0.0161257
737.352	0.0160362
737.431	0.0159594
737.509	0.0159804
737.587	0.0161194
737.665	0.0160072
737.743	0.0159346
737.821	0.0159969
737.899	0.0159801
737.977	0.0160677
738.056	0.0158749
738.134	0.0159386
738.212	0.0160313
738.290	0.0160517
738.368	0.0160184
738.446	0.0160523
738.524	0.0160237
738.602	0.0160759
738.681	0.0160794
738.759	0.0161596
738.837	0.0160054
738.915	0.0159772
738.993	0.0159885
739.071	0.0161588
739.149	0.0161298
739.227	0.0160568
739.306	0.0160422
739.384	0.0160794
739.462	0.0161629
739.540	0.0160516
739.618	0.0161040
739.696	0.0161451
739.774	0.0161152
739.852	0.0160534
739.931	0.0159845
740.009	0.0160987
740.087	0.0160861
740.165	0.0160959
740.243	0.0160944
740.321	0.0161815
740.399	0.0160553
740.477	0.0160651
740.556	0.0161314
740.634	0.0161160
740.712	0.0160884
740.790	0.0162005
740.868	0.0161560
740.946	0.0160574
741.024	0.0160822
741.102	0.0160200
741.181	0.0162846
741.259	0.0162411
741.337	0.0160829
741.415	0.0161437
741.493	0.0161909
741.571	0.0160366
741.649	0.0160265
741.727	0.0160760
741.806	0.0162064
741.884	0.0159570
741.962	0.0160870
742.040	0.0160743
742.118	0.0160394
742.196	0.0159827
742.274	0.0161767
742.352	0.0160730
742.431	0.0159776
742.509	0.0161092
742.587	0.0161614
742.665	0.0160775
742.743	0.0160719
742.821	0.0160831
742.899	0.0160741
742.977	0.0161336
743.056	0.0161131
743.134	0.0159996
743.212	0.0162231
743.290	0.0160980
743.368	0.0162743
743.446	0.0161080
743.524	0.0161359
743.602	0.0162532
743.681	0.0162508
743.759	0.0160593
743.837	0.0161342
743.915	0.0162275
743.993	0.0160879
744.071	0.0161568
744.149	0.0162320
744.227	0.0160657
744.306	0.0161211
744.384	0.0161266
744.462	0.0162503
744.540	0.0161555
744.618	0.0162226
744.696	0.0161108
744.774	0.0161515
744.852	0.0161367
744.931	0.0160683
745.009	0.0161968
745.087	0.0162062
745.165	0.0161426
745.243	0.0161298
745.321	0.0161104
745.399	0.0160391
745.477	0.0161059
745.556	0.0161906
745.634	0.0161207
745.712	0.0161088
745.790	0.0161024
745.868	0.0161194
745.946	0.0160433
746.024	0.0160554
746.102	0.0161661
746.181	0.0162462
746.259	0.0162004
746.337	0.0160390
746.415	0.0161353
746.493	0.0160631
746.571	0.0160215
746.649	0.0161279
746.727	0.0160563
746.806	0.0162005
746.884	0.0161066
746.962	0.0160699
747.040	0.0161266
747.118	0.0159784
747.196	0.0159920
747.274	0.0162177
747.352	0.0161781
747.431	0.0160789
747.509	0.0160163
747.587	0.0161624
747.665	0.0162263
747.743	0.0161008
747.821	0.0160888
747.899	0.0161947
747.977	0.0161706
748.056	0.0161655
748.134	0.0161647
748.212	0.0162685
748.290	0.0162731
748.368	0.0162029
748.446	0.0161116
748.524	0.0162494
748.602	0.0161854
748.681	0.0162481
748.759	0.0162193
748.837	0.0162015
748.915	0.0162122
748.993	0.0162419
749.071	0.0162149
749.149	0.0162494
749.227	0.0162138
749.306	0.0161708
749.384	0.0162202
749.462	0.0162830
749.540	0.0161906
749.618	0.0162008
749.696	0.0161866
749.774	0.0162080
749.852	0.0161503
749.931	0.0161597
750.009	0.0162287
750.087	0.0161987
750.165	0.0161319
750.243	0.0160381
750.321	0.0162144
750.399	0.0161987
750.477	0.0161667
750.556	0.0160600
750.634	0.0161684
750.712	0.0160236
750.790	0.0161905
750.868	0.0162181
750.946	0.0161723
751.024	0.0162099
751.102	0.0161255
751.181	0.0161140
751.259	0.0161434
751.337	0.0160292
751.415	0.0161938
751.493	0.0162516
751.571	0.0161124
751.649	0.0161642
751.727	0.0162166
751.806	0.0161494
751.884	0.0161924
751.962	0.0163148
752.040	0.0162202
752.118	0.0161401
752.196	0.0162870
752.274	0.0162457
752.352	0.0162799
752.431	0.0162080
752.509	0.0162674
752.587	0.0164375
752.665	0.0162110
752.743	0.0162076
752.821	0.0162540
752.899	0.0164050
752.977	0.0163528
753.056	0.0161816
753.134	0.0162780
753.212	0.0161674
753.290	0.0162359
753.368	0.0163330
753.446	0.0162244
753.524	0.0162399
753.602	0.0162680
753.681	0.0162576
753.759	0.0162647
753.837	0.0162783
753.915	0.0161579
753.993	0.0163124
754.071	0.0163190
754.149	0.0161771
754.227	0.0161485
754.306	0.0161534
754.384	0.0161539
754.462	0.0162865
754.540	0.0161191
754.618	0.0161741
754.696	0.0161238
754.774	0.0161251
754.852	0.0162965
754.931	0.0161637
755.009	0.0161159
755.087	0.0162243
755.165	0.0161994
755.243	0.0160920
755.321	0.0161644
755.399	0.0160090
755.477	0.0161730
755.556	0.0162271
755.634	0.0161752
755.712	0.0161341
755.790	0.0160342
755.868	0.0162328
755.946	0.0161266
756.024	0.0161468
756.102	0.0160552
756.181	0.0160523
756.259	0.0160717
756.337	0.0161835
756.415	0.0160185
756.493	0.0161095
756.571	0.0160323
756.649	0.0161196
756.727	0.0160764
756.806	0.0160249
756.884	0.0160516
756.962	0.0160897
757.040	0.0160212
757.118	0.0159841
757.196	0.0161237
757.274	0.0160556
757.352	0.0159789
757.431	0.0159839
757.509	0.0161096
757.587	0.0162541
757.665	0.0161354
757.743	0.0161312
757.821	0.0161468
757.899	0.0161748
757.977	0.0162626
758.056	0.0161876
758.134	0.0162706
758.212	0.0161947
758.290	0.0162975
758.368	0.0163988
758.446	0.0162568
758.524	0.0162987
758.602	0.0162266
758.681	0.0161971
758.759	0.0162480
758.837	0.0162775
758.915	0.0163699
758.993	0.0163200
759.071	0.0162818
759.149	0.0162195
759.227	0.0162758
759.306	0.0161707
759.384	0.0161613
759.462	0.0161886
759.540	0.0163042
759.618	0.0161539
759.696	0.0162703
759.774	0.0162897
759.852	0.0162621
759.931	0.0160530
760.009	0.0161353
760.087	0.0160945
760.165	0.0161673
760.243	0.0162570
760.321	0.0161958
760.399	0.0161470
760.477	0.0160500
760.556	0.0160571
760.634	0.0160372
760.712	0.0161496
760.790	0.0161913
760.868	0.0161878
760.946	0.0161472
761.024	0.0161360
761.102	0.0161050
761.181	0.0162083
761.259	0.0161190
761.337	0.0159545
761.415	0.0160976
761.493	0.0160435
761.571	0.0160416
761.649	0.0161388
761.727	0.0159912
761.806	0.0160486
761.884	0.0160536
761.962	0.0160889
762.040	0.0160664
762.118	0.0159479
762.196	0.0160954
762.274	0.0159999
762.352	0.0160342
762.431	0.0161053
762.509	0.0160923
762.587	0.0160810
762.665	0.0160180
762.743	0.0161396
762.821	0.0161938
762.899	0.0161147
762.977	0.0161256
763.056	0.0161578
763.134	0.0160843
763.212	0.0159570
763.290	0.0162182
763.368	0.0161533
763.446	0.0161153
763.524	0.0160831
763.602	0.0160276
763.681	0.0159517
763.759	0.0161983
763.837	0.0161279
763.915	0.0160660
763.993	0.0160863
764.071	0.0160410
764.149	0.0160681
764.227	0.0161400
764.306	0.0159378
764.384	0.0160431
764.462	0.0161401
764.540	0.0161117
764.618	0.0161507
764.696	0.0160947
764.774	0.0161366
764.852	0.0160621
764.931	0.0160891
765.009	0.0162193
765.087	0.0161395
765.165	0.0161631
765.243	0.0160207
765.321	0.0159533
765.399	0.0161343
765.477	0.0160562
765.556	0.0160471
765.634	0.0162163
765.712	0.0162499
765.790	0.0160329
765.868	0.0161620
765.946	0.0162617
766.024	0.0160218
766.102	0.0160468
766.181	0.0160662
766.259	0.0162962
766.337	0.0162621
766.415	0.0161166
766.493	0.0160703
766.571	0.0161723
766.649	0.0159979
766.727	0.0160217
766.806	0.0160741
766.884	0.0162039
766.962	0.0161487
767.040	0.0160659
767.118	0.0161124
767.196	0.0161232
767.274	0.0161225
767.352	0.0161772
767.431	0.0162038
767.509	0.0162221
767.587	0.0162102
767.665	0.0161120
767.743	0.0161480
767.821	0.0161149
767.899	0.0160871
767.977	0.0161847
768.056	0.0160648
768.134	0.0160218
768.212	0.0161475
768.290	0.0161106
768.368	0.0159629
768.446	0.0159090
768.524	0.0160365
768.602	0.0161591
768.681	0.0159889
768.759	0.0160688
768.837	0.0159721
768.915	0.0159270
768.993	0.0159985
769.071	0.0159705
769.149	0.0159961
769.227	0.0160490
769.306	0.0159354
769.384	0.0159877
769.462	0.0161123
769.540	0.0159025
769.618	0.0159244
769.696	0.0159661
769.774	0.0159383
769.852	0.0159126
769.931	0.0158719
770.009	0.0158878
770.087	0.0159149
770.165	0.0158704
770.243	0.0159425
770.321	0.0159911
770.399	0.0159412
770.477	0.0160348
770.556	0.0161698
770.634	0.0160005
770.712	0.0160342
770.790	0.0160068
770.868	0.0160809
770.946	0.0160733
771.024	0.0160766
771.102	0.0161205
771.181	0.0160969
771.259	0.0159676
771.337	0.0160163
771.415	0.0161246
771.493	0.0159830
771.571	0.0161580
771.649	0.0161433
771.727	0.0160230
771.806	0.0161635
771.884	0.0161649
771.962	0.0161579
772.040	0.0161430
772.118	0.0162262
772.196	0.0161193
772.274	0.0160953
772.352	0.0161864
772.431	0.0161068
772.509	0.0161443
772.587	0.0162387
772.665	0.0162103
772.743	0.0161932
772.821	0.0161884
772.899	0.0161537
772.977	0.0161197
773.056	0.0160774
773.134	0.0161204
773.212	0.0160873
773.290	0.0161291
773.368	0.0162704
773.446	0.0161049
773.524	0.0162199
773.602	0.0161368
773.681	0.0161039
773.759	0.0161264
773.837	0.0160885
773.915	0.0161086
773.993	0.0162955
774.071	0.0160851
774.149	0.0160622
774.227	0.0161525
774.306	0.0159957
774.384	0.0160081
774.462	0.0161666
774.540	0.0162758
774.618	0.0160205
774.696	0.0161456
774.774	0.0161207
774.852	0.0161983
774.931	0.0160313
775.009	0.0160799
775.087	0.0162563
775.165	0.0162151
775.243	0.0161536
775.321	0.0161513
775.399	0.0161794
775.477	0.0160677
775.556	0.0160010
775.634	0.0162345
775.712	0.0162030
775.790	0.0160762
775.868	0.0162442
775.946	0.0162200
776.024	0.0162347
776.102	0.0160721
776.181	0.0161374
776.259	0.0160661
776.337	0.0161032
776.415	0.0161657
776.493	0.0163522
776.571	0.0160200
776.649	0.0161777
776.727	0.0161870
776.806	0.0161252
776.884	0.0162126
776.962	0.0161761
777.040	0.0161066
777.118	0.0160745
777.196	0.0160681
777.274	0.0161862
777.352	0.0161726
777.431	0.0161797
777.509	0.0162227
777.587	0.0161304
777.665	0.0160698
777.743	0.0160519
777.821	0.0161159
777.899	0.0160847
777.977	0.0161974
778.056	0.0162172
778.134	0.0161050
778.212	0.0162727
778.290	0.0161516
778.368	0.0160339
778.446	0.0161257
778.524	0.0161502
778.602	0.0161320
778.681	0.0160438
778.759	0.0160050
778.837	0.0161658
778.915	0.0161756
778.993	0.0162694
779.071	0.0160915
779.149	0.0162028
779.227	0.0161066
779.306	0.0159717
779.384	0.0161806
779.462	0.0162298
779.540	0.0162444
779.618	0.0160732
779.696	0.0161613
779.774	0.0160475
779.852	0.0161311
779.931	0.0161274
780.009	0.0161933
780.087	0.0160617
780.165	0.0161332
780.243	0.0162614
780.321	0.0161170
780.399	0.0160780
780.477	0.0162605
780.556	0.0161945
780.634	0.0161909
780.712	0.0160986
780.790	0.0160480
780.868	0.0161104
780.946	0.0161284
781.024	0.0162889
781.102	0.0161432
781.181	0.0160348
781.259	0.0159793
781.337	0.0161363
781.415	0.0161791
781.493	0.0160924
781.571	0.0160685
781.649	0.0160199
781.727	0.0159886
781.806	0.0160533
781.884	0.0160433
781.962	0.0161002
782.040	0.0161864
782.118	0.0160009
782.196	0.0161514
782.274	0.0161258
782.352	0.0160974
782.431	0.0160641
782.509	0.0159666
782.587	0.0160272
782.665	0.0160942
782.743	0.0161991
782.821	0.0160040
782.899	0.0161008
782.977	0.0160867
783.056	0.0160596
783.134	0.0159129
783.212	0.0160710
783.290	0.0161257
783.368	0.0160684
783.446	0.0161396
783.524	0.0161225
783.602	0.0161519
783.681	0.0160867
783.759	0.0160538
783.837	0.0161068
783.915	0.0161241
783.993	0.0161732
784.071	0.0161457
784.149	0.0161539
784.227	0.0161523
784.306	0.0162247
784.384	0.0162114
784.462	0.0160358
784.540	0.0162066
784.618	0.0160232
784.696	0.0161129
784.774	0.0161012
784.852	0.0162574
784.931	0.0160509
785.009	0.0160883
785.087	0.0160291
785.165	0.0161721
785.243	0.0161455
785.321	0.0161169
785.399	0.0161900
785.477	0.0160629
785.556	0.0160358
785.634	0.0160879
785.712	0.0159836
785.790	0.0159740
785.868	0.0160560
785.946	0.0160860
786.024	0.0160697
786.102	0.0160442
786.181	0.0160438
786.259	0.0160014
786.337	0.0161389
786.415	0.0161390
786.493	0.0158905
786.571	0.0160217
786.649	0.0160212
786.727	0.0160828
786.806	0.0159602
786.884	0.0159811
786.962	0.0160453
787.040	0.0160323
787.118	0.0158723
787.196	0.0157897
787.274	0.0161736
787.352	0.0159940
787.431	0.0159953
787.509	0.0160290
787.587	0.0160268
787.665	0.0160997
787.743	0.0159763
787.821	0.0158726
787.899	0.0160837
787.977	0.0160468
788.056	0.0159887
788.134	0.0160527
788.212	0.0160403
788.290	0.0159963
788.368	0.0159934
788.446	0.0160537
788.524	0.0160565
788.602	0.0161163
788.681	0.0160034
788.759	0.0159963
788.837	0.0161433
788.915	0.0160703
788.993	0.0162308
789.071	0.0161398
789.149	0.0160088
789.227	0.0160838
789.306	0.0160967
789.384	0.0160719
789.462	0.0161480
789.540	0.0159865
789.618	0.0161505
789.696	0.0161574
789.774	0.0161653
789.852	0.0160811
789.931	0.0161634
790.009	0.0161346
790.087	0.0161748
790.165	0.0161227
790.243	0.0160448
790.321	0.0161491
790.399	0.0161897
790.477	0.0160381
790.556	0.0160242
790.634	0.0160245
790.712	0.0162292
790.790	0.0161282
790.868	0.0159853
790.946	0.0161086
791.024	0.0161158
791.102	0.0160475
791.181	0.0161136
791.259	0.0161526
791.337	0.0161133
791.415	0.0159839
791.493	0.0160971
791.571	0.0160593
791.649	0.0160118
791.727	0.0159182
791.806	0.0160366
791.884	0.0160392
791.962	0.0160130
792.040	0.0159927
792.118	0.0161452
792.196	0.0160831
792.274	0.0160522
792.352	0.0160534
792.431	0.0160355
792.509	0.0160750
792.587	0.0161158
792.665	0.0160342
792.743	0.0160701
792.821	0.0159230
792.899	0.0160440
792.977	0.0162196
793.056	0.0159641
793.134	0.0161385
793.212	0.0160855
793.290	0.0161832
793.368	0.0160313
793.446	0.0160267
793.524	0.0161080
793.602	0.0161405
793.681	0.0159921
793.759	0.0161156
793.837	0.0161983
793.915	0.0160603
793.993	0.0161961
794.071	0.0161390
794.149	0.0161359
794.227	0.0159391
794.306	0.0160354
794.384	0.0160696
794.462	0.0159261
794.540	0.0161046
794.618	0.0160818
794.696	0.0159421
794.774	0.0160800
794.852	0.0160931
794.931	0.0160211
795.009	0.0159878
795.087	0.0159945
795.165	0.0159926
795.243	0.0159971
795.321	0.0160516
795.399	0.0160507
795.477	0.0160361
795.556	0.0159541
795.634	0.0160172
795.712	0.0159197
795.790	0.0160353
795.868	0.0160990
795.946	0.0160629
796.024	0.0159651
796.102	0.0160466
796.181	0.0160482
796.259	0.0159491
796.337	0.0160184
796.415	0.0160434
796.493	0.0160664
796.571	0.0161427
796.649	0.0163322
796.727	0.0162016
796.806	0.0160545
796.884	0.0160905
796.962	0.0162088
797.040	0.0163047
797.118	0.0161355
797.196	0.0160483
797.274	0.0162064
797.352	0.0161985
797.431	0.0161926
797.509	0.0161797
797.587	0.0163384
797.665	0.0160863
797.743	0.0160820
797.821	0.0161648
797.899	0.0162379
797.977	0.0161650
798.056	0.0161561
798.134	0.0160852
798.212	0.0162237
798.290	0.0162741
798.368	0.0160753
798.446	0.0161467
798.524	0.0161356
798.602	0.0161539
798.681	0.0161589
798.759	0.0161588
798.837	0.0161623
798.915	0.0161362
798.993	0.0161577
799.071	0.0161502
799.149	0.0161694
799.227	0.0161871
799.306	0.0160972
799.384	0.0160075
799.462	0.0161526
799.540	0.0160581
799.618	0.0161211
799.696	0.0161971
799.774	0.0160339
799.852	0.0160936
799.931	0.0161433
800.009	0.0160365
800.087	0.0160741
800.165	0.0159711
800.243	0.0160486
800.321	0.0159662
800.399	0.0159778
800.477	0.0161580
800.556	0.0159695
800.634	0.0160762
800.712	0.0161076
800.790	0.0160949
800.868	0.0160569
800.946	0.0161388
801.024	0.0159764
801.102	0.0161279
801.181	0.0162795
801.259	0.0162212
801.337	0.0161044
801.415	0.0160905
801.493	0.0160614
801.571	0.0161052
801.649	0.0161029
801.727	0.0161696
801.806	0.0161248
801.884	0.0161201
801.962	0.0160655
802.040	0.0161559
802.118	0.0161483
802.196	0.0161016
802.274	0.0161716
802.352	0.0161875
802.431	0.0160473
802.509	0.0162012
802.587	0.0160696
802.665	0.0161906
802.743	0.0160815
802.821	0.0160460
802.899	0.0162191
802.977	0.0161581
803.056	0.0160387
803.134	0.0160049
803.212	0.0161594
803.290	0.0162541
803.368	0.0161314
803.446	0.0160958
803.524	0.0160204
803.602	0.0160123
803.681	0.0161850
803.759	0.0160816
803.837	0.0163022
803.915	0.0162263
803.993	0.0161790
804.071	0.0161364
804.149	0.0162305
804.227	0.0161455
804.306	0.0160442
804.384	0.0159515
804.462	0.0159602
804.540	0.0162238
804.618	0.0161411
804.696	0.0161697
804.774	0.0159840
804.852	0.0161001
804.931	0.0160564
805.009	0.0161366
805.087	0.0160513
805.165	0.0161179
805.243	0.0162831
805.321	0.0161208
805.399	0.0161224
805.477	0.0161138
805.556	0.0160264
805.634	0.0162077
805.712	0.0160931
805.790	0.0161351
805.868	0.0160586
805.946	0.0160671
806.024	0.0161888
806.102	0.0161848
806.181	0.0160875
806.259	0.0160722
806.337	0.0159422
806.415	0.0161439
806.493	0.0161697
806.571	0.0160266
806.649	0.0162035
806.727	0.0160775
806.806	0.0160728
806.884	0.0161059
806.962	0.0160299
807.040	0.0159774
807.118	0.0160452
807.196	0.0160477
807.274	0.0160571
807.352	0.0161217
807.431	0.0161840
807.509	0.0161173
807.587	0.0160212
807.665	0.0160506
807.743	0.0161269
807.821	0.0161195
807.899	0.0159879
807.977	0.0160992
808.056	0.0160885
808.134	0.0162196
808.212	0.0160078
808.290	0.0160940
808.368	0.0161613
808.446	0.0159408
808.524	0.0160403
808.602	0.0162008
808.681	0.0161122
808.759	0.0161333
808.837	0.0160578
808.915	0.0160812
808.993	0.0161210
809.071	0.0160863
809.149	0.0160462
809.227	0.0162585
809.306	0.0160707
809.384	0.0160564
809.462	0.0160187
809.540	0.0161501
809.618	0.0162616
809.696	0.0160645
809.774	0.0160090
809.852	0.0162550
809.931	0.0162604
810.009	0.0161586
810.087	0.0160304
810.165	0.0161387
810.243	0.0161209
810.321	0.0161833
810.399	0.0161545
810.477	0.0161151
810.556	0.0161852
810.634	0.0163923
810.712	0.0163264
810.790	0.0161430
810.868	0.0161489
810.946	0.0161947
811.024	0.0161931
811.102	0.0160455
811.181	0.0161303
811.259	0.0161778
811.337	0.0160507
811.415	0.0160096
811.493	0.0163097
811.571	0.0160724
811.649	0.0161211
811.727	0.0162740
811.806	0.0161555
811.884	0.0159938
811.962	0.0160236
812.040	0.0161079
812.118	0.0160828
812.196	0.0161246
812.274	0.0159435
812.352	0.0161152
812.431	0.0161382
812.509	0.0161145
812.587	0.0159854
812.665	0.0159818
812.743	0.0160767
812.821	0.0161530
812.899	0.0161271
812.977	0.0161470
813.056	0.0160416
813.134	0.0160680
813.212	0.0160864
813.290	0.0160548
813.368	0.0160234
813.446	0.0160869
813.524	0.0161595
813.602	0.0160661
813.681	0.0159683
813.759	0.0160632
813.837	0.0160757
813.915	0.0159081
813.993	0.0159248
814.071	0.0160332
814.149	0.0160335
814.227	0.0158980
814.306	0.0160615
814.384	0.0159969
814.462	0.0159629
814.540	0.0160814
814.618	0.0159197
814.696	0.0161034
814.774	0.0160595
814.852	0.0160937
814.931	0.0160792
815.009	0.0161042
815.087	0.0160680
815.165	0.0161872
815.243	0.0159932
815.321	0.0160809
815.399	0.0160454
815.477	0.0159740
815.556	0.0160899
815.634	0.0160864
815.712	0.0159392
815.790	0.0159731
815.868	0.0160497
815.946	0.0160417
816.024	0.0161457
816.102	0.0161646
816.181	0.0162773
816.259	0.0161582
816.337	0.0160420
816.415	0.0159687
816.493	0.0160684
816.571	0.0159955
816.649	0.0160726
816.727	0.0161962
816.806	0.0160246
816.884	0.0161916
816.962	0.0161552
817.040	0.0160406
817.118	0.0160993
817.196	0.0162174
817.274	0.0161215
817.352	0.0161163
817.431	0.0162190
817.509	0.0160963
817.587	0.0160866
817.665	0.0161527
817.743	0.0162013
817.821	0.0161263
817.899	0.0160229
817.977	0.0160661
818.056	0.0160968
818.134	0.0162381
818.212	0.0160918
818.290	0.0160973
818.368	0.0160660
818.446	0.0161091
818.524	0.0161961
818.602	0.0162241
818.681	0.0161788
818.759	0.0161521
818.837	0.0160938
818.915	0.0161302
818.993	0.0161160
819.071	0.0161961
819.149	0.0161096
819.227	0.0161592
819.306	0.0161794
819.384	0.0161902
819.462	0.0161440
819.540	0.0160992
819.618	0.0159992
819.696	0.0162159
819.774	0.0162197
819.852	0.0160580
819.931	0.0162183
820.009	0.0162108
820.087	0.0161906
820.165	0.0162193
820.243	0.0160961
820.321	0.0162043
820.399	0.0162294
820.477	0.0161733
820.556	0.0162118
820.634	0.0161381
820.712	0.0162306
820.790	0.0161935
820.868	0.0161158
820.946	0.0161420
821.024	0.0161895
821.102	0.0162833
821.181	0.0161449
821.259	0.0159969
821.337	0.0161156
821.415	0.0162235
821.493	0.0161618
821.571	0.0161819
821.649	0.0161771
821.727	0.0161604
821.806	0.0160645
821.884	0.0162257
821.962	0.0162639
822.040	0.0161622
822.118	0.0160020
822.196	0.0160137
822.274	0.0161684
822.352	0.0161523
822.431	0.0162186
822.509	0.0160999
822.587	0.0161870
822.665	0.0161644
822.743	0.0161698
822.821	0.0160833
822.899	0.0162959
822.977	0.0162793
823.056	0.0160344
823.134	0.0162131
823.212	0.0159614
823.290	0.0161767
823.368	0.0161758
823.446	0.0161375
823.524	0.0161681
823.602	0.0161839
823.681	0.0160888
823.759	0.0160834
823.837	0.0159875
823.915	0.0160712
823.993	0.0160538
824.071	0.0161180
824.149	0.0162180
824.227	0.0161036
824.306	0.0161799
824.384	0.0162817
824.462	0.0161247
824.540	0.0160799
824.618	0.0162429
824.696	0.0163754
824.774	0.0160406
824.852	0.0161904
824.931	0.0162759
825.009	0.0163145
825.087	0.0162465
825.165	0.0161443
825.243	0.0161713
825.321	0.0162231
825.399	0.0162456
825.477	0.0161803
825.556	0.0161282
825.634	0.0161625
825.712	0.0162634
825.790	0.0161993
825.868	0.0161705
825.946	0.0163137
826.024	0.0164336
826.102	0.0162520
826.181	0.0161691
826.259	0.0161970
826.337	0.0163142
826.415	0.0162850
826.493	0.0162773
826.571	0.0162691
826.649	0.0161445
826.727	0.0162241
826.806	0.0163301
826.884	0.0162740
826.962	0.0162582
827.040	0.0162369
827.118	0.0162802
827.196	0.0162134
827.274	0.0163178
827.352	0.0162149
827.431	0.0162379
827.509	0.0161511
827.587	0.0161622
827.665	0.0161320
827.743	0.0160971
827.821	0.0161739
827.899	0.0161401
827.977	0.0160773
828.056	0.0161257
828.134	0.0161661
828.212	0.0161720
828.290	0.0161448
828.368	0.0161088
828.446	0.0160915
828.524	0.0162289
828.602	0.0161378
828.681	0.0160945
828.759	0.0161214
828.837	0.0161728
828.915	0.0162466
828.993	0.0161531
829.071	0.0161633
829.149	0.0161398
829.227	0.0161516
829.306	0.0162347
829.384	0.0163113
829.462	0.0159697
829.540	0.0160736
829.618	0.0160860
829.696	0.0160869
829.774	0.0160973
829.852	0.0160275
829.931	0.0161912
830.009	0.0162402
830.087	0.0161281
830.165	0.0160512
830.243	0.0159451
830.321	0.0160298
830.399	0.0160262
830.477	0.0160045
830.556	0.0161432
830.634	0.0160638
830.712	0.0162172
830.790	0.0162872
830.868	0.0160616
830.946	0.0161269
831.024	0.0160729
831.102	0.0160441
831.181	0.0160401
831.259	0.0159499
831.337	0.0160793
831.415	0.0161853
831.493	0.0159424
831.571	0.0160310
831.649	0.0161134
831.727	0.0159906
831.806	0.0160404
831.884	0.0159840
831.962	0.0160084
832.040	0.0159588
832.118	0.0160517
832.196	0.0160569
832.274	0.0159854
832.352	0.0160347
832.431	0.0159628
832.509	0.0160510
832.587	0.0160452
832.665	0.0159492
832.743	0.0160574
832.821	0.0160214
832.899	0.0160172
832.977	0.0160392
833.056	0.0160517
833.134	0.0159852
833.212	0.0160266
833.290	0.0160615
833.368	0.0161281
833.446	0.0160558
833.524	0.0160033
833.602	0.0159737
833.681	0.0160686
833.759	0.0159858
833.837	0.0159902
833.915	0.0161022
833.993	0.0160448
834.071	0.0161095
834.149	0.0161547
834.227	0.0161944
834.306	0.0160851
834.384	0.0160381
834.462	0.0160379
834.540	0.0160423
834.618	0.0160692
834.696	0.0161143
834.774	0.0160735
834.852	0.0159531
834.931	0.0158714
835.009	0.0160934
835.087	0.0159260
835.165	0.0161752
835.243	0.0161543
835.321	0.0159457
835.399	0.0160521
835.477	0.0160213
835.556	0.0159648
835.634	0.0159467
835.712	0.0160569
835.790	0.0160008
835.868	0.0159471
835.946	0.0159827
836.024	0.0159898
836.102	0.0159647
836.181	0.0160535
836.259	0.0158958
836.337	0.0160456
836.415	0.0160259
836.493	0.0159723
836.571	0.0159853
836.649	0.0160364
836.727	0.0160535
836.806	0.0158858
836.884	0.0159654
836.962	0.0160080
837.040	0.0160399
837.118	0.0158781
837.196	0.0159251
837.274	0.0160652
837.352	0.0160685
837.431	0.0160739
837.509	0.0160190
837.587	0.0161098
837.665	0.0160603
837.743	0.0159416
837.821	0.0159166
837.899	0.0159734
837.977	0.0159799
838.056	0.0159884
838.134	0.0160056
838.212	0.0160262
838.290	0.0158919
838.368	0.0159358
838.446	0.0159913
838.524	0.0161112
838.602	0.0160796
838.681	0.0159782
838.759	0.0159148
838.837	0.0159008
838.915	0.0162060
838.993	0.0160014
839.071	0.0159763
839.149	0.0160142
839.227	0.0160110
839.306	0.0160606
839.384	0.0159163
839.462	0.0158727
839.540	0.0160844
839.618	0.0161205
839.696	0.0160252
839.774	0.0160528
839.852	0.0160052
839.931	0.0161411
840.009	0.0160741
840.087	0.0161755
840.165	0.0161424
840.243	0.0162621
840.321	0.0160870
840.399	0.0161278
840.477	0.0160627
840.556	0.0161027
840.634	0.0161227
840.712	0.0162047
840.790	0.0161423
840.868	0.0161232
840.946	0.0161820
841.024	0.0161523
841.102	0.0160419
841.181	0.0161796
841.259	0.0161812
841.337	0.0162087
841.415	0.0163640
841.493	0.0161829
841.571	0.0161833
841.649	0.0162933
841.727	0.0160623
841.806	0.0161972
841.884	0.0162950
841.962	0.0162138
842.040	0.0161723
842.118	0.0160901
842.196	0.0162069
842.274	0.0161490
842.352	0.0161629
842.431	0.0161237
842.509	0.0161959
842.587	0.0162771
842.665	0.0160714
842.743	0.0161295
842.821	0.0162563
842.899	0.0162360
842.977	0.0162118
843.056	0.0162773
843.134	0.0160745
843.212	0.0160323
843.290	0.0161429
843.368	0.0160957
843.446	0.0161667
843.524	0.0160608
843.602	0.0160863
843.681	0.0160954
843.759	0.0160062
843.837	0.0161009
843.915	0.0161192
843.993	0.0160022
844.071	0.0161189
844.149	0.0160986
844.227	0.0160942
844.306	0.0161073
844.384	0.0160703
844.462	0.0159682
844.540	0.0159814
844.618	0.0161348
844.696	0.0161828
844.774	0.0160680
844.852	0.0160159
844.931	0.0158823
845.009	0.0160361
845.087	0.0160838
845.165	0.0159904
845.243	0.0160842
845.321	0.0161307
845.399	0.0162691
845.477	0.0161176
845.556	0.0159451
845.634	0.0160878
845.712	0.0160046
845.790	0.0160250
845.868	0.0160794
845.946	0.0159710
846.024	0.0160338
846.102	0.0160339
846.181	0.0161947
846.259	0.0161114
846.337	0.0162162
846.415	0.0162149
846.493	0.0161360
846.571	0.0161024
846.649	0.0161473
846.727	0.0162488
846.806	0.0161572
846.884	0.0162009
846.962	0.0162035
847.040	0.0161794
847.118	0.0162064
847.196	0.0162635
847.274	0.0162525
847.352	0.0161250
847.431	0.0161325
847.509	0.0162082
847.587	0.0162681
847.665	0.0161176
847.743	0.0161977
847.821	0.0163877
847.899	0.0162007
847.977	0.0161604
848.056	0.0160692
848.134	0.0162351
848.212	0.0161717
848.290	0.0159916
848.368	0.0161259
848.446	0.0161686
848.524	0.0161439
848.602	0.0161700
848.681	0.0162026
848.759	0.0160815
848.837	0.0161439
848.915	0.0161068
848.993	0.0162798
849.071	0.0161555
849.149	0.0160307
849.227	0.0160003
849.306	0.0160884
849.384	0.0160575
849.462	0.0161101
849.540	0.0160214
849.618	0.0159465
849.696	0.0160780
849.774	0.0160629
849.852	0.0159766
849.931	0.0160081
850.009	0.0161022
850.087	0.0160920
850.165	0.0159648
850.243	0.0160086
850.321	0.0160357
850.399	0.0160226
850.477	0.0158120
850.556	0.0160052
850.634	0.0159221
850.712	0.0159142
850.790	0.0160424
850.868	0.0160288
850.946	0.0160342
851.024	0.0160305
851.102	0.0159747
851.181	0.0160264
851.259	0.0160741
851.337	0.0159227
851.415	0.0159616
851.493	0.0161638
851.571	0.0160379
851.649	0.0159306
851.727	0.0160485
851.806	0.0160628
851.884	0.0161263
851.962	0.0161063
852.040	0.0160684
852.118	0.0162264
852.196	0.0159866
852.274	0.0159743
852.352	0.0162127
852.431	0.0162109
852.509	0.0160513
852.587	0.0160261
852.665	0.0161958
852.743	0.0163297
852.821	0.0161395
852.899	0.0160853
852.977	0.0160769
853.056	0.0160570
853.134	0.0160915
853.212	0.0161198
853.290	0.0162292
853.368	0.0161640
853.446	0.0162457
853.524	0.0161467
853.602	0.0161429
853.681	0.0161071
853.759	0.0161114
853.837	0.0160143
853.915	0.0160803
853.993	0.0161741
854.071	0.0161156
854.149	0.0161599
854.227	0.0161726
854.306	0.0160996
854.384	0.0161522
854.462	0.0161045
854.540	0.0161332
854.618	0.0161057
854.696	0.0161618
854.774	0.0161322
854.852	0.0161295
854.931	0.0161105
855.009	0.0159554
855.087	0.0160502
855.165	0.0159156
855.243	0.0160401
855.321	0.0159587
855.399	0.0160114
855.477	0.0160746
855.556	0.0161747
855.634	0.0160091
855.712	0.0160742
855.790	0.0158925
855.868	0.0160464
855.946	0.0157710
856.024	0.0160489
856.102	0.0159700
856.181	0.0160029
856.259	0.0160706
856.337	0.0159481
856.415	0.0159200
856.493	0.0158230
856.571	0.0159874
856.649	0.0159170
856.727	0.0161536
856.806	0.0159476
856.884	0.0159507
856.962	0.0161005
857.040	0.0159410
857.118	0.0160495
857.196	0.0159969
857.274	0.0158631
857.352	0.0158507
857.431	0.0159447
857.509	0.0159315
857.587	0.0159080
857.665	0.0159060
857.743	0.0159322
857.821	0.0158835
857.899	0.0161803
857.977	0.0161038
858.056	0.0159108
858.134	0.0159250
858.212	0.0160682
858.290	0.0160230
858.368	0.0160515
858.446	0.0160636
858.524	0.0160457
858.602	0.0160291
858.681	0.0159871
858.759	0.0160125
858.837	0.0160353
858.915	0.0159216
858.993	0.0158524
859.071	0.0160573
859.149	0.0159409
859.227	0.0159747
859.306	0.0160717
859.384	0.0160968
859.462	0.0159904
859.540	0.0159567
859.618	0.0159336
859.696	0.0160187
859.774	0.0160017
859.852	0.0158900
859.931	0.0158878
860.009	0.0158492
860.087	0.0161112
860.165	0.0159784
860.243	0.0158735
860.321	0.0160299
860.399	0.0160372
860.477	0.0161294
860.556	0.0161053
860.634	0.0160414
860.712	0.0161958
860.790	0.0159577
860.868	0.0161588
860.946	0.0161647
861.024	0.0160468
861.102	0.0159283
861.181	0.0159885
861.259	0.0160590
861.337	0.0160416
861.415	0.0161372
861.493	0.0161911
861.571	0.0160815
861.649	0.0160243
861.727	0.0160474
861.806	0.0160962
861.884	0.0160320
861.962	0.0159869
862.040	0.0161407
862.118	0.0159791
862.196	0.0160220
862.274	0.0159772
862.352	0.0162199
862.431	0.0161124
862.509	0.0160332
862.587	0.0159613
862.665	0.0158822
862.743	0.0160574
862.821	0.0161729
862.899	0.0159898
862.977	0.0160957
863.056	0.0159856
863.134	0.0161356
863.212	0.0160101
863.290	0.0160423
863.368	0.0160689
863.446	0.0160262
863.524	0.0160241
863.602	0.0161624
863.681	0.0160845
863.759	0.0160143
863.837	0.0161229
863.915	0.0161237
863.993	0.0161330
864.071	0.0160691
864.149	0.0160240
864.227	0.0159713
864.306	0.0161070
864.384	0.0162034
864.462	0.0159724
864.540	0.0160519
864.618	0.0161566
864.696	0.0160738
864.774	0.0159960
864.852	0.0160978
864.931	0.0159359
865.009	0.0159673
865.087	0.0162111
865.165	0.0160983
865.243	0.0160993
865.321	0.0160561
865.399	0.0161852
865.477	0.0162382
865.556	0.0162376
865.634	0.0159841
865.712	0.0161166
865.790	0.0161114
865.868	0.0161056
865.946	0.0161754
866.024	0.0161924
866.102	0.0161191
866.181	0.0162892
866.259	0.0162515
866.337	0.0160418
866.415	0.0159911
866.493	0.0161716
866.571	0.0161672
866.649	0.0162727
866.727	0.0159800
866.806	0.0159518
866.884	0.0161036
866.962	0.0161022
867.040	0.0160697
867.118	0.0159946
867.196	0.0159895
867.274	0.0160336
867.352	0.0160709
867.431	0.0160672
867.509	0.0161562
867.587	0.0160452
867.665	0.0159724
867.743	0.0161312
867.821	0.0161906
867.899	0.0161407
867.977	0.0160783
868.056	0.0159167
868.134	0.0160126
868.212	0.0161269
868.290	0.0159679
868.368	0.0161928
868.446	0.0160244
868.524	0.0161349
868.602	0.0161002
868.681	0.0159988
868.759	0.0160114
868.837	0.0160733
868.915	0.0161814
868.993	0.0161311
869.071	0.0161263
869.149	0.0161109
869.227	0.0159971
869.306	0.0161359
869.384	0.0161810
869.462	0.0161417
869.540	0.0160892
869.618	0.0161319
869.696	0.0161562
869.774	0.0161629
869.852	0.0161341
869.931	0.0161166
870.009	0.0161693
870.087	0.0161041
870.165	0.0159836
870.243	0.0160166
870.321	0.0160911
870.399	0.0160605
870.477	0.0160584
870.556	0.0160613
870.634	0.0161595
870.712	0.0160257
870.790	0.0160015
870.868	0.0160029
870.946	0.0159157
871.024	0.0159913
871.102	0.0160309
871.181	0.0159932
871.259	0.0159628
871.337	0.0158778
871.415	0.0159412
871.493	0.0159978
871.571	0.0159007
871.649	0.0159254
871.727	0.0160126
871.806	0.0159869
871.884	0.0160635
871.962	0.0159595
872.040	0.0159700
872.118	0.0160171
872.196	0.0160827
872.274	0.0159278
872.352	0.0159715
872.431	0.0160479
872.509	0.0159875
872.587	0.0159156
872.665	0.0159763
872.743	0.0160239
872.821	0.0159928
872.899	0.0159585
872.977	0.0161046
873.056	0.0160055
873.134	0.0161993
873.212	0.0161330
873.290	0.0158125
873.368	0.0158899
873.446	0.0159604
873.524	0.0160676
873.602	0.0160249
873.681	0.0160043
873.759	0.0159934
873.837	0.0160098
873.915	0.0159477
873.993	0.0160406
874.071	0.0160040
874.149	0.0160665
874.227	0.0160418
874.306	0.0160789
874.384	0.0162272
874.462	0.0160390
874.540	0.0159497
874.618	0.0160381
874.696	0.0161105
874.774	0.0160999
874.852	0.0162298
874.931	0.0161841
875.009	0.0162183
875.087	0.0160764
875.165	0.0160448
875.243	0.0160487
875.321	0.0160561
875.399	0.0160945
875.477	0.0160617
875.556	0.0161469
875.634	0.0160310
875.712	0.0161026
875.790	0.0161405
875.868	0.0160571
875.946	0.0160299
876.024	0.0162704
876.102	0.0160126
876.181	0.0160934
876.259	0.0159914
876.337	0.0161425
876.415	0.0161721
876.493	0.0161437
876.571	0.0160434
876.649	0.0160720
876.727	0.0161682
876.806	0.0161335
876.884	0.0161149
876.962	0.0161816
877.040	0.0161623
877.118	0.0161135
877.196	0.0161173
877.274	0.0161729
877.352	0.0161862
877.431	0.0160117
877.509	0.0159766
877.587	0.0160650
877.665	0.0160336
877.743	0.0161662
877.821	0.0161098
877.899	0.0160954
877.977	0.0160719
878.056	0.0160804
878.134	0.0160861
878.212	0.0159072
878.290	0.0160916
878.368	0.0162119
878.446	0.0161147
878.524	0.0161151
878.602	0.0160379
878.681	0.0160065
878.759	0.0161326
878.837	0.0160778
878.915	0.0161301
878.993	0.0161298
879.071	0.0160630
879.149	0.0162424
879.227	0.0162294
879.306	0.0160165
879.384	0.0160485
879.462	0.0160829
879.540	0.0161920
879.618	0.0162051
879.696	0.0161558
879.774	0.0162050
879.852	0.0160833
879.931	0.0160738
880.009	0.0161532
880.087	0.0162351
880.165	0.0160804
880.243	0.0161530
880.321	0.0160662
880.399	0.0162767
880.477	0.0161606
880.556	0.0160410
880.634	0.0160620
880.712	0.0160097
880.790	0.0161620
880.868	0.0160614
880.946	0.0159269
881.024	0.0159029
881.102	0.0161407
881.181	0.0161214
881.259	0.0159710
881.337	0.0159648
881.415	0.0161118
881.493	0.0160336
881.571	0.0159723
881.649	0.0159799
881.727	0.0160836
881.806	0.0161671
881.884	0.0159534
881.962	0.0160052
882.040	0.0160670
882.118	0.0160670
882.196	0.0160656
882.274	0.0161425
882.352	0.0159611
882.431	0.0160309
882.509	0.0160499
882.587	0.0160488
882.665	0.0161026
882.743	0.0159945
882.821	0.0161428
882.899	0.0160285
882.977	0.0160911
883.056	0.0160674
883.134	0.0162086
883.212	0.0161250
883.290	0.0159613
883.368	0.0160313
883.446	0.0161253
883.524	0.0160622
883.602	0.0161543
883.681	0.0160219
883.759	0.0160634
883.837	0.0162022
883.915	0.0160095
883.993	0.0159852
884.071	0.0161734
884.149	0.0161658
884.227	0.0160751
884.306	0.0161945
884.384	0.0161594
884.462	0.0160378
884.540	0.0160645
884.618	0.0160568
884.696	0.0162482
884.774	0.0161246
884.852	0.0161470
884.931	0.0160807
885.009	0.0161096
885.087	0.0161683
885.165	0.0160579
885.243	0.0162315
885.321	0.0161412
885.399	0.0160632
885.477	0.0161504
885.556	0.0161710
885.634	0.0160168
885.712	0.0159324
885.790	0.0160535
885.868	0.0160838
885.946	0.0160143
886.024	0.0161588
886.102	0.0161268
886.181	0.0161951
886.259	0.0161115
886.337	0.0161768
886.415	0.0161507
886.493	0.0160147
886.571	0.0161134
886.649	0.0161127
886.727	0.0161164
886.806	0.0160905
886.884	0.0160330
886.962	0.0160266
887.040	0.0161636
887.118	0.0161937
887.196	0.0162328
887.274	0.0160265
887.352	0.0162309
887.431	0.0161932
887.509	0.0161435
887.587	0.0161150
887.665	0.0160210
887.743	0.0161510
887.821	0.0159245
887.899	0.0160469
887.977	0.0160661
888.056	0.0160757
888.134	0.0160098
888.212	0.0159772
888.290	0.0162344
888.368	0.0162148
888.446	0.0160340
888.524	0.0161525
888.602	0.0162705
888.681	0.0159835
888.759	0.0161517
888.837	0.0161431
888.915	0.0160648
888.993	0.0160854
889.071	0.0161134
889.149	0.0163126
889.227	0.0161566
889.306	0.0162475
889.384	0.0162285
889.462	0.0161729
889.540	0.0161487
889.618	0.0162057
889.696	0.0162131
889.774	0.0162403
889.852	0.0161664
889.931	0.0161864
890.009	0.0161971
890.087	0.0161673
890.165	0.0161197
890.243	0.0161683
890.321	0.0161523
890.399	0.0162408
890.477	0.0161513
890.556	0.0161092
890.634	0.0161910
890.712	0.0160914
890.790	0.0162617
890.868	0.0162100
890.946	0.0162108
891.024	0.0160661
891.102	0.0160848
891.181	0.0162465
891.259	0.0161671
891.337	0.0161352
891.415	0.0160306
891.493	0.0160530
891.571	0.0160397
891.649	0.0160979
891.727	0.0161424
891.806	0.0160735
891.884	0.0159698
891.962	0.0162251
892.040	0.0161999
892.118	0.0161958
892.196	0.0162273
892.274	0.0160904
892.352	0.0160281
892.431	0.0159910
892.509	0.0161453
892.587	0.0159606
892.665	0.0160206
892.743	0.0161497
892.821	0.0160201
892.899	0.0160723
892.977	0.0161642
893.056	0.0162791
893.134	0.0162093
893.212	0.0160733
893.290	0.0161163
893.368	0.0160620
893.446	0.0160773
893.524	0.0160735
893.602	0.0159949
893.681	0.0161586
893.759	0.0161574
893.837	0.0162411
893.915	0.0161762
893.993	0.0160712
894.071	0.0161893
894.149	0.0162001
894.227	0.0161022
894.306	0.0160852
894.384	0.0161088
894.462	0.0160668
894.540	0.0160734
894.618	0.0162277
894.696	0.0160834
894.774	0.0160162
894.852	0.0160061
894.931	0.0160088
895.009	0.0160568
895.087	0.0161182
895.165	0.0160201
895.243	0.0159818
895.321	0.0160598
895.399	0.0159136
895.477	0.0159491
895.556	0.0158907
895.634	0.0158548
895.712	0.0159211
895.790	0.0159452
895.868	0.0159027
895.946	0.0159611
896.024	0.0159133
896.102	0.0159526
896.181	0.0158905
896.259	0.0159077
896.337	0.0159464
896.415	0.0160620
896.493	0.0160566
896.571	0.0159155
896.649	0.0158454
896.727	0.0161137
896.806	0.0161450
896.884	0.0160851
896.962	0.0159602
897.040	0.0161111
897.118	0.0161777
897.196	0.0160641
897.274	0.0161217
897.352	0.0161862
897.431	0.0160050
897.509	0.0161396
897.587	0.0160904
897.665	0.0161743
897.743	0.0162457
897.821	0.0161160
897.899	0.0162563
897.977	0.0159853
898.056	0.0161397
898.134	0.0161512
898.212	0.0160780
898.290	0.0160158
898.368	0.0161431
898.446	0.0161531
898.524	0.0160228
898.602	0.0159875
898.681	0.0160538
898.759	0.0159458
898.837	0.0159878
898.915	0.0160142
898.993	0.0160040
899.071	0.0160738
899.149	0.0160569
899.227	0.0161494
899.306	0.0161015
899.384	0.0160271
899.462	0.0159887
899.540	0.0160641
899.618	0.0160496
899.696	0.0160831
899.774	0.0160188
899.852	0.0158860
899.931	0.0160493
900.009	0.0160250
900.087	0.0159769
900.165	0.0160960
900.243	0.0160870
900.321	0.0161342
900.399	0.0160968
900.477	0.0162377
900.556	0.0161849
900.634	0.0161583
900.712	0.0160695
900.790	0.0161243
900.868	0.0161588
900.946	0.0161804
901.024	0.0160410
901.102	0.0161302
901.181	0.0163562
901.259	0.0162051
901.337	0.0160934
901.415	0.0162128
901.493	0.0161030
901.571	0.0160397
901.649	0.0160929
901.727	0.0161411
901.806	0.0161322
901.884	0.0161275
901.962	0.0160850
902.040	0.0161361
902.118	0.0162513
902.196	0.0162643
902.274	0.0161398
902.352	0.0161206
902.431	0.0160728
902.509	0.0159367
902.587	0.0162165
902.665	0.0162374
902.743	0.0160970
902.821	0.0160172
902.899	0.0160509
902.977	0.0160765
903.056	0.0161649
903.134	0.0161626
903.212	0.0161338
903.290	0.0161448
903.368	0.0161793
903.446	0.0162283
903.524	0.0162951
903.602	0.0161111
903.681	0.0162726
903.759	0.0162789
903.837	0.0161189
903.915	0.0163173
903.993	0.0164040
904.071	0.0162545
904.149	0.0161298
904.227	0.0162145
904.306	0.0163108
904.384	0.0164120
904.462	0.0161083
904.540	0.0162492
904.618	0.0162298
904.696	0.0163882
904.774	0.0162979
904.852	0.0161580
904.931	0.0162565
905.009	0.0162801
905.087	0.0162198
905.165	0.0161224
905.243	0.0161900
905.321	0.0161871
905.399	0.0162514
905.477	0.0161133
905.556	0.0160947
905.634	0.0160530
905.712	0.0160812
905.790	0.0160767
905.868	0.0160538
905.946	0.0161824
906.024	0.0160220
906.102	0.0161914
906.181	0.0160659
906.259	0.0161109
906.337	0.0161475
906.415	0.0160570
906.493	0.0162180
906.571	0.0160287
906.649	0.0161903
906.727	0.0161693
906.806	0.0162693
906.884	0.0162415
906.962	0.0161349
907.040	0.0161275
907.118	0.0161411
907.196	0.0164093
907.274	0.0162096
907.352	0.0161308
907.431	0.0161422
907.509	0.0162003
907.587	0.0162950
907.665	0.0162559
907.743	0.0162267
907.821	0.0162087
907.899	0.0163255
907.977	0.0163408
908.056	0.0162009
908.134	0.0161475
908.212	0.0161000
908.290	0.0161674
908.368	0.0162762
908.446	0.0161780
908.524	0.0161493
908.602	0.0161477
908.681	0.0161900
908.759	0.0161008
908.837	0.0161478
908.915	0.0161536
908.993	0.0160623
909.071	0.0161987
909.149	0.0161726
909.227	0.0162257
909.306	0.0160860
909.384	0.0160052
909.462	0.0160472
909.540	0.0161607
909.618	0.0159539
909.696	0.0161249
909.774	0.0159268
909.852	0.0160833
909.931	0.0160522
910.009	0.0160326
910.087	0.0161513
910.165	0.0160255
910.243	0.0159830
910.321	0.0158907
910.399	0.0160892
910.477	0.0160609
910.556	0.0159924
910.634	0.0161196
910.712	0.0161460
910.790	0.0160736
910.868	0.0160812
910.946	0.0161324
911.024	0.0161723
911.102	0.0159769
911.181	0.0161423
911.259	0.0161351
911.337	0.0160518
911.415	0.0160695
911.493	0.0160897
911.571	0.0161942
911.649	0.0160693
911.727	0.0160271
911.806	0.0161854
911.884	0.0162386
911.962	0.0161562
912.040	0.0161010
912.118	0.0160422
912.196	0.0161659
912.274	0.0161586
912.352	0.0160294
912.431	0.0161092
912.509	0.0160282
912.587	0.0161578
912.665	0.0161307
912.743	0.0160658
912.821	0.0161011
912.899	0.0159973
912.977	0.0161326
913.056	0.0161826
913.134	0.0161464
913.212	0.0160410
913.290	0.0160364
913.368	0.0160704
913.446	0.0163034
913.524	0.0161990
913.602	0.0162038
913.681	0.0161239
913.759	0.0162598
913.837	0.0162369
913.915	0.0162128
913.993	0.0161127
914.071	0.0162376
914.149	0.0161765
914.227	0.0161638
914.306	0.0161826
914.384	0.0161577
914.462	0.0160432
914.540	0.0161780
914.618	0.0160952
914.696	0.0160999
914.774	0.0161369
914.852	0.0161893
914.931	0.0161096
915.009	0.0160919
915.087	0.0161435
915.165	0.0161254
915.243	0.0160113
915.321	0.0160788
915.399	0.0160167
915.477	0.0160841
915.556	0.0160199
915.634	0.0161546
915.712	0.0162034
915.790	0.0160983
915.868	0.0161216
915.946	0.0161449
916.024	0.0161040
916.102	0.0161803
916.181	0.0161456
916.259	0.0160321
916.337	0.0161430
916.415	0.0161349
916.493	0.0161121
916.571	0.0161948
916.649	0.0162552
916.727	0.0161796
916.806	0.0161990
916.884	0.0160825
916.962	0.0161060
917.040	0.0160411
917.118	0.0160761
917.196	0.0161492
917.274	0.0162216
917.352	0.0162405
917.431	0.0160556
917.509	0.0160728
917.587	0.0161545
917.665	0.0161520
917.743	0.0161594
917.821	0.0160610
917.899	0.0161414
917.977	0.0162675
918.056	0.0162379
918.134	0.0161780
918.212	0.0160918
918.290	0.0160180
918.368	0.0161903
918.446	0.0160608
918.524	0.0161603
918.602	0.0162733
918.681	0.0162485
918.759	0.0160596
918.837	0.0161591
918.915	0.0162088
918.993	0.0161140
919.071	0.0160934
919.149	0.0161717
919.227	0.0160558
919.306	0.0161345
919.384	0.0161908
919.462	0.0161045
919.540	0.0161329
919.618	0.0160667
919.696	0.0160492
919.774	0.0160049
919.852	0.0162431
919.931	0.0161056
920.009	0.0162934
920.087	0.0162125
920.165	0.0161164
920.243	0.0160218
920.321	0.0160870
920.399	0.0160675
920.477	0.0161593
920.556	0.0162034
920.634	0.0162378
920.712	0.0161909
920.790	0.0162209
920.868	0.0161450
920.946	0.0161518
921.024	0.0161448
921.102	0.0162286
921.181	0.0161148
921.259	0.0163241
921.337	0.0162482
921.415	0.0162813
921.493	0.0162978
921.571	0.0161254
921.649	0.0162017
921.727	0.0161263
921.806	0.0162698
921.884	0.0161584
921.962	0.0160858
922.040	0.0163054
922.118	0.0161770
922.196	0.0161696
922.274	0.0161250
922.352	0.0161054
922.431	0.0162200
922.509	0.0162850
922.587	0.0161188
922.665	0.0161391
922.743	0.0160783
922.821	0.0160905
922.899	0.0161443
922.977	0.0160361
923.056	0.0160571
923.134	0.0160351
923.212	0.0160431
923.290	0.0161387
923.368	0.0159570
923.446	0.0159631
923.524	0.0160571
923.602	0.0160083
923.681	0.0159725
923.759	0.0160668
923.837	0.0160309
923.915	0.0159324
923.993	0.0159859
924.071	0.0161269
924.149	0.0158791
924.227	0.0158707
924.306	0.0159649
924.384	0.0159458
924.462	0.0160983
924.540	0.0161292
924.618	0.0159959
924.696	0.0159127
924.774	0.0159502
924.852	0.0159649
924.931	0.0160141
925.009	0.0161893
925.087	0.0159981
925.165	0.0161517
925.243	0.0159663
925.321	0.0161196
925.399	0.0161975
925.477	0.0160123
925.556	0.0160594
925.634	0.0161632
925.712	0.0161858
925.790	0.0161995
925.868	0.0163136
925.946	0.0161372
926.024	0.0162002
926.102	0.0161821
926.181	0.0161344
926.259	0.0160633
926.337	0.0162435
926.415	0.0162960
926.493	0.0162553
926.571	0.0162699
926.649	0.0163407
926.727	0.0162305
926.806	0.0161301
926.884	0.0162463
926.962	0.0162537
927.040	0.0162471
927.118	0.0160932
927.196	0.0160656
927.274	0.0161007
927.352	0.0161594
927.431	0.0161817
927.509	0.0161953
927.587	0.0162634
927.665	0.0161039
927.743	0.0162051
927.821	0.0161043
927.899	0.0160441
927.977	0.0162035
928.056	0.0161102
928.134	0.0159513
928.212	0.0160575
928.290	0.0160540
928.368	0.0161192
928.446	0.0158833
928.524	0.0160418
928.602	0.0161112
928.681	0.0159674
928.759	0.0158770
928.837	0.0158617
928.915	0.0160547
928.993	0.0160611
929.071	0.0161779
929.149	0.0159849
929.227	0.0161157
929.306	0.0160456
929.384	0.0160426
929.462	0.0160263
929.540	0.0160837
929.618	0.0159638
929.696	0.0161957
929.774	0.0159512
929.852	0.0160719
929.931	0.0161555
