05/19/2022	01:16:25	Ver.	4.1	UNKNOWN
Optical Delay	610.008675	Delta X		0.078125	Sweeps	1	Scan Rate	0/0
Coordinates	Axis 1	NaN	Axis 2	NaN	Axis 3	NaN	Axis 4	NaN	Axis 5	NaN	Axis 6	0.000000
TX Power	0.000000	RX Power	0.000000

610.009	0.0162122
610.087	0.0160983
610.165	0.0162253
610.243	0.0162661
610.321	0.0162348
610.399	0.0160776
610.477	0.0161726
610.556	0.0161001
610.634	0.0161655
610.712	0.0162696
610.790	0.0161049
610.868	0.0160851
610.946	0.0162478
611.024	0.0161971
611.102	0.0160951
611.181	0.0161256
611.259	0.0163097
611.337	0.0161776
611.415	0.0162975
611.493	0.0161996
611.571	0.0163216
611.649	0.0163273
611.727	0.0161826
611.806	0.0162460
611.884	0.0162860
611.962	0.0162125
612.040	0.0164021
612.118	0.0162732
612.196	0.0161609
612.274	0.0162531
612.352	0.0162266
612.431	0.0164549
612.509	0.0162556
612.587	0.0162265
612.665	0.0161513
612.743	0.0161246
612.821	0.0162319
612.899	0.0161547
612.977	0.0163333
613.056	0.0162557
613.134	0.0160580
613.212	0.0161566
613.290	0.0161044
613.368	0.0161192
613.446	0.0161936
613.524	0.0161953
613.602	0.0161332
613.681	0.0162021
613.759	0.0162873
613.837	0.0162046
613.915	0.0161620
613.993	0.0161563
614.071	0.0161899
614.149	0.0162819
614.227	0.0163072
614.306	0.0161716
614.384	0.0163202
614.462	0.0162105
614.540	0.0163247
614.618	0.0162389
614.696	0.0162868
614.774	0.0162936
614.852	0.0163814
614.931	0.0163084
615.009	0.0163581
615.087	0.0163174
615.165	0.0162950
615.243	0.0161829
615.321	0.0162355
615.399	0.0163210
615.477	0.0162460
615.556	0.0162045
615.634	0.0161960
615.712	0.0161393
615.790	0.0162544
615.868	0.0161855
615.946	0.0161043
616.024	0.0161832
616.102	0.0162003
616.181	0.0162630
616.259	0.0160844
616.337	0.0161975
616.415	0.0163180
616.493	0.0160409
616.571	0.0161846
616.649	0.0163796
616.727	0.0162759
616.806	0.0162982
616.884	0.0162977
616.962	0.0163074
617.040	0.0163132
617.118	0.0163297
617.196	0.0164407
617.274	0.0161740
617.352	0.0163207
617.431	0.0161946
617.509	0.0163352
617.587	0.0164203
617.665	0.0163599
617.743	0.0164260
617.821	0.0163078
617.899	0.0162614
617.977	0.0162675
618.056	0.0164281
618.134	0.0161831
618.212	0.0162229
618.290	0.0161947
618.368	0.0162165
618.446	0.0161113
618.524	0.0162417
618.602	0.0162412
618.681	0.0161741
618.759	0.0162307
618.837	0.0160853
618.915	0.0162270
618.993	0.0161934
619.071	0.0163161
619.149	0.0162633
619.227	0.0164030
619.306	0.0162862
619.384	0.0162412
619.462	0.0163090
619.540	0.0161987
619.618	0.0162350
619.696	0.0161501
619.774	0.0162527
619.852	0.0162252
619.931	0.0163783
620.009	0.0163332
620.087	0.0163741
620.165	0.0163039
620.243	0.0163220
620.321	0.0162868
620.399	0.0163965
620.477	0.0162448
620.556	0.0162641
620.634	0.0162334
620.712	0.0161290
620.790	0.0160969
620.868	0.0163268
620.946	0.0162205
621.024	0.0161760
621.102	0.0162072
621.181	0.0161176
621.259	0.0162110
621.337	0.0163610
621.415	0.0162477
621.493	0.0161427
621.571	0.0162522
621.649	0.0160577
621.727	0.0161414
621.806	0.0161082
621.884	0.0161384
621.962	0.0162119
622.040	0.0160828
622.118	0.0160774
622.196	0.0161736
622.274	0.0160878
622.352	0.0160478
622.431	0.0161150
622.509	0.0162444
622.587	0.0161343
622.665	0.0161555
622.743	0.0160116
622.821	0.0159489
622.899	0.0162124
622.977	0.0160918
623.056	0.0160664
623.134	0.0160668
623.212	0.0162817
623.290	0.0162088
623.368	0.0162458
623.446	0.0162817
623.524	0.0162714
623.602	0.0161429
623.681	0.0162851
623.759	0.0163319
623.837	0.0164485
623.915	0.0164644
623.993	0.0164192
624.071	0.0163895
624.149	0.0164429
624.227	0.0164429
624.306	0.0164207
624.384	0.0164953
624.462	0.0163104
624.540	0.0164209
624.618	0.0163898
624.696	0.0163012
624.774	0.0162289
624.852	0.0163935
624.931	0.0163810
625.009	0.0162690
625.087	0.0161965
625.165	0.0164344
625.243	0.0162457
625.321	0.0162347
625.399	0.0161958
625.477	0.0162051
625.556	0.0163393
625.634	0.0161666
625.712	0.0161903
625.790	0.0160665
625.868	0.0161309
625.946	0.0160842
626.024	0.0161999
626.102	0.0161620
626.181	0.0160728
626.259	0.0160510
626.337	0.0160051
626.415	0.0161397
626.493	0.0160781
626.571	0.0160630
626.649	0.0161590
626.727	0.0160225
626.806	0.0159358
626.884	0.0159189
626.962	0.0161434
627.040	0.0160089
627.118	0.0160946
627.196	0.0162498
627.274	0.0162647
627.352	0.0162108
627.431	0.0161738
627.509	0.0161755
627.587	0.0163032
627.665	0.0162132
627.743	0.0162418
627.821	0.0162328
627.899	0.0162966
627.977	0.0163930
628.056	0.0164243
628.134	0.0163013
628.212	0.0164487
628.290	0.0163554
628.368	0.0165175
628.446	0.0164753
628.524	0.0165557
628.602	0.0165572
628.681	0.0165825
628.759	0.0164347
628.837	0.0164008
628.915	0.0165187
628.993	0.0165626
629.071	0.0166659
629.149	0.0166783
629.227	0.0164204
629.306	0.0165572
629.384	0.0165779
629.462	0.0165648
629.540	0.0164801
629.618	0.0166157
629.696	0.0166479
629.774	0.0165892
629.852	0.0163753
629.931	0.0164190
630.009	0.0164544
630.087	0.0164397
630.165	0.0164822
630.243	0.0164397
630.321	0.0162329
630.399	0.0163098
630.477	0.0162561
630.556	0.0161788
630.634	0.0160394
630.712	0.0161109
630.790	0.0160997
630.868	0.0160183
630.946	0.0159681
631.024	0.0159869
631.102	0.0160297
631.181	0.0159748
631.259	0.0160868
631.337	0.0158606
631.415	0.0159831
631.493	0.0158575
631.571	0.0158568
631.649	0.0159383
631.727	0.0158778
631.806	0.0157867
631.884	0.0159196
631.962	0.0160372
632.040	0.0159155
632.118	0.0158504
632.196	0.0160023
632.274	0.0160155
632.352	0.0160583
632.431	0.0161702
632.509	0.0161651
632.587	0.0161396
632.665	0.0161146
632.743	0.0162246
632.821	0.0163430
632.899	0.0163506
632.977	0.0163359
633.056	0.0163623
633.134	0.0165512
633.212	0.0165696
633.290	0.0166188
633.368	0.0165569
633.446	0.0165426
633.524	0.0165942
633.602	0.0166339
633.681	0.0166169
633.759	0.0165982
633.837	0.0166496
633.915	0.0168094
633.993	0.0166825
634.071	0.0166795
634.149	0.0167776
634.227	0.0168600
634.306	0.0168712
634.384	0.0167264
634.462	0.0167562
634.540	0.0167574
634.618	0.0166567
634.696	0.0167467
634.774	0.0165327
634.852	0.0165644
634.931	0.0164158
635.009	0.0164170
635.087	0.0164573
635.165	0.0164275
635.243	0.0163908
635.321	0.0164430
635.399	0.0162499
635.477	0.0162837
635.556	0.0162276
635.634	0.0161326
635.712	0.0160750
635.790	0.0160576
635.868	0.0159783
635.946	0.0159118
636.024	0.0159868
636.102	0.0158012
636.181	0.0158208
636.259	0.0157761
636.337	0.0159057
636.415	0.0157607
636.493	0.0156356
636.571	0.0157220
636.649	0.0157697
636.727	0.0156441
636.806	0.0157967
636.884	0.0156322
636.962	0.0157644
637.040	0.0158621
637.118	0.0158846
637.196	0.0158053
637.274	0.0160004
637.352	0.0160892
637.431	0.0160557
637.509	0.0161709
637.587	0.0162835
637.665	0.0164284
637.743	0.0164201
637.821	0.0164325
637.899	0.0163859
637.977	0.0165533
638.056	0.0165888
638.134	0.0166454
638.212	0.0168137
638.290	0.0168199
638.368	0.0167638
638.446	0.0168040
638.524	0.0166969
638.602	0.0168884
638.681	0.0168988
638.759	0.0168361
638.837	0.0168118
638.915	0.0169863
638.993	0.0168567
639.071	0.0167868
639.149	0.0168302
639.227	0.0168086
639.306	0.0166833
639.384	0.0166219
639.462	0.0167575
639.540	0.0166349
639.618	0.0165292
639.696	0.0164885
639.774	0.0165617
639.852	0.0163857
639.931	0.0162867
640.009	0.0162711
640.087	0.0163560
640.165	0.0162205
640.243	0.0161047
640.321	0.0160657
640.399	0.0160440
640.477	0.0158349
640.556	0.0159104
640.634	0.0160326
640.712	0.0158060
640.790	0.0157201
640.868	0.0157106
640.946	0.0157234
641.024	0.0157590
641.102	0.0157832
641.181	0.0158056
641.259	0.0157724
641.337	0.0157268
641.415	0.0158884
641.493	0.0158241
641.571	0.0158377
641.649	0.0159468
641.727	0.0158759
641.806	0.0159324
641.884	0.0159357
641.962	0.0158863
642.040	0.0160764
642.118	0.0159888
642.196	0.0160580
642.274	0.0160273
642.352	0.0160390
642.431	0.0162162
642.509	0.0162283
642.587	0.0161417
642.665	0.0162759
642.743	0.0163657
642.821	0.0162803
642.899	0.0163854
642.977	0.0163185
643.056	0.0162355
643.134	0.0163639
643.212	0.0163890
643.290	0.0163182
643.368	0.0163973
643.446	0.0164336
643.524	0.0162993
643.602	0.0163446
643.681	0.0163812
643.759	0.0165298
643.837	0.0163068
643.915	0.0163079
643.993	0.0163705
644.071	0.0164252
644.149	0.0164104
644.227	0.0163731
644.306	0.0163530
644.384	0.0163491
644.462	0.0164209
644.540	0.0163588
644.618	0.0163802
644.696	0.0162254
644.774	0.0163018
644.852	0.0163532
644.931	0.0162426
645.009	0.0163250
645.087	0.0163036
645.165	0.0163589
645.243	0.0163936
645.321	0.0163997
645.399	0.0162794
645.477	0.0164307
645.556	0.0162402
645.634	0.0164907
645.712	0.0162741
645.790	0.0163144
645.868	0.0163825
645.946	0.0163784
646.024	0.0163129
646.102	0.0164411
646.181	0.0164031
646.259	0.0162324
646.337	0.0163168
646.415	0.0164597
646.493	0.0163392
646.571	0.0162639
646.649	0.0163275
646.727	0.0163932
646.806	0.0162675
646.884	0.0161781
646.962	0.0161327
647.040	0.0161108
647.118	0.0161996
647.196	0.0161332
647.274	0.0161549
647.352	0.0162658
647.431	0.0161826
647.509	0.0161613
647.587	0.0162538
647.665	0.0162469
647.743	0.0162185
647.821	0.0162723
647.899	0.0162368
647.977	0.0161649
648.056	0.0162226
648.134	0.0162513
648.212	0.0162325
648.290	0.0161876
648.368	0.0161370
648.446	0.0163235
648.524	0.0164120
648.602	0.0164468
648.681	0.0163260
648.759	0.0162809
648.837	0.0163468
648.915	0.0164070
648.993	0.0162665
649.071	0.0163800
649.149	0.0163740
649.227	0.0163255
649.306	0.0163129
649.384	0.0163547
649.462	0.0164494
649.540	0.0162394
649.618	0.0163322
649.696	0.0163531
649.774	0.0165340
649.852	0.0164770
649.931	0.0163956
650.009	0.0163795
650.087	0.0164108
650.165	0.0162672
650.243	0.0164636
650.321	0.0164855
650.399	0.0163649
650.477	0.0163625
650.556	0.0163517
650.634	0.0163700
650.712	0.0164271
650.790	0.0163908
650.868	0.0164653
650.946	0.0164939
651.024	0.0163880
651.102	0.0162698
651.181	0.0162691
651.259	0.0163779
651.337	0.0164417
651.415	0.0163003
651.493	0.0164774
651.571	0.0164149
651.649	0.0163823
651.727	0.0163626
651.806	0.0162779
651.884	0.0164635
651.962	0.0164146
652.040	0.0164848
652.118	0.0162704
652.196	0.0163341
652.274	0.0164087
652.352	0.0164647
652.431	0.0164075
652.509	0.0164954
652.587	0.0164737
652.665	0.0164475
652.743	0.0162997
652.821	0.0163966
652.899	0.0164443
652.977	0.0163489
653.056	0.0163221
653.134	0.0163904
653.212	0.0163363
653.290	0.0163383
653.368	0.0161893
653.446	0.0162655
653.524	0.0162612
653.602	0.0162207
653.681	0.0162000
653.759	0.0162325
653.837	0.0161349
653.915	0.0160228
653.993	0.0161043
654.071	0.0161429
654.149	0.0162379
654.227	0.0161775
654.306	0.0160773
654.384	0.0160514
654.462	0.0160381
654.540	0.0160269
654.618	0.0160125
654.696	0.0160303
654.774	0.0160588
654.852	0.0159768
654.931	0.0160622
655.009	0.0160548
655.087	0.0160344
655.165	0.0159375
655.243	0.0160040
655.321	0.0160663
655.399	0.0159226
655.477	0.0159971
655.556	0.0160809
655.634	0.0160940
655.712	0.0161677
655.790	0.0161243
655.868	0.0161692
655.946	0.0162148
656.024	0.0163319
656.102	0.0162872
656.181	0.0163028
656.259	0.0163497
656.337	0.0163506
656.415	0.0164135
656.493	0.0165146
656.571	0.0165840
656.649	0.0166056
656.727	0.0165502
656.806	0.0166884
656.884	0.0166328
656.962	0.0166627
657.040	0.0169179
657.118	0.0168410
657.196	0.0166920
657.274	0.0167046
657.352	0.0167538
657.431	0.0168018
657.509	0.0167000
657.587	0.0168184
657.665	0.0168494
657.743	0.0168646
657.821	0.0167338
657.899	0.0166829
657.977	0.0165610
658.056	0.0165416
658.134	0.0166093
658.212	0.0165316
658.290	0.0164667
658.368	0.0162741
658.446	0.0162728
658.524	0.0162478
658.602	0.0162843
658.681	0.0161575
658.759	0.0161251
658.837	0.0161320
658.915	0.0158913
658.993	0.0160616
659.071	0.0160813
659.149	0.0160032
659.227	0.0158907
659.306	0.0159471
659.384	0.0159480
659.462	0.0158545
659.540	0.0157733
659.618	0.0158066
659.696	0.0158627
659.774	0.0158758
659.852	0.0157392
659.931	0.0158974
660.009	0.0158709
660.087	0.0158044
660.165	0.0158360
660.243	0.0159585
660.321	0.0159333
660.399	0.0159200
660.477	0.0158005
660.556	0.0160435
660.634	0.0161599
660.712	0.0159880
660.790	0.0161435
660.868	0.0162691
660.946	0.0161469
661.024	0.0163381
661.102	0.0164493
661.181	0.0165074
661.259	0.0164589
661.337	0.0165261
661.415	0.0165449
661.493	0.0163777
661.571	0.0164325
661.649	0.0167166
661.727	0.0166688
661.806	0.0165349
661.884	0.0166539
661.962	0.0166766
662.040	0.0165784
662.118	0.0165461
662.196	0.0166046
662.274	0.0165672
662.352	0.0166107
662.431	0.0165548
662.509	0.0165553
662.587	0.0164962
662.665	0.0164075
662.743	0.0165668
662.821	0.0164992
662.899	0.0164883
662.977	0.0163416
663.056	0.0162279
663.134	0.0162562
663.212	0.0163814
663.290	0.0162395
663.368	0.0163625
663.446	0.0163245
663.524	0.0162379
663.602	0.0161997
663.681	0.0161981
663.759	0.0160703
663.837	0.0159988
663.915	0.0161294
663.993	0.0160128
664.071	0.0161682
664.149	0.0159859
664.227	0.0161384
664.306	0.0160617
664.384	0.0159545
664.462	0.0159603
664.540	0.0159514
664.618	0.0160268
664.696	0.0159572
664.774	0.0159962
664.852	0.0160862
664.931	0.0159113
665.009	0.0160233
665.087	0.0160268
665.165	0.0161096
665.243	0.0160955
665.321	0.0161227
665.399	0.0160902
665.477	0.0161469
665.556	0.0162037
665.634	0.0160917
665.712	0.0161726
665.790	0.0161633
665.868	0.0161270
665.946	0.0161845
666.024	0.0163327
666.102	0.0162325
666.181	0.0161793
666.259	0.0161952
666.337	0.0159435
666.415	0.0161189
666.493	0.0162292
666.571	0.0161732
666.649	0.0162730
666.727	0.0161884
666.806	0.0163174
666.884	0.0162771
666.962	0.0163261
667.040	0.0162288
667.118	0.0163126
667.196	0.0162411
667.274	0.0163161
667.352	0.0162928
667.431	0.0164869
667.509	0.0164124
667.587	0.0164906
667.665	0.0165561
667.743	0.0165218
667.821	0.0163922
667.899	0.0165083
667.977	0.0165189
668.056	0.0165498
668.134	0.0163255
668.212	0.0162743
668.290	0.0163861
668.368	0.0163416
668.446	0.0162867
668.524	0.0164281
668.602	0.0163381
668.681	0.0163515
668.759	0.0162585
668.837	0.0161884
668.915	0.0163014
668.993	0.0162513
669.071	0.0163921
669.149	0.0162560
669.227	0.0161390
669.306	0.0161237
669.384	0.0162060
669.462	0.0163306
669.540	0.0163367
669.618	0.0163539
669.696	0.0162725
669.774	0.0162032
669.852	0.0162601
669.931	0.0163033
670.009	0.0162872
670.087	0.0162402
670.165	0.0164035
670.243	0.0165099
670.321	0.0162570
670.399	0.0163096
670.477	0.0164737
670.556	0.0163194
670.634	0.0163152
670.712	0.0163785
670.790	0.0164590
670.868	0.0163583
670.946	0.0163284
671.024	0.0163331
671.102	0.0162702
671.181	0.0162679
671.259	0.0164335
671.337	0.0163819
671.415	0.0163136
671.493	0.0162387
671.571	0.0164260
671.649	0.0162710
671.727	0.0163340
671.806	0.0163118
671.884	0.0163471
671.962	0.0163806
672.040	0.0163152
672.118	0.0162855
672.196	0.0163657
672.274	0.0162266
672.352	0.0164346
672.431	0.0162949
672.509	0.0162493
672.587	0.0162312
672.665	0.0164137
672.743	0.0162276
672.821	0.0161230
672.899	0.0163346
672.977	0.0162582
673.056	0.0161551
673.134	0.0161087
673.212	0.0162193
673.290	0.0161634
673.368	0.0163285
673.446	0.0161366
673.524	0.0161659
673.602	0.0160360
673.681	0.0162377
673.759	0.0163058
673.837	0.0163676
673.915	0.0162199
673.993	0.0161370
674.071	0.0161800
674.149	0.0161514
674.227	0.0161445
674.306	0.0163464
674.384	0.0161308
674.462	0.0162174
674.540	0.0162557
674.618	0.0162771
674.696	0.0162589
674.774	0.0162454
674.852	0.0162779
674.931	0.0163852
675.009	0.0164048
675.087	0.0162487
675.165	0.0162148
675.243	0.0163238
675.321	0.0163264
675.399	0.0163264
675.477	0.0162950
675.556	0.0164143
675.634	0.0163512
675.712	0.0163911
675.790	0.0162671
675.868	0.0163597
675.946	0.0163055
676.024	0.0163415
676.102	0.0162566
676.181	0.0163295
676.259	0.0163329
676.337	0.0164282
676.415	0.0163474
676.493	0.0162782
676.571	0.0162601
676.649	0.0162251
676.727	0.0163404
676.806	0.0162006
676.884	0.0161716
676.962	0.0162020
677.040	0.0162794
677.118	0.0161047
677.196	0.0162890
677.274	0.0161932
677.352	0.0162656
677.431	0.0161217
677.509	0.0162283
677.587	0.0161494
677.665	0.0161567
677.743	0.0163409
677.821	0.0163661
677.899	0.0163206
677.977	0.0162012
678.056	0.0163004
678.134	0.0163723
678.212	0.0162386
678.290	0.0163633
678.368	0.0163992
678.446	0.0162467
678.524	0.0163550
678.602	0.0163134
678.681	0.0163264
678.759	0.0163637
678.837	0.0165652
678.915	0.0164695
678.993	0.0164161
679.071	0.0163379
679.149	0.0163748
679.227	0.0165391
679.306	0.0165318
679.384	0.0164439
679.462	0.0164959
679.540	0.0165593
679.618	0.0165063
679.696	0.0165257
679.774	0.0165148
679.852	0.0165587
679.931	0.0164720
680.009	0.0164323
680.087	0.0162682
680.165	0.0163322
680.243	0.0163075
680.321	0.0163671
680.399	0.0163468
680.477	0.0163411
680.556	0.0163599
680.634	0.0162234
680.712	0.0160454
680.790	0.0163613
680.868	0.0162701
680.946	0.0162266
681.024	0.0163307
681.102	0.0161703
681.181	0.0161965
681.259	0.0161203
681.337	0.0161570
681.415	0.0161138
681.493	0.0160797
681.571	0.0162632
681.649	0.0162106
681.727	0.0161709
681.806	0.0161013
681.884	0.0162165
681.962	0.0162566
682.040	0.0161408
682.118	0.0162688
682.196	0.0161718
682.274	0.0163370
682.352	0.0163615
682.431	0.0161587
682.509	0.0162473
682.587	0.0163173
682.665	0.0161089
682.743	0.0162719
682.821	0.0161877
682.899	0.0161380
682.977	0.0162305
683.056	0.0163022
683.134	0.0161088
683.212	0.0161055
683.290	0.0162782
683.368	0.0162353
683.446	0.0160728
683.524	0.0162267
683.602	0.0162092
683.681	0.0163196
683.759	0.0161600
683.837	0.0162675
683.915	0.0161875
683.993	0.0162110
684.071	0.0161549
684.149	0.0161929
684.227	0.0161517
684.306	0.0162476
684.384	0.0163129
684.462	0.0163608
684.540	0.0163312
684.618	0.0163107
684.696	0.0163685
684.774	0.0163580
684.852	0.0164348
684.931	0.0164117
685.009	0.0164884
685.087	0.0163465
685.165	0.0163469
685.243	0.0165704
685.321	0.0164824
685.399	0.0165180
685.477	0.0164342
685.556	0.0163702
685.634	0.0163802
685.712	0.0165495
685.790	0.0163203
685.868	0.0164061
685.946	0.0163718
686.024	0.0163512
686.102	0.0163037
686.181	0.0162381
686.259	0.0163068
686.337	0.0162351
686.415	0.0163339
686.493	0.0161909
686.571	0.0160278
686.649	0.0160295
686.727	0.0160896
686.806	0.0162486
686.884	0.0160657
686.962	0.0159772
687.040	0.0161079
687.118	0.0160797
687.196	0.0158830
687.274	0.0160129
687.352	0.0159438
687.431	0.0159966
687.509	0.0159813
687.587	0.0159309
687.665	0.0160187
687.743	0.0159276
687.821	0.0159445
687.899	0.0159694
687.977	0.0160435
688.056	0.0160876
688.134	0.0161462
688.212	0.0160236
688.290	0.0160969
688.368	0.0161399
688.446	0.0161168
688.524	0.0161768
688.602	0.0162647
688.681	0.0163301
688.759	0.0162696
688.837	0.0164127
688.915	0.0163178
688.993	0.0163699
689.071	0.0163816
689.149	0.0164465
689.227	0.0163973
689.306	0.0164809
689.384	0.0164903
689.462	0.0164253
689.540	0.0164549
689.618	0.0164534
689.696	0.0164440
689.774	0.0164412
689.852	0.0164696
689.931	0.0163182
690.009	0.0164723
690.087	0.0163600
690.165	0.0163329
690.243	0.0163001
690.321	0.0163641
690.399	0.0164833
690.477	0.0163078
690.556	0.0163435
690.634	0.0163226
690.712	0.0162117
690.790	0.0163092
690.868	0.0164330
690.946	0.0163285
691.024	0.0161472
691.102	0.0161532
691.181	0.0161815
691.259	0.0161441
691.337	0.0163427
691.415	0.0162875
691.493	0.0162276
691.571	0.0161893
691.649	0.0161111
691.727	0.0161326
691.806	0.0161376
691.884	0.0160954
691.962	0.0162088
692.040	0.0160963
692.118	0.0161971
692.196	0.0160313
692.274	0.0161798
692.352	0.0161153
692.431	0.0161191
692.509	0.0161343
692.587	0.0162045
692.665	0.0160911
692.743	0.0161040
692.821	0.0161694
692.899	0.0161597
692.977	0.0161469
693.056	0.0161304
693.134	0.0162298
693.212	0.0162325
693.290	0.0161771
693.368	0.0162100
693.446	0.0161503
693.524	0.0160583
693.602	0.0161723
693.681	0.0161770
693.759	0.0163713
693.837	0.0163484
693.915	0.0162591
693.993	0.0160925
694.071	0.0162653
694.149	0.0162614
694.227	0.0163450
694.306	0.0162220
694.384	0.0162228
694.462	0.0162241
694.540	0.0162458
694.618	0.0163076
694.696	0.0162483
694.774	0.0162308
694.852	0.0160792
694.931	0.0161935
695.009	0.0162843
695.087	0.0161230
695.165	0.0162151
695.243	0.0162289
695.321	0.0161930
695.399	0.0161353
695.477	0.0162648
695.556	0.0162910
695.634	0.0161961
695.712	0.0161173
695.790	0.0160822
695.868	0.0161157
695.946	0.0161087
696.024	0.0161991
696.102	0.0162782
696.181	0.0162041
696.259	0.0162383
696.337	0.0162093
696.415	0.0162409
696.493	0.0162576
696.571	0.0161568
696.649	0.0162011
696.727	0.0162181
696.806	0.0163402
696.884	0.0163184
696.962	0.0162348
697.040	0.0162589
697.118	0.0161417
697.196	0.0162415
697.274	0.0162338
697.352	0.0162012
697.431	0.0161036
697.509	0.0162592
697.587	0.0163252
697.665	0.0160951
697.743	0.0162835
697.821	0.0160226
697.899	0.0161718
697.977	0.0161461
698.056	0.0162963
698.134	0.0161671
698.212	0.0160287
698.290	0.0162424
698.368	0.0162437
698.446	0.0161282
698.524	0.0161433
698.602	0.0161135
698.681	0.0162515
698.759	0.0162107
698.837	0.0162218
698.915	0.0159971
698.993	0.0162012
699.071	0.0162663
699.149	0.0162047
699.227	0.0161401
699.306	0.0162052
699.384	0.0161300
699.462	0.0161201
699.540	0.0163544
699.618	0.0161968
699.696	0.0162608
699.774	0.0161795
699.852	0.0161118
699.931	0.0160840
700.009	0.0161974
700.087	0.0162460
700.165	0.0161342
700.243	0.0162250
700.321	0.0163587
700.399	0.0163409
700.477	0.0162357
700.556	0.0162482
700.634	0.0163296
700.712	0.0164426
700.790	0.0163486
700.868	0.0162830
700.946	0.0163419
701.024	0.0164836
701.102	0.0163680
701.181	0.0163185
701.259	0.0162387
701.337	0.0164084
701.415	0.0162694
701.493	0.0163019
701.571	0.0162383
701.649	0.0161897
701.727	0.0162183
701.806	0.0161489
701.884	0.0161870
701.962	0.0161431
702.040	0.0164095
702.118	0.0161553
702.196	0.0161954
702.274	0.0161439
702.352	0.0161443
702.431	0.0161241
702.509	0.0161276
702.587	0.0161679
702.665	0.0160069
702.743	0.0162090
702.821	0.0160786
702.899	0.0161288
702.977	0.0161781
703.056	0.0161644
703.134	0.0164068
703.212	0.0163203
703.290	0.0161138
703.368	0.0161563
703.446	0.0164288
703.524	0.0163148
703.602	0.0163316
703.681	0.0164230
703.759	0.0163039
703.837	0.0162175
703.915	0.0164194
703.993	0.0163448
704.071	0.0162908
704.149	0.0165351
704.227	0.0164252
704.306	0.0163575
704.384	0.0161465
704.462	0.0162811
704.540	0.0162559
704.618	0.0164142
704.696	0.0163023
704.774	0.0163927
704.852	0.0163106
704.931	0.0162932
705.009	0.0163001
705.087	0.0161709
705.165	0.0161680
705.243	0.0162180
705.321	0.0162827
705.399	0.0162253
705.477	0.0162049
705.556	0.0162245
705.634	0.0162313
705.712	0.0163325
705.790	0.0162077
705.868	0.0161320
705.946	0.0161835
706.024	0.0162285
706.102	0.0161722
706.181	0.0161446
706.259	0.0161671
706.337	0.0161453
706.415	0.0161001
706.493	0.0161987
706.571	0.0161651
706.649	0.0160432
706.727	0.0159993
706.806	0.0160292
706.884	0.0161997
706.962	0.0161885
707.040	0.0161693
707.118	0.0161947
707.196	0.0161647
707.274	0.0160844
707.352	0.0161047
707.431	0.0162147
707.509	0.0161663
707.587	0.0161404
707.665	0.0163507
707.743	0.0162500
707.821	0.0162237
707.899	0.0162523
707.977	0.0163309
708.056	0.0163722
708.134	0.0162291
708.212	0.0163188
708.290	0.0162501
708.368	0.0163493
708.446	0.0162296
708.524	0.0161870
708.602	0.0162657
708.681	0.0163094
708.759	0.0165393
708.837	0.0162892
708.915	0.0163004
708.993	0.0163663
709.071	0.0163377
709.149	0.0163815
709.227	0.0162540
709.306	0.0163317
709.384	0.0161649
709.462	0.0163370
709.540	0.0162362
709.618	0.0163311
709.696	0.0161845
709.774	0.0162944
709.852	0.0161380
709.931	0.0162424
710.009	0.0163405
710.087	0.0162307
710.165	0.0162215
710.243	0.0160011
710.321	0.0160162
710.399	0.0160139
710.477	0.0161592
710.556	0.0161256
710.634	0.0160296
710.712	0.0160180
710.790	0.0160738
710.868	0.0162152
710.946	0.0163095
711.024	0.0161242
711.102	0.0163545
711.181	0.0161289
711.259	0.0162068
711.337	0.0163941
711.415	0.0162501
711.493	0.0162812
711.571	0.0163914
711.649	0.0162354
711.727	0.0162780
711.806	0.0164692
711.884	0.0163529
711.962	0.0162411
712.040	0.0163682
712.118	0.0163581
712.196	0.0163852
712.274	0.0163632
712.352	0.0164213
712.431	0.0163999
712.509	0.0164878
712.587	0.0163931
712.665	0.0163595
712.743	0.0163891
712.821	0.0164792
712.899	0.0162203
712.977	0.0162901
713.056	0.0161266
713.134	0.0162955
713.212	0.0162170
713.290	0.0161884
713.368	0.0163003
713.446	0.0162563
713.524	0.0160876
713.602	0.0161366
713.681	0.0162193
713.759	0.0161309
713.837	0.0161841
713.915	0.0160529
713.993	0.0160461
714.071	0.0160336
714.149	0.0161109
714.227	0.0162794
714.306	0.0161777
714.384	0.0161158
714.462	0.0160833
714.540	0.0162440
714.618	0.0161427
714.696	0.0163297
714.774	0.0163249
714.852	0.0163840
714.931	0.0163163
715.009	0.0162730
715.087	0.0163505
715.165	0.0163076
715.243	0.0162427
715.321	0.0162373
715.399	0.0161883
715.477	0.0163493
715.556	0.0162467
715.634	0.0163451
715.712	0.0163298
715.790	0.0162556
715.868	0.0161750
715.946	0.0161118
716.024	0.0161416
716.102	0.0161613
716.181	0.0160503
716.259	0.0161951
716.337	0.0162804
716.415	0.0161325
716.493	0.0161813
716.571	0.0161318
716.649	0.0162341
716.727	0.0162929
716.806	0.0164736
716.884	0.0163280
716.962	0.0163914
717.040	0.0163021
717.118	0.0163313
717.196	0.0164235
717.274	0.0162737
717.352	0.0163772
717.431	0.0164478
717.509	0.0165021
717.587	0.0165353
717.665	0.0165656
717.743	0.0164040
717.821	0.0164021
717.899	0.0163598
717.977	0.0162945
718.056	0.0163758
718.134	0.0164777
718.212	0.0162935
718.290	0.0162630
718.368	0.0162839
718.446	0.0162786
718.524	0.0162530
718.602	0.0160846
718.681	0.0162128
718.759	0.0161291
718.837	0.0161308
718.915	0.0161359
718.993	0.0160491
719.071	0.0161503
719.149	0.0162489
719.227	0.0162676
719.306	0.0164295
719.384	0.0162493
719.462	0.0161160
719.540	0.0163580
719.618	0.0163890
719.696	0.0163653
719.774	0.0163129
719.852	0.0162446
719.931	0.0165693
720.009	0.0164795
720.087	0.0162912
720.165	0.0163927
720.243	0.0165211
720.321	0.0164004
720.399	0.0163773
720.477	0.0164758
720.556	0.0164146
720.634	0.0163430
720.712	0.0164417
720.790	0.0162968
720.868	0.0162364
720.946	0.0164948
721.024	0.0162663
721.102	0.0162681
721.181	0.0163965
721.259	0.0164562
721.337	0.0163126
721.415	0.0163886
721.493	0.0163934
721.571	0.0163818
721.649	0.0164329
721.727	0.0163572
721.806	0.0164306
721.884	0.0163765
721.962	0.0163021
722.040	0.0160921
722.118	0.0161736
722.196	0.0163342
722.274	0.0163522
722.352	0.0162556
722.431	0.0161869
722.509	0.0161511
722.587	0.0162730
722.665	0.0162844
722.743	0.0161775
722.821	0.0162782
722.899	0.0161401
722.977	0.0162445
723.056	0.0162146
723.134	0.0161252
723.212	0.0160240
723.290	0.0161905
723.368	0.0161825
723.446	0.0160668
723.524	0.0160869
723.602	0.0160953
723.681	0.0161436
723.759	0.0161572
723.837	0.0160417
723.915	0.0159791
723.993	0.0161124
724.071	0.0160931
724.149	0.0161407
724.227	0.0162313
724.306	0.0161427
724.384	0.0162846
724.462	0.0161379
724.540	0.0161823
724.618	0.0161660
724.696	0.0162313
724.774	0.0160979
724.852	0.0163418
724.931	0.0163294
725.009	0.0164784
725.087	0.0163918
725.165	0.0162897
725.243	0.0163997
725.321	0.0163831
725.399	0.0162679
725.477	0.0162387
725.556	0.0164039
725.634	0.0163434
725.712	0.0163455
725.790	0.0164162
725.868	0.0163374
725.946	0.0163194
726.024	0.0163971
726.102	0.0164232
726.181	0.0164030
726.259	0.0163877
726.337	0.0164114
726.415	0.0163721
726.493	0.0163309
726.571	0.0164149
726.649	0.0164065
726.727	0.0164973
726.806	0.0163606
726.884	0.0164297
726.962	0.0162815
727.040	0.0164615
727.118	0.0164855
727.196	0.0165719
727.274	0.0163681
727.352	0.0163494
727.431	0.0163009
727.509	0.0163242
727.587	0.0163433
727.665	0.0163177
727.743	0.0162982
727.821	0.0163894
727.899	0.0161240
727.977	0.0163251
728.056	0.0162671
728.134	0.0162179
728.212	0.0162286
728.290	0.0162465
728.368	0.0163099
728.446	0.0163496
728.524	0.0161340
728.602	0.0161533
728.681	0.0163560
728.759	0.0163309
728.837	0.0163509
728.915	0.0163954
728.993	0.0164786
729.071	0.0163174
729.149	0.0163509
729.227	0.0163903
729.306	0.0165201
729.384	0.0165030
729.462	0.0164441
729.540	0.0163508
729.618	0.0164027
729.696	0.0165933
729.774	0.0163551
729.852	0.0163910
729.931	0.0163773
730.009	0.0163419
730.087	0.0163980
730.165	0.0164720
730.243	0.0164071
730.321	0.0164497
730.399	0.0164778
730.477	0.0164989
730.556	0.0164752
730.634	0.0163966
730.712	0.0163701
730.790	0.0165599
730.868	0.0164722
730.946	0.0163567
731.024	0.0163020
731.102	0.0163518
731.181	0.0163802
731.259	0.0163561
731.337	0.0162753
731.415	0.0164442
731.493	0.0164306
731.571	0.0163513
731.649	0.0163770
731.727	0.0163612
731.806	0.0162584
731.884	0.0163231
731.962	0.0161380
732.040	0.0163660
732.118	0.0162627
732.196	0.0162119
732.274	0.0163066
732.352	0.0162220
732.431	0.0163347
732.509	0.0162749
732.587	0.0160193
732.665	0.0162169
732.743	0.0163431
732.821	0.0162469
732.899	0.0160818
732.977	0.0162373
733.056	0.0162532
733.134	0.0161900
733.212	0.0162548
733.290	0.0162469
733.368	0.0162381
733.446	0.0163634
733.524	0.0161292
733.602	0.0161226
733.681	0.0162842
733.759	0.0162741
733.837	0.0162901
733.915	0.0162817
733.993	0.0162930
734.071	0.0162108
734.149	0.0163167
734.227	0.0163808
734.306	0.0163397
734.384	0.0163830
734.462	0.0162930
734.540	0.0162362
734.618	0.0163094
734.696	0.0164497
734.774	0.0163896
734.852	0.0163205
734.931	0.0163316
735.009	0.0162998
735.087	0.0164375
735.165	0.0163895
735.243	0.0162794
735.321	0.0163951
735.399	0.0163934
735.477	0.0164201
735.556	0.0164596
735.634	0.0164308
735.712	0.0164503
735.790	0.0163772
735.868	0.0163547
735.946	0.0163486
736.024	0.0164602
736.102	0.0162621
736.181	0.0162711
736.259	0.0163850
736.337	0.0164366
736.415	0.0162938
736.493	0.0162338
736.571	0.0163492
736.649	0.0163316
736.727	0.0162890
736.806	0.0163506
736.884	0.0162987
736.962	0.0161725
737.040	0.0162821
737.118	0.0162585
737.196	0.0161503
737.274	0.0162090
737.352	0.0162067
737.431	0.0160249
737.509	0.0160548
737.587	0.0161623
737.665	0.0162774
737.743	0.0160986
737.821	0.0160049
737.899	0.0160758
737.977	0.0159799
738.056	0.0160727
738.134	0.0162416
738.212	0.0162399
738.290	0.0161542
738.368	0.0161008
738.446	0.0161939
738.524	0.0161366
738.602	0.0162670
738.681	0.0161717
738.759	0.0162221
738.837	0.0162407
738.915	0.0163747
738.993	0.0164037
739.071	0.0161786
739.149	0.0164122
739.227	0.0163029
739.306	0.0163363
739.384	0.0162984
739.462	0.0162271
739.540	0.0162555
739.618	0.0163671
739.696	0.0164502
739.774	0.0164582
739.852	0.0164667
739.931	0.0164232
740.009	0.0163930
740.087	0.0163385
740.165	0.0163709
740.243	0.0164422
740.321	0.0164438
740.399	0.0163271
740.477	0.0164198
740.556	0.0163940
740.634	0.0162948
740.712	0.0164318
740.790	0.0164144
740.868	0.0162837
740.946	0.0163981
741.024	0.0163224
741.102	0.0163252
741.181	0.0164304
741.259	0.0163589
741.337	0.0162630
741.415	0.0162902
741.493	0.0163460
741.571	0.0163307
741.649	0.0163514
741.727	0.0162418
741.806	0.0162569
741.884	0.0162142
741.962	0.0162868
742.040	0.0163006
742.118	0.0162636
742.196	0.0162030
742.274	0.0162759
742.352	0.0163197
742.431	0.0162522
742.509	0.0163477
742.587	0.0162627
742.665	0.0162257
742.743	0.0162624
742.821	0.0162591
742.899	0.0162643
742.977	0.0163974
743.056	0.0162944
743.134	0.0163567
743.212	0.0163821
743.290	0.0162921
743.368	0.0164109
743.446	0.0164157
743.524	0.0164167
743.602	0.0163303
743.681	0.0163481
743.759	0.0163977
743.837	0.0163482
743.915	0.0164640
743.993	0.0163274
744.071	0.0165238
744.149	0.0163454
744.227	0.0164555
744.306	0.0163817
744.384	0.0163876
744.462	0.0163398
744.540	0.0163708
744.618	0.0163086
744.696	0.0162994
744.774	0.0162810
744.852	0.0164494
744.931	0.0164174
745.009	0.0163148
745.087	0.0163631
745.165	0.0164039
745.243	0.0163929
745.321	0.0163157
745.399	0.0163346
745.477	0.0161160
745.556	0.0162545
745.634	0.0163911
745.712	0.0163564
745.790	0.0162683
745.868	0.0162309
745.946	0.0162245
746.024	0.0162541
746.102	0.0162111
746.181	0.0162544
746.259	0.0162387
746.337	0.0163741
746.415	0.0163357
746.493	0.0162363
746.571	0.0162542
746.649	0.0162946
746.727	0.0162845
746.806	0.0162753
746.884	0.0162706
746.962	0.0163335
747.040	0.0163631
747.118	0.0162396
747.196	0.0162884
747.274	0.0162476
747.352	0.0162569
747.431	0.0162337
747.509	0.0162208
747.587	0.0161070
747.665	0.0162425
747.743	0.0163423
747.821	0.0162417
747.899	0.0162328
747.977	0.0162556
748.056	0.0163884
748.134	0.0163411
748.212	0.0163489
748.290	0.0164146
748.368	0.0163860
748.446	0.0163564
748.524	0.0163778
748.602	0.0163255
748.681	0.0163187
748.759	0.0162992
748.837	0.0162096
748.915	0.0162296
748.993	0.0162672
749.071	0.0162511
749.149	0.0162528
749.227	0.0164326
749.306	0.0164044
749.384	0.0164069
749.462	0.0163818
749.540	0.0165214
749.618	0.0164434
749.696	0.0164286
749.774	0.0163316
749.852	0.0162946
749.931	0.0164348
750.009	0.0163995
750.087	0.0163589
750.165	0.0163212
750.243	0.0164646
750.321	0.0163796
750.399	0.0163749
750.477	0.0164612
750.556	0.0163854
750.634	0.0163151
750.712	0.0163528
750.790	0.0163362
750.868	0.0164198
750.946	0.0163667
751.024	0.0164212
751.102	0.0162550
751.181	0.0163293
751.259	0.0163268
751.337	0.0164069
751.415	0.0163455
751.493	0.0163648
751.571	0.0164001
751.649	0.0162868
751.727	0.0162826
751.806	0.0164690
751.884	0.0162939
751.962	0.0163376
752.040	0.0163326
752.118	0.0161875
752.196	0.0162439
752.274	0.0164622
752.352	0.0164493
752.431	0.0161635
752.509	0.0162079
752.587	0.0163168
752.665	0.0162870
752.743	0.0163241
752.821	0.0163580
752.899	0.0162876
752.977	0.0162737
753.056	0.0162375
753.134	0.0162809
753.212	0.0163631
753.290	0.0162889
753.368	0.0162064
753.446	0.0163258
753.524	0.0164034
753.602	0.0163671
753.681	0.0162708
753.759	0.0162917
753.837	0.0162409
753.915	0.0163917
753.993	0.0164590
754.071	0.0163363
754.149	0.0162943
754.227	0.0163850
754.306	0.0162482
754.384	0.0162199
754.462	0.0162730
754.540	0.0164117
754.618	0.0162231
754.696	0.0163119
754.774	0.0162882
754.852	0.0162807
754.931	0.0162894
755.009	0.0161209
755.087	0.0163374
755.165	0.0163376
755.243	0.0163244
755.321	0.0164688
755.399	0.0163129
755.477	0.0162899
755.556	0.0164724
755.634	0.0162968
755.712	0.0162856
755.790	0.0162051
755.868	0.0162189
755.946	0.0162847
756.024	0.0163454
756.102	0.0162743
756.181	0.0163348
756.259	0.0162539
756.337	0.0162099
756.415	0.0162594
756.493	0.0163312
756.571	0.0163240
756.649	0.0163645
756.727	0.0162840
756.806	0.0163878
756.884	0.0161887
756.962	0.0163303
757.040	0.0163016
757.118	0.0163178
757.196	0.0162005
757.274	0.0162432
757.352	0.0162161
757.431	0.0162956
757.509	0.0162178
757.587	0.0162500
757.665	0.0162064
757.743	0.0162170
757.821	0.0164106
757.899	0.0162806
757.977	0.0160468
758.056	0.0163318
758.134	0.0163063
758.212	0.0162934
758.290	0.0162691
758.368	0.0164400
758.446	0.0164118
758.524	0.0164028
758.602	0.0162545
758.681	0.0163722
758.759	0.0164079
758.837	0.0164536
758.915	0.0163543
758.993	0.0162548
759.071	0.0164926
759.149	0.0165029
759.227	0.0164227
759.306	0.0163560
759.384	0.0163501
759.462	0.0163718
759.540	0.0162582
759.618	0.0164320
759.696	0.0162478
759.774	0.0163628
759.852	0.0163597
759.931	0.0163473
760.009	0.0161770
760.087	0.0162569
760.165	0.0162547
760.243	0.0163046
760.321	0.0163932
760.399	0.0162798
760.477	0.0163234
760.556	0.0163044
760.634	0.0163905
760.712	0.0163179
760.790	0.0161973
760.868	0.0161884
760.946	0.0162943
761.024	0.0162614
761.102	0.0162033
761.181	0.0163199
761.259	0.0161967
761.337	0.0161734
761.415	0.0161809
761.493	0.0162122
761.571	0.0162870
761.649	0.0162543
761.727	0.0162016
761.806	0.0160516
761.884	0.0161119
761.962	0.0162843
762.040	0.0163356
762.118	0.0161037
762.196	0.0161727
762.274	0.0162326
762.352	0.0162630
762.431	0.0162279
762.509	0.0162209
762.587	0.0161715
762.665	0.0161751
762.743	0.0162030
762.821	0.0162353
762.899	0.0161336
762.977	0.0162605
763.056	0.0160648
763.134	0.0161286
763.212	0.0162209
763.290	0.0162387
763.368	0.0161546
763.446	0.0161248
763.524	0.0162115
763.602	0.0161871
763.681	0.0160804
763.759	0.0162619
763.837	0.0162395
763.915	0.0162229
763.993	0.0161998
764.071	0.0161816
764.149	0.0163258
764.227	0.0161828
764.306	0.0161981
764.384	0.0161665
764.462	0.0163107
764.540	0.0162824
764.618	0.0161935
764.696	0.0163570
764.774	0.0162026
764.852	0.0162367
764.931	0.0162513
765.009	0.0161208
765.087	0.0162338
765.165	0.0161847
765.243	0.0161262
765.321	0.0162944
765.399	0.0162669
765.477	0.0161974
765.556	0.0161649
765.634	0.0162894
765.712	0.0161610
765.790	0.0163409
765.868	0.0163521
765.946	0.0164422
766.024	0.0162611
766.102	0.0162159
766.181	0.0161986
766.259	0.0164662
766.337	0.0161699
766.415	0.0161678
766.493	0.0163449
766.571	0.0163775
766.649	0.0163162
766.727	0.0163738
766.806	0.0161014
766.884	0.0161918
766.962	0.0162065
767.040	0.0162202
767.118	0.0163233
767.196	0.0161600
767.274	0.0162897
767.352	0.0164072
767.431	0.0163148
767.509	0.0163720
767.587	0.0162637
767.665	0.0162825
767.743	0.0162749
767.821	0.0162453
767.899	0.0162663
767.977	0.0161913
768.056	0.0163865
768.134	0.0163345
768.212	0.0162836
768.290	0.0163045
768.368	0.0162269
768.446	0.0162304
768.524	0.0162518
768.602	0.0162022
768.681	0.0161671
768.759	0.0163428
768.837	0.0162682
768.915	0.0162209
768.993	0.0161504
769.071	0.0161993
769.149	0.0162521
769.227	0.0162968
769.306	0.0161658
769.384	0.0161051
769.462	0.0161857
769.540	0.0160468
769.618	0.0160027
769.696	0.0162484
769.774	0.0161693
769.852	0.0160823
769.931	0.0160724
770.009	0.0160079
770.087	0.0159664
770.165	0.0161065
770.243	0.0160844
770.321	0.0161344
770.399	0.0162254
770.477	0.0161257
770.556	0.0160363
770.634	0.0161599
770.712	0.0162421
770.790	0.0162566
770.868	0.0160319
770.946	0.0162783
771.024	0.0162293
771.102	0.0161932
771.181	0.0161201
771.259	0.0162244
771.337	0.0162391
771.415	0.0162502
771.493	0.0162462
771.571	0.0161673
771.649	0.0163466
771.727	0.0163610
771.806	0.0162960
771.884	0.0162546
771.962	0.0162418
772.040	0.0163292
772.118	0.0164833
772.196	0.0163466
772.274	0.0162664
772.352	0.0163542
772.431	0.0163886
772.509	0.0162861
772.587	0.0163971
772.665	0.0164122
772.743	0.0163079
772.821	0.0163265
772.899	0.0162252
772.977	0.0162511
773.056	0.0162889
773.134	0.0161829
773.212	0.0162724
773.290	0.0162647
773.368	0.0163698
773.446	0.0162215
773.524	0.0162290
773.602	0.0163564
773.681	0.0161095
773.759	0.0162263
773.837	0.0163050
773.915	0.0162235
773.993	0.0161689
774.071	0.0162820
774.149	0.0163409
774.227	0.0163063
774.306	0.0164066
774.384	0.0162363
774.462	0.0162421
774.540	0.0162004
774.618	0.0163078
774.696	0.0164380
774.774	0.0161765
774.852	0.0163410
774.931	0.0163612
775.009	0.0163498
775.087	0.0163396
775.165	0.0162228
775.243	0.0162237
775.321	0.0162601
775.399	0.0162200
775.477	0.0162157
775.556	0.0162907
775.634	0.0162400
775.712	0.0161848
775.790	0.0162632
775.868	0.0163954
775.946	0.0163219
776.024	0.0162132
776.102	0.0163793
776.181	0.0161953
776.259	0.0161852
776.337	0.0162871
776.415	0.0162836
776.493	0.0163078
776.571	0.0162212
776.649	0.0162613
776.727	0.0162286
776.806	0.0162335
776.884	0.0163018
776.962	0.0163105
777.040	0.0163566
777.118	0.0163531
777.196	0.0163642
777.274	0.0162833
777.352	0.0163207
777.431	0.0164893
777.509	0.0163254
777.587	0.0162450
777.665	0.0162298
777.743	0.0162804
777.821	0.0163013
777.899	0.0162498
777.977	0.0162449
778.056	0.0161879
778.134	0.0160856
778.212	0.0162633
778.290	0.0162292
778.368	0.0163726
778.446	0.0161930
778.524	0.0162287
778.602	0.0162207
778.681	0.0161923
778.759	0.0162691
778.837	0.0162939
778.915	0.0162952
778.993	0.0161933
779.071	0.0162465
779.149	0.0162515
779.227	0.0162167
779.306	0.0163573
779.384	0.0164397
779.462	0.0163728
779.540	0.0162840
779.618	0.0162298
779.696	0.0161523
779.774	0.0162675
779.852	0.0161451
779.931	0.0161810
780.009	0.0163178
780.087	0.0161514
780.165	0.0163456
780.243	0.0163435
780.321	0.0162927
780.399	0.0161064
780.477	0.0162855
780.556	0.0163306
780.634	0.0162035
780.712	0.0161740
780.790	0.0162902
780.868	0.0162943
780.946	0.0163139
781.024	0.0162670
781.102	0.0162379
781.181	0.0162669
781.259	0.0163844
781.337	0.0162405
781.415	0.0162186
781.493	0.0163226
781.571	0.0162185
781.649	0.0162864
781.727	0.0162662
781.806	0.0161536
781.884	0.0162315
781.962	0.0163771
782.040	0.0163645
782.118	0.0162271
782.196	0.0162350
782.274	0.0163835
782.352	0.0163208
782.431	0.0162606
782.509	0.0164139
782.587	0.0163678
782.665	0.0164162
782.743	0.0163020
782.821	0.0163732
782.899	0.0163452
782.977	0.0162437
783.056	0.0162879
783.134	0.0165197
783.212	0.0164428
783.290	0.0161950
783.368	0.0162666
783.446	0.0162691
783.524	0.0162372
783.602	0.0161791
783.681	0.0161813
783.759	0.0163069
783.837	0.0162792
783.915	0.0162289
783.993	0.0161899
784.071	0.0161562
784.149	0.0162477
784.227	0.0160980
784.306	0.0162538
784.384	0.0161572
784.462	0.0162135
784.540	0.0160409
784.618	0.0160878
784.696	0.0162272
784.774	0.0161543
784.852	0.0161850
784.931	0.0160464
785.009	0.0161095
785.087	0.0163006
785.165	0.0160957
785.243	0.0160378
785.321	0.0160844
785.399	0.0160680
785.477	0.0162102
785.556	0.0160652
785.634	0.0160102
785.712	0.0161273
785.790	0.0161846
785.868	0.0161094
785.946	0.0161342
786.024	0.0161957
786.102	0.0161776
786.181	0.0161483
786.259	0.0160797
786.337	0.0162632
786.415	0.0162195
786.493	0.0161929
786.571	0.0162025
786.649	0.0161404
786.727	0.0162391
786.806	0.0161217
786.884	0.0162360
786.962	0.0162145
787.040	0.0162051
787.118	0.0161935
787.196	0.0163605
787.274	0.0163738
787.352	0.0162046
787.431	0.0164250
787.509	0.0163516
787.587	0.0163147
787.665	0.0163465
787.743	0.0164735
787.821	0.0162373
787.899	0.0164283
787.977	0.0163974
788.056	0.0163349
788.134	0.0163604
788.212	0.0163625
788.290	0.0163747
788.368	0.0163910
788.446	0.0164595
788.524	0.0164311
788.602	0.0163366
788.681	0.0163809
788.759	0.0163589
788.837	0.0163444
788.915	0.0163158
788.993	0.0164404
789.071	0.0162874
789.149	0.0163009
789.227	0.0163560
789.306	0.0164035
789.384	0.0162033
789.462	0.0162880
789.540	0.0162885
789.618	0.0164109
789.696	0.0163258
789.774	0.0162326
789.852	0.0162422
789.931	0.0162743
790.009	0.0162212
790.087	0.0162842
790.165	0.0163515
790.243	0.0163379
790.321	0.0162847
790.399	0.0161448
790.477	0.0161602
790.556	0.0162234
790.634	0.0162704
790.712	0.0162191
790.790	0.0162710
790.868	0.0163328
790.946	0.0161869
791.024	0.0160802
791.102	0.0159972
791.181	0.0163012
791.259	0.0161568
791.337	0.0161282
791.415	0.0161945
791.493	0.0163115
791.571	0.0161553
791.649	0.0162090
791.727	0.0163532
791.806	0.0162328
791.884	0.0162149
791.962	0.0161638
792.040	0.0162678
792.118	0.0161802
792.196	0.0162152
792.274	0.0162627
792.352	0.0162193
792.431	0.0162228
792.509	0.0161625
792.587	0.0162198
792.665	0.0162758
792.743	0.0161545
792.821	0.0163256
792.899	0.0163168
792.977	0.0163550
793.056	0.0161996
793.134	0.0162896
793.212	0.0160915
793.290	0.0161747
793.368	0.0162818
793.446	0.0161971
793.524	0.0161516
793.602	0.0162635
793.681	0.0162257
793.759	0.0161651
793.837	0.0162943
793.915	0.0162449
793.993	0.0162083
794.071	0.0162488
794.149	0.0160452
794.227	0.0161812
794.306	0.0162151
794.384	0.0164243
794.462	0.0162885
794.540	0.0161826
794.618	0.0161993
794.696	0.0162663
794.774	0.0163602
794.852	0.0162893
794.931	0.0162704
795.009	0.0162463
795.087	0.0161411
795.165	0.0162276
795.243	0.0162865
795.321	0.0161811
795.399	0.0162126
795.477	0.0162837
795.556	0.0162669
795.634	0.0163049
795.712	0.0162200
795.790	0.0163186
795.868	0.0162784
795.946	0.0162699
796.024	0.0163126
796.102	0.0162511
796.181	0.0162479
796.259	0.0162575
796.337	0.0162626
796.415	0.0162776
796.493	0.0163750
796.571	0.0162275
796.649	0.0162944
796.727	0.0164062
796.806	0.0161720
796.884	0.0161710
796.962	0.0163262
797.040	0.0163765
797.118	0.0163821
797.196	0.0163910
797.274	0.0163908
797.352	0.0163686
797.431	0.0163602
797.509	0.0163742
797.587	0.0162847
797.665	0.0163982
797.743	0.0162530
797.821	0.0162731
797.899	0.0164478
797.977	0.0163477
798.056	0.0162632
798.134	0.0164317
798.212	0.0164481
798.290	0.0165409
798.368	0.0162887
798.446	0.0163737
798.524	0.0163821
798.602	0.0162791
798.681	0.0162987
798.759	0.0163635
798.837	0.0163929
798.915	0.0162901
798.993	0.0162773
799.071	0.0163233
799.149	0.0162616
799.227	0.0162751
799.306	0.0163229
799.384	0.0163070
799.462	0.0163345
799.540	0.0162540
799.618	0.0161584
799.696	0.0162479
799.774	0.0162593
799.852	0.0161890
799.931	0.0161337
800.009	0.0163432
800.087	0.0162783
800.165	0.0161893
800.243	0.0162196
800.321	0.0162214
800.399	0.0161378
800.477	0.0162482
800.556	0.0162812
800.634	0.0161902
800.712	0.0161939
800.790	0.0163213
800.868	0.0162364
800.946	0.0162367
801.024	0.0162340
801.102	0.0161507
801.181	0.0162644
801.259	0.0160798
801.337	0.0161348
801.415	0.0163003
801.493	0.0160909
801.571	0.0163963
801.649	0.0161961
801.727	0.0162096
801.806	0.0161963
801.884	0.0160941
801.962	0.0162384
802.040	0.0161537
802.118	0.0162957
802.196	0.0162543
802.274	0.0162402
802.352	0.0162963
802.431	0.0161610
802.509	0.0161843
802.587	0.0163620
802.665	0.0163521
802.743	0.0162292
802.821	0.0162528
802.899	0.0161906
802.977	0.0162367
803.056	0.0162321
803.134	0.0163824
803.212	0.0162019
803.290	0.0162267
803.368	0.0163432
803.446	0.0162383
803.524	0.0162748
803.602	0.0162492
803.681	0.0163696
803.759	0.0163187
803.837	0.0162880
803.915	0.0162643
803.993	0.0162252
804.071	0.0164999
804.149	0.0163052
804.227	0.0162514
804.306	0.0165430
804.384	0.0163989
804.462	0.0161866
804.540	0.0162616
804.618	0.0162868
804.696	0.0163109
804.774	0.0163319
804.852	0.0163222
804.931	0.0162901
805.009	0.0161545
805.087	0.0162675
805.165	0.0163777
805.243	0.0162627
805.321	0.0163393
805.399	0.0162775
805.477	0.0162877
805.556	0.0163290
805.634	0.0162018
805.712	0.0163094
805.790	0.0163893
805.868	0.0162675
805.946	0.0163502
806.024	0.0162354
806.102	0.0162459
806.181	0.0163275
806.259	0.0163712
806.337	0.0163707
806.415	0.0164099
806.493	0.0163004
806.571	0.0162999
806.649	0.0162283
806.727	0.0162461
806.806	0.0163534
806.884	0.0164291
806.962	0.0162909
807.040	0.0162035
807.118	0.0163786
807.196	0.0163439
807.274	0.0162680
807.352	0.0162472
807.431	0.0163861
807.509	0.0162919
807.587	0.0161672
807.665	0.0162959
807.743	0.0164693
807.821	0.0162798
807.899	0.0163533
807.977	0.0162459
808.056	0.0162833
808.134	0.0163540
808.212	0.0162349
808.290	0.0162547
808.368	0.0163015
808.446	0.0161823
808.524	0.0161496
808.602	0.0162347
808.681	0.0162694
808.759	0.0162738
808.837	0.0162509
808.915	0.0161504
808.993	0.0160941
809.071	0.0163102
809.149	0.0162208
809.227	0.0161684
809.306	0.0162646
809.384	0.0160886
809.462	0.0161978
809.540	0.0162446
809.618	0.0161420
809.696	0.0161607
809.774	0.0162475
809.852	0.0162605
809.931	0.0161709
810.009	0.0162961
810.087	0.0161720
810.165	0.0160666
810.243	0.0161039
810.321	0.0161868
810.399	0.0162424
810.477	0.0163292
810.556	0.0163673
810.634	0.0160769
810.712	0.0163171
810.790	0.0162294
810.868	0.0162843
810.946	0.0163536
811.024	0.0163547
811.102	0.0161612
811.181	0.0162838
811.259	0.0163543
811.337	0.0164082
811.415	0.0164059
811.493	0.0162978
811.571	0.0163653
811.649	0.0162735
811.727	0.0163303
811.806	0.0162961
811.884	0.0163194
811.962	0.0163554
812.040	0.0163773
812.118	0.0162579
812.196	0.0163287
812.274	0.0163401
812.352	0.0162396
812.431	0.0163042
812.509	0.0162930
812.587	0.0163950
812.665	0.0163620
812.743	0.0162801
812.821	0.0163033
812.899	0.0162793
812.977	0.0161501
813.056	0.0162386
813.134	0.0162496
813.212	0.0162318
813.290	0.0163642
813.368	0.0162283
813.446	0.0162441
813.524	0.0161897
813.602	0.0160880
813.681	0.0161234
813.759	0.0163061
813.837	0.0162946
813.915	0.0161024
813.993	0.0162620
814.071	0.0163300
814.149	0.0163447
814.227	0.0161872
814.306	0.0163152
814.384	0.0162485
814.462	0.0161662
814.540	0.0163461
814.618	0.0162676
814.696	0.0162345
814.774	0.0162967
814.852	0.0163373
814.931	0.0164066
815.009	0.0162538
815.087	0.0162706
815.165	0.0163229
815.243	0.0163232
815.321	0.0164172
815.399	0.0162245
815.477	0.0163295
815.556	0.0164198
815.634	0.0163132
815.712	0.0164044
815.790	0.0164028
815.868	0.0161577
815.946	0.0163059
816.024	0.0162005
816.102	0.0163925
816.181	0.0163788
816.259	0.0163185
816.337	0.0163438
816.415	0.0162683
816.493	0.0163160
816.571	0.0162099
816.649	0.0164323
816.727	0.0163941
816.806	0.0163457
816.884	0.0163067
816.962	0.0163396
817.040	0.0162926
817.118	0.0163846
817.196	0.0163565
817.274	0.0161543
817.352	0.0163129
817.431	0.0164041
817.509	0.0162866
817.587	0.0163342
817.665	0.0164000
817.743	0.0163953
817.821	0.0163472
817.899	0.0162712
817.977	0.0163354
818.056	0.0162020
818.134	0.0163103
818.212	0.0164861
818.290	0.0163809
818.368	0.0163709
818.446	0.0163698
818.524	0.0163136
818.602	0.0162659
818.681	0.0162592
818.759	0.0164027
818.837	0.0162715
818.915	0.0163041
818.993	0.0162274
819.071	0.0161699
819.149	0.0163488
819.227	0.0162912
819.306	0.0162144
819.384	0.0163882
819.462	0.0162557
819.540	0.0163781
819.618	0.0162675
819.696	0.0162735
819.774	0.0162132
819.852	0.0161725
819.931	0.0162502
820.009	0.0163489
820.087	0.0163413
820.165	0.0162936
820.243	0.0165064
820.321	0.0164012
820.399	0.0163987
820.477	0.0162444
820.556	0.0164005
820.634	0.0163477
820.712	0.0163633
820.790	0.0164474
820.868	0.0162816
820.946	0.0163080
821.024	0.0162421
821.102	0.0164468
821.181	0.0163101
821.259	0.0163430
821.337	0.0163255
821.415	0.0164202
821.493	0.0162873
821.571	0.0163789
821.649	0.0164402
821.727	0.0162534
821.806	0.0163531
821.884	0.0164255
821.962	0.0164352
822.040	0.0162607
822.118	0.0163676
822.196	0.0163411
822.274	0.0163945
822.352	0.0162733
822.431	0.0163948
822.509	0.0164378
822.587	0.0163056
822.665	0.0164900
822.743	0.0163851
822.821	0.0163290
822.899	0.0163141
822.977	0.0162914
823.056	0.0164597
823.134	0.0164098
823.212	0.0163247
823.290	0.0164092
823.368	0.0164161
823.446	0.0163935
823.524	0.0162390
823.602	0.0162327
823.681	0.0162785
823.759	0.0163748
823.837	0.0164225
823.915	0.0163509
823.993	0.0163145
824.071	0.0163500
824.149	0.0163577
824.227	0.0163051
824.306	0.0162542
824.384	0.0162959
824.462	0.0163959
824.540	0.0164124
824.618	0.0163609
824.696	0.0163938
824.774	0.0163298
824.852	0.0163044
824.931	0.0163685
825.009	0.0163787
825.087	0.0164584
825.165	0.0164080
825.243	0.0162837
825.321	0.0164503
825.399	0.0164242
825.477	0.0163460
825.556	0.0162399
825.634	0.0163444
825.712	0.0164091
825.790	0.0164735
825.868	0.0163885
825.946	0.0163100
826.024	0.0163280
826.102	0.0163577
826.181	0.0162745
826.259	0.0163969
826.337	0.0163322
826.415	0.0163159
826.493	0.0165331
826.571	0.0164225
826.649	0.0163253
826.727	0.0162547
826.806	0.0162330
826.884	0.0164217
826.962	0.0163824
827.040	0.0163523
827.118	0.0164246
827.196	0.0163323
827.274	0.0162801
827.352	0.0163068
827.431	0.0163435
827.509	0.0162752
827.587	0.0162781
827.665	0.0163350
827.743	0.0162999
827.821	0.0162163
827.899	0.0162459
827.977	0.0161733
828.056	0.0162984
828.134	0.0162242
828.212	0.0162006
828.290	0.0164300
828.368	0.0162186
828.446	0.0162988
828.524	0.0162511
828.602	0.0163314
828.681	0.0163970
828.759	0.0164287
828.837	0.0163081
828.915	0.0161626
828.993	0.0163383
829.071	0.0162735
829.149	0.0162379
829.227	0.0162081
829.306	0.0165192
829.384	0.0163620
829.462	0.0164901
829.540	0.0163455
829.618	0.0164172
829.696	0.0164260
829.774	0.0163469
829.852	0.0165029
829.931	0.0164095
830.009	0.0164978
830.087	0.0162239
830.165	0.0163767
830.243	0.0162447
830.321	0.0163620
830.399	0.0163344
830.477	0.0162641
830.556	0.0162904
830.634	0.0162548
830.712	0.0161710
830.790	0.0161993
830.868	0.0162453
830.946	0.0162024
831.024	0.0162451
831.102	0.0162246
831.181	0.0161990
831.259	0.0160886
831.337	0.0160407
831.415	0.0162241
831.493	0.0161750
831.571	0.0161293
831.649	0.0160851
831.727	0.0162699
831.806	0.0161839
831.884	0.0161983
831.962	0.0161235
832.040	0.0161648
832.118	0.0160879
832.196	0.0161805
832.274	0.0162058
832.352	0.0161698
832.431	0.0162324
832.509	0.0161545
832.587	0.0160675
832.665	0.0161616
832.743	0.0161546
832.821	0.0161489
832.899	0.0162431
832.977	0.0162238
833.056	0.0162190
833.134	0.0161990
833.212	0.0161744
833.290	0.0161710
833.368	0.0162807
833.446	0.0161995
833.524	0.0162669
833.602	0.0162498
833.681	0.0161611
833.759	0.0163255
833.837	0.0163357
833.915	0.0161989
833.993	0.0162103
834.071	0.0162131
834.149	0.0163451
834.227	0.0162807
834.306	0.0163692
834.384	0.0162236
834.462	0.0162101
834.540	0.0163783
834.618	0.0163101
834.696	0.0162641
834.774	0.0161323
834.852	0.0163670
834.931	0.0163953
835.009	0.0163322
835.087	0.0164266
835.165	0.0163631
835.243	0.0162983
835.321	0.0163084
835.399	0.0163269
835.477	0.0162132
835.556	0.0162436
835.634	0.0163486
835.712	0.0162817
835.790	0.0162666
835.868	0.0162125
835.946	0.0163100
836.024	0.0162937
836.102	0.0164134
836.181	0.0161694
836.259	0.0162566
836.337	0.0163495
836.415	0.0163904
836.493	0.0162802
836.571	0.0162177
836.649	0.0163767
836.727	0.0161927
836.806	0.0162510
836.884	0.0162576
836.962	0.0162956
837.040	0.0162905
837.118	0.0163350
837.196	0.0163640
837.274	0.0161886
837.352	0.0162823
837.431	0.0161634
837.509	0.0163942
837.587	0.0163503
837.665	0.0163275
837.743	0.0163882
837.821	0.0163540
837.899	0.0163183
837.977	0.0163018
838.056	0.0163702
838.134	0.0161813
838.212	0.0162762
838.290	0.0162521
838.368	0.0162793
838.446	0.0162993
838.524	0.0162479
838.602	0.0163293
838.681	0.0163466
838.759	0.0162199
838.837	0.0162390
838.915	0.0161765
838.993	0.0163166
839.071	0.0162543
839.149	0.0161299
839.227	0.0161667
839.306	0.0161708
839.384	0.0162415
839.462	0.0161739
839.540	0.0162630
839.618	0.0162691
839.696	0.0163084
839.774	0.0161914
839.852	0.0162820
839.931	0.0162716
840.009	0.0163062
840.087	0.0162451
840.165	0.0161929
840.243	0.0161967
840.321	0.0162688
840.399	0.0162175
840.477	0.0162296
840.556	0.0162189
840.634	0.0163651
840.712	0.0163517
840.790	0.0162979
840.868	0.0162507
840.946	0.0163381
841.024	0.0164960
841.102	0.0163839
841.181	0.0164093
841.259	0.0163640
841.337	0.0163882
841.415	0.0163031
841.493	0.0163780
841.571	0.0163704
841.649	0.0163616
841.727	0.0162833
841.806	0.0165035
841.884	0.0163838
841.962	0.0162958
842.040	0.0163390
842.118	0.0164950
842.196	0.0163807
842.274	0.0162819
842.352	0.0164278
842.431	0.0163808
842.509	0.0163818
842.587	0.0163299
842.665	0.0163457
842.743	0.0164412
842.821	0.0163661
842.899	0.0162873
842.977	0.0164378
843.056	0.0164100
843.134	0.0163842
843.212	0.0163259
843.290	0.0164426
843.368	0.0164433
843.446	0.0165353
843.524	0.0163257
843.602	0.0163106
843.681	0.0163461
843.759	0.0162617
843.837	0.0163660
843.915	0.0163234
843.993	0.0163943
844.071	0.0163584
844.149	0.0163834
844.227	0.0163094
844.306	0.0163651
844.384	0.0163483
844.462	0.0162370
844.540	0.0163319
844.618	0.0162339
844.696	0.0163187
844.774	0.0163891
844.852	0.0163509
844.931	0.0162482
845.009	0.0162313
845.087	0.0164481
845.165	0.0162221
845.243	0.0162849
845.321	0.0161120
845.399	0.0163549
845.477	0.0161871
845.556	0.0163126
845.634	0.0162833
845.712	0.0163757
845.790	0.0162215
845.868	0.0163155
845.946	0.0163313
846.024	0.0163480
846.102	0.0162727
846.181	0.0162399
846.259	0.0163152
846.337	0.0162452
846.415	0.0161690
846.493	0.0163144
846.571	0.0162643
846.649	0.0162988
846.727	0.0162289
846.806	0.0163399
846.884	0.0163512
846.962	0.0163689
847.040	0.0162397
847.118	0.0163345
847.196	0.0162218
847.274	0.0163771
847.352	0.0163396
847.431	0.0161777
847.509	0.0162802
847.587	0.0162987
847.665	0.0161399
847.743	0.0162710
847.821	0.0163000
847.899	0.0162617
847.977	0.0162326
848.056	0.0162020
848.134	0.0161481
848.212	0.0162936
848.290	0.0161034
848.368	0.0162096
848.446	0.0161328
848.524	0.0160276
848.602	0.0161932
848.681	0.0162270
848.759	0.0162083
848.837	0.0163974
848.915	0.0163093
848.993	0.0161929
849.071	0.0161892
849.149	0.0162024
849.227	0.0161737
849.306	0.0162520
849.384	0.0163447
849.462	0.0161946
849.540	0.0161931
849.618	0.0160870
849.696	0.0161805
849.774	0.0163504
849.852	0.0162408
849.931	0.0161831
850.009	0.0161788
850.087	0.0163004
850.165	0.0163401
850.243	0.0162180
850.321	0.0163620
850.399	0.0161949
850.477	0.0162840
850.556	0.0164290
850.634	0.0163256
850.712	0.0162267
850.790	0.0164388
850.868	0.0164034
850.946	0.0162294
851.024	0.0164832
851.102	0.0163773
851.181	0.0164288
851.259	0.0163046
851.337	0.0162874
851.415	0.0163419
851.493	0.0163742
851.571	0.0161974
851.649	0.0162836
851.727	0.0163460
851.806	0.0163568
851.884	0.0163087
851.962	0.0164299
852.040	0.0164828
852.118	0.0163889
852.196	0.0164613
852.274	0.0163677
852.352	0.0163002
852.431	0.0162785
852.509	0.0163322
852.587	0.0163326
852.665	0.0161902
852.743	0.0163538
852.821	0.0163314
852.899	0.0163234
852.977	0.0162490
853.056	0.0162832
853.134	0.0162188
853.212	0.0162191
853.290	0.0161530
853.368	0.0160387
853.446	0.0161359
853.524	0.0160885
853.602	0.0162685
853.681	0.0161354
853.759	0.0161419
853.837	0.0161896
853.915	0.0160950
853.993	0.0161983
854.071	0.0160709
854.149	0.0160426
854.227	0.0159657
854.306	0.0161184
854.384	0.0161384
854.462	0.0160725
854.540	0.0160430
854.618	0.0160452
854.696	0.0161015
854.774	0.0161111
854.852	0.0160596
854.931	0.0161232
855.009	0.0160773
855.087	0.0163280
855.165	0.0160780
855.243	0.0160580
855.321	0.0160961
855.399	0.0161208
855.477	0.0162720
855.556	0.0160959
855.634	0.0161143
855.712	0.0161679
855.790	0.0161900
855.868	0.0161028
855.946	0.0162715
856.024	0.0161886
856.102	0.0162221
856.181	0.0162432
856.259	0.0162145
856.337	0.0162204
856.415	0.0161165
856.493	0.0161727
856.571	0.0162489
856.649	0.0163605
856.727	0.0162914
856.806	0.0162753
856.884	0.0162137
856.962	0.0163143
857.040	0.0162937
857.118	0.0162689
857.196	0.0162544
857.274	0.0161805
857.352	0.0161738
857.431	0.0162496
857.509	0.0163122
857.587	0.0162112
857.665	0.0163773
857.743	0.0163269
857.821	0.0163524
857.899	0.0163358
857.977	0.0161770
858.056	0.0162925
858.134	0.0162457
858.212	0.0162755
858.290	0.0162011
858.368	0.0163084
858.446	0.0161781
858.524	0.0162679
858.602	0.0164345
858.681	0.0163781
858.759	0.0163781
858.837	0.0161528
858.915	0.0163481
858.993	0.0163618
859.071	0.0164874
859.149	0.0162317
859.227	0.0163699
859.306	0.0162825
859.384	0.0164706
859.462	0.0162688
859.540	0.0161719
859.618	0.0161993
859.696	0.0163227
859.774	0.0162765
859.852	0.0162040
859.931	0.0162874
860.009	0.0162704
860.087	0.0161152
860.165	0.0162303
860.243	0.0163592
860.321	0.0163118
860.399	0.0161593
860.477	0.0162713
860.556	0.0163424
860.634	0.0163740
860.712	0.0162355
860.790	0.0160983
860.868	0.0161959
860.946	0.0162186
861.024	0.0163889
861.102	0.0161926
861.181	0.0162742
861.259	0.0163226
861.337	0.0163499
861.415	0.0162151
861.493	0.0162090
861.571	0.0162300
861.649	0.0161258
861.727	0.0161311
861.806	0.0162354
861.884	0.0163673
861.962	0.0162956
862.040	0.0161717
862.118	0.0162679
862.196	0.0162821
862.274	0.0162165
862.352	0.0162025
862.431	0.0163183
862.509	0.0162209
862.587	0.0162772
862.665	0.0161746
862.743	0.0162426
862.821	0.0163306
862.899	0.0162691
862.977	0.0161591
863.056	0.0161945
863.134	0.0162671
863.212	0.0162598
863.290	0.0162329
863.368	0.0162447
863.446	0.0162394
863.524	0.0161526
863.602	0.0162953
863.681	0.0162564
863.759	0.0161967
863.837	0.0161809
863.915	0.0161683
863.993	0.0161172
864.071	0.0162215
864.149	0.0161383
864.227	0.0161243
864.306	0.0163661
864.384	0.0162668
864.462	0.0162277
864.540	0.0162086
864.618	0.0162718
864.696	0.0162035
864.774	0.0160400
864.852	0.0161346
864.931	0.0163273
865.009	0.0162724
865.087	0.0162778
865.165	0.0161666
865.243	0.0162817
865.321	0.0162991
865.399	0.0161848
865.477	0.0161610
865.556	0.0163558
865.634	0.0162478
865.712	0.0161578
865.790	0.0163878
865.868	0.0162519
865.946	0.0161656
866.024	0.0162920
866.102	0.0163509
866.181	0.0164099
866.259	0.0162052
866.337	0.0162210
866.415	0.0163521
866.493	0.0163894
866.571	0.0163313
866.649	0.0163680
866.727	0.0162939
866.806	0.0163569
866.884	0.0163017
866.962	0.0163745
867.040	0.0162109
867.118	0.0163112
867.196	0.0163294
867.274	0.0162259
867.352	0.0163635
867.431	0.0161364
867.509	0.0162809
867.587	0.0161571
867.665	0.0162655
867.743	0.0163013
867.821	0.0161893
867.899	0.0162469
867.977	0.0161837
868.056	0.0161871
868.134	0.0163055
868.212	0.0161895
868.290	0.0162283
868.368	0.0161684
868.446	0.0162097
868.524	0.0163891
868.602	0.0162428
868.681	0.0163070
868.759	0.0162614
868.837	0.0162239
868.915	0.0161425
868.993	0.0161968
869.071	0.0162712
869.149	0.0162659
869.227	0.0160826
869.306	0.0162699
869.384	0.0162035
869.462	0.0161590
869.540	0.0161560
869.618	0.0161781
869.696	0.0161261
869.774	0.0161960
869.852	0.0161063
869.931	0.0161608
870.009	0.0162000
870.087	0.0161949
870.165	0.0161314
870.243	0.0162114
870.321	0.0162534
870.399	0.0160769
870.477	0.0161983
870.556	0.0162527
870.634	0.0161893
870.712	0.0161811
870.790	0.0162463
870.868	0.0161247
870.946	0.0162650
871.024	0.0163583
871.102	0.0163696
871.181	0.0161102
871.259	0.0162341
871.337	0.0161852
871.415	0.0162569
871.493	0.0162540
871.571	0.0161970
871.649	0.0161618
871.727	0.0162457
871.806	0.0161542
871.884	0.0161100
871.962	0.0161215
872.040	0.0162864
872.118	0.0161022
872.196	0.0162324
872.274	0.0160122
872.352	0.0161691
872.431	0.0163718
872.509	0.0161454
872.587	0.0162507
872.665	0.0162211
872.743	0.0162640
872.821	0.0162697
872.899	0.0162710
872.977	0.0162136
873.056	0.0162086
873.134	0.0162515
873.212	0.0162093
873.290	0.0162726
873.368	0.0163268
873.446	0.0162605
873.524	0.0163027
873.602	0.0162978
873.681	0.0161548
873.759	0.0162684
873.837	0.0162640
873.915	0.0163515
873.993	0.0161647
874.071	0.0164568
874.149	0.0164193
874.227	0.0162412
874.306	0.0164346
874.384	0.0163008
874.462	0.0162675
874.540	0.0164795
874.618	0.0164151
874.696	0.0163305
874.774	0.0163373
874.852	0.0164558
874.931	0.0163675
875.009	0.0163280
875.087	0.0164445
875.165	0.0162909
875.243	0.0163534
875.321	0.0164874
875.399	0.0163191
875.477	0.0162594
875.556	0.0162030
875.634	0.0162930
875.712	0.0163078
875.790	0.0162572
875.868	0.0163381
875.946	0.0164129
876.024	0.0163235
876.102	0.0162480
876.181	0.0162077
876.259	0.0162863
876.337	0.0163302
876.415	0.0163106
876.493	0.0164278
876.571	0.0162594
876.649	0.0162751
876.727	0.0163974
876.806	0.0165256
876.884	0.0163579
876.962	0.0162207
877.040	0.0163638
877.118	0.0164059
877.196	0.0163070
877.274	0.0162177
877.352	0.0162099
877.431	0.0163467
877.509	0.0162570
877.587	0.0162733
877.665	0.0161929
877.743	0.0163127
877.821	0.0162265
877.899	0.0162574
877.977	0.0160899
878.056	0.0162084
878.134	0.0162257
878.212	0.0162709
878.290	0.0162029
878.368	0.0163209
878.446	0.0162882
878.524	0.0161225
878.602	0.0164170
878.681	0.0162875
878.759	0.0163297
878.837	0.0162431
878.915	0.0162077
878.993	0.0164547
879.071	0.0163264
879.149	0.0163187
879.227	0.0163661
879.306	0.0164003
879.384	0.0164355
879.462	0.0163705
879.540	0.0163713
879.618	0.0163418
879.696	0.0164405
879.774	0.0163467
879.852	0.0162868
879.931	0.0164841
880.009	0.0163702
880.087	0.0162714
880.165	0.0164028
880.243	0.0165582
880.321	0.0164483
880.399	0.0164888
880.477	0.0163313
880.556	0.0162960
880.634	0.0162271
880.712	0.0163479
880.790	0.0162991
880.868	0.0164310
880.946	0.0164027
881.024	0.0164568
881.102	0.0162926
881.181	0.0162521
881.259	0.0163933
881.337	0.0162897
881.415	0.0161701
881.493	0.0163963
881.571	0.0162719
881.649	0.0162447
881.727	0.0162379
881.806	0.0162032
881.884	0.0163506
881.962	0.0162718
882.040	0.0162942
882.118	0.0162542
882.196	0.0163076
882.274	0.0163588
882.352	0.0160649
882.431	0.0161293
882.509	0.0161803
882.587	0.0162062
882.665	0.0162056
882.743	0.0162483
882.821	0.0163581
882.899	0.0163499
882.977	0.0162728
883.056	0.0162861
883.134	0.0163276
883.212	0.0162173
883.290	0.0162354
883.368	0.0163895
883.446	0.0163796
883.524	0.0163211
883.602	0.0161936
883.681	0.0162489
883.759	0.0162463
883.837	0.0164093
883.915	0.0163971
883.993	0.0162965
884.071	0.0161888
884.149	0.0162288
884.227	0.0163100
884.306	0.0161658
884.384	0.0162737
884.462	0.0161920
884.540	0.0163154
884.618	0.0163347
884.696	0.0162587
884.774	0.0163237
884.852	0.0163184
884.931	0.0162389
885.009	0.0163213
885.087	0.0163311
885.165	0.0162518
885.243	0.0163899
885.321	0.0162837
885.399	0.0162701
885.477	0.0163864
885.556	0.0162434
885.634	0.0164054
885.712	0.0163428
885.790	0.0164094
885.868	0.0163859
885.946	0.0164118
886.024	0.0163747
886.102	0.0162668
886.181	0.0163722
886.259	0.0163644
886.337	0.0165194
886.415	0.0163161
886.493	0.0162326
886.571	0.0163621
886.649	0.0164072
886.727	0.0164761
886.806	0.0164568
886.884	0.0163837
886.962	0.0162083
887.040	0.0164784
887.118	0.0163776
887.196	0.0163638
887.274	0.0165012
887.352	0.0162511
887.431	0.0163844
887.509	0.0163545
887.587	0.0163457
887.665	0.0163609
887.743	0.0162112
887.821	0.0161475
887.899	0.0162521
887.977	0.0163838
888.056	0.0162135
888.134	0.0163389
888.212	0.0163624
888.290	0.0164649
888.368	0.0162331
888.446	0.0161639
888.524	0.0162387
888.602	0.0162189
888.681	0.0163564
888.759	0.0161254
888.837	0.0161551
888.915	0.0163133
888.993	0.0162131
889.071	0.0161868
889.149	0.0162094
889.227	0.0163405
889.306	0.0162736
889.384	0.0163317
889.462	0.0163120
889.540	0.0162874
889.618	0.0163464
889.696	0.0163848
889.774	0.0162029
889.852	0.0161465
889.931	0.0163155
890.009	0.0163807
890.087	0.0163726
890.165	0.0163634
890.243	0.0162901
890.321	0.0162637
890.399	0.0163512
890.477	0.0163712
890.556	0.0162873
890.634	0.0162841
890.712	0.0163327
890.790	0.0164259
890.868	0.0162901
890.946	0.0163895
891.024	0.0162546
891.102	0.0162852
891.181	0.0163823
891.259	0.0162297
891.337	0.0163132
891.415	0.0161979
891.493	0.0161402
891.571	0.0161373
891.649	0.0162444
891.727	0.0162885
891.806	0.0162967
891.884	0.0162510
891.962	0.0162428
892.040	0.0163095
892.118	0.0160947
892.196	0.0161968
892.274	0.0160561
892.352	0.0162632
892.431	0.0161355
892.509	0.0159663
892.587	0.0161694
892.665	0.0162199
892.743	0.0161905
892.821	0.0161324
892.899	0.0161610
892.977	0.0161475
893.056	0.0162405
893.134	0.0162152
893.212	0.0161448
893.290	0.0161549
893.368	0.0161185
893.446	0.0160263
893.524	0.0161685
893.602	0.0162360
893.681	0.0162675
893.759	0.0162801
893.837	0.0162828
893.915	0.0161551
893.993	0.0163084
894.071	0.0162699
894.149	0.0162666
894.227	0.0164396
894.306	0.0162760
894.384	0.0160976
894.462	0.0162856
894.540	0.0163279
894.618	0.0163024
894.696	0.0163310
894.774	0.0161586
894.852	0.0162639
894.931	0.0161847
895.009	0.0162982
895.087	0.0162407
895.165	0.0161565
895.243	0.0162614
895.321	0.0162543
895.399	0.0160973
895.477	0.0162335
895.556	0.0162687
895.634	0.0161213
895.712	0.0161881
895.790	0.0161105
895.868	0.0160943
895.946	0.0160482
896.024	0.0160276
896.102	0.0160519
896.181	0.0160922
896.259	0.0159935
896.337	0.0161137
896.415	0.0160558
896.493	0.0160921
896.571	0.0161552
896.649	0.0160680
896.727	0.0161440
896.806	0.0161431
896.884	0.0162971
896.962	0.0162526
897.040	0.0163026
897.118	0.0163724
897.196	0.0163843
897.274	0.0164570
897.352	0.0164020
897.431	0.0162835
897.509	0.0164447
897.587	0.0164791
897.665	0.0164804
897.743	0.0163805
897.821	0.0165345
897.899	0.0163845
897.977	0.0164496
898.056	0.0166099
898.134	0.0163927
898.212	0.0165121
898.290	0.0165324
898.368	0.0165215
898.446	0.0163445
898.524	0.0164982
898.602	0.0163043
898.681	0.0164420
898.759	0.0163236
898.837	0.0163564
898.915	0.0162714
898.993	0.0163331
899.071	0.0163126
899.149	0.0162628
899.227	0.0163099
899.306	0.0163193
899.384	0.0162500
899.462	0.0162346
899.540	0.0163268
899.618	0.0163071
899.696	0.0163223
899.774	0.0162342
899.852	0.0163335
899.931	0.0162742
900.009	0.0164050
900.087	0.0161958
900.165	0.0162958
900.243	0.0163644
900.321	0.0163858
900.399	0.0162089
900.477	0.0163729
900.556	0.0164359
900.634	0.0164767
900.712	0.0165046
900.790	0.0164503
900.868	0.0164413
900.946	0.0165008
901.024	0.0164661
901.102	0.0165278
901.181	0.0165401
901.259	0.0165214
901.337	0.0165379
901.415	0.0163396
901.493	0.0164037
901.571	0.0165145
901.649	0.0164811
901.727	0.0165236
901.806	0.0165881
901.884	0.0164260
901.962	0.0163939
902.040	0.0164925
902.118	0.0165524
902.196	0.0164127
902.274	0.0164219
902.352	0.0164860
902.431	0.0164154
902.509	0.0163438
902.587	0.0165125
902.665	0.0163126
902.743	0.0163240
902.821	0.0164680
902.899	0.0162943
902.977	0.0162282
903.056	0.0162920
903.134	0.0163817
903.212	0.0162439
903.290	0.0163158
903.368	0.0163308
903.446	0.0163097
903.524	0.0163699
903.602	0.0164085
903.681	0.0163203
903.759	0.0164521
903.837	0.0162783
903.915	0.0163585
903.993	0.0164205
904.071	0.0165607
904.149	0.0163839
904.227	0.0163847
904.306	0.0165225
904.384	0.0164716
904.462	0.0163738
904.540	0.0164511
904.618	0.0162709
904.696	0.0163908
904.774	0.0164156
904.852	0.0164302
904.931	0.0164742
905.009	0.0163187
905.087	0.0163628
905.165	0.0163194
905.243	0.0163127
905.321	0.0163442
905.399	0.0164323
905.477	0.0164368
905.556	0.0163725
905.634	0.0163477
905.712	0.0163483
905.790	0.0163992
905.868	0.0162643
905.946	0.0162334
906.024	0.0163786
906.102	0.0163538
906.181	0.0161835
906.259	0.0163660
906.337	0.0163178
906.415	0.0163537
906.493	0.0164382
906.571	0.0163177
906.649	0.0163309
906.727	0.0164407
906.806	0.0163313
906.884	0.0163645
906.962	0.0163409
907.040	0.0163368
907.118	0.0163580
907.196	0.0163262
907.274	0.0164359
907.352	0.0164971
907.431	0.0163269
907.509	0.0163947
907.587	0.0164874
907.665	0.0164336
907.743	0.0163548
907.821	0.0162949
907.899	0.0163465
907.977	0.0165133
908.056	0.0163366
908.134	0.0163304
908.212	0.0163602
908.290	0.0161843
908.368	0.0163813
908.446	0.0162399
908.524	0.0163146
908.602	0.0162611
908.681	0.0163548
908.759	0.0163354
908.837	0.0161769
908.915	0.0161141
908.993	0.0163515
909.071	0.0162440
909.149	0.0162299
909.227	0.0163139
909.306	0.0162598
909.384	0.0161486
909.462	0.0162372
909.540	0.0161739
909.618	0.0163208
909.696	0.0163517
909.774	0.0161190
909.852	0.0161682
909.931	0.0162268
910.009	0.0160861
910.087	0.0162515
910.165	0.0163561
910.243	0.0161905
910.321	0.0161926
910.399	0.0161962
910.477	0.0162267
910.556	0.0161682
910.634	0.0162394
910.712	0.0163350
910.790	0.0162873
910.868	0.0163811
910.946	0.0163621
911.024	0.0162849
911.102	0.0162486
911.181	0.0162971
911.259	0.0162765
911.337	0.0164281
911.415	0.0163789
911.493	0.0163625
911.571	0.0164181
911.649	0.0163432
911.727	0.0163271
911.806	0.0164426
911.884	0.0163159
911.962	0.0162271
912.040	0.0162849
912.118	0.0164527
912.196	0.0162924
912.274	0.0163154
912.352	0.0163477
912.431	0.0162427
912.509	0.0162621
912.587	0.0163252
912.665	0.0162877
912.743	0.0163427
912.821	0.0163800
912.899	0.0162686
912.977	0.0163194
913.056	0.0162820
913.134	0.0161185
913.212	0.0163937
913.290	0.0162560
913.368	0.0163242
913.446	0.0163303
913.524	0.0161567
913.602	0.0163087
913.681	0.0163342
913.759	0.0162427
913.837	0.0163150
913.915	0.0163004
913.993	0.0164030
914.071	0.0161849
914.149	0.0161599
914.227	0.0162697
914.306	0.0163715
914.384	0.0161469
914.462	0.0163171
914.540	0.0162302
914.618	0.0162389
914.696	0.0163571
914.774	0.0162254
914.852	0.0163550
914.931	0.0162465
915.009	0.0162901
915.087	0.0164452
915.165	0.0163639
915.243	0.0160954
915.321	0.0163197
915.399	0.0163660
915.477	0.0162964
915.556	0.0162839
915.634	0.0161920
915.712	0.0161795
915.790	0.0163931
915.868	0.0163375
915.946	0.0162505
916.024	0.0162996
916.102	0.0162803
916.181	0.0163385
916.259	0.0161318
916.337	0.0162607
916.415	0.0163039
916.493	0.0162345
916.571	0.0163315
916.649	0.0162419
916.727	0.0162855
916.806	0.0162041
916.884	0.0162901
916.962	0.0163196
917.040	0.0162309
917.118	0.0162132
917.196	0.0163533
917.274	0.0163166
917.352	0.0163047
917.431	0.0162782
917.509	0.0163615
917.587	0.0163151
917.665	0.0161174
917.743	0.0162428
917.821	0.0163075
917.899	0.0163681
917.977	0.0162051
918.056	0.0163737
918.134	0.0162981
918.212	0.0163416
918.290	0.0162691
918.368	0.0162447
918.446	0.0164040
918.524	0.0162894
918.602	0.0162836
918.681	0.0163708
918.759	0.0162113
918.837	0.0164882
918.915	0.0163135
918.993	0.0162590
919.071	0.0162770
919.149	0.0162505
919.227	0.0162898
919.306	0.0161586
919.384	0.0163282
919.462	0.0161979
919.540	0.0163098
919.618	0.0163226
919.696	0.0162087
919.774	0.0162414
919.852	0.0161778
919.931	0.0162675
920.009	0.0162888
920.087	0.0161857
920.165	0.0163169
920.243	0.0162245
920.321	0.0162923
920.399	0.0163281
920.477	0.0163905
920.556	0.0162030
920.634	0.0162511
920.712	0.0163448
920.790	0.0162655
920.868	0.0163901
920.946	0.0161919
921.024	0.0163946
921.102	0.0162901
921.181	0.0163836
921.259	0.0163878
921.337	0.0162767
921.415	0.0163189
921.493	0.0163184
921.571	0.0163425
921.649	0.0163695
921.727	0.0162617
921.806	0.0162675
921.884	0.0163131
921.962	0.0163881
922.040	0.0162831
922.118	0.0164388
922.196	0.0163586
922.274	0.0161677
922.352	0.0162457
922.431	0.0161975
922.509	0.0162897
922.587	0.0163190
922.665	0.0163071
922.743	0.0162956
922.821	0.0161258
922.899	0.0161443
922.977	0.0162869
923.056	0.0161789
923.134	0.0160671
923.212	0.0162506
923.290	0.0161849
923.368	0.0161959
923.446	0.0162093
923.524	0.0160795
923.602	0.0161398
923.681	0.0160834
923.759	0.0161142
923.837	0.0161913
923.915	0.0161818
923.993	0.0161775
924.071	0.0162362
924.149	0.0162312
924.227	0.0162055
924.306	0.0162308
924.384	0.0162239
924.462	0.0163050
924.540	0.0162141
924.618	0.0162691
924.696	0.0162585
924.774	0.0162640
924.852	0.0162383
924.931	0.0163770
925.009	0.0163914
925.087	0.0162087
925.165	0.0162943
925.243	0.0163710
925.321	0.0163337
925.399	0.0163969
925.477	0.0164058
925.556	0.0165667
925.634	0.0163495
925.712	0.0163702
925.790	0.0163566
925.868	0.0163680
925.946	0.0163714
926.024	0.0164211
926.102	0.0164597
926.181	0.0164632
926.259	0.0164229
926.337	0.0165340
926.415	0.0165099
926.493	0.0164275
926.571	0.0163848
926.649	0.0164310
926.727	0.0162873
926.806	0.0164066
926.884	0.0164546
926.962	0.0165205
927.040	0.0163084
927.118	0.0165110
927.196	0.0164662
927.274	0.0162746
927.352	0.0164093
927.431	0.0162907
927.509	0.0163545
927.587	0.0163603
927.665	0.0163975
927.743	0.0163630
927.821	0.0162231
927.899	0.0162291
927.977	0.0162325
928.056	0.0163056
928.134	0.0161990
928.212	0.0161899
928.290	0.0162463
928.368	0.0162146
928.446	0.0161665
928.524	0.0161570
928.602	0.0161546
928.681	0.0162827
928.759	0.0161106
928.837	0.0162248
928.915	0.0162008
928.993	0.0162270
929.071	0.0162138
929.149	0.0162265
929.227	0.0162107
929.306	0.0161873
929.384	0.0162967
929.462	0.0162080
929.540	0.0161553
929.618	0.0161130
929.696	0.0162141
929.774	0.0164287
929.852	0.0162621
929.931	0.0163301
