05/19/2022	01:18:15	Ver.	4.1	UNKNOWN
Optical Delay	610.008675	Delta X		0.078125	Sweeps	1	Scan Rate	0/0
Coordinates	Axis 1	NaN	Axis 2	NaN	Axis 3	NaN	Axis 4	NaN	Axis 5	NaN	Axis 6	0.000000
TX Power	0.000000	RX Power	0.000000

610.009	0.0162971
610.087	0.0162135
610.165	0.0163109
610.243	0.0165357
610.321	0.0163704
610.399	0.0163594
610.477	0.0163912
610.556	0.0162692
610.634	0.0164124
610.712	0.0163456
610.790	0.0163336
610.868	0.0163676
610.946	0.0163674
611.024	0.0162871
611.102	0.0163744
611.181	0.0163255
611.259	0.0161585
611.337	0.0163570
611.415	0.0163697
611.493	0.0162948
611.571	0.0162254
611.649	0.0163748
611.727	0.0162927
611.806	0.0161587
611.884	0.0162225
611.962	0.0163316
612.040	0.0161952
612.118	0.0162827
612.196	0.0163010
612.274	0.0163063
612.352	0.0162745
612.431	0.0162199
612.509	0.0163112
612.587	0.0163155
612.665	0.0162896
612.743	0.0163278
612.821	0.0162634
612.899	0.0163374
612.977	0.0162788
613.056	0.0163527
613.134	0.0163888
613.212	0.0163485
613.290	0.0163310
613.368	0.0163395
613.446	0.0162960
613.524	0.0164089
613.602	0.0164165
613.681	0.0161832
613.759	0.0164316
613.837	0.0162814
613.915	0.0161713
613.993	0.0163268
614.071	0.0162875
614.149	0.0163528
614.227	0.0162376
614.306	0.0162340
614.384	0.0162839
614.462	0.0162257
614.540	0.0161318
614.618	0.0162851
614.696	0.0162418
614.774	0.0163493
614.852	0.0163318
614.931	0.0163307
615.009	0.0163184
615.087	0.0161004
615.165	0.0162870
615.243	0.0163304
615.321	0.0162194
615.399	0.0162682
615.477	0.0161853
615.556	0.0162658
615.634	0.0162265
615.712	0.0162614
615.790	0.0162625
615.868	0.0162267
615.946	0.0163116
616.024	0.0161551
616.102	0.0162727
616.181	0.0162531
616.259	0.0162904
616.337	0.0162989
616.415	0.0162991
616.493	0.0162671
616.571	0.0160986
616.649	0.0163029
616.727	0.0163132
616.806	0.0162467
616.884	0.0162659
616.962	0.0163056
617.040	0.0162816
617.118	0.0161247
617.196	0.0162386
617.274	0.0162708
617.352	0.0162368
617.431	0.0162010
617.509	0.0163209
617.587	0.0163129
617.665	0.0161768
617.743	0.0162168
617.821	0.0162035
617.899	0.0163200
617.977	0.0163377
618.056	0.0163658
618.134	0.0164632
618.212	0.0162649
618.290	0.0163057
618.368	0.0164114
618.446	0.0165010
618.524	0.0163430
618.602	0.0164581
618.681	0.0164825
618.759	0.0165269
618.837	0.0164687
618.915	0.0164000
618.993	0.0165034
619.071	0.0164917
619.149	0.0164241
619.227	0.0165491
619.306	0.0163129
619.384	0.0163518
619.462	0.0163363
619.540	0.0164365
619.618	0.0163924
619.696	0.0163257
619.774	0.0163653
619.852	0.0163738
619.931	0.0164188
620.009	0.0163612
620.087	0.0163260
620.165	0.0163233
620.243	0.0163568
620.321	0.0164410
620.399	0.0163444
620.477	0.0162444
620.556	0.0162240
620.634	0.0164551
620.712	0.0164325
620.790	0.0162816
620.868	0.0163900
620.946	0.0162785
621.024	0.0163110
621.102	0.0162334
621.181	0.0163552
621.259	0.0163022
621.337	0.0164984
621.415	0.0162513
621.493	0.0162008
621.571	0.0162646
621.649	0.0163013
621.727	0.0161977
621.806	0.0163210
621.884	0.0163915
621.962	0.0163488
622.040	0.0163438
622.118	0.0162454
622.196	0.0163926
622.274	0.0162910
622.352	0.0162666
622.431	0.0163574
622.509	0.0165198
622.587	0.0164261
622.665	0.0164329
622.743	0.0163985
622.821	0.0162795
622.899	0.0164629
622.977	0.0163869
623.056	0.0163142
623.134	0.0162762
623.212	0.0163902
623.290	0.0162526
623.368	0.0162795
623.446	0.0163641
623.524	0.0162183
623.602	0.0162114
623.681	0.0162967
623.759	0.0163502
623.837	0.0162347
623.915	0.0161429
623.993	0.0161534
624.071	0.0162110
624.149	0.0160815
624.227	0.0161332
624.306	0.0162058
624.384	0.0161993
624.462	0.0160802
624.540	0.0160979
624.618	0.0161786
624.696	0.0161978
624.774	0.0160850
624.852	0.0161087
624.931	0.0162521
625.009	0.0162028
625.087	0.0161204
625.165	0.0160036
625.243	0.0161481
625.321	0.0160262
625.399	0.0161718
625.477	0.0161081
625.556	0.0161375
625.634	0.0161662
625.712	0.0163013
625.790	0.0161996
625.868	0.0162924
625.946	0.0162753
626.024	0.0163069
626.102	0.0163780
626.181	0.0164304
626.259	0.0164595
626.337	0.0163544
626.415	0.0164420
626.493	0.0164672
626.571	0.0164152
626.649	0.0165492
626.727	0.0164208
626.806	0.0164484
626.884	0.0163760
626.962	0.0164046
627.040	0.0165369
627.118	0.0165273
627.196	0.0164105
627.274	0.0163810
627.352	0.0163866
627.431	0.0163825
627.509	0.0165961
627.587	0.0164056
627.665	0.0165731
627.743	0.0164088
627.821	0.0163679
627.899	0.0165357
627.977	0.0164069
628.056	0.0164011
628.134	0.0165222
628.212	0.0165793
628.290	0.0163190
628.368	0.0163191
628.446	0.0164665
628.524	0.0163099
628.602	0.0163645
628.681	0.0163051
628.759	0.0164021
628.837	0.0162856
628.915	0.0163951
628.993	0.0163552
629.071	0.0161742
629.149	0.0162772
629.227	0.0162018
629.306	0.0161588
629.384	0.0162431
629.462	0.0163124
629.540	0.0161805
629.618	0.0161794
629.696	0.0160841
629.774	0.0160722
629.852	0.0160429
629.931	0.0161551
630.009	0.0161987
630.087	0.0161585
630.165	0.0160558
630.243	0.0162718
630.321	0.0160388
630.399	0.0161414
630.477	0.0159863
630.556	0.0161742
630.634	0.0161033
630.712	0.0160918
630.790	0.0161529
630.868	0.0162182
630.946	0.0162793
631.024	0.0163171
631.102	0.0162977
631.181	0.0162629
631.259	0.0162618
631.337	0.0163548
631.415	0.0164118
631.493	0.0163278
631.571	0.0163691
631.649	0.0164285
631.727	0.0164986
631.806	0.0165283
631.884	0.0165331
631.962	0.0165163
632.040	0.0165588
632.118	0.0165296
632.196	0.0165228
632.274	0.0165417
632.352	0.0165454
632.431	0.0166913
632.509	0.0165852
632.587	0.0164120
632.665	0.0164353
632.743	0.0165460
632.821	0.0164989
632.899	0.0163931
632.977	0.0164527
633.056	0.0162967
633.134	0.0163457
633.212	0.0162472
633.290	0.0164775
633.368	0.0163161
633.446	0.0163033
633.524	0.0163577
633.602	0.0162350
633.681	0.0163628
633.759	0.0163139
633.837	0.0161730
633.915	0.0162965
633.993	0.0161589
634.071	0.0160699
634.149	0.0162363
634.227	0.0162214
634.306	0.0161068
634.384	0.0161259
634.462	0.0160712
634.540	0.0159560
634.618	0.0158485
634.696	0.0159650
634.774	0.0158409
634.852	0.0158839
634.931	0.0157853
635.009	0.0157920
635.087	0.0158208
635.165	0.0158554
635.243	0.0157452
635.321	0.0159287
635.399	0.0159741
635.477	0.0157742
635.556	0.0158456
635.634	0.0159378
635.712	0.0158723
635.790	0.0159714
635.868	0.0160044
635.946	0.0158833
636.024	0.0160905
636.102	0.0163148
636.181	0.0162341
636.259	0.0160986
636.337	0.0162078
636.415	0.0163187
636.493	0.0164822
636.571	0.0164531
636.649	0.0165032
636.727	0.0167040
636.806	0.0165079
636.884	0.0166231
636.962	0.0167803
637.040	0.0166113
637.118	0.0168208
637.196	0.0168759
637.274	0.0168664
637.352	0.0169810
637.431	0.0169087
637.509	0.0166563
637.587	0.0167410
637.665	0.0167275
637.743	0.0169253
637.821	0.0167140
637.899	0.0167662
637.977	0.0167210
638.056	0.0166615
638.134	0.0167515
638.212	0.0165340
638.290	0.0165030
638.368	0.0162895
638.446	0.0163734
638.524	0.0163351
638.602	0.0162205
638.681	0.0161554
638.759	0.0160857
638.837	0.0161617
638.915	0.0160253
638.993	0.0159459
639.071	0.0159539
639.149	0.0159220
639.227	0.0159821
639.306	0.0158921
639.384	0.0159752
639.462	0.0158463
639.540	0.0157833
639.618	0.0157664
639.696	0.0159068
639.774	0.0159206
639.852	0.0157964
639.931	0.0159266
640.009	0.0159804
640.087	0.0159191
640.165	0.0161008
640.243	0.0159679
640.321	0.0160841
640.399	0.0161860
640.477	0.0161739
640.556	0.0162295
640.634	0.0163086
640.712	0.0162630
640.790	0.0161586
640.868	0.0162693
640.946	0.0163329
641.024	0.0163203
641.102	0.0164930
641.181	0.0165553
641.259	0.0165673
641.337	0.0164359
641.415	0.0165845
641.493	0.0166396
641.571	0.0167116
641.649	0.0167659
641.727	0.0165401
641.806	0.0166490
641.884	0.0167645
641.962	0.0165787
642.040	0.0165650
642.118	0.0167368
642.196	0.0167374
642.274	0.0167464
642.352	0.0166839
642.431	0.0165838
642.509	0.0166394
642.587	0.0165209
642.665	0.0165207
642.743	0.0165568
642.821	0.0165363
642.899	0.0165543
642.977	0.0163163
643.056	0.0165171
643.134	0.0165032
643.212	0.0163622
643.290	0.0163573
643.368	0.0163123
643.446	0.0162937
643.524	0.0162778
643.602	0.0161783
643.681	0.0161259
643.759	0.0160303
643.837	0.0162180
643.915	0.0161630
643.993	0.0159406
644.071	0.0160232
644.149	0.0161581
644.227	0.0160687
644.306	0.0161015
644.384	0.0160691
644.462	0.0162092
644.540	0.0161482
644.618	0.0161330
644.696	0.0161233
644.774	0.0162144
644.852	0.0161362
644.931	0.0162047
645.009	0.0160545
645.087	0.0161038
645.165	0.0160623
645.243	0.0162510
645.321	0.0162903
645.399	0.0161568
645.477	0.0162424
645.556	0.0161824
645.634	0.0162674
645.712	0.0163089
645.790	0.0164644
645.868	0.0162306
645.946	0.0163094
646.024	0.0164101
646.102	0.0162737
646.181	0.0163931
646.259	0.0163878
646.337	0.0162721
646.415	0.0163335
646.493	0.0164799
646.571	0.0164355
646.649	0.0162215
646.727	0.0163532
646.806	0.0162434
646.884	0.0163345
646.962	0.0162673
647.040	0.0161588
647.118	0.0161523
647.196	0.0161516
647.274	0.0161191
647.352	0.0160975
647.431	0.0161025
647.509	0.0160155
647.587	0.0160374
647.665	0.0161025
647.743	0.0161243
647.821	0.0160195
647.899	0.0160783
647.977	0.0160319
648.056	0.0160986
648.134	0.0159965
648.212	0.0161148
648.290	0.0161812
648.368	0.0161221
648.446	0.0162759
648.524	0.0162918
648.602	0.0162134
648.681	0.0161642
648.759	0.0163103
648.837	0.0162546
648.915	0.0162328
648.993	0.0162154
649.071	0.0162757
649.149	0.0162547
649.227	0.0162877
649.306	0.0163108
649.384	0.0162604
649.462	0.0161733
649.540	0.0162529
649.618	0.0161365
649.696	0.0161594
649.774	0.0162122
649.852	0.0163290
649.931	0.0162072
650.009	0.0163359
650.087	0.0162296
650.165	0.0162759
650.243	0.0162162
650.321	0.0160871
650.399	0.0161180
650.477	0.0161868
650.556	0.0160906
650.634	0.0162260
650.712	0.0163546
650.790	0.0161594
650.868	0.0160016
650.946	0.0160806
651.024	0.0161053
651.102	0.0161079
651.181	0.0161171
651.259	0.0160927
651.337	0.0159685
651.415	0.0160548
651.493	0.0159549
651.571	0.0160522
651.649	0.0161349
651.727	0.0161113
651.806	0.0161347
651.884	0.0161433
651.962	0.0161629
652.040	0.0160703
652.118	0.0160908
652.196	0.0159392
652.274	0.0161289
652.352	0.0162767
652.431	0.0160690
652.509	0.0161475
652.587	0.0162178
652.665	0.0162848
652.743	0.0161697
652.821	0.0163006
652.899	0.0162507
652.977	0.0161715
653.056	0.0162826
653.134	0.0161717
653.212	0.0162152
653.290	0.0163217
653.368	0.0162322
653.446	0.0161996
653.524	0.0160952
653.602	0.0160345
653.681	0.0161758
653.759	0.0161112
653.837	0.0161491
653.915	0.0161942
653.993	0.0160706
654.071	0.0160508
654.149	0.0160795
654.227	0.0160746
654.306	0.0160115
654.384	0.0161021
654.462	0.0159803
654.540	0.0161135
654.618	0.0161582
654.696	0.0160539
654.774	0.0160312
654.852	0.0160035
654.931	0.0160786
655.009	0.0161481
655.087	0.0161275
655.165	0.0160127
655.243	0.0161806
655.321	0.0161633
655.399	0.0160317
655.477	0.0162498
655.556	0.0161904
655.634	0.0162407
655.712	0.0161750
655.790	0.0162972
655.868	0.0164277
655.946	0.0162499
656.024	0.0163146
656.102	0.0165041
656.181	0.0163598
656.259	0.0163675
656.337	0.0163177
656.415	0.0164034
656.493	0.0162583
656.571	0.0162775
656.649	0.0163361
656.727	0.0163613
656.806	0.0163131
656.884	0.0163570
656.962	0.0162424
657.040	0.0162769
657.118	0.0163672
657.196	0.0162965
657.274	0.0163019
657.352	0.0164082
657.431	0.0164241
657.509	0.0162507
657.587	0.0162807
657.665	0.0162785
657.743	0.0163949
657.821	0.0161064
657.899	0.0161272
657.977	0.0161323
658.056	0.0161784
658.134	0.0161342
658.212	0.0159815
658.290	0.0160095
658.368	0.0159472
658.446	0.0159402
658.524	0.0159521
658.602	0.0160419
658.681	0.0160603
658.759	0.0159116
658.837	0.0159597
658.915	0.0159162
658.993	0.0158540
659.071	0.0159450
659.149	0.0159351
659.227	0.0158870
659.306	0.0159894
659.384	0.0159547
659.462	0.0160610
659.540	0.0161097
659.618	0.0160261
659.696	0.0160906
659.774	0.0159675
659.852	0.0162189
659.931	0.0162410
660.009	0.0162627
660.087	0.0162555
660.165	0.0162029
660.243	0.0163102
660.321	0.0163917
660.399	0.0162759
660.477	0.0162808
660.556	0.0162359
660.634	0.0162643
660.712	0.0163245
660.790	0.0165611
660.868	0.0165195
660.946	0.0163861
661.024	0.0163956
661.102	0.0166013
661.181	0.0165126
661.259	0.0164647
661.337	0.0165115
661.415	0.0166887
661.493	0.0168534
661.571	0.0166248
661.649	0.0166386
661.727	0.0166275
661.806	0.0166563
661.884	0.0166251
661.962	0.0166904
662.040	0.0166724
662.118	0.0166390
662.196	0.0166528
662.274	0.0165799
662.352	0.0165263
662.431	0.0165273
662.509	0.0165585
662.587	0.0165190
662.665	0.0164061
662.743	0.0164409
662.821	0.0161962
662.899	0.0162492
662.977	0.0162560
663.056	0.0161068
663.134	0.0161557
663.212	0.0161767
663.290	0.0160708
663.368	0.0161047
663.446	0.0160424
663.524	0.0160011
663.602	0.0161438
663.681	0.0160445
663.759	0.0159921
663.837	0.0159325
663.915	0.0158723
663.993	0.0158470
664.071	0.0159981
664.149	0.0160153
664.227	0.0159003
664.306	0.0159314
664.384	0.0158743
664.462	0.0160893
664.540	0.0159747
664.618	0.0158984
664.696	0.0159762
664.774	0.0159904
664.852	0.0159409
664.931	0.0160547
665.009	0.0160312
665.087	0.0160457
665.165	0.0160027
665.243	0.0159456
665.321	0.0163073
665.399	0.0161485
665.477	0.0161076
665.556	0.0162010
665.634	0.0161806
665.712	0.0161665
665.790	0.0162659
665.868	0.0163734
665.946	0.0164382
666.024	0.0162317
666.102	0.0162560
666.181	0.0163126
666.259	0.0162203
666.337	0.0164277
666.415	0.0164955
666.493	0.0164413
666.571	0.0162753
666.649	0.0163229
666.727	0.0163608
666.806	0.0162558
666.884	0.0163375
666.962	0.0162859
667.040	0.0164398
667.118	0.0163052
667.196	0.0162103
667.274	0.0162988
667.352	0.0162570
667.431	0.0161872
667.509	0.0161299
667.587	0.0160526
667.665	0.0161494
667.743	0.0161297
667.821	0.0161862
667.899	0.0163477
667.977	0.0161845
668.056	0.0162748
668.134	0.0162293
668.212	0.0161539
668.290	0.0161633
668.368	0.0162052
668.446	0.0163027
668.524	0.0162764
668.602	0.0162675
668.681	0.0162764
668.759	0.0162473
668.837	0.0162715
668.915	0.0161407
668.993	0.0161642
669.071	0.0161497
669.149	0.0161591
669.227	0.0162552
669.306	0.0161517
669.384	0.0161317
669.462	0.0159611
669.540	0.0160789
669.618	0.0162168
669.696	0.0161750
669.774	0.0161093
669.852	0.0160711
669.931	0.0161600
670.009	0.0163084
670.087	0.0162244
670.165	0.0161198
670.243	0.0160174
670.321	0.0160506
670.399	0.0161553
670.477	0.0161372
670.556	0.0161581
670.634	0.0161169
670.712	0.0161905
670.790	0.0162244
670.868	0.0161148
670.946	0.0161204
671.024	0.0161114
671.102	0.0159972
671.181	0.0160377
671.259	0.0160271
671.337	0.0159937
671.415	0.0161193
671.493	0.0160867
671.571	0.0158580
671.649	0.0159234
671.727	0.0160533
671.806	0.0160179
671.884	0.0161000
671.962	0.0159449
672.040	0.0161196
672.118	0.0161619
672.196	0.0161382
672.274	0.0161050
672.352	0.0161403
672.431	0.0162482
672.509	0.0162921
672.587	0.0162176
672.665	0.0162342
672.743	0.0163635
672.821	0.0162509
672.899	0.0161979
672.977	0.0161807
673.056	0.0161278
673.134	0.0162337
673.212	0.0162061
673.290	0.0161362
673.368	0.0161762
673.446	0.0159793
673.524	0.0162854
673.602	0.0162543
673.681	0.0164899
673.759	0.0162021
673.837	0.0162510
673.915	0.0162749
673.993	0.0162682
674.071	0.0162280
674.149	0.0161122
674.227	0.0164324
674.306	0.0162501
674.384	0.0162197
674.462	0.0160793
674.540	0.0162027
674.618	0.0161604
674.696	0.0161594
674.774	0.0162192
674.852	0.0161604
674.931	0.0161278
675.009	0.0162379
675.087	0.0163169
675.165	0.0164134
675.243	0.0162532
675.321	0.0163213
675.399	0.0161739
675.477	0.0161302
675.556	0.0163311
675.634	0.0161804
675.712	0.0161474
675.790	0.0164207
675.868	0.0162553
675.946	0.0162876
676.024	0.0162445
676.102	0.0162670
676.181	0.0162820
676.259	0.0162560
676.337	0.0163584
676.415	0.0163315
676.493	0.0162381
676.571	0.0163184
676.649	0.0163131
676.727	0.0162679
676.806	0.0163036
676.884	0.0163101
676.962	0.0162390
677.040	0.0162945
677.118	0.0163911
677.196	0.0163573
677.274	0.0160394
677.352	0.0161334
677.431	0.0161463
677.509	0.0161253
677.587	0.0161063
677.665	0.0160752
677.743	0.0161221
677.821	0.0161271
677.899	0.0161029
677.977	0.0161307
678.056	0.0161472
678.134	0.0161378
678.212	0.0159631
678.290	0.0160294
678.368	0.0158832
678.446	0.0160453
678.524	0.0160355
678.602	0.0161027
678.681	0.0160432
678.759	0.0160656
678.837	0.0159685
678.915	0.0159885
678.993	0.0161180
679.071	0.0161305
679.149	0.0160902
679.227	0.0160425
679.306	0.0162544
679.384	0.0162029
679.462	0.0162942
679.540	0.0162485
679.618	0.0164195
679.696	0.0162819
679.774	0.0163911
679.852	0.0163562
679.931	0.0164536
680.009	0.0163792
680.087	0.0163902
680.165	0.0164626
680.243	0.0163816
680.321	0.0163599
680.399	0.0165229
680.477	0.0163154
680.556	0.0164478
680.634	0.0163696
680.712	0.0162741
680.790	0.0162934
680.868	0.0163936
680.946	0.0164004
681.024	0.0161842
681.102	0.0162394
681.181	0.0161961
681.259	0.0161935
681.337	0.0161485
681.415	0.0160992
681.493	0.0161758
681.571	0.0163100
681.649	0.0161087
681.727	0.0162096
681.806	0.0161129
681.884	0.0160357
681.962	0.0161494
682.040	0.0162028
682.118	0.0160573
682.196	0.0161048
682.274	0.0162299
682.352	0.0162575
682.431	0.0162407
682.509	0.0161787
682.587	0.0161079
682.665	0.0161427
682.743	0.0162564
682.821	0.0161224
682.899	0.0161606
682.977	0.0162212
683.056	0.0163509
683.134	0.0162360
683.212	0.0162285
683.290	0.0162816
683.368	0.0164138
683.446	0.0161292
683.524	0.0162926
683.602	0.0162212
683.681	0.0161734
683.759	0.0163361
683.837	0.0162887
683.915	0.0161876
683.993	0.0163632
684.071	0.0161900
684.149	0.0161858
684.227	0.0161636
684.306	0.0162754
684.384	0.0163743
684.462	0.0161746
684.540	0.0161986
684.618	0.0162733
684.696	0.0163945
684.774	0.0160696
684.852	0.0163327
684.931	0.0163498
685.009	0.0162568
685.087	0.0161623
685.165	0.0161341
685.243	0.0162598
685.321	0.0162342
685.399	0.0163092
685.477	0.0162543
685.556	0.0163495
685.634	0.0163703
685.712	0.0162921
685.790	0.0164192
685.868	0.0164027
685.946	0.0163816
686.024	0.0164539
686.102	0.0164099
686.181	0.0163431
686.259	0.0164270
686.337	0.0163660
686.415	0.0163857
686.493	0.0164649
686.571	0.0163683
686.649	0.0162798
686.727	0.0164069
686.806	0.0163729
686.884	0.0163502
686.962	0.0162225
687.040	0.0164942
687.118	0.0164450
687.196	0.0164418
687.274	0.0163313
687.352	0.0161806
687.431	0.0162582
687.509	0.0165146
687.587	0.0164833
687.665	0.0162589
687.743	0.0162911
687.821	0.0163760
687.899	0.0162971
687.977	0.0163557
688.056	0.0163525
688.134	0.0163793
688.212	0.0163428
688.290	0.0162685
688.368	0.0160857
688.446	0.0162571
688.524	0.0164333
688.602	0.0162567
688.681	0.0162591
688.759	0.0162820
688.837	0.0162630
688.915	0.0163407
688.993	0.0164041
689.071	0.0163247
689.149	0.0161826
689.227	0.0161787
689.306	0.0162337
689.384	0.0163764
689.462	0.0163617
689.540	0.0162039
689.618	0.0162625
689.696	0.0162825
689.774	0.0161224
689.852	0.0162916
689.931	0.0163420
690.009	0.0162790
690.087	0.0163469
690.165	0.0162461
690.243	0.0162536
690.321	0.0164006
690.399	0.0164595
690.477	0.0163033
690.556	0.0164108
690.634	0.0165704
690.712	0.0165108
690.790	0.0165033
690.868	0.0164902
690.946	0.0165492
691.024	0.0164380
691.102	0.0164714
691.181	0.0165658
691.259	0.0163957
691.337	0.0164461
691.415	0.0164172
691.493	0.0164662
691.571	0.0163607
691.649	0.0163453
691.727	0.0164352
691.806	0.0163913
691.884	0.0163320
691.962	0.0162910
692.040	0.0163066
692.118	0.0162769
692.196	0.0161700
692.274	0.0161371
692.352	0.0161973
692.431	0.0163007
692.509	0.0161243
692.587	0.0160278
692.665	0.0162481
692.743	0.0162205
692.821	0.0160568
692.899	0.0163545
692.977	0.0161607
693.056	0.0162063
693.134	0.0162596
693.212	0.0162363
693.290	0.0161306
693.368	0.0162494
693.446	0.0160792
693.524	0.0162444
693.602	0.0163088
693.681	0.0163776
693.759	0.0162595
693.837	0.0162221
693.915	0.0163908
693.993	0.0162531
694.071	0.0163947
694.149	0.0164660
694.227	0.0164502
694.306	0.0163104
694.384	0.0163541
694.462	0.0164182
694.540	0.0164194
694.618	0.0165813
694.696	0.0164268
694.774	0.0165398
694.852	0.0164771
694.931	0.0164657
695.009	0.0165164
695.087	0.0164503
695.165	0.0163979
695.243	0.0163464
695.321	0.0163548
695.399	0.0164899
695.477	0.0165314
695.556	0.0164928
695.634	0.0164970
695.712	0.0163579
695.790	0.0164165
695.868	0.0163446
695.946	0.0163351
696.024	0.0163619
696.102	0.0164488
696.181	0.0162170
696.259	0.0163894
696.337	0.0163496
696.415	0.0162265
696.493	0.0163525
696.571	0.0163613
696.649	0.0162373
696.727	0.0161971
696.806	0.0161004
696.884	0.0162608
696.962	0.0161208
697.040	0.0160440
697.118	0.0161120
697.196	0.0162023
697.274	0.0162012
697.352	0.0160675
697.431	0.0162036
697.509	0.0161877
697.587	0.0162489
697.665	0.0160168
697.743	0.0161120
697.821	0.0162286
697.899	0.0161811
697.977	0.0162174
698.056	0.0162663
698.134	0.0162154
698.212	0.0162083
698.290	0.0162968
698.368	0.0161565
698.446	0.0163224
698.524	0.0162548
698.602	0.0161659
698.681	0.0163258
698.759	0.0164532
698.837	0.0164306
698.915	0.0163754
698.993	0.0164462
699.071	0.0164169
699.149	0.0163599
699.227	0.0162795
699.306	0.0162912
699.384	0.0162371
699.462	0.0162549
699.540	0.0162960
699.618	0.0162984
699.696	0.0161962
699.774	0.0160793
699.852	0.0160445
699.931	0.0163290
700.009	0.0161841
700.087	0.0160473
700.165	0.0162014
700.243	0.0162095
700.321	0.0161788
700.399	0.0161692
700.477	0.0161906
700.556	0.0160436
700.634	0.0159177
700.712	0.0160011
700.790	0.0158804
700.868	0.0159504
700.946	0.0159908
701.024	0.0159078
701.102	0.0159138
701.181	0.0158329
701.259	0.0159706
701.337	0.0159016
701.415	0.0160073
701.493	0.0160008
701.571	0.0158186
701.649	0.0158567
701.727	0.0160224
701.806	0.0160919
701.884	0.0160480
701.962	0.0159905
702.040	0.0160316
702.118	0.0160587
702.196	0.0160812
702.274	0.0160616
702.352	0.0161212
702.431	0.0162900
702.509	0.0161980
702.587	0.0162164
702.665	0.0161327
702.743	0.0161465
702.821	0.0163840
702.899	0.0163405
702.977	0.0162705
703.056	0.0163772
703.134	0.0163596
703.212	0.0163729
703.290	0.0163519
703.368	0.0164748
703.446	0.0163950
703.524	0.0163823
703.602	0.0165061
703.681	0.0164803
703.759	0.0164214
703.837	0.0165015
703.915	0.0164397
703.993	0.0164549
704.071	0.0163936
704.149	0.0164925
704.227	0.0163492
704.306	0.0163784
704.384	0.0165713
704.462	0.0164673
704.540	0.0163920
704.618	0.0164057
704.696	0.0164528
704.774	0.0163815
704.852	0.0163888
704.931	0.0164227
705.009	0.0165553
705.087	0.0164230
705.165	0.0164110
705.243	0.0165128
705.321	0.0164687
705.399	0.0165826
705.477	0.0165474
705.556	0.0164568
705.634	0.0165876
705.712	0.0165562
705.790	0.0166265
705.868	0.0165991
705.946	0.0166742
706.024	0.0165347
706.102	0.0167523
706.181	0.0166690
706.259	0.0165820
706.337	0.0165519
706.415	0.0165564
706.493	0.0165511
706.571	0.0165643
706.649	0.0163924
706.727	0.0164928
706.806	0.0164596
706.884	0.0164354
706.962	0.0164463
707.040	0.0164719
707.118	0.0166091
707.196	0.0164801
707.274	0.0164966
707.352	0.0165878
707.431	0.0164225
707.509	0.0164533
707.587	0.0164539
707.665	0.0164713
707.743	0.0163583
707.821	0.0162682
707.899	0.0161973
707.977	0.0163751
708.056	0.0164644
708.134	0.0163093
708.212	0.0162370
708.290	0.0164023
708.368	0.0163909
708.446	0.0162363
708.524	0.0161678
708.602	0.0162702
708.681	0.0164615
708.759	0.0163024
708.837	0.0163377
708.915	0.0163059
708.993	0.0164144
709.071	0.0162837
709.149	0.0161447
709.227	0.0162334
709.306	0.0163643
709.384	0.0163413
709.462	0.0161271
709.540	0.0163047
709.618	0.0164120
709.696	0.0163358
709.774	0.0163216
709.852	0.0163120
709.931	0.0163502
710.009	0.0162240
710.087	0.0162834
710.165	0.0162805
710.243	0.0161961
710.321	0.0163635
710.399	0.0163367
710.477	0.0161979
710.556	0.0162811
710.634	0.0162209
710.712	0.0163115
710.790	0.0161956
710.868	0.0161902
710.946	0.0164175
711.024	0.0162929
711.102	0.0160551
711.181	0.0162463
711.259	0.0163957
711.337	0.0161742
711.415	0.0162830
711.493	0.0162072
711.571	0.0162002
711.649	0.0162934
711.727	0.0161832
711.806	0.0162998
711.884	0.0162965
711.962	0.0163145
712.040	0.0162976
712.118	0.0162348
712.196	0.0163046
712.274	0.0161093
712.352	0.0161395
712.431	0.0162324
712.509	0.0162055
712.587	0.0160418
712.665	0.0161086
712.743	0.0162008
712.821	0.0161552
712.899	0.0161405
712.977	0.0160738
713.056	0.0161408
713.134	0.0162684
713.212	0.0161497
713.290	0.0161678
713.368	0.0163567
713.446	0.0161701
713.524	0.0162955
713.602	0.0164583
713.681	0.0164584
713.759	0.0163406
713.837	0.0163955
713.915	0.0163964
713.993	0.0164525
714.071	0.0163508
714.149	0.0163696
714.227	0.0162887
714.306	0.0164562
714.384	0.0164979
714.462	0.0164875
714.540	0.0163433
714.618	0.0164940
714.696	0.0163975
714.774	0.0164165
714.852	0.0163327
714.931	0.0164973
715.009	0.0163809
715.087	0.0164745
715.165	0.0164300
715.243	0.0163334
715.321	0.0163506
715.399	0.0163669
715.477	0.0162824
715.556	0.0163660
715.634	0.0162311
715.712	0.0162233
715.790	0.0161809
715.868	0.0162406
715.946	0.0163282
716.024	0.0162688
716.102	0.0160731
716.181	0.0161907
716.259	0.0162546
716.337	0.0161964
716.415	0.0161552
716.493	0.0162172
716.571	0.0161742
716.649	0.0163030
716.727	0.0163467
716.806	0.0163783
716.884	0.0161687
716.962	0.0163348
717.040	0.0163149
717.118	0.0163209
717.196	0.0163023
717.274	0.0164249
717.352	0.0164326
717.431	0.0164873
717.509	0.0161898
717.587	0.0163286
717.665	0.0163284
717.743	0.0164212
717.821	0.0162763
717.899	0.0163381
717.977	0.0162977
718.056	0.0163116
718.134	0.0164018
718.212	0.0164320
718.290	0.0163014
718.368	0.0163972
718.446	0.0163426
718.524	0.0163187
718.602	0.0163821
718.681	0.0162234
718.759	0.0163757
718.837	0.0163963
718.915	0.0162032
718.993	0.0162985
719.071	0.0162857
719.149	0.0164043
719.227	0.0163811
719.306	0.0162791
719.384	0.0163183
719.462	0.0164703
719.540	0.0163892
719.618	0.0163272
719.696	0.0163096
719.774	0.0163617
719.852	0.0164512
719.931	0.0164537
720.009	0.0165852
720.087	0.0164694
720.165	0.0163705
720.243	0.0163894
720.321	0.0165949
720.399	0.0162312
720.477	0.0163836
720.556	0.0164181
720.634	0.0163193
720.712	0.0163297
720.790	0.0163554
720.868	0.0164198
720.946	0.0162334
721.024	0.0162037
721.102	0.0162586
721.181	0.0162609
721.259	0.0161024
721.337	0.0162054
721.415	0.0161127
721.493	0.0160017
721.571	0.0160101
721.649	0.0159418
721.727	0.0160352
721.806	0.0162234
721.884	0.0160574
721.962	0.0160880
722.040	0.0161769
722.118	0.0161044
722.196	0.0161572
722.274	0.0162850
722.352	0.0161990
722.431	0.0162608
722.509	0.0161946
722.587	0.0164066
722.665	0.0163221
722.743	0.0160787
722.821	0.0161301
722.899	0.0162751
722.977	0.0163057
723.056	0.0162381
723.134	0.0161658
723.212	0.0162794
723.290	0.0163701
723.368	0.0163241
723.446	0.0163508
723.524	0.0162109
723.602	0.0162212
723.681	0.0161920
723.759	0.0162948
723.837	0.0161563
723.915	0.0161613
723.993	0.0162640
724.071	0.0163033
724.149	0.0162256
724.227	0.0162914
724.306	0.0163087
724.384	0.0163331
724.462	0.0162755
724.540	0.0162865
724.618	0.0162815
724.696	0.0163125
724.774	0.0162408
724.852	0.0162642
724.931	0.0161408
725.009	0.0162328
725.087	0.0162599
725.165	0.0163514
725.243	0.0161967
725.321	0.0161147
725.399	0.0161903
725.477	0.0162992
725.556	0.0162064
725.634	0.0161980
725.712	0.0162961
725.790	0.0162989
725.868	0.0161827
725.946	0.0161954
726.024	0.0162345
726.102	0.0162242
726.181	0.0162769
726.259	0.0161150
726.337	0.0161360
726.415	0.0160957
726.493	0.0162066
726.571	0.0160979
726.649	0.0161739
726.727	0.0162067
726.806	0.0162331
726.884	0.0161378
726.962	0.0161314
727.040	0.0160494
727.118	0.0161006
727.196	0.0160944
727.274	0.0160257
727.352	0.0161537
727.431	0.0161462
727.509	0.0162659
727.587	0.0161624
727.665	0.0161801
727.743	0.0162285
727.821	0.0162834
727.899	0.0163288
727.977	0.0162006
728.056	0.0163616
728.134	0.0163498
728.212	0.0163344
728.290	0.0164619
728.368	0.0164143
728.446	0.0163327
728.524	0.0162936
728.602	0.0163931
728.681	0.0164224
728.759	0.0163966
728.837	0.0163843
728.915	0.0162251
728.993	0.0161981
729.071	0.0162585
729.149	0.0164231
729.227	0.0163673
729.306	0.0163110
729.384	0.0162165
729.462	0.0161829
729.540	0.0161651
729.618	0.0164296
729.696	0.0161532
729.774	0.0162094
729.852	0.0162034
729.931	0.0161495
730.009	0.0162676
730.087	0.0162128
730.165	0.0161940
730.243	0.0163310
730.321	0.0161493
730.399	0.0162861
730.477	0.0162806
730.556	0.0162511
730.634	0.0162569
730.712	0.0163612
730.790	0.0162798
730.868	0.0162615
730.946	0.0162014
731.024	0.0162307
731.102	0.0162113
731.181	0.0162008
731.259	0.0161390
731.337	0.0162738
731.415	0.0163012
731.493	0.0164846
731.571	0.0162467
731.649	0.0161987
731.727	0.0163435
731.806	0.0162975
731.884	0.0163003
731.962	0.0163763
732.040	0.0163606
732.118	0.0161919
732.196	0.0163182
732.274	0.0164480
732.352	0.0163989
732.431	0.0163895
732.509	0.0163664
732.587	0.0163719
732.665	0.0162681
732.743	0.0163889
732.821	0.0162607
732.899	0.0164637
732.977	0.0162565
733.056	0.0162673
733.134	0.0162285
733.212	0.0162952
733.290	0.0163280
733.368	0.0163646
733.446	0.0162447
733.524	0.0163297
733.602	0.0162643
733.681	0.0164484
733.759	0.0164625
733.837	0.0163198
733.915	0.0163072
733.993	0.0164143
734.071	0.0163015
734.149	0.0162806
734.227	0.0163490
734.306	0.0162868
734.384	0.0164207
734.462	0.0163744
734.540	0.0163419
734.618	0.0163433
734.696	0.0163415
734.774	0.0164498
734.852	0.0163757
734.931	0.0162779
735.009	0.0162894
735.087	0.0161768
735.165	0.0161729
735.243	0.0161759
735.321	0.0162014
735.399	0.0162747
735.477	0.0161621
735.556	0.0161491
735.634	0.0162033
735.712	0.0161108
735.790	0.0159715
735.868	0.0162534
735.946	0.0160882
736.024	0.0161555
736.102	0.0161525
736.181	0.0162204
736.259	0.0161682
736.337	0.0160924
736.415	0.0162475
736.493	0.0160049
736.571	0.0160563
736.649	0.0161530
736.727	0.0160780
736.806	0.0160335
736.884	0.0161509
736.962	0.0162642
737.040	0.0161465
737.118	0.0162232
737.196	0.0162476
737.274	0.0162104
737.352	0.0161825
737.431	0.0162309
737.509	0.0161652
737.587	0.0161823
737.665	0.0162276
737.743	0.0163001
737.821	0.0162097
737.899	0.0163372
737.977	0.0162499
738.056	0.0163896
738.134	0.0164085
738.212	0.0162065
738.290	0.0164081
738.368	0.0164066
738.446	0.0161932
738.524	0.0162695
738.602	0.0162376
738.681	0.0160631
738.759	0.0161423
738.837	0.0165067
738.915	0.0162785
738.993	0.0163151
739.071	0.0163484
739.149	0.0162386
739.227	0.0163203
739.306	0.0161631
739.384	0.0161307
739.462	0.0161135
739.540	0.0162272
739.618	0.0162472
739.696	0.0161774
739.774	0.0161845
739.852	0.0161722
739.931	0.0161017
740.009	0.0161589
740.087	0.0159876
740.165	0.0162992
740.243	0.0161838
740.321	0.0160616
740.399	0.0161004
740.477	0.0162723
740.556	0.0159732
740.634	0.0162439
740.712	0.0162493
740.790	0.0162708
740.868	0.0162109
740.946	0.0160806
741.024	0.0162697
741.102	0.0161550
741.181	0.0162793
741.259	0.0162058
741.337	0.0161629
741.415	0.0163292
741.493	0.0162754
741.571	0.0163058
741.649	0.0162411
741.727	0.0164299
741.806	0.0163593
741.884	0.0162833
741.962	0.0164498
742.040	0.0164760
742.118	0.0164383
742.196	0.0162773
742.274	0.0164353
742.352	0.0165009
742.431	0.0164161
742.509	0.0164288
742.587	0.0163315
742.665	0.0163760
742.743	0.0163150
742.821	0.0161972
742.899	0.0162516
742.977	0.0162170
743.056	0.0163149
743.134	0.0164265
743.212	0.0162280
743.290	0.0164455
743.368	0.0164613
743.446	0.0162412
743.524	0.0162738
743.602	0.0165131
743.681	0.0163082
743.759	0.0162892
743.837	0.0164526
743.915	0.0163052
743.993	0.0163797
744.071	0.0164117
744.149	0.0164227
744.227	0.0164786
744.306	0.0163870
744.384	0.0163551
744.462	0.0164569
744.540	0.0164647
744.618	0.0164732
744.696	0.0164500
744.774	0.0164748
744.852	0.0164870
744.931	0.0164296
745.009	0.0164246
745.087	0.0164619
745.165	0.0163685
745.243	0.0163935
745.321	0.0164675
745.399	0.0164494
745.477	0.0164789
745.556	0.0164788
745.634	0.0163715
745.712	0.0164619
745.790	0.0164084
745.868	0.0163771
745.946	0.0163575
746.024	0.0164080
746.102	0.0164024
746.181	0.0164318
746.259	0.0164776
746.337	0.0164089
746.415	0.0163534
746.493	0.0162869
746.571	0.0163034
746.649	0.0163840
746.727	0.0163475
746.806	0.0163777
746.884	0.0162098
746.962	0.0164096
747.040	0.0163640
747.118	0.0163386
747.196	0.0162999
747.274	0.0162257
747.352	0.0162582
747.431	0.0162212
747.509	0.0161708
747.587	0.0161456
747.665	0.0161497
747.743	0.0163030
747.821	0.0162537
747.899	0.0162876
747.977	0.0161793
748.056	0.0162007
748.134	0.0161973
748.212	0.0162317
748.290	0.0161127
748.368	0.0162102
748.446	0.0161445
748.524	0.0163616
748.602	0.0160690
748.681	0.0161156
748.759	0.0161770
748.837	0.0162916
748.915	0.0163130
748.993	0.0160976
749.071	0.0160789
749.149	0.0162137
749.227	0.0161722
749.306	0.0162812
749.384	0.0161341
749.462	0.0161913
749.540	0.0161866
749.618	0.0161720
749.696	0.0160699
749.774	0.0160948
749.852	0.0161374
749.931	0.0162498
750.009	0.0161608
750.087	0.0161806
750.165	0.0161247
750.243	0.0162194
750.321	0.0163167
750.399	0.0160763
750.477	0.0162899
750.556	0.0161087
750.634	0.0161471
750.712	0.0161423
750.790	0.0160788
750.868	0.0161980
750.946	0.0160584
751.024	0.0162083
751.102	0.0162248
751.181	0.0161803
751.259	0.0161440
751.337	0.0160814
751.415	0.0160862
751.493	0.0161886
751.571	0.0161660
751.649	0.0160761
751.727	0.0161744
751.806	0.0162413
751.884	0.0161601
751.962	0.0162255
752.040	0.0161480
752.118	0.0161906
752.196	0.0162434
752.274	0.0161397
752.352	0.0161289
752.431	0.0163882
752.509	0.0163055
752.587	0.0162505
752.665	0.0162782
752.743	0.0160363
752.821	0.0162078
752.899	0.0161872
752.977	0.0160949
753.056	0.0163158
753.134	0.0162366
753.212	0.0161301
753.290	0.0161993
753.368	0.0163359
753.446	0.0161839
753.524	0.0161391
753.602	0.0162910
753.681	0.0162528
753.759	0.0161498
753.837	0.0163333
753.915	0.0161881
753.993	0.0161396
754.071	0.0161542
754.149	0.0162072
754.227	0.0161079
754.306	0.0162303
754.384	0.0162425
754.462	0.0160365
754.540	0.0160790
754.618	0.0162471
754.696	0.0160746
754.774	0.0161859
754.852	0.0161507
754.931	0.0161700
755.009	0.0162260
755.087	0.0161400
755.165	0.0159955
755.243	0.0161089
755.321	0.0159885
755.399	0.0161226
755.477	0.0161536
755.556	0.0161967
755.634	0.0160964
755.712	0.0160999
755.790	0.0160520
755.868	0.0161123
755.946	0.0162080
756.024	0.0159956
756.102	0.0159322
756.181	0.0161069
756.259	0.0160637
756.337	0.0161861
756.415	0.0162957
756.493	0.0162119
756.571	0.0162637
756.649	0.0162086
756.727	0.0162675
756.806	0.0163190
756.884	0.0162586
756.962	0.0163115
757.040	0.0162350
757.118	0.0161964
757.196	0.0162595
757.274	0.0162525
757.352	0.0162373
757.431	0.0162498
757.509	0.0161938
757.587	0.0162165
757.665	0.0163515
757.743	0.0161506
757.821	0.0162240
757.899	0.0163409
757.977	0.0161031
758.056	0.0160899
758.134	0.0162957
758.212	0.0162756
758.290	0.0162006
758.368	0.0161704
758.446	0.0163264
758.524	0.0162844
758.602	0.0162003
758.681	0.0162280
758.759	0.0162923
758.837	0.0163238
758.915	0.0162661
758.993	0.0163541
759.071	0.0162966
759.149	0.0160841
759.227	0.0162222
759.306	0.0162083
759.384	0.0162462
759.462	0.0163017
759.540	0.0162383
759.618	0.0161441
759.696	0.0162996
759.774	0.0162757
759.852	0.0162174
759.931	0.0161249
760.009	0.0162565
760.087	0.0162745
760.165	0.0161884
760.243	0.0162803
760.321	0.0162277
760.399	0.0162447
760.477	0.0161803
760.556	0.0162507
760.634	0.0163773
760.712	0.0162841
760.790	0.0161128
760.868	0.0163246
760.946	0.0161675
761.024	0.0163564
761.102	0.0162253
761.181	0.0161962
761.259	0.0161309
761.337	0.0163441
761.415	0.0162586
761.493	0.0161938
761.571	0.0162880
761.649	0.0161607
761.727	0.0162141
761.806	0.0162685
761.884	0.0162228
761.962	0.0162608
762.040	0.0164214
762.118	0.0162264
762.196	0.0162603
762.274	0.0163038
762.352	0.0163297
762.431	0.0162767
762.509	0.0162705
762.587	0.0163302
762.665	0.0161325
762.743	0.0162613
762.821	0.0164110
762.899	0.0163961
762.977	0.0161703
763.056	0.0163232
763.134	0.0163132
763.212	0.0162368
763.290	0.0163492
763.368	0.0164149
763.446	0.0163925
763.524	0.0164194
763.602	0.0163017
763.681	0.0164075
763.759	0.0164303
763.837	0.0164952
763.915	0.0164196
763.993	0.0163038
764.071	0.0164832
764.149	0.0164004
764.227	0.0165516
764.306	0.0162911
764.384	0.0161853
764.462	0.0163614
764.540	0.0164220
764.618	0.0164375
764.696	0.0163837
764.774	0.0162245
764.852	0.0164018
764.931	0.0163486
765.009	0.0162500
765.087	0.0165568
765.165	0.0163734
765.243	0.0164768
765.321	0.0163411
765.399	0.0164415
765.477	0.0164198
765.556	0.0164297
765.634	0.0163700
765.712	0.0164632
765.790	0.0164151
765.868	0.0164636
765.946	0.0163340
766.024	0.0164050
766.102	0.0165000
766.181	0.0163667
766.259	0.0162386
766.337	0.0164931
766.415	0.0163478
766.493	0.0162958
766.571	0.0164934
766.649	0.0163757
766.727	0.0163892
766.806	0.0163663
766.884	0.0163605
766.962	0.0163197
767.040	0.0163804
767.118	0.0163641
767.196	0.0164094
767.274	0.0163316
767.352	0.0163476
767.431	0.0162695
767.509	0.0162812
767.587	0.0162624
767.665	0.0162802
767.743	0.0163905
767.821	0.0163960
767.899	0.0164138
767.977	0.0163931
768.056	0.0163439
768.134	0.0163269
768.212	0.0162435
768.290	0.0163441
768.368	0.0164101
768.446	0.0163705
768.524	0.0163279
768.602	0.0163986
768.681	0.0162991
768.759	0.0164339
768.837	0.0163832
768.915	0.0165083
768.993	0.0163127
769.071	0.0163815
769.149	0.0164608
769.227	0.0163721
769.306	0.0163136
769.384	0.0163505
769.462	0.0164238
769.540	0.0164627
769.618	0.0164264
769.696	0.0163476
769.774	0.0163270
769.852	0.0164548
769.931	0.0164021
770.009	0.0163402
770.087	0.0163907
770.165	0.0164307
770.243	0.0163265
770.321	0.0163118
770.399	0.0164288
770.477	0.0163273
770.556	0.0163375
770.634	0.0162527
770.712	0.0162696
770.790	0.0164260
770.868	0.0163525
770.946	0.0163873
771.024	0.0164231
771.102	0.0163557
771.181	0.0164075
771.259	0.0163705
771.337	0.0162569
771.415	0.0164033
771.493	0.0164827
771.571	0.0164925
771.649	0.0164781
771.727	0.0164487
771.806	0.0162391
771.884	0.0164246
771.962	0.0166769
772.040	0.0165312
772.118	0.0162829
772.196	0.0163308
772.274	0.0163670
772.352	0.0164331
772.431	0.0163855
772.509	0.0164680
772.587	0.0165188
772.665	0.0164577
772.743	0.0164917
772.821	0.0164642
772.899	0.0163355
772.977	0.0163146
773.056	0.0163135
773.134	0.0164384
773.212	0.0164088
773.290	0.0163715
773.368	0.0163663
773.446	0.0162914
773.524	0.0163337
773.602	0.0163026
773.681	0.0164356
773.759	0.0163608
773.837	0.0161323
773.915	0.0163338
773.993	0.0162834
774.071	0.0161573
774.149	0.0161880
774.227	0.0162920
774.306	0.0163580
774.384	0.0161024
774.462	0.0162161
774.540	0.0163956
774.618	0.0162972
774.696	0.0161830
774.774	0.0162241
774.852	0.0162303
774.931	0.0162122
775.009	0.0162788
775.087	0.0161397
775.165	0.0162296
775.243	0.0162331
775.321	0.0161148
775.399	0.0159991
775.477	0.0160603
775.556	0.0161729
775.634	0.0161771
775.712	0.0161073
775.790	0.0162498
775.868	0.0161359
775.946	0.0160989
776.024	0.0161069
776.102	0.0161006
776.181	0.0161504
776.259	0.0161490
776.337	0.0161346
776.415	0.0160785
776.493	0.0161578
776.571	0.0161078
776.649	0.0160725
776.727	0.0161288
776.806	0.0161720
776.884	0.0161338
776.962	0.0160500
777.040	0.0160805
777.118	0.0161560
777.196	0.0161246
777.274	0.0160330
777.352	0.0161180
777.431	0.0160657
777.509	0.0161107
777.587	0.0162311
777.665	0.0162058
777.743	0.0162291
777.821	0.0161356
777.899	0.0162217
777.977	0.0161913
778.056	0.0162527
778.134	0.0161768
778.212	0.0161815
778.290	0.0161356
778.368	0.0161277
778.446	0.0161000
778.524	0.0161253
778.602	0.0161337
778.681	0.0161798
778.759	0.0160992
778.837	0.0160788
778.915	0.0162843
778.993	0.0161325
779.071	0.0162065
779.149	0.0160250
779.227	0.0161308
779.306	0.0161738
779.384	0.0160581
779.462	0.0161489
779.540	0.0161643
779.618	0.0162144
779.696	0.0162931
779.774	0.0160403
779.852	0.0160744
779.931	0.0160782
780.009	0.0160905
780.087	0.0162229
780.165	0.0161740
780.243	0.0161887
780.321	0.0161768
780.399	0.0161662
780.477	0.0161844
780.556	0.0162529
780.634	0.0163261
780.712	0.0163012
780.790	0.0162259
780.868	0.0163301
780.946	0.0163495
781.024	0.0164727
781.102	0.0163742
781.181	0.0163489
781.259	0.0163055
781.337	0.0164189
781.415	0.0164055
781.493	0.0162389
781.571	0.0163283
781.649	0.0164119
781.727	0.0163184
781.806	0.0163718
781.884	0.0162947
781.962	0.0162058
782.040	0.0163580
782.118	0.0164082
782.196	0.0162981
782.274	0.0162143
782.352	0.0162650
782.431	0.0163999
782.509	0.0163045
782.587	0.0161635
782.665	0.0163725
782.743	0.0163195
782.821	0.0162917
782.899	0.0163123
782.977	0.0161722
783.056	0.0162056
783.134	0.0162787
783.212	0.0163171
783.290	0.0163768
783.368	0.0162223
783.446	0.0162370
783.524	0.0162169
783.602	0.0161967
783.681	0.0160413
783.759	0.0162720
783.837	0.0162719
783.915	0.0161414
783.993	0.0161578
784.071	0.0163074
784.149	0.0160821
784.227	0.0163443
784.306	0.0162659
784.384	0.0163593
784.462	0.0162637
784.540	0.0162350
784.618	0.0163583
784.696	0.0162965
784.774	0.0162309
784.852	0.0163612
784.931	0.0163438
785.009	0.0164124
785.087	0.0163592
785.165	0.0162621
785.243	0.0163075
785.321	0.0163540
785.399	0.0163525
785.477	0.0163685
785.556	0.0165228
785.634	0.0163010
785.712	0.0162500
785.790	0.0163235
785.868	0.0163002
785.946	0.0163018
786.024	0.0163365
786.102	0.0164906
786.181	0.0164791
786.259	0.0163457
786.337	0.0164048
786.415	0.0164499
786.493	0.0163921
786.571	0.0165072
786.649	0.0165169
786.727	0.0165080
786.806	0.0163409
786.884	0.0164603
786.962	0.0163768
787.040	0.0165147
787.118	0.0165048
787.196	0.0164754
787.274	0.0166320
787.352	0.0164773
787.431	0.0163499
787.509	0.0165411
787.587	0.0163445
787.665	0.0164536
787.743	0.0165066
787.821	0.0164024
787.899	0.0162421
787.977	0.0163003
788.056	0.0164497
788.134	0.0162045
788.212	0.0164129
788.290	0.0163287
788.368	0.0163634
788.446	0.0162417
788.524	0.0163676
788.602	0.0163809
788.681	0.0163364
788.759	0.0162794
788.837	0.0162679
788.915	0.0163383
788.993	0.0163677
789.071	0.0163606
789.149	0.0163950
789.227	0.0161879
789.306	0.0162298
789.384	0.0162631
789.462	0.0161894
789.540	0.0162202
789.618	0.0163110
789.696	0.0163507
789.774	0.0162139
789.852	0.0161639
789.931	0.0162514
790.009	0.0160549
790.087	0.0163271
790.165	0.0163340
790.243	0.0161154
790.321	0.0162086
790.399	0.0162199
790.477	0.0162831
790.556	0.0162149
790.634	0.0161464
790.712	0.0162124
790.790	0.0161482
790.868	0.0161517
790.946	0.0163911
791.024	0.0163479
791.102	0.0162508
791.181	0.0162537
791.259	0.0163563
791.337	0.0163438
791.415	0.0162855
791.493	0.0162544
791.571	0.0162288
791.649	0.0162573
791.727	0.0163381
791.806	0.0164165
791.884	0.0163637
791.962	0.0162343
792.040	0.0162532
792.118	0.0162234
792.196	0.0161755
792.274	0.0162296
792.352	0.0163326
792.431	0.0162779
792.509	0.0161678
792.587	0.0162277
792.665	0.0163145
792.743	0.0161858
792.821	0.0163615
792.899	0.0163998
792.977	0.0163953
793.056	0.0164759
793.134	0.0163868
793.212	0.0162555
793.290	0.0163192
793.368	0.0163400
793.446	0.0164323
793.524	0.0164215
793.602	0.0164305
793.681	0.0163139
793.759	0.0163398
793.837	0.0163132
793.915	0.0163152
793.993	0.0163070
794.071	0.0163351
794.149	0.0162456
794.227	0.0162822
794.306	0.0163927
794.384	0.0163075
794.462	0.0162785
794.540	0.0162976
794.618	0.0164077
794.696	0.0163846
794.774	0.0163069
794.852	0.0163119
794.931	0.0163720
795.009	0.0163241
795.087	0.0164559
795.165	0.0161604
795.243	0.0162995
795.321	0.0163256
795.399	0.0163354
795.477	0.0163808
795.556	0.0163974
795.634	0.0164284
795.712	0.0163815
795.790	0.0164944
795.868	0.0163848
795.946	0.0163378
796.024	0.0164719
796.102	0.0163919
796.181	0.0163596
796.259	0.0162588
796.337	0.0163418
796.415	0.0163860
796.493	0.0163776
796.571	0.0162765
796.649	0.0163446
796.727	0.0161317
796.806	0.0161466
796.884	0.0162290
796.962	0.0163680
797.040	0.0161839
797.118	0.0162135
797.196	0.0164108
797.274	0.0161823
797.352	0.0162727
797.431	0.0162239
797.509	0.0162461
797.587	0.0162232
797.665	0.0163063
797.743	0.0162006
797.821	0.0162865
797.899	0.0161217
797.977	0.0161842
798.056	0.0160948
798.134	0.0162035
798.212	0.0161650
798.290	0.0161298
798.368	0.0162305
798.446	0.0162516
798.524	0.0163844
798.602	0.0161931
798.681	0.0160252
798.759	0.0163202
798.837	0.0162351
798.915	0.0161610
798.993	0.0161504
799.071	0.0161875
799.149	0.0162867
799.227	0.0161150
799.306	0.0162252
799.384	0.0163344
799.462	0.0163103
799.540	0.0162280
799.618	0.0162747
799.696	0.0162038
799.774	0.0160605
799.852	0.0162733
799.931	0.0161696
800.009	0.0162801
800.087	0.0161871
800.165	0.0161887
800.243	0.0162160
800.321	0.0162479
800.399	0.0163523
800.477	0.0162016
800.556	0.0162217
800.634	0.0161314
800.712	0.0162360
800.790	0.0161831
800.868	0.0160957
800.946	0.0163187
801.024	0.0162217
801.102	0.0162148
801.181	0.0161664
801.259	0.0162230
801.337	0.0162524
801.415	0.0162038
801.493	0.0162040
801.571	0.0162325
801.649	0.0161829
801.727	0.0162489
801.806	0.0162276
801.884	0.0163420
801.962	0.0162379
802.040	0.0160668
802.118	0.0162543
802.196	0.0163264
802.274	0.0160700
802.352	0.0162144
802.431	0.0163128
802.509	0.0162318
802.587	0.0161979
802.665	0.0162765
802.743	0.0163564
802.821	0.0161647
802.899	0.0162306
802.977	0.0161742
803.056	0.0162134
803.134	0.0162109
803.212	0.0161932
803.290	0.0161028
803.368	0.0162410
803.446	0.0162099
803.524	0.0162698
803.602	0.0162816
803.681	0.0161380
803.759	0.0160944
803.837	0.0161694
803.915	0.0164548
803.993	0.0163358
804.071	0.0162726
804.149	0.0162801
804.227	0.0162603
804.306	0.0162749
804.384	0.0162619
804.462	0.0162360
804.540	0.0163356
804.618	0.0163271
804.696	0.0162965
804.774	0.0162918
804.852	0.0163374
804.931	0.0162425
805.009	0.0163068
805.087	0.0162347
805.165	0.0163304
805.243	0.0162524
805.321	0.0163228
805.399	0.0163332
805.477	0.0162933
805.556	0.0161812
805.634	0.0163362
805.712	0.0162791
805.790	0.0164027
805.868	0.0163282
805.946	0.0163275
806.024	0.0161658
806.102	0.0163557
806.181	0.0164098
806.259	0.0162778
806.337	0.0162328
806.415	0.0162824
806.493	0.0163036
806.571	0.0163765
806.649	0.0162667
806.727	0.0161885
806.806	0.0162840
806.884	0.0163650
806.962	0.0161443
807.040	0.0162372
807.118	0.0162536
807.196	0.0161176
807.274	0.0162354
807.352	0.0162025
807.431	0.0162466
807.509	0.0160500
807.587	0.0161486
807.665	0.0162463
807.743	0.0163161
807.821	0.0161527
807.899	0.0162604
807.977	0.0162108
808.056	0.0162583
808.134	0.0161682
808.212	0.0161834
808.290	0.0163769
808.368	0.0162875
808.446	0.0163184
808.524	0.0163200
808.602	0.0163612
808.681	0.0162482
808.759	0.0164930
808.837	0.0163196
808.915	0.0161419
808.993	0.0163873
809.071	0.0162613
809.149	0.0162080
809.227	0.0164301
809.306	0.0163136
809.384	0.0161259
809.462	0.0162849
809.540	0.0163308
809.618	0.0162871
809.696	0.0161865
809.774	0.0162684
809.852	0.0162082
809.931	0.0163063
810.009	0.0163024
810.087	0.0162151
810.165	0.0161446
810.243	0.0163629
810.321	0.0162531
810.399	0.0163592
810.477	0.0162672
810.556	0.0162041
810.634	0.0162675
810.712	0.0162825
810.790	0.0161743
810.868	0.0161921
810.946	0.0162177
811.024	0.0160339
811.102	0.0162244
811.181	0.0162025
811.259	0.0162560
811.337	0.0161490
811.415	0.0162004
811.493	0.0162881
811.571	0.0161829
811.649	0.0161459
811.727	0.0162160
811.806	0.0160844
811.884	0.0161510
811.962	0.0162684
812.040	0.0161497
812.118	0.0161724
812.196	0.0160859
812.274	0.0160965
812.352	0.0159951
812.431	0.0161877
812.509	0.0161940
812.587	0.0161415
812.665	0.0161207
812.743	0.0161722
812.821	0.0161712
812.899	0.0162116
812.977	0.0160307
813.056	0.0160442
813.134	0.0161748
813.212	0.0161462
813.290	0.0162096
813.368	0.0163371
813.446	0.0161507
813.524	0.0161560
813.602	0.0161383
813.681	0.0161700
813.759	0.0161925
813.837	0.0161440
813.915	0.0162543
813.993	0.0162109
814.071	0.0161620
814.149	0.0162249
814.227	0.0163274
814.306	0.0162508
814.384	0.0163606
814.462	0.0161771
814.540	0.0162325
814.618	0.0163751
814.696	0.0164948
814.774	0.0162281
814.852	0.0162512
814.931	0.0162338
815.009	0.0162258
815.087	0.0163726
815.165	0.0163836
815.243	0.0163076
815.321	0.0162020
815.399	0.0162725
815.477	0.0162971
815.556	0.0163554
815.634	0.0162825
815.712	0.0161978
815.790	0.0161464
815.868	0.0161954
815.946	0.0163689
816.024	0.0163947
816.102	0.0162607
816.181	0.0162183
816.259	0.0161965
816.337	0.0163258
816.415	0.0162785
816.493	0.0163976
816.571	0.0162903
816.649	0.0162513
816.727	0.0164314
816.806	0.0163685
816.884	0.0163658
816.962	0.0162901
817.040	0.0163424
817.118	0.0161961
817.196	0.0162746
817.274	0.0162063
817.352	0.0163813
817.431	0.0163167
817.509	0.0162814
817.587	0.0163107
817.665	0.0164058
817.743	0.0163682
817.821	0.0162804
817.899	0.0163532
817.977	0.0163681
818.056	0.0162831
818.134	0.0162820
818.212	0.0161309
818.290	0.0165047
818.368	0.0162976
818.446	0.0162577
818.524	0.0163494
818.602	0.0163376
818.681	0.0162177
818.759	0.0164279
818.837	0.0162907
818.915	0.0162843
818.993	0.0162149
819.071	0.0162968
819.149	0.0162293
819.227	0.0161954
819.306	0.0162129
819.384	0.0161739
819.462	0.0162664
819.540	0.0162072
819.618	0.0162730
819.696	0.0163776
819.774	0.0162619
819.852	0.0162188
819.931	0.0161393
820.009	0.0163055
820.087	0.0162207
820.165	0.0162361
820.243	0.0164320
820.321	0.0162349
820.399	0.0162288
820.477	0.0162048
820.556	0.0161330
820.634	0.0162539
820.712	0.0162179
820.790	0.0162708
820.868	0.0162989
820.946	0.0163251
821.024	0.0162286
821.102	0.0161379
821.181	0.0162802
821.259	0.0161780
821.337	0.0162742
821.415	0.0162981
821.493	0.0161878
821.571	0.0162526
821.649	0.0163063
821.727	0.0162759
821.806	0.0162304
821.884	0.0162576
821.962	0.0162733
822.040	0.0163172
822.118	0.0163585
822.196	0.0163570
822.274	0.0163573
822.352	0.0162438
822.431	0.0163463
822.509	0.0164778
822.587	0.0163702
822.665	0.0164818
822.743	0.0164849
822.821	0.0163108
822.899	0.0165250
822.977	0.0163515
823.056	0.0162550
823.134	0.0164763
823.212	0.0163019
823.290	0.0163557
823.368	0.0163882
823.446	0.0163960
823.524	0.0163921
823.602	0.0164604
823.681	0.0164571
823.759	0.0164910
823.837	0.0164237
823.915	0.0163191
823.993	0.0163548
824.071	0.0163695
824.149	0.0163768
824.227	0.0162444
824.306	0.0164072
824.384	0.0163565
824.462	0.0161959
824.540	0.0163569
824.618	0.0164174
824.696	0.0162708
824.774	0.0163609
824.852	0.0164558
824.931	0.0163802
825.009	0.0162986
825.087	0.0164182
825.165	0.0162599
825.243	0.0164623
825.321	0.0164404
825.399	0.0163792
825.477	0.0163639
825.556	0.0161887
825.634	0.0164497
825.712	0.0165299
825.790	0.0162434
825.868	0.0162721
825.946	0.0162914
826.024	0.0162389
826.102	0.0163866
826.181	0.0163400
826.259	0.0161667
826.337	0.0161705
826.415	0.0161928
826.493	0.0163280
826.571	0.0161478
826.649	0.0161349
826.727	0.0162366
826.806	0.0162718
826.884	0.0162132
826.962	0.0161176
827.040	0.0162857
827.118	0.0161189
827.196	0.0161487
827.274	0.0160962
827.352	0.0160586
827.431	0.0160859
827.509	0.0162933
827.587	0.0160693
827.665	0.0160096
827.743	0.0161763
827.821	0.0160118
827.899	0.0160670
827.977	0.0160228
828.056	0.0160437
828.134	0.0160574
828.212	0.0160317
828.290	0.0159491
828.368	0.0160201
828.446	0.0160935
828.524	0.0160520
828.602	0.0161176
828.681	0.0160883
828.759	0.0160558
828.837	0.0161552
828.915	0.0161938
828.993	0.0160653
829.071	0.0160571
829.149	0.0161711
829.227	0.0160002
829.306	0.0160377
829.384	0.0161093
829.462	0.0160630
829.540	0.0160312
829.618	0.0160926
829.696	0.0161426
829.774	0.0162743
829.852	0.0161234
829.931	0.0161072
830.009	0.0161349
830.087	0.0161197
830.165	0.0161535
830.243	0.0160956
830.321	0.0161845
830.399	0.0162211
830.477	0.0160404
830.556	0.0161975
830.634	0.0162843
830.712	0.0162344
830.790	0.0161734
830.868	0.0162694
830.946	0.0163934
831.024	0.0163438
831.102	0.0161502
831.181	0.0162780
831.259	0.0162605
831.337	0.0162670
831.415	0.0163263
831.493	0.0162902
831.571	0.0163725
831.649	0.0164005
831.727	0.0162088
831.806	0.0162949
831.884	0.0163823
831.962	0.0162843
832.040	0.0162547
832.118	0.0163293
832.196	0.0161413
832.274	0.0162624
832.352	0.0162125
832.431	0.0163026
832.509	0.0162704
832.587	0.0163146
832.665	0.0162826
832.743	0.0161482
832.821	0.0161459
832.899	0.0163570
832.977	0.0163422
833.056	0.0162186
833.134	0.0162325
833.212	0.0162244
833.290	0.0163161
833.368	0.0162632
833.446	0.0163030
833.524	0.0163154
833.602	0.0162042
833.681	0.0162537
833.759	0.0163003
833.837	0.0161993
833.915	0.0162344
833.993	0.0161781
834.071	0.0162303
834.149	0.0162730
834.227	0.0163767
834.306	0.0162653
834.384	0.0161526
834.462	0.0163206
834.540	0.0162585
834.618	0.0163179
834.696	0.0162278
834.774	0.0163550
834.852	0.0163554
834.931	0.0163365
835.009	0.0162360
835.087	0.0162942
835.165	0.0161864
835.243	0.0163332
835.321	0.0162739
835.399	0.0162448
835.477	0.0162631
835.556	0.0162677
835.634	0.0161612
835.712	0.0162415
835.790	0.0162706
835.868	0.0162531
835.946	0.0162425
836.024	0.0161988
836.102	0.0163216
836.181	0.0162012
836.259	0.0162897
836.337	0.0162417
836.415	0.0162540
836.493	0.0162943
836.571	0.0162453
836.649	0.0161510
836.727	0.0162386
836.806	0.0163611
836.884	0.0162643
836.962	0.0164391
837.040	0.0162933
837.118	0.0163603
837.196	0.0161596
837.274	0.0162994
837.352	0.0163761
837.431	0.0163722
837.509	0.0162891
837.587	0.0162532
837.665	0.0162549
837.743	0.0164840
837.821	0.0163561
837.899	0.0162872
837.977	0.0163297
838.056	0.0163378
838.134	0.0161872
838.212	0.0162701
838.290	0.0164588
838.368	0.0162229
838.446	0.0163268
838.524	0.0164107
838.602	0.0162632
838.681	0.0163328
838.759	0.0162862
838.837	0.0161890
838.915	0.0162953
838.993	0.0164765
839.071	0.0163765
839.149	0.0163380
839.227	0.0162710
839.306	0.0162823
839.384	0.0162811
839.462	0.0162440
839.540	0.0164051
839.618	0.0164770
839.696	0.0163172
839.774	0.0163424
839.852	0.0164555
839.931	0.0164466
840.009	0.0163449
840.087	0.0163251
840.165	0.0162599
840.243	0.0163956
840.321	0.0164157
840.399	0.0164342
840.477	0.0164025
840.556	0.0164065
840.634	0.0164964
840.712	0.0166105
840.790	0.0165303
840.868	0.0163929
840.946	0.0163445
841.024	0.0162986
841.102	0.0163934
841.181	0.0163850
841.259	0.0165546
841.337	0.0163722
841.415	0.0163002
841.493	0.0162550
841.571	0.0164052
841.649	0.0164094
841.727	0.0163740
841.806	0.0163965
841.884	0.0162061
841.962	0.0163705
842.040	0.0162667
842.118	0.0163380
842.196	0.0162500
842.274	0.0164146
842.352	0.0163584
842.431	0.0161794
842.509	0.0162826
842.587	0.0163016
842.665	0.0163948
842.743	0.0163741
842.821	0.0164183
842.899	0.0164536
842.977	0.0163649
843.056	0.0163068
843.134	0.0163193
843.212	0.0163571
843.290	0.0162183
843.368	0.0161829
843.446	0.0162315
843.524	0.0163022
843.602	0.0163280
843.681	0.0161742
843.759	0.0161933
843.837	0.0163446
843.915	0.0163136
843.993	0.0160990
844.071	0.0161661
844.149	0.0161542
844.227	0.0162445
844.306	0.0162582
844.384	0.0161832
844.462	0.0161480
844.540	0.0163372
844.618	0.0162283
844.696	0.0162440
844.774	0.0161502
844.852	0.0161475
844.931	0.0161764
845.009	0.0163171
845.087	0.0164090
845.165	0.0162838
845.243	0.0162536
845.321	0.0162817
845.399	0.0163337
845.477	0.0163614
845.556	0.0164044
845.634	0.0163514
845.712	0.0164855
845.790	0.0163012
845.868	0.0163268
845.946	0.0165155
846.024	0.0165883
846.102	0.0163566
846.181	0.0164356
846.259	0.0164745
846.337	0.0164548
846.415	0.0165287
846.493	0.0165196
846.571	0.0164075
846.649	0.0164242
846.727	0.0164103
846.806	0.0164254
846.884	0.0163709
846.962	0.0163726
847.040	0.0163451
847.118	0.0164017
847.196	0.0162868
847.274	0.0163554
847.352	0.0161822
847.431	0.0162079
847.509	0.0162440
847.587	0.0162641
847.665	0.0162784
847.743	0.0163367
847.821	0.0163569
847.899	0.0163371
847.977	0.0161604
848.056	0.0161692
848.134	0.0163426
848.212	0.0163462
848.290	0.0162371
848.368	0.0162401
848.446	0.0163419
848.524	0.0162226
848.602	0.0163152
848.681	0.0162584
848.759	0.0162674
848.837	0.0162834
848.915	0.0163240
848.993	0.0162996
849.071	0.0161522
849.149	0.0162572
849.227	0.0162591
849.306	0.0161998
849.384	0.0162585
849.462	0.0162953
849.540	0.0162527
849.618	0.0162878
849.696	0.0161699
849.774	0.0163354
849.852	0.0162745
849.931	0.0162463
850.009	0.0163780
850.087	0.0162070
850.165	0.0162672
850.243	0.0162305
850.321	0.0161961
850.399	0.0162440
850.477	0.0163446
850.556	0.0162748
850.634	0.0162960
850.712	0.0162906
850.790	0.0162019
850.868	0.0163409
850.946	0.0163679
851.024	0.0163055
851.102	0.0162160
851.181	0.0163213
851.259	0.0161978
851.337	0.0161978
851.415	0.0162591
851.493	0.0162778
851.571	0.0163251
851.649	0.0162054
851.727	0.0162304
851.806	0.0162819
851.884	0.0161231
851.962	0.0162032
852.040	0.0162908
852.118	0.0161079
852.196	0.0162728
852.274	0.0163226
852.352	0.0161656
852.431	0.0162254
852.509	0.0163490
852.587	0.0160876
852.665	0.0162693
852.743	0.0163265
852.821	0.0163730
852.899	0.0162866
852.977	0.0162077
853.056	0.0163382
853.134	0.0163885
853.212	0.0162305
853.290	0.0163027
853.368	0.0162460
853.446	0.0163593
853.524	0.0164010
853.602	0.0163898
853.681	0.0163450
853.759	0.0163728
853.837	0.0163300
853.915	0.0164745
853.993	0.0163525
854.071	0.0163854
854.149	0.0163888
854.227	0.0163923
854.306	0.0163985
854.384	0.0163092
854.462	0.0163607
854.540	0.0164686
854.618	0.0161816
854.696	0.0162024
854.774	0.0164333
854.852	0.0164413
854.931	0.0164181
855.009	0.0162881
855.087	0.0162332
855.165	0.0162497
855.243	0.0163039
855.321	0.0162042
855.399	0.0163816
855.477	0.0163913
855.556	0.0163998
855.634	0.0162124
855.712	0.0162784
855.790	0.0162997
855.868	0.0162044
855.946	0.0162785
856.024	0.0162805
856.102	0.0162745
856.181	0.0162271
856.259	0.0162154
856.337	0.0163461
856.415	0.0162856
856.493	0.0163438
856.571	0.0161916
856.649	0.0161564
856.727	0.0162347
856.806	0.0161887
856.884	0.0162877
856.962	0.0162447
857.040	0.0162656
857.118	0.0162008
857.196	0.0161594
857.274	0.0162784
857.352	0.0163206
857.431	0.0162948
857.509	0.0163331
857.587	0.0162218
857.665	0.0161860
857.743	0.0163896
857.821	0.0163053
857.899	0.0162259
857.977	0.0162779
858.056	0.0162299
858.134	0.0163499
858.212	0.0163412
858.290	0.0162116
858.368	0.0162479
858.446	0.0163692
858.524	0.0162570
858.602	0.0162230
858.681	0.0163524
858.759	0.0162410
858.837	0.0163175
858.915	0.0163637
858.993	0.0162826
859.071	0.0161862
859.149	0.0162408
859.227	0.0161952
859.306	0.0161835
859.384	0.0162231
859.462	0.0163620
859.540	0.0161974
859.618	0.0161802
859.696	0.0162689
859.774	0.0162647
859.852	0.0163374
859.931	0.0162833
860.009	0.0165411
860.087	0.0163719
860.165	0.0161919
860.243	0.0162270
860.321	0.0163844
860.399	0.0162035
860.477	0.0162737
860.556	0.0163838
860.634	0.0162580
860.712	0.0162083
860.790	0.0163651
860.868	0.0161486
860.946	0.0163837
861.024	0.0162674
861.102	0.0163129
861.181	0.0162642
861.259	0.0161947
861.337	0.0162763
861.415	0.0161643
861.493	0.0164232
861.571	0.0162650
861.649	0.0161443
861.727	0.0163097
861.806	0.0163321
861.884	0.0162415
861.962	0.0161948
862.040	0.0162447
862.118	0.0162889
862.196	0.0163879
862.274	0.0163493
862.352	0.0163182
862.431	0.0163839
862.509	0.0163746
862.587	0.0163161
862.665	0.0161948
862.743	0.0163108
862.821	0.0162590
862.899	0.0162759
862.977	0.0163401
863.056	0.0163162
863.134	0.0163130
863.212	0.0161922
863.290	0.0163895
863.368	0.0163953
863.446	0.0162732
863.524	0.0162597
863.602	0.0163027
863.681	0.0162217
863.759	0.0162624
863.837	0.0164840
863.915	0.0162233
863.993	0.0162729
864.071	0.0164708
864.149	0.0162957
864.227	0.0161742
864.306	0.0164161
864.384	0.0162985
864.462	0.0162888
864.540	0.0163474
864.618	0.0164265
864.696	0.0164254
864.774	0.0163361
864.852	0.0162799
864.931	0.0164853
865.009	0.0163721
865.087	0.0163567
865.165	0.0163764
865.243	0.0162719
865.321	0.0164584
865.399	0.0163480
865.477	0.0162738
865.556	0.0164471
865.634	0.0161702
865.712	0.0161650
865.790	0.0163010
865.868	0.0162267
865.946	0.0162959
866.024	0.0163690
866.102	0.0162721
866.181	0.0162514
866.259	0.0164417
866.337	0.0161329
866.415	0.0161525
866.493	0.0162069
866.571	0.0163429
866.649	0.0162908
866.727	0.0163177
866.806	0.0162549
866.884	0.0163077
866.962	0.0163026
867.040	0.0162971
867.118	0.0162434
867.196	0.0162626
867.274	0.0162350
867.352	0.0162361
867.431	0.0161853
867.509	0.0162720
867.587	0.0161922
867.665	0.0162456
867.743	0.0163528
867.821	0.0162604
867.899	0.0163512
867.977	0.0164188
868.056	0.0162139
868.134	0.0162605
868.212	0.0162874
868.290	0.0162384
868.368	0.0162967
868.446	0.0163280
868.524	0.0161996
868.602	0.0162888
868.681	0.0163979
868.759	0.0163110
868.837	0.0162410
868.915	0.0163396
868.993	0.0163653
869.071	0.0162934
869.149	0.0164358
869.227	0.0162392
869.306	0.0162748
869.384	0.0164198
869.462	0.0164012
869.540	0.0162206
869.618	0.0163263
869.696	0.0163330
869.774	0.0162727
869.852	0.0163867
869.931	0.0163233
870.009	0.0164478
870.087	0.0162447
870.165	0.0163471
870.243	0.0161860
870.321	0.0162636
870.399	0.0162805
870.477	0.0163596
870.556	0.0161920
870.634	0.0163035
870.712	0.0165479
870.790	0.0163900
870.868	0.0163467
870.946	0.0163668
871.024	0.0161935
871.102	0.0164288
871.181	0.0165246
871.259	0.0164000
871.337	0.0163862
871.415	0.0165648
871.493	0.0163419
871.571	0.0164480
871.649	0.0165106
871.727	0.0163980
871.806	0.0164838
871.884	0.0163396
871.962	0.0164091
872.040	0.0163406
872.118	0.0164721
872.196	0.0163692
872.274	0.0163471
872.352	0.0164954
872.431	0.0164613
872.509	0.0164101
872.587	0.0162810
872.665	0.0163559
872.743	0.0164071
872.821	0.0163504
872.899	0.0163250
872.977	0.0164396
873.056	0.0164561
873.134	0.0162774
873.212	0.0163980
873.290	0.0162785
873.368	0.0164385
873.446	0.0164433
873.524	0.0163699
873.602	0.0162913
873.681	0.0163620
873.759	0.0164031
873.837	0.0163981
873.915	0.0162042
873.993	0.0163255
874.071	0.0164030
874.149	0.0163654
874.227	0.0163297
874.306	0.0164158
874.384	0.0165094
874.462	0.0164109
874.540	0.0164060
874.618	0.0163134
874.696	0.0163815
874.774	0.0164566
874.852	0.0164091
874.931	0.0164594
875.009	0.0164880
875.087	0.0164538
875.165	0.0165723
875.243	0.0164825
875.321	0.0164484
875.399	0.0164580
875.477	0.0165415
875.556	0.0164458
875.634	0.0163485
875.712	0.0164417
875.790	0.0164636
875.868	0.0165026
875.946	0.0164280
876.024	0.0163499
876.102	0.0164877
876.181	0.0164362
876.259	0.0163673
876.337	0.0163390
876.415	0.0164967
876.493	0.0163528
876.571	0.0161829
876.649	0.0162747
876.727	0.0163319
876.806	0.0163595
876.884	0.0163055
876.962	0.0162840
877.040	0.0162990
877.118	0.0163231
877.196	0.0164233
877.274	0.0162332
877.352	0.0162432
877.431	0.0162827
877.509	0.0162960
877.587	0.0162554
877.665	0.0162979
877.743	0.0163808
877.821	0.0163246
877.899	0.0162530
877.977	0.0161935
878.056	0.0163065
878.134	0.0164601
878.212	0.0163254
878.290	0.0163196
878.368	0.0161949
878.446	0.0162280
878.524	0.0161771
878.602	0.0164123
878.681	0.0164240
878.759	0.0163315
878.837	0.0163113
878.915	0.0162200
878.993	0.0165514
879.071	0.0163298
879.149	0.0163067
879.227	0.0163280
879.306	0.0164260
879.384	0.0161340
879.462	0.0161165
879.540	0.0162770
879.618	0.0163271
879.696	0.0161880
879.774	0.0162678
879.852	0.0162817
879.931	0.0161955
880.009	0.0163306
880.087	0.0161279
880.165	0.0162610
880.243	0.0163645
880.321	0.0163171
880.399	0.0161157
880.477	0.0162277
880.556	0.0163219
880.634	0.0162193
880.712	0.0161675
880.790	0.0161749
880.868	0.0161706
880.946	0.0163873
881.024	0.0163175
881.102	0.0162348
881.181	0.0161072
881.259	0.0161561
881.337	0.0161428
881.415	0.0160321
881.493	0.0162158
881.571	0.0162391
881.649	0.0162574
881.727	0.0160771
881.806	0.0161597
881.884	0.0161930
881.962	0.0161392
882.040	0.0161045
882.118	0.0161575
882.196	0.0162574
882.274	0.0160220
882.352	0.0161393
882.431	0.0161206
882.509	0.0161921
882.587	0.0161633
882.665	0.0160853
882.743	0.0161170
882.821	0.0159936
882.899	0.0160422
882.977	0.0160785
883.056	0.0162316
883.134	0.0161084
883.212	0.0160117
883.290	0.0161344
883.368	0.0162916
883.446	0.0161451
883.524	0.0161238
883.602	0.0162202
883.681	0.0162051
883.759	0.0162074
883.837	0.0161646
883.915	0.0162597
883.993	0.0162137
884.071	0.0161262
884.149	0.0163517
884.227	0.0162643
884.306	0.0163273
884.384	0.0163555
884.462	0.0161877
884.540	0.0163439
884.618	0.0164656
884.696	0.0163908
884.774	0.0162923
884.852	0.0162678
884.931	0.0163197
885.009	0.0162039
885.087	0.0163650
885.165	0.0162032
885.243	0.0161938
885.321	0.0163109
885.399	0.0162427
885.477	0.0162589
885.556	0.0162807
885.634	0.0163988
885.712	0.0162991
885.790	0.0163846
885.868	0.0162843
885.946	0.0163309
886.024	0.0162698
886.102	0.0163876
886.181	0.0163629
886.259	0.0163995
886.337	0.0161974
886.415	0.0163553
886.493	0.0162682
886.571	0.0163436
886.649	0.0163178
886.727	0.0164423
886.806	0.0163064
886.884	0.0162260
886.962	0.0163223
887.040	0.0162196
887.118	0.0163517
887.196	0.0162840
887.274	0.0162701
887.352	0.0164393
887.431	0.0162569
887.509	0.0163474
887.587	0.0165067
887.665	0.0164352
887.743	0.0163060
887.821	0.0163040
887.899	0.0163807
887.977	0.0163641
888.056	0.0163747
888.134	0.0162599
888.212	0.0163268
888.290	0.0164348
888.368	0.0164164
888.446	0.0162672
888.524	0.0162878
888.602	0.0164376
888.681	0.0163167
888.759	0.0163691
888.837	0.0164535
888.915	0.0164391
888.993	0.0163099
889.071	0.0163782
889.149	0.0163971
889.227	0.0163704
889.306	0.0162973
889.384	0.0164146
889.462	0.0164127
889.540	0.0163421
889.618	0.0164462
889.696	0.0164471
889.774	0.0162887
889.852	0.0164473
889.931	0.0164617
890.009	0.0164808
890.087	0.0164162
890.165	0.0164291
890.243	0.0164323
890.321	0.0162764
890.399	0.0164010
890.477	0.0164704
890.556	0.0162621
890.634	0.0164006
890.712	0.0163362
890.790	0.0162339
890.868	0.0161980
890.946	0.0162617
891.024	0.0163025
891.102	0.0163054
891.181	0.0162638
891.259	0.0162441
891.337	0.0162043
891.415	0.0161456
891.493	0.0162882
891.571	0.0161861
891.649	0.0162214
891.727	0.0163456
891.806	0.0162041
891.884	0.0163216
891.962	0.0162497
892.040	0.0161826
892.118	0.0163806
892.196	0.0162913
892.274	0.0161879
892.352	0.0162675
892.431	0.0162762
892.509	0.0164726
892.587	0.0162865
892.665	0.0163216
892.743	0.0163115
892.821	0.0163567
892.899	0.0162560
892.977	0.0163063
893.056	0.0163970
893.134	0.0163021
893.212	0.0162935
893.290	0.0160921
893.368	0.0162970
893.446	0.0162352
893.524	0.0164175
893.602	0.0161654
893.681	0.0161734
893.759	0.0161172
893.837	0.0162445
893.915	0.0163176
893.993	0.0162666
894.071	0.0161178
894.149	0.0160997
894.227	0.0161193
894.306	0.0161723
894.384	0.0162552
894.462	0.0161983
894.540	0.0161385
894.618	0.0161731
894.696	0.0162543
894.774	0.0162244
894.852	0.0162450
894.931	0.0160175
895.009	0.0163145
895.087	0.0162411
895.165	0.0162339
895.243	0.0161969
895.321	0.0163247
895.399	0.0161260
895.477	0.0161011
895.556	0.0162399
895.634	0.0161887
895.712	0.0163519
895.790	0.0162006
895.868	0.0163530
895.946	0.0162692
896.024	0.0161810
896.102	0.0162810
896.181	0.0163231
896.259	0.0164188
896.337	0.0163249
896.415	0.0162602
896.493	0.0162945
896.571	0.0163455
896.649	0.0162361
896.727	0.0162551
896.806	0.0162766
896.884	0.0162429
896.962	0.0163440
897.040	0.0162729
897.118	0.0163546
897.196	0.0163524
897.274	0.0162446
897.352	0.0163124
897.431	0.0162668
897.509	0.0162686
897.587	0.0162873
897.665	0.0162895
897.743	0.0163010
897.821	0.0161766
897.899	0.0162537
897.977	0.0162943
898.056	0.0163346
898.134	0.0162779
898.212	0.0162712
898.290	0.0163505
898.368	0.0163100
898.446	0.0162136
898.524	0.0162615
898.602	0.0163030
898.681	0.0162193
898.759	0.0162720
898.837	0.0162491
898.915	0.0162772
898.993	0.0162215
899.071	0.0162319
899.149	0.0162247
899.227	0.0162645
899.306	0.0163449
899.384	0.0162994
899.462	0.0162231
899.540	0.0161016
899.618	0.0161388
899.696	0.0160998
899.774	0.0160853
899.852	0.0161275
899.931	0.0159733
900.009	0.0161856
900.087	0.0162066
900.165	0.0161459
900.243	0.0161948
900.321	0.0160207
900.399	0.0162382
900.477	0.0159611
900.556	0.0161949
900.634	0.0160704
900.712	0.0161604
900.790	0.0162097
900.868	0.0160841
900.946	0.0161586
901.024	0.0161316
901.102	0.0161420
901.181	0.0161632
901.259	0.0161509
901.337	0.0161401
901.415	0.0161472
901.493	0.0162498
901.571	0.0161858
901.649	0.0161948
901.727	0.0161368
901.806	0.0160937
901.884	0.0162461
901.962	0.0162093
902.040	0.0162024
902.118	0.0160989
902.196	0.0161852
902.274	0.0161613
902.352	0.0162041
902.431	0.0162306
902.509	0.0162347
902.587	0.0162904
902.665	0.0161228
902.743	0.0161507
902.821	0.0162666
902.899	0.0162282
902.977	0.0162556
903.056	0.0161967
903.134	0.0161906
903.212	0.0162318
903.290	0.0163176
903.368	0.0161755
903.446	0.0160914
903.524	0.0160982
903.602	0.0161452
903.681	0.0161438
903.759	0.0160906
903.837	0.0160183
903.915	0.0161126
903.993	0.0160155
904.071	0.0162115
904.149	0.0161096
904.227	0.0162038
904.306	0.0162090
904.384	0.0161279
904.462	0.0161308
904.540	0.0159213
904.618	0.0160379
904.696	0.0161236
904.774	0.0161531
904.852	0.0161322
904.931	0.0161274
905.009	0.0161961
905.087	0.0159946
905.165	0.0160880
905.243	0.0161446
905.321	0.0161476
905.399	0.0160676
905.477	0.0159702
905.556	0.0161513
905.634	0.0161131
905.712	0.0160415
905.790	0.0160676
905.868	0.0161657
905.946	0.0160944
906.024	0.0161727
906.102	0.0161497
906.181	0.0162847
906.259	0.0161417
906.337	0.0160587
906.415	0.0162478
906.493	0.0161715
906.571	0.0161431
906.649	0.0160725
906.727	0.0161080
906.806	0.0161499
906.884	0.0160648
906.962	0.0161681
907.040	0.0163063
907.118	0.0163288
907.196	0.0162410
907.274	0.0161401
907.352	0.0161056
907.431	0.0163276
907.509	0.0161932
907.587	0.0162386
907.665	0.0162450
907.743	0.0162879
907.821	0.0161668
907.899	0.0162944
907.977	0.0162598
908.056	0.0161798
908.134	0.0162153
908.212	0.0164304
908.290	0.0162001
908.368	0.0162662
908.446	0.0161691
908.524	0.0163230
908.602	0.0162888
908.681	0.0162688
908.759	0.0163290
908.837	0.0162452
908.915	0.0162800
908.993	0.0162113
909.071	0.0161353
909.149	0.0161894
909.227	0.0161832
909.306	0.0161379
909.384	0.0162028
909.462	0.0160008
909.540	0.0160924
909.618	0.0163057
909.696	0.0161282
909.774	0.0161504
909.852	0.0161436
909.931	0.0161180
910.009	0.0161463
910.087	0.0161968
910.165	0.0161449
910.243	0.0162082
910.321	0.0161313
910.399	0.0160900
910.477	0.0161998
910.556	0.0161773
910.634	0.0160751
910.712	0.0160729
910.790	0.0162843
910.868	0.0160030
910.946	0.0161967
911.024	0.0161654
911.102	0.0162846
911.181	0.0162890
911.259	0.0161866
911.337	0.0162850
911.415	0.0161121
911.493	0.0162757
911.571	0.0163079
911.649	0.0162033
911.727	0.0162785
911.806	0.0163212
911.884	0.0162056
911.962	0.0161964
912.040	0.0162598
912.118	0.0162967
912.196	0.0162774
912.274	0.0163380
912.352	0.0164389
912.431	0.0163387
912.509	0.0162468
912.587	0.0162370
912.665	0.0163039
912.743	0.0162643
912.821	0.0161801
912.899	0.0162153
912.977	0.0161320
913.056	0.0162101
913.134	0.0162777
913.212	0.0162083
913.290	0.0163012
913.368	0.0159837
913.446	0.0161237
913.524	0.0161618
913.602	0.0161394
913.681	0.0159861
913.759	0.0161430
913.837	0.0162449
913.915	0.0160782
913.993	0.0161412
914.071	0.0161816
914.149	0.0160960
914.227	0.0161084
914.306	0.0161864
914.384	0.0160636
914.462	0.0161622
914.540	0.0162080
914.618	0.0161877
914.696	0.0161182
914.774	0.0160826
914.852	0.0161587
914.931	0.0160239
915.009	0.0161198
915.087	0.0161358
915.165	0.0160455
915.243	0.0161107
915.321	0.0161357
915.399	0.0162928
915.477	0.0160219
915.556	0.0160520
915.634	0.0161418
915.712	0.0163615
915.790	0.0163367
915.868	0.0162015
915.946	0.0162496
916.024	0.0165572
916.102	0.0163274
916.181	0.0161839
916.259	0.0162267
916.337	0.0163500
916.415	0.0162490
916.493	0.0163461
916.571	0.0163199
916.649	0.0162321
916.727	0.0163595
916.806	0.0161979
916.884	0.0160878
916.962	0.0161760
917.040	0.0163791
917.118	0.0161209
917.196	0.0161704
917.274	0.0160303
917.352	0.0162051
917.431	0.0161165
917.509	0.0162021
917.587	0.0162502
917.665	0.0163898
917.743	0.0163830
917.821	0.0161529
917.899	0.0161871
917.977	0.0163957
918.056	0.0162132
918.134	0.0161827
918.212	0.0162450
918.290	0.0162399
918.368	0.0162509
918.446	0.0162640
918.524	0.0162255
918.602	0.0162517
918.681	0.0163266
918.759	0.0163165
918.837	0.0163210
918.915	0.0162835
918.993	0.0161893
919.071	0.0163668
919.149	0.0162383
919.227	0.0161823
919.306	0.0164253
919.384	0.0163108
919.462	0.0162292
919.540	0.0163078
919.618	0.0162443
919.696	0.0163189
919.774	0.0163570
919.852	0.0162873
919.931	0.0164183
920.009	0.0163074
920.087	0.0163622
920.165	0.0164638
920.243	0.0163570
920.321	0.0163654
920.399	0.0163741
920.477	0.0163071
920.556	0.0163950
920.634	0.0162943
920.712	0.0163743
920.790	0.0163003
920.868	0.0163859
920.946	0.0164246
921.024	0.0163133
921.102	0.0163233
921.181	0.0162595
921.259	0.0163488
921.337	0.0162892
921.415	0.0163998
921.493	0.0163596
921.571	0.0160538
921.649	0.0162178
921.727	0.0163483
921.806	0.0161780
921.884	0.0163120
921.962	0.0162699
922.040	0.0163298
922.118	0.0165044
922.196	0.0163280
922.274	0.0162444
922.352	0.0162320
922.431	0.0161330
922.509	0.0161102
922.587	0.0162588
922.665	0.0162133
922.743	0.0161257
922.821	0.0160493
922.899	0.0160365
922.977	0.0161142
923.056	0.0161737
923.134	0.0161176
923.212	0.0160590
923.290	0.0160335
923.368	0.0160827
923.446	0.0161031
923.524	0.0161311
923.602	0.0161201
923.681	0.0160326
923.759	0.0159813
923.837	0.0159987
923.915	0.0160867
923.993	0.0159747
924.071	0.0159303
924.149	0.0159296
924.227	0.0159842
924.306	0.0160778
924.384	0.0160854
924.462	0.0159388
924.540	0.0159779
924.618	0.0160880
924.696	0.0160435
924.774	0.0160524
924.852	0.0159556
924.931	0.0161310
925.009	0.0160006
925.087	0.0160431
925.165	0.0159538
925.243	0.0160091
925.321	0.0160513
925.399	0.0160185
925.477	0.0160711
925.556	0.0159425
925.634	0.0160233
925.712	0.0161661
925.790	0.0161424
925.868	0.0160688
925.946	0.0162249
926.024	0.0161220
926.102	0.0161700
926.181	0.0161727
926.259	0.0162525
926.337	0.0163213
926.415	0.0164210
926.493	0.0161813
926.571	0.0163540
926.649	0.0163284
926.727	0.0162870
926.806	0.0162361
926.884	0.0162218
926.962	0.0163110
927.040	0.0162881
927.118	0.0162180
927.196	0.0162651
927.274	0.0161447
927.352	0.0161771
927.431	0.0161592
927.509	0.0162048
927.587	0.0160634
927.665	0.0161194
927.743	0.0160936
927.821	0.0161456
927.899	0.0160846
927.977	0.0161378
928.056	0.0162041
928.134	0.0160633
928.212	0.0159543
928.290	0.0161659
928.368	0.0161814
928.446	0.0160646
928.524	0.0160879
928.602	0.0161545
928.681	0.0160580
928.759	0.0160767
928.837	0.0160819
928.915	0.0161852
928.993	0.0162555
929.071	0.0161127
929.149	0.0162060
929.227	0.0162414
929.306	0.0161198
929.384	0.0161993
929.462	0.0161251
929.540	0.0161421
929.618	0.0162096
929.696	0.0162971
929.774	0.0163502
929.852	0.0161843
929.931	0.0162823
