05/19/2022	01:18:55	Ver.	4.1	UNKNOWN
Optical Delay	610.008675	Delta X		0.078125	Sweeps	1	Scan Rate	0/0
Coordinates	Axis 1	NaN	Axis 2	NaN	Axis 3	NaN	Axis 4	NaN	Axis 5	NaN	Axis 6	0.000000
TX Power	0.000000	RX Power	0.000000

610.009	0.0163790
610.087	0.0161901
610.165	0.0162589
610.243	0.0162657
610.321	0.0163326
610.399	0.0162410
610.477	0.0163692
610.556	0.0163288
610.634	0.0163381
610.712	0.0162269
610.790	0.0164185
610.868	0.0164732
610.946	0.0163702
611.024	0.0162792
611.102	0.0164325
611.181	0.0164153
611.259	0.0164262
611.337	0.0163906
611.415	0.0163240
611.493	0.0163871
611.571	0.0163229
611.649	0.0164536
611.727	0.0163646
611.806	0.0163995
611.884	0.0165207
611.962	0.0164049
612.040	0.0164316
612.118	0.0164394
612.196	0.0164902
612.274	0.0164652
612.352	0.0163937
612.431	0.0163042
612.509	0.0163371
612.587	0.0163378
612.665	0.0163954
612.743	0.0164860
612.821	0.0162254
612.899	0.0162387
612.977	0.0162989
613.056	0.0161799
613.134	0.0163087
613.212	0.0162238
613.290	0.0164161
613.368	0.0163445
613.446	0.0163159
613.524	0.0162043
613.602	0.0162368
613.681	0.0162855
613.759	0.0162751
613.837	0.0163828
613.915	0.0163491
613.993	0.0163587
614.071	0.0164164
614.149	0.0162822
614.227	0.0163448
614.306	0.0162838
614.384	0.0162517
614.462	0.0162430
614.540	0.0161991
614.618	0.0162939
614.696	0.0162048
614.774	0.0162203
614.852	0.0163080
614.931	0.0162648
615.009	0.0161084
615.087	0.0161919
615.165	0.0161752
615.243	0.0161714
615.321	0.0160773
615.399	0.0161769
615.477	0.0162395
615.556	0.0162121
615.634	0.0161217
615.712	0.0161604
615.790	0.0160967
615.868	0.0162361
615.946	0.0162102
616.024	0.0161046
616.102	0.0161912
616.181	0.0163039
616.259	0.0162701
616.337	0.0161794
616.415	0.0162185
616.493	0.0162476
616.571	0.0162605
616.649	0.0161148
616.727	0.0162038
616.806	0.0162440
616.884	0.0162553
616.962	0.0162537
617.040	0.0163685
617.118	0.0162894
617.196	0.0162868
617.274	0.0164124
617.352	0.0163087
617.431	0.0162627
617.509	0.0163666
617.587	0.0163610
617.665	0.0163504
617.743	0.0163637
617.821	0.0161972
617.899	0.0162276
617.977	0.0162672
618.056	0.0162812
618.134	0.0163218
618.212	0.0163393
618.290	0.0161507
618.368	0.0162267
618.446	0.0162099
618.524	0.0162627
618.602	0.0162147
618.681	0.0163519
618.759	0.0161940
618.837	0.0162511
618.915	0.0161725
618.993	0.0163200
619.071	0.0161560
619.149	0.0162873
619.227	0.0162656
619.306	0.0161545
619.384	0.0163961
619.462	0.0162805
619.540	0.0161470
619.618	0.0162609
619.696	0.0162054
619.774	0.0160579
619.852	0.0161572
619.931	0.0163087
620.009	0.0162067
620.087	0.0163319
620.165	0.0163582
620.243	0.0162819
620.321	0.0162355
620.399	0.0163160
620.477	0.0162692
620.556	0.0162493
620.634	0.0162763
620.712	0.0163461
620.790	0.0164623
620.868	0.0163887
620.946	0.0163222
621.024	0.0163773
621.102	0.0163988
621.181	0.0163979
621.259	0.0163693
621.337	0.0164375
621.415	0.0163236
621.493	0.0164153
621.571	0.0163068
621.649	0.0164050
621.727	0.0163214
621.806	0.0163689
621.884	0.0164069
621.962	0.0164156
622.040	0.0163943
622.118	0.0163865
622.196	0.0163862
622.274	0.0164198
622.352	0.0163238
622.431	0.0163192
622.509	0.0162352
622.587	0.0163303
622.665	0.0162096
622.743	0.0163515
622.821	0.0164212
622.899	0.0164316
622.977	0.0162825
623.056	0.0163500
623.134	0.0162550
623.212	0.0162750
623.290	0.0164252
623.368	0.0163114
623.446	0.0163487
623.524	0.0163000
623.602	0.0162691
623.681	0.0163276
623.759	0.0162595
623.837	0.0163623
623.915	0.0163595
623.993	0.0162270
624.071	0.0163380
624.149	0.0163229
624.227	0.0164034
624.306	0.0162327
624.384	0.0162206
624.462	0.0163537
624.540	0.0163941
624.618	0.0163998
624.696	0.0164367
624.774	0.0163190
624.852	0.0162266
624.931	0.0164433
625.009	0.0163361
625.087	0.0161983
625.165	0.0161971
625.243	0.0163715
625.321	0.0163691
625.399	0.0163808
625.477	0.0162205
625.556	0.0162126
625.634	0.0161721
625.712	0.0162538
625.790	0.0162820
625.868	0.0162342
625.946	0.0162478
626.024	0.0163115
626.102	0.0163540
626.181	0.0160828
626.259	0.0162016
626.337	0.0161302
626.415	0.0162308
626.493	0.0162484
626.571	0.0162502
626.649	0.0162675
626.727	0.0162424
626.806	0.0161327
626.884	0.0161651
626.962	0.0163097
627.040	0.0164596
627.118	0.0161902
627.196	0.0162620
627.274	0.0163176
627.352	0.0162067
627.431	0.0162573
627.509	0.0163358
627.587	0.0162795
627.665	0.0162792
627.743	0.0161986
627.821	0.0162035
627.899	0.0162317
627.977	0.0160468
628.056	0.0161954
628.134	0.0161430
628.212	0.0159610
628.290	0.0161430
628.368	0.0161682
628.446	0.0160062
628.524	0.0161192
628.602	0.0161470
628.681	0.0160925
628.759	0.0161185
628.837	0.0159584
628.915	0.0159985
628.993	0.0160749
629.071	0.0160759
629.149	0.0161059
629.227	0.0160718
629.306	0.0161250
629.384	0.0160736
629.462	0.0161552
629.540	0.0161016
629.618	0.0161987
629.696	0.0161767
629.774	0.0162182
629.852	0.0162441
629.931	0.0163383
630.009	0.0163554
630.087	0.0162294
630.165	0.0163712
630.243	0.0163012
630.321	0.0163647
630.399	0.0162784
630.477	0.0162398
630.556	0.0164376
630.634	0.0163557
630.712	0.0164396
630.790	0.0164152
630.868	0.0165328
630.946	0.0165356
631.024	0.0163331
631.102	0.0164539
631.181	0.0163969
631.259	0.0164252
631.337	0.0163168
631.415	0.0164334
631.493	0.0164581
631.571	0.0163685
631.649	0.0163162
631.727	0.0165727
631.806	0.0165167
631.884	0.0164603
631.962	0.0164715
632.040	0.0165243
632.118	0.0165395
632.196	0.0162849
632.274	0.0163879
632.352	0.0163014
632.431	0.0163741
632.509	0.0165483
632.587	0.0164207
632.665	0.0163905
632.743	0.0163257
632.821	0.0164225
632.899	0.0163631
632.977	0.0161777
633.056	0.0161967
633.134	0.0160255
633.212	0.0161770
633.290	0.0161582
633.368	0.0162537
633.446	0.0161676
633.524	0.0159876
633.602	0.0160355
633.681	0.0160977
633.759	0.0158829
633.837	0.0160201
633.915	0.0160300
633.993	0.0160336
634.071	0.0161133
634.149	0.0159422
634.227	0.0161097
634.306	0.0159524
634.384	0.0160082
634.462	0.0161252
634.540	0.0160767
634.618	0.0160501
634.696	0.0160787
634.774	0.0160819
634.852	0.0162682
634.931	0.0161482
635.009	0.0162219
635.087	0.0163632
635.165	0.0163695
635.243	0.0165646
635.321	0.0163608
635.399	0.0164357
635.477	0.0166399
635.556	0.0166616
635.634	0.0167519
635.712	0.0165198
635.790	0.0166606
635.868	0.0166179
635.946	0.0167905
636.024	0.0167892
636.102	0.0167351
636.181	0.0166931
636.259	0.0168782
636.337	0.0167765
636.415	0.0168350
636.493	0.0166202
636.571	0.0167226
636.649	0.0166455
636.727	0.0165719
636.806	0.0164984
636.884	0.0164533
636.962	0.0164344
637.040	0.0164165
637.118	0.0163036
637.196	0.0161622
637.274	0.0163113
637.352	0.0162936
637.431	0.0160722
637.509	0.0160178
637.587	0.0159782
637.665	0.0160062
637.743	0.0160681
637.821	0.0159261
637.899	0.0157330
637.977	0.0158314
638.056	0.0159120
638.134	0.0158293
638.212	0.0158268
638.290	0.0159397
638.368	0.0157293
638.446	0.0157517
638.524	0.0157368
638.602	0.0156590
638.681	0.0156986
638.759	0.0157871
638.837	0.0159627
638.915	0.0158794
638.993	0.0159067
639.071	0.0159859
639.149	0.0158431
639.227	0.0160133
639.306	0.0161063
639.384	0.0161129
639.462	0.0160917
639.540	0.0160278
639.618	0.0161160
639.696	0.0161578
639.774	0.0161964
639.852	0.0162251
639.931	0.0162725
640.009	0.0163557
640.087	0.0164624
640.165	0.0165260
640.243	0.0163138
640.321	0.0163217
640.399	0.0164815
640.477	0.0164417
640.556	0.0164892
640.634	0.0164843
640.712	0.0164118
640.790	0.0165600
640.868	0.0165450
640.946	0.0163846
641.024	0.0165912
641.102	0.0164795
641.181	0.0164648
641.259	0.0164632
641.337	0.0163898
641.415	0.0162685
641.493	0.0163396
641.571	0.0163997
641.649	0.0163364
641.727	0.0162035
641.806	0.0161266
641.884	0.0161191
641.962	0.0162635
642.040	0.0161374
642.118	0.0160212
642.196	0.0160825
642.274	0.0161053
642.352	0.0159312
642.431	0.0158242
642.509	0.0160191
642.587	0.0160653
642.665	0.0159316
642.743	0.0160593
642.821	0.0158634
642.899	0.0159375
642.977	0.0158423
643.056	0.0158340
643.134	0.0158526
643.212	0.0158364
643.290	0.0159634
643.368	0.0160072
643.446	0.0159059
643.524	0.0158266
643.602	0.0159322
643.681	0.0159258
643.759	0.0159743
643.837	0.0158868
643.915	0.0160640
643.993	0.0160499
644.071	0.0160639
644.149	0.0160804
644.227	0.0159891
644.306	0.0161198
644.384	0.0162228
644.462	0.0162247
644.540	0.0161423
644.618	0.0161977
644.696	0.0162527
644.774	0.0161768
644.852	0.0162231
644.931	0.0164047
645.009	0.0163010
645.087	0.0163033
645.165	0.0163596
645.243	0.0162360
645.321	0.0162023
645.399	0.0162213
645.477	0.0161250
645.556	0.0161324
645.634	0.0161063
645.712	0.0160870
645.790	0.0161700
645.868	0.0162395
645.946	0.0162298
646.024	0.0160827
646.102	0.0161169
646.181	0.0161038
646.259	0.0162238
646.337	0.0163186
646.415	0.0162602
646.493	0.0161356
646.571	0.0161072
646.649	0.0161530
646.727	0.0162722
646.806	0.0162537
646.884	0.0163223
646.962	0.0163073
647.040	0.0163456
647.118	0.0164957
647.196	0.0162753
647.274	0.0164447
647.352	0.0164340
647.431	0.0163845
647.509	0.0164340
647.587	0.0163046
647.665	0.0164779
647.743	0.0165606
647.821	0.0164126
647.899	0.0165378
647.977	0.0164336
648.056	0.0165611
648.134	0.0165329
648.212	0.0164386
648.290	0.0164958
648.368	0.0164641
648.446	0.0164485
648.524	0.0162685
648.602	0.0161342
648.681	0.0162791
648.759	0.0164329
648.837	0.0163171
648.915	0.0161049
648.993	0.0162762
649.071	0.0160801
649.149	0.0162780
649.227	0.0161015
649.306	0.0161021
649.384	0.0163444
649.462	0.0161085
649.540	0.0160016
649.618	0.0162093
649.696	0.0161990
649.774	0.0160859
649.852	0.0161238
649.931	0.0159823
650.009	0.0160105
650.087	0.0161466
650.165	0.0160715
650.243	0.0161237
650.321	0.0160336
650.399	0.0160763
650.477	0.0160233
650.556	0.0160403
650.634	0.0159657
650.712	0.0159097
650.790	0.0158495
650.868	0.0160513
650.946	0.0160905
651.024	0.0159269
651.102	0.0159390
651.181	0.0159892
651.259	0.0161449
651.337	0.0161133
651.415	0.0161278
651.493	0.0160943
651.571	0.0161369
651.649	0.0161193
651.727	0.0160349
651.806	0.0161845
651.884	0.0160011
651.962	0.0162656
652.040	0.0160919
652.118	0.0161871
652.196	0.0162310
652.274	0.0161521
652.352	0.0161643
652.431	0.0160439
652.509	0.0159995
652.587	0.0162057
652.665	0.0161044
652.743	0.0161288
652.821	0.0159797
652.899	0.0161129
652.977	0.0161149
653.056	0.0160922
653.134	0.0160667
653.212	0.0160283
653.290	0.0159321
653.368	0.0160697
653.446	0.0160526
653.524	0.0161032
653.602	0.0160765
653.681	0.0160375
653.759	0.0160619
653.837	0.0161102
653.915	0.0159967
653.993	0.0160606
654.071	0.0161133
654.149	0.0159969
654.227	0.0161068
654.306	0.0161459
654.384	0.0161684
654.462	0.0162457
654.540	0.0162283
654.618	0.0162263
654.696	0.0163272
654.774	0.0162479
654.852	0.0164240
654.931	0.0163252
655.009	0.0163116
655.087	0.0164945
655.165	0.0164161
655.243	0.0163467
655.321	0.0164487
655.399	0.0164236
655.477	0.0164797
655.556	0.0165137
655.634	0.0163977
655.712	0.0163990
655.790	0.0165301
655.868	0.0165410
655.946	0.0164456
656.024	0.0164448
656.102	0.0165244
656.181	0.0164845
656.259	0.0164302
656.337	0.0163751
656.415	0.0162805
656.493	0.0163844
656.571	0.0161692
656.649	0.0161869
656.727	0.0161707
656.806	0.0160616
656.884	0.0160078
656.962	0.0160304
657.040	0.0159433
657.118	0.0159100
657.196	0.0159074
657.274	0.0159241
657.352	0.0159287
657.431	0.0158935
657.509	0.0158849
657.587	0.0159595
657.665	0.0158779
657.743	0.0157455
657.821	0.0158569
657.899	0.0157327
657.977	0.0159497
658.056	0.0159615
658.134	0.0159844
658.212	0.0157822
658.290	0.0160172
658.368	0.0159666
658.446	0.0159674
658.524	0.0159747
658.602	0.0161735
658.681	0.0160583
658.759	0.0162013
658.837	0.0161097
658.915	0.0162048
658.993	0.0159799
659.071	0.0161005
659.149	0.0160313
659.227	0.0162636
659.306	0.0162812
659.384	0.0163136
659.462	0.0164002
659.540	0.0162370
659.618	0.0163208
659.696	0.0162539
659.774	0.0162772
659.852	0.0162823
659.931	0.0163315
660.009	0.0163228
660.087	0.0163861
660.165	0.0162948
660.243	0.0163396
660.321	0.0164528
660.399	0.0162821
660.477	0.0162737
660.556	0.0163394
660.634	0.0163158
660.712	0.0163729
660.790	0.0163537
660.868	0.0164992
660.946	0.0162975
661.024	0.0163136
661.102	0.0163776
661.181	0.0164146
661.259	0.0163544
661.337	0.0163256
661.415	0.0162148
661.493	0.0163015
661.571	0.0161072
661.649	0.0162215
661.727	0.0161987
661.806	0.0160783
661.884	0.0162292
661.962	0.0162904
662.040	0.0160434
662.118	0.0161081
662.196	0.0160183
662.274	0.0160846
662.352	0.0158892
662.431	0.0158555
662.509	0.0158302
662.587	0.0159956
662.665	0.0160159
662.743	0.0158527
662.821	0.0159295
662.899	0.0159898
662.977	0.0158285
663.056	0.0159528
663.134	0.0159410
663.212	0.0158184
663.290	0.0158289
663.368	0.0159782
663.446	0.0159167
663.524	0.0158416
663.602	0.0159635
663.681	0.0159375
663.759	0.0159949
663.837	0.0159091
663.915	0.0160449
663.993	0.0160769
664.071	0.0161172
664.149	0.0160531
664.227	0.0159951
664.306	0.0162078
664.384	0.0160916
664.462	0.0162517
664.540	0.0162730
664.618	0.0162377
664.696	0.0161539
664.774	0.0162633
664.852	0.0163213
664.931	0.0162890
665.009	0.0163631
665.087	0.0165060
665.165	0.0165219
665.243	0.0165688
665.321	0.0164256
665.399	0.0164632
665.477	0.0165653
665.556	0.0166463
665.634	0.0166118
665.712	0.0165842
665.790	0.0164484
665.868	0.0166268
665.946	0.0165359
666.024	0.0166164
666.102	0.0165242
666.181	0.0164894
666.259	0.0163573
666.337	0.0164892
666.415	0.0164117
666.493	0.0162846
666.571	0.0163819
666.649	0.0163698
666.727	0.0162750
666.806	0.0162942
666.884	0.0164447
666.962	0.0162061
667.040	0.0162593
667.118	0.0163066
667.196	0.0163516
667.274	0.0162639
667.352	0.0162370
667.431	0.0162668
667.509	0.0162849
667.587	0.0162185
667.665	0.0162365
667.743	0.0162861
667.821	0.0162717
667.899	0.0162025
667.977	0.0161999
668.056	0.0162419
668.134	0.0162656
668.212	0.0162473
668.290	0.0161298
668.368	0.0161044
668.446	0.0163808
668.524	0.0162725
668.602	0.0161588
668.681	0.0160311
668.759	0.0162088
668.837	0.0161205
668.915	0.0161142
668.993	0.0160560
669.071	0.0160857
669.149	0.0161527
669.227	0.0162428
669.306	0.0161811
669.384	0.0161810
669.462	0.0161861
669.540	0.0162958
669.618	0.0161601
669.696	0.0161581
669.774	0.0162993
669.852	0.0161935
669.931	0.0163109
670.009	0.0161947
670.087	0.0162810
670.165	0.0160340
670.243	0.0160359
670.321	0.0162189
670.399	0.0161161
670.477	0.0162501
670.556	0.0161533
670.634	0.0161449
670.712	0.0161674
670.790	0.0163837
670.868	0.0160258
670.946	0.0161136
671.024	0.0160988
671.102	0.0162079
671.181	0.0162537
671.259	0.0162004
671.337	0.0161378
671.415	0.0160999
671.493	0.0161749
671.571	0.0162733
671.649	0.0161890
671.727	0.0162335
671.806	0.0162272
671.884	0.0163769
671.962	0.0161227
672.040	0.0162016
672.118	0.0163736
672.196	0.0161918
672.274	0.0162957
672.352	0.0162189
672.431	0.0164558
672.509	0.0163203
672.587	0.0162463
672.665	0.0163585
672.743	0.0162243
672.821	0.0161398
672.899	0.0162007
672.977	0.0161844
673.056	0.0163002
673.134	0.0162678
673.212	0.0162437
673.290	0.0160607
673.368	0.0161095
673.446	0.0161672
673.524	0.0159908
673.602	0.0160083
673.681	0.0160608
673.759	0.0160680
673.837	0.0160139
673.915	0.0161591
673.993	0.0161431
674.071	0.0161008
674.149	0.0159821
674.227	0.0159743
674.306	0.0160382
674.384	0.0160442
674.462	0.0159129
674.540	0.0160801
674.618	0.0161423
674.696	0.0161723
674.774	0.0161263
674.852	0.0162433
674.931	0.0163302
675.009	0.0163389
675.087	0.0162889
675.165	0.0162907
675.243	0.0162767
675.321	0.0163874
675.399	0.0162998
675.477	0.0163554
675.556	0.0163297
675.634	0.0161761
675.712	0.0161974
675.790	0.0163473
675.868	0.0161879
675.946	0.0163922
676.024	0.0163290
676.102	0.0162122
676.181	0.0164110
676.259	0.0162360
676.337	0.0162882
676.415	0.0162469
676.493	0.0163351
676.571	0.0161524
676.649	0.0161110
676.727	0.0162525
676.806	0.0161066
676.884	0.0160342
676.962	0.0160567
677.040	0.0161314
677.118	0.0162090
677.196	0.0161620
677.274	0.0163086
677.352	0.0161245
677.431	0.0160770
677.509	0.0161508
677.587	0.0163269
677.665	0.0162068
677.743	0.0162868
677.821	0.0162694
677.899	0.0161756
677.977	0.0161919
678.056	0.0162112
678.134	0.0163018
678.212	0.0162029
678.290	0.0165184
678.368	0.0163507
678.446	0.0162421
678.524	0.0164134
678.602	0.0165614
678.681	0.0165316
678.759	0.0166390
678.837	0.0166184
678.915	0.0164635
678.993	0.0165063
679.071	0.0165877
679.149	0.0166251
679.227	0.0166617
679.306	0.0166265
679.384	0.0165458
679.462	0.0167671
679.540	0.0166259
679.618	0.0166215
679.696	0.0166743
679.774	0.0165709
679.852	0.0166064
679.931	0.0166288
680.009	0.0165067
680.087	0.0165817
680.165	0.0166832
680.243	0.0165923
680.321	0.0165061
680.399	0.0163976
680.477	0.0165408
680.556	0.0164169
680.634	0.0165891
680.712	0.0163771
680.790	0.0163193
680.868	0.0162918
680.946	0.0163113
681.024	0.0162610
681.102	0.0163323
681.181	0.0159994
681.259	0.0162309
681.337	0.0162106
681.415	0.0162031
681.493	0.0161336
681.571	0.0161034
681.649	0.0161025
681.727	0.0161047
681.806	0.0160410
681.884	0.0160675
681.962	0.0162664
682.040	0.0162952
682.118	0.0160844
682.196	0.0161229
682.274	0.0161638
682.352	0.0162901
682.431	0.0162771
682.509	0.0162476
682.587	0.0163303
682.665	0.0163700
682.743	0.0162484
682.821	0.0163117
682.899	0.0163949
682.977	0.0162973
683.056	0.0163934
683.134	0.0164516
683.212	0.0164261
683.290	0.0165244
683.368	0.0163719
683.446	0.0164311
683.524	0.0165545
683.602	0.0164046
683.681	0.0165279
683.759	0.0165205
683.837	0.0162655
683.915	0.0163499
683.993	0.0164777
684.071	0.0165922
684.149	0.0165017
684.227	0.0165571
684.306	0.0164442
684.384	0.0164530
684.462	0.0163454
684.540	0.0163205
684.618	0.0163750
684.696	0.0165458
684.774	0.0165070
684.852	0.0164877
684.931	0.0164719
685.009	0.0163719
685.087	0.0163711
685.165	0.0162853
685.243	0.0163470
685.321	0.0164486
685.399	0.0163066
685.477	0.0162788
685.556	0.0163889
685.634	0.0162427
685.712	0.0163390
685.790	0.0165285
685.868	0.0163437
685.946	0.0163335
686.024	0.0163483
686.102	0.0163821
686.181	0.0162903
686.259	0.0163837
686.337	0.0163589
686.415	0.0162807
686.493	0.0163854
686.571	0.0163033
686.649	0.0163335
686.727	0.0164410
686.806	0.0163022
686.884	0.0162967
686.962	0.0163050
687.040	0.0162591
687.118	0.0162009
687.196	0.0162306
687.274	0.0162387
687.352	0.0162629
687.431	0.0161495
687.509	0.0161911
687.587	0.0161794
687.665	0.0161674
687.743	0.0161198
687.821	0.0161230
687.899	0.0161457
687.977	0.0160828
688.056	0.0158875
688.134	0.0159916
688.212	0.0160744
688.290	0.0159808
688.368	0.0159339
688.446	0.0159630
688.524	0.0159544
688.602	0.0159398
688.681	0.0159601
688.759	0.0158929
688.837	0.0160491
688.915	0.0160474
688.993	0.0160475
689.071	0.0159204
689.149	0.0159872
689.227	0.0160423
689.306	0.0161549
689.384	0.0161160
689.462	0.0161155
689.540	0.0160697
689.618	0.0161743
689.696	0.0162541
689.774	0.0161457
689.852	0.0162617
689.931	0.0161238
690.009	0.0163271
690.087	0.0163040
690.165	0.0162841
690.243	0.0165376
690.321	0.0165650
690.399	0.0164168
690.477	0.0163541
690.556	0.0164776
690.634	0.0166320
690.712	0.0165012
690.790	0.0164093
690.868	0.0165911
690.946	0.0164786
691.024	0.0164682
691.102	0.0164304
691.181	0.0164671
691.259	0.0163381
691.337	0.0165638
691.415	0.0165945
691.493	0.0163973
691.571	0.0162884
691.649	0.0162836
691.727	0.0161977
691.806	0.0162159
691.884	0.0163224
691.962	0.0162147
692.040	0.0161902
692.118	0.0162156
692.196	0.0161855
692.274	0.0162298
692.352	0.0159377
692.431	0.0161032
692.509	0.0161330
692.587	0.0160345
692.665	0.0161497
692.743	0.0160303
692.821	0.0160709
692.899	0.0161395
692.977	0.0161218
693.056	0.0160610
693.134	0.0161182
693.212	0.0160835
693.290	0.0161463
693.368	0.0163260
693.446	0.0163073
693.524	0.0164619
693.602	0.0163008
693.681	0.0164962
693.759	0.0164433
693.837	0.0163792
693.915	0.0164745
693.993	0.0165039
694.071	0.0165231
694.149	0.0164770
694.227	0.0166051
694.306	0.0164905
694.384	0.0165340
694.462	0.0164974
694.540	0.0164684
694.618	0.0166108
694.696	0.0163593
694.774	0.0163461
694.852	0.0163616
694.931	0.0163851
695.009	0.0165706
695.087	0.0162676
695.165	0.0162006
695.243	0.0162189
695.321	0.0162387
695.399	0.0162238
695.477	0.0161069
695.556	0.0161757
695.634	0.0161887
695.712	0.0160239
695.790	0.0161860
695.868	0.0161758
695.946	0.0161174
696.024	0.0162143
696.102	0.0161766
696.181	0.0161047
696.259	0.0161423
696.337	0.0161672
696.415	0.0161911
696.493	0.0160964
696.571	0.0162639
696.649	0.0162096
696.727	0.0160407
696.806	0.0161429
696.884	0.0162811
696.962	0.0161346
697.040	0.0161745
697.118	0.0161359
697.196	0.0162048
697.274	0.0161620
697.352	0.0162367
697.431	0.0162608
697.509	0.0163609
697.587	0.0162976
697.665	0.0163979
697.743	0.0163396
697.821	0.0164928
697.899	0.0164635
697.977	0.0164956
698.056	0.0166577
698.134	0.0165972
698.212	0.0165359
698.290	0.0165858
698.368	0.0166284
698.446	0.0167097
698.524	0.0166270
698.602	0.0165588
698.681	0.0165639
698.759	0.0165102
698.837	0.0164769
698.915	0.0167476
698.993	0.0165610
699.071	0.0165401
699.149	0.0164209
699.227	0.0165788
699.306	0.0164065
699.384	0.0163551
699.462	0.0164430
699.540	0.0162881
699.618	0.0162751
699.696	0.0163737
699.774	0.0163332
699.852	0.0164076
699.931	0.0162402
700.009	0.0163251
700.087	0.0164070
700.165	0.0161213
700.243	0.0162074
700.321	0.0164569
700.399	0.0163250
700.477	0.0161816
700.556	0.0161938
700.634	0.0162137
700.712	0.0163698
700.790	0.0163686
700.868	0.0162652
700.946	0.0162537
701.024	0.0162147
701.102	0.0162816
701.181	0.0162503
701.259	0.0164140
701.337	0.0163124
701.415	0.0163731
701.493	0.0163270
701.571	0.0162075
701.649	0.0164050
701.727	0.0163950
701.806	0.0162256
701.884	0.0164178
701.962	0.0164268
702.040	0.0164175
702.118	0.0163995
702.196	0.0163096
702.274	0.0164798
702.352	0.0165749
702.431	0.0165755
702.509	0.0164105
702.587	0.0163493
702.665	0.0164970
702.743	0.0163968
702.821	0.0163918
702.899	0.0165054
702.977	0.0165596
703.056	0.0164017
703.134	0.0163242
703.212	0.0163100
703.290	0.0164369
703.368	0.0164571
703.446	0.0164011
703.524	0.0164290
703.602	0.0164582
703.681	0.0164215
703.759	0.0163855
703.837	0.0162835
703.915	0.0163118
703.993	0.0163450
704.071	0.0163583
704.149	0.0161775
704.227	0.0163983
704.306	0.0163356
704.384	0.0162732
704.462	0.0164281
704.540	0.0163260
704.618	0.0163062
704.696	0.0163600
704.774	0.0161100
704.852	0.0162185
704.931	0.0162221
705.009	0.0163303
705.087	0.0162533
705.165	0.0160561
705.243	0.0163754
705.321	0.0161530
705.399	0.0161430
705.477	0.0162610
705.556	0.0162724
705.634	0.0162451
705.712	0.0161452
705.790	0.0162373
705.868	0.0163586
705.946	0.0162823
706.024	0.0162855
706.102	0.0163197
706.181	0.0163908
706.259	0.0163117
706.337	0.0163788
706.415	0.0162277
706.493	0.0163264
706.571	0.0163683
706.649	0.0161709
706.727	0.0163113
706.806	0.0162284
706.884	0.0161689
706.962	0.0163917
707.040	0.0163758
707.118	0.0162308
707.196	0.0160748
707.274	0.0163646
707.352	0.0163143
707.431	0.0162006
707.509	0.0162640
707.587	0.0162466
707.665	0.0162053
707.743	0.0162439
707.821	0.0161225
707.899	0.0162699
707.977	0.0161831
708.056	0.0161222
708.134	0.0161829
708.212	0.0161850
708.290	0.0161565
708.368	0.0162715
708.446	0.0161383
708.524	0.0162144
708.602	0.0161907
708.681	0.0162521
708.759	0.0161465
708.837	0.0161787
708.915	0.0161822
708.993	0.0161435
709.071	0.0160363
709.149	0.0161754
709.227	0.0161958
709.306	0.0161485
709.384	0.0160390
709.462	0.0161211
709.540	0.0162225
709.618	0.0161663
709.696	0.0161442
709.774	0.0159901
709.852	0.0161867
709.931	0.0161098
710.009	0.0161353
710.087	0.0161583
710.165	0.0161325
710.243	0.0160689
710.321	0.0162005
710.399	0.0160876
710.477	0.0161439
710.556	0.0161300
710.634	0.0162041
710.712	0.0161938
710.790	0.0161279
710.868	0.0162039
710.946	0.0161657
711.024	0.0161649
711.102	0.0161192
711.181	0.0161743
711.259	0.0162528
711.337	0.0161963
711.415	0.0161236
711.493	0.0161378
711.571	0.0161561
711.649	0.0161830
711.727	0.0161343
711.806	0.0162076
711.884	0.0162431
711.962	0.0162098
712.040	0.0160500
712.118	0.0163000
712.196	0.0161597
712.274	0.0163100
712.352	0.0161823
712.431	0.0160663
712.509	0.0161637
712.587	0.0163141
712.665	0.0161694
712.743	0.0161750
712.821	0.0161224
712.899	0.0163039
712.977	0.0163902
713.056	0.0163363
713.134	0.0162173
713.212	0.0162988
713.290	0.0164318
713.368	0.0164256
713.446	0.0163204
713.524	0.0164942
713.602	0.0163985
713.681	0.0165060
713.759	0.0164448
713.837	0.0165221
713.915	0.0165419
713.993	0.0164967
714.071	0.0163995
714.149	0.0165119
714.227	0.0165385
714.306	0.0164600
714.384	0.0165407
714.462	0.0163809
714.540	0.0164122
714.618	0.0164891
714.696	0.0164664
714.774	0.0164842
714.852	0.0163121
714.931	0.0163911
715.009	0.0163376
715.087	0.0166318
715.165	0.0163930
715.243	0.0163678
715.321	0.0163940
715.399	0.0163857
715.477	0.0164262
715.556	0.0164497
715.634	0.0163980
715.712	0.0162930
715.790	0.0162933
715.868	0.0161868
715.946	0.0162729
716.024	0.0161197
716.102	0.0160265
716.181	0.0162305
716.259	0.0160077
716.337	0.0160423
716.415	0.0159882
716.493	0.0160349
716.571	0.0161475
716.649	0.0162029
716.727	0.0160858
716.806	0.0160982
716.884	0.0161726
716.962	0.0160400
717.040	0.0161307
717.118	0.0161396
717.196	0.0160819
717.274	0.0160331
717.352	0.0161604
717.431	0.0160625
717.509	0.0161322
717.587	0.0159925
717.665	0.0160654
717.743	0.0159789
717.821	0.0159360
717.899	0.0160830
717.977	0.0161624
718.056	0.0161525
718.134	0.0160147
718.212	0.0160136
718.290	0.0161445
718.368	0.0160532
718.446	0.0160523
718.524	0.0160451
718.602	0.0162099
718.681	0.0162040
718.759	0.0162342
718.837	0.0161874
718.915	0.0161373
718.993	0.0160672
719.071	0.0159952
719.149	0.0160959
719.227	0.0160573
719.306	0.0160667
719.384	0.0161442
719.462	0.0160961
719.540	0.0159432
719.618	0.0160757
719.696	0.0160748
719.774	0.0160807
719.852	0.0160535
719.931	0.0162448
720.009	0.0161280
720.087	0.0161550
720.165	0.0161545
720.243	0.0162010
720.321	0.0160933
720.399	0.0159511
720.477	0.0160513
720.556	0.0161495
720.634	0.0160098
720.712	0.0160230
720.790	0.0161758
720.868	0.0159985
720.946	0.0159948
721.024	0.0161183
721.102	0.0161154
721.181	0.0160285
721.259	0.0159568
721.337	0.0160061
721.415	0.0159531
721.493	0.0159769
721.571	0.0159583
721.649	0.0160689
721.727	0.0161723
721.806	0.0161224
721.884	0.0159840
721.962	0.0161034
722.040	0.0162822
722.118	0.0162090
722.196	0.0162313
722.274	0.0161611
722.352	0.0162537
722.431	0.0162635
722.509	0.0162843
722.587	0.0162498
722.665	0.0162422
722.743	0.0162738
722.821	0.0163097
722.899	0.0164420
722.977	0.0163464
723.056	0.0163484
723.134	0.0165053
723.212	0.0164358
723.290	0.0163767
723.368	0.0163322
723.446	0.0163676
723.524	0.0164040
723.602	0.0163610
723.681	0.0164097
723.759	0.0164995
723.837	0.0165312
723.915	0.0164217
723.993	0.0163618
724.071	0.0164268
724.149	0.0162543
724.227	0.0162084
724.306	0.0164753
724.384	0.0162804
724.462	0.0162220
724.540	0.0164259
724.618	0.0163670
724.696	0.0163449
724.774	0.0162945
724.852	0.0163304
724.931	0.0163195
725.009	0.0161693
725.087	0.0162331
725.165	0.0163585
725.243	0.0162950
725.321	0.0162669
725.399	0.0162454
725.477	0.0163565
725.556	0.0162364
725.634	0.0163595
725.712	0.0161658
725.790	0.0161623
725.868	0.0161795
725.946	0.0161755
726.024	0.0162583
726.102	0.0162130
726.181	0.0162341
726.259	0.0163737
726.337	0.0162670
726.415	0.0162292
726.493	0.0162373
726.571	0.0162286
726.649	0.0160731
726.727	0.0161915
726.806	0.0161902
726.884	0.0161839
726.962	0.0163156
727.040	0.0161066
727.118	0.0160516
727.196	0.0161200
727.274	0.0161020
727.352	0.0160634
727.431	0.0161152
727.509	0.0159659
727.587	0.0162365
727.665	0.0161693
727.743	0.0161030
727.821	0.0162254
727.899	0.0160014
727.977	0.0160550
728.056	0.0161410
728.134	0.0161702
728.212	0.0162114
728.290	0.0160664
728.368	0.0161401
728.446	0.0163831
728.524	0.0161703
728.602	0.0160945
728.681	0.0161759
728.759	0.0160797
728.837	0.0162495
728.915	0.0162920
728.993	0.0163623
729.071	0.0161534
729.149	0.0162141
729.227	0.0161700
729.306	0.0161951
729.384	0.0161771
729.462	0.0161541
729.540	0.0162884
729.618	0.0161189
729.696	0.0160143
729.774	0.0161279
729.852	0.0161101
729.931	0.0161993
730.009	0.0161282
730.087	0.0160616
730.165	0.0161470
730.243	0.0160292
730.321	0.0161247
730.399	0.0161783
730.477	0.0160915
730.556	0.0162408
730.634	0.0161698
730.712	0.0161566
730.790	0.0161117
730.868	0.0161678
730.946	0.0162835
731.024	0.0159891
731.102	0.0160108
731.181	0.0163918
731.259	0.0161796
731.337	0.0161254
731.415	0.0160882
731.493	0.0160879
731.571	0.0162592
731.649	0.0160600
731.727	0.0160484
731.806	0.0163149
731.884	0.0161710
731.962	0.0162186
732.040	0.0161584
732.118	0.0162933
732.196	0.0161606
732.274	0.0162702
732.352	0.0161973
732.431	0.0161868
732.509	0.0163015
732.587	0.0162975
732.665	0.0161987
732.743	0.0162991
732.821	0.0163297
732.899	0.0161221
732.977	0.0161224
733.056	0.0162988
733.134	0.0162228
733.212	0.0163533
733.290	0.0161834
733.368	0.0161858
733.446	0.0163353
733.524	0.0162608
733.602	0.0163236
733.681	0.0164088
733.759	0.0163342
733.837	0.0163240
733.915	0.0164393
733.993	0.0163467
734.071	0.0162970
734.149	0.0164140
734.227	0.0163072
734.306	0.0162852
734.384	0.0162603
734.462	0.0163129
734.540	0.0163515
734.618	0.0163137
734.696	0.0161668
734.774	0.0161555
734.852	0.0162256
734.931	0.0161461
735.009	0.0162490
735.087	0.0160044
735.165	0.0160195
735.243	0.0160333
735.321	0.0159879
735.399	0.0159840
735.477	0.0160373
735.556	0.0159826
735.634	0.0159945
735.712	0.0160021
735.790	0.0159453
735.868	0.0161625
735.946	0.0161171
736.024	0.0160223
736.102	0.0161415
736.181	0.0162270
736.259	0.0162528
736.337	0.0161950
736.415	0.0162538
736.493	0.0163599
736.571	0.0162209
736.649	0.0163029
736.727	0.0163669
736.806	0.0163170
736.884	0.0162673
736.962	0.0162923
737.040	0.0163854
737.118	0.0163184
737.196	0.0164761
737.274	0.0163329
737.352	0.0163341
737.431	0.0163958
737.509	0.0162918
737.587	0.0162874
737.665	0.0163445
737.743	0.0163754
737.821	0.0163931
737.899	0.0164355
737.977	0.0163181
738.056	0.0162207
738.134	0.0163236
738.212	0.0162889
738.290	0.0162166
738.368	0.0162636
738.446	0.0162313
738.524	0.0163254
738.602	0.0162186
738.681	0.0162720
738.759	0.0162469
738.837	0.0162321
738.915	0.0162032
738.993	0.0161438
739.071	0.0161726
739.149	0.0163097
739.227	0.0162860
739.306	0.0162082
739.384	0.0161288
739.462	0.0162077
739.540	0.0162583
739.618	0.0161440
739.696	0.0160616
739.774	0.0161202
739.852	0.0162075
739.931	0.0161839
740.009	0.0162135
740.087	0.0162054
740.165	0.0161765
740.243	0.0160970
740.321	0.0162122
740.399	0.0161662
740.477	0.0160673
740.556	0.0160934
740.634	0.0161121
740.712	0.0161017
740.790	0.0161153
740.868	0.0161739
740.946	0.0160859
741.024	0.0161243
741.102	0.0161185
741.181	0.0162421
741.259	0.0161186
741.337	0.0161984
741.415	0.0162481
741.493	0.0160814
741.571	0.0162463
741.649	0.0162232
741.727	0.0161388
741.806	0.0163804
741.884	0.0161868
741.962	0.0162471
742.040	0.0162467
742.118	0.0161933
742.196	0.0163364
742.274	0.0163452
742.352	0.0163553
742.431	0.0161979
742.509	0.0162519
742.587	0.0165359
742.665	0.0163454
742.743	0.0162229
742.821	0.0161808
742.899	0.0161836
742.977	0.0163148
743.056	0.0162753
743.134	0.0161595
743.212	0.0162524
743.290	0.0161427
743.368	0.0161316
743.446	0.0162774
743.524	0.0162012
743.602	0.0161534
743.681	0.0162572
743.759	0.0162684
743.837	0.0161224
743.915	0.0160732
743.993	0.0161576
744.071	0.0161812
744.149	0.0160583
744.227	0.0161638
744.306	0.0161935
744.384	0.0161961
744.462	0.0161897
744.540	0.0162827
744.618	0.0161685
744.696	0.0161702
744.774	0.0161420
744.852	0.0161587
744.931	0.0162879
745.009	0.0161459
745.087	0.0160403
745.165	0.0161607
745.243	0.0160812
745.321	0.0161886
745.399	0.0161941
745.477	0.0161672
745.556	0.0161327
745.634	0.0163211
745.712	0.0161008
745.790	0.0161911
745.868	0.0160992
745.946	0.0161961
746.024	0.0161568
746.102	0.0161942
746.181	0.0160914
746.259	0.0161722
746.337	0.0162162
746.415	0.0162785
746.493	0.0161934
746.571	0.0162209
746.649	0.0161748
746.727	0.0161405
746.806	0.0161899
746.884	0.0162948
746.962	0.0161779
747.040	0.0162699
747.118	0.0162263
747.196	0.0161096
747.274	0.0161163
747.352	0.0161152
747.431	0.0162708
747.509	0.0162138
747.587	0.0161613
747.665	0.0163205
747.743	0.0162209
747.821	0.0161362
747.899	0.0161823
747.977	0.0162458
748.056	0.0163127
748.134	0.0163514
748.212	0.0162685
748.290	0.0161892
748.368	0.0163589
748.446	0.0162763
748.524	0.0162507
748.602	0.0161722
748.681	0.0162553
748.759	0.0161631
748.837	0.0162348
748.915	0.0162553
748.993	0.0162199
749.071	0.0163217
749.149	0.0163307
749.227	0.0161466
749.306	0.0162561
749.384	0.0161161
749.462	0.0162122
749.540	0.0161771
749.618	0.0161145
749.696	0.0161684
749.774	0.0161697
749.852	0.0160133
749.931	0.0161611
750.009	0.0161057
750.087	0.0162109
750.165	0.0160701
750.243	0.0160632
750.321	0.0161111
750.399	0.0160979
750.477	0.0160625
750.556	0.0161510
750.634	0.0162642
750.712	0.0159949
750.790	0.0162144
750.868	0.0161874
750.946	0.0162057
751.024	0.0162710
751.102	0.0162155
751.181	0.0162405
751.259	0.0161264
751.337	0.0161913
751.415	0.0161940
751.493	0.0161799
751.571	0.0161970
751.649	0.0162775
751.727	0.0163103
751.806	0.0162066
751.884	0.0161971
751.962	0.0161855
752.040	0.0161055
752.118	0.0160886
752.196	0.0160797
752.274	0.0162045
752.352	0.0159397
752.431	0.0160843
752.509	0.0160915
752.587	0.0161029
752.665	0.0160316
752.743	0.0161207
752.821	0.0160103
752.899	0.0160797
752.977	0.0160592
753.056	0.0159691
753.134	0.0160352
753.212	0.0160954
753.290	0.0161864
753.368	0.0162463
753.446	0.0161698
753.524	0.0161929
753.602	0.0162704
753.681	0.0161614
753.759	0.0162619
753.837	0.0162054
753.915	0.0162501
753.993	0.0162840
754.071	0.0162094
754.149	0.0162317
754.227	0.0162807
754.306	0.0163110
754.384	0.0162328
754.462	0.0161555
754.540	0.0161524
754.618	0.0160943
754.696	0.0161740
754.774	0.0162247
754.852	0.0161910
754.931	0.0163063
755.009	0.0162180
755.087	0.0162856
755.165	0.0164095
755.243	0.0162202
755.321	0.0162296
755.399	0.0163655
755.477	0.0163861
755.556	0.0163757
755.634	0.0163157
755.712	0.0163261
755.790	0.0163005
755.868	0.0162552
755.946	0.0163583
756.024	0.0162513
756.102	0.0162597
756.181	0.0162850
756.259	0.0163480
756.337	0.0162682
756.415	0.0161875
756.493	0.0163254
756.571	0.0163844
756.649	0.0163133
756.727	0.0163355
756.806	0.0163950
756.884	0.0163250
756.962	0.0164041
757.040	0.0164827
757.118	0.0163970
757.196	0.0162244
757.274	0.0164270
757.352	0.0163445
757.431	0.0165364
757.509	0.0165028
757.587	0.0164545
757.665	0.0164828
757.743	0.0163577
757.821	0.0163072
757.899	0.0164213
757.977	0.0164155
758.056	0.0163995
758.134	0.0163567
758.212	0.0163480
758.290	0.0161622
758.368	0.0162794
758.446	0.0163617
758.524	0.0162862
758.602	0.0163149
758.681	0.0163969
758.759	0.0163258
758.837	0.0163216
758.915	0.0163696
758.993	0.0162617
759.071	0.0163419
759.149	0.0161771
759.227	0.0162121
759.306	0.0162374
759.384	0.0163359
759.462	0.0163214
759.540	0.0163068
759.618	0.0162872
759.696	0.0163290
759.774	0.0162890
759.852	0.0161432
759.931	0.0163104
760.009	0.0162094
760.087	0.0162063
760.165	0.0162972
760.243	0.0163507
760.321	0.0163000
760.399	0.0162079
760.477	0.0163120
760.556	0.0161687
760.634	0.0162012
760.712	0.0163127
760.790	0.0163190
760.868	0.0162206
760.946	0.0164399
761.024	0.0163105
761.102	0.0162321
761.181	0.0162880
761.259	0.0162696
761.337	0.0162694
761.415	0.0162568
761.493	0.0162679
761.571	0.0163257
761.649	0.0163509
761.727	0.0162790
761.806	0.0162461
761.884	0.0163420
761.962	0.0164199
762.040	0.0162802
762.118	0.0164178
762.196	0.0162886
762.274	0.0162051
762.352	0.0165200
762.431	0.0163594
762.509	0.0163898
762.587	0.0163326
762.665	0.0163198
762.743	0.0161584
762.821	0.0162652
762.899	0.0162695
762.977	0.0163667
763.056	0.0164754
763.134	0.0161080
763.212	0.0164270
763.290	0.0163792
763.368	0.0162722
763.446	0.0162937
763.524	0.0163861
763.602	0.0164458
763.681	0.0164231
763.759	0.0163958
763.837	0.0162448
763.915	0.0161479
763.993	0.0164127
764.071	0.0163159
764.149	0.0163412
764.227	0.0163860
764.306	0.0163167
764.384	0.0161903
764.462	0.0164443
764.540	0.0163000
764.618	0.0162409
764.696	0.0164523
764.774	0.0164474
764.852	0.0163088
764.931	0.0163461
765.009	0.0163560
765.087	0.0163889
765.165	0.0162667
765.243	0.0162884
765.321	0.0162236
765.399	0.0162226
765.477	0.0163203
765.556	0.0163830
765.634	0.0163222
765.712	0.0162875
765.790	0.0162757
765.868	0.0163515
765.946	0.0162911
766.024	0.0161167
766.102	0.0163741
766.181	0.0162146
766.259	0.0162020
766.337	0.0162247
766.415	0.0161741
766.493	0.0162737
766.571	0.0163434
766.649	0.0162585
766.727	0.0160912
766.806	0.0161603
766.884	0.0162159
766.962	0.0162093
767.040	0.0163091
767.118	0.0163586
767.196	0.0162546
767.274	0.0163550
767.352	0.0163115
767.431	0.0163252
767.509	0.0162785
767.587	0.0163697
767.665	0.0164594
767.743	0.0162409
767.821	0.0162288
767.899	0.0164140
767.977	0.0163891
768.056	0.0162651
768.134	0.0163026
768.212	0.0162423
768.290	0.0161720
768.368	0.0162650
768.446	0.0162409
768.524	0.0161969
768.602	0.0163053
768.681	0.0162440
768.759	0.0160032
768.837	0.0160253
768.915	0.0161643
768.993	0.0161044
769.071	0.0160440
769.149	0.0160806
769.227	0.0159688
769.306	0.0161807
769.384	0.0160365
769.462	0.0159724
769.540	0.0160322
769.618	0.0159866
769.696	0.0160538
769.774	0.0161417
769.852	0.0160631
769.931	0.0159822
770.009	0.0160201
770.087	0.0159470
770.165	0.0161717
770.243	0.0160760
770.321	0.0159621
770.399	0.0161114
770.477	0.0161941
770.556	0.0161816
770.634	0.0161858
770.712	0.0160635
770.790	0.0161924
770.868	0.0161204
770.946	0.0160903
771.024	0.0161729
771.102	0.0161513
771.181	0.0161859
771.259	0.0162383
771.337	0.0161609
771.415	0.0161404
771.493	0.0162400
771.571	0.0162304
771.649	0.0162439
771.727	0.0162453
771.806	0.0163282
771.884	0.0163025
771.962	0.0162225
772.040	0.0163100
772.118	0.0163358
772.196	0.0164462
772.274	0.0165039
772.352	0.0164999
772.431	0.0165563
772.509	0.0165572
772.587	0.0165404
772.665	0.0165481
772.743	0.0165454
772.821	0.0165616
772.899	0.0166545
772.977	0.0165726
773.056	0.0164668
773.134	0.0165291
773.212	0.0165764
773.290	0.0165850
773.368	0.0166599
773.446	0.0165123
773.524	0.0163338
773.602	0.0164317
773.681	0.0166671
773.759	0.0164341
773.837	0.0163258
773.915	0.0163567
773.993	0.0164286
774.071	0.0164816
774.149	0.0163486
774.227	0.0163536
774.306	0.0163805
774.384	0.0162299
774.462	0.0162043
774.540	0.0161796
774.618	0.0161735
774.696	0.0160900
774.774	0.0160578
774.852	0.0161752
774.931	0.0159585
775.009	0.0161957
775.087	0.0161302
775.165	0.0160969
775.243	0.0160706
775.321	0.0160855
775.399	0.0160093
775.477	0.0161525
775.556	0.0162471
775.634	0.0161713
775.712	0.0161325
775.790	0.0162234
775.868	0.0162323
775.946	0.0163423
776.024	0.0164405
776.102	0.0162841
776.181	0.0161385
776.259	0.0162190
776.337	0.0160960
776.415	0.0162032
776.493	0.0162675
776.571	0.0162749
776.649	0.0162160
776.727	0.0162099
776.806	0.0163008
776.884	0.0162202
776.962	0.0161121
777.040	0.0163114
777.118	0.0161640
777.196	0.0162872
777.274	0.0162024
777.352	0.0162972
777.431	0.0163650
777.509	0.0163369
777.587	0.0162826
777.665	0.0163417
777.743	0.0161279
777.821	0.0162917
777.899	0.0164051
777.977	0.0163187
778.056	0.0163789
778.134	0.0163440
778.212	0.0162117
778.290	0.0164030
778.368	0.0164058
778.446	0.0163761
778.524	0.0164764
778.602	0.0165367
778.681	0.0165583
778.759	0.0165148
778.837	0.0165681
778.915	0.0163622
778.993	0.0166383
779.071	0.0166391
779.149	0.0163558
779.227	0.0165015
779.306	0.0165765
779.384	0.0166022
779.462	0.0166052
779.540	0.0165366
779.618	0.0165282
779.696	0.0164341
779.774	0.0165878
779.852	0.0166660
779.931	0.0164993
780.009	0.0164398
780.087	0.0164923
780.165	0.0165159
780.243	0.0163786
780.321	0.0165079
780.399	0.0163571
780.477	0.0164528
780.556	0.0164773
780.634	0.0164940
780.712	0.0163547
780.790	0.0163867
780.868	0.0163589
780.946	0.0165386
781.024	0.0163360
781.102	0.0163676
781.181	0.0163711
781.259	0.0162033
781.337	0.0163103
781.415	0.0163083
781.493	0.0162832
781.571	0.0164775
781.649	0.0163361
781.727	0.0162691
781.806	0.0163272
781.884	0.0163367
781.962	0.0162975
782.040	0.0163032
782.118	0.0162772
782.196	0.0162441
782.274	0.0161375
782.352	0.0161951
782.431	0.0161534
782.509	0.0162074
782.587	0.0160859
782.665	0.0161034
782.743	0.0162511
782.821	0.0161423
782.899	0.0162170
782.977	0.0160934
783.056	0.0159889
783.134	0.0161897
783.212	0.0162632
783.290	0.0163149
783.368	0.0161687
783.446	0.0162995
783.524	0.0162866
783.602	0.0162335
783.681	0.0162484
783.759	0.0162848
783.837	0.0162347
783.915	0.0162727
783.993	0.0163953
784.071	0.0162920
784.149	0.0162434
784.227	0.0163356
784.306	0.0163115
784.384	0.0163768
784.462	0.0162759
784.540	0.0163381
784.618	0.0163088
784.696	0.0163592
784.774	0.0162369
784.852	0.0163242
784.931	0.0161440
785.009	0.0162733
785.087	0.0161153
785.165	0.0161893
785.243	0.0161921
785.321	0.0162044
785.399	0.0162458
785.477	0.0162215
785.556	0.0161486
785.634	0.0161407
785.712	0.0161861
785.790	0.0160904
785.868	0.0161375
785.946	0.0161337
786.024	0.0161135
786.102	0.0161926
786.181	0.0160271
786.259	0.0160585
786.337	0.0160513
786.415	0.0160860
786.493	0.0161433
786.571	0.0161845
786.649	0.0159924
786.727	0.0160477
786.806	0.0161505
786.884	0.0161146
786.962	0.0160748
787.040	0.0161708
787.118	0.0161700
787.196	0.0161816
787.274	0.0161251
787.352	0.0161565
787.431	0.0162600
787.509	0.0160951
787.587	0.0161714
787.665	0.0161076
787.743	0.0162835
787.821	0.0162773
787.899	0.0162199
787.977	0.0161725
788.056	0.0163967
788.134	0.0162398
788.212	0.0162985
788.290	0.0163099
788.368	0.0162602
788.446	0.0161626
788.524	0.0163038
788.602	0.0162403
788.681	0.0163287
788.759	0.0163229
788.837	0.0162622
788.915	0.0160852
788.993	0.0162652
789.071	0.0162726
789.149	0.0162469
789.227	0.0161233
789.306	0.0160863
789.384	0.0162959
789.462	0.0162778
789.540	0.0162211
789.618	0.0161651
789.696	0.0162560
789.774	0.0160915
789.852	0.0160799
789.931	0.0161308
790.009	0.0162035
790.087	0.0162653
790.165	0.0162893
790.243	0.0162035
790.321	0.0161894
790.399	0.0161852
790.477	0.0162663
790.556	0.0161893
790.634	0.0161102
790.712	0.0162511
790.790	0.0161283
790.868	0.0161629
790.946	0.0162579
791.024	0.0162007
791.102	0.0161672
791.181	0.0161802
791.259	0.0161249
791.337	0.0162846
791.415	0.0162005
791.493	0.0163383
791.571	0.0162187
791.649	0.0161051
791.727	0.0162548
791.806	0.0163357
791.884	0.0161545
791.962	0.0162010
792.040	0.0161832
792.118	0.0162358
792.196	0.0162329
792.274	0.0162700
792.352	0.0161640
792.431	0.0163271
792.509	0.0161678
792.587	0.0163521
792.665	0.0163319
792.743	0.0163992
792.821	0.0162853
792.899	0.0162142
792.977	0.0162460
793.056	0.0161621
793.134	0.0162288
793.212	0.0162834
793.290	0.0163240
793.368	0.0161839
793.446	0.0162946
793.524	0.0162537
793.602	0.0162732
793.681	0.0163825
793.759	0.0165102
793.837	0.0163061
793.915	0.0164058
793.993	0.0162638
794.071	0.0163155
794.149	0.0163496
794.227	0.0163562
794.306	0.0164008
794.384	0.0162668
794.462	0.0163403
794.540	0.0163944
794.618	0.0163351
794.696	0.0164569
794.774	0.0164244
794.852	0.0163046
794.931	0.0163403
795.009	0.0164229
795.087	0.0163974
795.165	0.0161978
795.243	0.0161775
795.321	0.0161409
795.399	0.0163053
795.477	0.0162704
795.556	0.0162728
795.634	0.0160963
795.712	0.0162083
795.790	0.0164036
795.868	0.0161686
795.946	0.0162379
796.024	0.0161991
796.102	0.0162002
796.181	0.0162651
796.259	0.0162153
796.337	0.0161600
796.415	0.0161677
796.493	0.0163045
796.571	0.0162962
796.649	0.0160865
796.727	0.0159929
796.806	0.0162312
796.884	0.0162033
796.962	0.0161467
797.040	0.0160761
797.118	0.0160995
797.196	0.0162316
797.274	0.0162582
797.352	0.0162664
797.431	0.0160764
797.509	0.0161203
797.587	0.0160498
797.665	0.0162740
797.743	0.0161732
797.821	0.0161367
797.899	0.0162662
797.977	0.0162717
798.056	0.0164150
798.134	0.0162506
798.212	0.0160966
798.290	0.0161838
798.368	0.0161697
798.446	0.0163193
798.524	0.0160592
798.602	0.0160523
798.681	0.0162791
798.759	0.0161900
798.837	0.0162192
798.915	0.0160572
798.993	0.0161606
799.071	0.0161780
799.149	0.0160867
799.227	0.0162418
799.306	0.0160381
799.384	0.0161332
799.462	0.0161954
799.540	0.0162340
799.618	0.0161239
799.696	0.0161043
799.774	0.0161438
799.852	0.0161729
799.931	0.0160136
800.009	0.0161044
800.087	0.0162001
800.165	0.0161890
800.243	0.0161752
800.321	0.0160763
800.399	0.0161104
800.477	0.0162024
800.556	0.0161880
800.634	0.0161293
800.712	0.0161119
800.790	0.0159608
800.868	0.0162944
800.946	0.0161949
801.024	0.0161662
801.102	0.0159660
801.181	0.0160500
801.259	0.0161127
801.337	0.0160173
801.415	0.0161150
801.493	0.0160790
801.571	0.0160791
801.649	0.0161066
801.727	0.0160394
801.806	0.0161237
801.884	0.0162410
801.962	0.0162459
802.040	0.0161010
802.118	0.0162303
802.196	0.0162016
802.274	0.0161666
802.352	0.0162688
802.431	0.0163355
802.509	0.0163158
802.587	0.0163351
802.665	0.0162826
802.743	0.0163216
802.821	0.0163826
802.899	0.0164823
802.977	0.0164098
803.056	0.0163811
803.134	0.0163994
803.212	0.0164989
803.290	0.0165565
803.368	0.0164857
803.446	0.0166132
803.524	0.0164880
803.602	0.0163850
803.681	0.0165137
803.759	0.0165360
803.837	0.0164863
803.915	0.0162965
803.993	0.0163343
804.071	0.0164307
804.149	0.0163562
804.227	0.0162781
804.306	0.0163039
804.384	0.0162242
804.462	0.0161959
804.540	0.0162318
804.618	0.0164148
804.696	0.0162312
804.774	0.0161481
804.852	0.0162514
804.931	0.0161976
805.009	0.0163068
805.087	0.0161403
805.165	0.0162682
805.243	0.0160970
805.321	0.0160542
805.399	0.0161983
805.477	0.0160194
805.556	0.0160178
805.634	0.0159601
805.712	0.0160996
805.790	0.0161190
805.868	0.0160201
805.946	0.0161366
806.024	0.0160361
806.102	0.0160036
806.181	0.0160246
806.259	0.0161445
806.337	0.0159704
806.415	0.0158911
806.493	0.0161120
806.571	0.0160387
806.649	0.0160330
806.727	0.0161244
806.806	0.0160549
806.884	0.0159711
806.962	0.0160542
807.040	0.0160976
807.118	0.0161280
807.196	0.0160340
807.274	0.0160077
807.352	0.0161205
807.431	0.0160910
807.509	0.0161027
807.587	0.0161095
807.665	0.0159721
807.743	0.0161006
807.821	0.0162537
807.899	0.0160777
807.977	0.0161494
808.056	0.0161703
808.134	0.0162114
808.212	0.0160436
808.290	0.0162231
808.368	0.0162087
808.446	0.0161869
808.524	0.0161518
808.602	0.0162099
808.681	0.0162414
808.759	0.0162981
808.837	0.0162630
808.915	0.0162285
808.993	0.0161327
809.071	0.0161864
809.149	0.0161616
809.227	0.0162962
809.306	0.0162564
809.384	0.0162513
809.462	0.0162867
809.540	0.0162782
809.618	0.0162418
809.696	0.0161806
809.774	0.0161445
809.852	0.0162145
809.931	0.0162334
810.009	0.0162686
810.087	0.0162498
810.165	0.0162254
810.243	0.0162366
810.321	0.0162386
810.399	0.0161038
810.477	0.0162511
810.556	0.0161757
810.634	0.0163405
810.712	0.0162553
810.790	0.0161860
810.868	0.0162365
810.946	0.0163310
811.024	0.0162365
811.102	0.0160938
811.181	0.0161228
811.259	0.0162900
811.337	0.0163486
811.415	0.0162907
811.493	0.0162688
811.571	0.0163770
811.649	0.0163548
811.727	0.0163278
811.806	0.0162604
811.884	0.0163734
811.962	0.0162652
812.040	0.0161941
812.118	0.0163563
812.196	0.0163937
812.274	0.0163758
812.352	0.0164172
812.431	0.0162566
812.509	0.0163879
812.587	0.0163568
812.665	0.0163364
812.743	0.0163603
812.821	0.0162809
812.899	0.0162596
812.977	0.0163200
813.056	0.0163862
813.134	0.0162579
813.212	0.0162006
813.290	0.0163883
813.368	0.0162689
813.446	0.0163979
813.524	0.0162358
813.602	0.0162096
813.681	0.0163544
813.759	0.0163859
813.837	0.0164246
813.915	0.0163178
813.993	0.0163446
814.071	0.0163210
814.149	0.0164049
814.227	0.0162536
814.306	0.0162091
814.384	0.0161909
814.462	0.0162387
814.540	0.0162016
814.618	0.0161153
814.696	0.0161973
814.774	0.0161279
814.852	0.0161874
814.931	0.0161440
815.009	0.0161351
815.087	0.0159864
815.165	0.0160931
815.243	0.0161296
815.321	0.0160262
815.399	0.0159789
815.477	0.0160348
815.556	0.0159785
815.634	0.0159579
815.712	0.0158368
815.790	0.0159872
815.868	0.0160445
815.946	0.0160978
816.024	0.0159593
816.102	0.0160619
816.181	0.0159571
816.259	0.0160527
816.337	0.0161193
816.415	0.0160237
816.493	0.0161774
816.571	0.0160640
816.649	0.0159116
816.727	0.0161455
816.806	0.0160324
816.884	0.0161118
816.962	0.0160867
817.040	0.0160843
817.118	0.0161874
817.196	0.0162280
817.274	0.0162311
817.352	0.0161011
817.431	0.0161778
817.509	0.0161729
817.587	0.0162562
817.665	0.0162674
817.743	0.0162318
817.821	0.0163088
817.899	0.0161707
817.977	0.0162688
818.056	0.0162742
818.134	0.0161458
818.212	0.0161374
818.290	0.0162720
818.368	0.0161491
818.446	0.0163393
818.524	0.0162889
818.602	0.0162349
818.681	0.0161391
818.759	0.0164206
818.837	0.0162525
818.915	0.0161290
818.993	0.0163004
819.071	0.0162870
819.149	0.0162840
819.227	0.0162790
819.306	0.0161534
819.384	0.0161759
819.462	0.0163076
819.540	0.0162654
819.618	0.0163229
819.696	0.0163211
819.774	0.0163376
819.852	0.0161713
819.931	0.0163688
820.009	0.0163155
820.087	0.0163071
820.165	0.0163605
820.243	0.0161645
820.321	0.0164413
820.399	0.0162827
820.477	0.0162622
820.556	0.0163000
820.634	0.0163103
820.712	0.0164303
820.790	0.0165364
820.868	0.0164501
820.946	0.0163937
821.024	0.0163741
821.102	0.0164336
821.181	0.0164693
821.259	0.0164831
821.337	0.0164690
821.415	0.0162110
821.493	0.0163841
821.571	0.0163753
821.649	0.0166218
821.727	0.0162876
821.806	0.0163603
821.884	0.0162160
821.962	0.0162735
822.040	0.0162679
822.118	0.0162641
822.196	0.0162823
822.274	0.0164008
822.352	0.0163739
822.431	0.0162696
822.509	0.0163057
822.587	0.0163440
822.665	0.0163248
822.743	0.0162933
822.821	0.0164449
822.899	0.0161401
822.977	0.0162265
823.056	0.0161827
823.134	0.0162325
823.212	0.0162777
823.290	0.0161910
823.368	0.0161393
823.446	0.0161802
823.524	0.0161774
823.602	0.0162405
823.681	0.0160500
823.759	0.0161797
823.837	0.0161371
823.915	0.0161048
823.993	0.0160326
824.071	0.0160648
824.149	0.0162001
824.227	0.0161349
824.306	0.0161143
824.384	0.0161258
824.462	0.0162369
824.540	0.0160838
824.618	0.0162215
824.696	0.0161407
824.774	0.0161546
824.852	0.0161482
824.931	0.0160704
825.009	0.0161196
825.087	0.0162402
825.165	0.0160593
825.243	0.0162244
825.321	0.0162280
825.399	0.0160752
825.477	0.0162208
825.556	0.0161005
825.634	0.0161861
825.712	0.0161897
825.790	0.0162047
825.868	0.0161508
825.946	0.0162029
826.024	0.0161756
826.102	0.0160568
826.181	0.0161033
826.259	0.0163068
826.337	0.0162259
826.415	0.0161475
826.493	0.0162800
826.571	0.0161113
826.649	0.0163465
826.727	0.0163209
826.806	0.0161361
826.884	0.0161292
826.962	0.0162289
827.040	0.0162063
827.118	0.0160604
827.196	0.0161713
827.274	0.0161731
827.352	0.0161411
827.431	0.0162323
827.509	0.0161868
827.587	0.0161331
827.665	0.0160480
827.743	0.0160782
827.821	0.0162723
827.899	0.0161842
827.977	0.0160992
828.056	0.0160683
828.134	0.0161884
828.212	0.0160252
828.290	0.0161115
828.368	0.0162454
828.446	0.0162298
828.524	0.0160905
828.602	0.0162035
828.681	0.0161173
828.759	0.0159438
828.837	0.0161164
828.915	0.0163036
828.993	0.0161120
829.071	0.0161291
829.149	0.0159927
829.227	0.0161530
829.306	0.0161195
829.384	0.0161164
829.462	0.0160621
829.540	0.0159848
829.618	0.0162392
829.696	0.0161926
829.774	0.0161209
829.852	0.0161290
829.931	0.0161323
830.009	0.0162193
830.087	0.0161607
830.165	0.0161807
830.243	0.0161770
830.321	0.0163532
830.399	0.0163178
830.477	0.0162142
830.556	0.0161175
830.634	0.0163365
830.712	0.0161826
830.790	0.0161823
830.868	0.0162454
830.946	0.0163460
831.024	0.0162122
831.102	0.0162910
831.181	0.0164455
831.259	0.0163492
831.337	0.0163830
831.415	0.0163226
831.493	0.0162163
831.571	0.0163387
831.649	0.0163033
831.727	0.0163100
831.806	0.0162972
831.884	0.0165063
831.962	0.0163161
832.040	0.0163381
832.118	0.0163902
832.196	0.0162653
832.274	0.0162604
832.352	0.0162740
832.431	0.0162994
832.509	0.0163638
832.587	0.0165304
832.665	0.0163409
832.743	0.0164510
832.821	0.0164108
832.899	0.0163098
832.977	0.0162867
833.056	0.0162194
833.134	0.0163464
833.212	0.0163306
833.290	0.0163387
833.368	0.0163989
833.446	0.0163538
833.524	0.0163386
833.602	0.0163877
833.681	0.0162688
833.759	0.0163629
833.837	0.0163477
833.915	0.0163583
833.993	0.0163880
834.071	0.0163192
834.149	0.0163629
834.227	0.0163503
834.306	0.0164259
834.384	0.0163800
834.462	0.0162482
834.540	0.0163955
834.618	0.0165644
834.696	0.0164263
834.774	0.0164159
834.852	0.0164440
834.931	0.0164395
835.009	0.0165292
835.087	0.0165084
835.165	0.0163653
835.243	0.0166317
835.321	0.0165012
835.399	0.0166604
835.477	0.0163226
835.556	0.0164547
835.634	0.0163992
835.712	0.0164577
835.790	0.0164297
835.868	0.0163209
835.946	0.0163644
836.024	0.0164837
836.102	0.0164404
836.181	0.0164107
836.259	0.0163822
836.337	0.0163538
836.415	0.0164494
836.493	0.0163213
836.571	0.0163551
836.649	0.0163721
836.727	0.0162923
836.806	0.0162341
836.884	0.0163453
836.962	0.0162870
837.040	0.0163117
837.118	0.0163286
837.196	0.0164041
837.274	0.0163757
837.352	0.0163332
837.431	0.0164109
837.509	0.0163349
837.587	0.0163344
837.665	0.0162848
837.743	0.0163500
837.821	0.0162945
837.899	0.0161862
837.977	0.0161979
838.056	0.0162094
838.134	0.0162681
838.212	0.0161998
838.290	0.0161865
838.368	0.0160876
838.446	0.0163545
838.524	0.0163083
838.602	0.0162529
838.681	0.0163060
838.759	0.0161974
838.837	0.0160965
838.915	0.0161665
838.993	0.0160558
839.071	0.0162682
839.149	0.0161842
839.227	0.0161781
839.306	0.0161120
839.384	0.0162009
839.462	0.0161629
839.540	0.0162489
839.618	0.0162339
839.696	0.0161810
839.774	0.0161018
839.852	0.0162757
839.931	0.0162198
840.009	0.0162695
840.087	0.0163428
840.165	0.0163047
840.243	0.0163686
840.321	0.0162563
840.399	0.0165910
840.477	0.0162579
840.556	0.0162524
840.634	0.0162942
840.712	0.0164111
840.790	0.0163670
840.868	0.0162806
840.946	0.0165263
841.024	0.0163078
841.102	0.0161578
841.181	0.0163778
841.259	0.0162572
841.337	0.0163039
841.415	0.0163609
841.493	0.0163389
841.571	0.0164262
841.649	0.0162383
841.727	0.0163581
841.806	0.0162844
841.884	0.0162758
841.962	0.0163001
842.040	0.0162579
842.118	0.0164013
842.196	0.0163718
842.274	0.0162943
842.352	0.0163316
842.431	0.0163022
842.509	0.0163551
842.587	0.0163027
842.665	0.0163155
842.743	0.0162650
842.821	0.0162541
842.899	0.0164281
842.977	0.0163248
843.056	0.0162054
843.134	0.0163760
843.212	0.0163588
843.290	0.0163252
843.368	0.0162514
843.446	0.0163263
843.524	0.0162930
843.602	0.0163918
843.681	0.0163280
843.759	0.0163392
843.837	0.0163457
843.915	0.0162605
843.993	0.0162991
844.071	0.0164254
844.149	0.0162709
844.227	0.0163033
844.306	0.0164635
844.384	0.0162856
844.462	0.0161631
844.540	0.0163631
844.618	0.0164183
844.696	0.0164307
844.774	0.0163000
844.852	0.0163572
844.931	0.0164047
845.009	0.0163858
845.087	0.0163992
845.165	0.0163464
845.243	0.0164354
845.321	0.0164355
845.399	0.0163013
845.477	0.0163067
845.556	0.0163552
845.634	0.0164553
845.712	0.0164644
845.790	0.0163940
845.868	0.0165086
845.946	0.0163988
846.024	0.0163702
846.102	0.0163718
846.181	0.0164287
846.259	0.0164852
846.337	0.0164460
846.415	0.0164784
846.493	0.0163625
846.571	0.0164286
846.649	0.0164768
846.727	0.0164896
846.806	0.0162801
846.884	0.0163071
846.962	0.0163004
847.040	0.0163878
847.118	0.0162396
847.196	0.0163155
847.274	0.0163311
847.352	0.0163199
847.431	0.0163097
847.509	0.0163004
847.587	0.0163219
847.665	0.0163503
847.743	0.0162853
847.821	0.0163196
847.899	0.0163128
847.977	0.0162737
848.056	0.0163000
848.134	0.0162408
848.212	0.0162051
848.290	0.0162298
848.368	0.0160892
848.446	0.0162395
848.524	0.0161035
848.602	0.0162070
848.681	0.0161292
848.759	0.0161701
848.837	0.0160966
848.915	0.0162203
848.993	0.0162715
849.071	0.0161712
849.149	0.0162254
849.227	0.0161858
849.306	0.0162434
849.384	0.0162160
849.462	0.0160815
849.540	0.0162210
849.618	0.0161533
849.696	0.0163607
849.774	0.0161119
849.852	0.0161702
849.931	0.0161320
850.009	0.0160921
850.087	0.0161606
850.165	0.0161731
850.243	0.0161208
850.321	0.0161071
850.399	0.0162796
850.477	0.0161634
850.556	0.0161282
850.634	0.0161598
850.712	0.0162709
850.790	0.0162326
850.868	0.0162443
850.946	0.0162251
851.024	0.0163536
851.102	0.0161477
851.181	0.0161494
851.259	0.0161385
851.337	0.0162176
851.415	0.0163202
851.493	0.0162653
851.571	0.0161908
851.649	0.0161687
851.727	0.0161938
851.806	0.0163345
851.884	0.0161146
851.962	0.0162322
852.040	0.0163463
852.118	0.0164069
852.196	0.0163972
852.274	0.0161221
852.352	0.0162531
852.431	0.0164194
852.509	0.0162914
852.587	0.0162183
852.665	0.0162154
852.743	0.0161785
852.821	0.0164011
852.899	0.0163677
852.977	0.0162932
853.056	0.0161759
853.134	0.0163069
853.212	0.0163260
853.290	0.0161644
853.368	0.0162861
853.446	0.0163431
853.524	0.0162432
853.602	0.0163453
853.681	0.0161519
853.759	0.0162970
853.837	0.0163262
853.915	0.0162601
853.993	0.0163100
854.071	0.0161924
854.149	0.0162508
854.227	0.0162287
854.306	0.0161172
854.384	0.0162450
854.462	0.0161990
854.540	0.0160664
854.618	0.0162833
854.696	0.0161980
854.774	0.0161452
854.852	0.0162946
854.931	0.0162004
855.009	0.0161395
855.087	0.0161739
855.165	0.0162379
855.243	0.0161115
855.321	0.0162258
855.399	0.0161819
855.477	0.0161656
855.556	0.0161228
855.634	0.0162734
855.712	0.0163139
855.790	0.0162456
855.868	0.0159850
855.946	0.0163393
856.024	0.0161807
856.102	0.0161304
856.181	0.0163464
856.259	0.0162337
856.337	0.0163950
856.415	0.0162249
856.493	0.0163033
856.571	0.0163367
856.649	0.0164021
856.727	0.0162813
856.806	0.0163446
856.884	0.0164211
856.962	0.0163120
857.040	0.0164118
857.118	0.0164172
857.196	0.0163368
857.274	0.0163947
857.352	0.0164401
857.431	0.0163323
857.509	0.0163698
857.587	0.0162869
857.665	0.0161927
857.743	0.0164906
857.821	0.0163403
857.899	0.0162453
857.977	0.0162627
858.056	0.0161756
858.134	0.0162706
858.212	0.0164411
858.290	0.0163294
858.368	0.0163148
858.446	0.0163781
858.524	0.0162405
858.602	0.0163199
858.681	0.0163283
858.759	0.0162338
858.837	0.0164293
858.915	0.0162903
858.993	0.0163683
859.071	0.0163942
859.149	0.0163611
859.227	0.0164169
859.306	0.0164144
859.384	0.0164300
859.462	0.0163757
859.540	0.0164252
859.618	0.0163813
859.696	0.0164667
859.774	0.0163149
859.852	0.0164243
859.931	0.0165776
860.009	0.0164324
860.087	0.0164131
860.165	0.0163457
860.243	0.0164625
860.321	0.0165293
860.399	0.0165375
860.477	0.0164718
860.556	0.0164900
860.634	0.0164873
860.712	0.0164802
860.790	0.0165215
860.868	0.0164935
860.946	0.0165534
861.024	0.0165014
861.102	0.0165853
861.181	0.0164392
861.259	0.0164983
861.337	0.0165281
861.415	0.0165327
861.493	0.0166119
861.571	0.0166665
861.649	0.0164899
861.727	0.0164687
861.806	0.0164725
861.884	0.0164513
861.962	0.0165324
862.040	0.0164446
862.118	0.0164550
862.196	0.0166067
862.274	0.0164028
862.352	0.0162762
862.431	0.0164336
862.509	0.0164630
862.587	0.0164749
862.665	0.0164384
862.743	0.0164117
862.821	0.0165051
862.899	0.0164686
862.977	0.0164371
863.056	0.0164767
863.134	0.0163682
863.212	0.0164301
863.290	0.0163808
863.368	0.0163474
863.446	0.0164534
863.524	0.0163734
863.602	0.0164520
863.681	0.0162848
863.759	0.0163837
863.837	0.0164988
863.915	0.0163916
863.993	0.0163396
864.071	0.0164703
864.149	0.0164053
864.227	0.0164803
864.306	0.0163153
864.384	0.0163513
864.462	0.0163416
864.540	0.0162760
864.618	0.0163764
864.696	0.0162253
864.774	0.0163015
864.852	0.0161814
864.931	0.0162913
865.009	0.0163040
865.087	0.0161109
865.165	0.0162177
865.243	0.0163094
865.321	0.0161638
865.399	0.0161921
865.477	0.0161287
865.556	0.0161098
865.634	0.0162623
865.712	0.0162625
865.790	0.0161927
865.868	0.0161154
865.946	0.0160666
866.024	0.0160818
866.102	0.0161404
866.181	0.0160114
866.259	0.0160665
866.337	0.0161594
866.415	0.0160681
866.493	0.0162184
866.571	0.0161233
866.649	0.0160833
866.727	0.0160754
866.806	0.0161688
866.884	0.0162384
866.962	0.0162207
867.040	0.0161987
867.118	0.0162170
867.196	0.0162051
867.274	0.0162370
867.352	0.0163135
867.431	0.0162875
867.509	0.0161969
867.587	0.0164174
867.665	0.0162733
867.743	0.0162031
867.821	0.0163024
867.899	0.0162688
867.977	0.0161292
868.056	0.0162857
868.134	0.0162302
868.212	0.0163951
868.290	0.0163023
868.368	0.0163370
868.446	0.0162616
868.524	0.0162482
868.602	0.0162367
868.681	0.0163975
868.759	0.0162562
868.837	0.0163960
868.915	0.0164687
868.993	0.0163610
869.071	0.0163599
869.149	0.0163352
869.227	0.0162949
869.306	0.0163442
869.384	0.0163581
869.462	0.0164259
869.540	0.0163966
869.618	0.0164479
869.696	0.0163738
869.774	0.0164056
869.852	0.0163902
869.931	0.0163366
870.009	0.0164941
870.087	0.0163421
870.165	0.0163840
870.243	0.0164317
870.321	0.0164582
870.399	0.0164493
870.477	0.0163773
870.556	0.0163365
870.634	0.0165566
870.712	0.0164906
870.790	0.0162897
870.868	0.0164119
870.946	0.0163133
871.024	0.0163792
871.102	0.0163336
871.181	0.0163489
871.259	0.0163791
871.337	0.0164173
871.415	0.0164219
871.493	0.0163588
871.571	0.0162800
871.649	0.0163052
871.727	0.0163731
871.806	0.0163602
871.884	0.0163368
871.962	0.0163180
872.040	0.0163077
872.118	0.0162226
872.196	0.0161435
872.274	0.0162976
872.352	0.0162842
872.431	0.0162118
872.509	0.0161806
872.587	0.0161919
872.665	0.0161495
872.743	0.0161189
872.821	0.0162305
872.899	0.0162504
872.977	0.0161938
873.056	0.0162878
873.134	0.0162125
873.212	0.0162543
873.290	0.0161863
873.368	0.0161848
873.446	0.0161748
873.524	0.0163132
873.602	0.0162382
873.681	0.0162386
873.759	0.0160654
873.837	0.0162157
873.915	0.0161607
873.993	0.0161724
874.071	0.0161415
874.149	0.0160770
874.227	0.0161831
874.306	0.0161396
874.384	0.0160888
874.462	0.0160263
874.540	0.0159377
874.618	0.0159869
874.696	0.0161049
874.774	0.0159933
874.852	0.0160890
874.931	0.0160152
875.009	0.0161058
875.087	0.0160841
875.165	0.0160474
875.243	0.0161328
875.321	0.0160959
875.399	0.0161011
875.477	0.0162056
875.556	0.0162968
875.634	0.0161938
875.712	0.0162921
875.790	0.0160178
875.868	0.0161857
875.946	0.0162317
876.024	0.0161758
876.102	0.0162899
876.181	0.0163487
876.259	0.0162260
876.337	0.0163568
876.415	0.0161989
876.493	0.0162131
876.571	0.0162542
876.649	0.0163581
876.727	0.0163865
876.806	0.0162212
876.884	0.0162286
876.962	0.0162249
877.040	0.0162302
877.118	0.0161358
877.196	0.0163977
877.274	0.0162811
877.352	0.0162137
877.431	0.0162143
877.509	0.0161398
877.587	0.0161964
877.665	0.0162474
877.743	0.0162296
877.821	0.0162232
877.899	0.0162585
877.977	0.0163012
878.056	0.0161808
878.134	0.0162272
878.212	0.0161346
878.290	0.0162413
878.368	0.0161724
878.446	0.0163616
878.524	0.0161326
878.602	0.0162962
878.681	0.0163028
878.759	0.0162515
878.837	0.0162638
878.915	0.0163683
878.993	0.0162415
879.071	0.0162736
879.149	0.0163226
879.227	0.0163671
879.306	0.0163349
879.384	0.0163346
879.462	0.0162856
879.540	0.0162765
879.618	0.0163001
879.696	0.0164600
879.774	0.0163905
879.852	0.0163307
879.931	0.0162443
880.009	0.0162720
880.087	0.0162876
880.165	0.0164265
880.243	0.0164645
880.321	0.0165135
880.399	0.0163739
880.477	0.0163068
880.556	0.0163679
880.634	0.0163652
880.712	0.0164774
880.790	0.0163450
880.868	0.0163793
880.946	0.0163878
881.024	0.0163672
881.102	0.0164466
881.181	0.0162284
881.259	0.0163479
881.337	0.0164103
881.415	0.0162818
881.493	0.0163115
881.571	0.0165345
881.649	0.0164268
881.727	0.0164108
881.806	0.0164496
881.884	0.0162912
881.962	0.0162901
882.040	0.0164115
882.118	0.0163285
882.196	0.0164289
882.274	0.0163140
882.352	0.0163087
882.431	0.0163464
882.509	0.0162517
882.587	0.0161964
882.665	0.0160891
882.743	0.0161686
882.821	0.0162689
882.899	0.0162576
882.977	0.0162098
883.056	0.0162198
883.134	0.0161562
883.212	0.0163053
883.290	0.0161959
883.368	0.0161690
883.446	0.0163481
883.524	0.0162408
883.602	0.0162587
883.681	0.0162254
883.759	0.0163515
883.837	0.0161665
883.915	0.0162965
883.993	0.0162860
884.071	0.0162842
884.149	0.0162876
884.227	0.0161894
884.306	0.0161935
884.384	0.0163047
884.462	0.0162306
884.540	0.0162440
884.618	0.0162942
884.696	0.0161526
884.774	0.0161874
884.852	0.0161597
884.931	0.0161364
885.009	0.0161930
885.087	0.0161452
885.165	0.0161573
885.243	0.0162724
885.321	0.0161729
885.399	0.0162697
885.477	0.0162767
885.556	0.0163075
885.634	0.0162568
885.712	0.0162071
885.790	0.0161959
885.868	0.0161861
885.946	0.0161983
886.024	0.0161873
886.102	0.0162495
886.181	0.0162141
886.259	0.0162805
886.337	0.0162916
886.415	0.0162865
886.493	0.0161422
886.571	0.0162222
886.649	0.0163793
886.727	0.0162000
886.806	0.0162661
886.884	0.0162476
886.962	0.0162648
887.040	0.0161504
887.118	0.0160400
887.196	0.0161192
887.274	0.0162295
887.352	0.0162421
887.431	0.0161298
887.509	0.0162224
887.587	0.0161477
887.665	0.0160506
887.743	0.0161187
887.821	0.0161409
887.899	0.0161016
887.977	0.0160515
888.056	0.0160273
888.134	0.0160409
888.212	0.0159905
888.290	0.0159863
888.368	0.0160697
888.446	0.0159927
888.524	0.0162331
888.602	0.0161529
888.681	0.0161054
888.759	0.0159688
888.837	0.0159593
888.915	0.0161443
888.993	0.0159826
889.071	0.0161284
889.149	0.0160387
889.227	0.0160706
889.306	0.0159915
889.384	0.0162452
889.462	0.0161977
889.540	0.0160516
889.618	0.0161120
889.696	0.0161121
889.774	0.0161230
889.852	0.0161899
889.931	0.0161189
890.009	0.0160918
890.087	0.0160532
890.165	0.0160081
890.243	0.0159921
890.321	0.0161152
890.399	0.0160722
890.477	0.0160825
890.556	0.0160537
890.634	0.0159113
890.712	0.0160627
890.790	0.0160047
890.868	0.0158511
890.946	0.0160001
891.024	0.0160526
891.102	0.0161271
891.181	0.0159942
891.259	0.0159476
891.337	0.0160360
891.415	0.0161767
891.493	0.0159962
891.571	0.0160535
891.649	0.0160104
891.727	0.0160760
891.806	0.0160983
891.884	0.0160255
891.962	0.0160612
892.040	0.0160252
892.118	0.0160680
892.196	0.0160551
892.274	0.0160483
892.352	0.0159010
892.431	0.0160538
892.509	0.0161549
892.587	0.0161394
892.665	0.0160619
892.743	0.0161967
892.821	0.0161660
892.899	0.0160893
892.977	0.0161908
893.056	0.0161449
893.134	0.0162606
893.212	0.0160931
893.290	0.0161230
893.368	0.0161051
893.446	0.0161922
893.524	0.0160750
893.602	0.0162518
893.681	0.0162022
893.759	0.0162119
893.837	0.0161243
893.915	0.0162675
893.993	0.0162454
894.071	0.0162920
894.149	0.0164060
894.227	0.0162690
894.306	0.0162406
894.384	0.0164587
894.462	0.0163243
894.540	0.0162911
894.618	0.0163802
894.696	0.0163396
894.774	0.0163260
894.852	0.0164037
894.931	0.0163593
895.009	0.0162365
895.087	0.0162924
895.165	0.0164581
895.243	0.0163808
895.321	0.0163356
895.399	0.0162408
895.477	0.0162389
895.556	0.0162945
895.634	0.0162457
895.712	0.0162740
895.790	0.0162183
895.868	0.0161739
895.946	0.0163073
896.024	0.0161678
896.102	0.0161217
896.181	0.0163295
896.259	0.0163361
896.337	0.0163136
896.415	0.0162585
896.493	0.0163187
896.571	0.0162299
896.649	0.0162839
896.727	0.0162969
896.806	0.0161184
896.884	0.0161948
896.962	0.0161784
897.040	0.0162603
897.118	0.0162247
897.196	0.0162366
897.274	0.0161845
897.352	0.0161802
897.431	0.0162543
897.509	0.0161675
897.587	0.0161414
897.665	0.0160232
897.743	0.0161557
897.821	0.0162308
897.899	0.0161294
897.977	0.0160604
898.056	0.0160918
898.134	0.0162894
898.212	0.0160276
898.290	0.0160845
898.368	0.0161763
898.446	0.0161333
898.524	0.0161455
898.602	0.0162074
898.681	0.0160307
898.759	0.0160836
898.837	0.0160414
898.915	0.0160553
898.993	0.0160864
899.071	0.0158817
899.149	0.0159926
899.227	0.0160822
899.306	0.0159940
899.384	0.0160093
899.462	0.0161670
899.540	0.0161044
899.618	0.0160543
899.696	0.0160699
899.774	0.0161382
899.852	0.0160783
899.931	0.0160386
900.009	0.0160666
900.087	0.0161134
900.165	0.0160830
900.243	0.0160771
900.321	0.0160632
900.399	0.0160003
900.477	0.0160767
900.556	0.0160519
900.634	0.0159644
900.712	0.0160386
900.790	0.0160593
900.868	0.0159636
900.946	0.0157898
901.024	0.0159801
901.102	0.0159348
901.181	0.0158332
901.259	0.0159043
901.337	0.0157986
901.415	0.0158758
901.493	0.0159572
901.571	0.0158508
901.649	0.0158308
901.727	0.0158829
901.806	0.0159248
901.884	0.0158899
901.962	0.0160155
902.040	0.0161118
902.118	0.0160050
902.196	0.0161177
902.274	0.0160581
902.352	0.0160106
902.431	0.0161472
902.509	0.0162872
902.587	0.0163480
902.665	0.0162039
902.743	0.0162061
902.821	0.0163226
902.899	0.0163175
902.977	0.0162534
903.056	0.0163136
903.134	0.0162721
903.212	0.0162964
903.290	0.0162814
903.368	0.0163881
903.446	0.0163525
903.524	0.0162928
903.602	0.0162516
903.681	0.0165012
903.759	0.0163757
903.837	0.0163815
903.915	0.0162119
903.993	0.0161698
904.071	0.0163079
904.149	0.0163154
904.227	0.0162463
904.306	0.0161858
904.384	0.0162341
904.462	0.0162920
904.540	0.0163741
904.618	0.0162402
904.696	0.0161855
904.774	0.0163348
904.852	0.0161703
904.931	0.0161412
905.009	0.0161055
905.087	0.0162150
905.165	0.0161526
905.243	0.0163102
905.321	0.0162788
905.399	0.0162133
905.477	0.0161971
905.556	0.0163338
905.634	0.0162383
905.712	0.0161901
905.790	0.0162477
905.868	0.0163646
905.946	0.0162156
906.024	0.0160756
906.102	0.0162283
906.181	0.0162629
906.259	0.0161690
906.337	0.0162217
906.415	0.0161295
906.493	0.0162546
906.571	0.0161636
906.649	0.0160721
906.727	0.0162720
906.806	0.0160940
906.884	0.0162982
906.962	0.0161989
907.040	0.0161543
907.118	0.0161763
907.196	0.0162838
907.274	0.0162611
907.352	0.0161880
907.431	0.0162632
907.509	0.0162788
907.587	0.0162264
907.665	0.0163338
907.743	0.0161012
907.821	0.0162374
907.899	0.0163316
907.977	0.0161926
908.056	0.0161726
908.134	0.0161918
908.212	0.0161539
908.290	0.0161901
908.368	0.0161011
908.446	0.0160462
908.524	0.0161447
908.602	0.0160662
908.681	0.0159737
908.759	0.0160103
908.837	0.0159715
908.915	0.0160391
908.993	0.0160844
909.071	0.0160049
909.149	0.0161461
909.227	0.0159286
909.306	0.0159489
909.384	0.0161702
909.462	0.0160798
909.540	0.0160363
909.618	0.0159280
909.696	0.0159509
909.774	0.0160277
909.852	0.0159821
909.931	0.0159175
910.009	0.0160170
910.087	0.0159920
910.165	0.0160997
910.243	0.0160317
910.321	0.0159838
910.399	0.0159810
910.477	0.0161238
910.556	0.0160930
910.634	0.0160181
910.712	0.0160256
910.790	0.0160410
910.868	0.0160452
910.946	0.0161742
911.024	0.0162027
911.102	0.0161419
911.181	0.0160299
911.259	0.0160402
911.337	0.0161923
911.415	0.0162234
911.493	0.0161505
911.571	0.0162027
911.649	0.0162060
911.727	0.0161463
911.806	0.0161842
911.884	0.0162125
911.962	0.0161488
912.040	0.0161862
912.118	0.0162045
912.196	0.0161264
912.274	0.0161923
912.352	0.0163056
912.431	0.0162492
912.509	0.0161013
912.587	0.0161721
912.665	0.0161151
912.743	0.0162401
912.821	0.0162997
912.899	0.0161800
912.977	0.0161034
913.056	0.0161346
913.134	0.0161217
913.212	0.0162862
913.290	0.0161448
913.368	0.0159833
913.446	0.0160777
913.524	0.0160832
913.602	0.0159967
913.681	0.0159000
913.759	0.0159734
913.837	0.0161578
913.915	0.0159956
913.993	0.0159802
914.071	0.0160503
914.149	0.0160227
914.227	0.0159387
914.306	0.0158677
914.384	0.0159470
914.462	0.0161752
914.540	0.0160104
914.618	0.0159597
914.696	0.0161549
914.774	0.0159898
914.852	0.0159385
914.931	0.0159295
915.009	0.0160046
915.087	0.0159949
915.165	0.0160602
915.243	0.0160535
915.321	0.0160957
915.399	0.0159477
915.477	0.0161755
915.556	0.0162077
915.634	0.0162193
915.712	0.0161998
915.790	0.0164288
915.868	0.0163335
915.946	0.0162687
916.024	0.0161864
916.102	0.0162084
916.181	0.0163250
916.259	0.0163696
916.337	0.0163435
916.415	0.0163728
916.493	0.0162537
916.571	0.0163417
916.649	0.0162881
916.727	0.0162426
916.806	0.0164095
916.884	0.0163609
916.962	0.0163316
917.040	0.0163589
917.118	0.0164288
917.196	0.0163747
917.274	0.0163969
917.352	0.0162832
917.431	0.0162691
917.509	0.0164402
917.587	0.0164286
917.665	0.0163879
917.743	0.0161872
917.821	0.0163984
917.899	0.0163596
917.977	0.0163175
918.056	0.0164192
918.134	0.0162003
918.212	0.0163026
918.290	0.0163278
918.368	0.0162196
918.446	0.0162869
918.524	0.0163474
918.602	0.0163539
918.681	0.0162036
918.759	0.0161139
918.837	0.0161914
918.915	0.0162496
918.993	0.0161861
919.071	0.0163156
919.149	0.0163408
919.227	0.0163348
919.306	0.0162854
919.384	0.0162502
919.462	0.0162226
919.540	0.0162211
919.618	0.0162739
919.696	0.0163615
919.774	0.0163482
919.852	0.0162411
919.931	0.0163305
920.009	0.0162003
920.087	0.0162621
920.165	0.0164574
920.243	0.0162827
920.321	0.0162710
920.399	0.0162321
920.477	0.0161103
920.556	0.0162691
920.634	0.0162215
920.712	0.0162806
920.790	0.0163200
920.868	0.0161768
920.946	0.0161340
921.024	0.0162505
921.102	0.0161231
921.181	0.0162407
921.259	0.0165691
921.337	0.0162981
921.415	0.0161703
921.493	0.0161998
921.571	0.0163100
921.649	0.0162330
921.727	0.0161221
921.806	0.0162675
921.884	0.0161518
921.962	0.0159832
922.040	0.0162673
922.118	0.0161497
922.196	0.0161694
922.274	0.0161176
922.352	0.0160720
922.431	0.0161537
922.509	0.0162014
922.587	0.0161174
922.665	0.0159901
922.743	0.0160904
922.821	0.0161066
922.899	0.0160072
922.977	0.0161898
923.056	0.0161345
923.134	0.0161768
923.212	0.0161042
923.290	0.0159378
923.368	0.0161032
923.446	0.0161859
923.524	0.0161964
923.602	0.0162416
923.681	0.0161962
923.759	0.0161778
923.837	0.0162547
923.915	0.0160461
923.993	0.0162247
924.071	0.0162038
924.149	0.0162711
924.227	0.0163733
924.306	0.0162933
924.384	0.0162945
924.462	0.0164870
924.540	0.0163573
924.618	0.0163338
924.696	0.0163680
924.774	0.0164068
924.852	0.0164246
924.931	0.0163123
925.009	0.0163982
925.087	0.0164956
925.165	0.0165148
925.243	0.0164635
925.321	0.0164317
925.399	0.0163804
925.477	0.0163531
925.556	0.0165958
925.634	0.0164487
925.712	0.0165376
925.790	0.0164912
925.868	0.0166032
925.946	0.0165179
926.024	0.0165544
926.102	0.0164877
926.181	0.0166055
926.259	0.0166963
926.337	0.0165708
926.415	0.0166352
926.493	0.0164899
926.571	0.0164159
926.649	0.0164698
926.727	0.0165173
926.806	0.0164484
926.884	0.0164311
926.962	0.0165165
927.040	0.0165600
927.118	0.0164931
927.196	0.0163612
927.274	0.0164720
927.352	0.0164384
927.431	0.0164385
927.509	0.0162534
927.587	0.0162422
927.665	0.0163548
927.743	0.0161758
927.821	0.0162439
927.899	0.0163279
927.977	0.0163804
928.056	0.0162873
928.134	0.0163749
928.212	0.0164038
928.290	0.0161715
928.368	0.0163094
928.446	0.0162317
928.524	0.0162428
928.602	0.0161649
928.681	0.0162602
928.759	0.0161960
928.837	0.0161520
928.915	0.0160678
928.993	0.0160165
929.071	0.0161255
929.149	0.0163593
929.227	0.0161374
929.306	0.0161122
929.384	0.0162160
929.462	0.0160378
929.540	0.0160487
929.618	0.0162037
929.696	0.0162072
929.774	0.0161349
929.852	0.0162407
929.931	0.0162106
