05/19/2022	00:36:33	Ver.	4.1	UNKNOWN
Optical Delay	630.009178	Delta X		0.078125	Sweeps	1	Scan Rate	0/0
Coordinates	Axis 1	NaN	Axis 2	NaN	Axis 3	NaN	Axis 4	NaN	Axis 5	NaN	Axis 6	0.000000
TX Power	0.000000	RX Power	0.000000

630.009	0.0160886
630.087	0.0159767
630.165	0.0161553
630.244	0.0161927
630.322	0.0161523
630.400	0.0162217
630.478	0.0161501
630.556	0.0159898
630.634	0.0160299
630.712	0.0161274
630.790	0.0162189
630.869	0.0160448
630.947	0.0160835
631.025	0.0162842
631.103	0.0161943
631.181	0.0161784
631.259	0.0160899
631.337	0.0160337
631.415	0.0161808
631.494	0.0160612
631.572	0.0162173
631.650	0.0161819
631.728	0.0160891
631.806	0.0160798
631.884	0.0160152
631.962	0.0161773
632.040	0.0160179
632.119	0.0160547
632.197	0.0161449
632.275	0.0161045
632.353	0.0161283
632.431	0.0161173
632.509	0.0161181
632.587	0.0160228
632.665	0.0161308
632.744	0.0159988
632.822	0.0160968
632.900	0.0159875
632.978	0.0161617
633.056	0.0161722
633.134	0.0161792
633.212	0.0161317
633.290	0.0161490
633.369	0.0160744
633.447	0.0161425
633.525	0.0161115
633.603	0.0161694
633.681	0.0161813
633.759	0.0161456
633.837	0.0160416
633.915	0.0160944
633.994	0.0160277
634.072	0.0160302
634.150	0.0161696
634.228	0.0161875
634.306	0.0161250
634.384	0.0161071
634.462	0.0162120
634.540	0.0161358
634.619	0.0161076
634.697	0.0162305
634.775	0.0160415
634.853	0.0160985
634.931	0.0161785
635.009	0.0161248
635.087	0.0160313
635.165	0.0160876
635.244	0.0161015
635.322	0.0160265
635.400	0.0160934
635.478	0.0159945
635.556	0.0160484
635.634	0.0161472
635.712	0.0161087
635.790	0.0160773
635.869	0.0162167
635.947	0.0161646
636.025	0.0159544
636.103	0.0160722
636.181	0.0161343
636.259	0.0160257
636.337	0.0161532
636.415	0.0161407
636.494	0.0159960
636.572	0.0160005
636.650	0.0160509
636.728	0.0160282
636.806	0.0160905
636.884	0.0160710
636.962	0.0160769
637.040	0.0160670
637.119	0.0161193
637.197	0.0160623
637.275	0.0160004
637.353	0.0159961
637.431	0.0160657
637.509	0.0161230
637.587	0.0162159
637.665	0.0159885
637.744	0.0160205
637.822	0.0161334
637.900	0.0160780
637.978	0.0161623
638.056	0.0160783
638.134	0.0161263
638.212	0.0161818
638.290	0.0161034
638.369	0.0160097
638.447	0.0160531
638.525	0.0160390
638.603	0.0160229
638.681	0.0161542
638.759	0.0161440
638.837	0.0161232
638.915	0.0159884
638.994	0.0161151
639.072	0.0161837
639.150	0.0161131
639.228	0.0160786
639.306	0.0161422
639.384	0.0162141
639.462	0.0160625
639.540	0.0161985
639.619	0.0161475
639.697	0.0161079
639.775	0.0161630
639.853	0.0161907
639.931	0.0159701
640.009	0.0160910
640.087	0.0160403
640.165	0.0161656
640.244	0.0160954
640.322	0.0160545
640.400	0.0160508
640.478	0.0160093
640.556	0.0161335
640.634	0.0160746
640.712	0.0161065
640.790	0.0160861
640.869	0.0161454
640.947	0.0159793
641.025	0.0160410
641.103	0.0160786
641.181	0.0162687
641.259	0.0161069
641.337	0.0159235
641.415	0.0159000
641.494	0.0161290
641.572	0.0160009
641.650	0.0160233
641.728	0.0160197
641.806	0.0159212
641.884	0.0161137
641.962	0.0161037
642.040	0.0160802
642.119	0.0161183
642.197	0.0159980
642.275	0.0161316
642.353	0.0160970
642.431	0.0160732
642.509	0.0161561
642.587	0.0161804
642.665	0.0160503
642.744	0.0160632
642.822	0.0161227
642.900	0.0160773
642.978	0.0159231
643.056	0.0161917
643.134	0.0162489
643.212	0.0160039
643.290	0.0161539
643.369	0.0160567
643.447	0.0159724
643.525	0.0160446
643.603	0.0161777
643.681	0.0161069
643.759	0.0159788
643.837	0.0161677
643.915	0.0159990
643.994	0.0160536
644.072	0.0161161
644.150	0.0161275
644.228	0.0159531
644.306	0.0161704
644.384	0.0161295
644.462	0.0159715
644.540	0.0162653
644.619	0.0161368
644.697	0.0160086
644.775	0.0161143
644.853	0.0161417
644.931	0.0161238
645.009	0.0161197
645.087	0.0161829
645.165	0.0161211
645.244	0.0161132
645.322	0.0160983
645.400	0.0160149
645.478	0.0160886
645.556	0.0160873
645.634	0.0161723
645.712	0.0161109
645.790	0.0160459
645.869	0.0161462
645.947	0.0159895
646.025	0.0159542
646.103	0.0160094
646.181	0.0161053
646.259	0.0161003
646.337	0.0161345
646.415	0.0159678
646.494	0.0160772
646.572	0.0161031
646.650	0.0160715
646.728	0.0160120
646.806	0.0160115
646.884	0.0160796
646.962	0.0161109
647.040	0.0160874
647.119	0.0161301
647.197	0.0161445
647.275	0.0161614
647.353	0.0161226
647.431	0.0160886
647.509	0.0161852
647.587	0.0161008
647.665	0.0161282
647.744	0.0160538
647.822	0.0161481
647.900	0.0160975
647.978	0.0161862
648.056	0.0161015
648.134	0.0161801
648.212	0.0160146
648.290	0.0160391
648.369	0.0161281
648.447	0.0162948
648.525	0.0160999
648.603	0.0161961
648.681	0.0161931
648.759	0.0161426
648.837	0.0161102
648.915	0.0159706
648.994	0.0161697
649.072	0.0160704
649.150	0.0161285
649.228	0.0161251
649.306	0.0160769
649.384	0.0160718
649.462	0.0161407
649.540	0.0162016
649.619	0.0160062
649.697	0.0162246
649.775	0.0160420
649.853	0.0160271
649.931	0.0159597
650.009	0.0161415
650.087	0.0159724
650.165	0.0161749
650.244	0.0161835
650.322	0.0161161
650.400	0.0161211
650.478	0.0161037
650.556	0.0160281
650.634	0.0162203
650.712	0.0160242
650.790	0.0160426
650.869	0.0160564
650.947	0.0159968
651.025	0.0160762
651.103	0.0161191
651.181	0.0160784
651.259	0.0161225
651.337	0.0161368
651.415	0.0160768
651.494	0.0160691
651.572	0.0160154
651.650	0.0160397
651.728	0.0159594
651.806	0.0161457
651.884	0.0161647
651.962	0.0162312
652.040	0.0161773
652.119	0.0161207
652.197	0.0161156
652.275	0.0161634
652.353	0.0160185
652.431	0.0161323
652.509	0.0162448
652.587	0.0161887
652.665	0.0162035
652.744	0.0160837
652.822	0.0160574
652.900	0.0161269
652.978	0.0160435
653.056	0.0162200
653.134	0.0161219
653.212	0.0159740
653.290	0.0161146
653.369	0.0161654
653.447	0.0160847
653.525	0.0159712
653.603	0.0160520
653.681	0.0161368
653.759	0.0162368
653.837	0.0160062
653.915	0.0161560
653.994	0.0161745
654.072	0.0161744
654.150	0.0160120
654.228	0.0160386
654.306	0.0160730
654.384	0.0161470
654.462	0.0161319
654.540	0.0161555
654.619	0.0161071
654.697	0.0161172
654.775	0.0161062
654.853	0.0161513
654.931	0.0160764
655.009	0.0160126
655.087	0.0159859
655.165	0.0161334
655.244	0.0160778
655.322	0.0160004
655.400	0.0160925
655.478	0.0161642
655.556	0.0161359
655.634	0.0161615
655.712	0.0160236
655.790	0.0160885
655.869	0.0161184
655.947	0.0161010
656.025	0.0161367
656.103	0.0160675
656.181	0.0160545
656.259	0.0160908
656.337	0.0161139
656.415	0.0159660
656.494	0.0159482
656.572	0.0160521
656.650	0.0162262
656.728	0.0160460
656.806	0.0160491
656.884	0.0160699
656.962	0.0160484
657.040	0.0160430
657.119	0.0160204
657.197	0.0161538
657.275	0.0161282
657.353	0.0160952
657.431	0.0160956
657.509	0.0160530
657.587	0.0161014
657.665	0.0162009
657.744	0.0161327
657.822	0.0161256
657.900	0.0161172
657.978	0.0161269
658.056	0.0161658
658.134	0.0160818
658.212	0.0160941
658.290	0.0160786
658.369	0.0161516
658.447	0.0162067
658.525	0.0160719
658.603	0.0159372
658.681	0.0160041
658.759	0.0160762
658.837	0.0160648
658.915	0.0161066
658.994	0.0161276
659.072	0.0160640
659.150	0.0161298
659.228	0.0161548
659.306	0.0160249
659.384	0.0159715
659.462	0.0161661
659.540	0.0161160
659.619	0.0160879
659.697	0.0161178
659.775	0.0160306
659.853	0.0160938
659.931	0.0160013
660.009	0.0161336
660.087	0.0160238
660.165	0.0161454
660.244	0.0159976
660.322	0.0159641
660.400	0.0161185
660.478	0.0160352
660.556	0.0160969
660.634	0.0160149
660.712	0.0161243
660.790	0.0160184
660.869	0.0160036
660.947	0.0159869
661.025	0.0160078
661.103	0.0160306
661.181	0.0161804
661.259	0.0161531
661.337	0.0160426
661.415	0.0160369
661.494	0.0160729
661.572	0.0159564
661.650	0.0161478
661.728	0.0160302
661.806	0.0158994
661.884	0.0160397
661.962	0.0159946
662.040	0.0160426
662.119	0.0160315
662.197	0.0159209
662.275	0.0160483
662.353	0.0160366
662.431	0.0159778
662.509	0.0158927
662.587	0.0161206
662.665	0.0161102
662.744	0.0160700
662.822	0.0159508
662.900	0.0158605
662.978	0.0160752
663.056	0.0158585
663.134	0.0159692
663.212	0.0159505
663.290	0.0160493
663.369	0.0161070
663.447	0.0160406
663.525	0.0159445
663.603	0.0158443
663.681	0.0159219
663.759	0.0160163
663.837	0.0159969
663.915	0.0158820
663.994	0.0160523
664.072	0.0159903
664.150	0.0159299
664.228	0.0160766
664.306	0.0158997
664.384	0.0158839
664.462	0.0160744
664.540	0.0161002
664.619	0.0159584
664.697	0.0160383
664.775	0.0161063
664.853	0.0160010
664.931	0.0161620
665.009	0.0159341
665.087	0.0160735
665.165	0.0160829
665.244	0.0159253
665.322	0.0160048
665.400	0.0160265
665.478	0.0160917
665.556	0.0160204
665.634	0.0161575
665.712	0.0161424
665.790	0.0159232
665.869	0.0160669
665.947	0.0160947
666.025	0.0160244
666.103	0.0162296
666.181	0.0161054
666.259	0.0160768
666.337	0.0163118
666.415	0.0159915
666.494	0.0161691
666.572	0.0161603
666.650	0.0159937
666.728	0.0160161
666.806	0.0161065
666.884	0.0161468
666.962	0.0161548
667.040	0.0161048
667.119	0.0161389
667.197	0.0162219
667.275	0.0161483
667.353	0.0161427
667.431	0.0161558
667.509	0.0161957
667.587	0.0162086
667.665	0.0161517
667.744	0.0160815
667.822	0.0162350
667.900	0.0161237
667.978	0.0162600
668.056	0.0161756
668.134	0.0161087
668.212	0.0161913
668.290	0.0160894
668.369	0.0161575
668.447	0.0162180
668.525	0.0162534
668.603	0.0161785
668.681	0.0163757
668.759	0.0163533
668.837	0.0163287
668.915	0.0161314
668.994	0.0161862
669.072	0.0162365
669.150	0.0163268
669.228	0.0161395
669.306	0.0163078
669.384	0.0162578
669.462	0.0163786
669.540	0.0162855
669.619	0.0163161
669.697	0.0161536
669.775	0.0162236
669.853	0.0162748
669.931	0.0162907
670.009	0.0163306
670.087	0.0162924
670.165	0.0163697
670.244	0.0161684
670.322	0.0162725
670.400	0.0163696
670.478	0.0161652
670.556	0.0162567
670.634	0.0163717
670.712	0.0162152
670.790	0.0162640
670.869	0.0163422
670.947	0.0162255
671.025	0.0162920
671.103	0.0162859
671.181	0.0161477
671.259	0.0161605
671.337	0.0163618
671.415	0.0161726
671.494	0.0162048
671.572	0.0162019
671.650	0.0162306
671.728	0.0162179
671.806	0.0161999
671.884	0.0162337
671.962	0.0164175
672.040	0.0160449
672.119	0.0161395
672.197	0.0162171
672.275	0.0160548
672.353	0.0161895
672.431	0.0161649
672.509	0.0162734
672.587	0.0161743
672.665	0.0161106
672.744	0.0161035
672.822	0.0162122
672.900	0.0161654
672.978	0.0160600
673.056	0.0161588
673.134	0.0161430
673.212	0.0160830
673.290	0.0161858
673.369	0.0161765
673.447	0.0160825
673.525	0.0160735
673.603	0.0160940
673.681	0.0160572
673.759	0.0161948
673.837	0.0162209
673.915	0.0159266
673.994	0.0160789
674.072	0.0161189
674.150	0.0161294
674.228	0.0159521
674.306	0.0160913
674.384	0.0159676
674.462	0.0160781
674.540	0.0160262
674.619	0.0159869
674.697	0.0159174
674.775	0.0160069
674.853	0.0159805
674.931	0.0159230
675.009	0.0160068
675.087	0.0159833
675.165	0.0159739
675.244	0.0160210
675.322	0.0159180
675.400	0.0159781
675.478	0.0158863
675.556	0.0158831
675.634	0.0159906
675.712	0.0159065
675.790	0.0160160
675.869	0.0158688
675.947	0.0158650
676.025	0.0160114
676.103	0.0160814
676.181	0.0160136
676.259	0.0158891
676.337	0.0160176
676.415	0.0158950
676.494	0.0160579
676.572	0.0160077
676.650	0.0158548
676.728	0.0159986
676.806	0.0161641
676.884	0.0159940
676.962	0.0160237
677.040	0.0158212
677.119	0.0160479
677.197	0.0159895
677.275	0.0160978
677.353	0.0159167
677.431	0.0159364
677.509	0.0159872
677.587	0.0159429
677.665	0.0159889
677.744	0.0159425
677.822	0.0158757
677.900	0.0160754
677.978	0.0160976
678.056	0.0160132
678.134	0.0160820
678.212	0.0160410
678.290	0.0158990
678.369	0.0160232
678.447	0.0160455
678.525	0.0159875
678.603	0.0160319
678.681	0.0161322
678.759	0.0162082
678.837	0.0160429
678.915	0.0160189
678.994	0.0160764
679.072	0.0161864
679.150	0.0161871
679.228	0.0161613
679.306	0.0161447
679.384	0.0161017
679.462	0.0160683
679.540	0.0162266
679.619	0.0160668
679.697	0.0161763
679.775	0.0160784
679.853	0.0160854
679.931	0.0161177
680.009	0.0161572
680.087	0.0161196
680.165	0.0162700
680.244	0.0162369
680.322	0.0161017
680.400	0.0160637
680.478	0.0160593
680.556	0.0161140
680.634	0.0160132
680.712	0.0159830
680.790	0.0161235
680.869	0.0161387
680.947	0.0161220
681.025	0.0160384
681.103	0.0161423
681.181	0.0161314
681.259	0.0161542
681.337	0.0160123
681.415	0.0161289
681.494	0.0161893
681.572	0.0160126
681.650	0.0160398
681.728	0.0161611
681.806	0.0160580
681.884	0.0159725
681.962	0.0160924
682.040	0.0161250
682.119	0.0161073
682.197	0.0161829
682.275	0.0161868
682.353	0.0161041
682.431	0.0161290
682.509	0.0161423
682.587	0.0162233
682.665	0.0158745
682.744	0.0162113
682.822	0.0161359
682.900	0.0160795
682.978	0.0161008
683.056	0.0162095
683.134	0.0162424
683.212	0.0161490
683.290	0.0161552
683.369	0.0161395
683.447	0.0160596
683.525	0.0162116
683.603	0.0160014
683.681	0.0158028
683.759	0.0157981
683.837	0.0157021
683.915	0.0156072
683.994	0.0154433
684.072	0.0154520
684.150	0.0152853
684.228	0.0152581
684.306	0.0152358
684.384	0.0153226
684.462	0.0153751
684.540	0.0154796
684.619	0.0155865
684.697	0.0157977
684.775	0.0160021
684.853	0.0162044
684.931	0.0165011
685.009	0.0166703
685.087	0.0167730
685.165	0.0169784
685.244	0.0170078
685.322	0.0171417
685.400	0.0172325
685.478	0.0171289
685.556	0.0169984
685.634	0.0167858
685.712	0.0167042
685.790	0.0165268
685.869	0.0162822
685.947	0.0158961
686.025	0.0158968
686.103	0.0158430
686.181	0.0154992
686.259	0.0153986
686.337	0.0151036
686.415	0.0150418
686.494	0.0151895
686.572	0.0150125
686.650	0.0150250
686.728	0.0150800
686.806	0.0152994
686.884	0.0155329
686.962	0.0156707
687.040	0.0158747
687.119	0.0160413
687.197	0.0163342
687.275	0.0165340
687.353	0.0166750
687.431	0.0166264
687.509	0.0168899
687.587	0.0169604
687.665	0.0171081
687.744	0.0171938
687.822	0.0170306
687.900	0.0170828
687.978	0.0171572
688.056	0.0170475
688.134	0.0168205
688.212	0.0165060
688.290	0.0164485
688.369	0.0162627
688.447	0.0159245
688.525	0.0156464
688.603	0.0157487
688.681	0.0154417
688.759	0.0152312
688.837	0.0151395
688.915	0.0150154
688.994	0.0150167
689.072	0.0148527
689.150	0.0148625
689.228	0.0150216
689.306	0.0151395
689.384	0.0151703
689.462	0.0154089
689.540	0.0154444
689.619	0.0155901
689.697	0.0157471
689.775	0.0159790
689.853	0.0161674
689.931	0.0163066
690.009	0.0165317
690.087	0.0166905
690.165	0.0168315
690.244	0.0170579
690.322	0.0171835
690.400	0.0172191
690.478	0.0170706
690.556	0.0172867
690.634	0.0171037
690.712	0.0171066
690.790	0.0170288
690.869	0.0170266
690.947	0.0168359
691.025	0.0166512
691.103	0.0164694
691.181	0.0164097
691.259	0.0162792
691.337	0.0159851
691.415	0.0160187
691.494	0.0158894
691.572	0.0157151
691.650	0.0155464
691.728	0.0154461
691.806	0.0157629
691.884	0.0156816
691.962	0.0155492
692.040	0.0155507
692.119	0.0155178
692.197	0.0155315
692.275	0.0155949
692.353	0.0155607
692.431	0.0156265
692.509	0.0156516
692.587	0.0156297
692.665	0.0156362
692.744	0.0156351
692.822	0.0158714
692.900	0.0157346
692.978	0.0157856
693.056	0.0158067
693.134	0.0158382
693.212	0.0159052
693.290	0.0158772
693.369	0.0157493
693.447	0.0158428
693.525	0.0157880
693.603	0.0158237
693.681	0.0159195
693.759	0.0160298
693.837	0.0160365
693.915	0.0160925
693.994	0.0160697
694.072	0.0162767
694.150	0.0162053
694.228	0.0163855
694.306	0.0163303
694.384	0.0163763
694.462	0.0164790
694.540	0.0165462
694.619	0.0166032
694.697	0.0166724
694.775	0.0166727
694.853	0.0168468
694.931	0.0166641
695.009	0.0167107
695.087	0.0166122
695.165	0.0165585
695.244	0.0165852
695.322	0.0164396
695.400	0.0165266
695.478	0.0165222
695.556	0.0164585
695.634	0.0162679
695.712	0.0161945
695.790	0.0162238
695.869	0.0164133
695.947	0.0163232
696.025	0.0162180
696.103	0.0162110
696.181	0.0161054
696.259	0.0161998
696.337	0.0161288
696.415	0.0162309
696.494	0.0161287
696.572	0.0160976
696.650	0.0161832
696.728	0.0161099
696.806	0.0161179
696.884	0.0159832
696.962	0.0160539
697.040	0.0160635
697.119	0.0159085
697.197	0.0160722
697.275	0.0159006
697.353	0.0158601
697.431	0.0162004
697.509	0.0159572
697.587	0.0160347
697.665	0.0161987
697.744	0.0161830
697.822	0.0162481
697.900	0.0162171
697.978	0.0162112
698.056	0.0161713
698.134	0.0163522
698.212	0.0163950
698.290	0.0163834
698.369	0.0164334
698.447	0.0165051
698.525	0.0164568
698.603	0.0164455
698.681	0.0166144
698.759	0.0165630
698.837	0.0166292
698.915	0.0166001
698.994	0.0163978
699.072	0.0164749
699.150	0.0164989
699.228	0.0163428
699.306	0.0162709
699.384	0.0162482
699.462	0.0161221
699.540	0.0159485
699.619	0.0159939
699.697	0.0159493
699.775	0.0157366
699.853	0.0156670
699.931	0.0157476
700.009	0.0155688
700.087	0.0155795
700.165	0.0154359
700.244	0.0154338
700.322	0.0152347
700.400	0.0154492
700.478	0.0154995
700.556	0.0155698
700.634	0.0156492
700.712	0.0158167
700.790	0.0158173
700.869	0.0158058
700.947	0.0158814
701.025	0.0160233
701.103	0.0162123
701.181	0.0162497
701.259	0.0161623
701.337	0.0162135
701.415	0.0161586
701.494	0.0159991
701.572	0.0160046
701.650	0.0160862
701.728	0.0160165
701.806	0.0160521
701.884	0.0161087
701.962	0.0160835
702.040	0.0160037
702.119	0.0160186
702.197	0.0160943
702.275	0.0161018
702.353	0.0160246
702.431	0.0159581
702.509	0.0160160
702.587	0.0160295
702.665	0.0160551
702.744	0.0160448
702.822	0.0160378
702.900	0.0162197
702.978	0.0161880
703.056	0.0160971
703.134	0.0161909
703.212	0.0161139
703.290	0.0162302
703.369	0.0162316
703.447	0.0162009
703.525	0.0162712
703.603	0.0161845
703.681	0.0162820
703.759	0.0162164
703.837	0.0162309
703.915	0.0161623
703.994	0.0162532
704.072	0.0162546
704.150	0.0162394
704.228	0.0162224
704.306	0.0159611
704.384	0.0161243
704.462	0.0160536
704.540	0.0159660
704.619	0.0160285
704.697	0.0160408
704.775	0.0159531
704.853	0.0158249
704.931	0.0159264
705.009	0.0159988
705.087	0.0161629
705.165	0.0160700
705.244	0.0160873
705.322	0.0162476
705.400	0.0163268
705.478	0.0163355
705.556	0.0163702
705.634	0.0163364
705.712	0.0162806
705.790	0.0163905
705.869	0.0164950
705.947	0.0164234
706.025	0.0163586
706.103	0.0163605
706.181	0.0163183
706.259	0.0160836
706.337	0.0162328
706.415	0.0162890
706.494	0.0161160
706.572	0.0160854
706.650	0.0158903
706.728	0.0158501
706.806	0.0158868
706.884	0.0157230
706.962	0.0158665
707.040	0.0157943
707.119	0.0157625
707.197	0.0157319
707.275	0.0159021
707.353	0.0159193
707.431	0.0160387
707.509	0.0162082
707.587	0.0162112
707.665	0.0161665
707.744	0.0162170
707.822	0.0163094
707.900	0.0163164
707.978	0.0163186
708.056	0.0162727
708.134	0.0162614
708.212	0.0164587
708.290	0.0163781
708.369	0.0162209
708.447	0.0161102
708.525	0.0161257
708.603	0.0162619
708.681	0.0161959
708.759	0.0160224
708.837	0.0160938
708.915	0.0159937
708.994	0.0159965
709.072	0.0159429
709.150	0.0159409
709.228	0.0159258
709.306	0.0159917
709.384	0.0160682
709.462	0.0160191
709.540	0.0160242
709.619	0.0160507
709.697	0.0161707
709.775	0.0161363
709.853	0.0162110
709.931	0.0161060
710.009	0.0161681
710.087	0.0161523
710.165	0.0162060
710.244	0.0160357
710.322	0.0160815
710.400	0.0160178
710.478	0.0160406
710.556	0.0161474
710.634	0.0161243
710.712	0.0161128
710.790	0.0160548
710.869	0.0160873
710.947	0.0161343
711.025	0.0161486
711.103	0.0161296
711.181	0.0161082
711.259	0.0160486
711.337	0.0159545
711.415	0.0160153
711.494	0.0159607
711.572	0.0159912
711.650	0.0157716
711.728	0.0158149
711.806	0.0157581
711.884	0.0157435
711.962	0.0159068
712.040	0.0158212
712.119	0.0159035
712.197	0.0159808
712.275	0.0158762
712.353	0.0157690
712.431	0.0158022
712.509	0.0160970
712.587	0.0159276
712.665	0.0158775
712.744	0.0157943
712.822	0.0158987
712.900	0.0158633
712.978	0.0159749
713.056	0.0159064
713.134	0.0160705
713.212	0.0160281
713.290	0.0160255
713.369	0.0161307
713.447	0.0159246
713.525	0.0158823
713.603	0.0158779
713.681	0.0159350
713.759	0.0158302
713.837	0.0158768
713.915	0.0158342
713.994	0.0156370
714.072	0.0157710
714.150	0.0158383
714.228	0.0158548
714.306	0.0159219
714.384	0.0159900
714.462	0.0159917
714.540	0.0161749
714.619	0.0162536
714.697	0.0162578
714.775	0.0164007
714.853	0.0163936
714.931	0.0164146
715.009	0.0164529
715.087	0.0164874
715.165	0.0165191
715.244	0.0164931
715.322	0.0165572
715.400	0.0165459
715.478	0.0164828
715.556	0.0163851
715.634	0.0163723
715.712	0.0163043
715.790	0.0163789
715.869	0.0161449
715.947	0.0161289
716.025	0.0160175
716.103	0.0160275
716.181	0.0160469
716.259	0.0158179
716.337	0.0158549
716.415	0.0160214
716.494	0.0158771
716.572	0.0160452
716.650	0.0159009
716.728	0.0158919
716.806	0.0160172
716.884	0.0161431
716.962	0.0162099
717.040	0.0160915
717.119	0.0161462
717.197	0.0161497
717.275	0.0161968
717.353	0.0161275
717.431	0.0161282
717.509	0.0161850
717.587	0.0161929
717.665	0.0160587
717.744	0.0162273
717.822	0.0162401
717.900	0.0160916
717.978	0.0161217
718.056	0.0161246
718.134	0.0161844
718.212	0.0162508
718.290	0.0159937
718.369	0.0160968
718.447	0.0162137
718.525	0.0161600
718.603	0.0161039
718.681	0.0160740
718.759	0.0161021
718.837	0.0161972
718.915	0.0162461
718.994	0.0161932
719.072	0.0162109
719.150	0.0162112
719.228	0.0160872
719.306	0.0161084
719.384	0.0162524
719.462	0.0160587
719.540	0.0159692
719.619	0.0159537
719.697	0.0161156
719.775	0.0159742
719.853	0.0160892
719.931	0.0159791
720.009	0.0159838
720.087	0.0160999
720.165	0.0160529
720.244	0.0161670
720.322	0.0159843
720.400	0.0160777
720.478	0.0159951
720.556	0.0159695
720.634	0.0160197
720.712	0.0159952
720.790	0.0161420
720.869	0.0160043
720.947	0.0160467
721.025	0.0160912
721.103	0.0159325
721.181	0.0160273
721.259	0.0161816
721.337	0.0161405
721.415	0.0162878
721.494	0.0162189
721.572	0.0161721
721.650	0.0160487
721.728	0.0162108
721.806	0.0162381
721.884	0.0162246
721.962	0.0162186
722.040	0.0161883
722.119	0.0161298
722.197	0.0162040
722.275	0.0161643
722.353	0.0160679
722.431	0.0160206
722.509	0.0160573
722.587	0.0161136
722.665	0.0159499
722.744	0.0159756
722.822	0.0160563
722.900	0.0160212
722.978	0.0160837
723.056	0.0160725
723.134	0.0160412
723.212	0.0159747
723.290	0.0160659
723.369	0.0158994
723.447	0.0160604
723.525	0.0161961
723.603	0.0160825
723.681	0.0160909
723.759	0.0161069
723.837	0.0162011
723.915	0.0161501
723.994	0.0161489
724.072	0.0161758
724.150	0.0161185
724.228	0.0161319
724.306	0.0162734
724.384	0.0162383
724.462	0.0162128
724.540	0.0162197
724.619	0.0162163
724.697	0.0160497
724.775	0.0160062
724.853	0.0160040
724.931	0.0160587
725.009	0.0159531
725.087	0.0161572
725.165	0.0161113
725.244	0.0160334
725.322	0.0160670
725.400	0.0159234
725.478	0.0158976
725.556	0.0160992
725.634	0.0158569
725.712	0.0159588
725.790	0.0160297
725.869	0.0159061
725.947	0.0159124
726.025	0.0160069
726.103	0.0159126
726.181	0.0159736
726.259	0.0159732
726.337	0.0159853
726.415	0.0160806
726.494	0.0161955
726.572	0.0162270
726.650	0.0162514
726.728	0.0162247
726.806	0.0162070
726.884	0.0163011
726.962	0.0162506
727.040	0.0161658
727.119	0.0162350
727.197	0.0161958
727.275	0.0161770
727.353	0.0162424
727.431	0.0162865
727.509	0.0161497
727.587	0.0161662
727.665	0.0160117
727.744	0.0160606
727.822	0.0160414
727.900	0.0161284
727.978	0.0160023
728.056	0.0159953
728.134	0.0161958
728.212	0.0160451
728.290	0.0158706
728.369	0.0161558
728.447	0.0161001
728.525	0.0161423
728.603	0.0160476
728.681	0.0160809
728.759	0.0159409
728.837	0.0160488
728.915	0.0161444
728.994	0.0158770
729.072	0.0158802
729.150	0.0160869
729.228	0.0160066
729.306	0.0159119
729.384	0.0161460
729.462	0.0161474
729.540	0.0160991
729.619	0.0162074
729.697	0.0161573
729.775	0.0160117
729.853	0.0161735
729.931	0.0161481
730.009	0.0162196
730.087	0.0161893
730.165	0.0161056
730.244	0.0162248
730.322	0.0161904
730.400	0.0161999
730.478	0.0160773
730.556	0.0161607
730.634	0.0160129
730.712	0.0161894
730.790	0.0160876
730.869	0.0162360
730.947	0.0162210
731.025	0.0161778
731.103	0.0162112
731.181	0.0162110
731.259	0.0162264
731.337	0.0162424
731.415	0.0161496
731.494	0.0161426
731.572	0.0161617
731.650	0.0162121
731.728	0.0160756
731.806	0.0161687
731.884	0.0160543
731.962	0.0161811
732.040	0.0161443
732.119	0.0160597
732.197	0.0161311
732.275	0.0161020
732.353	0.0162125
732.431	0.0163366
732.509	0.0160991
732.587	0.0162202
732.665	0.0162151
732.744	0.0162146
732.822	0.0163895
732.900	0.0160754
732.978	0.0160757
733.056	0.0163219
733.134	0.0160590
733.212	0.0161514
733.290	0.0161012
733.369	0.0159774
733.447	0.0160304
733.525	0.0160880
733.603	0.0160969
733.681	0.0160201
733.759	0.0159995
733.837	0.0161175
733.915	0.0160425
733.994	0.0159167
734.072	0.0159962
734.150	0.0161200
734.228	0.0161515
734.306	0.0161228
734.384	0.0161510
734.462	0.0161470
734.540	0.0160383
734.619	0.0160442
734.697	0.0161020
734.775	0.0161069
734.853	0.0159236
734.931	0.0160696
735.009	0.0159772
735.087	0.0159253
735.165	0.0160075
735.244	0.0160569
735.322	0.0160447
735.400	0.0159669
735.478	0.0160546
735.556	0.0162156
735.634	0.0161609
735.712	0.0161358
735.790	0.0162327
735.869	0.0161230
735.947	0.0161639
736.025	0.0162408
736.103	0.0161935
736.181	0.0160865
736.259	0.0160091
736.337	0.0160960
736.415	0.0160831
736.494	0.0161971
736.572	0.0160179
736.650	0.0161497
736.728	0.0162875
736.806	0.0160390
736.884	0.0160671
736.962	0.0161468
737.040	0.0161207
737.119	0.0160815
737.197	0.0161881
737.275	0.0162742
737.353	0.0161155
737.431	0.0162331
737.509	0.0161475
737.587	0.0162365
737.665	0.0161718
737.744	0.0160791
737.822	0.0161682
737.900	0.0161298
737.978	0.0160780
738.056	0.0160677
738.134	0.0160472
738.212	0.0160953
738.290	0.0159682
738.369	0.0160860
738.447	0.0160904
738.525	0.0159995
738.603	0.0158480
738.681	0.0160943
738.759	0.0158971
738.837	0.0160228
738.915	0.0160724
738.994	0.0159428
739.072	0.0161111
739.150	0.0160752
739.228	0.0160377
739.306	0.0159454
739.384	0.0159727
739.462	0.0160616
739.540	0.0160541
739.619	0.0160598
739.697	0.0159443
739.775	0.0161210
739.853	0.0160550
739.931	0.0159138
740.009	0.0159729
740.087	0.0162027
740.165	0.0160490
740.244	0.0160042
740.322	0.0160165
740.400	0.0160325
740.478	0.0160754
740.556	0.0161673
740.634	0.0160674
740.712	0.0159809
740.790	0.0160431
740.869	0.0159815
740.947	0.0159216
741.025	0.0159652
741.103	0.0158488
741.181	0.0159480
741.259	0.0159776
741.337	0.0159549
741.415	0.0160796
741.494	0.0159346
741.572	0.0161095
741.650	0.0160165
741.728	0.0160636
741.806	0.0159962
741.884	0.0161572
741.962	0.0160760
742.040	0.0162085
742.119	0.0161944
742.197	0.0161409
742.275	0.0161589
742.353	0.0160178
742.431	0.0161404
742.509	0.0161221
742.587	0.0161495
742.665	0.0161366
742.744	0.0161810
742.822	0.0161501
742.900	0.0161865
742.978	0.0160452
743.056	0.0160565
743.134	0.0160161
743.212	0.0159937
743.290	0.0161157
743.369	0.0161667
743.447	0.0160596
743.525	0.0160981
743.603	0.0161066
743.681	0.0161385
743.759	0.0161822
743.837	0.0161427
743.915	0.0161579
743.994	0.0162583
744.072	0.0161914
744.150	0.0162173
744.228	0.0163258
744.306	0.0162434
744.384	0.0162473
744.462	0.0163831
744.540	0.0161701
744.619	0.0161781
744.697	0.0162714
744.775	0.0161678
744.853	0.0162090
744.931	0.0160788
745.009	0.0161791
745.087	0.0160621
745.165	0.0161528
745.244	0.0162730
745.322	0.0160995
745.400	0.0160849
745.478	0.0160381
745.556	0.0160949
745.634	0.0161868
745.712	0.0161124
745.790	0.0161359
745.869	0.0161695
745.947	0.0161675
746.025	0.0162988
746.103	0.0162533
746.181	0.0160612
746.259	0.0161621
746.337	0.0162198
746.415	0.0163198
746.494	0.0163033
746.572	0.0162791
746.650	0.0162374
746.728	0.0162098
746.806	0.0161207
746.884	0.0163019
746.962	0.0162525
747.040	0.0161379
747.119	0.0161671
747.197	0.0161699
747.275	0.0162360
747.353	0.0161364
747.431	0.0161159
747.509	0.0161681
747.587	0.0160451
747.665	0.0159988
747.744	0.0160385
747.822	0.0159621
747.900	0.0160997
747.978	0.0160398
748.056	0.0160291
748.134	0.0160481
748.212	0.0158971
748.290	0.0159441
748.369	0.0160057
748.447	0.0159510
748.525	0.0160149
748.603	0.0160540
748.681	0.0159946
748.759	0.0160613
748.837	0.0160448
748.915	0.0161156
748.994	0.0161701
749.072	0.0161549
749.150	0.0162143
749.228	0.0161592
749.306	0.0161341
749.384	0.0159314
749.462	0.0161648
749.540	0.0160812
749.619	0.0159521
749.697	0.0159196
749.775	0.0159667
749.853	0.0160241
749.931	0.0160702
750.009	0.0160443
750.087	0.0159834
750.165	0.0160475
750.244	0.0160049
750.322	0.0159832
750.400	0.0162161
750.478	0.0160659
750.556	0.0161364
750.634	0.0161351
750.712	0.0161548
750.790	0.0162054
750.869	0.0161587
750.947	0.0162089
751.025	0.0162099
751.103	0.0161910
751.181	0.0161771
751.259	0.0161328
751.337	0.0162164
751.415	0.0161845
751.494	0.0161751
751.572	0.0162352
751.650	0.0160863
751.728	0.0160806
751.806	0.0161351
751.884	0.0161281
751.962	0.0158917
752.040	0.0159064
752.119	0.0161190
752.197	0.0160484
752.275	0.0160726
752.353	0.0161554
752.431	0.0160885
752.509	0.0159311
752.587	0.0160029
752.665	0.0160011
752.744	0.0160668
752.822	0.0161046
752.900	0.0161581
752.978	0.0160686
753.056	0.0160616
753.134	0.0160818
753.212	0.0161014
753.290	0.0161274
753.369	0.0161916
753.447	0.0160651
753.525	0.0162473
753.603	0.0162437
753.681	0.0162084
753.759	0.0161666
753.837	0.0162135
753.915	0.0162202
753.994	0.0162627
754.072	0.0162952
754.150	0.0162516
754.228	0.0162106
754.306	0.0162540
754.384	0.0161407
754.462	0.0162320
754.540	0.0160336
754.619	0.0162384
754.697	0.0161957
754.775	0.0161327
754.853	0.0160858
754.931	0.0161283
755.009	0.0161519
755.087	0.0161911
755.165	0.0162233
755.244	0.0163705
755.322	0.0162920
755.400	0.0161868
755.478	0.0163874
755.556	0.0161573
755.634	0.0162617
755.712	0.0163681
755.790	0.0162138
755.869	0.0162074
755.947	0.0163387
756.025	0.0162295
756.103	0.0163214
756.181	0.0161718
756.259	0.0163032
756.337	0.0162598
756.415	0.0162919
756.494	0.0162731
756.572	0.0161443
756.650	0.0161410
756.728	0.0162614
756.806	0.0162469
756.884	0.0161378
756.962	0.0161759
757.040	0.0161243
757.119	0.0161474
757.197	0.0161674
757.275	0.0160810
757.353	0.0161156
757.431	0.0160063
757.509	0.0160155
757.587	0.0160033
757.665	0.0159271
757.744	0.0159009
757.822	0.0159343
757.900	0.0159693
757.978	0.0158928
758.056	0.0160098
758.134	0.0160355
758.212	0.0160305
758.290	0.0159280
758.369	0.0160323
758.447	0.0160020
758.525	0.0161375
758.603	0.0160604
758.681	0.0160899
758.759	0.0160350
758.837	0.0161588
758.915	0.0158978
758.994	0.0160430
759.072	0.0160575
759.150	0.0160954
759.228	0.0161322
759.306	0.0159303
759.384	0.0160098
759.462	0.0159500
759.540	0.0159506
759.619	0.0160303
759.697	0.0160229
759.775	0.0160425
759.853	0.0161015
759.931	0.0160651
760.009	0.0159524
760.087	0.0160143
760.165	0.0160786
760.244	0.0160137
760.322	0.0162562
760.400	0.0160209
760.478	0.0162914
760.556	0.0162171
760.634	0.0161673
760.712	0.0162212
760.790	0.0163145
760.869	0.0163496
760.947	0.0161663
761.025	0.0162934
761.103	0.0164483
761.181	0.0162505
761.259	0.0161246
761.337	0.0163308
761.415	0.0163192
761.494	0.0161775
761.572	0.0161988
761.650	0.0161134
761.728	0.0161574
761.806	0.0161921
761.884	0.0161427
761.962	0.0161932
762.040	0.0160133
762.119	0.0161757
762.197	0.0161655
762.275	0.0160345
762.353	0.0158739
762.431	0.0160841
762.509	0.0159718
762.587	0.0160588
762.665	0.0159437
762.744	0.0159847
762.822	0.0160808
762.900	0.0161079
762.978	0.0161747
763.056	0.0160547
763.134	0.0160388
763.212	0.0160712
763.290	0.0160978
763.369	0.0161829
763.447	0.0159782
763.525	0.0160268
763.603	0.0160352
763.681	0.0162224
763.759	0.0160030
763.837	0.0161488
763.915	0.0160081
763.994	0.0159612
764.072	0.0160507
764.150	0.0160631
764.228	0.0160042
764.306	0.0160384
764.384	0.0160999
764.462	0.0161240
764.540	0.0161086
764.619	0.0161549
764.697	0.0161555
764.775	0.0161347
764.853	0.0162260
764.931	0.0161454
765.009	0.0161670
765.087	0.0162473
765.165	0.0161815
765.244	0.0161913
765.322	0.0162187
765.400	0.0161172
765.478	0.0160133
765.556	0.0161687
765.634	0.0162224
765.712	0.0161078
765.790	0.0160751
765.869	0.0161766
765.947	0.0162819
766.025	0.0161455
766.103	0.0162821
766.181	0.0162055
766.259	0.0162563
766.337	0.0162698
766.415	0.0163145
766.494	0.0163731
766.572	0.0163716
766.650	0.0163631
766.728	0.0161964
766.806	0.0163078
766.884	0.0163007
766.962	0.0162911
767.040	0.0162698
767.119	0.0162028
767.197	0.0163586
767.275	0.0163356
767.353	0.0161931
767.431	0.0161898
767.509	0.0161876
767.587	0.0162640
767.665	0.0161338
767.744	0.0160755
767.822	0.0161466
767.900	0.0161522
767.978	0.0162481
768.056	0.0162110
768.134	0.0162820
768.212	0.0163036
768.290	0.0160764
768.369	0.0161049
768.447	0.0163152
768.525	0.0161458
768.603	0.0162815
768.681	0.0161447
768.759	0.0161732
768.837	0.0161404
768.915	0.0160259
768.994	0.0161427
769.072	0.0161280
769.150	0.0160857
769.228	0.0161298
769.306	0.0161887
769.384	0.0161335
769.462	0.0160770
769.540	0.0160758
769.619	0.0160036
769.697	0.0160765
769.775	0.0160937
769.853	0.0161826
769.931	0.0160912
770.009	0.0161716
770.087	0.0161224
770.165	0.0160976
770.244	0.0161738
770.322	0.0160363
770.400	0.0159780
770.478	0.0159030
770.556	0.0161599
770.634	0.0160938
770.712	0.0159730
770.790	0.0159655
770.869	0.0160841
770.947	0.0160879
771.025	0.0162199
771.103	0.0161624
771.181	0.0162090
771.259	0.0160461
771.337	0.0162909
771.415	0.0161516
771.494	0.0161987
771.572	0.0162088
771.650	0.0160940
771.728	0.0160167
771.806	0.0161451
771.884	0.0160903
771.962	0.0159895
772.040	0.0161340
772.119	0.0160423
772.197	0.0160764
772.275	0.0159867
772.353	0.0160241
772.431	0.0161316
772.509	0.0159278
772.587	0.0161415
772.665	0.0160954
772.744	0.0161613
772.822	0.0161084
772.900	0.0161551
772.978	0.0161063
773.056	0.0161503
773.134	0.0161671
773.212	0.0159995
773.290	0.0161320
773.369	0.0161408
773.447	0.0161187
773.525	0.0160553
773.603	0.0160798
773.681	0.0161934
773.759	0.0161267
773.837	0.0160660
773.915	0.0160157
773.994	0.0160703
774.072	0.0162071
774.150	0.0161009
774.228	0.0160435
774.306	0.0160649
774.384	0.0161440
774.462	0.0161758
774.540	0.0161101
774.619	0.0161567
774.697	0.0161872
774.775	0.0161304
774.853	0.0160278
774.931	0.0160882
775.009	0.0159584
775.087	0.0159989
775.165	0.0160049
775.244	0.0159917
775.322	0.0161183
775.400	0.0161634
775.478	0.0161314
775.556	0.0161014
775.634	0.0159778
775.712	0.0160499
775.790	0.0160015
775.869	0.0159141
775.947	0.0162005
776.025	0.0160222
776.103	0.0161549
776.181	0.0161144
776.259	0.0160815
776.337	0.0160513
776.415	0.0160983
776.494	0.0159324
776.572	0.0161774
776.650	0.0159651
776.728	0.0159595
776.806	0.0159875
776.884	0.0159499
776.962	0.0161119
777.040	0.0159942
777.119	0.0162201
777.197	0.0161428
777.275	0.0160869
777.353	0.0162067
777.431	0.0159895
777.509	0.0161096
777.587	0.0163048
777.665	0.0161015
777.744	0.0161448
777.822	0.0160568
777.900	0.0160574
777.978	0.0161595
778.056	0.0161559
778.134	0.0161440
778.212	0.0161391
778.290	0.0160257
778.369	0.0160647
778.447	0.0161005
778.525	0.0160411
778.603	0.0160143
778.681	0.0161086
778.759	0.0160588
778.837	0.0161168
778.915	0.0162352
778.994	0.0162641
779.072	0.0161121
779.150	0.0161845
779.228	0.0161822
779.306	0.0162074
779.384	0.0161326
779.462	0.0161623
779.540	0.0162200
779.619	0.0161497
779.697	0.0161093
779.775	0.0160269
779.853	0.0160126
779.931	0.0161281
780.009	0.0161991
780.087	0.0161169
780.165	0.0160536
780.244	0.0160614
780.322	0.0160857
780.400	0.0159351
780.478	0.0162528
780.556	0.0161566
780.634	0.0159491
780.712	0.0161055
780.790	0.0159808
780.869	0.0160165
780.947	0.0162137
781.025	0.0161749
781.103	0.0161208
781.181	0.0161678
781.259	0.0160717
781.337	0.0161473
781.415	0.0162762
781.494	0.0163494
781.572	0.0160954
781.650	0.0161606
781.728	0.0161626
781.806	0.0161884
781.884	0.0161018
781.962	0.0161040
782.040	0.0160663
782.119	0.0162322
782.197	0.0162290
782.275	0.0161662
782.353	0.0163193
782.431	0.0163224
782.509	0.0162076
782.587	0.0161548
782.665	0.0160991
782.744	0.0162042
782.822	0.0162119
782.900	0.0161658
782.978	0.0161748
783.056	0.0162234
783.134	0.0162294
783.212	0.0161900
783.290	0.0160992
783.369	0.0160732
783.447	0.0160699
783.525	0.0161274
783.603	0.0160738
783.681	0.0159882
783.759	0.0160214
783.837	0.0159595
783.915	0.0159288
783.994	0.0161991
784.072	0.0159032
784.150	0.0158672
784.228	0.0160040
784.306	0.0160117
784.384	0.0158413
784.462	0.0159999
784.540	0.0159763
784.619	0.0159519
784.697	0.0160187
784.775	0.0160521
784.853	0.0159591
784.931	0.0159663
785.009	0.0158904
785.087	0.0161527
785.165	0.0161550
785.244	0.0161378
785.322	0.0161185
785.400	0.0162684
785.478	0.0161462
785.556	0.0162122
785.634	0.0162846
785.712	0.0162135
785.790	0.0162169
785.869	0.0161905
785.947	0.0161077
786.025	0.0161559
786.103	0.0160777
786.181	0.0160656
786.259	0.0160887
786.337	0.0159287
786.415	0.0159695
786.494	0.0160033
786.572	0.0161002
786.650	0.0158935
786.728	0.0157743
786.806	0.0161008
786.884	0.0160467
786.962	0.0159952
787.040	0.0159837
787.119	0.0160616
787.197	0.0160238
787.275	0.0160874
787.353	0.0160390
787.431	0.0161715
787.509	0.0161971
787.587	0.0160294
787.665	0.0162543
787.744	0.0160878
787.822	0.0161771
787.900	0.0160960
787.978	0.0161158
788.056	0.0161716
788.134	0.0160326
788.212	0.0161424
788.290	0.0161710
788.369	0.0160440
788.447	0.0160857
788.525	0.0162005
788.603	0.0160297
788.681	0.0159801
788.759	0.0160242
788.837	0.0160454
788.915	0.0160079
788.994	0.0160617
789.072	0.0160589
789.150	0.0161033
789.228	0.0160110
789.306	0.0160992
789.384	0.0161008
789.462	0.0160499
789.540	0.0159928
789.619	0.0162631
789.697	0.0162008
789.775	0.0160600
789.853	0.0162035
789.931	0.0161612
790.009	0.0161350
790.087	0.0162370
790.165	0.0162521
790.244	0.0162375
790.322	0.0161739
790.400	0.0160218
790.478	0.0160339
790.556	0.0160847
790.634	0.0161636
790.712	0.0161986
790.790	0.0160287
790.869	0.0160906
790.947	0.0161979
791.025	0.0160758
791.103	0.0160690
791.181	0.0162607
791.259	0.0160558
791.337	0.0159784
791.415	0.0161237
791.494	0.0162227
791.572	0.0160770
791.650	0.0160744
791.728	0.0162975
791.806	0.0162437
791.884	0.0162593
791.962	0.0161237
792.040	0.0163625
792.119	0.0161948
792.197	0.0161865
792.275	0.0161490
792.353	0.0162134
792.431	0.0163032
792.509	0.0162454
792.587	0.0162808
792.665	0.0162398
792.744	0.0161977
792.822	0.0160049
792.900	0.0160376
792.978	0.0161035
793.056	0.0160695
793.134	0.0161160
793.212	0.0160818
793.290	0.0159441
793.369	0.0161452
793.447	0.0160396
793.525	0.0160663
793.603	0.0160925
793.681	0.0158855
793.759	0.0160155
793.837	0.0160208
793.915	0.0160749
793.994	0.0160711
794.072	0.0160240
794.150	0.0162094
794.228	0.0160532
794.306	0.0161103
794.384	0.0160888
794.462	0.0159782
794.540	0.0161172
794.619	0.0161862
794.697	0.0161198
794.775	0.0160464
794.853	0.0161436
794.931	0.0158929
795.009	0.0161993
795.087	0.0161150
795.165	0.0162401
795.244	0.0160431
795.322	0.0160343
795.400	0.0161415
795.478	0.0161954
795.556	0.0161919
795.634	0.0159206
795.712	0.0161053
795.790	0.0160488
795.869	0.0160881
795.947	0.0161910
796.025	0.0160627
796.103	0.0161829
796.181	0.0161293
796.259	0.0160907
796.337	0.0161079
796.415	0.0161921
796.494	0.0160444
796.572	0.0160426
796.650	0.0161356
796.728	0.0162542
796.806	0.0160894
796.884	0.0160658
796.962	0.0160714
797.040	0.0160734
797.119	0.0160981
797.197	0.0160739
797.275	0.0159650
797.353	0.0160744
797.431	0.0160365
797.509	0.0160835
797.587	0.0160663
797.665	0.0160399
797.744	0.0160291
797.822	0.0159719
797.900	0.0160573
797.978	0.0160487
798.056	0.0160640
798.134	0.0159866
798.212	0.0161060
798.290	0.0160720
798.369	0.0161160
798.447	0.0160207
798.525	0.0159978
798.603	0.0162395
798.681	0.0161353
798.759	0.0161492
798.837	0.0161857
798.915	0.0160281
798.994	0.0161691
799.072	0.0161597
799.150	0.0161806
799.228	0.0160498
799.306	0.0161249
799.384	0.0160716
799.462	0.0160752
799.540	0.0162713
799.619	0.0162940
799.697	0.0160348
799.775	0.0160748
799.853	0.0160323
799.931	0.0160780
800.009	0.0160477
800.087	0.0159332
800.165	0.0160719
800.244	0.0161850
800.322	0.0161009
800.400	0.0160188
800.478	0.0160428
800.556	0.0161082
800.634	0.0160826
800.712	0.0161920
800.790	0.0161650
800.869	0.0160875
800.947	0.0161125
801.025	0.0160705
801.103	0.0162045
801.181	0.0161591
801.259	0.0161092
801.337	0.0160714
801.415	0.0160220
801.494	0.0160283
801.572	0.0159289
801.650	0.0162234
801.728	0.0161580
801.806	0.0159547
801.884	0.0160939
801.962	0.0161909
802.040	0.0160990
802.119	0.0159521
802.197	0.0160231
802.275	0.0161166
802.353	0.0161243
802.431	0.0160997
802.509	0.0161015
802.587	0.0159801
802.665	0.0160121
802.744	0.0161136
802.822	0.0161082
802.900	0.0161713
802.978	0.0162080
803.056	0.0162070
803.134	0.0163129
803.212	0.0162069
803.290	0.0162139
803.369	0.0162511
803.447	0.0162189
803.525	0.0161914
803.603	0.0161583
803.681	0.0161743
803.759	0.0162032
803.837	0.0162336
803.915	0.0160707
803.994	0.0160831
804.072	0.0160718
804.150	0.0161777
804.228	0.0162451
804.306	0.0160986
804.384	0.0161729
804.462	0.0162144
804.540	0.0161610
804.619	0.0162144
804.697	0.0161047
804.775	0.0161479
804.853	0.0160527
804.931	0.0160687
805.009	0.0160032
805.087	0.0161165
805.165	0.0161372
805.244	0.0159698
805.322	0.0160085
805.400	0.0160764
805.478	0.0159964
805.556	0.0160504
805.634	0.0161134
805.712	0.0161196
805.790	0.0160538
805.869	0.0160509
805.947	0.0161572
806.025	0.0161363
806.103	0.0160946
806.181	0.0160723
806.259	0.0161359
806.337	0.0159850
806.415	0.0161009
806.494	0.0161591
806.572	0.0160920
806.650	0.0160529
806.728	0.0160262
806.806	0.0161309
806.884	0.0160011
806.962	0.0160160
807.040	0.0160311
807.119	0.0159756
807.197	0.0159657
807.275	0.0158992
807.353	0.0158624
807.431	0.0158661
807.509	0.0159315
807.587	0.0160339
807.665	0.0158981
807.744	0.0157980
807.822	0.0159132
807.900	0.0158282
807.978	0.0159425
808.056	0.0159936
808.134	0.0159953
808.212	0.0161301
808.290	0.0160353
808.369	0.0159613
808.447	0.0160268
808.525	0.0162275
808.603	0.0160747
808.681	0.0159988
808.759	0.0161428
808.837	0.0161876
808.915	0.0161120
808.994	0.0159966
809.072	0.0159917
809.150	0.0160474
809.228	0.0161283
809.306	0.0160395
809.384	0.0158419
809.462	0.0158895
809.540	0.0159988
809.619	0.0158690
809.697	0.0160089
809.775	0.0160870
809.853	0.0159031
809.931	0.0160306
810.009	0.0159139
810.087	0.0159337
810.165	0.0160003
810.244	0.0160381
810.322	0.0160635
810.400	0.0161549
810.478	0.0160933
810.556	0.0160940
810.634	0.0161271
810.712	0.0161273
810.790	0.0160130
810.869	0.0160822
810.947	0.0162189
811.025	0.0161559
811.103	0.0161680
811.181	0.0161359
811.259	0.0161702
811.337	0.0161324
811.415	0.0161615
811.494	0.0161279
811.572	0.0159354
811.650	0.0160909
811.728	0.0160735
811.806	0.0160369
811.884	0.0159921
811.962	0.0160583
812.040	0.0162188
812.119	0.0160535
812.197	0.0160190
812.275	0.0160204
812.353	0.0162527
812.431	0.0160813
812.509	0.0158781
812.587	0.0159428
812.665	0.0161848
812.744	0.0162032
812.822	0.0160217
812.900	0.0160480
812.978	0.0160350
813.056	0.0162019
813.134	0.0159647
813.212	0.0161585
813.290	0.0161064
813.369	0.0160313
813.447	0.0160571
813.525	0.0159723
813.603	0.0161112
813.681	0.0159386
813.759	0.0160257
813.837	0.0161385
813.915	0.0160259
813.994	0.0160715
814.072	0.0159288
814.150	0.0159719
814.228	0.0161012
814.306	0.0161924
814.384	0.0160078
814.462	0.0159666
814.540	0.0160579
814.619	0.0159926
814.697	0.0161579
814.775	0.0162753
814.853	0.0161410
814.931	0.0161377
815.009	0.0161013
815.087	0.0163168
815.165	0.0163536
815.244	0.0161474
815.322	0.0161934
815.400	0.0161810
815.478	0.0161560
815.556	0.0159439
815.634	0.0161376
815.712	0.0162553
815.790	0.0162868
815.869	0.0160407
815.947	0.0159705
816.025	0.0159530
816.103	0.0161014
816.181	0.0159618
816.259	0.0158653
816.337	0.0159688
816.415	0.0159097
816.494	0.0157504
816.572	0.0159303
816.650	0.0160581
816.728	0.0159225
816.806	0.0159464
816.884	0.0160146
816.962	0.0160018
817.040	0.0161801
817.119	0.0161375
817.197	0.0160754
817.275	0.0161158
817.353	0.0160773
817.431	0.0161920
817.509	0.0162201
817.587	0.0162244
817.665	0.0161642
817.744	0.0162231
817.822	0.0162168
817.900	0.0162167
817.978	0.0162579
818.056	0.0162352
818.134	0.0159593
818.212	0.0161842
818.290	0.0161774
818.369	0.0160580
818.447	0.0162096
818.525	0.0160944
818.603	0.0160944
818.681	0.0161007
818.759	0.0160567
818.837	0.0160621
818.915	0.0160937
818.994	0.0160294
819.072	0.0161498
819.150	0.0161076
819.228	0.0160934
819.306	0.0161652
819.384	0.0161203
819.462	0.0162212
819.540	0.0159867
819.619	0.0160214
819.697	0.0161308
819.775	0.0161684
819.853	0.0161912
819.931	0.0161237
820.009	0.0159846
820.087	0.0160014
820.165	0.0159884
820.244	0.0160424
820.322	0.0160112
820.400	0.0161367
820.478	0.0160624
820.556	0.0160679
820.634	0.0160785
820.712	0.0161288
820.790	0.0160748
820.869	0.0159917
820.947	0.0160635
821.025	0.0160415
821.103	0.0160682
821.181	0.0161311
821.259	0.0161039
821.337	0.0159631
821.415	0.0161963
821.494	0.0161241
821.572	0.0160090
821.650	0.0162106
821.728	0.0160600
821.806	0.0161550
821.884	0.0161230
821.962	0.0160620
822.040	0.0159641
822.119	0.0160561
822.197	0.0160360
822.275	0.0160632
822.353	0.0160451
822.431	0.0159788
822.509	0.0159742
822.587	0.0160355
822.665	0.0160385
822.744	0.0160915
822.822	0.0159748
822.900	0.0160771
822.978	0.0161477
823.056	0.0161326
823.134	0.0162039
823.212	0.0162040
823.290	0.0160439
823.369	0.0160752
823.447	0.0160502
823.525	0.0161322
823.603	0.0160761
823.681	0.0160093
823.759	0.0161677
823.837	0.0160744
823.915	0.0161243
823.994	0.0161797
824.072	0.0161279
824.150	0.0161715
824.228	0.0162110
824.306	0.0161259
824.384	0.0160389
824.462	0.0161171
824.540	0.0161692
824.619	0.0162685
824.697	0.0162691
824.775	0.0162760
824.853	0.0161985
824.931	0.0161467
825.009	0.0162910
825.087	0.0160971
825.165	0.0161436
825.244	0.0162451
825.322	0.0160609
825.400	0.0161063
825.478	0.0160833
825.556	0.0161777
825.634	0.0161609
825.712	0.0161673
825.790	0.0162764
825.869	0.0161545
825.947	0.0162296
826.025	0.0162488
826.103	0.0161829
826.181	0.0161375
826.259	0.0162592
826.337	0.0160710
826.415	0.0159834
826.494	0.0161577
826.572	0.0160394
826.650	0.0160773
826.728	0.0159084
826.806	0.0160345
826.884	0.0162007
826.962	0.0160712
827.040	0.0160326
827.119	0.0160558
827.197	0.0160464
827.275	0.0160620
827.353	0.0161214
827.431	0.0160725
827.509	0.0160649
827.587	0.0161444
827.665	0.0161362
827.744	0.0160162
827.822	0.0160183
827.900	0.0161546
827.978	0.0161053
828.056	0.0161635
828.134	0.0162943
828.212	0.0162012
828.290	0.0161567
828.369	0.0161078
828.447	0.0161417
828.525	0.0162759
828.603	0.0162374
828.681	0.0160224
828.759	0.0162585
828.837	0.0162390
828.915	0.0162014
828.994	0.0161063
829.072	0.0162015
829.150	0.0162122
829.228	0.0162064
829.306	0.0162183
829.384	0.0162756
829.462	0.0162395
829.540	0.0160778
829.619	0.0161710
829.697	0.0161926
829.775	0.0160738
829.853	0.0160625
829.931	0.0163249
830.009	0.0161729
830.087	0.0160877
830.165	0.0162133
830.244	0.0162223
830.322	0.0161629
830.400	0.0161585
830.478	0.0162241
830.556	0.0162605
830.634	0.0161602
830.712	0.0161674
830.790	0.0162495
830.869	0.0162248
830.947	0.0162033
831.025	0.0161249
831.103	0.0161749
831.181	0.0161478
831.259	0.0160785
831.337	0.0160594
831.415	0.0160331
831.494	0.0160513
831.572	0.0160712
831.650	0.0161123
831.728	0.0160067
831.806	0.0159449
831.884	0.0159212
831.962	0.0161404
832.040	0.0158951
832.119	0.0158904
832.197	0.0158459
832.275	0.0159966
832.353	0.0159367
832.431	0.0159832
832.509	0.0161681
832.587	0.0160405
832.665	0.0160636
832.744	0.0160098
832.822	0.0158926
832.900	0.0158897
832.978	0.0160933
833.056	0.0160364
833.134	0.0160332
833.212	0.0159550
833.290	0.0160316
833.369	0.0160416
833.447	0.0162188
833.525	0.0160499
833.603	0.0160107
833.681	0.0161362
833.759	0.0161228
833.837	0.0162142
833.915	0.0162328
833.994	0.0161743
834.072	0.0161497
834.150	0.0161216
834.228	0.0161445
834.306	0.0161462
834.384	0.0160568
834.462	0.0161064
834.540	0.0162650
834.619	0.0162139
834.697	0.0160282
834.775	0.0161150
834.853	0.0161491
834.931	0.0163278
835.009	0.0161051
835.087	0.0161200
835.165	0.0161613
835.244	0.0159846
835.322	0.0159888
835.400	0.0160952
835.478	0.0162000
835.556	0.0161555
835.634	0.0162373
835.712	0.0160867
835.790	0.0161487
835.869	0.0160870
835.947	0.0161130
836.025	0.0160922
836.103	0.0161703
836.181	0.0161988
836.259	0.0161178
836.337	0.0162144
836.415	0.0160213
836.494	0.0160739
836.572	0.0162466
836.650	0.0161382
836.728	0.0159139
836.806	0.0159877
836.884	0.0162009
836.962	0.0161546
837.040	0.0161045
837.119	0.0160029
837.197	0.0161024
837.275	0.0160368
837.353	0.0159669
837.431	0.0160084
837.509	0.0160780
837.587	0.0160226
837.665	0.0160551
837.744	0.0160697
837.822	0.0160300
837.900	0.0159866
837.978	0.0159467
838.056	0.0161604
838.134	0.0161713
838.212	0.0162631
838.290	0.0160212
838.369	0.0160087
838.447	0.0160210
838.525	0.0160700
838.603	0.0161255
838.681	0.0162019
838.759	0.0160651
838.837	0.0160957
838.915	0.0161089
838.994	0.0161148
839.072	0.0161552
839.150	0.0160561
839.228	0.0160590
839.306	0.0160647
839.384	0.0161037
839.462	0.0160474
839.540	0.0161259
839.619	0.0161099
839.697	0.0161378
839.775	0.0160471
839.853	0.0161120
839.931	0.0161313
840.009	0.0160576
840.087	0.0162326
840.165	0.0162272
840.244	0.0160353
840.322	0.0160833
840.400	0.0161352
840.478	0.0161975
840.556	0.0162853
840.634	0.0162233
840.712	0.0161520
840.790	0.0162106
840.869	0.0162011
840.947	0.0162064
841.025	0.0162554
841.103	0.0162287
841.181	0.0161582
841.259	0.0161780
841.337	0.0161253
841.415	0.0162033
841.494	0.0160799
841.572	0.0160176
841.650	0.0161710
841.728	0.0161768
841.806	0.0160617
841.884	0.0160971
841.962	0.0160831
842.040	0.0161295
842.119	0.0160435
842.197	0.0161633
842.275	0.0161787
842.353	0.0162268
842.431	0.0161359
842.509	0.0160573
842.587	0.0160859
842.665	0.0161800
842.744	0.0160152
842.822	0.0159859
842.900	0.0161881
842.978	0.0160728
843.056	0.0160998
843.134	0.0162438
843.212	0.0160452
843.290	0.0159837
843.369	0.0160056
843.447	0.0159262
843.525	0.0160963
843.603	0.0161499
843.681	0.0159221
843.759	0.0161231
843.837	0.0161558
843.915	0.0160329
843.994	0.0159846
844.072	0.0160983
844.150	0.0160061
844.228	0.0162032
844.306	0.0160847
844.384	0.0160338
844.462	0.0160493
844.540	0.0161152
844.619	0.0160860
844.697	0.0160794
844.775	0.0161135
844.853	0.0161073
844.931	0.0161771
845.009	0.0162591
845.087	0.0160793
845.165	0.0161827
845.244	0.0161504
845.322	0.0163621
845.400	0.0161766
845.478	0.0163381
845.556	0.0162846
845.634	0.0161785
845.712	0.0162148
845.790	0.0160798
845.869	0.0161734
845.947	0.0162034
846.025	0.0161909
846.103	0.0162669
846.181	0.0161223
846.259	0.0160251
846.337	0.0161420
846.415	0.0160276
846.494	0.0161171
846.572	0.0160827
846.650	0.0161575
846.728	0.0159589
846.806	0.0161100
846.884	0.0162185
846.962	0.0161311
847.040	0.0161596
847.119	0.0161428
847.197	0.0161303
847.275	0.0162334
847.353	0.0161546
847.431	0.0162149
847.509	0.0163283
847.587	0.0163297
847.665	0.0162410
847.744	0.0164727
847.822	0.0162987
847.900	0.0162457
847.978	0.0161791
848.056	0.0161628
848.134	0.0161808
848.212	0.0161239
848.290	0.0160261
848.369	0.0160387
848.447	0.0161453
848.525	0.0159665
848.603	0.0160486
848.681	0.0160011
848.759	0.0160316
848.837	0.0160381
848.915	0.0160667
848.994	0.0159948
849.072	0.0159387
849.150	0.0160899
849.228	0.0161693
849.306	0.0160828
849.384	0.0162411
849.462	0.0161642
849.540	0.0161755
849.619	0.0162326
849.697	0.0162079
849.775	0.0162630
849.853	0.0162088
849.931	0.0163152
850.009	0.0161703
850.087	0.0162676
850.165	0.0163023
850.244	0.0162529
850.322	0.0162566
850.400	0.0162508
850.478	0.0161200
850.556	0.0162440
850.634	0.0162223
850.712	0.0163266
850.790	0.0161835
850.869	0.0161229
850.947	0.0160569
851.025	0.0161833
851.103	0.0161459
851.181	0.0160979
851.259	0.0161871
851.337	0.0160813
851.415	0.0160417
851.494	0.0160876
851.572	0.0160452
851.650	0.0161730
851.728	0.0161030
851.806	0.0161686
851.884	0.0161203
851.962	0.0161127
852.040	0.0162119
852.119	0.0162377
852.197	0.0163426
852.275	0.0162442
852.353	0.0160930
852.431	0.0162097
852.509	0.0162341
852.587	0.0162675
852.665	0.0162101
852.744	0.0162491
852.822	0.0161977
852.900	0.0162908
852.978	0.0163107
853.056	0.0163261
853.134	0.0162909
853.212	0.0162761
853.290	0.0162373
853.369	0.0162559
853.447	0.0161937
853.525	0.0161267
853.603	0.0161977
853.681	0.0161539
853.759	0.0161172
853.837	0.0162060
853.915	0.0161573
853.994	0.0160863
854.072	0.0161602
854.150	0.0160359
854.228	0.0161869
854.306	0.0160081
854.384	0.0161899
854.462	0.0161491
854.540	0.0161240
854.619	0.0162183
854.697	0.0162391
854.775	0.0161450
854.853	0.0161901
854.931	0.0162638
855.009	0.0160745
855.087	0.0162186
855.165	0.0161081
855.244	0.0162198
855.322	0.0162384
855.400	0.0161912
855.478	0.0162668
855.556	0.0161153
855.634	0.0161520
855.712	0.0161117
855.790	0.0162714
855.869	0.0162967
855.947	0.0161652
856.025	0.0161671
856.103	0.0160712
856.181	0.0161008
856.259	0.0160057
856.337	0.0161330
856.415	0.0160271
856.494	0.0159671
856.572	0.0159209
856.650	0.0160589
856.728	0.0159976
856.806	0.0159947
856.884	0.0160067
856.962	0.0159649
857.040	0.0161789
857.119	0.0160107
857.197	0.0159499
857.275	0.0160861
857.353	0.0161568
857.431	0.0161531
857.509	0.0161704
857.587	0.0163908
857.665	0.0161151
857.744	0.0162016
857.822	0.0162601
857.900	0.0163015
857.978	0.0162634
858.056	0.0163272
858.134	0.0161947
858.212	0.0161560
858.290	0.0162647
858.369	0.0162868
858.447	0.0162057
858.525	0.0161676
858.603	0.0162131
858.681	0.0162173
858.759	0.0159261
858.837	0.0159890
858.915	0.0160412
858.994	0.0159327
859.072	0.0158804
859.150	0.0158722
859.228	0.0159017
859.306	0.0159547
859.384	0.0159235
859.462	0.0159277
859.540	0.0159960
859.619	0.0160857
859.697	0.0161728
859.775	0.0161083
859.853	0.0161241
859.931	0.0163454
860.009	0.0161169
860.087	0.0161311
860.165	0.0162521
860.244	0.0162758
860.322	0.0162097
860.400	0.0163065
860.478	0.0163181
860.556	0.0162836
860.634	0.0162998
860.712	0.0162883
860.790	0.0162544
860.869	0.0160989
860.947	0.0161761
861.025	0.0161678
861.103	0.0161343
861.181	0.0160072
861.259	0.0160819
861.337	0.0160617
861.415	0.0160916
861.494	0.0159414
861.572	0.0159036
861.650	0.0159541
861.728	0.0160232
861.806	0.0160728
861.884	0.0160490
861.962	0.0161111
862.040	0.0159008
862.119	0.0160877
862.197	0.0162630
862.275	0.0160484
862.353	0.0161302
862.431	0.0161024
862.509	0.0161176
862.587	0.0161658
862.665	0.0161779
862.744	0.0161565
862.822	0.0162063
862.900	0.0161778
862.978	0.0161293
863.056	0.0161829
863.134	0.0162869
863.212	0.0161441
863.290	0.0161884
863.369	0.0160728
863.447	0.0161257
863.525	0.0160917
863.603	0.0161612
863.681	0.0161847
863.759	0.0162054
863.837	0.0161240
863.915	0.0160084
863.994	0.0160696
864.072	0.0161396
864.150	0.0160690
864.228	0.0161537
864.306	0.0160222
864.384	0.0162472
864.462	0.0161071
864.540	0.0161051
864.619	0.0161186
864.697	0.0161349
864.775	0.0161597
864.853	0.0159904
864.931	0.0160738
865.009	0.0160466
865.087	0.0160760
865.165	0.0160791
865.244	0.0160123
865.322	0.0161726
865.400	0.0161012
865.478	0.0161214
865.556	0.0161940
865.634	0.0161206
865.712	0.0161813
865.790	0.0162512
865.869	0.0161832
865.947	0.0161541
866.025	0.0159845
866.103	0.0161678
866.181	0.0162029
866.259	0.0162405
866.337	0.0161945
866.415	0.0160063
866.494	0.0161854
866.572	0.0162124
866.650	0.0160876
866.728	0.0162644
866.806	0.0161986
866.884	0.0162786
866.962	0.0160948
867.040	0.0161083
867.119	0.0161054
867.197	0.0161588
867.275	0.0162350
867.353	0.0160984
867.431	0.0161212
867.509	0.0160806
867.587	0.0160455
867.665	0.0161755
867.744	0.0162225
867.822	0.0163033
867.900	0.0160387
867.978	0.0160282
868.056	0.0161723
868.134	0.0162381
868.212	0.0161043
868.290	0.0160101
868.369	0.0159708
868.447	0.0159170
868.525	0.0160683
868.603	0.0162807
868.681	0.0159856
868.759	0.0159949
868.837	0.0160644
868.915	0.0159693
868.994	0.0160909
869.072	0.0161311
869.150	0.0161005
869.228	0.0160473
869.306	0.0161645
869.384	0.0161884
869.462	0.0161584
869.540	0.0160875
869.619	0.0159373
869.697	0.0160015
869.775	0.0162541
869.853	0.0161652
869.931	0.0160044
870.009	0.0160197
870.087	0.0159718
870.165	0.0159502
870.244	0.0160635
870.322	0.0160208
870.400	0.0159284
870.478	0.0159968
870.556	0.0159328
870.634	0.0160569
870.712	0.0160828
870.790	0.0162091
870.869	0.0159594
870.947	0.0159461
871.025	0.0161061
871.103	0.0162233
871.181	0.0161029
871.259	0.0161821
871.337	0.0161629
871.415	0.0161137
871.494	0.0162005
871.572	0.0161401
871.650	0.0161261
871.728	0.0162564
871.806	0.0162242
871.884	0.0163023
871.962	0.0161975
872.040	0.0162352
872.119	0.0160980
872.197	0.0160899
872.275	0.0161935
872.353	0.0162043
872.431	0.0161961
872.509	0.0160826
872.587	0.0161275
872.665	0.0161558
872.744	0.0162119
872.822	0.0160247
872.900	0.0159970
872.978	0.0161884
873.056	0.0161395
873.134	0.0161423
873.212	0.0161259
873.290	0.0160426
873.369	0.0160906
873.447	0.0160309
873.525	0.0162440
873.603	0.0161458
873.681	0.0161705
873.759	0.0161937
873.837	0.0161277
873.915	0.0160519
873.994	0.0160702
874.072	0.0162447
874.150	0.0161057
874.228	0.0161372
874.306	0.0159977
874.384	0.0160689
874.462	0.0159406
874.540	0.0160812
874.619	0.0160221
874.697	0.0161079
874.775	0.0160945
874.853	0.0160490
874.931	0.0160076
875.009	0.0161237
875.087	0.0161135
875.165	0.0161165
875.244	0.0161951
875.322	0.0162531
875.400	0.0162553
875.478	0.0162619
875.556	0.0159879
875.634	0.0160178
875.712	0.0161860
875.790	0.0160670
875.869	0.0160442
875.947	0.0159773
876.025	0.0160981
876.103	0.0160318
876.181	0.0160685
876.259	0.0161276
876.337	0.0160244
876.415	0.0161671
876.494	0.0161131
876.572	0.0161428
876.650	0.0162177
876.728	0.0162553
876.806	0.0161166
876.884	0.0163275
876.962	0.0162914
877.040	0.0162254
877.119	0.0162891
877.197	0.0163867
877.275	0.0162637
877.353	0.0162741
877.431	0.0161949
877.509	0.0161703
877.587	0.0161374
877.665	0.0161331
877.744	0.0161114
877.822	0.0160813
877.900	0.0160944
877.978	0.0159360
878.056	0.0159197
878.134	0.0159296
878.212	0.0160109
878.290	0.0157952
878.369	0.0158826
878.447	0.0160403
878.525	0.0159673
878.603	0.0160255
878.681	0.0160860
878.759	0.0159710
878.837	0.0159931
878.915	0.0160748
878.994	0.0161864
879.072	0.0161949
879.150	0.0163009
879.228	0.0163523
879.306	0.0163658
879.384	0.0162764
879.462	0.0162978
879.540	0.0162596
879.619	0.0164104
879.697	0.0162534
879.775	0.0162934
879.853	0.0162263
879.931	0.0162836
880.009	0.0162859
880.087	0.0162506
880.165	0.0161114
880.244	0.0161079
880.322	0.0160746
880.400	0.0162268
880.478	0.0160510
880.556	0.0160493
880.634	0.0161497
880.712	0.0160903
880.790	0.0158580
880.869	0.0158638
880.947	0.0159824
881.025	0.0160155
881.103	0.0159717
881.181	0.0159242
881.259	0.0160378
881.337	0.0161575
881.415	0.0160669
881.494	0.0160298
881.572	0.0159718
881.650	0.0159250
881.728	0.0160439
881.806	0.0160674
881.884	0.0161077
881.962	0.0160864
882.040	0.0160403
882.119	0.0159025
882.197	0.0159480
882.275	0.0161079
882.353	0.0158705
882.431	0.0158710
882.509	0.0159397
882.587	0.0160484
882.665	0.0161396
882.744	0.0159554
882.822	0.0160574
882.900	0.0160673
882.978	0.0160492
883.056	0.0159737
883.134	0.0159888
883.212	0.0161093
883.290	0.0160652
883.369	0.0161325
883.447	0.0160837
883.525	0.0159528
883.603	0.0161913
883.681	0.0162227
883.759	0.0162176
883.837	0.0160270
883.915	0.0160113
883.994	0.0160524
884.072	0.0161330
884.150	0.0160842
884.228	0.0160892
884.306	0.0160338
884.384	0.0159886
884.462	0.0159830
884.540	0.0160796
884.619	0.0160598
884.697	0.0160137
884.775	0.0159322
884.853	0.0160374
884.931	0.0160299
885.009	0.0159834
885.087	0.0160338
885.165	0.0160461
885.244	0.0160006
885.322	0.0160253
885.400	0.0160149
885.478	0.0161008
885.556	0.0160237
885.634	0.0160226
885.712	0.0160033
885.790	0.0161130
885.869	0.0160423
885.947	0.0160052
886.025	0.0160516
886.103	0.0160798
886.181	0.0160708
886.259	0.0158813
886.337	0.0159544
886.415	0.0160242
886.494	0.0160125
886.572	0.0159873
886.650	0.0160885
886.728	0.0160562
886.806	0.0160274
886.884	0.0158501
886.962	0.0161044
887.040	0.0159853
887.119	0.0159990
887.197	0.0161211
887.275	0.0160484
887.353	0.0161038
887.431	0.0161919
887.509	0.0161774
887.587	0.0161708
887.665	0.0162225
887.744	0.0160695
887.822	0.0160451
887.900	0.0160877
887.978	0.0161309
888.056	0.0161110
888.134	0.0161081
888.212	0.0160241
888.290	0.0159319
888.369	0.0159576
888.447	0.0158640
888.525	0.0159531
888.603	0.0157569
888.681	0.0159817
888.759	0.0159955
888.837	0.0158618
888.915	0.0158788
888.994	0.0160204
889.072	0.0158858
889.150	0.0159687
889.228	0.0160763
889.306	0.0159860
889.384	0.0159743
889.462	0.0160286
889.540	0.0163786
889.619	0.0162491
889.697	0.0160757
889.775	0.0160783
889.853	0.0161437
889.931	0.0161916
890.009	0.0161668
890.087	0.0160585
890.165	0.0161784
890.244	0.0161923
890.322	0.0161575
890.400	0.0162141
890.478	0.0162886
890.556	0.0162354
890.634	0.0161098
890.712	0.0161241
890.790	0.0160313
890.869	0.0160937
890.947	0.0160010
891.025	0.0159928
891.103	0.0160998
891.181	0.0159965
891.259	0.0159667
891.337	0.0158753
891.415	0.0158292
891.494	0.0160504
891.572	0.0162164
891.650	0.0161481
891.728	0.0161198
891.806	0.0160484
891.884	0.0160375
891.962	0.0160008
892.040	0.0160557
892.119	0.0161134
892.197	0.0160606
892.275	0.0160006
892.353	0.0161304
892.431	0.0160974
892.509	0.0160316
892.587	0.0160515
892.665	0.0159168
892.744	0.0161151
892.822	0.0161143
892.900	0.0160335
892.978	0.0160220
893.056	0.0160556
893.134	0.0159637
893.212	0.0160238
893.290	0.0161055
893.369	0.0161118
893.447	0.0160179
893.525	0.0162157
893.603	0.0161147
893.681	0.0160814
893.759	0.0160184
893.837	0.0159892
893.915	0.0160583
893.994	0.0160553
894.072	0.0161475
894.150	0.0158430
894.228	0.0159865
894.306	0.0159549
894.384	0.0159451
894.462	0.0160867
894.540	0.0160528
894.619	0.0159424
894.697	0.0159600
894.775	0.0160839
894.853	0.0159561
894.931	0.0161465
895.009	0.0159966
895.087	0.0160730
895.165	0.0160954
895.244	0.0160767
895.322	0.0160694
895.400	0.0161042
895.478	0.0162009
895.556	0.0161665
895.634	0.0160475
895.712	0.0160629
895.790	0.0161636
895.869	0.0160158
895.947	0.0160222
896.025	0.0160182
896.103	0.0159694
896.181	0.0159457
896.259	0.0159544
896.337	0.0159913
896.415	0.0159679
896.494	0.0159154
896.572	0.0158620
896.650	0.0159790
896.728	0.0160151
896.806	0.0160784
896.884	0.0159433
896.962	0.0161780
897.040	0.0162376
897.119	0.0161406
897.197	0.0162115
897.275	0.0160516
897.353	0.0161395
897.431	0.0161952
897.509	0.0162225
897.587	0.0162161
897.665	0.0160796
897.744	0.0159741
897.822	0.0160078
897.900	0.0159632
897.978	0.0158677
898.056	0.0158900
898.134	0.0159438
898.212	0.0159286
898.290	0.0157641
898.369	0.0158713
898.447	0.0159261
898.525	0.0159510
898.603	0.0159064
898.681	0.0159983
898.759	0.0161198
898.837	0.0160610
898.915	0.0161170
898.994	0.0161376
899.072	0.0160144
899.150	0.0160147
899.228	0.0162627
899.306	0.0163329
899.384	0.0162568
899.462	0.0163006
899.540	0.0163197
899.619	0.0162785
899.697	0.0163596
899.775	0.0162829
899.853	0.0162267
899.931	0.0162273
900.009	0.0162153
900.087	0.0162340
900.165	0.0162898
900.244	0.0161718
900.322	0.0161366
900.400	0.0160558
900.478	0.0160709
900.556	0.0160045
900.634	0.0160782
900.712	0.0160326
900.790	0.0159988
900.869	0.0160326
900.947	0.0160755
901.025	0.0161564
901.103	0.0160299
901.181	0.0159762
901.259	0.0161451
901.337	0.0159535
901.415	0.0160255
901.494	0.0161469
901.572	0.0160559
901.650	0.0159491
901.728	0.0160710
901.806	0.0160940
901.884	0.0159647
901.962	0.0160142
902.040	0.0161449
902.119	0.0159875
902.197	0.0160268
902.275	0.0159786
902.353	0.0160126
902.431	0.0160388
902.509	0.0160008
902.587	0.0159286
902.665	0.0160114
902.744	0.0161225
902.822	0.0161252
902.900	0.0160840
902.978	0.0162232
903.056	0.0160181
903.134	0.0160814
903.212	0.0161983
903.290	0.0161662
903.369	0.0160589
903.447	0.0161230
903.525	0.0160816
903.603	0.0159254
903.681	0.0160948
903.759	0.0159709
903.837	0.0160007
903.915	0.0159969
903.994	0.0160480
904.072	0.0161492
904.150	0.0159852
904.228	0.0159132
904.306	0.0159721
904.384	0.0160335
904.462	0.0160948
904.540	0.0159660
904.619	0.0159821
904.697	0.0160474
904.775	0.0159356
904.853	0.0159129
904.931	0.0159660
905.009	0.0160644
905.087	0.0159969
905.165	0.0159903
905.244	0.0159911
905.322	0.0161057
905.400	0.0159009
905.478	0.0159785
905.556	0.0161164
905.634	0.0159281
905.712	0.0160961
905.790	0.0161088
905.869	0.0160736
905.947	0.0162035
906.025	0.0161039
906.103	0.0159661
906.181	0.0160281
906.259	0.0160720
906.337	0.0160676
906.415	0.0160107
906.494	0.0161044
906.572	0.0160969
906.650	0.0159850
906.728	0.0160663
906.806	0.0160963
906.884	0.0158958
906.962	0.0160268
907.040	0.0160667
907.119	0.0160718
907.197	0.0159143
907.275	0.0159930
907.353	0.0159743
907.431	0.0159356
907.509	0.0159518
907.587	0.0160926
907.665	0.0160757
907.744	0.0161588
907.822	0.0160500
907.900	0.0161276
907.978	0.0161697
908.056	0.0161765
908.134	0.0162292
908.212	0.0162042
908.290	0.0162143
908.369	0.0162270
908.447	0.0161504
908.525	0.0162574
908.603	0.0161763
908.681	0.0162363
908.759	0.0161053
908.837	0.0161377
908.915	0.0161979
908.994	0.0160905
909.072	0.0160943
909.150	0.0162090
909.228	0.0162185
909.306	0.0160216
909.384	0.0160262
909.462	0.0159951
909.540	0.0160327
909.619	0.0160879
909.697	0.0159554
909.775	0.0159689
909.853	0.0162259
909.931	0.0161205
910.009	0.0160732
910.087	0.0160471
910.165	0.0160173
910.244	0.0161175
910.322	0.0159740
910.400	0.0160097
910.478	0.0160963
910.556	0.0160996
910.634	0.0161982
910.712	0.0161753
910.790	0.0160506
910.869	0.0161298
910.947	0.0160986
911.025	0.0161689
911.103	0.0160588
911.181	0.0161238
911.259	0.0161893
911.337	0.0160997
911.415	0.0159901
911.494	0.0160503
911.572	0.0159879
911.650	0.0158936
911.728	0.0160703
911.806	0.0161205
911.884	0.0159332
911.962	0.0160294
912.040	0.0159637
912.119	0.0160299
912.197	0.0160422
912.275	0.0159856
912.353	0.0159933
912.431	0.0158456
912.509	0.0159781
912.587	0.0160310
912.665	0.0160311
912.744	0.0161507
912.822	0.0161077
912.900	0.0160537
912.978	0.0160577
913.056	0.0161304
913.134	0.0160787
913.212	0.0159973
913.290	0.0160466
913.369	0.0160457
913.447	0.0160444
913.525	0.0162270
913.603	0.0160711
913.681	0.0161320
913.759	0.0161141
913.837	0.0160155
913.915	0.0160073
913.994	0.0160067
914.072	0.0161602
914.150	0.0160256
914.228	0.0159827
914.306	0.0160284
914.384	0.0159940
914.462	0.0160578
914.540	0.0159232
914.619	0.0160050
914.697	0.0160249
914.775	0.0159607
914.853	0.0160668
914.931	0.0162360
915.009	0.0160245
915.087	0.0161697
915.165	0.0162119
915.244	0.0160802
915.322	0.0160800
915.400	0.0160843
915.478	0.0161443
915.556	0.0160773
915.634	0.0161820
915.712	0.0162209
915.790	0.0161250
915.869	0.0160545
915.947	0.0160057
916.025	0.0162093
916.103	0.0162061
916.181	0.0161578
916.259	0.0161860
916.337	0.0160552
916.415	0.0160938
916.494	0.0161538
916.572	0.0161177
916.650	0.0161362
916.728	0.0161128
916.806	0.0159856
916.884	0.0161407
916.962	0.0162041
917.040	0.0161330
917.119	0.0160474
917.197	0.0161973
917.275	0.0162343
917.353	0.0161749
917.431	0.0160777
917.509	0.0162281
917.587	0.0162013
917.665	0.0161322
917.744	0.0161428
917.822	0.0162977
917.900	0.0162074
917.978	0.0161431
918.056	0.0161724
918.134	0.0161089
918.212	0.0162089
918.290	0.0161737
918.369	0.0160305
918.447	0.0160149
918.525	0.0160926
918.603	0.0160184
918.681	0.0160850
918.759	0.0160094
918.837	0.0158282
918.915	0.0159241
918.994	0.0158668
919.072	0.0159641
919.150	0.0159747
919.228	0.0159386
919.306	0.0160437
919.384	0.0160772
919.462	0.0159194
919.540	0.0160024
919.619	0.0161302
919.697	0.0162122
919.775	0.0160513
919.853	0.0161189
919.931	0.0161878
920.009	0.0161549
920.087	0.0160209
920.165	0.0160553
920.244	0.0161635
920.322	0.0161125
920.400	0.0160342
920.478	0.0161711
920.556	0.0161980
920.634	0.0161327
920.712	0.0160351
920.790	0.0159885
920.869	0.0160676
920.947	0.0161342
921.025	0.0162061
921.103	0.0161512
921.181	0.0161970
921.259	0.0160640
921.337	0.0160294
921.415	0.0160770
921.494	0.0162263
921.572	0.0161652
921.650	0.0161063
921.728	0.0160184
921.806	0.0162708
921.884	0.0161483
921.962	0.0160654
922.040	0.0161266
922.119	0.0161263
922.197	0.0160284
922.275	0.0160132
922.353	0.0161000
922.431	0.0161370
922.509	0.0160527
922.587	0.0160622
922.665	0.0161031
922.744	0.0160638
922.822	0.0161536
922.900	0.0161169
922.978	0.0160416
923.056	0.0161244
923.134	0.0161555
923.212	0.0160880
923.290	0.0161782
923.369	0.0161769
923.447	0.0161436
923.525	0.0161441
923.603	0.0159644
923.681	0.0160802
923.759	0.0161633
923.837	0.0160969
923.915	0.0161418
923.994	0.0162085
924.072	0.0161895
924.150	0.0161953
924.228	0.0160175
924.306	0.0160542
924.384	0.0161732
924.462	0.0159932
924.540	0.0159775
924.619	0.0160003
924.697	0.0159766
924.775	0.0160709
924.853	0.0158989
924.931	0.0160359
925.009	0.0160040
925.087	0.0160948
925.165	0.0158574
925.244	0.0159779
925.322	0.0160221
925.400	0.0160172
925.478	0.0159982
925.556	0.0160577
925.634	0.0160104
925.712	0.0161199
925.790	0.0161650
925.869	0.0162431
925.947	0.0160353
926.025	0.0160898
926.103	0.0161868
926.181	0.0161827
926.259	0.0162315
926.337	0.0163179
926.415	0.0162129
926.494	0.0162975
926.572	0.0161507
926.650	0.0162098
926.728	0.0163638
926.806	0.0161819
926.884	0.0162411
926.962	0.0162266
927.040	0.0161204
927.119	0.0160651
927.197	0.0163113
927.275	0.0160574
927.353	0.0162412
927.431	0.0161382
927.509	0.0160245
927.587	0.0161134
927.665	0.0160970
927.744	0.0161372
927.822	0.0161331
927.900	0.0160958
927.978	0.0161345
928.056	0.0161129
928.134	0.0161941
928.212	0.0163452
928.290	0.0162467
928.369	0.0161726
928.447	0.0160946
928.525	0.0162749
928.603	0.0161673
928.681	0.0163179
928.759	0.0163664
928.837	0.0162009
928.915	0.0161490
928.994	0.0162151
929.072	0.0162838
929.150	0.0161641
929.228	0.0162395
929.306	0.0163920
929.384	0.0162992
929.462	0.0161297
929.540	0.0161325
929.619	0.0161565
929.697	0.0160876
929.775	0.0162420
929.853	0.0160262
929.931	0.0160373
930.009	0.0159772
930.087	0.0161018
930.165	0.0161617
930.244	0.0160724
930.322	0.0161624
930.400	0.0160673
930.478	0.0160030
930.556	0.0161013
930.634	0.0160365
930.712	0.0161042
930.790	0.0159656
930.869	0.0160023
930.947	0.0161645
931.025	0.0160756
931.103	0.0159105
931.181	0.0159215
931.259	0.0161215
931.337	0.0160363
931.415	0.0160201
931.494	0.0160032
931.572	0.0159073
931.650	0.0160402
931.728	0.0161751
931.806	0.0160353
931.884	0.0160841
931.962	0.0161859
932.040	0.0162398
932.119	0.0161456
932.197	0.0160746
932.275	0.0161031
932.353	0.0161638
932.431	0.0159675
932.509	0.0161934
932.587	0.0161162
932.665	0.0161207
932.744	0.0160369
932.822	0.0159516
932.900	0.0161057
932.978	0.0160789
933.056	0.0160030
933.134	0.0160305
933.212	0.0159067
933.290	0.0160302
933.369	0.0160926
933.447	0.0160743
933.525	0.0160287
933.603	0.0161346
933.681	0.0161050
933.759	0.0159873
933.837	0.0160753
933.915	0.0161558
933.994	0.0160711
934.072	0.0160791
934.150	0.0160912
934.228	0.0161329
934.306	0.0162737
934.384	0.0160382
934.462	0.0160607
934.540	0.0160896
934.619	0.0160734
934.697	0.0160989
934.775	0.0160395
934.853	0.0160207
934.931	0.0162250
935.009	0.0162205
935.087	0.0159991
935.165	0.0161298
935.244	0.0160063
935.322	0.0161456
935.400	0.0160364
935.478	0.0160596
935.556	0.0161074
935.634	0.0160773
935.712	0.0160690
935.790	0.0160970
935.869	0.0162068
935.947	0.0160557
936.025	0.0161725
936.103	0.0160822
936.181	0.0160437
936.259	0.0160095
936.337	0.0160973
936.415	0.0161487
936.494	0.0161459
936.572	0.0160416
936.650	0.0161530
936.728	0.0162817
936.806	0.0161744
936.884	0.0161324
936.962	0.0161854
937.040	0.0161452
937.119	0.0160246
937.197	0.0161465
937.275	0.0161858
937.353	0.0160936
937.431	0.0161099
937.509	0.0161081
937.587	0.0160123
937.665	0.0159727
937.744	0.0162044
937.822	0.0160996
937.900	0.0161414
937.978	0.0161199
938.056	0.0159937
938.134	0.0159998
938.212	0.0159968
938.290	0.0161763
938.369	0.0161175
938.447	0.0160738
938.525	0.0159699
938.603	0.0160165
938.681	0.0160241
938.759	0.0160392
938.837	0.0161432
938.915	0.0160783
938.994	0.0159609
939.072	0.0158689
939.150	0.0159302
939.228	0.0159994
939.306	0.0160126
939.384	0.0160149
939.462	0.0159225
939.540	0.0158530
939.619	0.0158881
939.697	0.0160535
939.775	0.0160378
939.853	0.0160719
939.931	0.0159000
940.009	0.0160324
940.087	0.0162548
940.165	0.0160076
940.244	0.0160256
940.322	0.0160557
940.400	0.0161169
940.478	0.0161044
940.556	0.0160140
940.634	0.0160007
940.712	0.0160780
940.790	0.0159686
940.869	0.0160799
940.947	0.0161337
941.025	0.0161456
941.103	0.0160538
941.181	0.0161693
941.259	0.0161529
941.337	0.0160906
941.415	0.0162008
941.494	0.0161542
941.572	0.0161212
941.650	0.0160986
941.728	0.0159901
941.806	0.0160962
941.884	0.0161551
941.962	0.0160165
942.040	0.0161118
942.119	0.0160495
942.197	0.0160626
942.275	0.0159843
942.353	0.0161584
942.431	0.0160297
942.509	0.0161478
942.587	0.0160995
942.665	0.0161535
942.744	0.0161553
942.822	0.0159545
942.900	0.0161076
942.978	0.0161513
943.056	0.0160836
943.134	0.0161796
943.212	0.0160172
943.290	0.0159895
943.369	0.0161335
943.447	0.0160964
943.525	0.0160323
943.603	0.0161227
943.681	0.0161785
943.759	0.0160815
943.837	0.0161751
943.915	0.0162080
943.994	0.0161419
944.072	0.0161237
944.150	0.0160743
944.228	0.0162271
944.306	0.0161277
944.384	0.0162711
944.462	0.0160991
944.540	0.0161836
944.619	0.0161132
944.697	0.0161631
944.775	0.0161945
944.853	0.0161050
944.931	0.0162712
945.009	0.0160957
945.087	0.0161581
945.165	0.0161250
945.244	0.0161341
945.322	0.0162069
945.400	0.0160815
945.478	0.0161497
945.556	0.0160484
945.634	0.0161722
945.712	0.0161790
945.790	0.0161281
945.869	0.0162971
945.947	0.0162286
946.025	0.0161028
946.103	0.0161306
946.181	0.0162234
946.259	0.0161586
946.337	0.0161798
946.415	0.0160791
946.494	0.0162171
946.572	0.0163338
946.650	0.0160681
946.728	0.0162165
946.806	0.0161316
946.884	0.0161261
946.962	0.0160121
947.040	0.0161035
947.119	0.0161367
947.197	0.0161801
947.275	0.0161492
947.353	0.0159912
947.431	0.0162230
947.509	0.0161387
947.587	0.0160864
947.665	0.0161682
947.744	0.0161855
947.822	0.0160879
947.900	0.0161016
947.978	0.0160060
948.056	0.0161694
948.134	0.0162238
948.212	0.0162705
948.290	0.0161733
948.369	0.0162481
948.447	0.0161107
948.525	0.0161819
948.603	0.0161918
948.681	0.0161784
948.759	0.0161141
948.837	0.0161774
948.915	0.0161424
948.994	0.0160878
949.072	0.0160417
949.150	0.0161423
949.228	0.0162505
949.306	0.0161708
949.384	0.0161275
949.462	0.0161185
949.540	0.0161654
949.619	0.0161635
949.697	0.0161927
949.775	0.0163116
949.853	0.0161521
949.931	0.0162212
