05/19/2022	01:19:20	Ver.	4.1	UNKNOWN
Optical Delay	610.008675	Delta X		0.078125	Sweeps	1	Scan Rate	0/0
Coordinates	Axis 1	NaN	Axis 2	NaN	Axis 3	NaN	Axis 4	NaN	Axis 5	NaN	Axis 6	0.000000
TX Power	0.000000	RX Power	0.000000

610.009	0.0161951
610.087	0.0162000
610.165	0.0161568
610.243	0.0162136
610.321	0.0162113
610.399	0.0162810
610.477	0.0161384
610.556	0.0161689
610.634	0.0163175
610.712	0.0163776
610.790	0.0162447
610.868	0.0160898
610.946	0.0162830
611.024	0.0162378
611.102	0.0162180
611.181	0.0162464
611.259	0.0162427
611.337	0.0161834
611.415	0.0161027
611.493	0.0161545
611.571	0.0161352
611.649	0.0161238
611.727	0.0162103
611.806	0.0161642
611.884	0.0161430
611.962	0.0161285
612.040	0.0160287
612.118	0.0159790
612.196	0.0160986
612.274	0.0159717
612.352	0.0159592
612.431	0.0159930
612.509	0.0161038
612.587	0.0160233
612.665	0.0160691
612.743	0.0160268
612.821	0.0160160
612.899	0.0159922
612.977	0.0159851
613.056	0.0160562
613.134	0.0158913
613.212	0.0159786
613.290	0.0158492
613.368	0.0159467
613.446	0.0159156
613.524	0.0159679
613.602	0.0158804
613.681	0.0159875
613.759	0.0158398
613.837	0.0158730
613.915	0.0159791
613.993	0.0160310
614.071	0.0158420
614.149	0.0159311
614.227	0.0159285
614.306	0.0158694
614.384	0.0160316
614.462	0.0160125
614.540	0.0159578
614.618	0.0159940
614.696	0.0159983
614.774	0.0159840
614.852	0.0158829
614.931	0.0159013
615.009	0.0160175
615.087	0.0160169
615.165	0.0158643
615.243	0.0159383
615.321	0.0159149
615.399	0.0159002
615.477	0.0159962
615.556	0.0159946
615.634	0.0159931
615.712	0.0159210
615.790	0.0158865
615.868	0.0159638
615.946	0.0160721
616.024	0.0159695
616.102	0.0160236
616.181	0.0162222
616.259	0.0161922
616.337	0.0158735
616.415	0.0160553
616.493	0.0160155
616.571	0.0161330
616.649	0.0160773
616.727	0.0161166
616.806	0.0161873
616.884	0.0161760
616.962	0.0160532
617.040	0.0160981
617.118	0.0160371
617.196	0.0160519
617.274	0.0162027
617.352	0.0161419
617.431	0.0159919
617.509	0.0160795
617.587	0.0160297
617.665	0.0159333
617.743	0.0160514
617.821	0.0161271
617.899	0.0161629
617.977	0.0161358
618.056	0.0161700
618.134	0.0161270
618.212	0.0161867
618.290	0.0162230
618.368	0.0160743
618.446	0.0163506
618.524	0.0163603
618.602	0.0162924
618.681	0.0162617
618.759	0.0163149
618.837	0.0162029
618.915	0.0164068
618.993	0.0163036
619.071	0.0164304
619.149	0.0164214
619.227	0.0163374
619.306	0.0164416
619.384	0.0162582
619.462	0.0162557
619.540	0.0162471
619.618	0.0163731
619.696	0.0163188
619.774	0.0162185
619.852	0.0161335
619.931	0.0161921
620.009	0.0161301
620.087	0.0160775
620.165	0.0161694
620.243	0.0162320
620.321	0.0161111
620.399	0.0160500
620.477	0.0160094
620.556	0.0159825
620.634	0.0160808
620.712	0.0159823
620.790	0.0160454
620.868	0.0160196
620.946	0.0159639
621.024	0.0157912
621.102	0.0159170
621.181	0.0159702
621.259	0.0158953
621.337	0.0159480
621.415	0.0160660
621.493	0.0161349
621.571	0.0161055
621.649	0.0160464
621.727	0.0160403
621.806	0.0159419
621.884	0.0161759
621.962	0.0161567
622.040	0.0160535
622.118	0.0161117
622.196	0.0161362
622.274	0.0160707
622.352	0.0160246
622.431	0.0159827
622.509	0.0159744
622.587	0.0159893
622.665	0.0159941
622.743	0.0159912
622.821	0.0159164
622.899	0.0160165
622.977	0.0158423
623.056	0.0158642
623.134	0.0159002
623.212	0.0159160
623.290	0.0158723
623.368	0.0160840
623.446	0.0157955
623.524	0.0158792
623.602	0.0158940
623.681	0.0159047
623.759	0.0159489
623.837	0.0158566
623.915	0.0157910
623.993	0.0158947
624.071	0.0160815
624.149	0.0158740
624.227	0.0160996
624.306	0.0161516
624.384	0.0161651
624.462	0.0161124
624.540	0.0161855
624.618	0.0161455
624.696	0.0162193
624.774	0.0161596
624.852	0.0162469
624.931	0.0162650
625.009	0.0161124
625.087	0.0162079
625.165	0.0163058
625.243	0.0161287
625.321	0.0162460
625.399	0.0161673
625.477	0.0162659
625.556	0.0162642
625.634	0.0162759
625.712	0.0160518
625.790	0.0161022
625.868	0.0162265
625.946	0.0161212
626.024	0.0160040
626.102	0.0161092
626.181	0.0160698
626.259	0.0161481
626.337	0.0162695
626.415	0.0160174
626.493	0.0162891
626.571	0.0161618
626.649	0.0159943
626.727	0.0159964
626.806	0.0158525
626.884	0.0160345
626.962	0.0160258
627.040	0.0161874
627.118	0.0160892
627.196	0.0161328
627.274	0.0161253
627.352	0.0161195
627.431	0.0160369
627.509	0.0160459
627.587	0.0161768
627.665	0.0160197
627.743	0.0161564
627.821	0.0161911
627.899	0.0160568
627.977	0.0159809
628.056	0.0159633
628.134	0.0159019
628.212	0.0160223
628.290	0.0159818
628.368	0.0158978
628.446	0.0159171
628.524	0.0157911
628.602	0.0157957
628.681	0.0156818
628.759	0.0157550
628.837	0.0157630
628.915	0.0157887
628.993	0.0158953
629.071	0.0158717
629.149	0.0158224
629.227	0.0157342
629.306	0.0158561
629.384	0.0159392
629.462	0.0159364
629.540	0.0160738
629.618	0.0159570
629.696	0.0160456
629.774	0.0161210
629.852	0.0159969
629.931	0.0159502
630.009	0.0161886
630.087	0.0160196
630.165	0.0161008
630.243	0.0160499
630.321	0.0161966
630.399	0.0162479
630.477	0.0161672
630.556	0.0162325
630.634	0.0161221
630.712	0.0160523
630.790	0.0160571
630.868	0.0161765
630.946	0.0161643
631.024	0.0161337
631.102	0.0161312
631.181	0.0160300
631.259	0.0159904
631.337	0.0161209
631.415	0.0159786
631.493	0.0160626
631.571	0.0160967
631.649	0.0160296
631.727	0.0162170
631.806	0.0160271
631.884	0.0160336
631.962	0.0161257
632.040	0.0160168
632.118	0.0161469
632.196	0.0161538
632.274	0.0160784
632.352	0.0160302
632.431	0.0160165
632.509	0.0158831
632.587	0.0159407
632.665	0.0158120
632.743	0.0158889
632.821	0.0159135
632.899	0.0157898
632.977	0.0158546
633.056	0.0158568
633.134	0.0157917
633.212	0.0158254
633.290	0.0159644
633.368	0.0157658
633.446	0.0158578
633.524	0.0160081
633.602	0.0158289
633.681	0.0158006
633.759	0.0159615
633.837	0.0159219
633.915	0.0159349
633.993	0.0159570
634.071	0.0158756
634.149	0.0158359
634.227	0.0160205
634.306	0.0159489
634.384	0.0161451
634.462	0.0161934
634.540	0.0161578
634.618	0.0161310
634.696	0.0161505
634.774	0.0161821
634.852	0.0162843
634.931	0.0164135
635.009	0.0162058
635.087	0.0163935
635.165	0.0163084
635.243	0.0163489
635.321	0.0164276
635.399	0.0164043
635.477	0.0165577
635.556	0.0165644
635.634	0.0165050
635.712	0.0165660
635.790	0.0165135
635.868	0.0165228
635.946	0.0164617
636.024	0.0165008
636.102	0.0164551
636.181	0.0163477
636.259	0.0164407
636.337	0.0163847
636.415	0.0163548
636.493	0.0163337
636.571	0.0163963
636.649	0.0162848
636.727	0.0161967
636.806	0.0161169
636.884	0.0162144
636.962	0.0161792
637.040	0.0161507
637.118	0.0161414
637.196	0.0159402
637.274	0.0158760
637.352	0.0159162
637.431	0.0158222
637.509	0.0157601
637.587	0.0158434
637.665	0.0156969
637.743	0.0157870
637.821	0.0157509
637.899	0.0155753
637.977	0.0156182
638.056	0.0156302
638.134	0.0156844
638.212	0.0158263
638.290	0.0155825
638.368	0.0156506
638.446	0.0157153
638.524	0.0156554
638.602	0.0156244
638.681	0.0157556
638.759	0.0157620
638.837	0.0157455
638.915	0.0157484
638.993	0.0159591
639.071	0.0158026
639.149	0.0158482
639.227	0.0158741
639.306	0.0159502
639.384	0.0159155
639.462	0.0160426
639.540	0.0159759
639.618	0.0162134
639.696	0.0161507
639.774	0.0159895
639.852	0.0161294
639.931	0.0160632
640.009	0.0160591
640.087	0.0160718
640.165	0.0161698
640.243	0.0163689
640.321	0.0162756
640.399	0.0161389
640.477	0.0161784
640.556	0.0161799
640.634	0.0161764
640.712	0.0162411
640.790	0.0161076
640.868	0.0162959
640.946	0.0162797
641.024	0.0160953
641.102	0.0159810
641.181	0.0160240
641.259	0.0159908
641.337	0.0160930
641.415	0.0160393
641.493	0.0160862
641.571	0.0160255
641.649	0.0160506
641.727	0.0160132
641.806	0.0160064
641.884	0.0160423
641.962	0.0159592
642.040	0.0159422
642.118	0.0159892
642.196	0.0159142
642.274	0.0159163
642.352	0.0159081
642.431	0.0158371
642.509	0.0159244
642.587	0.0156489
642.665	0.0157923
642.743	0.0155605
642.821	0.0155109
642.899	0.0156307
642.977	0.0156261
643.056	0.0155183
643.134	0.0156473
643.212	0.0156256
643.290	0.0156329
643.368	0.0155882
643.446	0.0155756
643.524	0.0156900
643.602	0.0157817
643.681	0.0157790
643.759	0.0158643
643.837	0.0158222
643.915	0.0157489
643.993	0.0159386
644.071	0.0159414
644.149	0.0159900
644.227	0.0160820
644.306	0.0159735
644.384	0.0161049
644.462	0.0161799
644.540	0.0159460
644.618	0.0160314
644.696	0.0161343
644.774	0.0160451
644.852	0.0160944
644.931	0.0160356
645.009	0.0158980
645.087	0.0159345
645.165	0.0159060
645.243	0.0159032
645.321	0.0159612
645.399	0.0158259
645.477	0.0158080
645.556	0.0158273
645.634	0.0156960
645.712	0.0157879
645.790	0.0157745
645.868	0.0158985
645.946	0.0159776
646.024	0.0157870
646.102	0.0157567
646.181	0.0158280
646.259	0.0159333
646.337	0.0158595
646.415	0.0158909
646.493	0.0159352
646.571	0.0162038
646.649	0.0160413
646.727	0.0160375
646.806	0.0159930
646.884	0.0157819
646.962	0.0158949
647.040	0.0159960
647.118	0.0158504
647.196	0.0159759
647.274	0.0158813
647.352	0.0159972
647.431	0.0160016
647.509	0.0159055
647.587	0.0158629
647.665	0.0157819
647.743	0.0157953
647.821	0.0158769
647.899	0.0159316
647.977	0.0159402
648.056	0.0160935
648.134	0.0160421
648.212	0.0159673
648.290	0.0159068
648.368	0.0159107
648.446	0.0160615
648.524	0.0160155
648.602	0.0159048
648.681	0.0157695
648.759	0.0157922
648.837	0.0160406
648.915	0.0158746
648.993	0.0158820
649.071	0.0159628
649.149	0.0159249
649.227	0.0159097
649.306	0.0158820
649.384	0.0158794
649.462	0.0159056
649.540	0.0158545
649.618	0.0158632
649.696	0.0157671
649.774	0.0158715
649.852	0.0159978
649.931	0.0159291
650.009	0.0157792
650.087	0.0158437
650.165	0.0159090
650.243	0.0160155
650.321	0.0158880
650.399	0.0157906
650.477	0.0160151
650.556	0.0159559
650.634	0.0160203
650.712	0.0162838
650.790	0.0161916
650.868	0.0160615
650.946	0.0161183
651.024	0.0162059
651.102	0.0160719
651.181	0.0160944
651.259	0.0162175
651.337	0.0162621
651.415	0.0162089
651.493	0.0162968
651.571	0.0161727
651.649	0.0162314
651.727	0.0162685
651.806	0.0162032
651.884	0.0160747
651.962	0.0160718
652.040	0.0160455
652.118	0.0161017
652.196	0.0161642
652.274	0.0161159
652.352	0.0159712
652.431	0.0160506
652.509	0.0161385
652.587	0.0160508
652.665	0.0160089
652.743	0.0159885
652.821	0.0160985
652.899	0.0161035
652.977	0.0158423
653.056	0.0160283
653.134	0.0160739
653.212	0.0160902
653.290	0.0161401
653.368	0.0161516
653.446	0.0161416
653.524	0.0161496
653.602	0.0161033
653.681	0.0161375
653.759	0.0162373
653.837	0.0160786
653.915	0.0161597
653.993	0.0162474
654.071	0.0162122
654.149	0.0161303
654.227	0.0162648
654.306	0.0163229
654.384	0.0162331
654.462	0.0161110
654.540	0.0162187
654.618	0.0161180
654.696	0.0162040
654.774	0.0160559
654.852	0.0160168
654.931	0.0160484
655.009	0.0159881
655.087	0.0159241
655.165	0.0158854
655.243	0.0159292
655.321	0.0159097
655.399	0.0159335
655.477	0.0158039
655.556	0.0157455
655.634	0.0158547
655.712	0.0159978
655.790	0.0158880
655.868	0.0158871
655.946	0.0159775
656.024	0.0159598
656.102	0.0159014
656.181	0.0157833
656.259	0.0159782
656.337	0.0160127
656.415	0.0159501
656.493	0.0161552
656.571	0.0160599
656.649	0.0159921
656.727	0.0160510
656.806	0.0159254
656.884	0.0158342
656.962	0.0160778
657.040	0.0161233
657.118	0.0159968
657.196	0.0158875
657.274	0.0159730
657.352	0.0158718
657.431	0.0158853
657.509	0.0158369
657.587	0.0159459
657.665	0.0157721
657.743	0.0157758
657.821	0.0156661
657.899	0.0156571
657.977	0.0157014
658.056	0.0156474
658.134	0.0156731
658.212	0.0156940
658.290	0.0156224
658.368	0.0157021
658.446	0.0158456
658.524	0.0159165
658.602	0.0158517
658.681	0.0158864
658.759	0.0160287
658.837	0.0159991
658.915	0.0161138
658.993	0.0160815
659.071	0.0161166
659.149	0.0161166
659.227	0.0160984
659.306	0.0161208
659.384	0.0160648
659.462	0.0160770
659.540	0.0163068
659.618	0.0162543
659.696	0.0160945
659.774	0.0163097
659.852	0.0160645
659.931	0.0161201
660.009	0.0161959
660.087	0.0161758
660.165	0.0161705
660.243	0.0163917
660.321	0.0163123
660.399	0.0163863
660.477	0.0165163
660.556	0.0164616
660.634	0.0163288
660.712	0.0164969
660.790	0.0165999
660.868	0.0165277
660.946	0.0165571
661.024	0.0164110
661.102	0.0163292
661.181	0.0165573
661.259	0.0164719
661.337	0.0163550
661.415	0.0164207
661.493	0.0163318
661.571	0.0162901
661.649	0.0160931
661.727	0.0161439
661.806	0.0162121
661.884	0.0161475
661.962	0.0161185
662.040	0.0160896
662.118	0.0159931
662.196	0.0161055
662.274	0.0159519
662.352	0.0160474
662.431	0.0160315
662.509	0.0160632
662.587	0.0162251
662.665	0.0161921
662.743	0.0160453
662.821	0.0160087
662.899	0.0159821
662.977	0.0161402
663.056	0.0159780
663.134	0.0159599
663.212	0.0159918
663.290	0.0161204
663.368	0.0161241
663.446	0.0160825
663.524	0.0160427
663.602	0.0160194
663.681	0.0160040
663.759	0.0160492
663.837	0.0160637
663.915	0.0161071
663.993	0.0161467
664.071	0.0161545
664.149	0.0160195
664.227	0.0160250
664.306	0.0161325
664.384	0.0161153
664.462	0.0161100
664.540	0.0161411
664.618	0.0161628
664.696	0.0160154
664.774	0.0161713
664.852	0.0160753
664.931	0.0160774
665.009	0.0161469
665.087	0.0160531
665.165	0.0160865
665.243	0.0161144
665.321	0.0160390
665.399	0.0159966
665.477	0.0161911
665.556	0.0160472
665.634	0.0159335
665.712	0.0161028
665.790	0.0159358
665.868	0.0160306
665.946	0.0158702
666.024	0.0158335
666.102	0.0159297
666.181	0.0159323
666.259	0.0158607
666.337	0.0158343
666.415	0.0157424
666.493	0.0157850
666.571	0.0158768
666.649	0.0158264
666.727	0.0159508
666.806	0.0159015
666.884	0.0158338
666.962	0.0159736
667.040	0.0157983
667.118	0.0159671
667.196	0.0158896
667.274	0.0158324
667.352	0.0158829
667.431	0.0159428
667.509	0.0160143
667.587	0.0159589
667.665	0.0159862
667.743	0.0160872
667.821	0.0160085
667.899	0.0160496
667.977	0.0160467
668.056	0.0159615
668.134	0.0160458
668.212	0.0159471
668.290	0.0159236
668.368	0.0159396
668.446	0.0159972
668.524	0.0159957
668.602	0.0159929
668.681	0.0158657
668.759	0.0160542
668.837	0.0160314
668.915	0.0160522
668.993	0.0160563
669.071	0.0160217
669.149	0.0160488
669.227	0.0158786
669.306	0.0158315
669.384	0.0158302
669.462	0.0159548
669.540	0.0159519
669.618	0.0158445
669.696	0.0159278
669.774	0.0158929
669.852	0.0159471
669.931	0.0159979
670.009	0.0159235
670.087	0.0159911
670.165	0.0160061
670.243	0.0160817
670.321	0.0161609
670.399	0.0161505
670.477	0.0161524
670.556	0.0160928
670.634	0.0162315
670.712	0.0162635
670.790	0.0162757
670.868	0.0161640
670.946	0.0162812
671.024	0.0162212
671.102	0.0162815
671.181	0.0162227
671.259	0.0162070
671.337	0.0162993
671.415	0.0161674
671.493	0.0162835
671.571	0.0163426
671.649	0.0163137
671.727	0.0162045
671.806	0.0163229
671.884	0.0163341
671.962	0.0163398
672.040	0.0163657
672.118	0.0163385
672.196	0.0163673
672.274	0.0163252
672.352	0.0162524
672.431	0.0162235
672.509	0.0162621
672.587	0.0163638
672.665	0.0162651
672.743	0.0161803
672.821	0.0162585
672.899	0.0162871
672.977	0.0164503
673.056	0.0163647
673.134	0.0163815
673.212	0.0163054
673.290	0.0164217
673.368	0.0164204
673.446	0.0162534
673.524	0.0162932
673.602	0.0163137
673.681	0.0164758
673.759	0.0164697
673.837	0.0163568
673.915	0.0163217
673.993	0.0163604
674.071	0.0162871
674.149	0.0162633
674.227	0.0162261
674.306	0.0163265
674.384	0.0164139
674.462	0.0162719
674.540	0.0161087
674.618	0.0163795
674.696	0.0164079
674.774	0.0162185
674.852	0.0161117
674.931	0.0163273
675.009	0.0163367
675.087	0.0161850
675.165	0.0162614
675.243	0.0162749
675.321	0.0162680
675.399	0.0161832
675.477	0.0162151
675.556	0.0163280
675.634	0.0162259
675.712	0.0160356
675.790	0.0162507
675.868	0.0163306
675.946	0.0161770
676.024	0.0161411
676.102	0.0160867
676.181	0.0162680
676.259	0.0162589
676.337	0.0162582
676.415	0.0162812
676.493	0.0162083
676.571	0.0160501
676.649	0.0161165
676.727	0.0161562
676.806	0.0160390
676.884	0.0160513
676.962	0.0161991
677.040	0.0162522
677.118	0.0160601
677.196	0.0161420
677.274	0.0161379
677.352	0.0161138
677.431	0.0161141
677.509	0.0160751
677.587	0.0160505
677.665	0.0160960
677.743	0.0161725
677.821	0.0163878
677.899	0.0163259
677.977	0.0162837
678.056	0.0161319
678.134	0.0163361
678.212	0.0163506
678.290	0.0162646
678.368	0.0163701
678.446	0.0163211
678.524	0.0164178
678.602	0.0162890
678.681	0.0162899
678.759	0.0162476
678.837	0.0161744
678.915	0.0162857
678.993	0.0163730
679.071	0.0161336
679.149	0.0162658
679.227	0.0162395
679.306	0.0160710
679.384	0.0161831
679.462	0.0162592
679.540	0.0163235
679.618	0.0163384
679.696	0.0162149
679.774	0.0163191
679.852	0.0163132
679.931	0.0163293
680.009	0.0162674
680.087	0.0162061
680.165	0.0162302
680.243	0.0162777
680.321	0.0162915
680.399	0.0162303
680.477	0.0162183
680.556	0.0162116
680.634	0.0160719
680.712	0.0161781
680.790	0.0162231
680.868	0.0161190
680.946	0.0162095
681.024	0.0161025
681.102	0.0160257
681.181	0.0160458
681.259	0.0160786
681.337	0.0160371
681.415	0.0160281
681.493	0.0159612
681.571	0.0159003
681.649	0.0159989
681.727	0.0159122
681.806	0.0159019
681.884	0.0160204
681.962	0.0158501
682.040	0.0158871
682.118	0.0158682
682.196	0.0158127
682.274	0.0160186
682.352	0.0158604
682.431	0.0160594
682.509	0.0160526
682.587	0.0160758
682.665	0.0159196
682.743	0.0160659
682.821	0.0160100
682.899	0.0160242
682.977	0.0161067
683.056	0.0160453
683.134	0.0160365
683.212	0.0160486
683.290	0.0160358
683.368	0.0161573
683.446	0.0160398
683.524	0.0160603
683.602	0.0160843
683.681	0.0161581
683.759	0.0161591
683.837	0.0162677
683.915	0.0162495
683.993	0.0163094
684.071	0.0163236
684.149	0.0163635
684.227	0.0162947
684.306	0.0163869
684.384	0.0164372
684.462	0.0163667
684.540	0.0163246
684.618	0.0162630
684.696	0.0164083
684.774	0.0163387
684.852	0.0163861
684.931	0.0163891
685.009	0.0162772
685.087	0.0161147
685.165	0.0162533
685.243	0.0163024
685.321	0.0162386
685.399	0.0162365
685.477	0.0161942
685.556	0.0162119
685.634	0.0161678
685.712	0.0160413
685.790	0.0161546
685.868	0.0160947
685.946	0.0159010
686.024	0.0160110
686.102	0.0159934
686.181	0.0159905
686.259	0.0160757
686.337	0.0160410
686.415	0.0160809
686.493	0.0161086
686.571	0.0161306
686.649	0.0160606
686.727	0.0161961
686.806	0.0161904
686.884	0.0160895
686.962	0.0162303
687.040	0.0162881
687.118	0.0163716
687.196	0.0162160
687.274	0.0162371
687.352	0.0162119
687.431	0.0161999
687.509	0.0161839
687.587	0.0160920
687.665	0.0161927
687.743	0.0161729
687.821	0.0160809
687.899	0.0161459
687.977	0.0160705
688.056	0.0159882
688.134	0.0160452
688.212	0.0160042
688.290	0.0159824
688.368	0.0159257
688.446	0.0160197
688.524	0.0160537
688.602	0.0159203
688.681	0.0160305
688.759	0.0159915
688.837	0.0160032
688.915	0.0159821
688.993	0.0162315
689.071	0.0161464
689.149	0.0160629
689.227	0.0161356
689.306	0.0162354
689.384	0.0161677
689.462	0.0161604
689.540	0.0162193
689.618	0.0162093
689.696	0.0161421
689.774	0.0164105
689.852	0.0163978
689.931	0.0160831
690.009	0.0161726
690.087	0.0162984
690.165	0.0162525
690.243	0.0162108
690.321	0.0163266
690.399	0.0163794
690.477	0.0163663
690.556	0.0163332
690.634	0.0164902
690.712	0.0163335
690.790	0.0164333
690.868	0.0164659
690.946	0.0163881
691.024	0.0164061
691.102	0.0164530
691.181	0.0162610
691.259	0.0163113
691.337	0.0162669
691.415	0.0161491
691.493	0.0163003
691.571	0.0162444
691.649	0.0160909
691.727	0.0162026
691.806	0.0162758
691.884	0.0160812
691.962	0.0159230
692.040	0.0159815
692.118	0.0160631
692.196	0.0159982
692.274	0.0158884
692.352	0.0159595
692.431	0.0158217
692.509	0.0158123
692.587	0.0158555
692.665	0.0158318
692.743	0.0158443
692.821	0.0158083
692.899	0.0158548
692.977	0.0158293
693.056	0.0157705
693.134	0.0157755
693.212	0.0158112
693.290	0.0159776
693.368	0.0159299
693.446	0.0160696
693.524	0.0161145
693.602	0.0159187
693.681	0.0160400
693.759	0.0159552
693.837	0.0160112
693.915	0.0160760
693.993	0.0160931
694.071	0.0160782
694.149	0.0161224
694.227	0.0161350
694.306	0.0163223
694.384	0.0160253
694.462	0.0160190
694.540	0.0161961
694.618	0.0161713
694.696	0.0162143
694.774	0.0161930
694.852	0.0162018
694.931	0.0161880
695.009	0.0161685
695.087	0.0160955
695.165	0.0161095
695.243	0.0160887
695.321	0.0162132
695.399	0.0160168
695.477	0.0160747
695.556	0.0160676
695.634	0.0160683
695.712	0.0161034
695.790	0.0161649
695.868	0.0161117
695.946	0.0160664
696.024	0.0162016
696.102	0.0162702
696.181	0.0161539
696.259	0.0161729
696.337	0.0162465
696.415	0.0162495
696.493	0.0162542
696.571	0.0162009
696.649	0.0162491
696.727	0.0162744
696.806	0.0162849
696.884	0.0162782
696.962	0.0164681
697.040	0.0164999
697.118	0.0162794
697.196	0.0164521
697.274	0.0164027
697.352	0.0163730
697.431	0.0163734
697.509	0.0163798
697.587	0.0164787
697.665	0.0164600
697.743	0.0163911
697.821	0.0164553
697.899	0.0164262
697.977	0.0165540
698.056	0.0164352
698.134	0.0164230
698.212	0.0164358
698.290	0.0164286
698.368	0.0163466
698.446	0.0164270
698.524	0.0162557
698.602	0.0163243
698.681	0.0164981
698.759	0.0164205
698.837	0.0163628
698.915	0.0162939
698.993	0.0163676
699.071	0.0163070
699.149	0.0164046
699.227	0.0163199
699.306	0.0162429
699.384	0.0161695
699.462	0.0162138
699.540	0.0162182
699.618	0.0160602
699.696	0.0161691
699.774	0.0159264
699.852	0.0160730
699.931	0.0160590
700.009	0.0159668
700.087	0.0160154
700.165	0.0160252
700.243	0.0160268
700.321	0.0160344
700.399	0.0160773
700.477	0.0160611
700.556	0.0160285
700.634	0.0160443
700.712	0.0160702
700.790	0.0159773
700.868	0.0161434
700.946	0.0161636
701.024	0.0160845
701.102	0.0160288
701.181	0.0160680
701.259	0.0161516
701.337	0.0161158
701.415	0.0161111
701.493	0.0161771
701.571	0.0160100
701.649	0.0161082
701.727	0.0160931
701.806	0.0160780
701.884	0.0160590
701.962	0.0160041
702.040	0.0162737
702.118	0.0160549
702.196	0.0161015
702.274	0.0159320
702.352	0.0160532
702.431	0.0160297
702.509	0.0159897
702.587	0.0160018
702.665	0.0159918
702.743	0.0161178
702.821	0.0160847
702.899	0.0159918
702.977	0.0159451
703.056	0.0158940
703.134	0.0161187
703.212	0.0161009
703.290	0.0159808
703.368	0.0161832
703.446	0.0161491
703.524	0.0161845
703.602	0.0161591
703.681	0.0160497
703.759	0.0161109
703.837	0.0161562
703.915	0.0160917
703.993	0.0161516
704.071	0.0161777
704.149	0.0161920
704.227	0.0161760
704.306	0.0161292
704.384	0.0162646
704.462	0.0160986
704.540	0.0163100
704.618	0.0161579
704.696	0.0163007
704.774	0.0161669
704.852	0.0161514
704.931	0.0161457
705.009	0.0163248
705.087	0.0162454
705.165	0.0162974
705.243	0.0160801
705.321	0.0162020
705.399	0.0161174
705.477	0.0162062
705.556	0.0161268
705.634	0.0161547
705.712	0.0161794
705.790	0.0160300
705.868	0.0162143
705.946	0.0162077
706.024	0.0160530
706.102	0.0162070
706.181	0.0162186
706.259	0.0161799
706.337	0.0161354
706.415	0.0161111
706.493	0.0160777
706.571	0.0160921
706.649	0.0160224
706.727	0.0160340
706.806	0.0161401
706.884	0.0158279
706.962	0.0159710
707.040	0.0160151
707.118	0.0160349
707.196	0.0159888
707.274	0.0159269
707.352	0.0161166
707.431	0.0159559
707.509	0.0158999
707.587	0.0159277
707.665	0.0159960
707.743	0.0158514
707.821	0.0158955
707.899	0.0160194
707.977	0.0159251
708.056	0.0159777
708.134	0.0158875
708.212	0.0159766
708.290	0.0158858
708.368	0.0156908
708.446	0.0158463
708.524	0.0158398
708.602	0.0157940
708.681	0.0158669
708.759	0.0157501
708.837	0.0158863
708.915	0.0158537
708.993	0.0157597
709.071	0.0159212
709.149	0.0157108
709.227	0.0156989
709.306	0.0158204
709.384	0.0157983
709.462	0.0158430
709.540	0.0158010
709.618	0.0158659
709.696	0.0159492
709.774	0.0160261
709.852	0.0159952
709.931	0.0159765
710.009	0.0160661
710.087	0.0161465
710.165	0.0159718
710.243	0.0160873
710.321	0.0160236
710.399	0.0160578
710.477	0.0160001
710.556	0.0159536
710.634	0.0160466
710.712	0.0161221
710.790	0.0160143
710.868	0.0159522
710.946	0.0158668
711.024	0.0159729
711.102	0.0160827
711.181	0.0160197
711.259	0.0159785
711.337	0.0159301
711.415	0.0159291
711.493	0.0159110
711.571	0.0160650
711.649	0.0162235
711.727	0.0160433
711.806	0.0159991
711.884	0.0159992
711.962	0.0160160
712.040	0.0161499
712.118	0.0159618
712.196	0.0160145
712.274	0.0161073
712.352	0.0160326
712.431	0.0160244
712.509	0.0160112
712.587	0.0161057
712.665	0.0159637
712.743	0.0159006
712.821	0.0159151
712.899	0.0160595
712.977	0.0160625
713.056	0.0158461
713.134	0.0159048
713.212	0.0160001
713.290	0.0159669
713.368	0.0159605
713.446	0.0160445
713.524	0.0160361
713.602	0.0161195
713.681	0.0161106
713.759	0.0159832
713.837	0.0160999
713.915	0.0160931
713.993	0.0159630
714.071	0.0161247
714.149	0.0162361
714.227	0.0161674
714.306	0.0161139
714.384	0.0160147
714.462	0.0162083
714.540	0.0160945
714.618	0.0159863
714.696	0.0160935
714.774	0.0161079
714.852	0.0162138
714.931	0.0161711
715.009	0.0161420
715.087	0.0160870
715.165	0.0161189
715.243	0.0161137
715.321	0.0160508
715.399	0.0161345
715.477	0.0161683
715.556	0.0161824
715.634	0.0162067
715.712	0.0161791
715.790	0.0162750
715.868	0.0160644
715.946	0.0160846
716.024	0.0160368
716.102	0.0161980
716.181	0.0161420
716.259	0.0161200
716.337	0.0160849
716.415	0.0161813
716.493	0.0160088
716.571	0.0160646
716.649	0.0160415
716.727	0.0158667
716.806	0.0160069
716.884	0.0159596
716.962	0.0159203
717.040	0.0159760
717.118	0.0159322
717.196	0.0160117
717.274	0.0159155
717.352	0.0160023
717.431	0.0159855
717.509	0.0160260
717.587	0.0159460
717.665	0.0158379
717.743	0.0160189
717.821	0.0160976
717.899	0.0159989
717.977	0.0161745
718.056	0.0160656
718.134	0.0160075
718.212	0.0160625
718.290	0.0161435
718.368	0.0160506
718.446	0.0158961
718.524	0.0160748
718.602	0.0159037
718.681	0.0158671
718.759	0.0160428
718.837	0.0158757
718.915	0.0158849
718.993	0.0159221
719.071	0.0157903
719.149	0.0158861
719.227	0.0159406
719.306	0.0159240
719.384	0.0157993
719.462	0.0157851
719.540	0.0159253
719.618	0.0158235
719.696	0.0157571
719.774	0.0158366
719.852	0.0158905
719.931	0.0158826
720.009	0.0156512
720.087	0.0157084
720.165	0.0158080
720.243	0.0158082
720.321	0.0156966
720.399	0.0158012
720.477	0.0157954
720.556	0.0157677
720.634	0.0157209
720.712	0.0158656
720.790	0.0159848
720.868	0.0158524
720.946	0.0158834
721.024	0.0159571
721.102	0.0158533
721.181	0.0159529
721.259	0.0159107
721.337	0.0159421
721.415	0.0160980
721.493	0.0160291
721.571	0.0160851
721.649	0.0161130
721.727	0.0160733
721.806	0.0161494
721.884	0.0161964
721.962	0.0161062
722.040	0.0160659
722.118	0.0161234
722.196	0.0159366
722.274	0.0160493
722.352	0.0161401
722.431	0.0160529
722.509	0.0160268
722.587	0.0159089
722.665	0.0159858
722.743	0.0160617
722.821	0.0159533
722.899	0.0160140
722.977	0.0160087
723.056	0.0159320
723.134	0.0160437
723.212	0.0159985
723.290	0.0158958
723.368	0.0160686
723.446	0.0160323
723.524	0.0159730
723.602	0.0161057
723.681	0.0161139
723.759	0.0161156
723.837	0.0160291
723.915	0.0161215
723.993	0.0160962
724.071	0.0161851
724.149	0.0162846
724.227	0.0162344
724.306	0.0160969
724.384	0.0160055
724.462	0.0161322
724.540	0.0162441
724.618	0.0160485
724.696	0.0161652
724.774	0.0161646
724.852	0.0161496
724.931	0.0161250
725.009	0.0159815
725.087	0.0161633
725.165	0.0161344
725.243	0.0162363
725.321	0.0159863
725.399	0.0161204
725.477	0.0160509
725.556	0.0161116
725.634	0.0160178
725.712	0.0160257
725.790	0.0160143
725.868	0.0160049
725.946	0.0160652
726.024	0.0159277
726.102	0.0160625
726.181	0.0159533
726.259	0.0159426
726.337	0.0160310
726.415	0.0159804
726.493	0.0159895
726.571	0.0161056
726.649	0.0160718
726.727	0.0160970
726.806	0.0162395
726.884	0.0161595
726.962	0.0161269
727.040	0.0161343
727.118	0.0160750
727.196	0.0162548
727.274	0.0162334
727.352	0.0162330
727.431	0.0161070
727.509	0.0161567
727.587	0.0160271
727.665	0.0160873
727.743	0.0160138
727.821	0.0159226
727.899	0.0160596
727.977	0.0157802
728.056	0.0158395
728.134	0.0159089
728.212	0.0158978
728.290	0.0158131
728.368	0.0160385
728.446	0.0158635
728.524	0.0159742
728.602	0.0158919
728.681	0.0157861
728.759	0.0159254
728.837	0.0160048
728.915	0.0160371
728.993	0.0159526
729.071	0.0159453
729.149	0.0159843
729.227	0.0159265
729.306	0.0159901
729.384	0.0160812
729.462	0.0159618
729.540	0.0158758
729.618	0.0159338
729.696	0.0158945
729.774	0.0158234
729.852	0.0159044
729.931	0.0157713
730.009	0.0158884
730.087	0.0160002
730.165	0.0158195
730.243	0.0157604
730.321	0.0159012
730.399	0.0158685
730.477	0.0158635
730.556	0.0159159
730.634	0.0159480
730.712	0.0160304
730.790	0.0159046
730.868	0.0161017
730.946	0.0160744
731.024	0.0160082
731.102	0.0159816
731.181	0.0160697
731.259	0.0161571
731.337	0.0160196
731.415	0.0161135
731.493	0.0161161
731.571	0.0161790
731.649	0.0161845
731.727	0.0161250
731.806	0.0159376
731.884	0.0160219
731.962	0.0158926
732.040	0.0160631
732.118	0.0159947
732.196	0.0162326
732.274	0.0160564
732.352	0.0160860
732.431	0.0161766
732.509	0.0161533
732.587	0.0161032
732.665	0.0161214
732.743	0.0160521
732.821	0.0161736
732.899	0.0161875
732.977	0.0161398
733.056	0.0161059
733.134	0.0161606
733.212	0.0162125
733.290	0.0162367
733.368	0.0163010
733.446	0.0162030
733.524	0.0162439
733.602	0.0162121
733.681	0.0160992
733.759	0.0161742
733.837	0.0162241
733.915	0.0160357
733.993	0.0161633
734.071	0.0161656
734.149	0.0160364
734.227	0.0160285
734.306	0.0160586
734.384	0.0160764
734.462	0.0160471
734.540	0.0160696
734.618	0.0161226
734.696	0.0160914
734.774	0.0160826
734.852	0.0160213
734.931	0.0161546
735.009	0.0161761
735.087	0.0160618
735.165	0.0161453
735.243	0.0160045
735.321	0.0161391
735.399	0.0160349
735.477	0.0162353
735.556	0.0160613
735.634	0.0160316
735.712	0.0159133
735.790	0.0160384
735.868	0.0160915
735.946	0.0160419
736.024	0.0160046
736.102	0.0160082
736.181	0.0159813
736.259	0.0159274
736.337	0.0160654
736.415	0.0159792
736.493	0.0160109
736.571	0.0160526
736.649	0.0159470
736.727	0.0160284
736.806	0.0160325
736.884	0.0158738
736.962	0.0160275
737.040	0.0160173
737.118	0.0162845
737.196	0.0161678
737.274	0.0161143
737.352	0.0162685
737.431	0.0161948
737.509	0.0162186
737.587	0.0160637
737.665	0.0159711
737.743	0.0162424
737.821	0.0161317
737.899	0.0161353
737.977	0.0162928
738.056	0.0161739
738.134	0.0161463
738.212	0.0161693
738.290	0.0162367
738.368	0.0160722
738.446	0.0161880
738.524	0.0160760
738.602	0.0161217
738.681	0.0160667
738.759	0.0161847
738.837	0.0161762
738.915	0.0161646
738.993	0.0161070
739.071	0.0161258
739.149	0.0161417
739.227	0.0162182
739.306	0.0160174
739.384	0.0161407
739.462	0.0160987
739.540	0.0162412
739.618	0.0161945
739.696	0.0161633
739.774	0.0162850
739.852	0.0161516
739.931	0.0161559
740.009	0.0161129
740.087	0.0162239
740.165	0.0162605
740.243	0.0162598
740.321	0.0162194
740.399	0.0162012
740.477	0.0162048
740.556	0.0161540
740.634	0.0161242
740.712	0.0162429
740.790	0.0161533
740.868	0.0161874
740.946	0.0161498
741.024	0.0162235
741.102	0.0162215
741.181	0.0161327
741.259	0.0161131
741.337	0.0160228
741.415	0.0161298
741.493	0.0160468
741.571	0.0159823
741.649	0.0159888
741.727	0.0160016
741.806	0.0162594
741.884	0.0159688
741.962	0.0159302
742.040	0.0159633
742.118	0.0159841
742.196	0.0160538
742.274	0.0160148
742.352	0.0159104
742.431	0.0158481
742.509	0.0158986
742.587	0.0157799
742.665	0.0159715
742.743	0.0158913
742.821	0.0159184
742.899	0.0158392
742.977	0.0158844
743.056	0.0159777
743.134	0.0158614
743.212	0.0159503
743.290	0.0158781
743.368	0.0158929
743.446	0.0159328
743.524	0.0158237
743.602	0.0158556
743.681	0.0159810
743.759	0.0158710
743.837	0.0159595
743.915	0.0159499
743.993	0.0157733
744.071	0.0159656
744.149	0.0159393
744.227	0.0158882
744.306	0.0159278
744.384	0.0157784
744.462	0.0160694
744.540	0.0158892
744.618	0.0160261
744.696	0.0159555
744.774	0.0160749
744.852	0.0159883
744.931	0.0159701
745.009	0.0159341
745.087	0.0159896
745.165	0.0160004
745.243	0.0159985
745.321	0.0159888
745.399	0.0159811
745.477	0.0160024
745.556	0.0159415
745.634	0.0159933
745.712	0.0159304
745.790	0.0160284
745.868	0.0160813
745.946	0.0160034
746.024	0.0160670
746.102	0.0160531
746.181	0.0159566
746.259	0.0158470
746.337	0.0159761
746.415	0.0159139
746.493	0.0159432
746.571	0.0158867
746.649	0.0158783
746.727	0.0159836
746.806	0.0159998
746.884	0.0159762
746.962	0.0160518
747.040	0.0159342
747.118	0.0160615
747.196	0.0158887
747.274	0.0159494
747.352	0.0160463
747.431	0.0160007
747.509	0.0159531
747.587	0.0159126
747.665	0.0158829
747.743	0.0158620
747.821	0.0159976
747.899	0.0158761
747.977	0.0157247
748.056	0.0159989
748.134	0.0159509
748.212	0.0159821
748.290	0.0160618
748.368	0.0159816
748.446	0.0159441
748.524	0.0160705
748.602	0.0160175
748.681	0.0160274
748.759	0.0160030
748.837	0.0161402
748.915	0.0161678
748.993	0.0160634
749.071	0.0162599
749.149	0.0161572
749.227	0.0162502
749.306	0.0161803
749.384	0.0161680
749.462	0.0163003
749.540	0.0162489
749.618	0.0162702
749.696	0.0160962
749.774	0.0160629
749.852	0.0161503
749.931	0.0161395
750.009	0.0160794
750.087	0.0161989
750.165	0.0161789
750.243	0.0161353
750.321	0.0160983
750.399	0.0162323
750.477	0.0162215
750.556	0.0162002
750.634	0.0162564
750.712	0.0163176
750.790	0.0162286
750.868	0.0162151
750.946	0.0162807
751.024	0.0161900
751.102	0.0161665
751.181	0.0163050
751.259	0.0161934
751.337	0.0160868
751.415	0.0161987
751.493	0.0162492
751.571	0.0163353
751.649	0.0162303
751.727	0.0162327
751.806	0.0163807
751.884	0.0162898
751.962	0.0161320
752.040	0.0162758
752.118	0.0162621
752.196	0.0162257
752.274	0.0162104
752.352	0.0162136
752.431	0.0163583
752.509	0.0161458
752.587	0.0161509
752.665	0.0163329
752.743	0.0162200
752.821	0.0161163
752.899	0.0162283
752.977	0.0162188
753.056	0.0162237
753.134	0.0162899
753.212	0.0161455
753.290	0.0160647
753.368	0.0161711
753.446	0.0162048
753.524	0.0161025
753.602	0.0160716
753.681	0.0161349
753.759	0.0161317
753.837	0.0161736
753.915	0.0160501
753.993	0.0161369
754.071	0.0161862
754.149	0.0159503
754.227	0.0161067
754.306	0.0161506
754.384	0.0160831
754.462	0.0161933
754.540	0.0162079
754.618	0.0162457
754.696	0.0161165
754.774	0.0164108
754.852	0.0163622
754.931	0.0162746
755.009	0.0162547
755.087	0.0163634
755.165	0.0162704
755.243	0.0163837
755.321	0.0162377
755.399	0.0161610
755.477	0.0162788
755.556	0.0162238
755.634	0.0161914
755.712	0.0161302
755.790	0.0161518
755.868	0.0161841
755.946	0.0161855
756.024	0.0161614
756.102	0.0161241
756.181	0.0159703
756.259	0.0159762
756.337	0.0160184
756.415	0.0161168
756.493	0.0160558
756.571	0.0160329
756.649	0.0161993
756.727	0.0161498
756.806	0.0161580
756.884	0.0161410
756.962	0.0162143
757.040	0.0162457
757.118	0.0163739
757.196	0.0163567
757.274	0.0161420
757.352	0.0163550
757.431	0.0162794
757.509	0.0163955
757.587	0.0162402
757.665	0.0161562
757.743	0.0162252
757.821	0.0163702
757.899	0.0162514
757.977	0.0162202
758.056	0.0163514
758.134	0.0160835
758.212	0.0160973
758.290	0.0162083
758.368	0.0162058
758.446	0.0161600
758.524	0.0161134
758.602	0.0162133
758.681	0.0162650
758.759	0.0161171
758.837	0.0161008
758.915	0.0160989
758.993	0.0160963
759.071	0.0162288
759.149	0.0159642
759.227	0.0160767
759.306	0.0161084
759.384	0.0161035
759.462	0.0160416
759.540	0.0159274
759.618	0.0160088
759.696	0.0159376
759.774	0.0161432
759.852	0.0159901
759.931	0.0159436
760.009	0.0159327
760.087	0.0159650
760.165	0.0160306
760.243	0.0159825
760.321	0.0160696
760.399	0.0160385
760.477	0.0162531
760.556	0.0161201
760.634	0.0162240
760.712	0.0160283
760.790	0.0160774
760.868	0.0161848
760.946	0.0162423
761.024	0.0161699
761.102	0.0162766
761.181	0.0162015
761.259	0.0162578
761.337	0.0162766
761.415	0.0161826
761.493	0.0163947
761.571	0.0163721
761.649	0.0162791
761.727	0.0163720
761.806	0.0162225
761.884	0.0163466
761.962	0.0163150
762.040	0.0162763
762.118	0.0163403
762.196	0.0162585
762.274	0.0162688
762.352	0.0163367
762.431	0.0163506
762.509	0.0163217
762.587	0.0164352
762.665	0.0163938
762.743	0.0162531
762.821	0.0163750
762.899	0.0165338
762.977	0.0164185
763.056	0.0163708
763.134	0.0161921
763.212	0.0162820
763.290	0.0162846
763.368	0.0161469
763.446	0.0161209
763.524	0.0160672
763.602	0.0160507
763.681	0.0161224
763.759	0.0159657
763.837	0.0158663
763.915	0.0157801
763.993	0.0158572
764.071	0.0158613
764.149	0.0157150
764.227	0.0157953
764.306	0.0158437
764.384	0.0157470
764.462	0.0159038
764.540	0.0156424
764.618	0.0157211
764.696	0.0159349
764.774	0.0157228
764.852	0.0157475
764.931	0.0158674
765.009	0.0158684
765.087	0.0159576
765.165	0.0159071
765.243	0.0158943
765.321	0.0158645
765.399	0.0159149
765.477	0.0159791
765.556	0.0161169
765.634	0.0160346
765.712	0.0160716
765.790	0.0162318
765.868	0.0161518
765.946	0.0159715
766.024	0.0160278
766.102	0.0161744
766.181	0.0161418
766.259	0.0160682
766.337	0.0161121
766.415	0.0160670
766.493	0.0159896
766.571	0.0159238
766.649	0.0160168
766.727	0.0161384
766.806	0.0160389
766.884	0.0162141
766.962	0.0159846
767.040	0.0160390
767.118	0.0161080
767.196	0.0161375
767.274	0.0162603
767.352	0.0161707
767.431	0.0161115
767.509	0.0160770
767.587	0.0160028
767.665	0.0162054
767.743	0.0160864
767.821	0.0161553
767.899	0.0161257
767.977	0.0161330
768.056	0.0161702
768.134	0.0161960
768.212	0.0160395
768.290	0.0161719
768.368	0.0162145
768.446	0.0161813
768.524	0.0162267
768.602	0.0163860
768.681	0.0162464
768.759	0.0163498
768.837	0.0163167
768.915	0.0162917
768.993	0.0162054
769.071	0.0161435
769.149	0.0160891
769.227	0.0160154
769.306	0.0161720
769.384	0.0160217
769.462	0.0160574
769.540	0.0159045
769.618	0.0158427
769.696	0.0159695
769.774	0.0159511
769.852	0.0158285
769.931	0.0157182
770.009	0.0157690
770.087	0.0159292
770.165	0.0159356
770.243	0.0159657
770.321	0.0159718
770.399	0.0160436
770.477	0.0160063
770.556	0.0159692
770.634	0.0160498
770.712	0.0160368
770.790	0.0161029
770.868	0.0161953
770.946	0.0161529
771.024	0.0160038
771.102	0.0162164
771.181	0.0161237
771.259	0.0162271
771.337	0.0160797
771.415	0.0161899
771.493	0.0162965
771.571	0.0161468
771.649	0.0162371
771.727	0.0161517
771.806	0.0161905
771.884	0.0161269
771.962	0.0160818
772.040	0.0161400
772.118	0.0161246
772.196	0.0160847
772.274	0.0161459
772.352	0.0161545
772.431	0.0160354
772.509	0.0160668
772.587	0.0162173
772.665	0.0162096
772.743	0.0160397
772.821	0.0159171
772.899	0.0159394
772.977	0.0159223
773.056	0.0158990
773.134	0.0160394
773.212	0.0161040
773.290	0.0161068
773.368	0.0162071
773.446	0.0162479
773.524	0.0161719
773.602	0.0162130
773.681	0.0163446
773.759	0.0165856
773.837	0.0164221
773.915	0.0164019
773.993	0.0165480
774.071	0.0165126
774.149	0.0167125
774.227	0.0164547
774.306	0.0164817
774.384	0.0164145
774.462	0.0164371
774.540	0.0162029
774.618	0.0160360
774.696	0.0160164
774.774	0.0159837
774.852	0.0157797
774.931	0.0155775
775.009	0.0157323
775.087	0.0157342
775.165	0.0156548
775.243	0.0158512
775.321	0.0158149
775.399	0.0157666
775.477	0.0158841
775.556	0.0159369
775.634	0.0159226
775.712	0.0160146
775.790	0.0159801
775.868	0.0159248
775.946	0.0159847
776.024	0.0160713
776.102	0.0159935
776.181	0.0161402
776.259	0.0163351
776.337	0.0162312
776.415	0.0160232
776.493	0.0161649
776.571	0.0161926
776.649	0.0161340
776.727	0.0160014
776.806	0.0160695
776.884	0.0161112
776.962	0.0162267
777.040	0.0160756
777.118	0.0161297
777.196	0.0161201
777.274	0.0162313
777.352	0.0160877
777.431	0.0161386
777.509	0.0161653
777.587	0.0161209
777.665	0.0161678
777.743	0.0160931
777.821	0.0159682
777.899	0.0161492
777.977	0.0160779
778.056	0.0159320
778.134	0.0161207
778.212	0.0161339
778.290	0.0161297
778.368	0.0161382
778.446	0.0160336
778.524	0.0161164
778.602	0.0161961
778.681	0.0161362
778.759	0.0162317
778.837	0.0161077
778.915	0.0160081
778.993	0.0161768
779.071	0.0160691
779.149	0.0161617
779.227	0.0159392
779.306	0.0161260
779.384	0.0161687
779.462	0.0161511
779.540	0.0161737
779.618	0.0161722
779.696	0.0159877
779.774	0.0160385
779.852	0.0160061
779.931	0.0160522
780.009	0.0160880
780.087	0.0162023
780.165	0.0160886
780.243	0.0160420
780.321	0.0159788
780.399	0.0160337
780.477	0.0159415
780.556	0.0160207
780.634	0.0158824
780.712	0.0159039
780.790	0.0158955
780.868	0.0158874
780.946	0.0157478
781.024	0.0159527
781.102	0.0159067
781.181	0.0159862
781.259	0.0158833
781.337	0.0160259
781.415	0.0159173
781.493	0.0159515
781.571	0.0158627
781.649	0.0159402
781.727	0.0160551
781.806	0.0159621
781.884	0.0160078
781.962	0.0159219
782.040	0.0160184
782.118	0.0159730
782.196	0.0159024
782.274	0.0160579
782.352	0.0160664
782.431	0.0160609
782.509	0.0161220
782.587	0.0160272
782.665	0.0160847
782.743	0.0160522
782.821	0.0160412
782.899	0.0161671
782.977	0.0159521
783.056	0.0159673
783.134	0.0159921
783.212	0.0159696
783.290	0.0160751
783.368	0.0160067
783.446	0.0160011
783.524	0.0160421
783.602	0.0160674
783.681	0.0160706
783.759	0.0159890
783.837	0.0160245
783.915	0.0160092
783.993	0.0159541
784.071	0.0159416
784.149	0.0159127
784.227	0.0158785
784.306	0.0160598
784.384	0.0160303
784.462	0.0158874
784.540	0.0159438
784.618	0.0160757
784.696	0.0159962
784.774	0.0158901
784.852	0.0160509
784.931	0.0159833
785.009	0.0159405
785.087	0.0159077
785.165	0.0160015
785.243	0.0160473
785.321	0.0160668
785.399	0.0158703
785.477	0.0159365
785.556	0.0159746
785.634	0.0161380
785.712	0.0159675
785.790	0.0161211
785.868	0.0161951
785.946	0.0160851
786.024	0.0161002
786.102	0.0160948
786.181	0.0161294
786.259	0.0161181
786.337	0.0160582
786.415	0.0160347
786.493	0.0160085
786.571	0.0161407
786.649	0.0161214
786.727	0.0160169
786.806	0.0161169
786.884	0.0159396
786.962	0.0159529
787.040	0.0160123
787.118	0.0162203
787.196	0.0160726
787.274	0.0160693
787.352	0.0159985
787.431	0.0159512
787.509	0.0159429
787.587	0.0159285
787.665	0.0160145
787.743	0.0158668
787.821	0.0160445
787.899	0.0159724
787.977	0.0159621
788.056	0.0161089
788.134	0.0160741
788.212	0.0159830
788.290	0.0159801
788.368	0.0160226
788.446	0.0159951
788.524	0.0159822
788.602	0.0161234
788.681	0.0160455
788.759	0.0160622
788.837	0.0159918
788.915	0.0159814
788.993	0.0159105
789.071	0.0160581
789.149	0.0162299
789.227	0.0162368
789.306	0.0159522
789.384	0.0161338
789.462	0.0162611
789.540	0.0160332
789.618	0.0160348
789.696	0.0162167
789.774	0.0161520
789.852	0.0160250
789.931	0.0160378
790.009	0.0160812
790.087	0.0159554
790.165	0.0159280
790.243	0.0159919
790.321	0.0159570
790.399	0.0159206
790.477	0.0160289
790.556	0.0159812
790.634	0.0159611
790.712	0.0159780
790.790	0.0158941
790.868	0.0158676
790.946	0.0160729
791.024	0.0160369
791.102	0.0160913
791.181	0.0159976
791.259	0.0160558
791.337	0.0162041
791.415	0.0161505
791.493	0.0160988
791.571	0.0160727
791.649	0.0160129
791.727	0.0160589
791.806	0.0162458
791.884	0.0160983
791.962	0.0161810
792.040	0.0160573
792.118	0.0162533
792.196	0.0162956
792.274	0.0160999
792.352	0.0161214
792.431	0.0161779
792.509	0.0162233
792.587	0.0162125
792.665	0.0161594
792.743	0.0160680
792.821	0.0160162
792.899	0.0162520
792.977	0.0159186
793.056	0.0159686
793.134	0.0160316
793.212	0.0159094
793.290	0.0158798
793.368	0.0159351
793.446	0.0158327
793.524	0.0157713
793.602	0.0158625
793.681	0.0158366
793.759	0.0158356
793.837	0.0158781
793.915	0.0160812
793.993	0.0160594
794.071	0.0160410
794.149	0.0160000
794.227	0.0159908
794.306	0.0161042
794.384	0.0160985
794.462	0.0161329
794.540	0.0160393
794.618	0.0160154
794.696	0.0161329
794.774	0.0160226
794.852	0.0161237
794.931	0.0162202
795.009	0.0161434
795.087	0.0161326
795.165	0.0160979
795.243	0.0160930
795.321	0.0161443
795.399	0.0161681
795.477	0.0162278
795.556	0.0161492
795.634	0.0162089
795.712	0.0161572
795.790	0.0161815
795.868	0.0161192
795.946	0.0162061
796.024	0.0161163
796.102	0.0163155
796.181	0.0162453
796.259	0.0162014
796.337	0.0162222
796.415	0.0162163
796.493	0.0163313
796.571	0.0162516
796.649	0.0161797
796.727	0.0163296
796.806	0.0161636
796.884	0.0161977
796.962	0.0161767
797.040	0.0161685
797.118	0.0161238
797.196	0.0161831
797.274	0.0161477
797.352	0.0161409
797.431	0.0160669
797.509	0.0161753
797.587	0.0162321
797.665	0.0160511
797.743	0.0162080
797.821	0.0160702
797.899	0.0160823
797.977	0.0160126
798.056	0.0160300
798.134	0.0160604
798.212	0.0160297
798.290	0.0161677
798.368	0.0161699
798.446	0.0160722
798.524	0.0161142
798.602	0.0159723
798.681	0.0159740
798.759	0.0159947
798.837	0.0159662
798.915	0.0159182
798.993	0.0159505
799.071	0.0158463
799.149	0.0158974
799.227	0.0158549
799.306	0.0156520
799.384	0.0158907
799.462	0.0158613
799.540	0.0159149
799.618	0.0158704
799.696	0.0158236
799.774	0.0159433
799.852	0.0158785
799.931	0.0157780
800.009	0.0159279
800.087	0.0158511
800.165	0.0158430
800.243	0.0157974
800.321	0.0157607
800.399	0.0159056
800.477	0.0157998
800.556	0.0157855
800.634	0.0158154
800.712	0.0157976
800.790	0.0156828
800.868	0.0157703
800.946	0.0157578
801.024	0.0156738
801.102	0.0157224
801.181	0.0156059
801.259	0.0156852
801.337	0.0158066
801.415	0.0158556
801.493	0.0157410
801.571	0.0158112
801.649	0.0158767
801.727	0.0156411
801.806	0.0156891
801.884	0.0158979
801.962	0.0158627
802.040	0.0158429
802.118	0.0158833
802.196	0.0158202
802.274	0.0158904
802.352	0.0159277
802.431	0.0160171
802.509	0.0157889
802.587	0.0159314
802.665	0.0160116
802.743	0.0160348
802.821	0.0161078
802.899	0.0161924
802.977	0.0161625
803.056	0.0161861
803.134	0.0163168
803.212	0.0163604
803.290	0.0162501
803.368	0.0162963
803.446	0.0163418
803.524	0.0163120
803.602	0.0163273
803.681	0.0160907
803.759	0.0163474
803.837	0.0163739
803.915	0.0162611
803.993	0.0163447
804.071	0.0163573
804.149	0.0162900
804.227	0.0162988
804.306	0.0163393
804.384	0.0162480
804.462	0.0164439
804.540	0.0164149
804.618	0.0163312
804.696	0.0163060
804.774	0.0163955
804.852	0.0163319
804.931	0.0163712
805.009	0.0161748
805.087	0.0163979
805.165	0.0164314
805.243	0.0162431
805.321	0.0164207
805.399	0.0162486
805.477	0.0161922
805.556	0.0163367
805.634	0.0162684
805.712	0.0162938
805.790	0.0162388
805.868	0.0161681
805.946	0.0162195
806.024	0.0163403
806.102	0.0161216
806.181	0.0162438
806.259	0.0160901
806.337	0.0161658
806.415	0.0162424
806.493	0.0163105
806.571	0.0161898
806.649	0.0160083
806.727	0.0160785
806.806	0.0162142
806.884	0.0162431
806.962	0.0161180
807.040	0.0160882
807.118	0.0161030
807.196	0.0159778
807.274	0.0158733
807.352	0.0161026
807.431	0.0160336
807.509	0.0159630
807.587	0.0160953
807.665	0.0160902
807.743	0.0158804
807.821	0.0158707
807.899	0.0157998
807.977	0.0158084
808.056	0.0158501
808.134	0.0159051
808.212	0.0158756
808.290	0.0159200
808.368	0.0158648
808.446	0.0159129
808.524	0.0160071
808.602	0.0157507
808.681	0.0157098
808.759	0.0158416
808.837	0.0159481
808.915	0.0159205
808.993	0.0158859
809.071	0.0158739
809.149	0.0159090
809.227	0.0159138
809.306	0.0158770
809.384	0.0157125
809.462	0.0158993
809.540	0.0159897
809.618	0.0159551
809.696	0.0159631
809.774	0.0160249
809.852	0.0159621
809.931	0.0160051
810.009	0.0159765
810.087	0.0159882
810.165	0.0158942
810.243	0.0159026
810.321	0.0159064
810.399	0.0159643
810.477	0.0159522
810.556	0.0160758
810.634	0.0159100
810.712	0.0159534
810.790	0.0160375
810.868	0.0157329
810.946	0.0158529
811.024	0.0159672
811.102	0.0157957
811.181	0.0157691
811.259	0.0159141
811.337	0.0158438
811.415	0.0158868
811.493	0.0158730
811.571	0.0159219
811.649	0.0160249
811.727	0.0161186
811.806	0.0159708
811.884	0.0158972
811.962	0.0159272
812.040	0.0159735
812.118	0.0158752
812.196	0.0160004
812.274	0.0158463
812.352	0.0159821
812.431	0.0159895
812.509	0.0159764
812.587	0.0160214
812.665	0.0160173
812.743	0.0159265
812.821	0.0159045
812.899	0.0158595
812.977	0.0159479
813.056	0.0157079
813.134	0.0158650
813.212	0.0158331
813.290	0.0157994
813.368	0.0158969
813.446	0.0158297
813.524	0.0158537
813.602	0.0159631
813.681	0.0159087
813.759	0.0160416
813.837	0.0158795
813.915	0.0157893
813.993	0.0159859
814.071	0.0161710
814.149	0.0161694
814.227	0.0161436
814.306	0.0160918
814.384	0.0161181
814.462	0.0161710
814.540	0.0161194
814.618	0.0162157
814.696	0.0161624
814.774	0.0163512
814.852	0.0162425
814.931	0.0160463
815.009	0.0162566
815.087	0.0162541
815.165	0.0162091
815.243	0.0163237
815.321	0.0162360
815.399	0.0161766
815.477	0.0160776
815.556	0.0164017
815.634	0.0162279
815.712	0.0162032
815.790	0.0160907
815.868	0.0162753
815.946	0.0163427
816.024	0.0163775
816.102	0.0162819
816.181	0.0163818
816.259	0.0163980
816.337	0.0162815
816.415	0.0161849
816.493	0.0161514
816.571	0.0162344
816.649	0.0162509
816.727	0.0162791
816.806	0.0162307
816.884	0.0163027
816.962	0.0162899
817.040	0.0161586
817.118	0.0161869
817.196	0.0162322
817.274	0.0163228
817.352	0.0162868
817.431	0.0162582
817.509	0.0164092
817.587	0.0162319
817.665	0.0162552
817.743	0.0161538
817.821	0.0161536
817.899	0.0162594
817.977	0.0161662
818.056	0.0161263
818.134	0.0161121
818.212	0.0161089
818.290	0.0160715
818.368	0.0161564
818.446	0.0160677
818.524	0.0160941
818.602	0.0160530
818.681	0.0162255
818.759	0.0160976
818.837	0.0160424
818.915	0.0160975
818.993	0.0160724
819.071	0.0161497
819.149	0.0160411
819.227	0.0161858
819.306	0.0163258
819.384	0.0161496
819.462	0.0161774
819.540	0.0161942
819.618	0.0162118
819.696	0.0162099
819.774	0.0161394
819.852	0.0161888
819.931	0.0162051
820.009	0.0160672
820.087	0.0162346
820.165	0.0160487
820.243	0.0161812
820.321	0.0160690
820.399	0.0160716
820.477	0.0160777
820.556	0.0160610
820.634	0.0160510
820.712	0.0161270
820.790	0.0161440
820.868	0.0159665
820.946	0.0159107
821.024	0.0160261
821.102	0.0160600
821.181	0.0160561
821.259	0.0159623
821.337	0.0160384
821.415	0.0160445
821.493	0.0159576
821.571	0.0158725
821.649	0.0159087
821.727	0.0159268
821.806	0.0158492
821.884	0.0158702
821.962	0.0158574
822.040	0.0159906
822.118	0.0158794
822.196	0.0158942
822.274	0.0159344
822.352	0.0158615
822.431	0.0158636
822.509	0.0158913
822.587	0.0159860
822.665	0.0159141
822.743	0.0158711
822.821	0.0159684
822.899	0.0158578
822.977	0.0158192
823.056	0.0158897
823.134	0.0159628
823.212	0.0159388
823.290	0.0158148
823.368	0.0157611
823.446	0.0158775
823.524	0.0159772
823.602	0.0158379
823.681	0.0160551
823.759	0.0159539
823.837	0.0159618
823.915	0.0160957
823.993	0.0159966
824.071	0.0160339
824.149	0.0162914
824.227	0.0160488
824.306	0.0160937
824.384	0.0161494
824.462	0.0160931
824.540	0.0161631
824.618	0.0161003
824.696	0.0162940
824.774	0.0162056
824.852	0.0160459
824.931	0.0160993
825.009	0.0161912
825.087	0.0160744
825.165	0.0160593
825.243	0.0161124
825.321	0.0160752
825.399	0.0161356
825.477	0.0159532
825.556	0.0159200
825.634	0.0159882
825.712	0.0161843
825.790	0.0160196
825.868	0.0161301
825.946	0.0161830
826.024	0.0160662
826.102	0.0161301
826.181	0.0161840
826.259	0.0160354
826.337	0.0162370
826.415	0.0161287
826.493	0.0163031
826.571	0.0161428
826.649	0.0159561
826.727	0.0162782
826.806	0.0163078
826.884	0.0161440
826.962	0.0161114
827.040	0.0161179
827.118	0.0161638
827.196	0.0160488
827.274	0.0159718
827.352	0.0160841
827.431	0.0161074
827.509	0.0161485
827.587	0.0161567
827.665	0.0160637
827.743	0.0159971
827.821	0.0161005
827.899	0.0160618
827.977	0.0161376
828.056	0.0162422
828.134	0.0161419
828.212	0.0159932
828.290	0.0160984
828.368	0.0161758
828.446	0.0161137
828.524	0.0163216
828.602	0.0162461
828.681	0.0161559
828.759	0.0162257
828.837	0.0163126
828.915	0.0161674
828.993	0.0162516
829.071	0.0162423
829.149	0.0161248
829.227	0.0161209
829.306	0.0160692
829.384	0.0160031
829.462	0.0162630
829.540	0.0161630
829.618	0.0160513
829.696	0.0160271
829.774	0.0160663
829.852	0.0160096
829.931	0.0160179
830.009	0.0160746
830.087	0.0161275
830.165	0.0160712
830.243	0.0159786
830.321	0.0161980
830.399	0.0163507
830.477	0.0160057
830.556	0.0161073
830.634	0.0161988
830.712	0.0162926
830.790	0.0162395
830.868	0.0162145
830.946	0.0162949
831.024	0.0163174
831.102	0.0161193
831.181	0.0162799
831.259	0.0162202
831.337	0.0161992
831.415	0.0161815
831.493	0.0161943
831.571	0.0163278
831.649	0.0162430
831.727	0.0162709
831.806	0.0162231
831.884	0.0162348
831.962	0.0162957
832.040	0.0163473
832.118	0.0163477
832.196	0.0163058
832.274	0.0164290
832.352	0.0162378
832.431	0.0163290
832.509	0.0162746
832.587	0.0162968
832.665	0.0161460
832.743	0.0163514
832.821	0.0163120
832.899	0.0163361
832.977	0.0164069
833.056	0.0163458
833.134	0.0162969
833.212	0.0163411
833.290	0.0162156
833.368	0.0163564
833.446	0.0162595
833.524	0.0164220
833.602	0.0163071
833.681	0.0161243
833.759	0.0162769
833.837	0.0162662
833.915	0.0162083
833.993	0.0161789
834.071	0.0162796
834.149	0.0162965
834.227	0.0163046
834.306	0.0163091
834.384	0.0161649
834.462	0.0161505
834.540	0.0161259
834.618	0.0161321
834.696	0.0163132
834.774	0.0161977
834.852	0.0161901
834.931	0.0163056
835.009	0.0161583
835.087	0.0160283
835.165	0.0160766
835.243	0.0161679
835.321	0.0160996
835.399	0.0161012
835.477	0.0160597
835.556	0.0160315
835.634	0.0160941
835.712	0.0161071
835.790	0.0160410
835.868	0.0160669
835.946	0.0161465
836.024	0.0159972
836.102	0.0161624
836.181	0.0161083
836.259	0.0160616
836.337	0.0161239
836.415	0.0160653
836.493	0.0160407
836.571	0.0159641
836.649	0.0159963
836.727	0.0160711
836.806	0.0159477
836.884	0.0161784
836.962	0.0160545
837.040	0.0160748
837.118	0.0160255
837.196	0.0161844
837.274	0.0161258
837.352	0.0162019
837.431	0.0161947
837.509	0.0162858
837.587	0.0162632
837.665	0.0164386
837.743	0.0164510
837.821	0.0161837
837.899	0.0161645
837.977	0.0162158
838.056	0.0162929
838.134	0.0162030
838.212	0.0163194
838.290	0.0161729
838.368	0.0161414
838.446	0.0162930
838.524	0.0161697
838.602	0.0161467
838.681	0.0161118
838.759	0.0161803
838.837	0.0162354
838.915	0.0163044
838.993	0.0162122
839.071	0.0161468
839.149	0.0161771
839.227	0.0162722
839.306	0.0162209
839.384	0.0161520
839.462	0.0162476
839.540	0.0162204
839.618	0.0163192
839.696	0.0162669
839.774	0.0162151
839.852	0.0161919
839.931	0.0160790
840.009	0.0162066
840.087	0.0161636
840.165	0.0162149
840.243	0.0162647
840.321	0.0162673
840.399	0.0161684
840.477	0.0162021
840.556	0.0163172
840.634	0.0162311
840.712	0.0162752
840.790	0.0161941
840.868	0.0162442
840.946	0.0162272
841.024	0.0162267
841.102	0.0161293
841.181	0.0162360
841.259	0.0160594
841.337	0.0160966
841.415	0.0160201
841.493	0.0161365
841.571	0.0161724
841.649	0.0161614
841.727	0.0162358
841.806	0.0161629
841.884	0.0161456
841.962	0.0162463
842.040	0.0163232
842.118	0.0162307
842.196	0.0160359
842.274	0.0162196
842.352	0.0161155
842.431	0.0161069
842.509	0.0161180
842.587	0.0161285
842.665	0.0161366
842.743	0.0160978
842.821	0.0160126
842.899	0.0159907
842.977	0.0159480
843.056	0.0161000
843.134	0.0160806
843.212	0.0159394
843.290	0.0159676
843.368	0.0159764
843.446	0.0160188
843.524	0.0159612
843.602	0.0159882
843.681	0.0159529
843.759	0.0160609
843.837	0.0160856
843.915	0.0159325
843.993	0.0159886
844.071	0.0159964
844.149	0.0159836
844.227	0.0159389
844.306	0.0159221
844.384	0.0160841
844.462	0.0159894
844.540	0.0159042
844.618	0.0161380
844.696	0.0162749
844.774	0.0160211
844.852	0.0158256
844.931	0.0160352
845.009	0.0160573
845.087	0.0160114
845.165	0.0160966
845.243	0.0160023
845.321	0.0159811
845.399	0.0161950
845.477	0.0159188
845.556	0.0160271
845.634	0.0160153
845.712	0.0162848
845.790	0.0161246
845.868	0.0161488
845.946	0.0160262
846.024	0.0161948
846.102	0.0160846
846.181	0.0159828
846.259	0.0160165
846.337	0.0160792
846.415	0.0160931
846.493	0.0160301
846.571	0.0159841
846.649	0.0159257
846.727	0.0159073
846.806	0.0159575
846.884	0.0158559
846.962	0.0159920
847.040	0.0159619
847.118	0.0158443
847.196	0.0159814
847.274	0.0160222
847.352	0.0160379
847.431	0.0160228
847.509	0.0161158
847.587	0.0160527
847.665	0.0159204
847.743	0.0159554
847.821	0.0160281
847.899	0.0160111
847.977	0.0161334
848.056	0.0160162
848.134	0.0158897
848.212	0.0159565
848.290	0.0161192
848.368	0.0160110
848.446	0.0158660
848.524	0.0160993
848.602	0.0161464
848.681	0.0160526
848.759	0.0160645
848.837	0.0160381
848.915	0.0161439
848.993	0.0161410
849.071	0.0160065
849.149	0.0161179
849.227	0.0161295
849.306	0.0160126
849.384	0.0162442
849.462	0.0161124
849.540	0.0162309
849.618	0.0162068
849.696	0.0161638
849.774	0.0161840
849.852	0.0162566
849.931	0.0162398
850.009	0.0162952
850.087	0.0163733
850.165	0.0163350
850.243	0.0163498
850.321	0.0163677
850.399	0.0162704
850.477	0.0163803
850.556	0.0162667
850.634	0.0162379
850.712	0.0163462
850.790	0.0162188
850.868	0.0162378
850.946	0.0162476
851.024	0.0162225
851.102	0.0163035
851.181	0.0161328
851.259	0.0161000
851.337	0.0162529
851.415	0.0162041
851.493	0.0161453
851.571	0.0159550
851.649	0.0160191
851.727	0.0160960
851.806	0.0161646
851.884	0.0160165
851.962	0.0161617
852.040	0.0161697
852.118	0.0160273
852.196	0.0162653
852.274	0.0161787
852.352	0.0160101
852.431	0.0160900
852.509	0.0162151
852.587	0.0161591
852.665	0.0161914
852.743	0.0162817
852.821	0.0161475
852.899	0.0161664
852.977	0.0163341
853.056	0.0163419
853.134	0.0162043
853.212	0.0162681
853.290	0.0162970
853.368	0.0161573
853.446	0.0162295
853.524	0.0163039
853.602	0.0161351
853.681	0.0161515
853.759	0.0161980
853.837	0.0161188
853.915	0.0161619
853.993	0.0163518
854.071	0.0162679
854.149	0.0162801
854.227	0.0162416
854.306	0.0161658
854.384	0.0162737
854.462	0.0163096
854.540	0.0163248
854.618	0.0162125
854.696	0.0161813
854.774	0.0163723
854.852	0.0163667
854.931	0.0162717
855.009	0.0162126
855.087	0.0162366
855.165	0.0162421
855.243	0.0162553
855.321	0.0162947
855.399	0.0162933
855.477	0.0162317
855.556	0.0161267
855.634	0.0163540
855.712	0.0163338
855.790	0.0161835
855.868	0.0162415
855.946	0.0163596
856.024	0.0162407
856.102	0.0162070
856.181	0.0162715
856.259	0.0161903
856.337	0.0162378
856.415	0.0161720
856.493	0.0161077
856.571	0.0163152
856.649	0.0163100
856.727	0.0162778
856.806	0.0161835
856.884	0.0161840
856.962	0.0162845
857.040	0.0162315
857.118	0.0162502
857.196	0.0161480
857.274	0.0160847
857.352	0.0161978
857.431	0.0161387
857.509	0.0160527
857.587	0.0162383
857.665	0.0160322
857.743	0.0160305
857.821	0.0159613
857.899	0.0160808
857.977	0.0160986
858.056	0.0161408
858.134	0.0161344
858.212	0.0162137
858.290	0.0160104
858.368	0.0160973
858.446	0.0161581
858.524	0.0162098
858.602	0.0161481
858.681	0.0162017
858.759	0.0161954
858.837	0.0161874
858.915	0.0161996
858.993	0.0163074
859.071	0.0162411
859.149	0.0162489
859.227	0.0161567
859.306	0.0160849
859.384	0.0161729
859.462	0.0161898
859.540	0.0162513
859.618	0.0162440
859.696	0.0161452
859.774	0.0161835
859.852	0.0162830
859.931	0.0163007
860.009	0.0162196
860.087	0.0160969
860.165	0.0160637
860.243	0.0162437
860.321	0.0161411
860.399	0.0162206
860.477	0.0161465
860.556	0.0162227
860.634	0.0161487
860.712	0.0161993
860.790	0.0160623
860.868	0.0160714
860.946	0.0160983
861.024	0.0160200
861.102	0.0159460
861.181	0.0160909
861.259	0.0160619
861.337	0.0160149
861.415	0.0159710
861.493	0.0159140
861.571	0.0159091
861.649	0.0158544
861.727	0.0159770
861.806	0.0159308
861.884	0.0158715
861.962	0.0159453
862.040	0.0159338
862.118	0.0158984
862.196	0.0158902
862.274	0.0158844
862.352	0.0159062
862.431	0.0159003
862.509	0.0158117
862.587	0.0158503
862.665	0.0158891
862.743	0.0159648
862.821	0.0160437
862.899	0.0160669
862.977	0.0159869
863.056	0.0159982
863.134	0.0160622
863.212	0.0159818
863.290	0.0159340
863.368	0.0158876
863.446	0.0160487
863.524	0.0160187
863.602	0.0160051
863.681	0.0160686
863.759	0.0161166
863.837	0.0161930
863.915	0.0161043
863.993	0.0161074
864.071	0.0159748
864.149	0.0160393
864.227	0.0158952
864.306	0.0161095
864.384	0.0160570
864.462	0.0161325
864.540	0.0160144
864.618	0.0160287
864.696	0.0160907
864.774	0.0161544
864.852	0.0160509
864.931	0.0160964
865.009	0.0161725
865.087	0.0161023
865.165	0.0159874
865.243	0.0159928
865.321	0.0160616
865.399	0.0161475
865.477	0.0162034
865.556	0.0162254
865.634	0.0160983
865.712	0.0161372
865.790	0.0161561
865.868	0.0161863
865.946	0.0161627
866.024	0.0163155
866.102	0.0162399
866.181	0.0161424
866.259	0.0161643
866.337	0.0161915
866.415	0.0161481
866.493	0.0160708
866.571	0.0160091
866.649	0.0160228
866.727	0.0161109
866.806	0.0158949
866.884	0.0159705
866.962	0.0160958
867.040	0.0160402
867.118	0.0159598
867.196	0.0160642
867.274	0.0161237
867.352	0.0161381
867.431	0.0160995
867.509	0.0161050
867.587	0.0161428
867.665	0.0159297
867.743	0.0161288
867.821	0.0160691
867.899	0.0162424
867.977	0.0161115
868.056	0.0159961
868.134	0.0161395
868.212	0.0160644
868.290	0.0161015
868.368	0.0161745
868.446	0.0160172
868.524	0.0160134
868.602	0.0161042
868.681	0.0160129
868.759	0.0161643
868.837	0.0163406
868.915	0.0161962
868.993	0.0161526
869.071	0.0163686
869.149	0.0163130
869.227	0.0161929
869.306	0.0162476
869.384	0.0163119
869.462	0.0162794
869.540	0.0163462
869.618	0.0163308
869.696	0.0163297
869.774	0.0163797
869.852	0.0164463
869.931	0.0164648
870.009	0.0163280
870.087	0.0163401
870.165	0.0162141
870.243	0.0162942
870.321	0.0162943
870.399	0.0163635
870.477	0.0163218
870.556	0.0162899
870.634	0.0162779
870.712	0.0163113
870.790	0.0162093
870.868	0.0163184
870.946	0.0162767
871.024	0.0161842
871.102	0.0161713
871.181	0.0162945
871.259	0.0161182
871.337	0.0160721
871.415	0.0161460
871.493	0.0161556
871.571	0.0161830
871.649	0.0161443
871.727	0.0160865
871.806	0.0160965
871.884	0.0162093
871.962	0.0160390
872.040	0.0160490
872.118	0.0160683
872.196	0.0160126
872.274	0.0161063
872.352	0.0160670
872.431	0.0160165
872.509	0.0161018
872.587	0.0160932
872.665	0.0160442
872.743	0.0160100
872.821	0.0160604
872.899	0.0160397
872.977	0.0160648
873.056	0.0159389
873.134	0.0160329
873.212	0.0161497
873.290	0.0160107
873.368	0.0160908
873.446	0.0160938
873.524	0.0161466
873.602	0.0161018
873.681	0.0159623
873.759	0.0161053
873.837	0.0160389
873.915	0.0161226
873.993	0.0160001
874.071	0.0160265
874.149	0.0161466
874.227	0.0160538
874.306	0.0162543
874.384	0.0161041
874.462	0.0161349
874.540	0.0161811
874.618	0.0161182
874.696	0.0159658
874.774	0.0160885
874.852	0.0160146
874.931	0.0159728
875.009	0.0160593
875.087	0.0159970
875.165	0.0159315
875.243	0.0159766
875.321	0.0159425
875.399	0.0159602
875.477	0.0160056
875.556	0.0158878
875.634	0.0158210
875.712	0.0160535
875.790	0.0159177
875.868	0.0158423
875.946	0.0159072
876.024	0.0158773
876.102	0.0158017
876.181	0.0158842
876.259	0.0159650
876.337	0.0160031
876.415	0.0158614
876.493	0.0158673
876.571	0.0158212
876.649	0.0159930
876.727	0.0160014
876.806	0.0158440
876.884	0.0158834
876.962	0.0159057
877.040	0.0159408
877.118	0.0159697
877.196	0.0160427
877.274	0.0159588
877.352	0.0160293
877.431	0.0160691
877.509	0.0160366
877.587	0.0160590
877.665	0.0160874
877.743	0.0160802
877.821	0.0161302
877.899	0.0160250
877.977	0.0160703
878.056	0.0160359
878.134	0.0159854
878.212	0.0160684
878.290	0.0158698
878.368	0.0160030
878.446	0.0159959
878.524	0.0160018
878.602	0.0160220
878.681	0.0160207
878.759	0.0159595
878.837	0.0159526
878.915	0.0159377
878.993	0.0159753
879.071	0.0159950
879.149	0.0160086
879.227	0.0160223
879.306	0.0158862
879.384	0.0159386
879.462	0.0160584
879.540	0.0160709
879.618	0.0161694
879.696	0.0159897
879.774	0.0159968
879.852	0.0159595
879.931	0.0160992
880.009	0.0161195
880.087	0.0159985
880.165	0.0159624
880.243	0.0161607
880.321	0.0161888
880.399	0.0161152
880.477	0.0162144
880.556	0.0160825
880.634	0.0161868
880.712	0.0161468
880.790	0.0162659
880.868	0.0163613
880.946	0.0162170
881.024	0.0161436
881.102	0.0161311
881.181	0.0161566
881.259	0.0160976
881.337	0.0160928
881.415	0.0162313
881.493	0.0163506
881.571	0.0161631
881.649	0.0161386
881.727	0.0162255
881.806	0.0162098
881.884	0.0161912
881.962	0.0163170
882.040	0.0162064
882.118	0.0160120
882.196	0.0161324
882.274	0.0160819
882.352	0.0160677
882.431	0.0160513
882.509	0.0161322
882.587	0.0159901
882.665	0.0160977
882.743	0.0160164
882.821	0.0159588
882.899	0.0158001
882.977	0.0158608
883.056	0.0159566
883.134	0.0159151
883.212	0.0160044
883.290	0.0159546
883.368	0.0158543
883.446	0.0159048
883.524	0.0159071
883.602	0.0158835
883.681	0.0158447
883.759	0.0158794
883.837	0.0158439
883.915	0.0158500
883.993	0.0158435
884.071	0.0158835
884.149	0.0157836
884.227	0.0157880
884.306	0.0158359
884.384	0.0157749
884.462	0.0157336
884.540	0.0158117
884.618	0.0158341
884.696	0.0157902
884.774	0.0157539
884.852	0.0156944
884.931	0.0157569
885.009	0.0157719
885.087	0.0157859
885.165	0.0155389
885.243	0.0157479
885.321	0.0157346
885.399	0.0158802
885.477	0.0157764
885.556	0.0158849
885.634	0.0157611
885.712	0.0157644
885.790	0.0157286
885.868	0.0157372
885.946	0.0158560
886.024	0.0158414
886.102	0.0157140
886.181	0.0157735
886.259	0.0157504
886.337	0.0157344
886.415	0.0157989
886.493	0.0159219
886.571	0.0158516
886.649	0.0157116
886.727	0.0157970
886.806	0.0159051
886.884	0.0158638
886.962	0.0158960
887.040	0.0159173
887.118	0.0159099
887.196	0.0158482
887.274	0.0159827
887.352	0.0159322
887.431	0.0159766
887.509	0.0158884
887.587	0.0161272
887.665	0.0160787
887.743	0.0161274
887.821	0.0159195
887.899	0.0161309
887.977	0.0160603
888.056	0.0160294
888.134	0.0160201
888.212	0.0161304
888.290	0.0160580
888.368	0.0159208
888.446	0.0160058
888.524	0.0158765
888.602	0.0159602
888.681	0.0161903
888.759	0.0160622
888.837	0.0159211
888.915	0.0159113
888.993	0.0161592
889.071	0.0160924
889.149	0.0158543
889.227	0.0158895
889.306	0.0159951
889.384	0.0161086
889.462	0.0159648
889.540	0.0159892
889.618	0.0159373
889.696	0.0158636
889.774	0.0160143
889.852	0.0161897
889.931	0.0159474
890.009	0.0160893
890.087	0.0160979
890.165	0.0160214
890.243	0.0159634
890.321	0.0158759
890.399	0.0160770
890.477	0.0160330
890.556	0.0159969
890.634	0.0161320
890.712	0.0159399
890.790	0.0159371
890.868	0.0159380
890.946	0.0159948
891.024	0.0160041
891.102	0.0161027
891.181	0.0159200
891.259	0.0160315
891.337	0.0160417
891.415	0.0161171
891.493	0.0161574
891.571	0.0160277
891.649	0.0158935
891.727	0.0159395
891.806	0.0162418
891.884	0.0161228
891.962	0.0160221
892.040	0.0162858
892.118	0.0161742
892.196	0.0160165
892.274	0.0161129
892.352	0.0162234
892.431	0.0160937
892.509	0.0161685
892.587	0.0161092
892.665	0.0159698
892.743	0.0160838
892.821	0.0161180
892.899	0.0160999
892.977	0.0161302
893.056	0.0161201
893.134	0.0161093
893.212	0.0160180
893.290	0.0160612
893.368	0.0160300
893.446	0.0160066
893.524	0.0160335
893.602	0.0160561
893.681	0.0159720
893.759	0.0160632
893.837	0.0159860
893.915	0.0159592
893.993	0.0159495
894.071	0.0160213
894.149	0.0160718
894.227	0.0161181
894.306	0.0160762
894.384	0.0161602
894.462	0.0160616
894.540	0.0159109
894.618	0.0162124
894.696	0.0162076
894.774	0.0161972
894.852	0.0162659
894.931	0.0161139
895.009	0.0161595
895.087	0.0161356
895.165	0.0160468
895.243	0.0160626
895.321	0.0161301
895.399	0.0159298
895.477	0.0158640
895.556	0.0159660
895.634	0.0160244
895.712	0.0159433
895.790	0.0159233
895.868	0.0157652
895.946	0.0159503
896.024	0.0159434
896.102	0.0157867
896.181	0.0158689
896.259	0.0159242
896.337	0.0158659
896.415	0.0159138
896.493	0.0158003
896.571	0.0157798
896.649	0.0158119
896.727	0.0157903
896.806	0.0158300
896.884	0.0158175
896.962	0.0157068
897.040	0.0157710
897.118	0.0158005
897.196	0.0157714
897.274	0.0158311
897.352	0.0157930
897.431	0.0157205
897.509	0.0157164
897.587	0.0158251
897.665	0.0158980
897.743	0.0158265
897.821	0.0158974
897.899	0.0158369
897.977	0.0160478
898.056	0.0160670
898.134	0.0160326
898.212	0.0160605
898.290	0.0161630
898.368	0.0161106
898.446	0.0162022
898.524	0.0162219
898.602	0.0161801
898.681	0.0162135
898.759	0.0161626
898.837	0.0161554
898.915	0.0162729
898.993	0.0160088
899.071	0.0161951
899.149	0.0161966
899.227	0.0161004
899.306	0.0160134
899.384	0.0159392
899.462	0.0160605
899.540	0.0159358
899.618	0.0160462
899.696	0.0160314
899.774	0.0160007
899.852	0.0158638
899.931	0.0159714
900.009	0.0158447
900.087	0.0159614
900.165	0.0159280
900.243	0.0159876
900.321	0.0159432
900.399	0.0160505
900.477	0.0160051
900.556	0.0160881
900.634	0.0161083
900.712	0.0158675
900.790	0.0160401
900.868	0.0160909
900.946	0.0160271
901.024	0.0158727
901.102	0.0160146
901.181	0.0160516
901.259	0.0159285
901.337	0.0159053
901.415	0.0159441
901.493	0.0159119
901.571	0.0158768
901.649	0.0158743
901.727	0.0159007
901.806	0.0160905
901.884	0.0161562
901.962	0.0159576
902.040	0.0160218
902.118	0.0159326
902.196	0.0159541
902.274	0.0160927
902.352	0.0159273
902.431	0.0159766
902.509	0.0159031
902.587	0.0159425
902.665	0.0159485
902.743	0.0160647
902.821	0.0160952
902.899	0.0159539
902.977	0.0159887
903.056	0.0160079
903.134	0.0160133
903.212	0.0161202
903.290	0.0161783
903.368	0.0160809
903.446	0.0160658
903.524	0.0160609
903.602	0.0160587
903.681	0.0160764
903.759	0.0159669
903.837	0.0160926
903.915	0.0162324
903.993	0.0160025
904.071	0.0160545
904.149	0.0159946
904.227	0.0159435
904.306	0.0158786
904.384	0.0159893
904.462	0.0159053
904.540	0.0157195
904.618	0.0158033
904.696	0.0157678
904.774	0.0158334
904.852	0.0158303
904.931	0.0157259
905.009	0.0157416
905.087	0.0157607
905.165	0.0156474
905.243	0.0157204
905.321	0.0156783
905.399	0.0157262
905.477	0.0156407
905.556	0.0157349
905.634	0.0158143
905.712	0.0157776
905.790	0.0157986
905.868	0.0157953
905.946	0.0160486
906.024	0.0159418
906.102	0.0159102
906.181	0.0159680
906.259	0.0159633
906.337	0.0161267
906.415	0.0161813
906.493	0.0158799
906.571	0.0159753
906.649	0.0158706
906.727	0.0159693
906.806	0.0160522
906.884	0.0159222
906.962	0.0158626
907.040	0.0158173
907.118	0.0158630
907.196	0.0158682
907.274	0.0159901
907.352	0.0157303
907.431	0.0158622
907.509	0.0157977
907.587	0.0160381
907.665	0.0158927
907.743	0.0158347
907.821	0.0160759
907.899	0.0158445
907.977	0.0157804
908.056	0.0159402
908.134	0.0159318
908.212	0.0158815
908.290	0.0159653
908.368	0.0158456
908.446	0.0157405
908.524	0.0158222
908.602	0.0158321
908.681	0.0158030
908.759	0.0158083
908.837	0.0157973
908.915	0.0158131
908.993	0.0158231
909.071	0.0156734
909.149	0.0158066
909.227	0.0158794
909.306	0.0158208
909.384	0.0157417
909.462	0.0157975
909.540	0.0158965
909.618	0.0157207
909.696	0.0158769
909.774	0.0158044
909.852	0.0157787
909.931	0.0158669
910.009	0.0157985
910.087	0.0158287
910.165	0.0158597
910.243	0.0159142
910.321	0.0157780
910.399	0.0159185
910.477	0.0160228
910.556	0.0162760
910.634	0.0161964
910.712	0.0160192
910.790	0.0162910
910.868	0.0161804
910.946	0.0162134
911.024	0.0162286
911.102	0.0163020
911.181	0.0162713
911.259	0.0164321
911.337	0.0164110
911.415	0.0164584
911.493	0.0163241
911.571	0.0163346
911.649	0.0162827
911.727	0.0162827
911.806	0.0163512
911.884	0.0161607
911.962	0.0161646
912.040	0.0162502
912.118	0.0161045
912.196	0.0160606
912.274	0.0163731
912.352	0.0163364
912.431	0.0162130
912.509	0.0160996
912.587	0.0160802
912.665	0.0161861
912.743	0.0162253
912.821	0.0160551
912.899	0.0161024
912.977	0.0162257
913.056	0.0162235
913.134	0.0160667
913.212	0.0161475
913.290	0.0160712
913.368	0.0159554
913.446	0.0159929
913.524	0.0161057
913.602	0.0162137
913.681	0.0161336
913.759	0.0162193
913.837	0.0161461
913.915	0.0161185
913.993	0.0160258
914.071	0.0161979
914.149	0.0161663
914.227	0.0162995
914.306	0.0163136
914.384	0.0162442
914.462	0.0163004
914.540	0.0162141
914.618	0.0163197
914.696	0.0164577
914.774	0.0162791
914.852	0.0163473
914.931	0.0163124
915.009	0.0163080
915.087	0.0163625
915.165	0.0163886
915.243	0.0163471
915.321	0.0164043
915.399	0.0163444
915.477	0.0164359
915.556	0.0163867
915.634	0.0161935
915.712	0.0162479
915.790	0.0163222
915.868	0.0162997
915.946	0.0162890
916.024	0.0162936
916.102	0.0161672
916.181	0.0160826
916.259	0.0162001
916.337	0.0161463
916.415	0.0160986
916.493	0.0162256
916.571	0.0161214
916.649	0.0161588
916.727	0.0160853
916.806	0.0161268
916.884	0.0161203
916.962	0.0160861
917.040	0.0161419
917.118	0.0160677
917.196	0.0159932
917.274	0.0160850
917.352	0.0161003
917.431	0.0159554
917.509	0.0161069
917.587	0.0160143
917.665	0.0160275
917.743	0.0159956
917.821	0.0159724
917.899	0.0159866
917.977	0.0158997
918.056	0.0159030
918.134	0.0159652
918.212	0.0159056
918.290	0.0161545
918.368	0.0161022
918.446	0.0159838
918.524	0.0159955
918.602	0.0161214
918.681	0.0160879
918.759	0.0160970
918.837	0.0159186
918.915	0.0161274
918.993	0.0162001
919.071	0.0159204
919.149	0.0160070
919.227	0.0161278
919.306	0.0160435
919.384	0.0161678
919.462	0.0160571
919.540	0.0160106
919.618	0.0159507
919.696	0.0159382
919.774	0.0161505
919.852	0.0160805
919.931	0.0160628
920.009	0.0160484
920.087	0.0161475
920.165	0.0162207
920.243	0.0160888
920.321	0.0160872
920.399	0.0162831
920.477	0.0161996
920.556	0.0161715
920.634	0.0162042
920.712	0.0161227
920.790	0.0163448
920.868	0.0162814
920.946	0.0160507
921.024	0.0162344
921.102	0.0163646
921.181	0.0160829
921.259	0.0162119
921.337	0.0161867
921.415	0.0161708
921.493	0.0162421
921.571	0.0161201
921.649	0.0162657
921.727	0.0162583
921.806	0.0161486
921.884	0.0161253
921.962	0.0161578
922.040	0.0161629
922.118	0.0161749
922.196	0.0160052
922.274	0.0160900
922.352	0.0161420
922.431	0.0161217
922.509	0.0161709
922.587	0.0162780
922.665	0.0161097
922.743	0.0159713
922.821	0.0160773
922.899	0.0160741
922.977	0.0160978
923.056	0.0161110
923.134	0.0160230
923.212	0.0160635
923.290	0.0160982
923.368	0.0161429
923.446	0.0161185
923.524	0.0160973
923.602	0.0161396
923.681	0.0162562
923.759	0.0161977
923.837	0.0162030
923.915	0.0162549
923.993	0.0162656
924.071	0.0161735
924.149	0.0160849
924.227	0.0162926
924.306	0.0162415
924.384	0.0163416
924.462	0.0163800
924.540	0.0162148
924.618	0.0162584
924.696	0.0164024
924.774	0.0163519
924.852	0.0162067
924.931	0.0163753
925.009	0.0163849
925.087	0.0163288
925.165	0.0162607
925.243	0.0163057
925.321	0.0162355
925.399	0.0162424
925.477	0.0163016
925.556	0.0162311
925.634	0.0164309
925.712	0.0163348
925.790	0.0162062
925.868	0.0162946
925.946	0.0162537
926.024	0.0162316
926.102	0.0162981
926.181	0.0162532
926.259	0.0162087
926.337	0.0164188
926.415	0.0164003
926.493	0.0164351
926.571	0.0162107
926.649	0.0163434
926.727	0.0163140
926.806	0.0163111
926.884	0.0163173
926.962	0.0161732
927.040	0.0162788
927.118	0.0161063
927.196	0.0160949
927.274	0.0161280
927.352	0.0161648
927.431	0.0160993
927.509	0.0160999
927.587	0.0161826
927.665	0.0161792
927.743	0.0162536
927.821	0.0160686
927.899	0.0159212
927.977	0.0160620
928.056	0.0160918
928.134	0.0160912
928.212	0.0159338
928.290	0.0160137
928.368	0.0161049
928.446	0.0159081
928.524	0.0159245
928.602	0.0159454
928.681	0.0160239
928.759	0.0157878
928.837	0.0157920
928.915	0.0157873
928.993	0.0158794
929.071	0.0158896
929.149	0.0159633
929.227	0.0159216
929.306	0.0159704
929.384	0.0159834
929.462	0.0159464
929.540	0.0160265
929.618	0.0160447
929.696	0.0161201
929.774	0.0161600
929.852	0.0163029
929.931	0.0162454
