05/19/2022	00:40:33	Ver.	4.1	UNKNOWN
Optical Delay	630.009178	Delta X		0.078125	Sweeps	1	Scan Rate	0/0
Coordinates	Axis 1	NaN	Axis 2	NaN	Axis 3	NaN	Axis 4	NaN	Axis 5	NaN	Axis 6	0.000000
TX Power	0.000000	RX Power	0.000000

630.009	0.0160885
630.087	0.0161942
630.165	0.0161166
630.244	0.0161292
630.322	0.0160638
630.400	0.0162442
630.478	0.0161919
630.556	0.0159847
630.634	0.0161118
630.712	0.0160640
630.790	0.0160464
630.869	0.0160493
630.947	0.0161116
631.025	0.0160728
631.103	0.0160727
631.181	0.0161695
631.259	0.0161761
631.337	0.0161488
631.415	0.0160679
631.494	0.0161459
631.572	0.0160813
631.650	0.0160661
631.728	0.0162214
631.806	0.0159513
631.884	0.0160687
631.962	0.0162032
632.040	0.0160227
632.119	0.0160960
632.197	0.0160469
632.275	0.0161947
632.353	0.0161709
632.431	0.0160832
632.509	0.0160302
632.587	0.0162669
632.665	0.0161920
632.744	0.0160661
632.822	0.0161383
632.900	0.0162012
632.978	0.0161787
633.056	0.0161895
633.134	0.0161990
633.212	0.0160964
633.290	0.0161462
633.369	0.0161156
633.447	0.0160977
633.525	0.0161560
633.603	0.0161974
633.681	0.0160603
633.759	0.0160232
633.837	0.0160796
633.915	0.0160916
633.994	0.0161310
634.072	0.0161343
634.150	0.0161298
634.228	0.0161991
634.306	0.0162582
634.384	0.0162177
634.462	0.0163080
634.540	0.0161750
634.619	0.0161904
634.697	0.0161351
634.775	0.0160973
634.853	0.0161082
634.931	0.0161514
635.009	0.0161248
635.087	0.0160100
635.165	0.0160564
635.244	0.0161859
635.322	0.0161662
635.400	0.0161039
635.478	0.0162090
635.556	0.0161799
635.634	0.0161838
635.712	0.0162138
635.790	0.0161338
635.869	0.0161140
635.947	0.0161536
636.025	0.0161165
636.103	0.0161221
636.181	0.0161903
636.259	0.0162271
636.337	0.0162632
636.415	0.0162432
636.494	0.0162536
636.572	0.0161268
636.650	0.0162026
636.728	0.0162432
636.806	0.0161832
636.884	0.0162271
636.962	0.0161288
637.040	0.0161922
637.119	0.0160924
637.197	0.0162227
637.275	0.0163235
637.353	0.0159884
637.431	0.0161215
637.509	0.0161879
637.587	0.0160802
637.665	0.0161871
637.744	0.0160147
637.822	0.0162060
637.900	0.0161074
637.978	0.0162071
638.056	0.0161378
638.134	0.0161305
638.212	0.0162098
638.290	0.0162322
638.369	0.0160811
638.447	0.0161282
638.525	0.0162593
638.603	0.0160223
638.681	0.0161243
638.759	0.0160371
638.837	0.0160423
638.915	0.0161550
638.994	0.0160529
639.072	0.0160879
639.150	0.0162067
639.228	0.0162438
639.306	0.0161510
639.384	0.0161249
639.462	0.0161261
639.540	0.0161378
639.619	0.0161673
639.697	0.0162777
639.775	0.0160810
639.853	0.0161596
639.931	0.0162477
640.009	0.0161545
640.087	0.0162164
640.165	0.0162828
640.244	0.0162148
640.322	0.0161404
640.400	0.0161329
640.478	0.0160336
640.556	0.0160513
640.634	0.0160845
640.712	0.0161401
640.790	0.0161784
640.869	0.0161472
640.947	0.0159695
641.025	0.0161119
641.103	0.0161867
641.181	0.0160926
641.259	0.0160897
641.337	0.0160764
641.415	0.0160720
641.494	0.0160926
641.572	0.0161483
641.650	0.0162453
641.728	0.0161092
641.806	0.0160085
641.884	0.0160380
641.962	0.0161178
642.040	0.0162351
642.119	0.0162813
642.197	0.0161863
642.275	0.0160926
642.353	0.0160108
642.431	0.0159051
642.509	0.0161578
642.587	0.0161153
642.665	0.0162273
642.744	0.0160220
642.822	0.0161226
642.900	0.0161333
642.978	0.0161318
643.056	0.0162141
643.134	0.0161174
643.212	0.0160616
643.290	0.0160574
643.369	0.0162241
643.447	0.0160905
643.525	0.0161439
643.603	0.0161574
643.681	0.0161510
643.759	0.0161749
643.837	0.0162443
643.915	0.0160326
643.994	0.0161413
644.072	0.0161639
644.150	0.0160619
644.228	0.0160885
644.306	0.0161333
644.384	0.0161552
644.462	0.0162341
644.540	0.0161332
644.619	0.0161224
644.697	0.0161927
644.775	0.0160763
644.853	0.0160531
644.931	0.0161474
645.009	0.0161244
645.087	0.0161578
645.165	0.0162141
645.244	0.0161499
645.322	0.0161504
645.400	0.0160786
645.478	0.0162362
645.556	0.0160604
645.634	0.0161697
645.712	0.0160692
645.790	0.0161569
645.869	0.0161317
645.947	0.0161302
646.025	0.0161060
646.103	0.0159859
646.181	0.0160055
646.259	0.0160020
646.337	0.0160777
646.415	0.0160777
646.494	0.0160032
646.572	0.0160808
646.650	0.0160349
646.728	0.0161263
646.806	0.0162422
646.884	0.0160444
646.962	0.0160277
647.040	0.0160631
647.119	0.0161176
647.197	0.0160282
647.275	0.0160897
647.353	0.0161368
647.431	0.0161143
647.509	0.0160496
647.587	0.0161485
647.665	0.0162311
647.744	0.0161104
647.822	0.0160397
647.900	0.0160268
647.978	0.0162034
648.056	0.0161510
648.134	0.0159172
648.212	0.0161736
648.290	0.0161420
648.369	0.0161055
648.447	0.0161335
648.525	0.0161450
648.603	0.0160885
648.681	0.0161175
648.759	0.0162720
648.837	0.0160719
648.915	0.0160464
648.994	0.0160893
649.072	0.0161785
649.150	0.0162982
649.228	0.0161631
649.306	0.0161120
649.384	0.0162200
649.462	0.0162176
649.540	0.0161193
649.619	0.0161519
649.697	0.0159802
649.775	0.0161848
649.853	0.0161781
649.931	0.0161155
650.009	0.0161845
650.087	0.0161751
650.165	0.0161887
650.244	0.0161395
650.322	0.0161572
650.400	0.0161824
650.478	0.0161259
650.556	0.0161600
650.634	0.0162513
650.712	0.0162192
650.790	0.0161246
650.869	0.0160537
650.947	0.0161334
651.025	0.0162594
651.103	0.0162922
651.181	0.0161568
651.259	0.0162339
651.337	0.0161515
651.415	0.0160597
651.494	0.0161569
651.572	0.0160185
651.650	0.0162627
651.728	0.0160542
651.806	0.0162291
651.884	0.0162704
651.962	0.0160455
652.040	0.0161030
652.119	0.0161408
652.197	0.0160528
652.275	0.0161883
652.353	0.0161578
652.431	0.0162013
652.509	0.0161929
652.587	0.0160991
652.665	0.0161193
652.744	0.0160844
652.822	0.0161633
652.900	0.0161432
652.978	0.0160863
653.056	0.0161832
653.134	0.0162261
653.212	0.0160059
653.290	0.0160645
653.369	0.0160124
653.447	0.0159597
653.525	0.0161600
653.603	0.0161786
653.681	0.0159900
653.759	0.0161083
653.837	0.0162134
653.915	0.0161879
653.994	0.0161629
654.072	0.0161477
654.150	0.0160506
654.228	0.0161871
654.306	0.0161181
654.384	0.0161059
654.462	0.0161812
654.540	0.0162984
654.619	0.0161617
654.697	0.0161293
654.775	0.0162376
654.853	0.0161298
654.931	0.0160629
655.009	0.0162170
655.087	0.0160696
655.165	0.0162303
655.244	0.0160465
655.322	0.0162123
655.400	0.0162157
655.478	0.0161146
655.556	0.0161565
655.634	0.0161751
655.712	0.0161121
655.790	0.0161442
655.869	0.0161794
655.947	0.0161858
656.025	0.0161830
656.103	0.0161016
656.181	0.0161533
656.259	0.0160363
656.337	0.0161178
656.415	0.0161834
656.494	0.0160110
656.572	0.0160422
656.650	0.0160499
656.728	0.0162019
656.806	0.0162660
656.884	0.0161434
656.962	0.0162673
657.040	0.0163058
657.119	0.0161163
657.197	0.0161089
657.275	0.0160626
657.353	0.0162113
657.431	0.0161857
657.509	0.0160835
657.587	0.0161622
657.665	0.0162363
657.744	0.0162899
657.822	0.0161502
657.900	0.0160387
657.978	0.0161013
658.056	0.0162158
658.134	0.0161417
658.212	0.0161705
658.290	0.0161822
658.369	0.0162730
658.447	0.0163122
658.525	0.0162531
658.603	0.0161951
658.681	0.0160904
658.759	0.0162552
658.837	0.0161347
658.915	0.0162455
658.994	0.0162283
659.072	0.0161739
659.150	0.0162509
659.228	0.0162787
659.306	0.0161000
659.384	0.0162806
659.462	0.0161530
659.540	0.0161510
659.619	0.0161887
659.697	0.0163853
659.775	0.0163704
659.853	0.0161549
659.931	0.0162512
660.009	0.0160998
660.087	0.0162703
660.165	0.0162907
660.244	0.0162779
660.322	0.0162518
660.400	0.0162669
660.478	0.0162098
660.556	0.0161208
660.634	0.0161649
660.712	0.0161868
660.790	0.0160856
660.869	0.0162531
660.947	0.0162183
661.025	0.0162029
661.103	0.0162379
661.181	0.0162327
661.259	0.0163257
661.337	0.0163323
661.415	0.0162245
661.494	0.0162151
661.572	0.0162061
661.650	0.0162943
661.728	0.0164734
661.806	0.0162420
661.884	0.0160809
661.962	0.0162061
662.040	0.0162270
662.119	0.0160821
662.197	0.0162305
662.275	0.0162959
662.353	0.0162460
662.431	0.0161046
662.509	0.0161840
662.587	0.0162592
662.665	0.0162339
662.744	0.0161141
662.822	0.0161605
662.900	0.0163068
662.978	0.0161630
663.056	0.0161214
663.134	0.0161308
663.212	0.0161307
663.290	0.0161606
663.369	0.0162660
663.447	0.0161449
663.525	0.0159731
663.603	0.0161157
663.681	0.0162624
663.759	0.0161861
663.837	0.0162967
663.915	0.0162776
663.994	0.0162431
664.072	0.0162154
664.150	0.0162409
664.228	0.0161964
664.306	0.0162001
664.384	0.0161903
664.462	0.0161726
664.540	0.0161399
664.619	0.0161818
664.697	0.0161193
664.775	0.0162953
664.853	0.0161987
664.931	0.0160747
665.009	0.0161543
665.087	0.0162080
665.165	0.0163226
665.244	0.0162849
665.322	0.0161464
665.400	0.0160597
665.478	0.0161606
665.556	0.0162609
665.634	0.0161969
665.712	0.0162259
665.790	0.0161989
665.869	0.0161431
665.947	0.0161254
666.025	0.0161388
666.103	0.0161721
666.181	0.0162246
666.259	0.0161496
666.337	0.0161964
666.415	0.0161173
666.494	0.0161196
666.572	0.0161337
666.650	0.0161154
666.728	0.0160656
666.806	0.0161266
666.884	0.0162363
666.962	0.0162979
667.040	0.0159042
667.119	0.0161832
667.197	0.0161156
667.275	0.0160560
667.353	0.0162315
667.431	0.0161055
667.509	0.0160260
667.587	0.0160831
667.665	0.0161730
667.744	0.0161914
667.822	0.0161449
667.900	0.0160730
667.978	0.0159888
668.056	0.0161670
668.134	0.0161713
668.212	0.0160162
668.290	0.0161768
668.369	0.0160226
668.447	0.0160826
668.525	0.0160245
668.603	0.0160696
668.681	0.0160822
668.759	0.0162292
668.837	0.0160368
668.915	0.0159588
668.994	0.0161025
669.072	0.0160401
669.150	0.0161504
669.228	0.0161400
669.306	0.0161563
669.384	0.0161089
669.462	0.0161150
669.540	0.0159881
669.619	0.0159534
669.697	0.0161214
669.775	0.0159784
669.853	0.0161533
669.931	0.0160750
670.009	0.0161600
670.087	0.0160648
670.165	0.0162225
670.244	0.0160574
670.322	0.0160686
670.400	0.0160339
670.478	0.0160774
670.556	0.0159846
670.634	0.0162344
670.712	0.0161378
670.790	0.0160056
670.869	0.0160683
670.947	0.0160196
671.025	0.0161002
671.103	0.0161195
671.181	0.0161271
671.259	0.0160958
671.337	0.0161913
671.415	0.0162835
671.494	0.0161607
671.572	0.0161192
671.650	0.0160870
671.728	0.0162749
671.806	0.0162341
671.884	0.0160371
671.962	0.0161369
672.040	0.0161811
672.119	0.0160322
672.197	0.0160233
672.275	0.0160725
672.353	0.0161264
672.431	0.0160998
672.509	0.0161954
672.587	0.0161996
672.665	0.0161021
672.744	0.0160649
672.822	0.0162058
672.900	0.0161414
672.978	0.0161763
673.056	0.0159292
673.134	0.0161829
673.212	0.0161479
673.290	0.0161913
673.369	0.0162508
673.447	0.0161582
673.525	0.0161199
673.603	0.0161866
673.681	0.0161873
673.759	0.0161104
673.837	0.0161599
673.915	0.0160419
673.994	0.0160506
674.072	0.0160523
674.150	0.0161581
674.228	0.0161000
674.306	0.0160770
674.384	0.0160864
674.462	0.0162818
674.540	0.0160956
674.619	0.0159956
674.697	0.0162084
674.775	0.0161391
674.853	0.0160848
674.931	0.0161275
675.009	0.0160475
675.087	0.0160880
675.165	0.0161065
675.244	0.0161233
675.322	0.0161788
675.400	0.0162008
675.478	0.0160460
675.556	0.0160738
675.634	0.0162009
675.712	0.0162983
675.790	0.0161224
675.869	0.0160812
675.947	0.0160368
676.025	0.0161798
676.103	0.0163388
676.181	0.0160601
676.259	0.0160213
676.337	0.0161192
676.415	0.0161847
676.494	0.0160862
676.572	0.0161761
676.650	0.0160938
676.728	0.0161248
676.806	0.0161107
676.884	0.0160161
676.962	0.0160796
677.040	0.0161205
677.119	0.0159852
677.197	0.0159147
677.275	0.0161847
677.353	0.0160822
677.431	0.0161568
677.509	0.0161654
677.587	0.0161243
677.665	0.0163624
677.744	0.0162312
677.822	0.0162858
677.900	0.0163545
677.978	0.0163224
678.056	0.0162944
678.134	0.0161188
678.212	0.0160821
678.290	0.0160471
678.369	0.0161652
678.447	0.0162238
678.525	0.0160294
678.603	0.0159451
678.681	0.0159602
678.759	0.0159855
678.837	0.0159843
678.915	0.0158717
678.994	0.0159824
679.072	0.0159605
679.150	0.0159118
679.228	0.0160960
679.306	0.0161404
679.384	0.0160435
679.462	0.0160753
679.540	0.0160711
679.619	0.0161371
679.697	0.0162361
679.775	0.0161337
679.853	0.0162194
679.931	0.0160576
680.009	0.0162792
680.087	0.0162747
680.165	0.0161227
680.244	0.0162774
680.322	0.0163073
680.400	0.0162978
680.478	0.0161871
680.556	0.0162295
680.634	0.0160958
680.712	0.0160026
680.790	0.0161134
680.869	0.0160377
680.947	0.0160360
681.025	0.0160426
681.103	0.0160014
681.181	0.0160650
681.259	0.0160419
681.337	0.0160831
681.415	0.0159650
681.494	0.0158803
681.572	0.0160490
681.650	0.0160238
681.728	0.0159756
681.806	0.0159304
681.884	0.0160341
681.962	0.0160152
682.040	0.0159393
682.119	0.0159200
682.197	0.0159743
682.275	0.0160444
682.353	0.0160310
682.431	0.0160815
682.509	0.0163035
682.587	0.0163314
682.665	0.0164321
682.744	0.0164912
682.822	0.0165388
682.900	0.0169142
682.978	0.0166595
683.056	0.0167639
683.134	0.0169473
683.212	0.0170112
683.290	0.0170589
683.369	0.0170170
683.447	0.0169154
683.525	0.0167995
683.603	0.0168199
683.681	0.0165949
683.759	0.0164870
683.837	0.0162785
683.915	0.0163490
683.994	0.0160017
684.072	0.0160207
684.150	0.0157775
684.228	0.0157976
684.306	0.0155534
684.384	0.0154890
684.462	0.0153491
684.540	0.0153321
684.619	0.0153407
684.697	0.0151688
684.775	0.0151423
684.853	0.0151154
684.931	0.0151662
685.009	0.0152573
685.087	0.0154707
685.165	0.0155646
685.244	0.0153969
685.322	0.0155756
685.400	0.0157204
685.478	0.0157160
685.556	0.0159565
685.634	0.0159606
685.712	0.0159142
685.790	0.0161284
685.869	0.0162585
685.947	0.0162357
686.025	0.0164459
686.103	0.0165616
686.181	0.0166251
686.259	0.0166429
686.337	0.0167056
686.415	0.0169244
686.494	0.0171101
686.572	0.0173829
686.650	0.0174393
686.728	0.0175523
686.806	0.0175500
686.884	0.0177855
686.962	0.0177018
687.040	0.0178309
687.119	0.0177046
687.197	0.0176434
687.275	0.0174842
687.353	0.0172251
687.431	0.0170492
687.509	0.0168481
687.587	0.0165469
687.665	0.0161926
687.744	0.0159782
687.822	0.0157611
687.900	0.0154131
687.978	0.0152950
688.056	0.0152323
688.134	0.0148259
688.212	0.0147495
688.290	0.0146380
688.369	0.0144759
688.447	0.0143475
688.525	0.0143208
688.603	0.0140428
688.681	0.0141517
688.759	0.0143756
688.837	0.0142178
688.915	0.0141920
688.994	0.0142905
689.072	0.0144685
689.150	0.0145118
689.228	0.0148414
689.306	0.0149725
689.384	0.0151882
689.462	0.0155609
689.540	0.0157754
689.619	0.0159812
689.697	0.0162373
689.775	0.0165401
689.853	0.0166243
689.931	0.0167665
690.009	0.0168310
690.087	0.0170435
690.165	0.0170151
690.244	0.0172999
690.322	0.0174713
690.400	0.0175072
690.478	0.0177686
690.556	0.0177181
690.634	0.0179683
690.712	0.0181752
690.790	0.0182850
690.869	0.0183761
690.947	0.0183469
691.025	0.0183428
691.103	0.0183446
691.181	0.0183581
691.259	0.0182498
691.337	0.0180605
691.415	0.0178146
691.494	0.0176767
691.572	0.0173767
691.650	0.0171168
691.728	0.0166392
691.806	0.0163497
691.884	0.0158913
691.962	0.0152732
692.040	0.0149841
692.119	0.0145425
692.197	0.0142079
692.275	0.0137862
692.353	0.0136563
692.431	0.0134320
692.509	0.0131645
692.587	0.0131080
692.665	0.0132829
692.744	0.0133350
692.822	0.0134671
692.900	0.0136026
692.978	0.0138329
693.056	0.0139722
693.134	0.0142486
693.212	0.0145972
693.290	0.0147463
693.369	0.0150179
693.447	0.0151820
693.525	0.0155884
693.603	0.0158994
693.681	0.0159361
693.759	0.0163347
693.837	0.0166214
693.915	0.0167918
693.994	0.0171094
694.072	0.0173265
694.150	0.0174413
694.228	0.0177141
694.306	0.0178294
694.384	0.0178018
694.462	0.0181899
694.540	0.0182625
694.619	0.0184125
694.697	0.0184261
694.775	0.0184993
694.853	0.0184586
694.931	0.0184636
695.009	0.0186250
695.087	0.0184905
695.165	0.0183844
695.244	0.0183759
695.322	0.0181224
695.400	0.0183076
695.478	0.0178993
695.556	0.0177210
695.634	0.0175661
695.712	0.0171775
695.790	0.0168464
695.869	0.0164544
695.947	0.0161871
696.025	0.0157413
696.103	0.0153208
696.181	0.0149286
696.259	0.0145808
696.337	0.0143584
696.415	0.0140987
696.494	0.0135963
696.572	0.0134095
696.650	0.0133867
696.728	0.0132578
696.806	0.0133024
696.884	0.0133865
696.962	0.0133414
697.040	0.0134376
697.119	0.0135262
697.197	0.0136089
697.275	0.0137960
697.353	0.0140165
697.431	0.0141795
697.509	0.0144727
697.587	0.0145723
697.665	0.0147369
697.744	0.0151231
697.822	0.0153257
697.900	0.0156120
697.978	0.0158256
698.056	0.0161272
698.134	0.0163292
698.212	0.0165778
698.290	0.0166376
698.369	0.0169071
698.447	0.0171741
698.525	0.0174201
698.603	0.0175362
698.681	0.0177479
698.759	0.0179259
698.837	0.0179795
698.915	0.0180288
698.994	0.0180682
699.072	0.0180515
699.150	0.0180572
699.228	0.0179475
699.306	0.0177785
699.384	0.0177205
699.462	0.0175574
699.540	0.0174468
699.619	0.0173111
699.697	0.0171904
699.775	0.0170857
699.853	0.0169739
699.931	0.0167252
700.009	0.0168329
700.087	0.0165919
700.165	0.0164776
700.244	0.0163756
700.322	0.0163274
700.400	0.0161704
700.478	0.0159838
700.556	0.0159112
700.634	0.0158031
700.712	0.0156375
700.790	0.0153473
700.869	0.0153112
700.947	0.0151482
701.025	0.0149686
701.103	0.0148912
701.181	0.0148652
701.259	0.0147562
701.337	0.0146559
701.415	0.0145123
701.494	0.0146107
701.572	0.0147592
701.650	0.0149556
701.728	0.0149844
701.806	0.0150697
701.884	0.0152729
701.962	0.0153276
702.040	0.0155146
702.119	0.0158202
702.197	0.0158385
702.275	0.0159606
702.353	0.0160526
702.431	0.0159811
702.509	0.0161635
702.587	0.0162713
702.665	0.0162260
702.744	0.0161326
702.822	0.0161820
702.900	0.0163076
702.978	0.0162060
703.056	0.0162083
703.134	0.0162801
703.212	0.0164864
703.290	0.0165665
703.369	0.0164032
703.447	0.0166618
703.525	0.0167290
703.603	0.0166472
703.681	0.0166397
703.759	0.0167231
703.837	0.0166331
703.915	0.0165447
703.994	0.0164633
704.072	0.0164516
704.150	0.0165873
704.228	0.0164412
704.306	0.0163573
704.384	0.0165211
704.462	0.0164820
704.540	0.0165179
704.619	0.0164883
704.697	0.0164385
704.775	0.0163998
704.853	0.0164261
704.931	0.0161762
705.009	0.0162909
705.087	0.0162209
705.165	0.0161694
705.244	0.0161318
705.322	0.0159525
705.400	0.0159245
705.478	0.0157685
705.556	0.0158066
705.634	0.0157885
705.712	0.0156731
705.790	0.0156918
705.869	0.0156886
705.947	0.0156822
706.025	0.0155518
706.103	0.0156974
706.181	0.0157779
706.259	0.0158569
706.337	0.0158321
706.415	0.0160641
706.494	0.0160442
706.572	0.0161378
706.650	0.0162014
706.728	0.0162885
706.806	0.0163593
706.884	0.0163323
706.962	0.0163303
707.040	0.0163181
707.119	0.0163109
707.197	0.0163444
707.275	0.0161879
707.353	0.0160609
707.431	0.0160457
707.509	0.0160607
707.587	0.0159161
707.665	0.0160442
707.744	0.0159769
707.822	0.0159068
707.900	0.0159229
707.978	0.0160616
708.056	0.0161390
708.134	0.0160986
708.212	0.0161430
708.290	0.0161771
708.369	0.0161131
708.447	0.0162301
708.525	0.0160393
708.603	0.0161404
708.681	0.0160785
708.759	0.0160856
708.837	0.0160789
708.915	0.0160365
708.994	0.0161121
709.072	0.0162328
709.150	0.0160429
709.228	0.0161055
709.306	0.0160553
709.384	0.0161147
709.462	0.0160332
709.540	0.0159919
709.619	0.0160896
709.697	0.0160885
709.775	0.0161295
709.853	0.0161938
709.931	0.0161732
710.009	0.0164043
710.087	0.0162212
710.165	0.0160818
710.244	0.0160872
710.322	0.0161440
710.400	0.0162606
710.478	0.0160136
710.556	0.0160224
710.634	0.0158305
710.712	0.0160253
710.790	0.0159071
710.869	0.0159636
710.947	0.0158480
711.025	0.0159199
711.103	0.0160471
711.181	0.0160081
711.259	0.0160342
711.337	0.0161775
711.415	0.0162803
711.494	0.0163816
711.572	0.0164572
711.650	0.0164077
711.728	0.0164592
711.806	0.0163885
711.884	0.0165076
711.962	0.0163375
712.040	0.0164751
712.119	0.0165212
712.197	0.0163531
712.275	0.0165085
712.353	0.0164099
712.431	0.0163384
712.509	0.0163176
712.587	0.0161648
712.665	0.0162257
712.744	0.0162999
712.822	0.0161281
712.900	0.0161295
712.978	0.0162115
713.056	0.0162274
713.134	0.0160995
713.212	0.0161490
713.290	0.0161993
713.369	0.0161803
713.447	0.0160609
713.525	0.0160832
713.603	0.0159889
713.681	0.0160787
713.759	0.0160930
713.837	0.0161408
713.915	0.0161952
713.994	0.0162206
714.072	0.0163467
714.150	0.0161477
714.228	0.0161759
714.306	0.0162711
714.384	0.0161945
714.462	0.0162125
714.540	0.0162915
714.619	0.0163065
714.697	0.0161068
714.775	0.0162426
714.853	0.0161204
714.931	0.0163515
715.009	0.0162854
715.087	0.0163184
715.165	0.0162946
715.244	0.0162866
715.322	0.0161892
715.400	0.0162849
715.478	0.0162515
715.556	0.0161583
715.634	0.0161728
715.712	0.0161741
715.790	0.0161430
715.869	0.0160975
715.947	0.0162121
716.025	0.0161758
716.103	0.0161764
716.181	0.0160314
716.259	0.0159753
716.337	0.0161044
716.415	0.0160828
716.494	0.0159793
716.572	0.0161674
716.650	0.0161391
716.728	0.0160468
716.806	0.0159904
716.884	0.0160253
716.962	0.0159485
717.040	0.0159670
717.119	0.0159297
717.197	0.0160044
717.275	0.0158736
717.353	0.0159727
717.431	0.0159132
717.509	0.0158786
717.587	0.0158999
717.665	0.0159954
717.744	0.0159892
717.822	0.0158915
717.900	0.0161219
717.978	0.0161591
718.056	0.0161617
718.134	0.0162867
718.212	0.0163307
718.290	0.0162611
718.369	0.0163206
718.447	0.0164001
718.525	0.0163812
718.603	0.0163387
718.681	0.0163309
718.759	0.0162132
718.837	0.0163595
718.915	0.0162244
718.994	0.0164341
719.072	0.0163310
719.150	0.0163268
719.228	0.0162144
719.306	0.0161140
719.384	0.0162347
719.462	0.0162691
719.540	0.0161523
719.619	0.0162640
719.697	0.0162072
719.775	0.0162196
719.853	0.0160841
719.931	0.0161726
720.009	0.0160044
720.087	0.0160653
720.165	0.0160723
720.244	0.0159972
720.322	0.0159136
720.400	0.0158909
720.478	0.0159589
720.556	0.0158606
720.634	0.0157458
720.712	0.0158651
720.790	0.0157725
720.869	0.0158228
720.947	0.0157613
721.025	0.0157788
721.103	0.0158986
721.181	0.0159132
721.259	0.0158014
721.337	0.0159691
721.415	0.0159426
721.494	0.0159789
721.572	0.0161576
721.650	0.0159782
721.728	0.0160712
721.806	0.0161039
721.884	0.0162596
721.962	0.0162502
722.040	0.0161729
722.119	0.0160373
722.197	0.0161677
722.275	0.0162241
722.353	0.0160874
722.431	0.0160928
722.509	0.0159460
722.587	0.0160145
722.665	0.0161262
722.744	0.0161993
722.822	0.0161084
722.900	0.0161889
722.978	0.0161050
723.056	0.0161717
723.134	0.0162257
723.212	0.0163662
723.290	0.0163006
723.369	0.0163856
723.447	0.0164180
723.525	0.0164616
723.603	0.0164017
723.681	0.0164739
723.759	0.0165199
723.837	0.0165476
723.915	0.0165677
723.994	0.0165953
724.072	0.0165585
724.150	0.0165791
724.228	0.0165163
724.306	0.0163852
724.384	0.0164351
724.462	0.0163292
724.540	0.0162009
724.619	0.0163640
724.697	0.0161327
724.775	0.0161685
724.853	0.0161256
724.931	0.0161395
725.009	0.0159704
725.087	0.0161826
725.165	0.0160231
725.244	0.0158987
725.322	0.0158524
725.400	0.0159330
725.478	0.0158587
725.556	0.0158723
725.634	0.0158344
725.712	0.0158934
725.790	0.0159769
725.869	0.0159623
725.947	0.0158672
726.025	0.0159480
726.103	0.0159312
726.181	0.0159875
726.259	0.0159637
726.337	0.0159696
726.415	0.0159387
726.494	0.0161063
726.572	0.0160962
726.650	0.0159761
726.728	0.0160327
726.806	0.0160835
726.884	0.0161703
726.962	0.0161633
727.040	0.0163520
727.119	0.0163039
727.197	0.0163721
727.275	0.0162681
727.353	0.0163570
727.431	0.0163403
727.509	0.0164406
727.587	0.0164973
727.665	0.0163422
727.744	0.0164146
727.822	0.0162685
727.900	0.0163308
727.978	0.0162904
728.056	0.0163752
728.134	0.0163729
728.212	0.0163810
728.290	0.0161832
728.369	0.0162009
728.447	0.0160793
728.525	0.0159792
728.603	0.0161068
728.681	0.0161342
728.759	0.0161165
728.837	0.0159998
728.915	0.0159926
728.994	0.0159619
729.072	0.0160064
729.150	0.0159959
729.228	0.0160629
729.306	0.0159861
729.384	0.0158666
729.462	0.0158671
729.540	0.0159160
729.619	0.0158645
729.697	0.0158321
729.775	0.0158498
729.853	0.0158367
729.931	0.0157714
730.009	0.0158516
730.087	0.0158697
730.165	0.0158525
730.244	0.0160435
730.322	0.0159557
730.400	0.0160612
730.478	0.0159189
730.556	0.0159772
730.634	0.0161311
730.712	0.0160728
730.790	0.0161803
730.869	0.0161716
730.947	0.0162515
731.025	0.0163368
731.103	0.0162150
731.181	0.0163705
731.259	0.0163310
731.337	0.0163011
731.415	0.0164019
731.494	0.0164091
731.572	0.0162254
731.650	0.0161209
731.728	0.0162347
731.806	0.0160275
731.884	0.0161064
731.962	0.0161093
732.040	0.0160117
732.119	0.0159582
732.197	0.0158459
732.275	0.0157746
732.353	0.0159325
732.431	0.0157715
732.509	0.0158845
732.587	0.0158124
732.665	0.0159477
732.744	0.0158712
732.822	0.0160744
732.900	0.0160666
732.978	0.0159936
733.056	0.0160290
733.134	0.0163429
733.212	0.0162663
733.290	0.0162199
733.369	0.0161642
733.447	0.0162006
733.525	0.0162490
733.603	0.0162517
733.681	0.0161075
733.759	0.0160453
733.837	0.0160930
733.915	0.0161895
733.994	0.0161292
734.072	0.0160484
734.150	0.0160201
734.228	0.0159777
734.306	0.0161418
734.384	0.0161738
734.462	0.0160178
734.540	0.0161761
734.619	0.0160624
734.697	0.0161395
734.775	0.0161903
734.853	0.0160670
734.931	0.0161964
735.009	0.0161608
735.087	0.0164266
735.165	0.0163030
735.244	0.0162663
735.322	0.0162254
735.400	0.0162749
735.478	0.0162959
735.556	0.0162910
735.634	0.0162737
735.712	0.0161916
735.790	0.0164577
735.869	0.0164865
735.947	0.0162067
736.025	0.0162917
736.103	0.0162343
736.181	0.0161314
736.259	0.0162906
736.337	0.0162682
736.415	0.0161115
736.494	0.0162428
736.572	0.0163718
736.650	0.0161473
736.728	0.0162656
736.806	0.0162750
736.884	0.0162376
736.962	0.0162872
737.040	0.0163978
737.119	0.0161974
737.197	0.0163769
737.275	0.0163522
737.353	0.0164031
737.431	0.0163704
737.509	0.0160974
737.587	0.0164069
737.665	0.0163446
737.744	0.0163099
737.822	0.0162093
737.900	0.0162636
737.978	0.0161547
738.056	0.0161935
738.134	0.0160564
738.212	0.0159923
738.290	0.0160056
738.369	0.0159669
738.447	0.0159378
738.525	0.0160664
738.603	0.0162524
738.681	0.0160766
738.759	0.0161614
738.837	0.0162864
738.915	0.0162589
738.994	0.0162203
739.072	0.0163864
739.150	0.0163647
739.228	0.0162577
739.306	0.0160764
739.384	0.0160497
739.462	0.0160210
739.540	0.0160900
739.619	0.0160796
739.697	0.0159314
739.775	0.0158693
739.853	0.0159017
739.931	0.0158976
740.009	0.0160333
740.087	0.0161240
740.165	0.0160175
740.244	0.0160834
740.322	0.0163023
740.400	0.0161668
740.478	0.0163934
740.556	0.0162181
740.634	0.0162620
740.712	0.0163214
740.790	0.0163691
740.869	0.0161915
740.947	0.0163203
741.025	0.0162481
741.103	0.0163428
741.181	0.0161514
741.259	0.0162621
741.337	0.0160818
741.415	0.0162104
741.494	0.0159879
741.572	0.0159564
741.650	0.0161250
741.728	0.0161365
741.806	0.0161320
741.884	0.0161082
741.962	0.0161596
742.040	0.0161347
742.119	0.0161716
742.197	0.0160771
742.275	0.0160954
742.353	0.0161475
742.431	0.0161773
742.509	0.0162325
742.587	0.0161557
742.665	0.0163391
742.744	0.0160953
742.822	0.0163668
742.900	0.0163271
742.978	0.0162683
743.056	0.0162411
743.134	0.0162782
743.212	0.0161647
743.290	0.0163322
743.369	0.0162772
743.447	0.0162001
743.525	0.0161145
743.603	0.0161007
743.681	0.0162494
743.759	0.0161641
743.837	0.0161254
743.915	0.0161523
743.994	0.0161432
744.072	0.0161461
744.150	0.0162373
744.228	0.0162177
744.306	0.0160381
744.384	0.0161447
744.462	0.0161317
744.540	0.0161568
744.619	0.0162946
744.697	0.0162915
744.775	0.0161861
744.853	0.0162565
744.931	0.0164067
745.009	0.0162664
745.087	0.0162298
745.165	0.0161867
745.244	0.0161424
745.322	0.0161205
745.400	0.0163240
745.478	0.0162178
745.556	0.0160835
745.634	0.0160301
745.712	0.0160442
745.790	0.0161514
745.869	0.0160406
745.947	0.0159991
746.025	0.0159629
746.103	0.0161436
746.181	0.0160715
746.259	0.0159328
746.337	0.0160178
746.415	0.0159868
746.494	0.0159126
746.572	0.0159539
746.650	0.0160199
746.728	0.0160432
746.806	0.0160332
746.884	0.0161497
746.962	0.0161193
747.040	0.0161364
747.119	0.0161568
747.197	0.0161921
747.275	0.0161771
747.353	0.0161710
747.431	0.0162670
747.509	0.0162682
747.587	0.0162689
747.665	0.0160907
747.744	0.0161362
747.822	0.0162760
747.900	0.0160229
747.978	0.0160474
748.056	0.0161503
748.134	0.0161803
748.212	0.0162521
748.290	0.0161885
748.369	0.0161163
748.447	0.0160905
748.525	0.0162276
748.603	0.0161568
748.681	0.0162886
748.759	0.0162258
748.837	0.0160690
748.915	0.0159741
748.994	0.0159805
749.072	0.0160024
749.150	0.0160002
749.228	0.0161104
749.306	0.0161565
749.384	0.0160181
749.462	0.0160078
749.540	0.0159724
749.619	0.0161272
749.697	0.0160829
749.775	0.0160155
749.853	0.0162298
749.931	0.0161790
750.009	0.0161715
750.087	0.0160654
750.165	0.0160160
750.244	0.0161542
750.322	0.0161477
750.400	0.0161794
750.478	0.0161959
750.556	0.0162003
750.634	0.0161153
750.712	0.0162357
750.790	0.0160977
750.869	0.0161644
750.947	0.0159995
751.025	0.0160662
751.103	0.0160352
751.181	0.0161190
751.259	0.0161874
751.337	0.0160690
751.415	0.0160918
751.494	0.0161359
751.572	0.0160629
751.650	0.0160062
751.728	0.0159936
751.806	0.0161180
751.884	0.0160273
751.962	0.0160561
752.040	0.0160345
752.119	0.0160055
752.197	0.0161786
752.275	0.0161010
752.353	0.0160467
752.431	0.0159685
752.509	0.0159972
752.587	0.0161517
752.665	0.0161009
752.744	0.0160815
752.822	0.0161193
752.900	0.0161803
752.978	0.0160741
753.056	0.0159904
753.134	0.0161090
753.212	0.0161105
753.290	0.0159725
753.369	0.0159743
753.447	0.0158858
753.525	0.0160632
753.603	0.0160078
753.681	0.0159946
753.759	0.0160892
753.837	0.0158421
753.915	0.0158143
753.994	0.0159719
754.072	0.0159974
754.150	0.0159871
754.228	0.0160603
754.306	0.0161910
754.384	0.0161269
754.462	0.0160636
754.540	0.0161462
754.619	0.0162224
754.697	0.0163835
754.775	0.0164069
754.853	0.0163118
754.931	0.0162666
755.009	0.0163530
755.087	0.0163709
755.165	0.0162479
755.244	0.0162844
755.322	0.0162585
755.400	0.0161964
755.478	0.0163259
755.556	0.0162591
755.634	0.0161439
755.712	0.0161777
755.790	0.0162458
755.869	0.0161104
755.947	0.0159658
756.025	0.0159991
756.103	0.0161391
756.181	0.0160505
756.259	0.0160778
756.337	0.0160996
756.415	0.0160278
756.494	0.0160398
756.572	0.0160611
756.650	0.0160890
756.728	0.0161420
756.806	0.0162085
756.884	0.0160884
756.962	0.0159991
757.040	0.0161206
757.119	0.0161700
757.197	0.0161649
757.275	0.0161283
757.353	0.0160756
757.431	0.0160216
757.509	0.0159760
757.587	0.0160297
757.665	0.0159097
757.744	0.0160719
757.822	0.0161166
757.900	0.0160465
757.978	0.0160403
758.056	0.0159470
758.134	0.0160984
758.212	0.0160076
758.290	0.0160329
758.369	0.0160509
758.447	0.0160279
758.525	0.0161364
758.603	0.0161263
758.681	0.0161307
758.759	0.0162347
758.837	0.0161808
758.915	0.0161003
758.994	0.0160297
759.072	0.0162292
759.150	0.0162526
759.228	0.0163200
759.306	0.0162588
759.384	0.0161823
759.462	0.0161636
759.540	0.0162171
759.619	0.0161589
759.697	0.0161008
759.775	0.0161295
759.853	0.0161636
759.931	0.0162588
760.009	0.0160718
760.087	0.0162484
760.165	0.0162500
760.244	0.0161250
760.322	0.0160752
760.400	0.0161137
760.478	0.0160837
760.556	0.0160024
760.634	0.0159733
760.712	0.0158916
760.790	0.0158301
760.869	0.0160309
760.947	0.0159976
761.025	0.0160390
761.103	0.0160670
761.181	0.0160511
761.259	0.0160037
761.337	0.0160737
761.415	0.0161475
761.494	0.0160984
761.572	0.0161217
761.650	0.0161255
761.728	0.0160535
761.806	0.0162519
761.884	0.0161184
761.962	0.0160676
762.040	0.0161993
762.119	0.0161498
762.197	0.0160778
762.275	0.0161092
762.353	0.0161256
762.431	0.0161037
762.509	0.0161208
762.587	0.0161784
762.665	0.0162686
762.744	0.0162221
762.822	0.0161651
762.900	0.0161674
762.978	0.0163045
763.056	0.0161951
763.134	0.0162849
763.212	0.0163494
763.290	0.0162393
763.369	0.0162055
763.447	0.0161754
763.525	0.0162505
763.603	0.0161342
763.681	0.0160875
763.759	0.0160886
763.837	0.0161235
763.915	0.0161628
763.994	0.0161562
764.072	0.0160944
764.150	0.0160369
764.228	0.0159492
764.306	0.0159970
764.384	0.0160672
764.462	0.0162409
764.540	0.0161623
764.619	0.0161101
764.697	0.0162818
764.775	0.0161584
764.853	0.0161439
764.931	0.0161653
765.009	0.0161269
765.087	0.0161629
765.165	0.0161327
765.244	0.0161816
765.322	0.0160638
765.400	0.0161160
765.478	0.0161919
765.556	0.0160273
765.634	0.0160681
765.712	0.0161194
765.790	0.0160641
765.869	0.0160117
765.947	0.0160564
766.025	0.0159028
766.103	0.0159126
766.181	0.0160255
766.259	0.0160500
766.337	0.0160601
766.415	0.0159802
766.494	0.0159830
766.572	0.0159853
766.650	0.0160469
766.728	0.0159987
766.806	0.0159601
766.884	0.0159729
766.962	0.0160583
767.040	0.0160546
767.119	0.0159554
767.197	0.0160643
767.275	0.0159669
767.353	0.0160774
767.431	0.0163058
767.509	0.0161253
767.587	0.0161469
767.665	0.0161798
767.744	0.0161985
767.822	0.0161046
767.900	0.0160719
767.978	0.0162431
768.056	0.0161372
768.134	0.0159752
768.212	0.0161633
768.290	0.0161882
768.369	0.0162040
768.447	0.0161656
768.525	0.0160224
768.603	0.0160749
768.681	0.0162149
768.759	0.0160793
768.837	0.0162308
768.915	0.0162210
768.994	0.0160380
769.072	0.0162513
769.150	0.0161158
769.228	0.0161362
769.306	0.0161918
769.384	0.0162458
769.462	0.0160571
769.540	0.0162022
769.619	0.0161797
769.697	0.0161623
769.775	0.0161456
769.853	0.0160754
769.931	0.0160729
770.009	0.0161179
770.087	0.0161765
770.165	0.0160360
770.244	0.0161063
770.322	0.0161094
770.400	0.0160770
770.478	0.0161132
770.556	0.0160954
770.634	0.0161892
770.712	0.0160773
770.790	0.0161092
770.869	0.0161615
770.947	0.0162247
771.025	0.0160643
771.103	0.0162130
771.181	0.0162180
771.259	0.0161093
771.337	0.0160149
771.415	0.0161082
771.494	0.0160938
771.572	0.0162187
771.650	0.0161488
771.728	0.0160690
771.806	0.0161301
771.884	0.0160480
771.962	0.0162138
772.040	0.0160762
772.119	0.0162116
772.197	0.0161754
772.275	0.0161704
772.353	0.0161343
772.431	0.0158047
772.509	0.0160561
772.587	0.0160391
772.665	0.0159585
772.744	0.0160879
772.822	0.0160217
772.900	0.0160881
772.978	0.0160557
773.056	0.0160751
773.134	0.0160430
773.212	0.0160845
773.290	0.0161715
773.369	0.0160612
773.447	0.0160802
773.525	0.0161198
773.603	0.0161370
773.681	0.0161701
773.759	0.0160830
773.837	0.0162881
773.915	0.0159754
773.994	0.0161790
774.072	0.0163390
774.150	0.0162149
774.228	0.0160755
774.306	0.0162526
774.384	0.0162215
774.462	0.0161140
774.540	0.0161362
774.619	0.0162923
774.697	0.0163583
774.775	0.0161198
774.853	0.0161514
774.931	0.0160953
775.009	0.0160802
775.087	0.0161973
775.165	0.0160345
775.244	0.0160291
775.322	0.0160603
775.400	0.0161401
775.478	0.0161366
775.556	0.0160852
775.634	0.0160657
775.712	0.0159732
775.790	0.0161127
775.869	0.0160030
775.947	0.0160500
776.025	0.0159882
776.103	0.0160843
776.181	0.0161372
776.259	0.0161027
776.337	0.0160255
776.415	0.0160283
776.494	0.0161050
776.572	0.0161452
776.650	0.0161916
776.728	0.0161758
776.806	0.0161279
776.884	0.0162025
776.962	0.0162637
777.040	0.0161368
777.119	0.0161671
777.197	0.0161628
777.275	0.0160761
777.353	0.0160507
777.431	0.0160141
777.509	0.0161862
777.587	0.0160336
777.665	0.0161130
777.744	0.0161401
777.822	0.0161411
777.900	0.0162962
777.978	0.0161665
778.056	0.0161297
778.134	0.0161215
778.212	0.0162347
778.290	0.0161095
778.369	0.0160017
778.447	0.0161387
778.525	0.0161678
778.603	0.0161256
778.681	0.0161034
778.759	0.0162645
778.837	0.0163098
778.915	0.0161629
778.994	0.0161429
779.072	0.0162542
779.150	0.0161698
779.228	0.0162501
779.306	0.0161522
779.384	0.0161141
779.462	0.0162402
779.540	0.0161034
779.619	0.0161739
779.697	0.0161925
779.775	0.0162310
779.853	0.0159481
779.931	0.0161050
780.009	0.0161325
780.087	0.0162006
780.165	0.0160712
780.244	0.0161167
780.322	0.0160766
780.400	0.0161089
780.478	0.0160314
780.556	0.0162622
780.634	0.0161569
780.712	0.0162408
780.790	0.0162524
780.869	0.0162350
780.947	0.0161980
781.025	0.0161685
781.103	0.0163223
781.181	0.0161480
781.259	0.0161771
781.337	0.0161516
781.415	0.0161847
781.494	0.0161967
781.572	0.0161997
781.650	0.0161769
781.728	0.0162092
781.806	0.0162100
781.884	0.0162041
781.962	0.0161042
782.040	0.0161329
782.119	0.0160625
782.197	0.0160889
782.275	0.0160913
782.353	0.0160361
782.431	0.0159928
782.509	0.0160224
782.587	0.0160051
782.665	0.0160977
782.744	0.0160580
782.822	0.0160365
782.900	0.0160808
782.978	0.0160234
783.056	0.0162162
783.134	0.0162553
783.212	0.0161525
783.290	0.0160902
783.369	0.0161995
783.447	0.0161324
783.525	0.0161369
783.603	0.0162702
783.681	0.0160513
783.759	0.0159983
783.837	0.0160907
783.915	0.0161472
783.994	0.0162630
784.072	0.0160662
784.150	0.0162506
784.228	0.0160709
784.306	0.0162424
784.384	0.0161643
784.462	0.0159350
784.540	0.0161500
784.619	0.0160658
784.697	0.0159769
784.775	0.0159564
784.853	0.0159712
784.931	0.0161910
785.009	0.0160712
785.087	0.0160340
785.165	0.0161098
785.244	0.0161279
785.322	0.0161355
785.400	0.0161164
785.478	0.0161308
785.556	0.0162540
785.634	0.0163219
785.712	0.0162736
785.790	0.0163023
785.869	0.0162453
785.947	0.0161433
786.025	0.0162379
786.103	0.0162627
786.181	0.0162038
786.259	0.0162821
786.337	0.0163302
786.415	0.0161109
786.494	0.0160167
786.572	0.0160333
786.650	0.0160114
786.728	0.0159972
786.806	0.0160696
786.884	0.0160760
786.962	0.0160442
787.040	0.0161214
787.119	0.0162641
787.197	0.0162285
787.275	0.0162244
787.353	0.0163675
787.431	0.0162593
787.509	0.0163991
787.587	0.0163773
787.665	0.0162391
787.744	0.0162470
787.822	0.0163060
787.900	0.0164906
787.978	0.0163466
788.056	0.0162994
788.134	0.0162995
788.212	0.0162778
788.290	0.0161294
788.369	0.0162188
788.447	0.0161324
788.525	0.0160131
788.603	0.0161225
788.681	0.0161172
788.759	0.0159740
788.837	0.0160209
788.915	0.0161176
788.994	0.0159254
789.072	0.0160888
789.150	0.0160761
789.228	0.0160524
789.306	0.0160907
789.384	0.0160295
789.462	0.0159651
789.540	0.0159950
789.619	0.0160133
789.697	0.0160109
789.775	0.0160216
789.853	0.0159803
789.931	0.0159370
790.009	0.0159859
790.087	0.0159106
790.165	0.0159573
790.244	0.0160256
790.322	0.0160413
790.400	0.0161604
790.478	0.0161752
790.556	0.0160905
790.634	0.0160366
790.712	0.0161440
790.790	0.0161020
790.869	0.0162207
790.947	0.0162270
791.025	0.0162967
791.103	0.0163298
791.181	0.0162733
791.259	0.0162728
791.337	0.0163051
791.415	0.0162356
791.494	0.0163890
791.572	0.0163809
791.650	0.0163464
791.728	0.0162378
791.806	0.0163204
791.884	0.0163599
791.962	0.0163993
792.040	0.0164113
792.119	0.0162145
792.197	0.0163116
792.275	0.0163218
792.353	0.0163484
792.431	0.0162365
792.509	0.0162597
792.587	0.0161110
792.665	0.0161983
792.744	0.0161533
792.822	0.0158645
792.900	0.0160457
792.978	0.0158591
793.056	0.0156806
793.134	0.0159048
793.212	0.0158916
793.290	0.0158813
793.369	0.0158449
793.447	0.0159691
793.525	0.0159798
793.603	0.0158532
793.681	0.0159037
793.759	0.0158364
793.837	0.0161089
793.915	0.0158765
793.994	0.0159570
794.072	0.0158452
794.150	0.0159229
794.228	0.0161151
794.306	0.0159991
794.384	0.0159823
794.462	0.0160400
794.540	0.0161407
794.619	0.0162003
794.697	0.0159831
794.775	0.0161052
794.853	0.0161466
794.931	0.0161379
795.009	0.0162558
795.087	0.0162231
795.165	0.0162889
795.244	0.0162738
795.322	0.0163886
795.400	0.0165308
795.478	0.0162951
795.556	0.0162672
795.634	0.0163316
795.712	0.0163102
795.790	0.0162804
795.869	0.0163908
795.947	0.0163417
796.025	0.0163132
796.103	0.0162612
796.181	0.0163064
796.259	0.0161526
796.337	0.0163102
796.415	0.0163248
796.494	0.0164384
796.572	0.0163100
796.650	0.0162444
796.728	0.0161932
796.806	0.0161340
796.884	0.0162296
796.962	0.0164621
797.040	0.0161451
797.119	0.0161703
797.197	0.0159534
797.275	0.0160797
797.353	0.0160004
797.431	0.0159102
797.509	0.0160149
797.587	0.0160187
797.665	0.0158530
797.744	0.0159092
797.822	0.0158434
797.900	0.0158329
797.978	0.0159905
798.056	0.0159467
798.134	0.0158257
798.212	0.0159611
798.290	0.0160091
798.369	0.0160933
798.447	0.0160798
798.525	0.0161082
798.603	0.0161623
798.681	0.0160709
798.759	0.0161107
798.837	0.0160854
798.915	0.0162000
798.994	0.0161018
799.072	0.0161819
799.150	0.0162568
799.228	0.0161988
799.306	0.0160632
799.384	0.0161481
799.462	0.0161369
799.540	0.0161710
799.619	0.0162424
799.697	0.0161844
799.775	0.0161073
799.853	0.0161407
799.931	0.0160982
800.009	0.0161864
800.087	0.0162075
800.165	0.0163136
800.244	0.0160725
800.322	0.0161716
800.400	0.0161131
800.478	0.0161554
800.556	0.0161553
800.634	0.0161228
800.712	0.0162134
800.790	0.0162317
800.869	0.0161788
800.947	0.0161630
801.025	0.0160959
801.103	0.0161028
801.181	0.0161923
801.259	0.0161903
801.337	0.0162841
801.415	0.0161485
801.494	0.0160970
801.572	0.0161844
801.650	0.0161423
801.728	0.0160672
801.806	0.0162022
801.884	0.0161306
801.962	0.0161499
802.040	0.0161344
802.119	0.0161887
802.197	0.0160810
802.275	0.0160155
802.353	0.0158672
802.431	0.0160699
802.509	0.0161689
802.587	0.0160692
802.665	0.0159818
802.744	0.0160886
802.822	0.0160665
802.900	0.0159130
802.978	0.0161623
803.056	0.0161886
803.134	0.0161206
803.212	0.0162928
803.290	0.0161765
803.369	0.0161789
803.447	0.0161702
803.525	0.0161326
803.603	0.0161700
803.681	0.0162154
803.759	0.0161576
803.837	0.0161945
803.915	0.0161967
803.994	0.0160519
804.072	0.0161826
804.150	0.0160809
804.228	0.0161391
804.306	0.0160904
804.384	0.0161160
804.462	0.0161322
804.540	0.0161549
804.619	0.0160967
804.697	0.0162019
804.775	0.0160647
804.853	0.0160327
804.931	0.0162941
805.009	0.0163029
805.087	0.0161057
805.165	0.0161234
805.244	0.0159702
805.322	0.0161195
805.400	0.0160720
805.478	0.0161900
805.556	0.0161938
805.634	0.0161028
805.712	0.0160522
805.790	0.0161042
805.869	0.0161314
805.947	0.0161154
806.025	0.0161605
806.103	0.0162607
806.181	0.0161696
806.259	0.0161294
806.337	0.0162094
806.415	0.0162779
806.494	0.0162852
806.572	0.0161981
806.650	0.0161202
806.728	0.0162335
806.806	0.0161266
806.884	0.0161568
806.962	0.0161824
807.040	0.0160838
807.119	0.0161926
807.197	0.0161803
807.275	0.0161289
807.353	0.0161193
807.431	0.0162094
807.509	0.0161890
807.587	0.0161749
807.665	0.0163273
807.744	0.0162815
807.822	0.0162093
807.900	0.0162638
807.978	0.0161687
808.056	0.0163202
808.134	0.0163347
808.212	0.0162172
808.290	0.0161311
808.369	0.0162178
808.447	0.0162041
808.525	0.0162664
808.603	0.0162582
808.681	0.0162411
808.759	0.0161655
808.837	0.0161588
808.915	0.0162258
808.994	0.0163079
809.072	0.0163111
809.150	0.0163489
809.228	0.0161784
809.306	0.0162804
809.384	0.0163654
809.462	0.0160387
809.540	0.0161625
809.619	0.0162174
809.697	0.0161980
809.775	0.0161465
809.853	0.0162291
809.931	0.0161265
810.009	0.0161904
810.087	0.0162846
810.165	0.0160818
810.244	0.0161026
810.322	0.0161880
810.400	0.0161160
810.478	0.0159539
810.556	0.0162208
810.634	0.0161671
810.712	0.0162411
810.790	0.0159676
810.869	0.0159546
810.947	0.0160806
811.025	0.0159907
811.103	0.0161782
811.181	0.0159405
811.259	0.0160207
811.337	0.0160738
811.415	0.0159544
811.494	0.0160610
811.572	0.0160282
811.650	0.0161091
811.728	0.0162027
811.806	0.0160455
811.884	0.0161040
811.962	0.0161212
812.040	0.0161559
812.119	0.0161768
812.197	0.0161921
812.275	0.0162190
812.353	0.0161877
812.431	0.0161631
812.509	0.0164111
812.587	0.0162983
812.665	0.0163985
812.744	0.0164779
812.822	0.0162568
812.900	0.0164087
812.978	0.0164178
813.056	0.0164759
813.134	0.0163788
813.212	0.0164053
813.290	0.0163987
813.369	0.0163327
813.447	0.0163801
813.525	0.0163789
813.603	0.0163282
813.681	0.0162390
813.759	0.0162345
813.837	0.0163486
813.915	0.0161832
813.994	0.0161545
814.072	0.0162670
814.150	0.0161922
814.228	0.0161736
814.306	0.0164434
814.384	0.0161792
814.462	0.0160887
814.540	0.0161954
814.619	0.0163604
814.697	0.0161299
814.775	0.0161716
814.853	0.0160685
814.931	0.0162733
815.009	0.0162073
815.087	0.0160324
815.165	0.0161938
815.244	0.0160822
815.322	0.0160605
815.400	0.0160790
815.478	0.0160028
815.556	0.0161070
815.634	0.0160977
815.712	0.0162742
815.790	0.0161342
815.869	0.0161258
815.947	0.0161195
816.025	0.0161557
816.103	0.0163656
816.181	0.0162103
816.259	0.0163293
816.337	0.0162751
816.415	0.0163602
816.494	0.0162624
816.572	0.0162065
816.650	0.0162672
816.728	0.0162124
816.806	0.0161557
816.884	0.0162213
816.962	0.0161987
817.040	0.0163263
817.119	0.0161100
817.197	0.0161575
817.275	0.0161124
817.353	0.0162601
817.431	0.0162138
817.509	0.0162621
817.587	0.0161040
817.665	0.0162096
817.744	0.0162453
817.822	0.0161543
817.900	0.0162718
817.978	0.0161956
818.056	0.0161266
818.134	0.0161958
818.212	0.0162235
818.290	0.0160791
818.369	0.0161486
818.447	0.0160693
818.525	0.0159914
818.603	0.0161023
818.681	0.0160736
818.759	0.0159809
818.837	0.0158349
818.915	0.0159062
818.994	0.0160368
819.072	0.0160986
819.150	0.0160387
819.228	0.0158514
819.306	0.0158722
819.384	0.0160627
819.462	0.0159003
819.540	0.0158227
819.619	0.0160828
819.697	0.0161117
819.775	0.0160799
819.853	0.0161288
819.931	0.0161282
820.009	0.0160607
820.087	0.0161794
820.165	0.0162445
820.244	0.0161761
820.322	0.0162231
820.400	0.0163732
820.478	0.0162551
820.556	0.0162467
820.634	0.0162480
820.712	0.0163757
820.790	0.0164263
820.869	0.0164885
820.947	0.0164166
821.025	0.0162774
821.103	0.0162586
821.181	0.0163844
821.259	0.0165141
821.337	0.0162790
821.415	0.0163966
821.494	0.0163703
821.572	0.0163694
821.650	0.0162991
821.728	0.0164066
821.806	0.0163454
821.884	0.0162766
821.962	0.0162220
822.040	0.0162836
822.119	0.0162286
822.197	0.0162335
822.275	0.0161165
822.353	0.0162562
822.431	0.0161890
822.509	0.0160790
822.587	0.0160423
822.665	0.0161504
822.744	0.0160836
822.822	0.0159985
822.900	0.0160724
822.978	0.0161170
823.056	0.0158563
823.134	0.0159734
823.212	0.0160581
823.290	0.0159627
823.369	0.0159798
823.447	0.0159447
823.525	0.0159626
823.603	0.0159460
823.681	0.0160983
823.759	0.0161279
823.837	0.0160332
823.915	0.0159791
823.994	0.0161017
824.072	0.0161864
824.150	0.0160963
824.228	0.0160615
824.306	0.0161469
824.384	0.0161689
824.462	0.0161293
824.540	0.0161588
824.619	0.0162093
824.697	0.0160777
824.775	0.0160594
824.853	0.0161556
824.931	0.0161906
825.009	0.0161758
825.087	0.0162457
825.165	0.0160788
825.244	0.0161438
825.322	0.0162267
825.400	0.0160788
825.478	0.0160724
825.556	0.0162414
825.634	0.0161405
825.712	0.0161806
825.790	0.0161299
825.869	0.0161212
825.947	0.0160790
826.025	0.0160490
826.103	0.0161134
826.181	0.0162197
826.259	0.0160694
826.337	0.0161363
826.415	0.0161000
826.494	0.0161729
826.572	0.0162011
826.650	0.0160707
826.728	0.0161842
826.806	0.0162521
826.884	0.0160647
826.962	0.0162128
827.040	0.0162852
827.119	0.0161021
827.197	0.0162861
827.275	0.0162598
827.353	0.0162284
827.431	0.0161618
827.509	0.0160854
827.587	0.0160854
827.665	0.0161301
827.744	0.0161478
827.822	0.0162302
827.900	0.0160718
827.978	0.0160464
828.056	0.0160432
828.134	0.0161224
828.212	0.0160560
828.290	0.0161338
828.369	0.0159514
828.447	0.0159834
828.525	0.0159074
828.603	0.0160695
828.681	0.0160493
828.759	0.0161756
828.837	0.0160348
828.915	0.0160631
828.994	0.0160485
829.072	0.0161160
829.150	0.0161156
829.228	0.0162200
829.306	0.0161342
829.384	0.0160835
829.462	0.0161504
829.540	0.0160886
829.619	0.0160799
829.697	0.0162441
829.775	0.0160970
829.853	0.0161929
829.931	0.0162288
830.009	0.0160489
830.087	0.0161429
830.165	0.0161670
830.244	0.0162053
830.322	0.0162537
830.400	0.0161311
830.478	0.0161998
830.556	0.0161680
830.634	0.0162928
830.712	0.0161502
830.790	0.0162773
830.869	0.0161398
830.947	0.0161907
831.025	0.0162982
831.103	0.0162983
831.181	0.0163087
831.259	0.0163257
831.337	0.0161648
831.415	0.0161925
831.494	0.0162435
831.572	0.0161674
831.650	0.0161456
831.728	0.0162132
831.806	0.0161257
831.884	0.0161205
831.962	0.0162791
832.040	0.0160715
832.119	0.0159838
832.197	0.0161507
832.275	0.0159995
832.353	0.0160283
832.431	0.0160902
832.509	0.0162041
832.587	0.0161414
832.665	0.0159094
832.744	0.0160773
832.822	0.0160909
832.900	0.0160885
832.978	0.0161053
833.056	0.0160754
833.134	0.0160765
833.212	0.0160749
833.290	0.0161049
833.369	0.0162016
833.447	0.0161636
833.525	0.0161349
833.603	0.0160263
833.681	0.0161682
833.759	0.0161191
833.837	0.0159502
833.915	0.0160682
833.994	0.0161182
834.072	0.0160479
834.150	0.0159763
834.228	0.0159836
834.306	0.0160077
834.384	0.0159921
834.462	0.0161033
834.540	0.0161049
834.619	0.0161460
834.697	0.0160783
834.775	0.0160245
834.853	0.0161310
834.931	0.0162286
835.009	0.0161597
835.087	0.0162682
835.165	0.0161602
835.244	0.0162151
835.322	0.0163035
835.400	0.0162421
835.478	0.0162775
835.556	0.0163050
835.634	0.0163113
835.712	0.0162634
835.790	0.0163195
835.869	0.0163042
835.947	0.0163535
836.025	0.0161593
836.103	0.0162082
836.181	0.0161938
836.259	0.0163869
836.337	0.0162045
836.415	0.0162467
836.494	0.0163124
836.572	0.0161649
836.650	0.0162511
836.728	0.0162193
836.806	0.0162385
836.884	0.0161909
836.962	0.0162217
837.040	0.0162457
837.119	0.0163800
837.197	0.0160989
837.275	0.0160918
837.353	0.0162009
837.431	0.0162596
837.509	0.0162474
837.587	0.0160903
837.665	0.0162671
837.744	0.0162550
837.822	0.0163127
837.900	0.0162520
837.978	0.0161872
838.056	0.0158954
838.134	0.0161507
838.212	0.0161450
838.290	0.0160435
838.369	0.0161505
838.447	0.0160721
838.525	0.0160798
838.603	0.0162753
838.681	0.0161893
838.759	0.0161020
838.837	0.0160011
838.915	0.0160539
838.994	0.0160581
839.072	0.0160164
839.150	0.0161766
839.228	0.0160163
839.306	0.0159257
839.384	0.0160734
839.462	0.0159947
839.540	0.0158723
839.619	0.0160847
839.697	0.0161035
839.775	0.0160270
839.853	0.0162151
839.931	0.0161823
840.009	0.0161288
840.087	0.0160978
840.165	0.0162524
840.244	0.0161612
840.322	0.0161748
840.400	0.0161670
840.478	0.0161118
840.556	0.0160460
840.634	0.0160447
840.712	0.0162682
840.790	0.0161143
840.869	0.0161636
840.947	0.0162508
841.025	0.0160385
841.103	0.0161774
841.181	0.0162284
841.259	0.0162911
841.337	0.0161417
841.415	0.0160130
841.494	0.0162257
841.572	0.0163049
841.650	0.0162996
841.728	0.0162066
841.806	0.0161428
841.884	0.0163139
841.962	0.0163235
842.040	0.0161739
842.119	0.0162761
842.197	0.0161893
842.275	0.0160765
842.353	0.0161454
842.431	0.0161477
842.509	0.0162213
842.587	0.0161546
842.665	0.0161852
842.744	0.0163361
842.822	0.0162014
842.900	0.0163519
842.978	0.0162334
843.056	0.0160869
843.134	0.0162085
843.212	0.0162447
843.290	0.0161075
843.369	0.0161410
843.447	0.0161822
843.525	0.0163018
843.603	0.0161945
843.681	0.0161349
843.759	0.0161204
843.837	0.0162377
843.915	0.0161509
843.994	0.0162526
844.072	0.0161887
844.150	0.0161462
844.228	0.0163138
844.306	0.0160819
844.384	0.0159972
844.462	0.0162408
844.540	0.0163513
844.619	0.0161184
844.697	0.0160661
844.775	0.0161017
844.853	0.0162036
844.931	0.0161716
845.009	0.0161845
845.087	0.0162676
845.165	0.0161956
845.244	0.0163190
845.322	0.0162576
845.400	0.0162259
845.478	0.0162341
845.556	0.0161816
845.634	0.0162974
845.712	0.0161407
845.790	0.0161246
845.869	0.0161719
845.947	0.0161765
846.025	0.0161797
846.103	0.0162799
846.181	0.0160653
846.259	0.0160172
846.337	0.0160698
846.415	0.0160956
846.494	0.0160072
846.572	0.0160360
846.650	0.0159482
846.728	0.0160824
846.806	0.0162259
846.884	0.0160271
846.962	0.0160340
847.040	0.0160892
847.119	0.0159902
847.197	0.0159946
847.275	0.0161111
847.353	0.0161808
847.431	0.0161385
847.509	0.0161086
847.587	0.0160126
847.665	0.0160374
847.744	0.0160288
847.822	0.0160497
847.900	0.0160550
847.978	0.0160603
848.056	0.0160305
848.134	0.0160942
848.212	0.0161359
848.290	0.0161112
848.369	0.0161225
848.447	0.0161329
848.525	0.0161681
848.603	0.0160317
848.681	0.0161932
848.759	0.0161017
848.837	0.0161022
848.915	0.0161653
848.994	0.0161683
849.072	0.0160837
849.150	0.0161854
849.228	0.0161267
849.306	0.0163135
849.384	0.0160987
849.462	0.0162087
849.540	0.0162657
849.619	0.0161977
849.697	0.0162817
849.775	0.0162685
849.853	0.0161805
849.931	0.0162471
850.009	0.0162673
850.087	0.0161688
850.165	0.0161594
850.244	0.0162304
850.322	0.0162301
850.400	0.0161543
850.478	0.0161453
850.556	0.0161337
850.634	0.0160819
850.712	0.0160671
850.790	0.0161082
850.869	0.0159216
850.947	0.0159644
851.025	0.0159391
851.103	0.0159664
851.181	0.0159915
851.259	0.0159959
851.337	0.0159724
851.415	0.0159505
851.494	0.0159685
851.572	0.0159292
851.650	0.0160160
851.728	0.0158821
851.806	0.0162412
851.884	0.0160464
851.962	0.0159693
852.040	0.0160709
852.119	0.0160962
852.197	0.0160400
852.275	0.0160506
852.353	0.0160993
852.431	0.0160988
852.509	0.0160442
852.587	0.0160679
852.665	0.0160892
852.744	0.0161184
852.822	0.0160659
852.900	0.0160439
852.978	0.0160918
853.056	0.0161609
853.134	0.0161491
853.212	0.0160954
853.290	0.0159632
853.369	0.0160471
853.447	0.0161388
853.525	0.0161507
853.603	0.0160783
853.681	0.0161288
853.759	0.0162817
853.837	0.0161228
853.915	0.0162962
853.994	0.0162049
854.072	0.0160754
854.150	0.0160085
854.228	0.0161646
854.306	0.0162264
854.384	0.0160718
854.462	0.0160238
854.540	0.0161839
854.619	0.0161661
854.697	0.0160915
854.775	0.0160032
854.853	0.0161084
854.931	0.0160131
855.009	0.0161691
855.087	0.0160139
855.165	0.0159721
855.244	0.0159674
855.322	0.0159979
855.400	0.0159958
855.478	0.0158901
855.556	0.0159371
855.634	0.0160460
855.712	0.0159876
855.790	0.0158823
855.869	0.0159752
855.947	0.0160012
856.025	0.0160744
856.103	0.0160150
856.181	0.0159410
856.259	0.0159907
856.337	0.0160386
856.415	0.0161664
856.494	0.0159727
856.572	0.0160575
856.650	0.0161597
856.728	0.0160822
856.806	0.0160342
856.884	0.0160154
856.962	0.0161975
857.040	0.0160461
857.119	0.0160660
857.197	0.0161416
857.275	0.0160762
857.353	0.0161619
857.431	0.0161856
857.509	0.0161338
857.587	0.0163497
857.665	0.0161715
857.744	0.0161990
857.822	0.0161910
857.900	0.0161546
857.978	0.0162651
858.056	0.0162808
858.134	0.0164089
858.212	0.0161906
858.290	0.0161239
858.369	0.0162143
858.447	0.0161523
858.525	0.0160418
858.603	0.0161493
858.681	0.0162169
858.759	0.0162393
858.837	0.0160296
858.915	0.0161156
858.994	0.0160834
859.072	0.0161378
859.150	0.0161286
859.228	0.0161967
859.306	0.0161464
859.384	0.0160409
859.462	0.0159584
859.540	0.0160687
859.619	0.0161539
859.697	0.0160979
859.775	0.0160780
859.853	0.0159855
859.931	0.0159085
860.009	0.0159258
860.087	0.0160362
860.165	0.0160589
860.244	0.0160478
860.322	0.0159958
860.400	0.0160438
860.478	0.0160417
860.556	0.0159523
860.634	0.0159668
860.712	0.0161037
860.790	0.0159644
860.869	0.0159770
860.947	0.0159080
861.025	0.0157922
861.103	0.0162241
861.181	0.0159919
861.259	0.0160448
861.337	0.0161060
861.415	0.0159862
861.494	0.0161125
861.572	0.0161108
861.650	0.0160822
861.728	0.0160113
861.806	0.0159623
861.884	0.0161406
861.962	0.0161980
862.040	0.0162037
862.119	0.0161913
862.197	0.0161817
862.275	0.0162254
862.353	0.0160464
862.431	0.0161530
862.509	0.0162424
862.587	0.0161236
862.665	0.0161107
862.744	0.0161526
862.822	0.0160490
862.900	0.0160490
862.978	0.0162701
863.056	0.0161800
863.134	0.0162255
863.212	0.0161864
863.290	0.0162566
863.369	0.0161724
863.447	0.0162392
863.525	0.0161970
863.603	0.0163273
863.681	0.0162756
863.759	0.0161124
863.837	0.0161866
863.915	0.0162305
863.994	0.0160529
864.072	0.0161868
864.150	0.0161478
864.228	0.0159869
864.306	0.0160654
864.384	0.0160969
864.462	0.0160576
864.540	0.0160023
864.619	0.0160352
864.697	0.0160445
864.775	0.0160833
864.853	0.0160394
864.931	0.0159442
865.009	0.0158842
865.087	0.0160550
865.165	0.0160614
865.244	0.0160587
865.322	0.0160983
865.400	0.0160174
865.478	0.0160795
865.556	0.0160810
865.634	0.0160359
865.712	0.0160974
865.790	0.0161196
865.869	0.0159915
865.947	0.0162337
866.025	0.0161832
866.103	0.0160185
866.181	0.0158994
866.259	0.0160553
866.337	0.0159616
866.415	0.0161843
866.494	0.0161455
866.572	0.0160779
866.650	0.0161015
866.728	0.0161591
866.806	0.0161713
866.884	0.0162106
866.962	0.0160825
867.040	0.0162325
867.119	0.0161893
867.197	0.0162286
867.275	0.0162841
867.353	0.0161745
867.431	0.0162918
867.509	0.0161949
867.587	0.0160919
867.665	0.0161081
867.744	0.0161518
867.822	0.0162933
867.900	0.0162377
867.978	0.0161093
868.056	0.0160029
868.134	0.0160859
868.212	0.0160361
868.290	0.0160630
868.369	0.0161889
868.447	0.0160535
868.525	0.0160167
868.603	0.0159728
868.681	0.0161270
868.759	0.0159753
868.837	0.0161268
868.915	0.0159473
868.994	0.0160522
869.072	0.0159906
869.150	0.0160112
869.228	0.0158975
869.306	0.0160167
869.384	0.0159867
869.462	0.0160018
869.540	0.0159602
869.619	0.0160344
869.697	0.0160225
869.775	0.0160407
869.853	0.0160963
869.931	0.0160370
870.009	0.0160392
870.087	0.0160832
870.165	0.0160951
870.244	0.0159947
870.322	0.0160086
870.400	0.0160370
870.478	0.0160438
870.556	0.0160152
870.634	0.0160960
870.712	0.0161423
870.790	0.0160181
870.869	0.0161074
870.947	0.0161963
871.025	0.0161645
871.103	0.0160572
871.181	0.0159819
871.259	0.0162019
871.337	0.0162713
871.415	0.0161411
871.494	0.0160732
871.572	0.0161712
871.650	0.0161671
871.728	0.0161329
871.806	0.0161272
871.884	0.0161658
871.962	0.0162160
872.040	0.0162589
872.119	0.0161926
872.197	0.0161407
872.275	0.0161293
872.353	0.0161365
872.431	0.0160014
872.509	0.0160570
872.587	0.0161588
872.665	0.0161183
872.744	0.0159869
872.822	0.0160343
872.900	0.0159515
872.978	0.0159946
873.056	0.0160118
873.134	0.0159282
873.212	0.0159298
873.290	0.0159032
873.369	0.0159599
873.447	0.0159594
873.525	0.0160069
873.603	0.0158921
873.681	0.0158729
873.759	0.0160291
873.837	0.0158827
873.915	0.0158800
873.994	0.0159238
874.072	0.0159870
874.150	0.0160071
874.228	0.0160529
874.306	0.0160206
874.384	0.0159798
874.462	0.0160948
874.540	0.0161699
874.619	0.0161222
874.697	0.0161523
874.775	0.0160947
874.853	0.0160340
874.931	0.0163235
875.009	0.0162325
875.087	0.0163226
875.165	0.0162568
875.244	0.0162256
875.322	0.0162421
875.400	0.0161980
875.478	0.0162601
875.556	0.0162347
875.634	0.0162026
875.712	0.0160503
875.790	0.0160803
875.869	0.0161802
875.947	0.0161692
876.025	0.0161515
876.103	0.0161349
876.181	0.0160947
876.259	0.0161292
876.337	0.0161181
876.415	0.0161515
876.494	0.0161083
876.572	0.0162048
876.650	0.0161113
876.728	0.0160287
876.806	0.0161214
876.884	0.0160925
876.962	0.0160073
877.040	0.0161327
877.119	0.0161122
877.197	0.0158569
877.275	0.0159435
877.353	0.0160073
877.431	0.0158381
877.509	0.0159492
877.587	0.0159801
877.665	0.0159983
877.744	0.0159583
877.822	0.0160216
877.900	0.0159249
877.978	0.0160672
878.056	0.0160957
878.134	0.0159562
878.212	0.0160852
878.290	0.0161402
878.369	0.0162061
878.447	0.0162875
878.525	0.0163728
878.603	0.0162673
878.681	0.0162532
878.759	0.0163445
878.837	0.0164631
878.915	0.0164863
878.994	0.0164391
879.072	0.0163253
879.150	0.0163173
879.228	0.0163022
879.306	0.0163503
879.384	0.0162876
879.462	0.0163409
879.540	0.0162048
879.619	0.0163225
879.697	0.0162773
879.775	0.0162465
879.853	0.0162181
879.931	0.0161832
880.009	0.0161972
880.087	0.0161642
880.165	0.0161378
880.244	0.0161038
880.322	0.0160484
880.400	0.0160862
880.478	0.0160615
880.556	0.0160903
880.634	0.0160006
880.712	0.0159521
880.790	0.0159708
880.869	0.0161800
880.947	0.0159313
881.025	0.0160905
881.103	0.0161220
881.181	0.0160193
881.259	0.0159486
881.337	0.0159857
881.415	0.0158752
881.494	0.0161544
881.572	0.0163408
881.650	0.0161363
881.728	0.0158399
881.806	0.0161370
881.884	0.0160807
881.962	0.0160632
882.040	0.0162817
882.119	0.0162627
882.197	0.0161423
882.275	0.0163338
882.353	0.0162366
882.431	0.0162019
882.509	0.0163556
882.587	0.0163661
882.665	0.0164417
882.744	0.0162630
882.822	0.0162969
882.900	0.0163932
882.978	0.0163812
883.056	0.0163457
883.134	0.0162769
883.212	0.0163386
883.290	0.0162354
883.369	0.0161674
883.447	0.0160180
883.525	0.0162449
883.603	0.0160925
883.681	0.0159621
883.759	0.0160876
883.837	0.0160110
883.915	0.0159449
883.994	0.0161638
884.072	0.0159682
884.150	0.0159901
884.228	0.0160502
884.306	0.0160230
884.384	0.0159939
884.462	0.0160789
884.540	0.0162814
884.619	0.0161930
884.697	0.0162071
884.775	0.0162509
884.853	0.0161894
884.931	0.0160994
885.009	0.0162476
885.087	0.0161772
885.165	0.0161155
885.244	0.0162724
885.322	0.0161093
885.400	0.0161952
885.478	0.0161858
885.556	0.0160690
885.634	0.0159448
885.712	0.0161208
885.790	0.0161346
885.869	0.0161014
885.947	0.0159283
886.025	0.0160001
886.103	0.0160871
886.181	0.0160225
886.259	0.0160198
886.337	0.0161356
886.415	0.0161479
886.494	0.0160777
886.572	0.0160969
886.650	0.0161511
886.728	0.0164407
886.806	0.0163505
886.884	0.0161433
886.962	0.0162373
887.040	0.0161796
887.119	0.0162576
887.197	0.0161776
887.275	0.0161759
887.353	0.0162409
887.431	0.0163002
887.509	0.0161750
887.587	0.0161573
887.665	0.0160963
887.744	0.0161223
887.822	0.0160451
887.900	0.0160228
887.978	0.0160947
888.056	0.0161531
888.134	0.0160565
888.212	0.0159400
888.290	0.0159628
888.369	0.0160526
888.447	0.0160887
888.525	0.0162610
888.603	0.0160351
888.681	0.0161450
888.759	0.0161008
888.837	0.0160969
888.915	0.0161554
888.994	0.0162407
889.072	0.0162975
889.150	0.0163028
889.228	0.0162351
889.306	0.0161774
889.384	0.0162190
889.462	0.0161055
889.540	0.0161311
889.619	0.0162288
889.697	0.0162912
889.775	0.0161895
889.853	0.0160523
889.931	0.0160682
890.009	0.0160065
890.087	0.0162782
890.165	0.0162308
890.244	0.0161768
890.322	0.0161163
890.400	0.0162521
890.478	0.0162259
890.556	0.0161496
890.634	0.0162032
890.712	0.0161714
890.790	0.0161789
890.869	0.0160690
890.947	0.0160387
891.025	0.0161008
891.103	0.0161280
891.181	0.0161039
891.259	0.0160052
891.337	0.0161736
891.415	0.0161388
891.494	0.0160390
891.572	0.0160076
891.650	0.0161410
891.728	0.0161042
891.806	0.0162963
891.884	0.0162192
891.962	0.0160279
892.040	0.0163232
892.119	0.0163508
892.197	0.0161406
892.275	0.0160575
892.353	0.0161788
892.431	0.0161974
892.509	0.0161274
892.587	0.0160936
892.665	0.0161887
892.744	0.0163467
892.822	0.0161296
892.900	0.0160195
892.978	0.0160733
893.056	0.0162515
893.134	0.0163068
893.212	0.0160886
893.290	0.0161687
893.369	0.0162884
893.447	0.0162518
893.525	0.0162311
893.603	0.0160648
893.681	0.0162465
893.759	0.0161739
893.837	0.0160616
893.915	0.0161305
893.994	0.0160822
894.072	0.0160751
894.150	0.0160983
894.228	0.0161410
894.306	0.0159511
894.384	0.0158593
894.462	0.0160224
894.540	0.0160675
894.619	0.0159814
894.697	0.0160201
894.775	0.0158945
894.853	0.0160532
894.931	0.0161492
895.009	0.0162032
895.087	0.0161334
895.165	0.0161243
895.244	0.0161356
895.322	0.0162975
895.400	0.0162257
895.478	0.0161719
895.556	0.0161301
895.634	0.0161378
895.712	0.0162046
895.790	0.0160484
895.869	0.0160088
895.947	0.0160769
896.025	0.0161800
896.103	0.0163113
896.181	0.0161527
896.259	0.0162045
896.337	0.0163534
896.415	0.0161802
896.494	0.0161752
896.572	0.0162148
896.650	0.0163283
896.728	0.0161873
896.806	0.0160712
896.884	0.0162317
896.962	0.0163175
897.040	0.0161200
897.119	0.0161056
897.197	0.0160294
897.275	0.0161074
897.353	0.0160870
897.431	0.0160896
897.509	0.0159714
897.587	0.0159500
897.665	0.0160256
897.744	0.0160241
897.822	0.0161536
897.900	0.0162453
897.978	0.0160629
898.056	0.0160344
898.134	0.0161568
898.212	0.0161675
898.290	0.0160262
898.369	0.0162032
898.447	0.0162462
898.525	0.0162022
898.603	0.0160543
898.681	0.0160644
898.759	0.0161367
898.837	0.0160503
898.915	0.0161964
898.994	0.0161485
899.072	0.0161054
899.150	0.0160844
899.228	0.0160974
899.306	0.0162232
899.384	0.0161267
899.462	0.0161154
899.540	0.0160858
899.619	0.0160754
899.697	0.0161754
899.775	0.0159593
899.853	0.0161641
899.931	0.0162398
900.009	0.0161786
900.087	0.0161158
900.165	0.0161733
900.244	0.0161995
900.322	0.0160972
900.400	0.0163303
900.478	0.0162349
900.556	0.0160846
900.634	0.0160850
900.712	0.0163545
900.790	0.0161871
900.869	0.0160910
900.947	0.0160899
901.025	0.0161066
901.103	0.0161454
901.181	0.0162246
901.259	0.0162802
901.337	0.0160445
901.415	0.0160803
901.494	0.0160490
901.572	0.0159219
901.650	0.0161032
901.728	0.0160281
901.806	0.0160490
901.884	0.0160131
901.962	0.0160565
902.040	0.0159518
902.119	0.0160970
902.197	0.0161317
902.275	0.0160637
902.353	0.0160883
902.431	0.0162200
902.509	0.0162099
902.587	0.0161617
902.665	0.0161691
902.744	0.0162316
902.822	0.0162841
902.900	0.0162121
902.978	0.0162399
903.056	0.0163366
903.134	0.0162510
903.212	0.0162287
903.290	0.0162820
903.369	0.0162280
903.447	0.0163373
903.525	0.0163251
903.603	0.0161905
903.681	0.0163126
903.759	0.0162614
903.837	0.0162232
903.915	0.0161790
903.994	0.0161552
904.072	0.0161362
904.150	0.0162341
904.228	0.0162270
904.306	0.0162127
904.384	0.0161816
904.462	0.0161349
904.540	0.0162074
904.619	0.0162214
904.697	0.0160740
904.775	0.0161751
904.853	0.0159634
904.931	0.0160895
905.009	0.0160876
905.087	0.0160639
905.165	0.0161848
905.244	0.0159599
905.322	0.0159937
905.400	0.0160733
905.478	0.0160398
905.556	0.0160406
905.634	0.0158971
905.712	0.0159555
905.790	0.0159932
905.869	0.0159831
905.947	0.0159966
906.025	0.0159643
906.103	0.0158640
906.181	0.0161727
906.259	0.0160365
906.337	0.0160381
906.415	0.0161903
906.494	0.0161094
906.572	0.0161095
906.650	0.0161444
906.728	0.0161983
906.806	0.0162437
906.884	0.0162223
906.962	0.0162254
907.040	0.0163016
907.119	0.0162114
907.197	0.0163309
907.275	0.0163210
907.353	0.0161677
907.431	0.0163334
907.509	0.0162829
907.587	0.0163042
907.665	0.0163026
907.744	0.0162112
907.822	0.0162160
907.900	0.0163754
907.978	0.0163107
908.056	0.0162656
908.134	0.0162847
908.212	0.0163032
908.290	0.0162133
908.369	0.0162654
908.447	0.0163716
908.525	0.0161937
908.603	0.0162076
908.681	0.0162943
908.759	0.0162362
908.837	0.0160414
908.915	0.0161146
908.994	0.0162254
909.072	0.0161600
909.150	0.0162443
909.228	0.0160377
909.306	0.0161681
909.384	0.0161650
909.462	0.0161903
909.540	0.0162386
909.619	0.0160935
909.697	0.0159689
909.775	0.0160682
909.853	0.0159320
909.931	0.0159827
910.009	0.0160052
910.087	0.0158492
910.165	0.0159060
910.244	0.0158902
910.322	0.0158350
910.400	0.0158856
910.478	0.0159159
910.556	0.0159027
910.634	0.0158672
910.712	0.0160155
910.790	0.0159415
910.869	0.0160055
910.947	0.0159544
911.025	0.0160343
911.103	0.0161668
911.181	0.0161391
911.259	0.0161923
911.337	0.0161903
911.415	0.0160724
911.494	0.0160474
911.572	0.0163191
911.650	0.0161406
911.728	0.0162093
911.806	0.0160993
911.884	0.0163092
911.962	0.0162962
912.040	0.0161848
912.119	0.0161962
912.197	0.0163557
912.275	0.0163588
912.353	0.0163460
912.431	0.0161555
912.509	0.0162874
912.587	0.0162181
912.665	0.0162709
912.744	0.0162325
912.822	0.0162546
912.900	0.0162951
912.978	0.0161616
913.056	0.0163333
913.134	0.0162414
913.212	0.0162046
913.290	0.0161651
913.369	0.0163390
913.447	0.0161926
913.525	0.0162083
913.603	0.0160821
913.681	0.0161316
913.759	0.0161626
913.837	0.0161886
913.915	0.0160110
913.994	0.0160361
914.072	0.0160998
914.150	0.0160587
914.228	0.0158872
914.306	0.0159697
914.384	0.0160880
914.462	0.0159688
914.540	0.0160889
914.619	0.0160455
914.697	0.0160664
914.775	0.0159782
914.853	0.0161682
914.931	0.0161019
915.009	0.0161308
915.087	0.0160108
915.165	0.0160729
915.244	0.0161305
915.322	0.0162102
915.400	0.0161431
915.478	0.0161456
915.556	0.0160294
915.634	0.0161223
915.712	0.0161164
915.790	0.0161803
915.869	0.0161810
915.947	0.0161175
916.025	0.0161787
916.103	0.0161191
916.181	0.0161705
916.259	0.0161606
916.337	0.0161859
916.415	0.0162764
916.494	0.0163727
916.572	0.0161035
916.650	0.0162088
916.728	0.0162892
916.806	0.0162908
916.884	0.0163369
916.962	0.0164497
917.040	0.0163541
917.119	0.0163196
917.197	0.0163184
917.275	0.0162714
917.353	0.0162735
917.431	0.0162466
917.509	0.0162386
917.587	0.0162225
917.665	0.0162917
917.744	0.0162352
917.822	0.0163388
917.900	0.0161042
917.978	0.0162978
918.056	0.0163050
918.134	0.0161925
918.212	0.0162167
918.290	0.0160381
918.369	0.0160588
918.447	0.0161457
918.525	0.0160017
918.603	0.0160995
918.681	0.0161555
918.759	0.0160448
918.837	0.0159602
918.915	0.0160706
918.994	0.0160448
919.072	0.0161570
919.150	0.0159949
919.228	0.0160683
919.306	0.0159361
919.384	0.0159856
919.462	0.0161850
919.540	0.0159806
919.619	0.0160055
919.697	0.0160941
919.775	0.0160051
919.853	0.0159240
919.931	0.0159555
920.009	0.0159373
920.087	0.0160548
920.165	0.0160030
920.244	0.0160477
920.322	0.0160478
920.400	0.0160104
920.478	0.0161742
920.556	0.0160111
920.634	0.0160924
920.712	0.0161375
920.790	0.0160607
920.869	0.0161615
920.947	0.0161871
921.025	0.0162027
921.103	0.0161486
921.181	0.0161217
921.259	0.0162230
921.337	0.0163036
921.415	0.0162799
921.494	0.0162546
921.572	0.0163386
921.650	0.0162852
921.728	0.0163201
921.806	0.0163872
921.884	0.0163581
921.962	0.0161947
922.040	0.0161959
922.119	0.0163028
922.197	0.0161806
922.275	0.0162978
922.353	0.0163188
922.431	0.0161543
922.509	0.0160582
922.587	0.0160754
922.665	0.0161472
922.744	0.0162384
922.822	0.0160487
922.900	0.0161416
922.978	0.0159895
923.056	0.0161531
923.134	0.0161132
923.212	0.0160439
923.290	0.0160249
923.369	0.0160419
923.447	0.0160284
923.525	0.0160849
923.603	0.0161032
923.681	0.0160744
923.759	0.0159877
923.837	0.0160357
923.915	0.0160393
923.994	0.0160328
924.072	0.0160054
924.150	0.0160291
924.228	0.0160851
924.306	0.0159513
924.384	0.0159514
924.462	0.0161264
924.540	0.0160998
924.619	0.0161080
924.697	0.0161559
924.775	0.0161429
924.853	0.0160895
924.931	0.0161960
925.009	0.0160699
925.087	0.0161077
925.165	0.0161345
925.244	0.0161324
925.322	0.0162928
925.400	0.0161519
925.478	0.0161580
925.556	0.0162363
925.634	0.0160078
925.712	0.0160221
925.790	0.0160958
925.869	0.0160547
925.947	0.0161097
926.025	0.0159765
926.103	0.0161467
926.181	0.0161864
926.259	0.0160925
926.337	0.0161866
926.415	0.0160548
926.494	0.0161594
926.572	0.0162661
926.650	0.0161607
926.728	0.0161597
926.806	0.0162151
926.884	0.0162106
926.962	0.0160915
927.040	0.0162405
927.119	0.0161259
927.197	0.0162196
927.275	0.0162175
927.353	0.0161803
927.431	0.0161476
927.509	0.0161559
927.587	0.0160989
927.665	0.0161991
927.744	0.0161511
927.822	0.0160785
927.900	0.0160514
927.978	0.0159753
928.056	0.0159319
928.134	0.0160133
928.212	0.0159251
928.290	0.0159906
928.369	0.0161460
928.447	0.0160744
928.525	0.0159825
928.603	0.0159363
928.681	0.0160366
928.759	0.0161124
928.837	0.0159476
928.915	0.0159184
928.994	0.0160036
929.072	0.0161078
929.150	0.0160445
929.228	0.0160168
929.306	0.0160836
929.384	0.0161108
929.462	0.0161887
929.540	0.0159929
929.619	0.0160509
929.697	0.0163132
929.775	0.0162371
929.853	0.0161829
929.931	0.0161128
930.009	0.0160744
930.087	0.0160676
930.165	0.0161280
930.244	0.0161647
930.322	0.0161102
930.400	0.0161030
930.478	0.0161213
930.556	0.0160854
930.634	0.0161803
930.712	0.0162337
930.790	0.0161669
930.869	0.0162471
930.947	0.0161771
931.025	0.0161204
931.103	0.0161324
931.181	0.0162502
931.259	0.0160902
931.337	0.0162418
931.415	0.0162057
931.494	0.0161856
931.572	0.0161724
931.650	0.0162086
931.728	0.0161474
931.806	0.0161108
931.884	0.0160713
931.962	0.0160847
932.040	0.0160580
932.119	0.0161667
932.197	0.0161820
932.275	0.0160110
932.353	0.0161183
932.431	0.0160145
932.509	0.0160386
932.587	0.0162383
932.665	0.0160991
932.744	0.0161868
932.822	0.0160880
932.900	0.0160078
932.978	0.0161195
933.056	0.0161771
933.134	0.0161893
933.212	0.0161791
933.290	0.0161333
933.369	0.0160940
933.447	0.0161617
933.525	0.0161369
933.603	0.0162039
933.681	0.0161265
933.759	0.0162106
933.837	0.0162662
933.915	0.0162533
933.994	0.0161543
934.072	0.0161507
934.150	0.0161302
934.228	0.0161149
934.306	0.0161253
934.384	0.0162304
934.462	0.0161932
934.540	0.0161188
934.619	0.0161163
934.697	0.0160587
934.775	0.0161066
934.853	0.0162237
934.931	0.0160397
935.009	0.0160067
935.087	0.0160525
935.165	0.0160056
935.244	0.0160965
935.322	0.0160745
935.400	0.0160739
935.478	0.0162267
935.556	0.0162801
935.634	0.0161754
935.712	0.0160094
935.790	0.0161146
935.869	0.0162438
935.947	0.0162016
936.025	0.0162133
936.103	0.0160353
936.181	0.0162095
936.259	0.0161378
936.337	0.0160853
936.415	0.0161301
936.494	0.0161544
936.572	0.0160175
936.650	0.0162072
936.728	0.0160503
936.806	0.0159841
936.884	0.0159743
936.962	0.0161707
937.040	0.0159914
937.119	0.0159100
937.197	0.0161658
937.275	0.0160603
937.353	0.0160943
937.431	0.0160932
937.509	0.0161069
937.587	0.0159518
937.665	0.0160491
937.744	0.0160645
937.822	0.0160802
937.900	0.0160705
937.978	0.0159914
938.056	0.0160276
938.134	0.0161074
938.212	0.0159205
938.290	0.0159892
938.369	0.0160185
938.447	0.0161636
938.525	0.0161306
938.603	0.0160930
938.681	0.0160857
938.759	0.0162303
938.837	0.0160892
938.915	0.0161097
938.994	0.0161774
939.072	0.0159577
939.150	0.0160688
939.228	0.0161192
939.306	0.0159820
939.384	0.0160429
939.462	0.0162060
939.540	0.0160921
939.619	0.0161282
939.697	0.0161183
939.775	0.0161609
939.853	0.0160861
939.931	0.0160015
940.009	0.0161530
940.087	0.0161764
940.165	0.0161900
940.244	0.0162249
940.322	0.0161046
940.400	0.0160744
940.478	0.0162859
940.556	0.0161749
940.634	0.0162177
940.712	0.0162499
940.790	0.0163081
940.869	0.0162258
940.947	0.0163052
941.025	0.0161975
941.103	0.0162691
941.181	0.0162286
941.259	0.0161620
941.337	0.0161116
941.415	0.0160986
941.494	0.0161388
941.572	0.0161327
941.650	0.0161462
941.728	0.0160072
941.806	0.0162295
941.884	0.0161244
941.962	0.0160336
942.040	0.0160569
942.119	0.0160802
942.197	0.0161350
942.275	0.0159883
942.353	0.0161714
942.431	0.0161634
942.509	0.0160566
942.587	0.0161923
942.665	0.0161851
942.744	0.0160475
942.822	0.0161069
942.900	0.0161034
942.978	0.0160229
943.056	0.0160645
943.134	0.0160925
943.212	0.0160209
943.290	0.0160168
943.369	0.0159642
943.447	0.0160735
943.525	0.0161256
943.603	0.0160238
943.681	0.0159465
943.759	0.0160332
943.837	0.0160564
943.915	0.0161158
943.994	0.0162009
944.072	0.0161488
944.150	0.0160537
944.228	0.0161004
944.306	0.0160364
944.384	0.0160966
944.462	0.0161690
944.540	0.0161264
944.619	0.0160960
944.697	0.0161441
944.775	0.0161615
944.853	0.0161127
944.931	0.0162576
945.009	0.0162376
945.087	0.0161846
945.165	0.0161677
945.244	0.0163009
945.322	0.0162563
945.400	0.0162811
945.478	0.0161931
945.556	0.0161269
945.634	0.0162481
945.712	0.0161390
945.790	0.0162270
945.869	0.0161694
945.947	0.0161268
946.025	0.0162650
946.103	0.0161745
946.181	0.0161092
946.259	0.0160950
946.337	0.0161043
946.415	0.0161327
946.494	0.0160641
946.572	0.0160088
946.650	0.0160887
946.728	0.0161229
946.806	0.0160240
946.884	0.0161124
946.962	0.0160758
947.040	0.0161280
947.119	0.0159275
947.197	0.0161258
947.275	0.0161845
947.353	0.0161714
947.431	0.0160760
947.509	0.0160053
947.587	0.0161994
947.665	0.0160600
947.744	0.0160448
947.822	0.0160590
947.900	0.0161862
947.978	0.0159726
948.056	0.0160654
948.134	0.0160570
948.212	0.0161118
948.290	0.0160532
948.369	0.0159373
948.447	0.0159628
948.525	0.0161000
948.603	0.0159842
948.681	0.0160938
948.759	0.0160674
948.837	0.0161589
948.915	0.0160241
948.994	0.0159926
949.072	0.0161002
949.150	0.0160614
949.228	0.0160313
949.306	0.0160872
949.384	0.0160275
949.462	0.0161464
949.540	0.0160754
949.619	0.0160907
949.697	0.0160686
949.775	0.0162119
949.853	0.0159912
949.931	0.0161163
