05/19/2022	00:41:58	Ver.	4.1	UNKNOWN
Optical Delay	630.009178	Delta X		0.078125	Sweeps	1	Scan Rate	0/0
Coordinates	Axis 1	NaN	Axis 2	NaN	Axis 3	NaN	Axis 4	NaN	Axis 5	NaN	Axis 6	0.000000
TX Power	0.000000	RX Power	0.000000

630.009	0.0161382
630.087	0.0161036
630.165	0.0162089
630.244	0.0161794
630.322	0.0161698
630.400	0.0160036
630.478	0.0159985
630.556	0.0160848
630.634	0.0162939
630.712	0.0161611
630.790	0.0161752
630.869	0.0159756
630.947	0.0161085
631.025	0.0161578
631.103	0.0160227
631.181	0.0160508
631.259	0.0161572
631.337	0.0160767
631.415	0.0161598
631.494	0.0161027
631.572	0.0159336
631.650	0.0161238
631.728	0.0160696
631.806	0.0161755
631.884	0.0160828
631.962	0.0160551
632.040	0.0161143
632.119	0.0161333
632.197	0.0163931
632.275	0.0161086
632.353	0.0160828
632.431	0.0162144
632.509	0.0159653
632.587	0.0161122
632.665	0.0161615
632.744	0.0161290
632.822	0.0161179
632.900	0.0160673
632.978	0.0162103
633.056	0.0161286
633.134	0.0160545
633.212	0.0160439
633.290	0.0161629
633.369	0.0162083
633.447	0.0162277
633.525	0.0161125
633.603	0.0161588
633.681	0.0161423
633.759	0.0160689
633.837	0.0160442
633.915	0.0161036
633.994	0.0161481
634.072	0.0162815
634.150	0.0161948
634.228	0.0161458
634.306	0.0161269
634.384	0.0161422
634.462	0.0161028
634.540	0.0162931
634.619	0.0161936
634.697	0.0160583
634.775	0.0161791
634.853	0.0161961
634.931	0.0163455
635.009	0.0160547
635.087	0.0160286
635.165	0.0160516
635.244	0.0162856
635.322	0.0162294
635.400	0.0161782
635.478	0.0161478
635.556	0.0161555
635.634	0.0161346
635.712	0.0162437
635.790	0.0162272
635.869	0.0160513
635.947	0.0161860
636.025	0.0162374
636.103	0.0160408
636.181	0.0159887
636.259	0.0160205
636.337	0.0160886
636.415	0.0162373
636.494	0.0161287
636.572	0.0161514
636.650	0.0161591
636.728	0.0160766
636.806	0.0161648
636.884	0.0160564
636.962	0.0159818
637.040	0.0161267
637.119	0.0162879
637.197	0.0160085
637.275	0.0160900
637.353	0.0161666
637.431	0.0161426
637.509	0.0161641
637.587	0.0162318
637.665	0.0161137
637.744	0.0161369
637.822	0.0161995
637.900	0.0159880
637.978	0.0161356
638.056	0.0161057
638.134	0.0162096
638.212	0.0162312
638.290	0.0160457
638.369	0.0161505
638.447	0.0162777
638.525	0.0161373
638.603	0.0161219
638.681	0.0162130
638.759	0.0161737
638.837	0.0160413
638.915	0.0160123
638.994	0.0161443
639.072	0.0161715
639.150	0.0160860
639.228	0.0160250
639.306	0.0161684
639.384	0.0161349
639.462	0.0160651
639.540	0.0159200
639.619	0.0160526
639.697	0.0160784
639.775	0.0160180
639.853	0.0161025
639.931	0.0160284
640.009	0.0161557
640.087	0.0161455
640.165	0.0161355
640.244	0.0160338
640.322	0.0161546
640.400	0.0161032
640.478	0.0162262
640.556	0.0161230
640.634	0.0160409
640.712	0.0161687
640.790	0.0160958
640.869	0.0160311
640.947	0.0160280
641.025	0.0160225
641.103	0.0161632
641.181	0.0161311
641.259	0.0160236
641.337	0.0159503
641.415	0.0160702
641.494	0.0161176
641.572	0.0162054
641.650	0.0161692
641.728	0.0161181
641.806	0.0160917
641.884	0.0161237
641.962	0.0160109
642.040	0.0160883
642.119	0.0161013
642.197	0.0161884
642.275	0.0162484
642.353	0.0161124
642.431	0.0160426
642.509	0.0160561
642.587	0.0160571
642.665	0.0160725
642.744	0.0160360
642.822	0.0160477
642.900	0.0161152
642.978	0.0160793
643.056	0.0161134
643.134	0.0160625
643.212	0.0159171
643.290	0.0162547
643.369	0.0161771
643.447	0.0160783
643.525	0.0160302
643.603	0.0161413
643.681	0.0161190
643.759	0.0161243
643.837	0.0160423
643.915	0.0160870
643.994	0.0161447
644.072	0.0161832
644.150	0.0161932
644.228	0.0161278
644.306	0.0161085
644.384	0.0161456
644.462	0.0162067
644.540	0.0162172
644.619	0.0160690
644.697	0.0160835
644.775	0.0161600
644.853	0.0161054
644.931	0.0162345
645.009	0.0161288
645.087	0.0161282
645.165	0.0160777
645.244	0.0161167
645.322	0.0161021
645.400	0.0160704
645.478	0.0161281
645.556	0.0160441
645.634	0.0160560
645.712	0.0163329
645.790	0.0162828
645.869	0.0159959
645.947	0.0159322
646.025	0.0163171
646.103	0.0161839
646.181	0.0159975
646.259	0.0159875
646.337	0.0161187
646.415	0.0161722
646.494	0.0160631
646.572	0.0160624
646.650	0.0161017
646.728	0.0163113
646.806	0.0160851
646.884	0.0160891
646.962	0.0159853
647.040	0.0161711
647.119	0.0160958
647.197	0.0161520
647.275	0.0161435
647.353	0.0161899
647.431	0.0160878
647.509	0.0162146
647.587	0.0160144
647.665	0.0162061
647.744	0.0161389
647.822	0.0161244
647.900	0.0161806
647.978	0.0160027
648.056	0.0162546
648.134	0.0161462
648.212	0.0160422
648.290	0.0160485
648.369	0.0161065
648.447	0.0161957
648.525	0.0160547
648.603	0.0161369
648.681	0.0162095
648.759	0.0160387
648.837	0.0162046
648.915	0.0160710
648.994	0.0160777
649.072	0.0162393
649.150	0.0161823
649.228	0.0160310
649.306	0.0160954
649.384	0.0160216
649.462	0.0161419
649.540	0.0161675
649.619	0.0161216
649.697	0.0160934
649.775	0.0161086
649.853	0.0162057
649.931	0.0162675
650.009	0.0161399
650.087	0.0160341
650.165	0.0161664
650.244	0.0161373
650.322	0.0161774
650.400	0.0161014
650.478	0.0162388
650.556	0.0161752
650.634	0.0161438
650.712	0.0162114
650.790	0.0163531
650.869	0.0162453
650.947	0.0161394
651.025	0.0162357
651.103	0.0161668
651.181	0.0161407
651.259	0.0160941
651.337	0.0161108
651.415	0.0160913
651.494	0.0162541
651.572	0.0162531
651.650	0.0161213
651.728	0.0160886
651.806	0.0160890
651.884	0.0161128
651.962	0.0162000
652.040	0.0161481
652.119	0.0161987
652.197	0.0162030
652.275	0.0161009
652.353	0.0161340
652.431	0.0161824
652.509	0.0160564
652.587	0.0161331
652.665	0.0161049
652.744	0.0163131
652.822	0.0161169
652.900	0.0161126
652.978	0.0162187
653.056	0.0163029
653.134	0.0160552
653.212	0.0161974
653.290	0.0162988
653.369	0.0161697
653.447	0.0162288
653.525	0.0162016
653.603	0.0162708
653.681	0.0162123
653.759	0.0161659
653.837	0.0161285
653.915	0.0160884
653.994	0.0160434
654.072	0.0162006
654.150	0.0161819
654.228	0.0163648
654.306	0.0162820
654.384	0.0161973
654.462	0.0161651
654.540	0.0161678
654.619	0.0161510
654.697	0.0161028
654.775	0.0161900
654.853	0.0160527
654.931	0.0161224
655.009	0.0161546
655.087	0.0162261
655.165	0.0161073
655.244	0.0161549
655.322	0.0162116
655.400	0.0161891
655.478	0.0162022
655.556	0.0161971
655.634	0.0161781
655.712	0.0163097
655.790	0.0163170
655.869	0.0160014
655.947	0.0162058
656.025	0.0161884
656.103	0.0164646
656.181	0.0162444
656.259	0.0160813
656.337	0.0161343
656.415	0.0163136
656.494	0.0161316
656.572	0.0161170
656.650	0.0161617
656.728	0.0161269
656.806	0.0160234
656.884	0.0162898
656.962	0.0161343
657.040	0.0161199
657.119	0.0161916
657.197	0.0160807
657.275	0.0162109
657.353	0.0161184
657.431	0.0160814
657.509	0.0161338
657.587	0.0161626
657.665	0.0161529
657.744	0.0160069
657.822	0.0161782
657.900	0.0162222
657.978	0.0161916
658.056	0.0160681
658.134	0.0159836
658.212	0.0160934
658.290	0.0161633
658.369	0.0160399
658.447	0.0160168
658.525	0.0160931
658.603	0.0161525
658.681	0.0160805
658.759	0.0160886
658.837	0.0161668
658.915	0.0160920
658.994	0.0160833
659.072	0.0162356
659.150	0.0161957
659.228	0.0160732
659.306	0.0161157
659.384	0.0161673
659.462	0.0161283
659.540	0.0160220
659.619	0.0161040
659.697	0.0161199
659.775	0.0161908
659.853	0.0161656
659.931	0.0159850
660.009	0.0162079
660.087	0.0160397
660.165	0.0160561
660.244	0.0159931
660.322	0.0160525
660.400	0.0161128
660.478	0.0160719
660.556	0.0160641
660.634	0.0161227
660.712	0.0162747
660.790	0.0159869
660.869	0.0160967
660.947	0.0160960
661.025	0.0162117
661.103	0.0160316
661.181	0.0162067
661.259	0.0160793
661.337	0.0162675
661.415	0.0160995
661.494	0.0159801
661.572	0.0163715
661.650	0.0160577
661.728	0.0161417
661.806	0.0161047
661.884	0.0160030
661.962	0.0160275
662.040	0.0161835
662.119	0.0160789
662.197	0.0160884
662.275	0.0161260
662.353	0.0161576
662.431	0.0160155
662.509	0.0161697
662.587	0.0161176
662.665	0.0161501
662.744	0.0161362
662.822	0.0160839
662.900	0.0161740
662.978	0.0161003
663.056	0.0161539
663.134	0.0161034
663.212	0.0162865
663.290	0.0161428
663.369	0.0161557
663.447	0.0162155
663.525	0.0161813
663.603	0.0161997
663.681	0.0162043
663.759	0.0159834
663.837	0.0160843
663.915	0.0160710
663.994	0.0160818
664.072	0.0161689
664.150	0.0162011
664.228	0.0161292
664.306	0.0161102
664.384	0.0160875
664.462	0.0161567
664.540	0.0160700
664.619	0.0160984
664.697	0.0161632
664.775	0.0160865
664.853	0.0160547
664.931	0.0161107
665.009	0.0160406
665.087	0.0160986
665.165	0.0161873
665.244	0.0160984
665.322	0.0161035
665.400	0.0160378
665.478	0.0160867
665.556	0.0162106
665.634	0.0160924
665.712	0.0160972
665.790	0.0160355
665.869	0.0161793
665.947	0.0160902
666.025	0.0160844
666.103	0.0161583
666.181	0.0161349
666.259	0.0160503
666.337	0.0159839
666.415	0.0161700
666.494	0.0160168
666.572	0.0160248
666.650	0.0161585
666.728	0.0161106
666.806	0.0160497
666.884	0.0162073
666.962	0.0160795
667.040	0.0161047
667.119	0.0160630
667.197	0.0161727
667.275	0.0161897
667.353	0.0160478
667.431	0.0161749
667.509	0.0161468
667.587	0.0160821
667.665	0.0161246
667.744	0.0161766
667.822	0.0160851
667.900	0.0160823
667.978	0.0160926
668.056	0.0161566
668.134	0.0161875
668.212	0.0160529
668.290	0.0160678
668.369	0.0161537
668.447	0.0161687
668.525	0.0162317
668.603	0.0161917
668.681	0.0161988
668.759	0.0160719
668.837	0.0160363
668.915	0.0159438
668.994	0.0161489
669.072	0.0161081
669.150	0.0161200
669.228	0.0161349
669.306	0.0161109
669.384	0.0162572
669.462	0.0161381
669.540	0.0161278
669.619	0.0160578
669.697	0.0161651
669.775	0.0161031
669.853	0.0160483
669.931	0.0161871
670.009	0.0161551
670.087	0.0160397
670.165	0.0161797
670.244	0.0161874
670.322	0.0162017
670.400	0.0160721
670.478	0.0161878
670.556	0.0160786
670.634	0.0160440
670.712	0.0160967
670.790	0.0161641
670.869	0.0160237
670.947	0.0161551
671.025	0.0161846
671.103	0.0161274
671.181	0.0160874
671.259	0.0161571
671.337	0.0161092
671.415	0.0161143
671.494	0.0160751
671.572	0.0161768
671.650	0.0161884
671.728	0.0160226
671.806	0.0160262
671.884	0.0161734
671.962	0.0161060
672.040	0.0160584
672.119	0.0160391
672.197	0.0161107
672.275	0.0162238
672.353	0.0162184
672.431	0.0160781
672.509	0.0159645
672.587	0.0160881
672.665	0.0162080
672.744	0.0160755
672.822	0.0162346
672.900	0.0160934
672.978	0.0161385
673.056	0.0161375
673.134	0.0161707
673.212	0.0162487
673.290	0.0161862
673.369	0.0162958
673.447	0.0161889
673.525	0.0160729
673.603	0.0160418
673.681	0.0161449
673.759	0.0162122
673.837	0.0161188
673.915	0.0162014
673.994	0.0161985
674.072	0.0163412
674.150	0.0160099
674.228	0.0160715
674.306	0.0160549
674.384	0.0161786
674.462	0.0160550
674.540	0.0161903
674.619	0.0162041
674.697	0.0161359
674.775	0.0161265
674.853	0.0160407
674.931	0.0160332
675.009	0.0160173
675.087	0.0161393
675.165	0.0162206
675.244	0.0161708
675.322	0.0160745
675.400	0.0161613
675.478	0.0161593
675.556	0.0161638
675.634	0.0160654
675.712	0.0160888
675.790	0.0161029
675.869	0.0161301
675.947	0.0160107
676.025	0.0161181
676.103	0.0161533
676.181	0.0160903
676.259	0.0161424
676.337	0.0161082
676.415	0.0161805
676.494	0.0161018
676.572	0.0161109
676.650	0.0159600
676.728	0.0161172
676.806	0.0161568
676.884	0.0159193
676.962	0.0160510
677.040	0.0161394
677.119	0.0160570
677.197	0.0159658
677.275	0.0160007
677.353	0.0161442
677.431	0.0161186
677.509	0.0162244
677.587	0.0162576
677.665	0.0161106
677.744	0.0161753
677.822	0.0161738
677.900	0.0162788
677.978	0.0161628
678.056	0.0163142
678.134	0.0162865
678.212	0.0161248
678.290	0.0161514
678.369	0.0161352
678.447	0.0161169
678.525	0.0161425
678.603	0.0160556
678.681	0.0160031
678.759	0.0161086
678.837	0.0159915
678.915	0.0161726
678.994	0.0160893
679.072	0.0160368
679.150	0.0159882
679.228	0.0161058
679.306	0.0160477
679.384	0.0161253
679.462	0.0161671
679.540	0.0161395
679.619	0.0163126
679.697	0.0162476
679.775	0.0162466
679.853	0.0162981
679.931	0.0162076
680.009	0.0162884
680.087	0.0162769
680.165	0.0161605
680.244	0.0161981
680.322	0.0160989
680.400	0.0160155
680.478	0.0160147
680.556	0.0161127
680.634	0.0159525
680.712	0.0158762
680.790	0.0160527
680.869	0.0160638
680.947	0.0159681
681.025	0.0160771
681.103	0.0161873
681.181	0.0161846
681.259	0.0161794
681.337	0.0162376
681.415	0.0162240
681.494	0.0162063
681.572	0.0161909
681.650	0.0162892
681.728	0.0162629
681.806	0.0163587
681.884	0.0162926
681.962	0.0162787
682.040	0.0161103
682.119	0.0160767
682.197	0.0161600
682.275	0.0161581
682.353	0.0158402
682.431	0.0160851
682.509	0.0158515
682.587	0.0157147
682.665	0.0156438
682.744	0.0157314
682.822	0.0155620
682.900	0.0156297
682.978	0.0156697
683.056	0.0156654
683.134	0.0157204
683.212	0.0157800
683.290	0.0156911
683.369	0.0160017
683.447	0.0159076
683.525	0.0159557
683.603	0.0159258
683.681	0.0159325
683.759	0.0161078
683.837	0.0160578
683.915	0.0161882
683.994	0.0161040
684.072	0.0161200
684.150	0.0159668
684.228	0.0161953
684.306	0.0161070
684.384	0.0162922
684.462	0.0161815
684.540	0.0162968
684.619	0.0162725
684.697	0.0164680
684.775	0.0166490
684.853	0.0167387
684.931	0.0167443
685.009	0.0168109
685.087	0.0171149
685.165	0.0172298
685.244	0.0170616
685.322	0.0171210
685.400	0.0172614
685.478	0.0173248
685.556	0.0171539
685.634	0.0171569
685.712	0.0168748
685.790	0.0169392
685.869	0.0168398
685.947	0.0164248
686.025	0.0161398
686.103	0.0161784
686.181	0.0158623
686.259	0.0159646
686.337	0.0156391
686.415	0.0155524
686.494	0.0153072
686.572	0.0153761
686.650	0.0152453
686.728	0.0151472
686.806	0.0151488
686.884	0.0149689
686.962	0.0150339
687.040	0.0150707
687.119	0.0151476
687.197	0.0151533
687.275	0.0150378
687.353	0.0152994
687.431	0.0151804
687.509	0.0153001
687.587	0.0156931
687.665	0.0158074
687.744	0.0155886
687.822	0.0158582
687.900	0.0159885
687.978	0.0162337
688.056	0.0163115
688.134	0.0163094
688.212	0.0165639
688.290	0.0165876
688.369	0.0166340
688.447	0.0165906
688.525	0.0166606
688.603	0.0167600
688.681	0.0168874
688.759	0.0168382
688.837	0.0168375
688.915	0.0166228
688.994	0.0168491
689.072	0.0170276
689.150	0.0169655
689.228	0.0170958
689.306	0.0171528
689.384	0.0171490
689.462	0.0172379
689.540	0.0173958
689.619	0.0174079
689.697	0.0172251
689.775	0.0174037
689.853	0.0172183
689.931	0.0170188
690.009	0.0170531
690.087	0.0168709
690.165	0.0166409
690.244	0.0164311
690.322	0.0162665
690.400	0.0160724
690.478	0.0159092
690.556	0.0155623
690.634	0.0155154
690.712	0.0152201
690.790	0.0150344
690.869	0.0149203
690.947	0.0148042
691.025	0.0146500
691.103	0.0145372
691.181	0.0145287
691.259	0.0143285
691.337	0.0142828
691.415	0.0143092
691.494	0.0142934
691.572	0.0145518
691.650	0.0144030
691.728	0.0145367
691.806	0.0146758
691.884	0.0148244
691.962	0.0149668
692.040	0.0151375
692.119	0.0152490
692.197	0.0154999
692.275	0.0156042
692.353	0.0158078
692.431	0.0158706
692.509	0.0160513
692.587	0.0163707
692.665	0.0165813
692.744	0.0166769
692.822	0.0169456
692.900	0.0169486
692.978	0.0170467
693.056	0.0170960
693.134	0.0171433
693.212	0.0172583
693.290	0.0173672
693.369	0.0175238
693.447	0.0174399
693.525	0.0173196
693.603	0.0174618
693.681	0.0175568
693.759	0.0175433
693.837	0.0176340
693.915	0.0177857
693.994	0.0177328
694.072	0.0177533
694.150	0.0176938
694.228	0.0177752
694.306	0.0176677
694.384	0.0178748
694.462	0.0176778
694.540	0.0175021
694.619	0.0172892
694.697	0.0170424
694.775	0.0167287
694.853	0.0164062
694.931	0.0161894
695.009	0.0158244
695.087	0.0154874
695.165	0.0153464
695.244	0.0150014
695.322	0.0147089
695.400	0.0143767
695.478	0.0142776
695.556	0.0143344
695.634	0.0140804
695.712	0.0139874
695.790	0.0137017
695.869	0.0136562
695.947	0.0137363
696.025	0.0137260
696.103	0.0138351
696.181	0.0137978
696.259	0.0138312
696.337	0.0140494
696.415	0.0142065
696.494	0.0143504
696.572	0.0145493
696.650	0.0146980
696.728	0.0148723
696.806	0.0151339
696.884	0.0153682
696.962	0.0156226
697.040	0.0158004
697.119	0.0160517
697.197	0.0161822
697.275	0.0163816
697.353	0.0166165
697.431	0.0167464
697.509	0.0169174
697.587	0.0171210
697.665	0.0173237
697.744	0.0175219
697.822	0.0178280
697.900	0.0178211
697.978	0.0178500
698.056	0.0178523
698.134	0.0180851
698.212	0.0178594
698.290	0.0179205
698.369	0.0177720
698.447	0.0177917
698.525	0.0177984
698.603	0.0178149
698.681	0.0176743
698.759	0.0176074
698.837	0.0175774
698.915	0.0175687
698.994	0.0174570
699.072	0.0173717
699.150	0.0173775
699.228	0.0173723
699.306	0.0172867
699.384	0.0172239
699.462	0.0173084
699.540	0.0171839
699.619	0.0171352
699.697	0.0169724
699.775	0.0168783
699.853	0.0165604
699.931	0.0161343
700.009	0.0158065
700.087	0.0156516
700.165	0.0151988
700.244	0.0148159
700.322	0.0146515
700.400	0.0144975
700.478	0.0141182
700.556	0.0140454
700.634	0.0139790
700.712	0.0137920
700.790	0.0138369
700.869	0.0137973
700.947	0.0138057
701.025	0.0138596
701.103	0.0139891
701.181	0.0140533
701.259	0.0140303
701.337	0.0142090
701.415	0.0142322
701.494	0.0145104
701.572	0.0146829
701.650	0.0148874
701.728	0.0150912
701.806	0.0152896
701.884	0.0155456
701.962	0.0155397
702.040	0.0158074
702.119	0.0161543
702.197	0.0162643
702.275	0.0163903
702.353	0.0165350
702.431	0.0166910
702.509	0.0168846
702.587	0.0170881
702.665	0.0173033
702.744	0.0174342
702.822	0.0175479
702.900	0.0178017
702.978	0.0176865
703.056	0.0176405
703.134	0.0177787
703.212	0.0179414
703.290	0.0179208
703.369	0.0177551
703.447	0.0176360
703.525	0.0175582
703.603	0.0174905
703.681	0.0173256
703.759	0.0173399
703.837	0.0171026
703.915	0.0171521
703.994	0.0169152
704.072	0.0170108
704.150	0.0170013
704.228	0.0168984
704.306	0.0169099
704.384	0.0168890
704.462	0.0168719
704.540	0.0167956
704.619	0.0166975
704.697	0.0166560
704.775	0.0165673
704.853	0.0163608
704.931	0.0160654
705.009	0.0157954
705.087	0.0156467
705.165	0.0153928
705.244	0.0153102
705.322	0.0151180
705.400	0.0149126
705.478	0.0148117
705.556	0.0147426
705.634	0.0147640
705.712	0.0146029
705.790	0.0146924
705.869	0.0147905
705.947	0.0146735
706.025	0.0147713
706.103	0.0148408
706.181	0.0148965
706.259	0.0149555
706.337	0.0151035
706.415	0.0152684
706.494	0.0152063
706.572	0.0154468
706.650	0.0155032
706.728	0.0157220
706.806	0.0158334
706.884	0.0158220
706.962	0.0158324
707.040	0.0158980
707.119	0.0160493
707.197	0.0161089
707.275	0.0158192
707.353	0.0160030
707.431	0.0160015
707.509	0.0160514
707.587	0.0160473
707.665	0.0160581
707.744	0.0163284
707.822	0.0163083
707.900	0.0163788
707.978	0.0165453
708.056	0.0166329
708.134	0.0165756
708.212	0.0167899
708.290	0.0167448
708.369	0.0168517
708.447	0.0168134
708.525	0.0166524
708.603	0.0165784
708.681	0.0166912
708.759	0.0165699
708.837	0.0166454
708.915	0.0165501
708.994	0.0166664
709.072	0.0165902
709.150	0.0166423
709.228	0.0165517
709.306	0.0165625
709.384	0.0165905
709.462	0.0166983
709.540	0.0165073
709.619	0.0165019
709.697	0.0166090
709.775	0.0164820
709.853	0.0164899
709.931	0.0165200
710.009	0.0164024
710.087	0.0164023
710.165	0.0162177
710.244	0.0164214
710.322	0.0162118
710.400	0.0160461
710.478	0.0161120
710.556	0.0158016
710.634	0.0157153
710.712	0.0157088
710.790	0.0157681
710.869	0.0157336
710.947	0.0155991
711.025	0.0155817
711.103	0.0156276
711.181	0.0156679
711.259	0.0157574
711.337	0.0156974
711.415	0.0159384
711.494	0.0158271
711.572	0.0157018
711.650	0.0158758
711.728	0.0159566
711.806	0.0160179
711.884	0.0159257
711.962	0.0161019
712.040	0.0160638
712.119	0.0161076
712.197	0.0159393
712.275	0.0159631
712.353	0.0159349
712.431	0.0159476
712.509	0.0159143
712.587	0.0157607
712.665	0.0157388
712.744	0.0157849
712.822	0.0159690
712.900	0.0158147
712.978	0.0158980
713.056	0.0160453
713.134	0.0160102
713.212	0.0163693
713.290	0.0163227
713.369	0.0162794
713.447	0.0164095
713.525	0.0162703
713.603	0.0162019
713.681	0.0164409
713.759	0.0164049
713.837	0.0164064
713.915	0.0163314
713.994	0.0163458
714.072	0.0163163
714.150	0.0162167
714.228	0.0161282
714.306	0.0163178
714.384	0.0161524
714.462	0.0160990
714.540	0.0161822
714.619	0.0162443
714.697	0.0161401
714.775	0.0162450
714.853	0.0163097
714.931	0.0162723
715.009	0.0162870
715.087	0.0162701
715.165	0.0162847
715.244	0.0162268
715.322	0.0161764
715.400	0.0163132
715.478	0.0161897
715.556	0.0159940
715.634	0.0159589
715.712	0.0161264
715.790	0.0160397
715.869	0.0160104
715.947	0.0159617
716.025	0.0160105
716.103	0.0160339
716.181	0.0159538
716.259	0.0159595
716.337	0.0159213
716.415	0.0158305
716.494	0.0160113
716.572	0.0160587
716.650	0.0158938
716.728	0.0159817
716.806	0.0160619
716.884	0.0160624
716.962	0.0160201
717.040	0.0160606
717.119	0.0160940
717.197	0.0160169
717.275	0.0160947
717.353	0.0160806
717.431	0.0162039
717.509	0.0161922
717.587	0.0164298
717.665	0.0164095
717.744	0.0161136
717.822	0.0161832
717.900	0.0163366
717.978	0.0161228
718.056	0.0162241
718.134	0.0161958
718.212	0.0162363
718.290	0.0161365
718.369	0.0160150
718.447	0.0159727
718.525	0.0160484
718.603	0.0160033
718.681	0.0157842
718.759	0.0158937
718.837	0.0159636
718.915	0.0159420
718.994	0.0157712
719.072	0.0158912
719.150	0.0159282
719.228	0.0160964
719.306	0.0159470
719.384	0.0159547
719.462	0.0158923
719.540	0.0159435
719.619	0.0159885
719.697	0.0159480
719.775	0.0162050
719.853	0.0160992
719.931	0.0161461
720.009	0.0161391
720.087	0.0161163
720.165	0.0162343
720.244	0.0163264
720.322	0.0160027
720.400	0.0159891
720.478	0.0161285
720.556	0.0159161
720.634	0.0158949
720.712	0.0160844
720.790	0.0160458
720.869	0.0160820
720.947	0.0161552
721.025	0.0162186
721.103	0.0162741
721.181	0.0162845
721.259	0.0162563
721.337	0.0162574
721.415	0.0163418
721.494	0.0165198
721.572	0.0164608
721.650	0.0165167
721.728	0.0165128
721.806	0.0162209
721.884	0.0161278
721.962	0.0164106
722.040	0.0162277
722.119	0.0160500
722.197	0.0162032
722.275	0.0161035
722.353	0.0160638
722.431	0.0160853
722.509	0.0161083
722.587	0.0160157
722.665	0.0158070
722.744	0.0160464
722.822	0.0161395
722.900	0.0160880
722.978	0.0161591
723.056	0.0162126
723.134	0.0162925
723.212	0.0162164
723.290	0.0164215
723.369	0.0163004
723.447	0.0163768
723.525	0.0163471
723.603	0.0164741
723.681	0.0164154
723.759	0.0163862
723.837	0.0163291
723.915	0.0162521
723.994	0.0161887
724.072	0.0160802
724.150	0.0161151
724.228	0.0159992
724.306	0.0160238
724.384	0.0160818
724.462	0.0159601
724.540	0.0159429
724.619	0.0159380
724.697	0.0158948
724.775	0.0161661
724.853	0.0160806
724.931	0.0160403
725.009	0.0159629
725.087	0.0160625
725.165	0.0161192
725.244	0.0162520
725.322	0.0162362
725.400	0.0161781
725.478	0.0162386
725.556	0.0161330
725.634	0.0162061
725.712	0.0163394
725.790	0.0160213
725.869	0.0160952
725.947	0.0160305
726.025	0.0161003
726.103	0.0160624
726.181	0.0159385
726.259	0.0160923
726.337	0.0161434
726.415	0.0160798
726.494	0.0161544
726.572	0.0161415
726.650	0.0163738
726.728	0.0163706
726.806	0.0163168
726.884	0.0163617
726.962	0.0163188
727.040	0.0163370
727.119	0.0164160
727.197	0.0164131
727.275	0.0163975
727.353	0.0162714
727.431	0.0163342
727.509	0.0163262
727.587	0.0162192
727.665	0.0162041
727.744	0.0161127
727.822	0.0161797
727.900	0.0160886
727.978	0.0159391
728.056	0.0160426
728.134	0.0159483
728.212	0.0160461
728.290	0.0160000
728.369	0.0157534
728.447	0.0156490
728.525	0.0158171
728.603	0.0157752
728.681	0.0158766
728.759	0.0159142
728.837	0.0159160
728.915	0.0159953
728.994	0.0159126
729.072	0.0160892
729.150	0.0161777
729.228	0.0162410
729.306	0.0162781
729.384	0.0162199
729.462	0.0161800
729.540	0.0163748
729.619	0.0163018
729.697	0.0163103
729.775	0.0163795
729.853	0.0163094
729.931	0.0160740
730.009	0.0162631
730.087	0.0161613
730.165	0.0160802
730.244	0.0160746
730.322	0.0159332
730.400	0.0159599
730.478	0.0159940
730.556	0.0160096
730.634	0.0159540
730.712	0.0159409
730.790	0.0161256
730.869	0.0160136
730.947	0.0161015
731.025	0.0160635
731.103	0.0161688
731.181	0.0162054
731.259	0.0162292
731.337	0.0162651
731.415	0.0160594
731.494	0.0161678
731.572	0.0161720
731.650	0.0159821
731.728	0.0161030
731.806	0.0162234
731.884	0.0160807
731.962	0.0159678
732.040	0.0160703
732.119	0.0160968
732.197	0.0160869
732.275	0.0159940
732.353	0.0160809
732.431	0.0160645
732.509	0.0162041
732.587	0.0161442
732.665	0.0162682
732.744	0.0161157
732.822	0.0161755
732.900	0.0162109
732.978	0.0160787
733.056	0.0161851
733.134	0.0160328
733.212	0.0159595
733.290	0.0160192
733.369	0.0159723
733.447	0.0159904
733.525	0.0160166
733.603	0.0160403
733.681	0.0159971
733.759	0.0159744
733.837	0.0161153
733.915	0.0161790
733.994	0.0160754
734.072	0.0160908
734.150	0.0160447
734.228	0.0161629
734.306	0.0161458
734.384	0.0162933
734.462	0.0161324
734.540	0.0162558
734.619	0.0162065
734.697	0.0160091
734.775	0.0163163
734.853	0.0163380
734.931	0.0163387
735.009	0.0162211
735.087	0.0161524
735.165	0.0162981
735.244	0.0162500
735.322	0.0162141
735.400	0.0162411
735.478	0.0161140
735.556	0.0160758
735.634	0.0161755
735.712	0.0160632
735.790	0.0160082
735.869	0.0160739
735.947	0.0162164
736.025	0.0162065
736.103	0.0160173
736.181	0.0161002
736.259	0.0160458
736.337	0.0160551
736.415	0.0159296
736.494	0.0160919
736.572	0.0160345
736.650	0.0160011
736.728	0.0162253
736.806	0.0161195
736.884	0.0160519
736.962	0.0160523
737.040	0.0161732
737.119	0.0161078
737.197	0.0160267
737.275	0.0159916
737.353	0.0159582
737.431	0.0158130
737.509	0.0158476
737.587	0.0156804
737.665	0.0158033
737.744	0.0157634
737.822	0.0158064
737.900	0.0157268
737.978	0.0158901
738.056	0.0158294
738.134	0.0158575
738.212	0.0160654
738.290	0.0160436
738.369	0.0160262
738.447	0.0161069
738.525	0.0161712
738.603	0.0161967
738.681	0.0161585
738.759	0.0161361
738.837	0.0162875
738.915	0.0162525
738.994	0.0162948
739.072	0.0162070
739.150	0.0161036
739.228	0.0161915
739.306	0.0161097
739.384	0.0160365
739.462	0.0161609
739.540	0.0162375
739.619	0.0160580
739.697	0.0160181
739.775	0.0162513
739.853	0.0161877
739.931	0.0161908
740.009	0.0161644
740.087	0.0162595
740.165	0.0163773
740.244	0.0163309
740.322	0.0162145
740.400	0.0163278
740.478	0.0163287
740.556	0.0161680
740.634	0.0161540
740.712	0.0163550
740.790	0.0164496
740.869	0.0163256
740.947	0.0162187
741.025	0.0162202
741.103	0.0161529
741.181	0.0161727
741.259	0.0161816
741.337	0.0162662
741.415	0.0160668
741.494	0.0159992
741.572	0.0159981
741.650	0.0159391
741.728	0.0160145
741.806	0.0159965
741.884	0.0160315
741.962	0.0159783
742.040	0.0159830
742.119	0.0158920
742.197	0.0160181
742.275	0.0159774
742.353	0.0159698
742.431	0.0159586
742.509	0.0159564
742.587	0.0160158
742.665	0.0160326
742.744	0.0161689
742.822	0.0160957
742.900	0.0160427
742.978	0.0162003
743.056	0.0163223
743.134	0.0162194
743.212	0.0162471
743.290	0.0161327
743.369	0.0162878
743.447	0.0163102
743.525	0.0162998
743.603	0.0162963
743.681	0.0161837
743.759	0.0161579
743.837	0.0160155
743.915	0.0160556
743.994	0.0160680
744.072	0.0160568
744.150	0.0160357
744.228	0.0160397
744.306	0.0158762
744.384	0.0160168
744.462	0.0159351
744.540	0.0159542
744.619	0.0159784
744.697	0.0159779
744.775	0.0160791
744.853	0.0161014
744.931	0.0161568
745.009	0.0160812
745.087	0.0160539
745.165	0.0160762
745.244	0.0161964
745.322	0.0161455
745.400	0.0160471
745.478	0.0161971
745.556	0.0162286
745.634	0.0162262
745.712	0.0161678
745.790	0.0160172
745.869	0.0160708
745.947	0.0162543
746.025	0.0162157
746.103	0.0160002
746.181	0.0161930
746.259	0.0162476
746.337	0.0162893
746.415	0.0160760
746.494	0.0161108
746.572	0.0160822
746.650	0.0160414
746.728	0.0162270
746.806	0.0161401
746.884	0.0162572
746.962	0.0162374
747.040	0.0163559
747.119	0.0162774
747.197	0.0162368
747.275	0.0162705
747.353	0.0163282
747.431	0.0162551
747.509	0.0162453
747.587	0.0163055
747.665	0.0162919
747.744	0.0162660
747.822	0.0162789
747.900	0.0162156
747.978	0.0162343
748.056	0.0162148
748.134	0.0162988
748.212	0.0160917
748.290	0.0159768
748.369	0.0160757
748.447	0.0161520
748.525	0.0160181
748.603	0.0160226
748.681	0.0160909
748.759	0.0160873
748.837	0.0160741
748.915	0.0160912
748.994	0.0159658
749.072	0.0160022
749.150	0.0158982
749.228	0.0161024
749.306	0.0160496
749.384	0.0159782
749.462	0.0161177
749.540	0.0160736
749.619	0.0160292
749.697	0.0160981
749.775	0.0160911
749.853	0.0160702
749.931	0.0160899
750.009	0.0161902
750.087	0.0160453
750.165	0.0160777
750.244	0.0161517
750.322	0.0160905
750.400	0.0161993
750.478	0.0160042
750.556	0.0160573
750.634	0.0161055
750.712	0.0161273
750.790	0.0160796
750.869	0.0160918
750.947	0.0161388
751.025	0.0160197
751.103	0.0161516
751.181	0.0160966
751.259	0.0163071
751.337	0.0161096
751.415	0.0161560
751.494	0.0160605
751.572	0.0162114
751.650	0.0161389
751.728	0.0161787
751.806	0.0159907
751.884	0.0160062
751.962	0.0161456
752.040	0.0160552
752.119	0.0161993
752.197	0.0161961
752.275	0.0161343
752.353	0.0160992
752.431	0.0161810
752.509	0.0162099
752.587	0.0161728
752.665	0.0160764
752.744	0.0159468
752.822	0.0160486
752.900	0.0161990
752.978	0.0160975
753.056	0.0161408
753.134	0.0161316
753.212	0.0161903
753.290	0.0161185
753.369	0.0161739
753.447	0.0161858
753.525	0.0161578
753.603	0.0161810
753.681	0.0161163
753.759	0.0161913
753.837	0.0161021
753.915	0.0160851
753.994	0.0160415
754.072	0.0159848
754.150	0.0161372
754.228	0.0161184
754.306	0.0159145
754.384	0.0160358
754.462	0.0160633
754.540	0.0159462
754.619	0.0160592
754.697	0.0161009
754.775	0.0160981
754.853	0.0160025
754.931	0.0159852
755.009	0.0161366
755.087	0.0161521
755.165	0.0161308
755.244	0.0162968
755.322	0.0162399
755.400	0.0160107
755.478	0.0161311
755.556	0.0160212
755.634	0.0161671
755.712	0.0160680
755.790	0.0161299
755.869	0.0160567
755.947	0.0159634
756.025	0.0159297
756.103	0.0160597
756.181	0.0162016
756.259	0.0160632
756.337	0.0160015
756.415	0.0160157
756.494	0.0160918
756.572	0.0161457
756.650	0.0161345
756.728	0.0160688
756.806	0.0159834
756.884	0.0161014
756.962	0.0159404
757.040	0.0161322
757.119	0.0160274
757.197	0.0161159
757.275	0.0161214
757.353	0.0159705
757.431	0.0160119
757.509	0.0161223
757.587	0.0163416
757.665	0.0161607
757.744	0.0161996
757.822	0.0160538
757.900	0.0161260
757.978	0.0159751
758.056	0.0160136
758.134	0.0160268
758.212	0.0161539
758.290	0.0161214
758.369	0.0161410
758.447	0.0160946
758.525	0.0159984
758.603	0.0160210
758.681	0.0159941
758.759	0.0161203
758.837	0.0161513
758.915	0.0160346
758.994	0.0160114
759.072	0.0159866
759.150	0.0160100
759.228	0.0161819
759.306	0.0160830
759.384	0.0159509
759.462	0.0159200
759.540	0.0160010
759.619	0.0161325
759.697	0.0159875
759.775	0.0159505
759.853	0.0159885
759.931	0.0160840
760.009	0.0160980
760.087	0.0160515
760.165	0.0160426
760.244	0.0160913
760.322	0.0158865
760.400	0.0159537
760.478	0.0162031
760.556	0.0160075
760.634	0.0159562
760.712	0.0160239
760.790	0.0159050
760.869	0.0158852
760.947	0.0159921
761.025	0.0160485
761.103	0.0159763
761.181	0.0159102
761.259	0.0160337
761.337	0.0159852
761.415	0.0159366
761.494	0.0161251
761.572	0.0160710
761.650	0.0161369
761.728	0.0160174
761.806	0.0161446
761.884	0.0160397
761.962	0.0161552
762.040	0.0161185
762.119	0.0160794
762.197	0.0160043
762.275	0.0161249
762.353	0.0161009
762.431	0.0161604
762.509	0.0160854
762.587	0.0163364
762.665	0.0161870
762.744	0.0162675
762.822	0.0161954
762.900	0.0161791
762.978	0.0161775
763.056	0.0163213
763.134	0.0162509
763.212	0.0161185
763.290	0.0162125
763.369	0.0162385
763.447	0.0162219
763.525	0.0162039
763.603	0.0161581
763.681	0.0160699
763.759	0.0161001
763.837	0.0160657
763.915	0.0159484
763.994	0.0162207
764.072	0.0161358
764.150	0.0160603
764.228	0.0161395
764.306	0.0162418
764.384	0.0162928
764.462	0.0161453
764.540	0.0161048
764.619	0.0161993
764.697	0.0161291
764.775	0.0160255
764.853	0.0161029
764.931	0.0161118
765.009	0.0161266
765.087	0.0160447
765.165	0.0160583
765.244	0.0161107
765.322	0.0161244
765.400	0.0162244
765.478	0.0161014
765.556	0.0160342
765.634	0.0158530
765.712	0.0160000
765.790	0.0159801
765.869	0.0159450
765.947	0.0160413
766.025	0.0160377
766.103	0.0159082
766.181	0.0157628
766.259	0.0159669
766.337	0.0160303
766.415	0.0159733
766.494	0.0160553
766.572	0.0160674
766.650	0.0159444
766.728	0.0160609
766.806	0.0160208
766.884	0.0161090
766.962	0.0160096
767.040	0.0161052
767.119	0.0161222
767.197	0.0161472
767.275	0.0160809
767.353	0.0161076
767.431	0.0162015
767.509	0.0161640
767.587	0.0160540
767.665	0.0161752
767.744	0.0161872
767.822	0.0161078
767.900	0.0162243
767.978	0.0163091
768.056	0.0162081
768.134	0.0162466
768.212	0.0161716
768.290	0.0161214
768.369	0.0161161
768.447	0.0160030
768.525	0.0160610
768.603	0.0160379
768.681	0.0160841
768.759	0.0161809
768.837	0.0160796
768.915	0.0160664
768.994	0.0160000
769.072	0.0160142
769.150	0.0162891
769.228	0.0161192
769.306	0.0160743
769.384	0.0162099
769.462	0.0162284
769.540	0.0161850
769.619	0.0161945
769.697	0.0159066
769.775	0.0161751
769.853	0.0161739
769.931	0.0162135
770.009	0.0162380
770.087	0.0159867
770.165	0.0158673
770.244	0.0161315
770.322	0.0161732
770.400	0.0159787
770.478	0.0161265
770.556	0.0160509
770.634	0.0162836
770.712	0.0161855
770.790	0.0160825
770.869	0.0163092
770.947	0.0162079
771.025	0.0160999
771.103	0.0161321
771.181	0.0161044
771.259	0.0161650
771.337	0.0161874
771.415	0.0160801
771.494	0.0162221
771.572	0.0161182
771.650	0.0161264
771.728	0.0161726
771.806	0.0161135
771.884	0.0161215
771.962	0.0161942
772.040	0.0162376
772.119	0.0163357
772.197	0.0161678
772.275	0.0162761
772.353	0.0163042
772.431	0.0162408
772.509	0.0162318
772.587	0.0162738
772.665	0.0161659
772.744	0.0162862
772.822	0.0162071
772.900	0.0162644
772.978	0.0161448
773.056	0.0161179
773.134	0.0160857
773.212	0.0162397
773.290	0.0160805
773.369	0.0159857
773.447	0.0160374
773.525	0.0160452
773.603	0.0160802
773.681	0.0161160
773.759	0.0160754
773.837	0.0158991
773.915	0.0159048
773.994	0.0160672
774.072	0.0159258
774.150	0.0161109
774.228	0.0159888
774.306	0.0159797
774.384	0.0161038
774.462	0.0161025
774.540	0.0160832
774.619	0.0159531
774.697	0.0160567
774.775	0.0160841
774.853	0.0160500
774.931	0.0161221
775.009	0.0160390
775.087	0.0160904
775.165	0.0160831
775.244	0.0162800
775.322	0.0159032
775.400	0.0160271
775.478	0.0161691
775.556	0.0161261
775.634	0.0161377
775.712	0.0162075
775.790	0.0164024
775.869	0.0163606
775.947	0.0162000
776.025	0.0162781
776.103	0.0161283
776.181	0.0162437
776.259	0.0162585
776.337	0.0162088
776.415	0.0161515
776.494	0.0161126
776.572	0.0161733
776.650	0.0160887
776.728	0.0162032
776.806	0.0162435
776.884	0.0162505
776.962	0.0161205
777.040	0.0162003
777.119	0.0161988
777.197	0.0161326
777.275	0.0161510
777.353	0.0160786
777.431	0.0161250
777.509	0.0161818
777.587	0.0162176
777.665	0.0162930
777.744	0.0161781
777.822	0.0161391
777.900	0.0160721
777.978	0.0160757
778.056	0.0160157
778.134	0.0159560
778.212	0.0160565
778.290	0.0161157
778.369	0.0159489
778.447	0.0159644
778.525	0.0158809
778.603	0.0159842
778.681	0.0159674
778.759	0.0159782
778.837	0.0160908
778.915	0.0160498
778.994	0.0160838
779.072	0.0161840
779.150	0.0161845
779.228	0.0160416
779.306	0.0161682
779.384	0.0161434
779.462	0.0163383
779.540	0.0161275
779.619	0.0161178
779.697	0.0162134
779.775	0.0161282
779.853	0.0161784
779.931	0.0161290
780.009	0.0161381
780.087	0.0162479
780.165	0.0162000
780.244	0.0162339
780.322	0.0160522
780.400	0.0161781
780.478	0.0161238
780.556	0.0161645
780.634	0.0161553
780.712	0.0162135
780.790	0.0160903
780.869	0.0160306
780.947	0.0159435
781.025	0.0159444
781.103	0.0160757
781.181	0.0160799
781.259	0.0160126
781.337	0.0160374
781.415	0.0160812
781.494	0.0161286
781.572	0.0160272
781.650	0.0160191
781.728	0.0159692
781.806	0.0159887
781.884	0.0158899
781.962	0.0160026
782.040	0.0161835
782.119	0.0160069
782.197	0.0159421
782.275	0.0161048
782.353	0.0160987
782.431	0.0160368
782.509	0.0162148
782.587	0.0161446
782.665	0.0160064
782.744	0.0162115
782.822	0.0161624
782.900	0.0160670
782.978	0.0161275
783.056	0.0160583
783.134	0.0160297
783.212	0.0160656
783.290	0.0160680
783.369	0.0161291
783.447	0.0160273
783.525	0.0161459
783.603	0.0161086
783.681	0.0160423
783.759	0.0161734
783.837	0.0161051
783.915	0.0161874
783.994	0.0162160
784.072	0.0161960
784.150	0.0160518
784.228	0.0161746
784.306	0.0160457
784.384	0.0161351
784.462	0.0161588
784.540	0.0161838
784.619	0.0160249
784.697	0.0159229
784.775	0.0161935
784.853	0.0159719
784.931	0.0159154
785.009	0.0158250
785.087	0.0159609
785.165	0.0160987
785.244	0.0160168
785.322	0.0161884
785.400	0.0162933
785.478	0.0161224
785.556	0.0161913
785.634	0.0162820
785.712	0.0162048
785.790	0.0162026
785.869	0.0163116
785.947	0.0163578
786.025	0.0161874
786.103	0.0162661
786.181	0.0162973
786.259	0.0162167
786.337	0.0163313
786.415	0.0162903
786.494	0.0162536
786.572	0.0162428
786.650	0.0163084
786.728	0.0163174
786.806	0.0162605
786.884	0.0160697
786.962	0.0161366
787.040	0.0162580
787.119	0.0160955
787.197	0.0161697
787.275	0.0161147
787.353	0.0162177
787.431	0.0161623
787.509	0.0160875
787.587	0.0161425
787.665	0.0160799
787.744	0.0160948
787.822	0.0159919
787.900	0.0160772
787.978	0.0160230
788.056	0.0159457
788.134	0.0160452
788.212	0.0159805
788.290	0.0160416
788.369	0.0160788
788.447	0.0159487
788.525	0.0159868
788.603	0.0161053
788.681	0.0160635
788.759	0.0161323
788.837	0.0160666
788.915	0.0160497
788.994	0.0162471
789.072	0.0161298
789.150	0.0160371
789.228	0.0160716
789.306	0.0161451
789.384	0.0162190
789.462	0.0161514
789.540	0.0161680
789.619	0.0161493
789.697	0.0161890
789.775	0.0160993
789.853	0.0163889
789.931	0.0162202
790.009	0.0162637
790.087	0.0160669
790.165	0.0161189
790.244	0.0162334
790.322	0.0162318
790.400	0.0161930
790.478	0.0161635
790.556	0.0163717
790.634	0.0162380
790.712	0.0162124
790.790	0.0162112
790.869	0.0163261
790.947	0.0162910
791.025	0.0162994
791.103	0.0163036
791.181	0.0163158
791.259	0.0162937
791.337	0.0162955
791.415	0.0161311
791.494	0.0162111
791.572	0.0161082
791.650	0.0161396
791.728	0.0161113
791.806	0.0160055
791.884	0.0161137
791.962	0.0159768
792.040	0.0160709
792.119	0.0159719
792.197	0.0159387
792.275	0.0160847
792.353	0.0159069
792.431	0.0159386
792.509	0.0159638
792.587	0.0158743
792.665	0.0159785
792.744	0.0160392
792.822	0.0160240
792.900	0.0159053
792.978	0.0158931
793.056	0.0160863
793.134	0.0160356
793.212	0.0160513
793.290	0.0159248
793.369	0.0161813
793.447	0.0161175
793.525	0.0162148
793.603	0.0162466
793.681	0.0162469
793.759	0.0161474
793.837	0.0160799
793.915	0.0161585
793.994	0.0161862
794.072	0.0162138
794.150	0.0162720
794.228	0.0162595
794.306	0.0162051
794.384	0.0161809
794.462	0.0162564
794.540	0.0162598
794.619	0.0163547
794.697	0.0163359
794.775	0.0162292
794.853	0.0162421
794.931	0.0162379
795.009	0.0164053
795.087	0.0163416
795.165	0.0163889
795.244	0.0164247
795.322	0.0163863
795.400	0.0165005
795.478	0.0163850
795.556	0.0163356
795.634	0.0164371
795.712	0.0164039
795.790	0.0162819
795.869	0.0161826
795.947	0.0163336
796.025	0.0162601
796.103	0.0161438
796.181	0.0160502
796.259	0.0159916
796.337	0.0161643
796.415	0.0160701
796.494	0.0158956
796.572	0.0159005
796.650	0.0160416
796.728	0.0159236
796.806	0.0159921
796.884	0.0159055
796.962	0.0157697
797.040	0.0156141
797.119	0.0159102
797.197	0.0159348
797.275	0.0157295
797.353	0.0158688
797.431	0.0159129
797.509	0.0158242
797.587	0.0159118
797.665	0.0158268
797.744	0.0160028
797.822	0.0160171
797.900	0.0158904
797.978	0.0159301
798.056	0.0159473
798.134	0.0161479
798.212	0.0160632
798.290	0.0160155
798.369	0.0161703
798.447	0.0161050
798.525	0.0161502
798.603	0.0161557
798.681	0.0160722
798.759	0.0161579
798.837	0.0161797
798.915	0.0161672
798.994	0.0163372
799.072	0.0163820
799.150	0.0163375
799.228	0.0162788
799.306	0.0162621
799.384	0.0164519
799.462	0.0163831
799.540	0.0164113
799.619	0.0163173
799.697	0.0163322
799.775	0.0163313
799.853	0.0163838
799.931	0.0164812
800.009	0.0162399
800.087	0.0162015
800.165	0.0164729
800.244	0.0164446
800.322	0.0161958
800.400	0.0162478
800.478	0.0160953
800.556	0.0162219
800.634	0.0163139
800.712	0.0163867
800.790	0.0161555
800.869	0.0163169
800.947	0.0161322
801.025	0.0161038
801.103	0.0161080
801.181	0.0160776
801.259	0.0162193
801.337	0.0161108
801.415	0.0160865
801.494	0.0159380
801.572	0.0159396
801.650	0.0159183
801.728	0.0160066
801.806	0.0160123
801.884	0.0159220
801.962	0.0159947
802.040	0.0160205
802.119	0.0160578
802.197	0.0159882
802.275	0.0160232
802.353	0.0160094
802.431	0.0160563
802.509	0.0160056
802.587	0.0160206
802.665	0.0160220
802.744	0.0161852
802.822	0.0161844
802.900	0.0160111
802.978	0.0161017
803.056	0.0160309
803.134	0.0160515
803.212	0.0161602
803.290	0.0160789
803.369	0.0162045
803.447	0.0160733
803.525	0.0162479
803.603	0.0161848
803.681	0.0160276
803.759	0.0159583
803.837	0.0162663
803.915	0.0161851
803.994	0.0161224
804.072	0.0160769
804.150	0.0161571
804.228	0.0161285
804.306	0.0162761
804.384	0.0162061
804.462	0.0161110
804.540	0.0162035
804.619	0.0161600
804.697	0.0161437
804.775	0.0160624
804.853	0.0162018
804.931	0.0163169
805.009	0.0161163
805.087	0.0162326
805.165	0.0161549
805.244	0.0161657
805.322	0.0161719
805.400	0.0162066
805.478	0.0162698
805.556	0.0161889
805.634	0.0161758
805.712	0.0161119
805.790	0.0160596
805.869	0.0161818
805.947	0.0162165
806.025	0.0160769
806.103	0.0161059
806.181	0.0161965
806.259	0.0161627
806.337	0.0161209
806.415	0.0161452
806.494	0.0161810
806.572	0.0161909
806.650	0.0162483
806.728	0.0161971
806.806	0.0162009
806.884	0.0161572
806.962	0.0162135
807.040	0.0160905
807.119	0.0162379
807.197	0.0162213
807.275	0.0162162
807.353	0.0163979
807.431	0.0162825
807.509	0.0163229
807.587	0.0163320
807.665	0.0161909
807.744	0.0162846
807.822	0.0163228
807.900	0.0161697
807.978	0.0161370
808.056	0.0161218
808.134	0.0163206
808.212	0.0163931
808.290	0.0161662
808.369	0.0161541
808.447	0.0160968
808.525	0.0162746
808.603	0.0162033
808.681	0.0160952
808.759	0.0159151
808.837	0.0160342
808.915	0.0161789
808.994	0.0160726
809.072	0.0161472
809.150	0.0161104
809.228	0.0160271
809.306	0.0160188
809.384	0.0159375
809.462	0.0161336
809.540	0.0161786
809.619	0.0161198
809.697	0.0160023
809.775	0.0159290
809.853	0.0160845
809.931	0.0159700
810.009	0.0160663
810.087	0.0160260
810.165	0.0161220
810.244	0.0161330
810.322	0.0161160
810.400	0.0160954
810.478	0.0161354
810.556	0.0161133
810.634	0.0161036
810.712	0.0161730
810.790	0.0161462
810.869	0.0160670
810.947	0.0160616
811.025	0.0160105
811.103	0.0160233
811.181	0.0161123
811.259	0.0161962
811.337	0.0161097
811.415	0.0161744
811.494	0.0161780
811.572	0.0161981
811.650	0.0162852
811.728	0.0161557
811.806	0.0162869
811.884	0.0163388
811.962	0.0163731
812.040	0.0162959
812.119	0.0162066
812.197	0.0161869
812.275	0.0162709
812.353	0.0162443
812.431	0.0161160
812.509	0.0161179
812.587	0.0161752
812.665	0.0162077
812.744	0.0161172
812.822	0.0159992
812.900	0.0162157
812.978	0.0162248
813.056	0.0161596
813.134	0.0160992
813.212	0.0161882
813.290	0.0160585
813.369	0.0162521
813.447	0.0160308
813.525	0.0161450
813.603	0.0161822
813.681	0.0161681
813.759	0.0162973
813.837	0.0162421
813.915	0.0163470
813.994	0.0162271
814.072	0.0161486
814.150	0.0162762
814.228	0.0162121
814.306	0.0161511
814.384	0.0160819
814.462	0.0160709
814.540	0.0161954
814.619	0.0161795
814.697	0.0161514
814.775	0.0161470
814.853	0.0161282
814.931	0.0160969
815.009	0.0162648
815.087	0.0160637
815.165	0.0162273
815.244	0.0161560
815.322	0.0161702
815.400	0.0162795
815.478	0.0161542
815.556	0.0162024
815.634	0.0161318
815.712	0.0162419
815.790	0.0162589
815.869	0.0162014
815.947	0.0162694
816.025	0.0162080
816.103	0.0162376
816.181	0.0162100
816.259	0.0162393
816.337	0.0161702
816.415	0.0161503
816.494	0.0161036
816.572	0.0161233
816.650	0.0162092
816.728	0.0161526
816.806	0.0161378
816.884	0.0161219
816.962	0.0160558
817.040	0.0161046
817.119	0.0159673
817.197	0.0161041
817.275	0.0159558
817.353	0.0160059
817.431	0.0159627
817.509	0.0159396
817.587	0.0161420
817.665	0.0159619
817.744	0.0158674
817.822	0.0159882
817.900	0.0160415
817.978	0.0159959
818.056	0.0159702
818.134	0.0160328
818.212	0.0159168
818.290	0.0159802
818.369	0.0161168
818.447	0.0161185
818.525	0.0160223
818.603	0.0160821
818.681	0.0160913
818.759	0.0159573
818.837	0.0161667
818.915	0.0163213
818.994	0.0162291
819.072	0.0160670
819.150	0.0161988
819.228	0.0162344
819.306	0.0161198
819.384	0.0162643
819.462	0.0161632
819.540	0.0161942
819.619	0.0163657
819.697	0.0163624
819.775	0.0162883
819.853	0.0161700
819.931	0.0162724
820.009	0.0163156
820.087	0.0163242
820.165	0.0163194
820.244	0.0162962
820.322	0.0162070
820.400	0.0162674
820.478	0.0163769
820.556	0.0161971
820.634	0.0162141
820.712	0.0163123
820.790	0.0162318
820.869	0.0162253
820.947	0.0161797
821.025	0.0160667
821.103	0.0162309
821.181	0.0162901
821.259	0.0161909
821.337	0.0161370
821.415	0.0159652
821.494	0.0162353
821.572	0.0162370
821.650	0.0161857
821.728	0.0161307
821.806	0.0159657
821.884	0.0161972
821.962	0.0161048
822.040	0.0160522
822.119	0.0160753
822.197	0.0160843
822.275	0.0160802
822.353	0.0160165
822.431	0.0161285
822.509	0.0160624
822.587	0.0161324
822.665	0.0161745
822.744	0.0161378
822.822	0.0160423
822.900	0.0160699
822.978	0.0161362
823.056	0.0160879
823.134	0.0161013
823.212	0.0161285
823.290	0.0161084
823.369	0.0160308
823.447	0.0162126
823.525	0.0161540
823.603	0.0160846
823.681	0.0162697
823.759	0.0161429
823.837	0.0160123
823.915	0.0162039
823.994	0.0162939
824.072	0.0161588
824.150	0.0161997
824.228	0.0162420
824.306	0.0162157
824.384	0.0160378
824.462	0.0161584
824.540	0.0162051
824.619	0.0161493
824.697	0.0161700
824.775	0.0160555
824.853	0.0160387
824.931	0.0160324
825.009	0.0162334
825.087	0.0162400
825.165	0.0161599
825.244	0.0160751
825.322	0.0160839
825.400	0.0161082
825.478	0.0163057
825.556	0.0162862
825.634	0.0161326
825.712	0.0162017
825.790	0.0162971
825.869	0.0161068
825.947	0.0160574
826.025	0.0161470
826.103	0.0161504
826.181	0.0161381
826.259	0.0162180
826.337	0.0162160
826.415	0.0161279
826.494	0.0160560
826.572	0.0161932
826.650	0.0160865
826.728	0.0162730
826.806	0.0160734
826.884	0.0160310
826.962	0.0161246
827.040	0.0161699
827.119	0.0160982
827.197	0.0160345
827.275	0.0161737
827.353	0.0162221
827.431	0.0161781
827.509	0.0160479
827.587	0.0161872
827.665	0.0160896
827.744	0.0160659
827.822	0.0162882
827.900	0.0161176
827.978	0.0161535
828.056	0.0161801
828.134	0.0162071
828.212	0.0161589
828.290	0.0162205
828.369	0.0161266
828.447	0.0161778
828.525	0.0162159
828.603	0.0162351
828.681	0.0162004
828.759	0.0161174
828.837	0.0161824
828.915	0.0161847
828.994	0.0162224
829.072	0.0160648
829.150	0.0162062
829.228	0.0162333
829.306	0.0160828
829.384	0.0162403
829.462	0.0161342
829.540	0.0164463
829.619	0.0161485
829.697	0.0160602
829.775	0.0161701
829.853	0.0162238
829.931	0.0162797
830.009	0.0161703
830.087	0.0161208
830.165	0.0161507
830.244	0.0161017
830.322	0.0161054
830.400	0.0161407
830.478	0.0161687
830.556	0.0161560
830.634	0.0161245
830.712	0.0159135
830.790	0.0160897
830.869	0.0160633
830.947	0.0160199
831.025	0.0160728
831.103	0.0159646
831.181	0.0159793
831.259	0.0161236
831.337	0.0159460
831.415	0.0159901
831.494	0.0160157
831.572	0.0160289
831.650	0.0160141
831.728	0.0159335
831.806	0.0160336
831.884	0.0160278
831.962	0.0159627
832.040	0.0159505
832.119	0.0159636
832.197	0.0159838
832.275	0.0159786
832.353	0.0159715
832.431	0.0160590
832.509	0.0161459
832.587	0.0160023
832.665	0.0160120
832.744	0.0159126
832.822	0.0159612
832.900	0.0159303
832.978	0.0159454
833.056	0.0160271
833.134	0.0160178
833.212	0.0160529
833.290	0.0160517
833.369	0.0160018
833.447	0.0160466
833.525	0.0160727
833.603	0.0161736
833.681	0.0161581
833.759	0.0161329
833.837	0.0161518
833.915	0.0162228
833.994	0.0162724
834.072	0.0163274
834.150	0.0161421
834.228	0.0162824
834.306	0.0162737
834.384	0.0161913
834.462	0.0163727
834.540	0.0163304
834.619	0.0161576
834.697	0.0160981
834.775	0.0161612
834.853	0.0160606
834.931	0.0161932
835.009	0.0160693
835.087	0.0160893
835.165	0.0161318
835.244	0.0160908
835.322	0.0161665
835.400	0.0161562
835.478	0.0160921
835.556	0.0161386
835.634	0.0160405
835.712	0.0161802
835.790	0.0160302
835.869	0.0160649
835.947	0.0162183
836.025	0.0162631
836.103	0.0161424
836.181	0.0162730
836.259	0.0161979
836.337	0.0161089
836.415	0.0161368
836.494	0.0161234
836.572	0.0162402
836.650	0.0161346
836.728	0.0160844
836.806	0.0160960
836.884	0.0160092
836.962	0.0161686
837.040	0.0161691
837.119	0.0161799
837.197	0.0159441
837.275	0.0161118
837.353	0.0159748
837.431	0.0160423
837.509	0.0161101
837.587	0.0160574
837.665	0.0159917
837.744	0.0160300
837.822	0.0161089
837.900	0.0159393
837.978	0.0160689
838.056	0.0160157
838.134	0.0160861
838.212	0.0161882
838.290	0.0161626
838.369	0.0160933
838.447	0.0160233
838.525	0.0160792
838.603	0.0161681
838.681	0.0160327
838.759	0.0159956
838.837	0.0161092
838.915	0.0161115
838.994	0.0161423
839.072	0.0162780
839.150	0.0160831
839.228	0.0160451
839.306	0.0161627
839.384	0.0160669
839.462	0.0161055
839.540	0.0160950
839.619	0.0160677
839.697	0.0161520
839.775	0.0160726
839.853	0.0160314
839.931	0.0160214
840.009	0.0159913
840.087	0.0159872
840.165	0.0160593
840.244	0.0160807
840.322	0.0160081
840.400	0.0159271
840.478	0.0160966
840.556	0.0160060
840.634	0.0161375
840.712	0.0160403
840.790	0.0161548
840.869	0.0160421
840.947	0.0159312
841.025	0.0160891
841.103	0.0160443
841.181	0.0160975
841.259	0.0160165
841.337	0.0160165
841.415	0.0159831
841.494	0.0162112
841.572	0.0161060
841.650	0.0160629
841.728	0.0162278
841.806	0.0161506
841.884	0.0160585
841.962	0.0160113
842.040	0.0162592
842.119	0.0161823
842.197	0.0162032
842.275	0.0161734
842.353	0.0161681
842.431	0.0161532
842.509	0.0162029
842.587	0.0161375
842.665	0.0160966
842.744	0.0161654
842.822	0.0162540
842.900	0.0159956
842.978	0.0160992
843.056	0.0160907
843.134	0.0161872
843.212	0.0161332
843.290	0.0160864
843.369	0.0162643
843.447	0.0161354
843.525	0.0161066
843.603	0.0161008
843.681	0.0160493
843.759	0.0161800
843.837	0.0162012
843.915	0.0161840
843.994	0.0161765
844.072	0.0161960
844.150	0.0162163
844.228	0.0160789
844.306	0.0161000
844.384	0.0162597
844.462	0.0161126
844.540	0.0161520
844.619	0.0161835
844.697	0.0160542
844.775	0.0160797
844.853	0.0161539
844.931	0.0161830
845.009	0.0162923
845.087	0.0162176
845.165	0.0160618
845.244	0.0161333
845.322	0.0163145
845.400	0.0161190
845.478	0.0161594
845.556	0.0161342
845.634	0.0161665
845.712	0.0162321
845.790	0.0161595
845.869	0.0161847
845.947	0.0161180
846.025	0.0161076
846.103	0.0160836
846.181	0.0160875
846.259	0.0160621
846.337	0.0161346
846.415	0.0161313
846.494	0.0160370
846.572	0.0160632
846.650	0.0160456
846.728	0.0160390
846.806	0.0160947
846.884	0.0161343
846.962	0.0160367
847.040	0.0161280
847.119	0.0161090
847.197	0.0160690
847.275	0.0161387
847.353	0.0161197
847.431	0.0161405
847.509	0.0162221
847.587	0.0160698
847.665	0.0161987
847.744	0.0162267
847.822	0.0161324
847.900	0.0162969
847.978	0.0162246
848.056	0.0161674
848.134	0.0160681
848.212	0.0160053
848.290	0.0159916
848.369	0.0161311
848.447	0.0161001
848.525	0.0159933
848.603	0.0159437
848.681	0.0158598
848.759	0.0159324
848.837	0.0159171
848.915	0.0160801
848.994	0.0160149
849.072	0.0159560
849.150	0.0159538
849.228	0.0160059
849.306	0.0161242
849.384	0.0160993
849.462	0.0162447
849.540	0.0160529
849.619	0.0161276
849.697	0.0161670
849.775	0.0161952
849.853	0.0161110
849.931	0.0161890
850.009	0.0160023
850.087	0.0162319
850.165	0.0161794
850.244	0.0161073
850.322	0.0160651
850.400	0.0161940
850.478	0.0161144
850.556	0.0159801
850.634	0.0161060
850.712	0.0160858
850.790	0.0160524
850.869	0.0161244
850.947	0.0162654
851.025	0.0160133
851.103	0.0159768
851.181	0.0160296
851.259	0.0162041
851.337	0.0161465
851.415	0.0161246
851.494	0.0160691
851.572	0.0161518
851.650	0.0162678
851.728	0.0161433
851.806	0.0162479
851.884	0.0163077
851.962	0.0160461
852.040	0.0161389
852.119	0.0161588
852.197	0.0160879
852.275	0.0161283
852.353	0.0160551
852.431	0.0161613
852.509	0.0161619
852.587	0.0160061
852.665	0.0160904
852.744	0.0160968
852.822	0.0160368
852.900	0.0160077
852.978	0.0160101
853.056	0.0161941
853.134	0.0160339
853.212	0.0160786
853.290	0.0161118
853.369	0.0158929
853.447	0.0160022
853.525	0.0160292
853.603	0.0159801
853.681	0.0160129
853.759	0.0159860
853.837	0.0159729
853.915	0.0160099
853.994	0.0161869
854.072	0.0160194
854.150	0.0159982
854.228	0.0159356
854.306	0.0160539
854.384	0.0160658
854.462	0.0159858
854.540	0.0160517
854.619	0.0159806
854.697	0.0159719
854.775	0.0160859
854.853	0.0159696
854.931	0.0161306
855.009	0.0160946
855.087	0.0160396
855.165	0.0159497
855.244	0.0160546
855.322	0.0161246
855.400	0.0161513
855.478	0.0160789
855.556	0.0159848
855.634	0.0161117
855.712	0.0161230
855.790	0.0160125
855.869	0.0161294
855.947	0.0161440
856.025	0.0159888
856.103	0.0161620
856.181	0.0161040
856.259	0.0161488
856.337	0.0162453
856.415	0.0162646
856.494	0.0162649
856.572	0.0162535
856.650	0.0162427
856.728	0.0161906
856.806	0.0162541
856.884	0.0161482
856.962	0.0161691
857.040	0.0161986
857.119	0.0163403
857.197	0.0163715
857.275	0.0161253
857.353	0.0162074
857.431	0.0161126
857.509	0.0161050
857.587	0.0162152
857.665	0.0162039
857.744	0.0162390
857.822	0.0161890
857.900	0.0160461
857.978	0.0161138
858.056	0.0160427
858.134	0.0162077
858.212	0.0161698
858.290	0.0161558
858.369	0.0160426
858.447	0.0160716
858.525	0.0160342
858.603	0.0161443
858.681	0.0159839
858.759	0.0160022
858.837	0.0160043
858.915	0.0160030
858.994	0.0159657
859.072	0.0159241
859.150	0.0158704
859.228	0.0159590
859.306	0.0159296
859.384	0.0159851
859.462	0.0160158
859.540	0.0159885
859.619	0.0159410
859.697	0.0159638
859.775	0.0160521
859.853	0.0158704
859.931	0.0160914
860.009	0.0159196
860.087	0.0160118
860.165	0.0160942
860.244	0.0158865
860.322	0.0160303
860.400	0.0160200
860.478	0.0160122
860.556	0.0161074
860.634	0.0160563
860.712	0.0160740
860.790	0.0160823
860.869	0.0161372
860.947	0.0161488
861.025	0.0161404
861.103	0.0162222
861.181	0.0163014
861.259	0.0160663
861.337	0.0162187
861.415	0.0163086
861.494	0.0162636
861.572	0.0161760
861.650	0.0162067
861.728	0.0163371
861.806	0.0161938
861.884	0.0161501
861.962	0.0163474
862.040	0.0162865
862.119	0.0162005
862.197	0.0162757
862.275	0.0161489
862.353	0.0161304
862.431	0.0160275
862.509	0.0160757
862.587	0.0161697
862.665	0.0160709
862.744	0.0160989
862.822	0.0161890
862.900	0.0160044
862.978	0.0161844
863.056	0.0161005
863.134	0.0160583
863.212	0.0159451
863.290	0.0160261
863.369	0.0161668
863.447	0.0160281
863.525	0.0161937
863.603	0.0160638
863.681	0.0160469
863.759	0.0161954
863.837	0.0161526
863.915	0.0160896
863.994	0.0160571
864.072	0.0160305
864.150	0.0160052
864.228	0.0160587
864.306	0.0160994
864.384	0.0160424
864.462	0.0160484
864.540	0.0161504
864.619	0.0159009
864.697	0.0160281
864.775	0.0159682
864.853	0.0162176
864.931	0.0162383
865.009	0.0160633
865.087	0.0161331
865.165	0.0160028
865.244	0.0160201
865.322	0.0160074
865.400	0.0161965
865.478	0.0161455
865.556	0.0161420
865.634	0.0163004
865.712	0.0160931
865.790	0.0161830
865.869	0.0162384
865.947	0.0162018
866.025	0.0162685
866.103	0.0162968
866.181	0.0162360
866.259	0.0163557
866.337	0.0163356
866.415	0.0162488
866.494	0.0161574
866.572	0.0161537
866.650	0.0162025
866.728	0.0161601
866.806	0.0162254
866.884	0.0161751
866.962	0.0161785
867.040	0.0161859
867.119	0.0160612
867.197	0.0161577
867.275	0.0161713
867.353	0.0161674
867.431	0.0162198
867.509	0.0162343
867.587	0.0160889
867.665	0.0160709
867.744	0.0160865
867.822	0.0161180
867.900	0.0161957
867.978	0.0162315
868.056	0.0160686
868.134	0.0161034
868.212	0.0160194
868.290	0.0160905
868.369	0.0160584
868.447	0.0160006
868.525	0.0159728
868.603	0.0160168
868.681	0.0160577
868.759	0.0160351
868.837	0.0160521
868.915	0.0160955
868.994	0.0161489
869.072	0.0160157
869.150	0.0160676
869.228	0.0161050
869.306	0.0161652
869.384	0.0161055
869.462	0.0160928
869.540	0.0161578
869.619	0.0161593
869.697	0.0161349
869.775	0.0161493
869.853	0.0161118
869.931	0.0160901
870.009	0.0161839
870.087	0.0160939
870.165	0.0160803
870.244	0.0160623
870.322	0.0160509
870.400	0.0161140
870.478	0.0161527
870.556	0.0162749
870.634	0.0162317
870.712	0.0161555
870.790	0.0161584
870.869	0.0161234
870.947	0.0161633
871.025	0.0162571
871.103	0.0162173
871.181	0.0162431
871.259	0.0162404
871.337	0.0161443
871.415	0.0162406
871.494	0.0162198
871.572	0.0161304
871.650	0.0160156
871.728	0.0160783
871.806	0.0161558
871.884	0.0162019
871.962	0.0162806
872.040	0.0161717
872.119	0.0161499
872.197	0.0160651
872.275	0.0159543
872.353	0.0161609
872.431	0.0160007
872.509	0.0159406
872.587	0.0159603
872.665	0.0161047
872.744	0.0160836
872.822	0.0161044
872.900	0.0159778
872.978	0.0160397
873.056	0.0160827
873.134	0.0161388
873.212	0.0160199
873.290	0.0160807
873.369	0.0162125
873.447	0.0161021
873.525	0.0161850
873.603	0.0162012
873.681	0.0162096
873.759	0.0161908
873.837	0.0162933
873.915	0.0162523
873.994	0.0163155
874.072	0.0164777
874.150	0.0163930
874.228	0.0161550
874.306	0.0161870
874.384	0.0162202
874.462	0.0162616
874.540	0.0161905
874.619	0.0162009
874.697	0.0163409
874.775	0.0160858
874.853	0.0163477
874.931	0.0162374
875.009	0.0161472
875.087	0.0161165
875.165	0.0160958
875.244	0.0161156
875.322	0.0160810
875.400	0.0160616
875.478	0.0160387
875.556	0.0160264
875.634	0.0160732
875.712	0.0160716
875.790	0.0160170
875.869	0.0160032
875.947	0.0161105
876.025	0.0161622
876.103	0.0159798
876.181	0.0160688
876.259	0.0160922
876.337	0.0160413
876.415	0.0160422
876.494	0.0161285
876.572	0.0160074
876.650	0.0161848
876.728	0.0161675
876.806	0.0162167
876.884	0.0163384
876.962	0.0162170
877.040	0.0161120
877.119	0.0161194
877.197	0.0164005
877.275	0.0163477
877.353	0.0161584
877.431	0.0161676
877.509	0.0163646
877.587	0.0163883
877.665	0.0162962
877.744	0.0163044
877.822	0.0163623
877.900	0.0161829
877.978	0.0161742
878.056	0.0161647
878.134	0.0162524
878.212	0.0161893
878.290	0.0161334
878.369	0.0162340
878.447	0.0160893
878.525	0.0160965
878.603	0.0161107
878.681	0.0161330
878.759	0.0160582
878.837	0.0159699
878.915	0.0160330
878.994	0.0159981
879.072	0.0159395
879.150	0.0160514
879.228	0.0161557
879.306	0.0160849
879.384	0.0161661
879.462	0.0160869
879.540	0.0161779
879.619	0.0161982
879.697	0.0162479
879.775	0.0162691
879.853	0.0161901
879.931	0.0161127
880.009	0.0161664
880.087	0.0160725
880.165	0.0161971
880.244	0.0161855
880.322	0.0161811
880.400	0.0160992
880.478	0.0161861
880.556	0.0161375
880.634	0.0160479
880.712	0.0160513
880.790	0.0161310
880.869	0.0161961
880.947	0.0160575
881.025	0.0162146
881.103	0.0162099
881.181	0.0161949
881.259	0.0163454
881.337	0.0162561
881.415	0.0161775
881.494	0.0162453
881.572	0.0163791
881.650	0.0162841
881.728	0.0162233
881.806	0.0163091
881.884	0.0162109
881.962	0.0160823
882.040	0.0161266
882.119	0.0161261
882.197	0.0161665
882.275	0.0161208
882.353	0.0160339
882.431	0.0160284
882.509	0.0160090
882.587	0.0159235
882.665	0.0160110
882.744	0.0161981
882.822	0.0161124
882.900	0.0161316
882.978	0.0160209
883.056	0.0159624
883.134	0.0160722
883.212	0.0161644
883.290	0.0162811
883.369	0.0161160
883.447	0.0161689
883.525	0.0162062
883.603	0.0162727
883.681	0.0161832
883.759	0.0160551
883.837	0.0162628
883.915	0.0162850
883.994	0.0161502
884.072	0.0161491
884.150	0.0161096
884.228	0.0161869
884.306	0.0161906
884.384	0.0161275
884.462	0.0160133
884.540	0.0161295
884.619	0.0161168
884.697	0.0162370
884.775	0.0161007
884.853	0.0160268
884.931	0.0160344
885.009	0.0160324
885.087	0.0160112
885.165	0.0162408
885.244	0.0161659
885.322	0.0161074
885.400	0.0161751
885.478	0.0161857
885.556	0.0161972
885.634	0.0160553
885.712	0.0161430
885.790	0.0162619
885.869	0.0161523
885.947	0.0162289
886.025	0.0161063
886.103	0.0161683
886.181	0.0161222
886.259	0.0161223
886.337	0.0163046
886.415	0.0161594
886.494	0.0160585
886.572	0.0160613
886.650	0.0160603
886.728	0.0160252
886.806	0.0160189
886.884	0.0159783
886.962	0.0160735
887.040	0.0160622
887.119	0.0160921
887.197	0.0161536
887.275	0.0160545
887.353	0.0161073
887.431	0.0160183
887.509	0.0159947
887.587	0.0160933
887.665	0.0162431
887.744	0.0162634
887.822	0.0161516
887.900	0.0161732
887.978	0.0161884
888.056	0.0161160
888.134	0.0161408
888.212	0.0162878
888.290	0.0161737
888.369	0.0160632
888.447	0.0161993
888.525	0.0160945
888.603	0.0160168
888.681	0.0162067
888.759	0.0160120
888.837	0.0160916
888.915	0.0162409
888.994	0.0160998
889.072	0.0162695
889.150	0.0162017
889.228	0.0162559
889.306	0.0162765
889.384	0.0161862
889.462	0.0160912
889.540	0.0162462
889.619	0.0162718
889.697	0.0162031
889.775	0.0162384
889.853	0.0159278
889.931	0.0161450
890.009	0.0162321
890.087	0.0160558
890.165	0.0160760
890.244	0.0160879
890.322	0.0162034
890.400	0.0162466
890.478	0.0161616
890.556	0.0163131
890.634	0.0161866
890.712	0.0161493
890.790	0.0162098
890.869	0.0161539
890.947	0.0160554
891.025	0.0161340
891.103	0.0162112
891.181	0.0161984
891.259	0.0161969
891.337	0.0159882
891.415	0.0160018
891.494	0.0158997
891.572	0.0159449
891.650	0.0160852
891.728	0.0160966
891.806	0.0159230
891.884	0.0161156
891.962	0.0159487
892.040	0.0161339
892.119	0.0160022
892.197	0.0159538
892.275	0.0160349
892.353	0.0160775
892.431	0.0161323
892.509	0.0161306
892.587	0.0160320
892.665	0.0160825
892.744	0.0161826
892.822	0.0162009
892.900	0.0161572
892.978	0.0161896
893.056	0.0162762
893.134	0.0162038
893.212	0.0162267
893.290	0.0162352
893.369	0.0163056
893.447	0.0161783
893.525	0.0159787
893.603	0.0160999
893.681	0.0161819
893.759	0.0161517
893.837	0.0160410
893.915	0.0161898
893.994	0.0161305
894.072	0.0161172
894.150	0.0161533
894.228	0.0160437
894.306	0.0162099
894.384	0.0162545
894.462	0.0160999
894.540	0.0162961
894.619	0.0162484
894.697	0.0161732
894.775	0.0161714
894.853	0.0162433
894.931	0.0163181
895.009	0.0163082
895.087	0.0162600
895.165	0.0162326
895.244	0.0160297
895.322	0.0162348
895.400	0.0162438
895.478	0.0163585
895.556	0.0160757
895.634	0.0160782
895.712	0.0161419
895.790	0.0162127
895.869	0.0160716
895.947	0.0160386
896.025	0.0160865
896.103	0.0159471
896.181	0.0160982
896.259	0.0161462
896.337	0.0161120
896.415	0.0161388
896.494	0.0161345
896.572	0.0160487
896.650	0.0160989
896.728	0.0159318
896.806	0.0160309
896.884	0.0161120
896.962	0.0160444
897.040	0.0160503
897.119	0.0161240
897.197	0.0160361
897.275	0.0161413
897.353	0.0161475
897.431	0.0160136
897.509	0.0159867
897.587	0.0161438
897.665	0.0161346
897.744	0.0161015
897.822	0.0160519
897.900	0.0160622
897.978	0.0161305
898.056	0.0161218
898.134	0.0162032
898.212	0.0160992
898.290	0.0160305
898.369	0.0160069
898.447	0.0160585
898.525	0.0161376
898.603	0.0160894
898.681	0.0161445
898.759	0.0161156
898.837	0.0162094
898.915	0.0160130
898.994	0.0161003
899.072	0.0160678
899.150	0.0162280
899.228	0.0160773
899.306	0.0160619
899.384	0.0161130
899.462	0.0160333
899.540	0.0161319
899.619	0.0161073
899.697	0.0160715
899.775	0.0161765
899.853	0.0161008
899.931	0.0160985
900.009	0.0159312
900.087	0.0159322
900.165	0.0160271
900.244	0.0160082
900.322	0.0158720
900.400	0.0160172
900.478	0.0162098
900.556	0.0161838
900.634	0.0161464
900.712	0.0161130
900.790	0.0162811
900.869	0.0162437
900.947	0.0163408
901.025	0.0162357
901.103	0.0162215
901.181	0.0162580
901.259	0.0161831
901.337	0.0161554
901.415	0.0163016
901.494	0.0162064
901.572	0.0161053
901.650	0.0160598
901.728	0.0161137
901.806	0.0161165
901.884	0.0161977
901.962	0.0159875
902.040	0.0159973
902.119	0.0160838
902.197	0.0161016
902.275	0.0161301
902.353	0.0158891
902.431	0.0161012
902.509	0.0160625
902.587	0.0161094
902.665	0.0160775
902.744	0.0161523
902.822	0.0161970
902.900	0.0161067
902.978	0.0161211
903.056	0.0161359
903.134	0.0161311
903.212	0.0160833
903.290	0.0162097
903.369	0.0161678
903.447	0.0161696
903.525	0.0160685
903.603	0.0160769
903.681	0.0162012
903.759	0.0163325
903.837	0.0161372
903.915	0.0160371
903.994	0.0160289
904.072	0.0161199
904.150	0.0159180
904.228	0.0159566
904.306	0.0160893
904.384	0.0160480
904.462	0.0159301
904.540	0.0160126
904.619	0.0160526
904.697	0.0160679
904.775	0.0160020
904.853	0.0160240
904.931	0.0161217
905.009	0.0161397
905.087	0.0160429
905.165	0.0159779
905.244	0.0160726
905.322	0.0161214
905.400	0.0161173
905.478	0.0161323
905.556	0.0162241
905.634	0.0161636
905.712	0.0162184
905.790	0.0162314
905.869	0.0161609
905.947	0.0163428
906.025	0.0163944
906.103	0.0163406
906.181	0.0163831
906.259	0.0163371
906.337	0.0163255
906.415	0.0163703
906.494	0.0163380
906.572	0.0164925
906.650	0.0163669
906.728	0.0162642
906.806	0.0163007
906.884	0.0162836
906.962	0.0163477
907.040	0.0163217
907.119	0.0162871
907.197	0.0162024
907.275	0.0161239
907.353	0.0161530
907.431	0.0161984
907.509	0.0160963
907.587	0.0160837
907.665	0.0160461
907.744	0.0160707
907.822	0.0160155
907.900	0.0160658
907.978	0.0159930
908.056	0.0158033
908.134	0.0159888
908.212	0.0159877
908.290	0.0159807
908.369	0.0159139
908.447	0.0160004
908.525	0.0159903
908.603	0.0159402
908.681	0.0159285
908.759	0.0159526
908.837	0.0160125
908.915	0.0159304
908.994	0.0160344
909.072	0.0159752
909.150	0.0160549
909.228	0.0159790
909.306	0.0160281
909.384	0.0159928
909.462	0.0159524
909.540	0.0161578
909.619	0.0159812
909.697	0.0161053
909.775	0.0161156
909.853	0.0160252
909.931	0.0160235
910.009	0.0161114
910.087	0.0159814
910.165	0.0160316
910.244	0.0161624
910.322	0.0162632
910.400	0.0161452
910.478	0.0161356
910.556	0.0161836
910.634	0.0161800
910.712	0.0162410
910.790	0.0163351
910.869	0.0164040
910.947	0.0163226
911.025	0.0162672
911.103	0.0162223
911.181	0.0164103
911.259	0.0163773
911.337	0.0164053
911.415	0.0164056
911.494	0.0164484
911.572	0.0163920
911.650	0.0162920
911.728	0.0163125
911.806	0.0163861
911.884	0.0164360
911.962	0.0163631
912.040	0.0162610
912.119	0.0162289
912.197	0.0162612
912.275	0.0161956
912.353	0.0162001
912.431	0.0162336
912.509	0.0160678
912.587	0.0160926
912.665	0.0160361
912.744	0.0162332
912.822	0.0161044
912.900	0.0161165
912.978	0.0161884
913.056	0.0160986
913.134	0.0160114
913.212	0.0161736
913.290	0.0159937
913.369	0.0161113
913.447	0.0160152
913.525	0.0160619
913.603	0.0160720
913.681	0.0161025
913.759	0.0161657
913.837	0.0160398
913.915	0.0160543
913.994	0.0160514
914.072	0.0160515
914.150	0.0160802
914.228	0.0159743
914.306	0.0158807
914.384	0.0159758
914.462	0.0162048
914.540	0.0160414
914.619	0.0160645
914.697	0.0160902
914.775	0.0161506
914.853	0.0163047
914.931	0.0161144
915.009	0.0161597
915.087	0.0160911
915.165	0.0160835
915.244	0.0163208
915.322	0.0161660
915.400	0.0162062
915.478	0.0162157
915.556	0.0162983
915.634	0.0162694
915.712	0.0161850
915.790	0.0163130
915.869	0.0161798
915.947	0.0162097
916.025	0.0163250
916.103	0.0162423
916.181	0.0162606
916.259	0.0162415
916.337	0.0162650
916.415	0.0163313
916.494	0.0163186
916.572	0.0162863
916.650	0.0164442
916.728	0.0163724
916.806	0.0162236
916.884	0.0161752
916.962	0.0162267
917.040	0.0163515
917.119	0.0162910
917.197	0.0162873
917.275	0.0160953
917.353	0.0162786
917.431	0.0161809
917.509	0.0162025
917.587	0.0161911
917.665	0.0162986
917.744	0.0160431
917.822	0.0161410
917.900	0.0161898
917.978	0.0161837
918.056	0.0159565
918.134	0.0160275
918.212	0.0161950
918.290	0.0161617
918.369	0.0160978
918.447	0.0161461
918.525	0.0161197
918.603	0.0160155
918.681	0.0160217
918.759	0.0161490
918.837	0.0160477
918.915	0.0161153
918.994	0.0161166
919.072	0.0160533
919.150	0.0160780
919.228	0.0160459
919.306	0.0161971
919.384	0.0161326
919.462	0.0159755
919.540	0.0160257
919.619	0.0161660
919.697	0.0161109
919.775	0.0161558
919.853	0.0161333
919.931	0.0160590
920.009	0.0160284
920.087	0.0162694
920.165	0.0162391
920.244	0.0161147
920.322	0.0160209
920.400	0.0160163
920.478	0.0162859
920.556	0.0161359
920.634	0.0161783
920.712	0.0161849
920.790	0.0161841
920.869	0.0161391
920.947	0.0162984
921.025	0.0162641
921.103	0.0162199
921.181	0.0160710
921.259	0.0161239
921.337	0.0162701
921.415	0.0161561
921.494	0.0161531
921.572	0.0161054
921.650	0.0162880
921.728	0.0162354
921.806	0.0161523
921.884	0.0162735
921.962	0.0163078
922.040	0.0161932
922.119	0.0160496
922.197	0.0161842
922.275	0.0161538
922.353	0.0161569
922.431	0.0160242
922.509	0.0162295
922.587	0.0161552
922.665	0.0160907
922.744	0.0161062
922.822	0.0159427
922.900	0.0160423
922.978	0.0159956
923.056	0.0160413
923.134	0.0159787
923.212	0.0159724
923.290	0.0159587
923.369	0.0159911
923.447	0.0160303
923.525	0.0162080
923.603	0.0160390
923.681	0.0160199
923.759	0.0161073
923.837	0.0160458
923.915	0.0160814
923.994	0.0161096
924.072	0.0161230
924.150	0.0161153
924.228	0.0160372
924.306	0.0160035
924.384	0.0160800
924.462	0.0160837
924.540	0.0161564
924.619	0.0161304
924.697	0.0161123
924.775	0.0161925
924.853	0.0160596
924.931	0.0160266
925.009	0.0161320
925.087	0.0159389
925.165	0.0161398
925.244	0.0159434
925.322	0.0159771
925.400	0.0162072
925.478	0.0159842
925.556	0.0161145
925.634	0.0161101
925.712	0.0159619
925.790	0.0159377
925.869	0.0161104
925.947	0.0162209
926.025	0.0161935
926.103	0.0161246
926.181	0.0160440
926.259	0.0163115
926.337	0.0162064
926.415	0.0160478
926.494	0.0160775
926.572	0.0161876
926.650	0.0161040
926.728	0.0161243
926.806	0.0161115
926.884	0.0160873
926.962	0.0162337
927.040	0.0161323
927.119	0.0160521
927.197	0.0161903
927.275	0.0161047
927.353	0.0160173
927.431	0.0161123
927.509	0.0160085
927.587	0.0159917
927.665	0.0161531
927.744	0.0161364
927.822	0.0161465
927.900	0.0162021
927.978	0.0161016
928.056	0.0160596
928.134	0.0160837
928.212	0.0162166
928.290	0.0160840
928.369	0.0160097
928.447	0.0160851
928.525	0.0161740
928.603	0.0160291
928.681	0.0161816
928.759	0.0160793
928.837	0.0160886
928.915	0.0160957
928.994	0.0162318
929.072	0.0162222
929.150	0.0161201
929.228	0.0161127
929.306	0.0162239
929.384	0.0163602
929.462	0.0162313
929.540	0.0161407
929.619	0.0162379
929.697	0.0162150
929.775	0.0161761
929.853	0.0162415
929.931	0.0161813
930.009	0.0162804
930.087	0.0162316
930.165	0.0162004
930.244	0.0161277
930.322	0.0161609
930.400	0.0161317
930.478	0.0162440
930.556	0.0160850
930.634	0.0161022
930.712	0.0161507
930.790	0.0161755
930.869	0.0160513
930.947	0.0158804
931.025	0.0160198
931.103	0.0160825
931.181	0.0160507
931.259	0.0160330
931.337	0.0161632
931.415	0.0162134
931.494	0.0160496
931.572	0.0159814
931.650	0.0161726
931.728	0.0161789
931.806	0.0163238
931.884	0.0162083
931.962	0.0161600
932.040	0.0162295
932.119	0.0161969
932.197	0.0161294
932.275	0.0162733
932.353	0.0163293
932.431	0.0162592
932.509	0.0162685
932.587	0.0162996
932.665	0.0162369
932.744	0.0161672
932.822	0.0163763
932.900	0.0162638
932.978	0.0161373
933.056	0.0161414
933.134	0.0161720
933.212	0.0161008
933.290	0.0162060
933.369	0.0160925
933.447	0.0162678
933.525	0.0160813
933.603	0.0161657
933.681	0.0162133
933.759	0.0161826
933.837	0.0160833
933.915	0.0161076
933.994	0.0161095
934.072	0.0161798
934.150	0.0161105
934.228	0.0161980
934.306	0.0161359
934.384	0.0161579
934.462	0.0161510
934.540	0.0162296
934.619	0.0160413
934.697	0.0161087
934.775	0.0162169
934.853	0.0160639
934.931	0.0160402
935.009	0.0161598
935.087	0.0161308
935.165	0.0162421
935.244	0.0161579
935.322	0.0159293
935.400	0.0160127
935.478	0.0158893
935.556	0.0158707
935.634	0.0160011
935.712	0.0159234
935.790	0.0159388
935.869	0.0159992
935.947	0.0159804
936.025	0.0161111
936.103	0.0160410
936.181	0.0160264
936.259	0.0162474
936.337	0.0161185
936.415	0.0161419
936.494	0.0162087
936.572	0.0161599
936.650	0.0161254
936.728	0.0159285
936.806	0.0160095
936.884	0.0161205
936.962	0.0162624
937.040	0.0160995
937.119	0.0160531
937.197	0.0162279
937.275	0.0161768
937.353	0.0161568
937.431	0.0160616
937.509	0.0160959
937.587	0.0161289
937.665	0.0161821
937.744	0.0161073
937.822	0.0162477
937.900	0.0161875
937.978	0.0161714
938.056	0.0162401
938.134	0.0161944
938.212	0.0161760
938.290	0.0162041
938.369	0.0161858
938.447	0.0163079
938.525	0.0163178
938.603	0.0163069
938.681	0.0163268
938.759	0.0161369
938.837	0.0161353
938.915	0.0163298
938.994	0.0162543
939.072	0.0162713
939.150	0.0162051
939.228	0.0160430
939.306	0.0159615
939.384	0.0161262
939.462	0.0162273
939.540	0.0161195
939.619	0.0161045
939.697	0.0160929
939.775	0.0161798
939.853	0.0161656
939.931	0.0160300
940.009	0.0159663
940.087	0.0161203
940.165	0.0161072
940.244	0.0159942
940.322	0.0160754
940.400	0.0161184
940.478	0.0159366
940.556	0.0160532
940.634	0.0159930
940.712	0.0160208
940.790	0.0161082
940.869	0.0160944
940.947	0.0160577
941.025	0.0160316
941.103	0.0159781
941.181	0.0160244
941.259	0.0159895
941.337	0.0159077
941.415	0.0160572
941.494	0.0160931
941.572	0.0160329
941.650	0.0160189
941.728	0.0160091
941.806	0.0160180
941.884	0.0161926
941.962	0.0159277
942.040	0.0159801
942.119	0.0160348
942.197	0.0159893
942.275	0.0161227
942.353	0.0159804
942.431	0.0161513
942.509	0.0160408
942.587	0.0160972
942.665	0.0161842
942.744	0.0161381
942.822	0.0160703
942.900	0.0161464
942.978	0.0162208
943.056	0.0161799
943.134	0.0160365
943.212	0.0161382
943.290	0.0161410
943.369	0.0162189
943.447	0.0162521
943.525	0.0162554
943.603	0.0161333
943.681	0.0162870
943.759	0.0161882
943.837	0.0162054
943.915	0.0162009
943.994	0.0162222
944.072	0.0161970
944.150	0.0162411
944.228	0.0162050
944.306	0.0161914
944.384	0.0162161
944.462	0.0161880
944.540	0.0162946
944.619	0.0162970
944.697	0.0160491
944.775	0.0161105
944.853	0.0161497
944.931	0.0162746
945.009	0.0162566
945.087	0.0161575
945.165	0.0160197
945.244	0.0160902
945.322	0.0161420
945.400	0.0160193
945.478	0.0161205
945.556	0.0161539
945.634	0.0160729
945.712	0.0160533
945.790	0.0160407
945.869	0.0161866
945.947	0.0161736
946.025	0.0160201
946.103	0.0160006
946.181	0.0160777
946.259	0.0160959
946.337	0.0160458
946.415	0.0161258
946.494	0.0160635
946.572	0.0160596
946.650	0.0160612
946.728	0.0161903
946.806	0.0160792
946.884	0.0160503
946.962	0.0160890
947.040	0.0160873
947.119	0.0159554
947.197	0.0160172
947.275	0.0160825
947.353	0.0161015
947.431	0.0160483
947.509	0.0160218
947.587	0.0159867
947.665	0.0160924
947.744	0.0160864
947.822	0.0159989
947.900	0.0161194
947.978	0.0161859
948.056	0.0161509
948.134	0.0161556
948.212	0.0161786
948.290	0.0161515
948.369	0.0162130
948.447	0.0160915
948.525	0.0161072
948.603	0.0162389
948.681	0.0162288
948.759	0.0162074
948.837	0.0161045
948.915	0.0161820
948.994	0.0162440
949.072	0.0163164
949.150	0.0160381
949.228	0.0162876
949.306	0.0161881
949.384	0.0161465
949.462	0.0162292
949.540	0.0161989
949.619	0.0163305
949.697	0.0161282
949.775	0.0162481
949.853	0.0162967
949.931	0.0162868
