05/19/2022	00:42:38	Ver.	4.1	UNKNOWN
Optical Delay	630.009178	Delta X		0.078125	Sweeps	1	Scan Rate	0/0
Coordinates	Axis 1	NaN	Axis 2	NaN	Axis 3	NaN	Axis 4	NaN	Axis 5	NaN	Axis 6	0.000000
TX Power	0.000000	RX Power	0.000000

630.009	0.0162074
630.087	0.0162426
630.165	0.0162577
630.244	0.0162582
630.322	0.0162386
630.400	0.0160982
630.478	0.0162858
630.556	0.0161722
630.634	0.0162599
630.712	0.0162997
630.790	0.0163139
630.869	0.0162134
630.947	0.0161738
631.025	0.0161227
631.103	0.0161176
631.181	0.0162463
631.259	0.0163931
631.337	0.0163953
631.415	0.0162231
631.494	0.0162221
631.572	0.0162571
631.650	0.0161781
631.728	0.0161857
631.806	0.0161393
631.884	0.0161935
631.962	0.0161307
632.040	0.0161741
632.119	0.0161316
632.197	0.0161708
632.275	0.0161375
632.353	0.0162424
632.431	0.0164415
632.509	0.0161968
632.587	0.0160631
632.665	0.0160654
632.744	0.0162634
632.822	0.0162408
632.900	0.0161604
632.978	0.0160918
633.056	0.0162196
633.134	0.0161924
633.212	0.0161978
633.290	0.0162049
633.369	0.0163111
633.447	0.0161132
633.525	0.0161820
633.603	0.0162614
633.681	0.0162992
633.759	0.0162537
633.837	0.0162314
633.915	0.0162257
633.994	0.0162875
634.072	0.0162508
634.150	0.0162339
634.228	0.0160395
634.306	0.0163416
634.384	0.0161701
634.462	0.0162682
634.540	0.0161167
634.619	0.0161179
634.697	0.0161487
634.775	0.0161036
634.853	0.0162414
634.931	0.0162847
635.009	0.0161505
635.087	0.0162128
635.165	0.0163474
635.244	0.0162685
635.322	0.0161699
635.400	0.0161250
635.478	0.0160796
635.556	0.0164259
635.634	0.0160854
635.712	0.0162208
635.790	0.0162566
635.869	0.0162283
635.947	0.0161765
636.025	0.0162156
636.103	0.0162390
636.181	0.0162642
636.259	0.0161729
636.337	0.0162317
636.415	0.0162772
636.494	0.0163329
636.572	0.0162717
636.650	0.0162611
636.728	0.0162879
636.806	0.0161732
636.884	0.0161143
636.962	0.0162075
637.040	0.0162472
637.119	0.0162399
637.197	0.0160715
637.275	0.0162278
637.353	0.0162961
637.431	0.0162576
637.509	0.0161710
637.587	0.0161764
637.665	0.0161541
637.744	0.0163614
637.822	0.0162713
637.900	0.0161948
637.978	0.0162109
638.056	0.0162651
638.134	0.0163710
638.212	0.0162084
638.290	0.0162874
638.369	0.0164055
638.447	0.0163250
638.525	0.0162299
638.603	0.0162385
638.681	0.0161666
638.759	0.0161851
638.837	0.0162130
638.915	0.0161425
638.994	0.0161584
639.072	0.0163609
639.150	0.0162462
639.228	0.0161720
639.306	0.0161783
639.384	0.0162805
639.462	0.0162091
639.540	0.0162492
639.619	0.0162807
639.697	0.0162312
639.775	0.0161539
639.853	0.0161892
639.931	0.0162685
640.009	0.0163239
640.087	0.0162025
640.165	0.0163094
640.244	0.0161342
640.322	0.0161932
640.400	0.0162237
640.478	0.0161862
640.556	0.0162466
640.634	0.0162012
640.712	0.0161716
640.790	0.0161842
640.869	0.0163029
640.947	0.0161668
641.025	0.0161797
641.103	0.0162036
641.181	0.0162144
641.259	0.0162247
641.337	0.0161832
641.415	0.0161613
641.494	0.0162260
641.572	0.0162059
641.650	0.0161847
641.728	0.0161215
641.806	0.0161705
641.884	0.0161584
641.962	0.0163001
642.040	0.0162444
642.119	0.0162791
642.197	0.0161255
642.275	0.0161638
642.353	0.0163099
642.431	0.0162047
642.509	0.0162656
642.587	0.0163657
642.665	0.0162394
642.744	0.0162623
642.822	0.0162439
642.900	0.0161538
642.978	0.0163619
643.056	0.0160311
643.134	0.0161515
643.212	0.0162143
643.290	0.0162287
643.369	0.0162388
643.447	0.0162167
643.525	0.0163516
643.603	0.0162192
643.681	0.0161418
643.759	0.0162186
643.837	0.0161385
643.915	0.0162004
643.994	0.0163230
644.072	0.0163045
644.150	0.0161935
644.228	0.0162492
644.306	0.0161298
644.384	0.0161954
644.462	0.0162037
644.540	0.0161543
644.619	0.0159815
644.697	0.0161568
644.775	0.0161119
644.853	0.0161250
644.931	0.0163033
645.009	0.0162046
645.087	0.0162431
645.165	0.0161608
645.244	0.0162379
645.322	0.0161591
645.400	0.0161578
645.478	0.0161646
645.556	0.0161794
645.634	0.0161707
645.712	0.0162019
645.790	0.0162848
645.869	0.0163165
645.947	0.0162095
646.025	0.0162068
646.103	0.0162511
646.181	0.0163116
646.259	0.0162049
646.337	0.0161760
646.415	0.0162248
646.494	0.0162630
646.572	0.0161826
646.650	0.0162482
646.728	0.0163053
646.806	0.0163120
646.884	0.0162204
646.962	0.0161113
647.040	0.0160632
647.119	0.0163048
647.197	0.0163043
647.275	0.0161935
647.353	0.0163931
647.431	0.0161709
647.509	0.0162086
647.587	0.0161507
647.665	0.0163428
647.744	0.0160712
647.822	0.0162376
647.900	0.0162943
647.978	0.0162318
648.056	0.0161462
648.134	0.0162122
648.212	0.0163162
648.290	0.0162222
648.369	0.0162719
648.447	0.0161581
648.525	0.0160876
648.603	0.0163176
648.681	0.0162305
648.759	0.0161408
648.837	0.0162437
648.915	0.0162402
648.994	0.0161668
649.072	0.0162731
649.150	0.0160865
649.228	0.0161465
649.306	0.0161013
649.384	0.0163421
649.462	0.0164041
649.540	0.0162156
649.619	0.0162724
649.697	0.0162823
649.775	0.0161060
649.853	0.0162251
649.931	0.0163377
650.009	0.0163982
650.087	0.0161275
650.165	0.0160503
650.244	0.0163841
650.322	0.0162376
650.400	0.0161369
650.478	0.0161497
650.556	0.0163309
650.634	0.0163249
650.712	0.0162929
650.790	0.0161983
650.869	0.0161205
650.947	0.0161329
651.025	0.0162080
651.103	0.0160937
651.181	0.0161714
651.259	0.0161083
651.337	0.0162434
651.415	0.0163681
651.494	0.0161736
651.572	0.0162072
651.650	0.0161345
651.728	0.0163609
651.806	0.0162424
651.884	0.0161003
651.962	0.0163038
652.040	0.0161195
652.119	0.0161466
652.197	0.0161842
652.275	0.0162106
652.353	0.0162202
652.431	0.0162384
652.509	0.0161787
652.587	0.0162954
652.665	0.0161830
652.744	0.0162768
652.822	0.0161820
652.900	0.0161785
652.978	0.0162281
653.056	0.0162206
653.134	0.0161798
653.212	0.0161463
653.290	0.0162254
653.369	0.0162248
653.447	0.0161888
653.525	0.0161603
653.603	0.0161347
653.681	0.0162200
653.759	0.0162924
653.837	0.0161465
653.915	0.0162660
653.994	0.0163219
654.072	0.0162356
654.150	0.0162210
654.228	0.0162239
654.306	0.0161650
654.384	0.0160767
654.462	0.0161086
654.540	0.0161673
654.619	0.0162122
654.697	0.0161733
654.775	0.0161916
654.853	0.0161214
654.931	0.0161127
655.009	0.0162514
655.087	0.0161526
655.165	0.0161530
655.244	0.0162757
655.322	0.0161848
655.400	0.0161782
655.478	0.0162497
655.556	0.0162088
655.634	0.0162011
655.712	0.0163192
655.790	0.0161998
655.869	0.0162527
655.947	0.0161745
656.025	0.0161853
656.103	0.0162128
656.181	0.0161219
656.259	0.0161596
656.337	0.0162289
656.415	0.0163652
656.494	0.0161388
656.572	0.0160934
656.650	0.0162486
656.728	0.0162019
656.806	0.0162228
656.884	0.0162462
656.962	0.0162377
657.040	0.0161861
657.119	0.0162181
657.197	0.0162922
657.275	0.0162224
657.353	0.0161931
657.431	0.0162529
657.509	0.0162665
657.587	0.0162286
657.665	0.0161626
657.744	0.0161266
657.822	0.0162187
657.900	0.0161977
657.978	0.0162383
658.056	0.0161992
658.134	0.0161987
658.212	0.0163824
658.290	0.0162640
658.369	0.0161596
658.447	0.0161860
658.525	0.0162457
658.603	0.0162373
658.681	0.0162548
658.759	0.0163171
658.837	0.0161936
658.915	0.0161150
658.994	0.0161972
659.072	0.0162527
659.150	0.0161402
659.228	0.0161698
659.306	0.0163418
659.384	0.0162402
659.462	0.0161744
659.540	0.0160752
659.619	0.0162381
659.697	0.0162918
659.775	0.0162476
659.853	0.0161607
659.931	0.0163053
660.009	0.0161596
660.087	0.0162189
660.165	0.0161563
660.244	0.0161496
660.322	0.0161501
660.400	0.0162448
660.478	0.0161945
660.556	0.0162195
660.634	0.0161398
660.712	0.0162343
660.790	0.0162670
660.869	0.0162043
660.947	0.0161832
661.025	0.0160680
661.103	0.0160544
661.181	0.0162278
661.259	0.0162129
661.337	0.0163763
661.415	0.0162404
661.494	0.0161739
661.572	0.0162742
661.650	0.0161852
661.728	0.0162257
661.806	0.0162942
661.884	0.0161903
661.962	0.0162433
662.040	0.0162023
662.119	0.0161456
662.197	0.0162887
662.275	0.0163160
662.353	0.0161980
662.431	0.0161040
662.509	0.0162997
662.587	0.0161883
662.665	0.0160532
662.744	0.0163111
662.822	0.0161951
662.900	0.0163527
662.978	0.0162764
663.056	0.0161298
663.134	0.0162025
663.212	0.0163014
663.290	0.0162150
663.369	0.0162353
663.447	0.0163403
663.525	0.0163164
663.603	0.0162427
663.681	0.0161688
663.759	0.0162131
663.837	0.0162887
663.915	0.0161902
663.994	0.0161777
664.072	0.0163190
664.150	0.0162476
664.228	0.0162568
664.306	0.0161807
664.384	0.0160579
664.462	0.0161495
664.540	0.0162685
664.619	0.0163127
664.697	0.0161809
664.775	0.0161815
664.853	0.0161761
664.931	0.0161563
665.009	0.0161333
665.087	0.0162172
665.165	0.0161739
665.244	0.0162524
665.322	0.0162617
665.400	0.0161616
665.478	0.0161005
665.556	0.0162805
665.634	0.0163400
665.712	0.0163400
665.790	0.0161783
665.869	0.0161932
665.947	0.0162234
666.025	0.0161616
666.103	0.0161788
666.181	0.0162666
666.259	0.0162517
666.337	0.0161593
666.415	0.0161801
666.494	0.0162698
666.572	0.0160390
666.650	0.0161942
666.728	0.0163604
666.806	0.0162889
666.884	0.0160373
666.962	0.0163864
667.040	0.0163182
667.119	0.0164205
667.197	0.0161739
667.275	0.0161940
667.353	0.0160825
667.431	0.0162570
667.509	0.0161947
667.587	0.0160977
667.665	0.0162585
667.744	0.0162458
667.822	0.0160483
667.900	0.0161542
667.978	0.0162057
668.056	0.0160628
668.134	0.0162326
668.212	0.0163166
668.290	0.0162061
668.369	0.0161552
668.447	0.0161318
668.525	0.0162108
668.603	0.0161496
668.681	0.0161675
668.759	0.0162733
668.837	0.0161737
668.915	0.0162834
668.994	0.0162292
669.072	0.0162786
669.150	0.0161617
669.228	0.0160249
669.306	0.0162180
669.384	0.0161253
669.462	0.0161906
669.540	0.0161329
669.619	0.0162107
669.697	0.0161836
669.775	0.0161589
669.853	0.0162267
669.931	0.0162164
670.009	0.0160776
670.087	0.0161942
670.165	0.0162854
670.244	0.0161427
670.322	0.0161500
670.400	0.0162979
670.478	0.0161674
670.556	0.0160477
670.634	0.0162450
670.712	0.0162982
670.790	0.0162363
670.869	0.0161349
670.947	0.0161267
671.025	0.0162531
671.103	0.0161308
671.181	0.0161434
671.259	0.0161803
671.337	0.0162079
671.415	0.0161540
671.494	0.0161164
671.572	0.0162601
671.650	0.0162091
671.728	0.0162090
671.806	0.0161816
671.884	0.0161480
671.962	0.0163342
672.040	0.0163187
672.119	0.0161854
672.197	0.0161718
672.275	0.0161419
672.353	0.0162298
672.431	0.0161694
672.509	0.0162450
672.587	0.0160712
672.665	0.0161189
672.744	0.0160890
672.822	0.0161997
672.900	0.0162106
672.978	0.0161344
673.056	0.0162527
673.134	0.0162403
673.212	0.0162708
673.290	0.0163187
673.369	0.0163150
673.447	0.0162473
673.525	0.0162883
673.603	0.0160694
673.681	0.0162118
673.759	0.0161813
673.837	0.0161449
673.915	0.0161543
673.994	0.0160703
674.072	0.0162801
674.150	0.0163194
674.228	0.0162038
674.306	0.0161052
674.384	0.0161997
674.462	0.0162765
674.540	0.0163541
674.619	0.0161716
674.697	0.0162926
674.775	0.0161357
674.853	0.0162213
674.931	0.0161559
675.009	0.0162144
675.087	0.0163588
675.165	0.0163232
675.244	0.0162901
675.322	0.0162215
675.400	0.0162943
675.478	0.0162450
675.556	0.0161407
675.634	0.0162903
675.712	0.0161297
675.790	0.0161856
675.869	0.0161979
675.947	0.0161402
676.025	0.0164398
676.103	0.0162687
676.181	0.0162681
676.259	0.0163786
676.337	0.0162144
676.415	0.0162377
676.494	0.0162607
676.572	0.0163203
676.650	0.0161707
676.728	0.0162172
676.806	0.0163846
676.884	0.0163346
676.962	0.0162738
677.040	0.0162346
677.119	0.0162069
677.197	0.0162791
677.275	0.0162132
677.353	0.0161240
677.431	0.0161872
677.509	0.0160242
677.587	0.0161150
677.665	0.0161541
677.744	0.0162473
677.822	0.0163147
677.900	0.0161581
677.978	0.0162440
678.056	0.0162289
678.134	0.0161731
678.212	0.0162486
678.290	0.0163901
678.369	0.0163332
678.447	0.0162775
678.525	0.0164502
678.603	0.0163497
678.681	0.0163493
678.759	0.0164616
678.837	0.0164938
678.915	0.0162796
678.994	0.0163000
679.072	0.0163445
679.150	0.0163712
679.228	0.0162946
679.306	0.0161926
679.384	0.0163254
679.462	0.0161707
679.540	0.0161218
679.619	0.0161974
679.697	0.0161787
679.775	0.0160974
679.853	0.0161681
679.931	0.0161577
680.009	0.0161797
680.087	0.0160501
680.165	0.0161242
680.244	0.0162329
680.322	0.0161385
680.400	0.0161099
680.478	0.0161895
680.556	0.0160954
680.634	0.0160793
680.712	0.0160536
680.790	0.0159752
680.869	0.0160361
680.947	0.0160901
681.025	0.0159663
681.103	0.0161051
681.181	0.0161217
681.259	0.0160277
681.337	0.0161030
681.415	0.0159039
681.494	0.0160217
681.572	0.0160219
681.650	0.0160287
681.728	0.0159739
681.806	0.0159122
681.884	0.0160323
681.962	0.0161827
682.040	0.0161732
682.119	0.0160677
682.197	0.0161991
682.275	0.0161357
682.353	0.0161377
682.431	0.0161762
682.509	0.0162254
682.587	0.0163128
682.665	0.0162838
682.744	0.0161760
682.822	0.0161983
682.900	0.0162250
682.978	0.0163135
683.056	0.0163566
683.134	0.0163631
683.212	0.0164023
683.290	0.0163746
683.369	0.0165285
683.447	0.0166159
683.525	0.0165646
683.603	0.0165056
683.681	0.0166630
683.759	0.0167155
683.837	0.0167102
683.915	0.0166545
683.994	0.0167354
684.072	0.0167020
684.150	0.0168459
684.228	0.0168129
684.306	0.0167178
684.384	0.0166138
684.462	0.0167257
684.540	0.0167598
684.619	0.0165922
684.697	0.0165805
684.775	0.0164305
684.853	0.0163251
684.931	0.0163380
685.009	0.0162479
685.087	0.0162265
685.165	0.0160750
685.244	0.0158463
685.322	0.0158037
685.400	0.0158591
685.478	0.0155798
685.556	0.0153777
685.634	0.0155792
685.712	0.0153258
685.790	0.0152372
685.869	0.0152550
685.947	0.0153785
686.025	0.0152619
686.103	0.0153282
686.181	0.0152773
686.259	0.0152988
686.337	0.0154026
686.415	0.0155552
686.494	0.0156020
686.572	0.0157806
686.650	0.0159167
686.728	0.0159757
686.806	0.0161012
686.884	0.0162310
686.962	0.0163234
687.040	0.0164938
687.119	0.0165308
687.197	0.0167285
687.275	0.0167964
687.353	0.0169048
687.431	0.0170263
687.509	0.0170128
687.587	0.0170150
687.665	0.0172148
687.744	0.0171917
687.822	0.0171896
687.900	0.0172321
687.978	0.0170996
688.056	0.0171339
688.134	0.0171607
688.212	0.0170130
688.290	0.0170193
688.369	0.0168918
688.447	0.0167564
688.525	0.0166917
688.603	0.0167289
688.681	0.0165443
688.759	0.0164983
688.837	0.0164474
688.915	0.0162362
688.994	0.0161283
689.072	0.0161367
689.150	0.0159683
689.228	0.0159209
689.306	0.0158912
689.384	0.0159463
689.462	0.0156957
689.540	0.0155956
689.619	0.0154858
689.697	0.0155569
689.775	0.0154862
689.853	0.0152153
689.931	0.0152980
690.009	0.0152927
690.087	0.0151814
690.165	0.0150422
690.244	0.0149638
690.322	0.0149683
690.400	0.0150725
690.478	0.0151176
690.556	0.0150498
690.634	0.0150647
690.712	0.0152530
690.790	0.0154113
690.869	0.0154972
690.947	0.0154809
691.025	0.0156089
691.103	0.0157909
691.181	0.0159457
691.259	0.0160135
691.337	0.0161497
691.415	0.0163271
691.494	0.0164780
691.572	0.0164417
691.650	0.0166419
691.728	0.0167384
691.806	0.0169690
691.884	0.0169617
691.962	0.0170045
692.040	0.0171986
692.119	0.0171600
692.197	0.0172240
692.275	0.0173141
692.353	0.0174904
692.431	0.0173573
692.509	0.0173551
692.587	0.0174267
692.665	0.0174330
692.744	0.0174821
692.822	0.0176019
692.900	0.0175184
692.978	0.0175161
693.056	0.0175234
693.134	0.0175485
693.212	0.0174847
693.290	0.0174673
693.369	0.0174117
693.447	0.0172215
693.525	0.0170747
693.603	0.0169801
693.681	0.0167896
693.759	0.0166314
693.837	0.0164488
693.915	0.0161752
693.994	0.0159458
694.072	0.0157655
694.150	0.0156602
694.228	0.0155573
694.306	0.0154568
694.384	0.0151516
694.462	0.0148927
694.540	0.0150501
694.619	0.0149380
694.697	0.0148760
694.775	0.0147486
694.853	0.0145146
694.931	0.0146169
695.009	0.0146796
695.087	0.0144818
695.165	0.0145569
695.244	0.0146192
695.322	0.0144837
695.400	0.0144571
695.478	0.0147322
695.556	0.0147800
695.634	0.0147330
695.712	0.0149051
695.790	0.0150732
695.869	0.0152217
695.947	0.0153735
696.025	0.0155020
696.103	0.0156770
696.181	0.0158564
696.259	0.0159480
696.337	0.0160706
696.415	0.0162820
696.494	0.0165225
696.572	0.0166947
696.650	0.0168844
696.728	0.0168559
696.806	0.0170606
696.884	0.0172132
696.962	0.0174883
697.040	0.0176218
697.119	0.0177044
697.197	0.0177311
697.275	0.0178471
697.353	0.0179588
697.431	0.0179774
697.509	0.0180083
697.587	0.0181594
697.665	0.0179854
697.744	0.0179804
697.822	0.0182706
697.900	0.0180070
697.978	0.0179063
698.056	0.0178944
698.134	0.0177438
698.212	0.0177072
698.290	0.0175182
698.369	0.0174683
698.447	0.0172910
698.525	0.0170693
698.603	0.0171100
698.681	0.0168753
698.759	0.0165862
698.837	0.0164001
698.915	0.0161813
698.994	0.0158940
699.072	0.0156799
699.150	0.0155125
699.228	0.0153511
699.306	0.0151665
699.384	0.0149097
699.462	0.0148388
699.540	0.0146887
699.619	0.0147196
699.697	0.0145278
699.775	0.0144907
699.853	0.0144453
699.931	0.0142037
700.009	0.0143421
700.087	0.0144098
700.165	0.0146037
700.244	0.0146711
700.322	0.0145092
700.400	0.0147538
700.478	0.0148378
700.556	0.0147519
700.634	0.0148566
700.712	0.0150159
700.790	0.0153616
700.869	0.0154159
700.947	0.0155859
701.025	0.0156261
701.103	0.0157875
701.181	0.0159145
701.259	0.0159914
701.337	0.0161502
701.415	0.0163659
701.494	0.0163992
701.572	0.0165862
701.650	0.0169017
701.728	0.0167142
701.806	0.0170158
701.884	0.0169096
701.962	0.0171606
702.040	0.0170818
702.119	0.0172015
702.197	0.0171664
702.275	0.0173192
702.353	0.0175662
702.431	0.0175320
702.509	0.0174431
702.587	0.0175306
702.665	0.0176028
702.744	0.0174322
702.822	0.0174162
702.900	0.0175098
702.978	0.0175435
703.056	0.0173790
703.134	0.0173389
703.212	0.0173129
703.290	0.0173028
703.369	0.0171783
703.447	0.0171246
703.525	0.0170531
703.603	0.0170665
703.681	0.0171609
703.759	0.0169215
703.837	0.0167833
703.915	0.0168846
703.994	0.0165611
704.072	0.0164442
704.150	0.0163746
704.228	0.0161637
704.306	0.0159662
704.384	0.0157811
704.462	0.0156096
704.540	0.0154050
704.619	0.0154096
704.697	0.0151486
704.775	0.0149255
704.853	0.0147994
704.931	0.0148091
705.009	0.0146861
705.087	0.0145486
705.165	0.0145238
705.244	0.0146359
705.322	0.0144974
705.400	0.0145531
705.478	0.0148630
705.556	0.0147556
705.634	0.0148890
705.712	0.0148858
705.790	0.0151321
705.869	0.0151985
705.947	0.0153514
706.025	0.0155112
706.103	0.0155904
706.181	0.0156829
706.259	0.0155758
706.337	0.0157501
706.415	0.0158115
706.494	0.0159715
706.572	0.0160563
706.650	0.0160783
706.728	0.0161628
706.806	0.0163718
706.884	0.0163624
706.962	0.0165274
707.040	0.0165191
707.119	0.0166900
707.197	0.0167152
707.275	0.0167524
707.353	0.0168394
707.431	0.0167827
707.509	0.0169830
707.587	0.0168642
707.665	0.0169199
707.744	0.0170573
707.822	0.0170138
707.900	0.0168398
707.978	0.0169868
708.056	0.0169244
708.134	0.0169135
708.212	0.0169410
708.290	0.0169348
708.369	0.0169045
708.447	0.0169241
708.525	0.0167461
708.603	0.0167744
708.681	0.0166605
708.759	0.0167390
708.837	0.0167960
708.915	0.0166539
708.994	0.0167213
709.072	0.0167565
709.150	0.0167287
709.228	0.0167274
709.306	0.0167527
709.384	0.0166247
709.462	0.0165903
709.540	0.0165388
709.619	0.0164657
709.697	0.0164339
709.775	0.0162364
709.853	0.0161714
709.931	0.0159423
710.009	0.0159991
710.087	0.0158813
710.165	0.0156956
710.244	0.0156419
710.322	0.0155763
710.400	0.0154631
710.478	0.0155180
710.556	0.0152798
710.634	0.0153673
710.712	0.0152265
710.790	0.0151537
710.869	0.0152783
710.947	0.0152200
711.025	0.0154332
711.103	0.0153952
711.181	0.0154346
711.259	0.0157631
711.337	0.0157219
711.415	0.0158414
711.494	0.0159681
711.572	0.0161608
711.650	0.0162795
711.728	0.0162984
711.806	0.0163606
711.884	0.0165038
711.962	0.0167412
712.040	0.0165587
712.119	0.0164679
712.197	0.0166630
712.275	0.0165250
712.353	0.0165465
712.431	0.0166866
712.509	0.0165987
712.587	0.0165858
712.665	0.0165375
712.744	0.0165195
712.822	0.0166248
712.900	0.0164602
712.978	0.0165528
713.056	0.0165993
713.134	0.0165070
713.212	0.0165218
713.290	0.0165778
713.369	0.0165945
713.447	0.0165311
713.525	0.0165917
713.603	0.0165288
713.681	0.0166158
713.759	0.0165304
713.837	0.0164883
713.915	0.0164262
713.994	0.0164722
714.072	0.0162808
714.150	0.0161932
714.228	0.0162008
714.306	0.0162720
714.384	0.0162918
714.462	0.0162473
714.540	0.0163277
714.619	0.0162231
714.697	0.0162105
714.775	0.0163461
714.853	0.0162947
714.931	0.0163439
715.009	0.0164281
715.087	0.0164546
715.165	0.0165755
715.244	0.0164534
715.322	0.0165891
715.400	0.0166218
715.478	0.0166266
715.556	0.0166185
715.634	0.0166103
715.712	0.0164379
715.790	0.0164444
715.869	0.0162416
715.947	0.0161458
716.025	0.0160521
716.103	0.0160445
716.181	0.0158505
716.259	0.0158869
716.337	0.0160228
716.415	0.0157401
716.494	0.0157401
716.572	0.0157167
716.650	0.0156767
716.728	0.0158920
716.806	0.0158913
716.884	0.0159550
716.962	0.0159616
717.040	0.0159206
717.119	0.0161255
717.197	0.0162743
717.275	0.0162807
717.353	0.0163744
717.431	0.0164269
717.509	0.0163229
717.587	0.0164812
717.665	0.0163313
717.744	0.0163132
717.822	0.0163966
717.900	0.0163440
717.978	0.0164618
718.056	0.0162778
718.134	0.0163406
718.212	0.0162222
718.290	0.0163831
718.369	0.0162012
718.447	0.0161374
718.525	0.0160958
718.603	0.0161998
718.681	0.0162272
718.759	0.0162898
718.837	0.0163039
718.915	0.0163764
718.994	0.0163422
719.072	0.0162971
719.150	0.0162372
719.228	0.0164059
719.306	0.0161916
719.384	0.0161279
719.462	0.0161917
719.540	0.0162561
719.619	0.0160262
719.697	0.0160577
719.775	0.0161415
719.853	0.0160454
719.931	0.0161706
720.009	0.0162043
720.087	0.0161028
720.165	0.0161218
720.244	0.0163776
720.322	0.0163303
720.400	0.0163244
720.478	0.0164164
720.556	0.0165034
720.634	0.0164828
720.712	0.0166074
720.790	0.0166922
720.869	0.0166021
720.947	0.0165956
721.025	0.0167483
721.103	0.0167883
721.181	0.0165656
721.259	0.0165419
721.337	0.0167341
721.415	0.0164685
721.494	0.0163731
721.572	0.0164017
721.650	0.0163630
721.728	0.0162602
721.806	0.0162917
721.884	0.0161352
721.962	0.0160592
722.040	0.0160259
722.119	0.0160854
722.197	0.0159978
722.275	0.0159063
722.353	0.0158636
722.431	0.0157452
722.509	0.0159120
722.587	0.0160120
722.665	0.0158809
722.744	0.0159711
722.822	0.0160321
722.900	0.0159857
722.978	0.0161190
723.056	0.0162361
723.134	0.0163786
723.212	0.0162759
723.290	0.0163763
723.369	0.0163363
723.447	0.0164097
723.525	0.0164555
723.603	0.0163605
723.681	0.0164310
723.759	0.0165459
723.837	0.0163830
723.915	0.0163625
723.994	0.0162675
724.072	0.0160565
724.150	0.0161550
724.228	0.0160080
724.306	0.0161012
724.384	0.0161172
724.462	0.0159647
724.540	0.0158447
724.619	0.0159245
724.697	0.0159419
724.775	0.0159317
724.853	0.0161144
724.931	0.0160223
725.009	0.0160606
725.087	0.0160548
725.165	0.0160831
725.244	0.0160522
725.322	0.0162334
725.400	0.0160189
725.478	0.0160981
725.556	0.0160894
725.634	0.0161549
725.712	0.0163303
725.790	0.0162114
725.869	0.0162737
725.947	0.0162788
726.025	0.0163034
726.103	0.0163132
726.181	0.0163322
726.259	0.0163627
726.337	0.0162339
726.415	0.0163857
726.494	0.0164164
726.572	0.0163734
726.650	0.0162656
726.728	0.0163393
726.806	0.0163735
726.884	0.0163905
726.962	0.0163211
727.040	0.0162435
727.119	0.0162562
727.197	0.0163435
727.275	0.0164561
727.353	0.0160409
727.431	0.0162338
727.509	0.0160962
727.587	0.0161223
727.665	0.0158900
727.744	0.0158047
727.822	0.0159333
727.900	0.0157815
727.978	0.0159782
728.056	0.0158675
728.134	0.0158289
728.212	0.0158565
728.290	0.0159821
728.369	0.0159238
728.447	0.0158990
728.525	0.0159064
728.603	0.0160020
728.681	0.0160258
728.759	0.0160839
728.837	0.0161465
728.915	0.0160899
728.994	0.0161401
729.072	0.0162056
729.150	0.0161347
729.228	0.0163058
729.306	0.0163042
729.384	0.0163392
729.462	0.0163064
729.540	0.0163831
729.619	0.0163934
729.697	0.0163850
729.775	0.0163078
729.853	0.0163372
729.931	0.0163344
730.009	0.0162577
730.087	0.0162908
730.165	0.0162959
730.244	0.0162218
730.322	0.0161239
730.400	0.0160878
730.478	0.0161362
730.556	0.0160768
730.634	0.0160902
730.712	0.0160295
730.790	0.0159220
730.869	0.0160034
730.947	0.0161626
731.025	0.0160686
731.103	0.0160919
731.181	0.0162114
731.259	0.0160919
731.337	0.0161272
731.415	0.0160535
731.494	0.0161079
731.572	0.0160896
731.650	0.0160895
731.728	0.0161635
731.806	0.0161942
731.884	0.0162143
731.962	0.0161236
732.040	0.0161482
732.119	0.0162717
732.197	0.0162489
732.275	0.0161771
732.353	0.0162039
732.431	0.0161449
732.509	0.0162542
732.587	0.0163091
732.665	0.0162729
732.744	0.0162045
732.822	0.0162788
732.900	0.0161354
732.978	0.0161085
733.056	0.0163236
733.134	0.0160503
733.212	0.0162550
733.290	0.0163034
733.369	0.0160832
733.447	0.0162247
733.525	0.0161703
733.603	0.0161910
733.681	0.0163523
733.759	0.0162086
733.837	0.0163207
733.915	0.0163918
733.994	0.0161639
734.072	0.0163068
734.150	0.0162592
734.228	0.0162421
734.306	0.0163062
734.384	0.0162095
734.462	0.0163310
734.540	0.0162822
734.619	0.0164206
734.697	0.0163818
734.775	0.0163361
734.853	0.0162732
734.931	0.0163280
735.009	0.0163548
735.087	0.0163798
735.165	0.0163207
735.244	0.0162067
735.322	0.0162669
735.400	0.0162803
735.478	0.0162785
735.556	0.0162489
735.634	0.0161787
735.712	0.0162905
735.790	0.0162564
735.869	0.0161538
735.947	0.0162165
736.025	0.0161739
736.103	0.0161058
736.181	0.0159663
736.259	0.0162643
736.337	0.0162469
736.415	0.0162463
736.494	0.0161368
736.572	0.0159296
736.650	0.0160698
736.728	0.0161065
736.806	0.0161124
736.884	0.0159560
736.962	0.0159655
737.040	0.0160246
737.119	0.0159495
737.197	0.0161771
737.275	0.0161258
737.353	0.0160777
737.431	0.0162044
737.509	0.0160883
737.587	0.0162458
737.665	0.0161805
737.744	0.0161046
737.822	0.0161672
737.900	0.0163273
737.978	0.0162999
738.056	0.0162615
738.134	0.0163570
738.212	0.0162511
738.290	0.0162361
738.369	0.0162791
738.447	0.0162266
738.525	0.0162416
738.603	0.0164521
738.681	0.0162991
738.759	0.0162569
738.837	0.0162484
738.915	0.0164107
738.994	0.0163187
739.072	0.0163580
739.150	0.0164214
739.228	0.0163712
739.306	0.0163071
739.384	0.0163795
739.462	0.0162756
739.540	0.0161716
739.619	0.0163441
739.697	0.0162805
739.775	0.0162398
739.853	0.0162584
739.931	0.0163036
740.009	0.0162031
740.087	0.0161932
740.165	0.0161575
740.244	0.0161234
740.322	0.0161243
740.400	0.0161174
740.478	0.0161738
740.556	0.0161020
740.634	0.0159895
740.712	0.0160632
740.790	0.0162314
740.869	0.0161940
740.947	0.0162346
741.025	0.0160882
741.103	0.0161156
741.181	0.0160683
741.259	0.0161759
741.337	0.0161352
741.415	0.0162058
741.494	0.0161579
741.572	0.0161321
741.650	0.0161662
741.728	0.0160968
741.806	0.0162524
741.884	0.0161477
741.962	0.0161517
742.040	0.0162029
742.119	0.0162099
742.197	0.0161864
742.275	0.0162451
742.353	0.0161280
742.431	0.0161476
742.509	0.0159490
742.587	0.0162832
742.665	0.0162081
742.744	0.0160948
742.822	0.0160228
742.900	0.0161608
742.978	0.0160744
743.056	0.0162288
743.134	0.0161862
743.212	0.0160442
743.290	0.0162530
743.369	0.0162856
743.447	0.0162021
743.525	0.0162197
743.603	0.0163242
743.681	0.0162406
743.759	0.0161531
743.837	0.0160555
743.915	0.0161540
743.994	0.0161137
744.072	0.0162563
744.150	0.0161868
744.228	0.0162336
744.306	0.0160737
744.384	0.0161691
744.462	0.0160870
744.540	0.0161488
744.619	0.0161739
744.697	0.0161923
744.775	0.0160890
744.853	0.0161317
744.931	0.0161239
745.009	0.0161660
745.087	0.0161562
745.165	0.0161723
745.244	0.0161195
745.322	0.0161729
745.400	0.0161685
745.478	0.0162386
745.556	0.0161546
745.634	0.0161983
745.712	0.0161981
745.790	0.0164150
745.869	0.0161570
745.947	0.0161798
746.025	0.0162386
746.103	0.0163126
746.181	0.0162666
746.259	0.0161660
746.337	0.0162919
746.415	0.0162983
746.494	0.0162020
746.572	0.0163018
746.650	0.0162514
746.728	0.0163424
746.806	0.0162875
746.884	0.0163370
746.962	0.0164046
747.040	0.0162886
747.119	0.0162844
747.197	0.0162313
747.275	0.0161674
747.353	0.0162534
747.431	0.0162780
747.509	0.0162753
747.587	0.0162344
747.665	0.0162823
747.744	0.0163748
747.822	0.0163296
747.900	0.0162612
747.978	0.0164256
748.056	0.0162150
748.134	0.0162434
748.212	0.0162742
748.290	0.0161127
748.369	0.0162130
748.447	0.0161507
748.525	0.0159918
748.603	0.0161301
748.681	0.0161025
748.759	0.0161088
748.837	0.0159052
748.915	0.0158635
748.994	0.0159620
749.072	0.0159959
749.150	0.0159486
749.228	0.0159479
749.306	0.0160610
749.384	0.0160777
749.462	0.0160779
749.540	0.0160906
749.619	0.0162000
749.697	0.0161499
749.775	0.0161231
749.853	0.0162067
749.931	0.0163334
750.009	0.0162300
750.087	0.0161207
750.165	0.0163226
750.244	0.0163589
750.322	0.0162697
750.400	0.0161513
750.478	0.0162218
750.556	0.0161611
750.634	0.0160608
750.712	0.0162154
750.790	0.0161824
750.869	0.0163004
750.947	0.0162320
751.025	0.0161727
751.103	0.0161168
751.181	0.0161904
751.259	0.0160293
751.337	0.0161089
751.415	0.0161533
751.494	0.0162336
751.572	0.0160898
751.650	0.0160584
751.728	0.0160189
751.806	0.0162009
751.884	0.0162664
751.962	0.0161907
752.040	0.0162394
752.119	0.0161062
752.197	0.0162110
752.275	0.0163779
752.353	0.0162837
752.431	0.0164230
752.509	0.0164189
752.587	0.0164449
752.665	0.0162642
752.744	0.0162688
752.822	0.0163349
752.900	0.0162835
752.978	0.0162461
753.056	0.0161690
753.134	0.0162664
753.212	0.0161823
753.290	0.0162441
753.369	0.0162465
753.447	0.0161777
753.525	0.0161890
753.603	0.0162845
753.681	0.0160423
753.759	0.0161407
753.837	0.0160847
753.915	0.0159475
753.994	0.0161053
754.072	0.0161401
754.150	0.0160691
754.228	0.0160079
754.306	0.0159338
754.384	0.0161562
754.462	0.0160420
754.540	0.0160783
754.619	0.0161180
754.697	0.0160212
754.775	0.0162291
754.853	0.0161507
754.931	0.0160117
755.009	0.0160971
755.087	0.0159596
755.165	0.0160773
755.244	0.0160423
755.322	0.0161177
755.400	0.0160654
755.478	0.0161275
755.556	0.0160845
755.634	0.0160786
755.712	0.0160325
755.790	0.0160890
755.869	0.0161947
755.947	0.0160954
756.025	0.0161639
756.103	0.0159153
756.181	0.0161327
756.259	0.0160895
756.337	0.0161622
756.415	0.0162570
756.494	0.0161979
756.572	0.0161279
756.650	0.0162878
756.728	0.0162505
756.806	0.0160505
756.884	0.0160744
756.962	0.0162157
757.040	0.0161914
757.119	0.0162112
757.197	0.0162993
757.275	0.0162376
757.353	0.0163113
757.431	0.0162167
757.509	0.0162484
757.587	0.0161577
757.665	0.0162426
757.744	0.0163371
757.822	0.0163071
757.900	0.0162968
757.978	0.0161926
758.056	0.0162518
758.134	0.0161860
758.212	0.0161024
758.290	0.0162231
758.369	0.0161417
758.447	0.0161658
758.525	0.0161578
758.603	0.0161901
758.681	0.0161976
758.759	0.0161482
758.837	0.0163259
758.915	0.0162673
758.994	0.0160445
759.072	0.0162692
759.150	0.0162061
759.228	0.0162154
759.306	0.0162030
759.384	0.0161726
759.462	0.0162197
759.540	0.0162361
759.619	0.0161485
759.697	0.0161337
759.775	0.0162300
759.853	0.0162846
759.931	0.0162291
760.009	0.0163159
760.087	0.0161770
760.165	0.0161813
760.244	0.0161480
760.322	0.0161252
760.400	0.0162069
760.478	0.0160632
760.556	0.0161746
760.634	0.0163206
760.712	0.0162441
760.790	0.0161845
760.869	0.0161780
760.947	0.0163166
761.025	0.0161729
761.103	0.0160759
761.181	0.0161849
761.259	0.0161156
761.337	0.0161192
761.415	0.0161655
761.494	0.0162407
761.572	0.0160595
761.650	0.0160834
761.728	0.0160884
761.806	0.0163322
761.884	0.0160960
761.962	0.0161069
762.040	0.0161803
762.119	0.0163350
762.197	0.0161747
762.275	0.0161754
762.353	0.0160964
762.431	0.0161522
762.509	0.0162223
762.587	0.0162251
762.665	0.0161803
762.744	0.0161785
762.822	0.0163013
762.900	0.0163052
762.978	0.0162424
763.056	0.0162852
763.134	0.0162144
763.212	0.0162092
763.290	0.0161674
763.369	0.0162931
763.447	0.0162223
763.525	0.0163663
763.603	0.0162801
763.681	0.0163334
763.759	0.0161983
763.837	0.0162464
763.915	0.0164751
763.994	0.0163729
764.072	0.0164301
764.150	0.0163378
764.228	0.0162131
764.306	0.0161863
764.384	0.0161423
764.462	0.0160941
764.540	0.0162019
764.619	0.0161225
764.697	0.0161769
764.775	0.0160580
764.853	0.0160822
764.931	0.0161515
765.009	0.0161491
765.087	0.0161887
765.165	0.0161601
765.244	0.0161332
765.322	0.0160719
765.400	0.0161201
765.478	0.0161345
765.556	0.0161281
765.634	0.0161449
765.712	0.0162216
765.790	0.0162283
765.869	0.0160567
765.947	0.0161422
766.025	0.0162704
766.103	0.0161842
766.181	0.0161868
766.259	0.0163652
766.337	0.0162025
766.415	0.0161670
766.494	0.0161110
766.572	0.0163240
766.650	0.0163694
766.728	0.0162491
766.806	0.0162646
766.884	0.0162716
766.962	0.0162837
767.040	0.0162354
767.119	0.0163300
767.197	0.0161531
767.275	0.0163243
767.353	0.0161858
767.431	0.0162461
767.509	0.0161765
767.587	0.0161508
767.665	0.0163142
767.744	0.0162637
767.822	0.0162505
767.900	0.0161189
767.978	0.0162522
768.056	0.0162386
768.134	0.0162087
768.212	0.0161782
768.290	0.0162798
768.369	0.0162979
768.447	0.0162666
768.525	0.0163757
768.603	0.0161607
768.681	0.0161309
768.759	0.0161596
768.837	0.0162019
768.915	0.0161452
768.994	0.0161448
769.072	0.0160627
769.150	0.0159900
769.228	0.0160486
769.306	0.0160472
769.384	0.0161705
769.462	0.0160311
769.540	0.0162664
769.619	0.0161243
769.697	0.0159711
769.775	0.0160331
769.853	0.0162138
769.931	0.0160260
770.009	0.0160866
770.087	0.0162814
770.165	0.0161508
770.244	0.0160738
770.322	0.0163120
770.400	0.0160671
770.478	0.0162508
770.556	0.0161852
770.634	0.0162839
770.712	0.0162031
770.790	0.0162347
770.869	0.0162491
770.947	0.0161195
771.025	0.0161423
771.103	0.0162209
771.181	0.0162168
771.259	0.0162604
771.337	0.0162109
771.415	0.0162108
771.494	0.0163541
771.572	0.0163934
771.650	0.0163866
771.728	0.0163148
771.806	0.0163911
771.884	0.0162797
771.962	0.0163174
772.040	0.0161403
772.119	0.0161226
772.197	0.0163298
772.275	0.0162870
772.353	0.0162485
772.431	0.0162259
772.509	0.0161716
772.587	0.0162231
772.665	0.0162012
772.744	0.0160576
772.822	0.0161994
772.900	0.0161777
772.978	0.0160276
773.056	0.0161072
773.134	0.0161200
773.212	0.0160935
773.290	0.0161038
773.369	0.0161108
773.447	0.0160869
773.525	0.0161003
773.603	0.0162311
773.681	0.0163140
773.759	0.0161380
773.837	0.0161314
773.915	0.0160424
773.994	0.0160571
774.072	0.0161533
774.150	0.0161949
774.228	0.0162350
774.306	0.0161625
774.384	0.0161848
774.462	0.0160610
774.540	0.0162817
774.619	0.0161963
774.697	0.0161379
774.775	0.0162263
774.853	0.0161386
774.931	0.0161404
775.009	0.0161306
775.087	0.0161516
775.165	0.0162193
775.244	0.0163464
775.322	0.0162269
775.400	0.0161127
775.478	0.0161475
775.556	0.0160896
775.634	0.0162320
775.712	0.0163451
775.790	0.0162523
775.869	0.0162903
775.947	0.0162783
776.025	0.0162540
776.103	0.0162582
776.181	0.0162298
776.259	0.0162199
776.337	0.0161513
776.415	0.0162272
776.494	0.0162868
776.572	0.0162003
776.650	0.0162180
776.728	0.0163202
776.806	0.0161552
776.884	0.0161588
776.962	0.0162347
777.040	0.0162840
777.119	0.0162646
777.197	0.0162210
777.275	0.0162270
777.353	0.0160590
777.431	0.0162417
777.509	0.0162317
777.587	0.0161355
777.665	0.0162131
777.744	0.0163548
777.822	0.0163612
777.900	0.0163602
777.978	0.0161652
778.056	0.0162720
778.134	0.0161087
778.212	0.0161370
778.290	0.0161234
778.369	0.0162240
778.447	0.0160445
778.525	0.0161533
778.603	0.0162440
778.681	0.0161626
778.759	0.0161381
778.837	0.0162841
778.915	0.0161456
778.994	0.0163152
779.072	0.0162305
779.150	0.0161842
779.228	0.0160954
779.306	0.0162583
779.384	0.0161348
779.462	0.0162807
779.540	0.0162598
779.619	0.0162861
779.697	0.0162807
779.775	0.0163049
779.853	0.0162988
779.931	0.0163252
780.009	0.0161762
780.087	0.0161499
780.165	0.0162035
780.244	0.0160841
780.322	0.0161366
780.400	0.0161733
780.478	0.0162115
780.556	0.0162042
780.634	0.0162887
780.712	0.0159200
780.790	0.0160060
780.869	0.0161478
780.947	0.0161641
781.025	0.0161494
781.103	0.0161468
781.181	0.0160700
781.259	0.0161234
781.337	0.0162759
781.415	0.0162298
781.494	0.0161657
781.572	0.0163143
781.650	0.0163107
781.728	0.0163685
781.806	0.0163043
781.884	0.0163169
781.962	0.0162137
782.040	0.0163174
782.119	0.0163608
782.197	0.0161185
782.275	0.0163161
782.353	0.0163324
782.431	0.0162650
782.509	0.0163209
782.587	0.0162903
782.665	0.0163690
782.744	0.0161135
782.822	0.0162247
782.900	0.0161676
782.978	0.0162296
783.056	0.0162352
783.134	0.0163328
783.212	0.0162275
783.290	0.0162731
783.369	0.0163979
783.447	0.0163449
783.525	0.0162337
783.603	0.0162467
783.681	0.0162083
783.759	0.0162094
783.837	0.0162755
783.915	0.0161253
783.994	0.0163866
784.072	0.0162328
784.150	0.0161423
784.228	0.0162774
784.306	0.0161955
784.384	0.0163209
784.462	0.0163981
784.540	0.0162263
784.619	0.0162144
784.697	0.0160447
784.775	0.0161343
784.853	0.0163103
784.931	0.0163660
785.009	0.0162991
785.087	0.0162476
785.165	0.0162273
785.244	0.0164030
785.322	0.0163958
785.400	0.0162026
785.478	0.0163371
785.556	0.0163799
785.634	0.0163432
785.712	0.0162239
785.790	0.0161968
785.869	0.0162642
785.947	0.0163979
786.025	0.0162620
786.103	0.0162008
786.181	0.0162588
786.259	0.0162878
786.337	0.0163949
786.415	0.0161538
786.494	0.0162856
786.572	0.0163682
786.650	0.0163177
786.728	0.0164301
786.806	0.0162672
786.884	0.0163772
786.962	0.0161355
787.040	0.0161940
787.119	0.0161834
787.197	0.0162499
787.275	0.0161850
787.353	0.0162970
787.431	0.0161093
787.509	0.0160927
787.587	0.0161899
787.665	0.0162508
787.744	0.0162088
787.822	0.0161504
787.900	0.0161456
787.978	0.0161237
788.056	0.0164050
788.134	0.0163298
788.212	0.0162667
788.290	0.0161745
788.369	0.0162213
788.447	0.0163249
788.525	0.0163377
788.603	0.0161695
788.681	0.0163320
788.759	0.0162048
788.837	0.0160966
788.915	0.0163004
788.994	0.0162047
789.072	0.0162636
789.150	0.0163024
789.228	0.0163895
789.306	0.0163261
789.384	0.0164165
789.462	0.0163434
789.540	0.0164261
789.619	0.0163589
789.697	0.0165121
789.775	0.0163433
789.853	0.0162839
789.931	0.0162775
790.009	0.0163540
790.087	0.0163994
790.165	0.0163020
790.244	0.0162998
790.322	0.0163626
790.400	0.0163377
790.478	0.0161498
790.556	0.0163781
790.634	0.0162803
790.712	0.0163272
790.790	0.0163602
790.869	0.0162235
790.947	0.0162168
791.025	0.0163314
791.103	0.0161929
791.181	0.0160806
791.259	0.0161538
791.337	0.0162631
791.415	0.0161905
791.494	0.0161753
791.572	0.0161154
791.650	0.0160786
791.728	0.0160831
791.806	0.0161045
791.884	0.0159624
791.962	0.0160393
792.040	0.0160660
792.119	0.0160207
792.197	0.0159032
792.275	0.0160136
792.353	0.0160069
792.431	0.0159591
792.509	0.0161030
792.587	0.0160765
792.665	0.0161604
792.744	0.0161673
792.822	0.0161844
792.900	0.0161813
792.978	0.0163122
793.056	0.0162474
793.134	0.0161302
793.212	0.0161454
793.290	0.0162251
793.369	0.0161916
793.447	0.0162431
793.525	0.0164151
793.603	0.0164047
793.681	0.0163806
793.759	0.0163334
793.837	0.0163979
793.915	0.0164243
793.994	0.0164999
794.072	0.0164232
794.150	0.0162953
794.228	0.0166421
794.306	0.0164967
794.384	0.0164410
794.462	0.0165271
794.540	0.0164021
794.619	0.0163676
794.697	0.0162059
794.775	0.0164123
794.853	0.0164374
794.931	0.0164150
795.009	0.0162808
795.087	0.0161208
795.165	0.0162948
795.244	0.0161528
795.322	0.0160730
795.400	0.0162666
795.478	0.0160721
795.556	0.0161533
795.634	0.0159976
795.712	0.0161132
795.790	0.0160802
795.869	0.0160769
795.947	0.0160989
796.025	0.0161060
796.103	0.0160491
796.181	0.0160694
796.259	0.0160686
796.337	0.0160069
796.415	0.0159237
796.494	0.0159029
796.572	0.0159470
796.650	0.0160087
796.728	0.0160593
796.806	0.0160954
796.884	0.0160559
796.962	0.0160051
797.040	0.0160336
797.119	0.0160544
797.197	0.0159970
797.275	0.0160822
797.353	0.0161899
797.431	0.0162092
797.509	0.0162368
797.587	0.0161338
797.665	0.0161341
797.744	0.0161304
797.822	0.0162411
797.900	0.0162079
797.978	0.0161900
798.056	0.0162759
798.134	0.0162509
798.212	0.0163093
798.290	0.0161771
798.369	0.0163053
798.447	0.0163553
798.525	0.0164097
798.603	0.0163310
798.681	0.0164020
798.759	0.0163519
798.837	0.0163300
798.915	0.0165094
798.994	0.0164412
799.072	0.0164324
799.150	0.0163352
799.228	0.0163404
799.306	0.0164000
799.384	0.0164482
799.462	0.0164016
799.540	0.0164928
799.619	0.0164180
799.697	0.0164376
799.775	0.0164562
799.853	0.0162621
799.931	0.0163298
800.009	0.0163465
800.087	0.0163108
800.165	0.0162595
800.244	0.0163287
800.322	0.0162731
800.400	0.0162236
800.478	0.0162508
800.556	0.0163408
800.634	0.0162965
800.712	0.0162772
800.790	0.0160460
800.869	0.0160806
800.947	0.0159840
801.025	0.0161088
801.103	0.0159655
801.181	0.0160974
801.259	0.0159469
801.337	0.0158991
801.415	0.0160536
801.494	0.0159283
801.572	0.0160184
801.650	0.0160120
801.728	0.0159817
801.806	0.0159606
801.884	0.0160112
801.962	0.0162339
802.040	0.0162070
802.119	0.0160432
802.197	0.0161211
802.275	0.0161806
802.353	0.0161177
802.431	0.0162344
802.509	0.0162000
802.587	0.0161119
802.665	0.0162029
802.744	0.0162241
802.822	0.0160782
802.900	0.0162312
802.978	0.0161822
803.056	0.0161478
803.134	0.0161769
803.212	0.0160891
803.290	0.0160870
803.369	0.0162106
803.447	0.0161139
803.525	0.0161783
803.603	0.0161558
803.681	0.0160778
803.759	0.0160972
803.837	0.0162653
803.915	0.0162948
803.994	0.0160223
804.072	0.0162633
804.150	0.0162615
804.228	0.0161158
804.306	0.0161945
804.384	0.0162965
804.462	0.0161607
804.540	0.0162568
804.619	0.0160781
804.697	0.0161967
804.775	0.0163030
804.853	0.0162362
804.931	0.0161895
805.009	0.0162778
805.087	0.0162966
805.165	0.0162988
805.244	0.0163365
805.322	0.0162813
805.400	0.0163455
805.478	0.0163854
805.556	0.0163578
805.634	0.0163419
805.712	0.0164201
805.790	0.0163462
805.869	0.0162968
805.947	0.0163230
806.025	0.0163017
806.103	0.0162868
806.181	0.0162128
806.259	0.0162320
806.337	0.0162611
806.415	0.0161157
806.494	0.0163393
806.572	0.0162455
806.650	0.0162106
806.728	0.0161555
806.806	0.0162029
806.884	0.0162284
806.962	0.0161775
807.040	0.0160951
807.119	0.0162886
807.197	0.0162408
807.275	0.0162992
807.353	0.0161666
807.431	0.0162130
807.509	0.0162551
807.587	0.0163092
807.665	0.0162099
807.744	0.0161286
807.822	0.0161388
807.900	0.0162152
807.978	0.0161748
808.056	0.0162536
808.134	0.0162247
808.212	0.0161683
808.290	0.0161047
808.369	0.0162727
808.447	0.0162019
808.525	0.0163184
808.603	0.0162029
808.681	0.0160460
808.759	0.0161519
808.837	0.0161698
808.915	0.0161526
808.994	0.0161934
809.072	0.0162112
809.150	0.0161615
809.228	0.0161938
809.306	0.0162737
809.384	0.0164203
809.462	0.0163915
809.540	0.0162775
809.619	0.0162950
809.697	0.0162126
809.775	0.0162474
809.853	0.0161543
809.931	0.0162285
810.009	0.0161477
810.087	0.0160948
810.165	0.0160760
810.244	0.0161543
810.322	0.0161916
810.400	0.0160747
810.478	0.0162573
810.556	0.0162651
810.634	0.0162702
810.712	0.0162853
810.790	0.0162447
810.869	0.0161869
810.947	0.0162717
811.025	0.0163004
811.103	0.0161900
811.181	0.0161711
811.259	0.0160842
811.337	0.0161525
811.415	0.0162622
811.494	0.0161437
811.572	0.0162305
811.650	0.0162215
811.728	0.0162994
811.806	0.0162956
811.884	0.0163338
811.962	0.0164526
812.040	0.0162988
812.119	0.0161724
812.197	0.0163368
812.275	0.0163062
812.353	0.0162814
812.431	0.0163819
812.509	0.0163136
812.587	0.0163454
812.665	0.0163505
812.744	0.0162814
812.822	0.0163086
812.900	0.0162572
812.978	0.0163025
813.056	0.0163321
813.134	0.0162631
813.212	0.0161530
813.290	0.0162029
813.369	0.0161913
813.447	0.0162686
813.525	0.0162117
813.603	0.0163390
813.681	0.0163242
813.759	0.0162309
813.837	0.0163131
813.915	0.0162695
813.994	0.0163059
814.072	0.0163584
814.150	0.0163531
814.228	0.0163216
814.306	0.0163230
814.384	0.0162569
814.462	0.0163610
814.540	0.0163590
814.619	0.0164531
814.697	0.0162745
814.775	0.0163206
814.853	0.0163108
814.931	0.0163699
815.009	0.0162783
815.087	0.0163888
815.165	0.0163540
815.244	0.0162617
815.322	0.0163601
815.400	0.0161738
815.478	0.0163635
815.556	0.0162299
815.634	0.0161880
815.712	0.0160955
815.790	0.0160716
815.869	0.0161696
815.947	0.0160912
816.025	0.0161459
816.103	0.0160252
816.181	0.0160909
816.259	0.0159956
816.337	0.0160516
816.415	0.0161915
816.494	0.0161050
816.572	0.0160334
816.650	0.0160485
816.728	0.0160435
816.806	0.0161982
816.884	0.0161058
816.962	0.0160607
817.040	0.0161181
817.119	0.0161305
817.197	0.0162060
817.275	0.0162109
817.353	0.0161638
817.431	0.0161810
817.509	0.0162839
817.587	0.0161723
817.665	0.0161835
817.744	0.0161972
817.822	0.0162395
817.900	0.0161321
817.978	0.0161340
818.056	0.0161468
818.134	0.0161726
818.212	0.0161526
818.290	0.0160388
818.369	0.0161929
818.447	0.0161813
818.525	0.0161809
818.603	0.0161626
818.681	0.0160001
818.759	0.0162817
818.837	0.0162917
818.915	0.0163357
818.994	0.0161515
819.072	0.0161611
819.150	0.0163058
819.228	0.0163045
819.306	0.0162965
819.384	0.0162879
819.462	0.0163341
819.540	0.0163200
819.619	0.0161895
819.697	0.0163468
819.775	0.0164915
819.853	0.0163330
819.931	0.0162115
820.009	0.0163104
820.087	0.0162754
820.165	0.0162510
820.244	0.0161954
820.322	0.0161665
820.400	0.0163242
820.478	0.0162698
820.556	0.0163129
820.634	0.0161572
820.712	0.0160763
820.790	0.0162194
820.869	0.0162710
820.947	0.0161272
821.025	0.0161842
821.103	0.0162238
821.181	0.0161956
821.259	0.0161356
821.337	0.0161251
821.415	0.0161727
821.494	0.0161727
821.572	0.0161644
821.650	0.0162425
821.728	0.0161858
821.806	0.0160219
821.884	0.0160939
821.962	0.0162058
822.040	0.0161565
822.119	0.0160725
822.197	0.0160461
822.275	0.0160846
822.353	0.0162152
822.431	0.0163473
822.509	0.0161608
822.587	0.0161969
822.665	0.0161419
822.744	0.0164005
822.822	0.0161941
822.900	0.0162889
822.978	0.0161591
823.056	0.0162521
823.134	0.0163695
823.212	0.0161728
823.290	0.0162681
823.369	0.0161735
823.447	0.0162358
823.525	0.0163268
823.603	0.0161346
823.681	0.0162169
823.759	0.0162630
823.837	0.0162412
823.915	0.0160497
823.994	0.0162842
824.072	0.0161921
824.150	0.0161990
824.228	0.0162090
824.306	0.0162453
824.384	0.0162173
824.462	0.0162110
824.540	0.0161464
824.619	0.0161418
824.697	0.0162207
824.775	0.0162096
824.853	0.0161981
824.931	0.0161474
825.009	0.0162318
825.087	0.0161885
825.165	0.0160466
825.244	0.0160683
825.322	0.0161828
825.400	0.0160094
825.478	0.0161427
825.556	0.0161326
825.634	0.0160277
825.712	0.0161192
825.790	0.0161107
825.869	0.0161077
825.947	0.0159884
826.025	0.0160635
826.103	0.0160178
826.181	0.0160217
826.259	0.0161131
826.337	0.0161085
826.415	0.0160478
826.494	0.0160583
826.572	0.0159966
826.650	0.0159520
826.728	0.0159566
826.806	0.0160852
826.884	0.0161254
826.962	0.0160345
827.040	0.0160928
827.119	0.0162492
827.197	0.0161600
827.275	0.0161475
827.353	0.0161759
827.431	0.0161189
827.509	0.0161464
827.587	0.0161191
827.665	0.0161263
827.744	0.0162099
827.822	0.0162970
827.900	0.0163058
827.978	0.0163137
828.056	0.0163365
828.134	0.0163737
828.212	0.0162962
828.290	0.0163438
828.369	0.0161723
828.447	0.0162584
828.525	0.0162560
828.603	0.0163734
828.681	0.0162810
828.759	0.0161856
828.837	0.0163778
828.915	0.0163495
828.994	0.0161790
829.072	0.0161813
829.150	0.0161766
829.228	0.0162314
829.306	0.0161001
829.384	0.0162595
829.462	0.0163342
829.540	0.0161843
829.619	0.0162799
829.697	0.0161852
829.775	0.0161552
829.853	0.0161054
829.931	0.0161945
830.009	0.0160851
830.087	0.0160938
830.165	0.0162276
830.244	0.0162887
830.322	0.0161497
830.400	0.0160326
830.478	0.0162190
830.556	0.0161816
830.634	0.0160203
830.712	0.0161435
830.790	0.0159741
830.869	0.0160241
830.947	0.0159441
831.025	0.0159858
831.103	0.0161007
831.181	0.0160743
831.259	0.0158755
831.337	0.0159361
831.415	0.0158696
831.494	0.0160099
831.572	0.0159261
831.650	0.0159742
831.728	0.0160844
831.806	0.0158223
831.884	0.0159670
831.962	0.0160538
832.040	0.0159422
832.119	0.0159908
832.197	0.0160947
832.275	0.0161003
832.353	0.0160387
832.431	0.0160473
832.509	0.0160153
832.587	0.0159371
832.665	0.0161684
832.744	0.0160329
832.822	0.0160728
832.900	0.0162532
832.978	0.0162659
833.056	0.0161287
833.134	0.0162295
833.212	0.0162879
833.290	0.0161918
833.369	0.0163104
833.447	0.0163459
833.525	0.0163552
833.603	0.0162471
833.681	0.0163531
833.759	0.0163701
833.837	0.0162899
833.915	0.0162685
833.994	0.0162672
834.072	0.0162404
834.150	0.0162823
834.228	0.0161651
834.306	0.0164404
834.384	0.0162931
834.462	0.0162161
834.540	0.0161753
834.619	0.0163474
834.697	0.0162854
834.775	0.0162692
834.853	0.0161542
834.931	0.0162249
835.009	0.0162514
835.087	0.0161758
835.165	0.0162223
835.244	0.0162624
835.322	0.0162230
835.400	0.0162969
835.478	0.0163185
835.556	0.0163867
835.634	0.0163528
835.712	0.0162106
835.790	0.0162915
835.869	0.0161990
835.947	0.0163031
836.025	0.0163394
836.103	0.0160995
836.181	0.0162774
836.259	0.0163345
836.337	0.0162122
836.415	0.0161451
836.494	0.0162192
836.572	0.0161115
836.650	0.0160923
836.728	0.0161374
836.806	0.0160973
836.884	0.0160789
836.962	0.0160565
837.040	0.0162401
837.119	0.0159633
837.197	0.0159380
837.275	0.0159838
837.353	0.0159718
837.431	0.0161299
837.509	0.0161831
837.587	0.0160995
837.665	0.0160412
837.744	0.0161143
837.822	0.0160729
837.900	0.0161920
837.978	0.0162845
838.056	0.0161641
838.134	0.0162740
838.212	0.0161290
838.290	0.0162226
838.369	0.0161834
838.447	0.0162722
838.525	0.0162749
838.603	0.0161382
838.681	0.0163007
838.759	0.0162186
838.837	0.0161319
838.915	0.0163538
838.994	0.0162246
839.072	0.0163742
839.150	0.0163786
839.228	0.0163434
839.306	0.0162635
839.384	0.0163453
839.462	0.0162937
839.540	0.0163332
839.619	0.0161522
839.697	0.0161903
839.775	0.0162019
839.853	0.0163027
839.931	0.0163151
840.009	0.0163457
840.087	0.0161908
840.165	0.0162518
840.244	0.0162779
840.322	0.0162713
840.400	0.0162875
840.478	0.0161779
840.556	0.0162118
840.634	0.0163319
840.712	0.0163413
840.790	0.0161156
840.869	0.0161866
840.947	0.0162827
841.025	0.0163023
841.103	0.0162347
841.181	0.0161967
841.259	0.0163176
841.337	0.0162946
841.415	0.0162283
841.494	0.0162864
841.572	0.0162404
841.650	0.0161746
841.728	0.0161090
841.806	0.0161847
841.884	0.0161521
841.962	0.0161095
842.040	0.0161826
842.119	0.0161732
842.197	0.0161517
842.275	0.0161949
842.353	0.0160629
842.431	0.0161967
842.509	0.0161770
842.587	0.0163269
842.665	0.0162791
842.744	0.0162135
842.822	0.0162466
842.900	0.0162428
842.978	0.0162786
843.056	0.0164119
843.134	0.0162830
843.212	0.0163106
843.290	0.0162328
843.369	0.0162628
843.447	0.0162844
843.525	0.0163361
843.603	0.0163632
843.681	0.0163818
843.759	0.0162776
843.837	0.0162518
843.915	0.0162817
843.994	0.0162263
844.072	0.0162770
844.150	0.0160859
844.228	0.0163053
844.306	0.0163058
844.384	0.0160464
844.462	0.0161900
844.540	0.0162426
844.619	0.0161335
844.697	0.0161048
844.775	0.0162320
844.853	0.0160515
844.931	0.0161659
845.009	0.0161405
845.087	0.0162015
845.165	0.0161348
845.244	0.0160371
845.322	0.0161106
845.400	0.0162511
845.478	0.0161707
845.556	0.0161187
845.634	0.0161485
845.712	0.0161155
845.790	0.0160331
845.869	0.0161412
845.947	0.0161789
846.025	0.0160968
846.103	0.0160891
846.181	0.0161388
846.259	0.0161729
846.337	0.0161210
846.415	0.0161678
846.494	0.0160670
846.572	0.0161993
846.650	0.0160432
846.728	0.0161636
846.806	0.0161781
846.884	0.0160606
846.962	0.0161504
847.040	0.0162570
847.119	0.0161383
847.197	0.0162582
847.275	0.0161868
847.353	0.0161842
847.431	0.0161337
847.509	0.0162048
847.587	0.0160390
847.665	0.0162299
847.744	0.0161773
847.822	0.0160378
847.900	0.0161791
847.978	0.0161195
848.056	0.0159942
848.134	0.0160177
848.212	0.0159412
848.290	0.0160598
848.369	0.0161747
848.447	0.0160589
848.525	0.0162704
848.603	0.0162340
848.681	0.0161270
848.759	0.0161288
848.837	0.0162495
848.915	0.0162920
848.994	0.0163271
849.072	0.0163510
849.150	0.0162202
849.228	0.0161283
849.306	0.0160530
849.384	0.0162828
849.462	0.0162541
849.540	0.0161902
849.619	0.0162103
849.697	0.0161399
849.775	0.0162178
849.853	0.0161845
849.931	0.0160493
850.009	0.0161534
850.087	0.0161907
850.165	0.0161314
850.244	0.0161939
850.322	0.0160046
850.400	0.0160986
850.478	0.0162170
850.556	0.0160650
850.634	0.0160651
850.712	0.0160706
850.790	0.0160880
850.869	0.0160976
850.947	0.0162470
851.025	0.0162070
851.103	0.0161405
851.181	0.0161324
851.259	0.0160617
851.337	0.0161467
851.415	0.0162080
851.494	0.0161742
851.572	0.0162203
851.650	0.0162669
851.728	0.0161942
851.806	0.0162350
851.884	0.0161286
851.962	0.0161174
852.040	0.0161115
852.119	0.0161703
852.197	0.0161257
852.275	0.0161068
852.353	0.0162482
852.431	0.0161942
852.509	0.0161525
852.587	0.0160787
852.665	0.0159933
852.744	0.0160046
852.822	0.0160329
852.900	0.0160787
852.978	0.0159729
853.056	0.0160265
853.134	0.0160369
853.212	0.0161627
853.290	0.0161027
853.369	0.0160802
853.447	0.0159232
853.525	0.0159929
853.603	0.0161066
853.681	0.0161390
853.759	0.0161452
853.837	0.0160630
853.915	0.0162379
853.994	0.0161050
854.072	0.0161788
854.150	0.0161301
854.228	0.0161412
854.306	0.0161726
854.384	0.0162009
854.462	0.0161622
854.540	0.0161031
854.619	0.0161510
854.697	0.0162231
854.775	0.0162335
854.853	0.0161803
854.931	0.0161304
855.009	0.0160848
855.087	0.0161627
855.165	0.0161943
855.244	0.0162782
855.322	0.0161721
855.400	0.0162392
855.478	0.0163387
855.556	0.0163074
855.634	0.0161414
855.712	0.0162782
855.790	0.0161044
855.869	0.0163026
855.947	0.0164145
856.025	0.0163774
856.103	0.0162766
856.181	0.0161877
856.259	0.0162479
856.337	0.0162997
856.415	0.0161887
856.494	0.0162402
856.572	0.0163744
856.650	0.0162000
856.728	0.0162458
856.806	0.0161952
856.884	0.0163422
856.962	0.0162889
857.040	0.0162389
857.119	0.0162187
857.197	0.0161776
857.275	0.0162436
857.353	0.0163028
857.431	0.0162866
857.509	0.0162730
857.587	0.0162847
857.665	0.0162970
857.744	0.0162755
857.822	0.0161050
857.900	0.0161634
857.978	0.0162469
858.056	0.0163116
858.134	0.0162196
858.212	0.0160688
858.290	0.0161059
858.369	0.0161057
858.447	0.0160962
858.525	0.0160950
858.603	0.0161303
858.681	0.0159119
858.759	0.0161088
858.837	0.0161324
858.915	0.0160876
858.994	0.0160455
859.072	0.0160735
859.150	0.0161257
859.228	0.0160527
859.306	0.0161082
859.384	0.0161588
859.462	0.0161609
859.540	0.0161900
859.619	0.0161512
859.697	0.0162537
859.775	0.0160445
859.853	0.0161666
859.931	0.0161845
860.009	0.0161586
860.087	0.0164108
860.165	0.0163055
860.244	0.0162586
860.322	0.0161953
860.400	0.0163062
860.478	0.0162202
860.556	0.0162930
860.634	0.0163831
860.712	0.0162608
860.790	0.0163853
860.869	0.0163657
860.947	0.0163198
861.025	0.0162634
861.103	0.0163284
861.181	0.0163425
861.259	0.0163570
861.337	0.0162747
861.415	0.0162270
861.494	0.0162518
861.572	0.0162206
861.650	0.0163389
861.728	0.0161662
861.806	0.0162945
861.884	0.0162554
861.962	0.0162337
862.040	0.0162426
862.119	0.0161697
862.197	0.0162492
862.275	0.0162872
862.353	0.0162247
862.431	0.0163293
862.509	0.0162450
862.587	0.0161845
862.665	0.0161662
862.744	0.0160189
862.822	0.0162806
862.900	0.0162810
862.978	0.0161412
863.056	0.0161707
863.134	0.0161092
863.212	0.0161166
863.290	0.0161638
863.369	0.0160839
863.447	0.0161314
863.525	0.0162151
863.603	0.0161314
863.681	0.0160783
863.759	0.0161596
863.837	0.0161021
863.915	0.0160357
863.994	0.0161168
864.072	0.0162494
864.150	0.0161506
864.228	0.0162831
864.306	0.0162977
864.384	0.0162769
864.462	0.0163760
864.540	0.0162292
864.619	0.0162713
864.697	0.0163513
864.775	0.0163538
864.853	0.0161913
864.931	0.0163640
865.009	0.0162885
865.087	0.0161933
865.165	0.0162826
865.244	0.0163940
865.322	0.0162981
865.400	0.0164019
865.478	0.0162510
865.556	0.0163722
865.634	0.0163033
865.712	0.0163850
865.790	0.0163215
865.869	0.0163258
865.947	0.0162366
866.025	0.0163322
866.103	0.0162885
866.181	0.0162334
866.259	0.0163108
866.337	0.0162233
866.415	0.0162101
866.494	0.0163147
866.572	0.0162731
866.650	0.0163062
866.728	0.0161784
866.806	0.0163116
866.884	0.0162241
866.962	0.0162161
867.040	0.0162910
867.119	0.0161314
867.197	0.0162083
867.275	0.0162641
867.353	0.0160815
867.431	0.0160380
867.509	0.0160469
867.587	0.0161146
867.665	0.0162005
867.744	0.0161070
867.822	0.0160905
867.900	0.0162479
867.978	0.0162145
868.056	0.0162606
868.134	0.0160068
868.212	0.0161899
868.290	0.0162518
868.369	0.0160627
868.447	0.0160743
868.525	0.0162257
868.603	0.0161293
868.681	0.0161798
868.759	0.0161655
868.837	0.0161909
868.915	0.0163589
868.994	0.0162931
869.072	0.0163168
869.150	0.0162668
869.228	0.0162526
869.306	0.0161578
869.384	0.0163551
869.462	0.0162923
869.540	0.0162823
869.619	0.0162730
869.697	0.0162128
869.775	0.0162400
869.853	0.0163375
869.931	0.0163483
870.009	0.0162695
870.087	0.0162533
870.165	0.0163068
870.244	0.0162955
870.322	0.0161807
870.400	0.0163093
870.478	0.0163383
870.556	0.0164083
870.634	0.0162636
870.712	0.0162555
870.790	0.0163277
870.869	0.0161385
870.947	0.0161655
871.025	0.0163017
871.103	0.0162276
871.181	0.0162814
871.259	0.0162504
871.337	0.0162337
871.415	0.0161684
871.494	0.0161742
871.572	0.0162371
871.650	0.0162151
871.728	0.0161279
871.806	0.0162399
871.884	0.0162103
871.962	0.0161513
872.040	0.0162553
872.119	0.0161509
872.197	0.0161107
872.275	0.0163578
872.353	0.0163533
872.431	0.0161929
872.509	0.0163430
872.587	0.0162587
872.665	0.0162514
872.744	0.0162399
872.822	0.0163184
872.900	0.0162694
872.978	0.0161974
873.056	0.0163017
873.134	0.0162426
873.212	0.0161348
873.290	0.0163467
873.369	0.0162946
873.447	0.0161101
873.525	0.0162487
873.603	0.0162377
873.681	0.0161781
873.759	0.0161933
873.837	0.0162402
873.915	0.0162656
873.994	0.0163016
874.072	0.0163799
874.150	0.0162115
874.228	0.0161680
874.306	0.0161021
874.384	0.0161905
874.462	0.0160600
874.540	0.0160110
874.619	0.0161235
874.697	0.0162440
874.775	0.0161733
874.853	0.0161695
874.931	0.0162851
875.009	0.0161301
875.087	0.0160183
875.165	0.0160667
875.244	0.0161545
875.322	0.0161939
875.400	0.0162816
875.478	0.0163114
875.556	0.0162204
875.634	0.0161575
875.712	0.0163493
875.790	0.0162296
875.869	0.0162936
875.947	0.0162980
876.025	0.0162035
876.103	0.0162893
876.181	0.0163877
876.259	0.0162732
876.337	0.0163046
876.415	0.0162723
876.494	0.0163931
876.572	0.0163490
876.650	0.0163406
876.728	0.0163188
876.806	0.0161858
876.884	0.0163037
876.962	0.0163348
877.040	0.0162849
877.119	0.0161899
877.197	0.0162930
877.275	0.0162232
877.353	0.0161440
877.431	0.0162053
877.509	0.0161736
877.587	0.0160350
877.665	0.0161796
877.744	0.0162003
877.822	0.0162032
877.900	0.0160506
877.978	0.0160344
878.056	0.0162314
878.134	0.0161656
878.212	0.0162020
878.290	0.0160992
878.369	0.0160271
878.447	0.0161782
878.525	0.0162933
878.603	0.0161623
878.681	0.0162501
878.759	0.0163552
878.837	0.0163060
878.915	0.0162652
878.994	0.0161572
879.072	0.0162905
879.150	0.0162863
879.228	0.0162912
879.306	0.0163981
879.384	0.0163948
879.462	0.0162740
879.540	0.0161625
879.619	0.0163647
879.697	0.0163047
879.775	0.0164105
879.853	0.0162815
879.931	0.0162508
880.009	0.0164458
880.087	0.0164686
880.165	0.0162964
880.244	0.0163139
880.322	0.0162898
880.400	0.0162737
880.478	0.0164130
880.556	0.0162895
880.634	0.0162525
880.712	0.0162154
880.790	0.0162372
880.869	0.0161473
880.947	0.0162046
881.025	0.0161871
881.103	0.0162820
881.181	0.0162100
881.259	0.0162033
881.337	0.0162727
881.415	0.0161181
881.494	0.0161072
881.572	0.0161991
881.650	0.0162262
881.728	0.0160724
881.806	0.0160735
881.884	0.0161360
881.962	0.0162628
882.040	0.0160285
882.119	0.0160059
882.197	0.0161567
882.275	0.0161232
882.353	0.0161713
882.431	0.0161964
882.509	0.0161096
882.587	0.0160031
882.665	0.0161844
882.744	0.0162031
882.822	0.0161985
882.900	0.0162019
882.978	0.0161781
883.056	0.0162071
883.134	0.0163357
883.212	0.0162325
883.290	0.0162138
883.369	0.0161905
883.447	0.0161575
883.525	0.0163030
883.603	0.0162560
883.681	0.0162785
883.759	0.0162878
883.837	0.0162112
883.915	0.0162337
883.994	0.0162568
884.072	0.0162290
884.150	0.0163811
884.228	0.0163123
884.306	0.0162775
884.384	0.0163146
884.462	0.0161857
884.540	0.0165072
884.619	0.0162502
884.697	0.0164189
884.775	0.0162088
884.853	0.0162888
884.931	0.0163199
885.009	0.0162891
885.087	0.0163581
885.165	0.0162299
885.244	0.0162920
885.322	0.0162080
885.400	0.0161990
885.478	0.0162421
885.556	0.0161768
885.634	0.0163332
885.712	0.0162591
885.790	0.0162326
885.869	0.0161547
885.947	0.0161823
886.025	0.0161919
886.103	0.0164046
886.181	0.0162624
886.259	0.0160229
886.337	0.0161813
886.415	0.0163486
886.494	0.0162085
886.572	0.0162708
886.650	0.0161882
886.728	0.0161356
886.806	0.0162178
886.884	0.0161076
886.962	0.0162427
887.040	0.0162486
887.119	0.0161452
887.197	0.0161697
887.275	0.0161720
887.353	0.0161861
887.431	0.0162964
887.509	0.0162179
887.587	0.0161948
887.665	0.0162957
887.744	0.0163865
887.822	0.0162131
887.900	0.0163405
887.978	0.0162380
888.056	0.0164329
888.134	0.0164078
888.212	0.0162865
888.290	0.0163216
888.369	0.0163135
888.447	0.0163804
888.525	0.0162891
888.603	0.0162960
888.681	0.0162513
888.759	0.0163346
888.837	0.0163615
888.915	0.0162489
888.994	0.0162368
889.072	0.0162208
889.150	0.0161948
889.228	0.0162034
889.306	0.0163033
889.384	0.0162957
889.462	0.0163116
889.540	0.0162888
889.619	0.0162167
889.697	0.0163433
889.775	0.0162289
889.853	0.0161783
889.931	0.0163051
890.009	0.0162636
890.087	0.0163335
890.165	0.0161539
890.244	0.0162543
890.322	0.0161441
890.400	0.0160785
890.478	0.0160579
890.556	0.0161093
890.634	0.0161797
890.712	0.0161243
890.790	0.0161255
890.869	0.0160280
890.947	0.0160952
891.025	0.0161501
891.103	0.0161175
891.181	0.0160014
891.259	0.0159843
891.337	0.0161510
891.415	0.0160155
891.494	0.0160543
891.572	0.0160423
891.650	0.0161736
891.728	0.0161032
891.806	0.0162730
891.884	0.0162852
891.962	0.0162473
892.040	0.0161588
892.119	0.0161028
892.197	0.0162480
892.275	0.0162825
892.353	0.0162327
892.431	0.0161434
892.509	0.0162437
892.587	0.0162678
892.665	0.0162746
892.744	0.0162133
892.822	0.0162602
892.900	0.0162719
892.978	0.0162910
893.056	0.0162949
893.134	0.0161929
893.212	0.0163715
893.290	0.0163644
893.369	0.0162576
893.447	0.0161328
893.525	0.0162114
893.603	0.0162567
893.681	0.0163326
893.759	0.0162775
893.837	0.0163490
893.915	0.0162503
893.994	0.0163376
894.072	0.0163603
894.150	0.0162468
894.228	0.0163419
894.306	0.0163001
894.384	0.0162856
894.462	0.0162697
894.540	0.0162389
894.619	0.0162804
894.697	0.0162098
894.775	0.0161903
894.853	0.0162167
894.931	0.0162437
895.009	0.0162821
895.087	0.0162222
895.165	0.0161656
895.244	0.0162008
895.322	0.0162036
895.400	0.0161951
895.478	0.0161854
895.556	0.0161223
895.634	0.0161674
895.712	0.0162865
895.790	0.0162167
895.869	0.0161715
895.947	0.0162807
896.025	0.0162181
896.103	0.0162159
896.181	0.0162098
896.259	0.0162023
896.337	0.0162541
896.415	0.0162564
896.494	0.0162401
896.572	0.0162240
896.650	0.0161283
896.728	0.0162036
896.806	0.0162199
896.884	0.0162204
896.962	0.0163466
897.040	0.0162868
897.119	0.0161360
897.197	0.0162415
897.275	0.0163086
897.353	0.0162614
897.431	0.0163652
897.509	0.0163068
897.587	0.0162341
897.665	0.0161537
897.744	0.0161337
897.822	0.0160263
897.900	0.0161744
897.978	0.0162310
898.056	0.0161470
898.134	0.0162173
898.212	0.0160346
898.290	0.0160048
898.369	0.0160587
898.447	0.0159977
898.525	0.0162093
898.603	0.0160670
898.681	0.0161454
898.759	0.0160595
898.837	0.0160812
898.915	0.0161070
898.994	0.0160600
899.072	0.0160773
899.150	0.0163327
899.228	0.0161162
899.306	0.0162415
899.384	0.0163547
899.462	0.0162874
899.540	0.0162167
899.619	0.0162491
899.697	0.0162951
899.775	0.0163240
899.853	0.0163201
899.931	0.0165176
900.009	0.0163024
900.087	0.0162631
900.165	0.0162260
900.244	0.0163540
900.322	0.0163087
900.400	0.0163560
900.478	0.0163309
900.556	0.0162865
900.634	0.0162809
900.712	0.0162139
900.790	0.0162769
900.869	0.0161654
900.947	0.0160369
901.025	0.0160303
901.103	0.0161781
901.181	0.0161942
901.259	0.0160629
901.337	0.0161495
901.415	0.0161425
901.494	0.0161060
901.572	0.0161602
901.650	0.0162630
901.728	0.0162498
901.806	0.0161615
901.884	0.0162638
901.962	0.0161402
902.040	0.0161964
902.119	0.0161409
902.197	0.0162546
902.275	0.0161874
902.353	0.0162494
902.431	0.0162319
902.509	0.0162559
902.587	0.0162201
902.665	0.0161801
902.744	0.0161832
902.822	0.0162553
902.900	0.0163616
902.978	0.0160910
903.056	0.0161897
903.134	0.0162165
903.212	0.0162205
903.290	0.0161092
903.369	0.0164148
903.447	0.0161991
903.525	0.0161422
903.603	0.0160664
903.681	0.0163696
903.759	0.0161765
903.837	0.0162286
903.915	0.0163080
903.994	0.0162959
904.072	0.0161835
904.150	0.0162554
904.228	0.0162711
904.306	0.0162277
904.384	0.0162106
904.462	0.0162537
904.540	0.0163638
904.619	0.0163327
904.697	0.0163252
904.775	0.0164511
904.853	0.0164291
904.931	0.0163824
905.009	0.0164648
905.087	0.0164959
905.165	0.0164677
905.244	0.0164539
905.322	0.0164413
905.400	0.0165346
905.478	0.0164663
905.556	0.0163998
905.634	0.0163852
905.712	0.0163276
905.790	0.0163043
905.869	0.0164138
905.947	0.0163512
906.025	0.0163689
906.103	0.0163128
906.181	0.0163261
906.259	0.0162674
906.337	0.0163416
906.415	0.0163261
906.494	0.0162527
906.572	0.0162201
906.650	0.0161111
906.728	0.0161890
906.806	0.0163033
906.884	0.0161580
906.962	0.0160737
907.040	0.0161707
907.119	0.0160755
907.197	0.0161124
907.275	0.0161010
907.353	0.0161533
907.431	0.0160361
907.509	0.0162234
907.587	0.0161608
907.665	0.0161254
907.744	0.0162070
907.822	0.0159823
907.900	0.0160444
907.978	0.0160747
908.056	0.0160639
908.134	0.0160444
908.212	0.0159951
908.290	0.0160893
908.369	0.0161572
908.447	0.0159626
908.525	0.0160924
908.603	0.0160438
908.681	0.0160475
908.759	0.0160377
908.837	0.0162024
908.915	0.0161520
908.994	0.0162602
909.072	0.0162336
909.150	0.0162988
909.228	0.0161671
909.306	0.0162937
909.384	0.0163334
909.462	0.0164165
909.540	0.0164445
909.619	0.0163214
909.697	0.0164098
909.775	0.0163916
909.853	0.0164529
909.931	0.0163960
910.009	0.0164011
910.087	0.0163903
910.165	0.0161906
910.244	0.0163975
910.322	0.0164259
910.400	0.0164133
910.478	0.0162919
910.556	0.0162619
910.634	0.0164382
910.712	0.0163831
910.790	0.0163992
910.869	0.0162544
910.947	0.0163124
911.025	0.0162682
911.103	0.0163071
911.181	0.0162533
911.259	0.0161071
911.337	0.0163565
911.415	0.0162225
911.494	0.0162078
911.572	0.0162232
911.650	0.0161420
911.728	0.0162733
911.806	0.0161800
911.884	0.0160863
911.962	0.0161420
912.040	0.0162579
912.119	0.0161750
912.197	0.0160591
912.275	0.0161822
912.353	0.0161102
912.431	0.0162225
912.509	0.0161261
912.587	0.0161249
912.665	0.0161467
912.744	0.0159184
912.822	0.0160938
912.900	0.0161836
912.978	0.0161336
913.056	0.0160783
913.134	0.0160940
913.212	0.0160886
913.290	0.0161390
913.369	0.0159865
913.447	0.0162061
913.525	0.0161099
913.603	0.0161560
913.681	0.0161441
913.759	0.0160808
913.837	0.0163134
913.915	0.0162505
913.994	0.0161868
914.072	0.0161255
914.150	0.0160650
914.228	0.0161627
914.306	0.0160899
914.384	0.0164031
914.462	0.0162867
914.540	0.0161597
914.619	0.0163272
914.697	0.0163120
914.775	0.0162939
914.853	0.0163422
914.931	0.0162648
915.009	0.0162822
915.087	0.0162804
915.165	0.0162435
915.244	0.0162745
915.322	0.0163063
915.400	0.0163541
915.478	0.0163488
915.556	0.0163503
915.634	0.0163080
915.712	0.0162618
915.790	0.0163922
915.869	0.0162438
915.947	0.0162551
916.025	0.0163049
916.103	0.0163306
916.181	0.0162634
916.259	0.0161630
916.337	0.0161287
916.415	0.0163004
916.494	0.0161940
916.572	0.0162609
916.650	0.0162392
916.728	0.0162617
916.806	0.0162517
916.884	0.0163296
916.962	0.0161981
917.040	0.0161752
917.119	0.0161131
917.197	0.0161047
917.275	0.0163057
917.353	0.0163128
917.431	0.0162818
917.509	0.0160796
917.587	0.0159751
917.665	0.0161108
917.744	0.0162296
917.822	0.0161873
917.900	0.0161948
917.978	0.0161024
918.056	0.0161286
918.134	0.0161606
918.212	0.0161079
918.290	0.0161089
918.369	0.0161172
918.447	0.0161549
918.525	0.0160669
918.603	0.0161803
918.681	0.0162041
918.759	0.0161813
918.837	0.0161815
918.915	0.0162048
918.994	0.0162646
919.072	0.0161050
919.150	0.0161253
919.228	0.0160303
919.306	0.0161643
919.384	0.0160949
919.462	0.0162123
919.540	0.0162468
919.619	0.0161774
919.697	0.0161493
919.775	0.0161794
919.853	0.0162636
919.931	0.0162423
920.009	0.0162003
920.087	0.0162649
920.165	0.0162564
920.244	0.0164227
920.322	0.0163633
920.400	0.0162460
920.478	0.0162670
920.556	0.0162332
920.634	0.0163194
920.712	0.0162271
920.790	0.0162405
920.869	0.0162876
920.947	0.0163805
921.025	0.0162510
921.103	0.0163052
921.181	0.0162653
921.259	0.0162541
921.337	0.0162325
921.415	0.0161997
921.494	0.0162514
921.572	0.0161600
921.650	0.0160480
921.728	0.0161666
921.806	0.0162814
921.884	0.0162450
921.962	0.0161652
922.040	0.0160571
922.119	0.0160950
922.197	0.0160015
922.275	0.0161048
922.353	0.0160675
922.431	0.0160644
922.509	0.0161406
922.587	0.0160952
922.665	0.0161026
922.744	0.0161264
922.822	0.0160300
922.900	0.0162567
922.978	0.0160962
923.056	0.0161129
923.134	0.0161263
923.212	0.0160484
923.290	0.0160994
923.369	0.0160685
923.447	0.0161992
923.525	0.0161861
923.603	0.0161362
923.681	0.0163639
923.759	0.0161584
923.837	0.0161279
923.915	0.0164073
923.994	0.0163015
924.072	0.0162453
924.150	0.0163285
924.228	0.0164054
924.306	0.0162012
924.384	0.0162183
924.462	0.0162939
924.540	0.0163184
924.619	0.0162059
924.697	0.0162720
924.775	0.0161964
924.853	0.0163216
924.931	0.0162804
925.009	0.0161978
925.087	0.0162421
925.165	0.0161427
925.244	0.0161268
925.322	0.0163358
925.400	0.0163474
925.478	0.0163225
925.556	0.0162451
925.634	0.0162173
925.712	0.0161978
925.790	0.0162636
925.869	0.0162946
925.947	0.0162883
926.025	0.0162791
926.103	0.0163674
926.181	0.0162936
926.259	0.0163032
926.337	0.0162961
926.415	0.0163686
926.494	0.0162571
926.572	0.0163416
926.650	0.0162204
926.728	0.0163268
926.806	0.0163545
926.884	0.0162916
926.962	0.0162991
927.040	0.0162516
927.119	0.0161636
927.197	0.0162442
927.275	0.0162085
927.353	0.0163567
927.431	0.0162845
927.509	0.0161549
927.587	0.0160345
927.665	0.0163323
927.744	0.0161558
927.822	0.0162483
927.900	0.0162723
927.978	0.0161598
928.056	0.0162074
928.134	0.0160055
928.212	0.0161069
928.290	0.0163743
928.369	0.0161905
928.447	0.0161152
928.525	0.0160441
928.603	0.0161061
928.681	0.0162150
928.759	0.0160306
928.837	0.0161302
928.915	0.0163139
928.994	0.0161732
929.072	0.0161201
929.150	0.0160906
929.228	0.0161790
929.306	0.0162064
929.384	0.0162470
929.462	0.0162095
929.540	0.0161113
929.619	0.0163414
929.697	0.0162472
929.775	0.0161249
929.853	0.0161137
929.931	0.0161766
930.009	0.0160786
930.087	0.0160557
930.165	0.0161011
930.244	0.0161735
930.322	0.0161452
930.400	0.0160320
930.478	0.0161842
930.556	0.0161085
930.634	0.0161436
930.712	0.0161564
930.790	0.0161114
930.869	0.0162566
930.947	0.0161517
931.025	0.0161683
931.103	0.0161289
931.181	0.0163471
931.259	0.0162690
931.337	0.0163420
931.415	0.0163418
931.494	0.0160332
931.572	0.0162286
931.650	0.0162416
931.728	0.0162664
931.806	0.0161916
931.884	0.0162927
931.962	0.0162910
932.040	0.0162479
932.119	0.0162453
932.197	0.0163669
932.275	0.0163038
932.353	0.0163325
932.431	0.0163824
932.509	0.0162371
932.587	0.0162903
932.665	0.0162893
932.744	0.0161719
932.822	0.0161796
932.900	0.0163158
932.978	0.0163272
933.056	0.0161987
933.134	0.0161402
933.212	0.0163091
933.290	0.0162119
933.369	0.0162370
933.447	0.0162444
933.525	0.0161590
933.603	0.0163062
933.681	0.0162515
933.759	0.0161518
933.837	0.0161507
933.915	0.0162070
933.994	0.0161378
934.072	0.0160874
934.150	0.0161056
934.228	0.0161806
934.306	0.0160556
934.384	0.0160516
934.462	0.0160730
934.540	0.0159700
934.619	0.0160589
934.697	0.0161098
934.775	0.0160973
934.853	0.0160052
934.931	0.0159290
935.009	0.0159284
935.087	0.0159602
935.165	0.0160757
935.244	0.0161858
935.322	0.0161513
935.400	0.0160400
935.478	0.0161845
935.556	0.0161392
935.634	0.0162389
935.712	0.0161865
935.790	0.0163438
935.869	0.0162343
935.947	0.0161288
936.025	0.0160945
936.103	0.0162275
936.181	0.0162921
936.259	0.0164038
936.337	0.0163040
936.415	0.0162077
936.494	0.0164394
936.572	0.0163638
936.650	0.0161915
936.728	0.0163550
936.806	0.0163005
936.884	0.0162629
936.962	0.0162638
937.040	0.0164549
937.119	0.0164238
937.197	0.0162850
937.275	0.0164137
937.353	0.0163983
937.431	0.0163655
937.509	0.0162666
937.587	0.0163937
937.665	0.0163559
937.744	0.0162807
937.822	0.0163985
937.900	0.0163457
937.978	0.0163138
938.056	0.0163244
938.134	0.0164126
938.212	0.0162393
938.290	0.0162466
938.369	0.0162136
938.447	0.0163513
938.525	0.0163246
938.603	0.0163270
938.681	0.0162946
938.759	0.0160876
938.837	0.0161874
938.915	0.0162122
938.994	0.0163305
939.072	0.0162502
939.150	0.0163058
939.228	0.0162457
939.306	0.0161551
939.384	0.0161673
939.462	0.0161141
939.540	0.0160862
939.619	0.0161751
939.697	0.0162181
939.775	0.0161617
939.853	0.0161785
939.931	0.0162015
940.009	0.0160919
940.087	0.0161634
940.165	0.0162315
940.244	0.0160526
940.322	0.0159743
940.400	0.0160236
940.478	0.0160390
940.556	0.0159457
940.634	0.0160551
940.712	0.0160665
940.790	0.0161608
940.869	0.0161552
940.947	0.0161510
941.025	0.0160651
941.103	0.0161181
941.181	0.0160323
941.259	0.0162157
941.337	0.0161440
941.415	0.0162622
941.494	0.0161877
941.572	0.0161195
941.650	0.0162661
941.728	0.0162038
941.806	0.0163399
941.884	0.0161977
941.962	0.0161921
942.040	0.0162312
942.119	0.0163501
942.197	0.0161636
942.275	0.0162869
942.353	0.0161907
942.431	0.0161316
942.509	0.0161925
942.587	0.0162335
942.665	0.0162239
942.744	0.0162426
942.822	0.0162897
942.900	0.0163293
942.978	0.0163068
943.056	0.0163873
943.134	0.0163166
943.212	0.0163550
943.290	0.0163708
943.369	0.0163196
943.447	0.0163734
943.525	0.0163222
943.603	0.0163988
943.681	0.0164001
943.759	0.0163131
943.837	0.0163709
943.915	0.0162827
943.994	0.0162368
944.072	0.0162866
944.150	0.0164378
944.228	0.0162447
944.306	0.0161582
944.384	0.0162965
944.462	0.0163589
944.540	0.0161661
944.619	0.0162576
944.697	0.0162306
944.775	0.0162907
944.853	0.0160706
944.931	0.0160562
945.009	0.0161998
945.087	0.0162410
945.165	0.0161095
945.244	0.0159955
945.322	0.0159949
945.400	0.0161869
945.478	0.0162205
945.556	0.0162125
945.634	0.0160636
945.712	0.0161232
945.790	0.0161575
945.869	0.0160837
945.947	0.0162411
946.025	0.0162305
946.103	0.0160476
946.181	0.0161517
946.259	0.0160918
946.337	0.0162913
946.415	0.0160651
946.494	0.0161657
946.572	0.0161914
946.650	0.0160590
946.728	0.0162263
946.806	0.0161355
946.884	0.0160744
946.962	0.0161155
947.040	0.0162077
947.119	0.0161446
947.197	0.0162466
947.275	0.0163419
947.353	0.0162831
947.431	0.0161697
947.509	0.0162270
947.587	0.0162409
947.665	0.0162360
947.744	0.0162125
947.822	0.0162891
947.900	0.0162933
947.978	0.0162705
948.056	0.0161936
948.134	0.0162434
948.212	0.0162623
948.290	0.0162146
948.369	0.0163094
948.447	0.0162926
948.525	0.0162656
948.603	0.0163919
948.681	0.0163580
948.759	0.0162213
948.837	0.0163102
948.915	0.0164912
948.994	0.0163822
949.072	0.0161084
949.150	0.0163072
949.228	0.0163984
949.306	0.0162963
949.384	0.0163081
949.462	0.0162814
949.540	0.0163015
949.619	0.0162382
949.697	0.0163696
949.775	0.0162026
949.853	0.0162807
949.931	0.0162196
