05/19/2022	00:44:13	Ver.	4.1	UNKNOWN
Optical Delay	630.002507	Delta X		0.078125	Sweeps	1	Scan Rate	0/0
Coordinates	Axis 1	NaN	Axis 2	NaN	Axis 3	NaN	Axis 4	NaN	Axis 5	NaN	Axis 6	0.000000
TX Power	0.000000	RX Power	0.000000

630.003	0.0161096
630.081	0.0161018
630.159	0.0160394
630.237	0.0161356
630.315	0.0161047
630.393	0.0161880
630.471	0.0160422
630.549	0.0160584
630.628	0.0161275
630.706	0.0161505
630.784	0.0160069
630.862	0.0160624
630.940	0.0162444
631.018	0.0161294
631.096	0.0161211
631.174	0.0160931
631.253	0.0161304
631.331	0.0161115
631.409	0.0161549
631.487	0.0161096
631.565	0.0161355
631.643	0.0161554
631.721	0.0160491
631.799	0.0162299
631.878	0.0161024
631.956	0.0161298
632.034	0.0162427
632.112	0.0160905
632.190	0.0160911
632.268	0.0161645
632.346	0.0161210
632.424	0.0160502
632.503	0.0161497
632.581	0.0160954
632.659	0.0161433
632.737	0.0162522
632.815	0.0161501
632.893	0.0161580
632.971	0.0162197
633.049	0.0161516
633.128	0.0161704
633.206	0.0163639
633.284	0.0162896
633.362	0.0160940
633.440	0.0160347
633.518	0.0161594
633.596	0.0161594
633.674	0.0161452
633.753	0.0161788
633.831	0.0161512
633.909	0.0161309
633.987	0.0161333
634.065	0.0164099
634.143	0.0161780
634.221	0.0159503
634.299	0.0161875
634.378	0.0162845
634.456	0.0162064
634.534	0.0162894
634.612	0.0162059
634.690	0.0161812
634.768	0.0161732
634.846	0.0161908
634.924	0.0161832
635.003	0.0161123
635.081	0.0161807
635.159	0.0162580
635.237	0.0162014
635.315	0.0161247
635.393	0.0160620
635.471	0.0161532
635.549	0.0160981
635.628	0.0161662
635.706	0.0162186
635.784	0.0162379
635.862	0.0162119
635.940	0.0160744
636.018	0.0161367
636.096	0.0163116
636.174	0.0161353
636.253	0.0163022
636.331	0.0161480
636.409	0.0161355
636.487	0.0162794
636.565	0.0161661
636.643	0.0160615
636.721	0.0161684
636.799	0.0161868
636.878	0.0162068
636.956	0.0160962
637.034	0.0162508
637.112	0.0161794
637.190	0.0161340
637.268	0.0162933
637.346	0.0161359
637.424	0.0161866
637.503	0.0162228
637.581	0.0161613
637.659	0.0161810
637.737	0.0162347
637.815	0.0162492
637.893	0.0160893
637.971	0.0163599
638.049	0.0160004
638.128	0.0162206
638.206	0.0162534
638.284	0.0162252
638.362	0.0161952
638.440	0.0161651
638.518	0.0161762
638.596	0.0162266
638.674	0.0162920
638.753	0.0160883
638.831	0.0160416
638.909	0.0161433
638.987	0.0161111
639.065	0.0162386
639.143	0.0162026
639.221	0.0160695
639.299	0.0161261
639.378	0.0160712
639.456	0.0162431
639.534	0.0161909
639.612	0.0161594
639.690	0.0162062
639.768	0.0162193
639.846	0.0161488
639.924	0.0161128
640.003	0.0162134
640.081	0.0161118
640.159	0.0162132
640.237	0.0161951
640.315	0.0161894
640.393	0.0160775
640.471	0.0161349
640.549	0.0161243
640.628	0.0162634
640.706	0.0161059
640.784	0.0162275
640.862	0.0162720
640.940	0.0160984
641.018	0.0160757
641.096	0.0162897
641.174	0.0161778
641.253	0.0162228
641.331	0.0160967
641.409	0.0160336
641.487	0.0160220
641.565	0.0161342
641.643	0.0162333
641.721	0.0161508
641.799	0.0160548
641.878	0.0161195
641.956	0.0160705
642.034	0.0162402
642.112	0.0160883
642.190	0.0160538
642.268	0.0161941
642.346	0.0162145
642.424	0.0161024
642.503	0.0161384
642.581	0.0161508
642.659	0.0160783
642.737	0.0161973
642.815	0.0161198
642.893	0.0160126
642.971	0.0160418
643.049	0.0160662
643.128	0.0161320
643.206	0.0160947
643.284	0.0161276
643.362	0.0163109
643.440	0.0162984
643.518	0.0161233
643.596	0.0161840
643.674	0.0162396
643.753	0.0161843
643.831	0.0161826
643.909	0.0161494
643.987	0.0161614
644.065	0.0161891
644.143	0.0161517
644.221	0.0161623
644.299	0.0162094
644.378	0.0162979
644.456	0.0162412
644.534	0.0160970
644.612	0.0162459
644.690	0.0160816
644.768	0.0160493
644.846	0.0161162
644.924	0.0162333
645.003	0.0160533
645.081	0.0161618
645.159	0.0161813
645.237	0.0160906
645.315	0.0161783
645.393	0.0161871
645.471	0.0162070
645.549	0.0162598
645.628	0.0160760
645.706	0.0160909
645.784	0.0161620
645.862	0.0162161
645.940	0.0160979
646.018	0.0160825
646.096	0.0161868
646.174	0.0161776
646.253	0.0161850
646.331	0.0162877
646.409	0.0161768
646.487	0.0161346
646.565	0.0161047
646.643	0.0161530
646.721	0.0161491
646.799	0.0161011
646.878	0.0162097
646.956	0.0159125
647.034	0.0160658
647.112	0.0161129
647.190	0.0161237
647.268	0.0161853
647.346	0.0161101
647.424	0.0161098
647.503	0.0159351
647.581	0.0161458
647.659	0.0161602
647.737	0.0160994
647.815	0.0160987
647.893	0.0161383
647.971	0.0159592
648.049	0.0161204
648.128	0.0160732
648.206	0.0159687
648.284	0.0161832
648.362	0.0162111
648.440	0.0161683
648.518	0.0160438
648.596	0.0161263
648.674	0.0161559
648.753	0.0160338
648.831	0.0162142
648.909	0.0161789
648.987	0.0161846
649.065	0.0161396
649.143	0.0160580
649.221	0.0160956
649.299	0.0161095
649.378	0.0161631
649.456	0.0162712
649.534	0.0160762
649.612	0.0161311
649.690	0.0162607
649.768	0.0160887
649.846	0.0161050
649.924	0.0161681
650.003	0.0161902
650.081	0.0160760
650.159	0.0162755
650.237	0.0163014
650.315	0.0161210
650.393	0.0161179
650.471	0.0160912
650.549	0.0161052
650.628	0.0161243
650.706	0.0162189
650.784	0.0161325
650.862	0.0161565
650.940	0.0160712
651.018	0.0161047
651.096	0.0161967
651.174	0.0160929
651.253	0.0160334
651.331	0.0161235
651.409	0.0160017
651.487	0.0161552
651.565	0.0161566
651.643	0.0161012
651.721	0.0160935
651.799	0.0160344
651.878	0.0160818
651.956	0.0161264
652.034	0.0161624
652.112	0.0161693
652.190	0.0161192
652.268	0.0160660
652.346	0.0161695
652.424	0.0160625
652.503	0.0160910
652.581	0.0161134
652.659	0.0162113
652.737	0.0160517
652.815	0.0161906
652.893	0.0160024
652.971	0.0161854
653.049	0.0161934
653.128	0.0160647
653.206	0.0161201
653.284	0.0161124
653.362	0.0161790
653.440	0.0162558
653.518	0.0161387
653.596	0.0160381
653.674	0.0160329
653.753	0.0161517
653.831	0.0161972
653.909	0.0160188
653.987	0.0161045
654.065	0.0160495
654.143	0.0161134
654.221	0.0161272
654.299	0.0161124
654.378	0.0161750
654.456	0.0162066
654.534	0.0160320
654.612	0.0160423
654.690	0.0161780
654.768	0.0161873
654.846	0.0161914
654.924	0.0161390
655.003	0.0161913
655.081	0.0161458
655.159	0.0162149
655.237	0.0160822
655.315	0.0161588
655.393	0.0161053
655.471	0.0160551
655.549	0.0161079
655.628	0.0160384
655.706	0.0161450
655.784	0.0162032
655.862	0.0160390
655.940	0.0161596
656.018	0.0159200
656.096	0.0161111
656.174	0.0161399
656.253	0.0162340
656.331	0.0162398
656.409	0.0161592
656.487	0.0160953
656.565	0.0161900
656.643	0.0161275
656.721	0.0161164
656.799	0.0159204
656.878	0.0160472
656.956	0.0161868
657.034	0.0161427
657.112	0.0159965
657.190	0.0160144
657.268	0.0160897
657.346	0.0160954
657.424	0.0162271
657.503	0.0161623
657.581	0.0161119
657.659	0.0161147
657.737	0.0160651
657.815	0.0162241
657.893	0.0162021
657.971	0.0160117
658.049	0.0160936
658.128	0.0162395
658.206	0.0160183
658.284	0.0161431
658.362	0.0162742
658.440	0.0162536
658.518	0.0161301
658.596	0.0161679
658.674	0.0159444
658.753	0.0158968
658.831	0.0161248
658.909	0.0162841
658.987	0.0162139
659.065	0.0161087
659.143	0.0160928
659.221	0.0161845
659.299	0.0160458
659.378	0.0161008
659.456	0.0160082
659.534	0.0160821
659.612	0.0161092
659.690	0.0161356
659.768	0.0160416
659.846	0.0161158
659.924	0.0161230
660.003	0.0162202
660.081	0.0160568
660.159	0.0161385
660.237	0.0161209
660.315	0.0161057
660.393	0.0162681
660.471	0.0161749
660.549	0.0161562
660.628	0.0161885
660.706	0.0160294
660.784	0.0160477
660.862	0.0161002
660.940	0.0162337
661.018	0.0161522
661.096	0.0160854
661.174	0.0160998
661.253	0.0159749
661.331	0.0160772
661.409	0.0160544
661.487	0.0160739
661.565	0.0161633
661.643	0.0160332
661.721	0.0160848
661.799	0.0161964
661.878	0.0160669
661.956	0.0161485
662.034	0.0162218
662.112	0.0162257
662.190	0.0161493
662.268	0.0161320
662.346	0.0161247
662.424	0.0162143
662.503	0.0162312
662.581	0.0160811
662.659	0.0161015
662.737	0.0160350
662.815	0.0160600
662.893	0.0163406
662.971	0.0161720
663.049	0.0160252
663.128	0.0160868
663.206	0.0162105
663.284	0.0162421
663.362	0.0162086
663.440	0.0161240
663.518	0.0161385
663.596	0.0160886
663.674	0.0163019
663.753	0.0160828
663.831	0.0160110
663.909	0.0161767
663.987	0.0161743
664.065	0.0160831
664.143	0.0160488
664.221	0.0162690
664.299	0.0160652
664.378	0.0163070
664.456	0.0162012
664.534	0.0159563
664.612	0.0161221
664.690	0.0160905
664.768	0.0161880
664.846	0.0161044
664.924	0.0160118
665.003	0.0160466
665.081	0.0160776
665.159	0.0161340
665.237	0.0162692
665.315	0.0160343
665.393	0.0160123
665.471	0.0160831
665.549	0.0162331
665.628	0.0161279
665.706	0.0162134
665.784	0.0161216
665.862	0.0160574
665.940	0.0161297
666.018	0.0160655
666.096	0.0161650
666.174	0.0161452
666.253	0.0161111
666.331	0.0162059
666.409	0.0160571
666.487	0.0162337
666.565	0.0161028
666.643	0.0161204
666.721	0.0162000
666.799	0.0160333
666.878	0.0161291
666.956	0.0161341
667.034	0.0160909
667.112	0.0160619
667.190	0.0160732
667.268	0.0163028
667.346	0.0161404
667.424	0.0159951
667.503	0.0161335
667.581	0.0162321
667.659	0.0160748
667.737	0.0161377
667.815	0.0162239
667.893	0.0160838
667.971	0.0162206
668.049	0.0162179
668.128	0.0161709
668.206	0.0161396
668.284	0.0162199
668.362	0.0161129
668.440	0.0162137
668.518	0.0161652
668.596	0.0161092
668.674	0.0162168
668.753	0.0163050
668.831	0.0162459
668.909	0.0162897
668.987	0.0160999
669.065	0.0162440
669.143	0.0162637
669.221	0.0161842
669.299	0.0162568
669.378	0.0162688
669.456	0.0163013
669.534	0.0163316
669.612	0.0162674
669.690	0.0162026
669.768	0.0162051
669.846	0.0162533
669.924	0.0162720
670.003	0.0162305
670.081	0.0162234
670.159	0.0163217
670.237	0.0163251
670.315	0.0161641
670.393	0.0162708
670.471	0.0162753
670.549	0.0163851
670.628	0.0162215
670.706	0.0162370
670.784	0.0162142
670.862	0.0161145
670.940	0.0162113
671.018	0.0163202
671.096	0.0163272
671.174	0.0161520
671.253	0.0161553
671.331	0.0163075
671.409	0.0161672
671.487	0.0160556
671.565	0.0162862
671.643	0.0160527
671.721	0.0160265
671.799	0.0160572
671.878	0.0162600
671.956	0.0160441
672.034	0.0160641
672.112	0.0161916
672.190	0.0161587
672.268	0.0161726
672.346	0.0160991
672.424	0.0163855
672.503	0.0162852
672.581	0.0160741
672.659	0.0162371
672.737	0.0163065
672.815	0.0161395
672.893	0.0162259
672.971	0.0162727
673.049	0.0161357
673.128	0.0161636
673.206	0.0161781
673.284	0.0163113
673.362	0.0162192
673.440	0.0161027
673.518	0.0162174
673.596	0.0161726
673.674	0.0161121
673.753	0.0161598
673.831	0.0161488
673.909	0.0160791
673.987	0.0160121
674.065	0.0160983
674.143	0.0161947
674.221	0.0161429
674.299	0.0161570
674.378	0.0161948
674.456	0.0161347
674.534	0.0161031
674.612	0.0161698
674.690	0.0161007
674.768	0.0161499
674.846	0.0161710
674.924	0.0161060
675.003	0.0161083
675.081	0.0160524
675.159	0.0161580
675.237	0.0160897
675.315	0.0160590
675.393	0.0162241
675.471	0.0162283
675.549	0.0162337
675.628	0.0161478
675.706	0.0161563
675.784	0.0161844
675.862	0.0162530
675.940	0.0161208
676.018	0.0161697
676.096	0.0160603
676.174	0.0160048
676.253	0.0161945
676.331	0.0159761
676.409	0.0160893
676.487	0.0162582
676.565	0.0163174
676.643	0.0161159
676.721	0.0161974
676.799	0.0160946
676.878	0.0161864
676.956	0.0162363
677.034	0.0162921
677.112	0.0162484
677.190	0.0161814
677.268	0.0163717
677.346	0.0162592
677.424	0.0162469
677.503	0.0163443
677.581	0.0162821
677.659	0.0164207
677.737	0.0163729
677.815	0.0162183
677.893	0.0162495
677.971	0.0162511
678.049	0.0162957
678.128	0.0163005
678.206	0.0160943
678.284	0.0161539
678.362	0.0162283
678.440	0.0162311
678.518	0.0160835
678.596	0.0162785
678.674	0.0163345
678.753	0.0162350
678.831	0.0162524
678.909	0.0162642
678.987	0.0163487
679.065	0.0163122
679.143	0.0163085
679.221	0.0163725
679.299	0.0162570
679.378	0.0163126
679.456	0.0163018
679.534	0.0163292
679.612	0.0163012
679.690	0.0162621
679.768	0.0163087
679.846	0.0162743
679.924	0.0162217
680.003	0.0161391
680.081	0.0161597
680.159	0.0161053
680.237	0.0159972
680.315	0.0160223
680.393	0.0160381
680.471	0.0159792
680.549	0.0160178
680.628	0.0159255
680.706	0.0159789
680.784	0.0160155
680.862	0.0159746
680.940	0.0159426
681.018	0.0160365
681.096	0.0159393
681.174	0.0159269
681.253	0.0158954
681.331	0.0160891
681.409	0.0160456
681.487	0.0158607
681.565	0.0158813
681.643	0.0159882
681.721	0.0159113
681.799	0.0159755
681.878	0.0159509
681.956	0.0157175
682.034	0.0159700
682.112	0.0159457
682.190	0.0159323
682.268	0.0159046
682.346	0.0158732
682.424	0.0156990
682.503	0.0156511
682.581	0.0158363
682.659	0.0157704
682.737	0.0158260
682.815	0.0157806
682.893	0.0157433
682.971	0.0157873
683.049	0.0157932
683.128	0.0157619
683.206	0.0157127
683.284	0.0157602
683.362	0.0158885
683.440	0.0158218
683.518	0.0158366
683.596	0.0158994
683.674	0.0158717
683.753	0.0159459
683.831	0.0159626
683.909	0.0160711
683.987	0.0160590
684.065	0.0161115
684.143	0.0162329
684.221	0.0162028
684.299	0.0163561
684.378	0.0162308
684.456	0.0163010
684.534	0.0163025
684.612	0.0163632
684.690	0.0163774
684.768	0.0165164
684.846	0.0163962
684.924	0.0165614
685.003	0.0164637
685.081	0.0166374
685.159	0.0166274
685.237	0.0166699
685.315	0.0166466
685.393	0.0167446
685.471	0.0167166
685.549	0.0165572
685.628	0.0166040
685.706	0.0164742
685.784	0.0163691
685.862	0.0164455
685.940	0.0163057
686.018	0.0160781
686.096	0.0159832
686.174	0.0159196
686.253	0.0157066
686.331	0.0154952
686.409	0.0154901
686.487	0.0154283
686.565	0.0152692
686.643	0.0152200
686.721	0.0151575
686.799	0.0152126
686.878	0.0151649
686.956	0.0150531
687.034	0.0150665
687.112	0.0153481
687.190	0.0153369
687.268	0.0153580
687.346	0.0153830
687.424	0.0155739
687.503	0.0156593
687.581	0.0157881
687.659	0.0159088
687.737	0.0160369
687.815	0.0161391
687.893	0.0162755
687.971	0.0163745
688.049	0.0164281
688.128	0.0165836
688.206	0.0166208
688.284	0.0168002
688.362	0.0167603
688.440	0.0169306
688.518	0.0170637
688.596	0.0170427
688.674	0.0171007
688.753	0.0173679
688.831	0.0174148
688.909	0.0173624
688.987	0.0173772
689.065	0.0174220
689.143	0.0174549
689.221	0.0174131
689.299	0.0174435
689.378	0.0172623
689.456	0.0171479
689.534	0.0170266
689.612	0.0169888
689.690	0.0167912
689.768	0.0169395
689.846	0.0166907
689.924	0.0164902
690.003	0.0164671
690.081	0.0163953
690.159	0.0160445
690.237	0.0160316
690.315	0.0159661
690.393	0.0158264
690.471	0.0155253
690.549	0.0153387
690.628	0.0153312
690.706	0.0153875
690.784	0.0153315
690.862	0.0150645
690.940	0.0148082
691.018	0.0149902
691.096	0.0147445
691.174	0.0148492
691.253	0.0148981
691.331	0.0147930
691.409	0.0147099
691.487	0.0147577
691.565	0.0147987
691.643	0.0149021
691.721	0.0150219
691.799	0.0151565
691.878	0.0151850
691.956	0.0152614
692.034	0.0155059
692.112	0.0157207
692.190	0.0158888
692.268	0.0159281
692.346	0.0161588
692.424	0.0161943
692.503	0.0163494
692.581	0.0163307
692.659	0.0165237
692.737	0.0167004
692.815	0.0168000
692.893	0.0169065
692.971	0.0168842
693.049	0.0168863
693.128	0.0169312
693.206	0.0170567
693.284	0.0171854
693.362	0.0170628
693.440	0.0170859
693.518	0.0170409
693.596	0.0171764
693.674	0.0171029
693.753	0.0170392
693.831	0.0172095
693.909	0.0171378
693.987	0.0170258
694.065	0.0172530
694.143	0.0173395
694.221	0.0170704
694.299	0.0170630
694.378	0.0170900
694.456	0.0169534
694.534	0.0170539
694.612	0.0169340
694.690	0.0168204
694.768	0.0167428
694.846	0.0166975
694.924	0.0165623
695.003	0.0164017
695.081	0.0162174
695.159	0.0162244
695.237	0.0161305
695.315	0.0160440
695.393	0.0160062
695.471	0.0158710
695.549	0.0157125
695.628	0.0156113
695.706	0.0157436
695.784	0.0153423
695.862	0.0155610
695.940	0.0153239
696.018	0.0153452
696.096	0.0154225
696.174	0.0153563
696.253	0.0155688
696.331	0.0155382
696.409	0.0155417
696.487	0.0154583
696.565	0.0155808
696.643	0.0156739
696.721	0.0156461
696.799	0.0156981
696.878	0.0157185
696.956	0.0156992
697.034	0.0157230
697.112	0.0155823
697.190	0.0155940
697.268	0.0155647
697.346	0.0156462
697.424	0.0155660
697.503	0.0155264
697.581	0.0155648
697.659	0.0157317
697.737	0.0156973
697.815	0.0158585
697.893	0.0159293
697.971	0.0157807
698.049	0.0159412
698.128	0.0161947
698.206	0.0162743
698.284	0.0161586
698.362	0.0164029
698.440	0.0165125
698.518	0.0166063
698.596	0.0166266
698.674	0.0166434
698.753	0.0167860
698.831	0.0166950
698.909	0.0167485
698.987	0.0168812
699.065	0.0168032
699.143	0.0167051
699.221	0.0167258
699.299	0.0167258
699.378	0.0167386
699.456	0.0166425
699.534	0.0166909
699.612	0.0168947
699.690	0.0168777
699.768	0.0170153
699.846	0.0169938
699.924	0.0171249
700.003	0.0172202
700.081	0.0171985
700.159	0.0171951
700.237	0.0173357
700.315	0.0172259
700.393	0.0172170
700.471	0.0171333
700.549	0.0171307
700.628	0.0171128
700.706	0.0170001
700.784	0.0169337
700.862	0.0167177
700.940	0.0165338
701.018	0.0165047
701.096	0.0162219
701.174	0.0159807
701.253	0.0158998
701.331	0.0158652
701.409	0.0157241
701.487	0.0152694
701.565	0.0152062
701.643	0.0150890
701.721	0.0151286
701.799	0.0150340
701.878	0.0149076
701.956	0.0147554
702.034	0.0146376
702.112	0.0146451
702.190	0.0146852
702.268	0.0148779
702.346	0.0147889
702.424	0.0146243
702.503	0.0147977
702.581	0.0149440
702.659	0.0150990
702.737	0.0149980
702.815	0.0150731
702.893	0.0152205
702.971	0.0152799
703.049	0.0153692
703.128	0.0155362
703.206	0.0155551
703.284	0.0155474
703.362	0.0155279
703.440	0.0156568
703.518	0.0158896
703.596	0.0157232
703.674	0.0160002
703.753	0.0162305
703.831	0.0163068
703.909	0.0163350
703.987	0.0163525
704.065	0.0165370
704.143	0.0165488
704.221	0.0167063
704.299	0.0167996
704.378	0.0168741
704.456	0.0168994
704.534	0.0168355
704.612	0.0169055
704.690	0.0170020
704.768	0.0169115
704.846	0.0167789
704.924	0.0169050
705.003	0.0166705
705.081	0.0168684
705.159	0.0167307
705.237	0.0167258
705.315	0.0167247
705.393	0.0168813
705.471	0.0167251
705.549	0.0167265
705.628	0.0169064
705.706	0.0168071
705.784	0.0168528
705.862	0.0167464
705.940	0.0167187
706.018	0.0168097
706.096	0.0168162
706.174	0.0167372
706.253	0.0167095
706.331	0.0168584
706.409	0.0167835
706.487	0.0167763
706.565	0.0166972
706.643	0.0166048
706.721	0.0165547
706.799	0.0163896
706.878	0.0164719
706.956	0.0163747
707.034	0.0162112
707.112	0.0162265
707.190	0.0160900
707.268	0.0160134
707.346	0.0157307
707.424	0.0158379
707.503	0.0157915
707.581	0.0156412
707.659	0.0154823
707.737	0.0153928
707.815	0.0151266
707.893	0.0152524
707.971	0.0151052
708.049	0.0150468
708.128	0.0149205
708.206	0.0150150
708.284	0.0148328
708.362	0.0147327
708.440	0.0147984
708.518	0.0148351
708.596	0.0148785
708.674	0.0151481
708.753	0.0150908
708.831	0.0151420
708.909	0.0153671
708.987	0.0154711
709.065	0.0155065
709.143	0.0156174
709.221	0.0158318
709.299	0.0159644
709.378	0.0159326
709.456	0.0159676
709.534	0.0161839
709.612	0.0162064
709.690	0.0162044
709.768	0.0163435
709.846	0.0163374
709.924	0.0165292
710.003	0.0167712
710.081	0.0167027
710.159	0.0167166
710.237	0.0166653
710.315	0.0167637
710.393	0.0169394
710.471	0.0169175
710.549	0.0168841
710.628	0.0168328
710.706	0.0169953
710.784	0.0169631
710.862	0.0169746
710.940	0.0168248
711.018	0.0169242
711.096	0.0168909
711.174	0.0168505
711.253	0.0167781
711.331	0.0168594
711.409	0.0167085
711.487	0.0166197
711.565	0.0166244
711.643	0.0165717
711.721	0.0167015
711.799	0.0165646
711.878	0.0165092
711.956	0.0165070
712.034	0.0165437
712.112	0.0163271
712.190	0.0165913
712.268	0.0165093
712.346	0.0165124
712.424	0.0164838
712.503	0.0165939
712.581	0.0165453
712.659	0.0165823
712.737	0.0163618
712.815	0.0164607
712.893	0.0162369
712.971	0.0162972
713.049	0.0163080
713.128	0.0161007
713.206	0.0161457
713.284	0.0160727
713.362	0.0157816
713.440	0.0157639
713.518	0.0157121
713.596	0.0156505
713.674	0.0154836
713.753	0.0155196
713.831	0.0152732
713.909	0.0152144
713.987	0.0153141
714.065	0.0151808
714.143	0.0153846
714.221	0.0151218
714.299	0.0151284
714.378	0.0150794
714.456	0.0150547
714.534	0.0150481
714.612	0.0151414
714.690	0.0152048
714.768	0.0152881
714.846	0.0153776
714.924	0.0154923
715.003	0.0155607
715.081	0.0157064
715.159	0.0157385
715.237	0.0160059
715.315	0.0160264
715.393	0.0160764
715.471	0.0163052
715.549	0.0162818
715.628	0.0163171
715.706	0.0164241
715.784	0.0166553
715.862	0.0166120
715.940	0.0167638
716.018	0.0166798
716.096	0.0165933
716.174	0.0167144
716.253	0.0166918
716.331	0.0166446
716.409	0.0168882
716.487	0.0169093
716.565	0.0167567
716.643	0.0167731
716.721	0.0167470
716.799	0.0167828
716.878	0.0167922
716.956	0.0167438
717.034	0.0168438
717.112	0.0167989
717.190	0.0167752
717.268	0.0165844
717.346	0.0165161
717.424	0.0166357
717.503	0.0164662
717.581	0.0165079
717.659	0.0164935
717.737	0.0163847
717.815	0.0163634
717.893	0.0163044
717.971	0.0161588
718.049	0.0162151
718.128	0.0160967
718.206	0.0161268
718.284	0.0162930
718.362	0.0162390
718.440	0.0163075
718.518	0.0162665
718.596	0.0162519
718.674	0.0163525
718.753	0.0163520
718.831	0.0162620
718.909	0.0163423
718.987	0.0163892
719.065	0.0163124
719.143	0.0161035
719.221	0.0162389
719.299	0.0162624
719.378	0.0160184
719.456	0.0159818
719.534	0.0160172
719.612	0.0160081
719.690	0.0159373
719.768	0.0158370
719.846	0.0156536
719.924	0.0157680
720.003	0.0158380
720.081	0.0157761
720.159	0.0157131
720.237	0.0156387
720.315	0.0156362
720.393	0.0157890
720.471	0.0157414
720.549	0.0155835
720.628	0.0157001
720.706	0.0155701
720.784	0.0158282
720.862	0.0157798
720.940	0.0156538
721.018	0.0157542
721.096	0.0158149
721.174	0.0158525
721.253	0.0158258
721.331	0.0158800
721.409	0.0160825
721.487	0.0160076
721.565	0.0160488
721.643	0.0159980
721.721	0.0162495
721.799	0.0162290
721.878	0.0162111
721.956	0.0164011
722.034	0.0162236
722.112	0.0164359
722.190	0.0165781
722.268	0.0165247
722.346	0.0164483
722.424	0.0164877
722.503	0.0166410
722.581	0.0163779
722.659	0.0164111
722.737	0.0165326
722.815	0.0164378
722.893	0.0164345
722.971	0.0163234
723.049	0.0163334
723.128	0.0162463
723.206	0.0162737
723.284	0.0161842
723.362	0.0160976
723.440	0.0160559
723.518	0.0161259
723.596	0.0161289
723.674	0.0158986
723.753	0.0159410
723.831	0.0158418
723.909	0.0158739
723.987	0.0159747
724.065	0.0159300
724.143	0.0159978
724.221	0.0159271
724.299	0.0158911
724.378	0.0159031
724.456	0.0160931
724.534	0.0160757
724.612	0.0160635
724.690	0.0161100
724.768	0.0162143
724.846	0.0163948
724.924	0.0163522
725.003	0.0163656
725.081	0.0163402
725.159	0.0164536
725.237	0.0165629
725.315	0.0165083
725.393	0.0164908
725.471	0.0164309
725.549	0.0164206
725.628	0.0163575
725.706	0.0164367
725.784	0.0163655
725.862	0.0162339
725.940	0.0161640
726.018	0.0162111
726.096	0.0162416
726.174	0.0161970
726.253	0.0160628
726.331	0.0159727
726.409	0.0158713
726.487	0.0158938
726.565	0.0159208
726.643	0.0159100
726.721	0.0156795
726.799	0.0159362
726.878	0.0158967
726.956	0.0157416
727.034	0.0157518
727.112	0.0157451
727.190	0.0158112
727.268	0.0156535
727.346	0.0157963
727.424	0.0158818
727.503	0.0157972
727.581	0.0158677
727.659	0.0160484
727.737	0.0160777
727.815	0.0159086
727.893	0.0160506
727.971	0.0159901
728.049	0.0159440
728.128	0.0160057
728.206	0.0160910
728.284	0.0161408
728.362	0.0162352
728.440	0.0160773
728.518	0.0161453
728.596	0.0161868
728.674	0.0161688
728.753	0.0162402
728.831	0.0162251
728.909	0.0161282
728.987	0.0161189
729.065	0.0161715
729.143	0.0162286
729.221	0.0162604
729.299	0.0161416
729.378	0.0162309
729.456	0.0161040
729.534	0.0161605
729.612	0.0160802
729.690	0.0160847
729.768	0.0161162
729.846	0.0161397
729.924	0.0159077
730.003	0.0159881
730.081	0.0160411
730.159	0.0158788
730.237	0.0159949
730.315	0.0159528
730.393	0.0159583
730.471	0.0160478
730.549	0.0160320
730.628	0.0159359
730.706	0.0159324
730.784	0.0159053
730.862	0.0159795
730.940	0.0159276
731.018	0.0160460
731.096	0.0159715
731.174	0.0160825
731.253	0.0161597
731.331	0.0161496
731.409	0.0161474
731.487	0.0161259
731.565	0.0162010
731.643	0.0161590
731.721	0.0163345
731.799	0.0163357
731.878	0.0161892
731.956	0.0164732
732.034	0.0162800
732.112	0.0160853
732.190	0.0162637
732.268	0.0163673
732.346	0.0162044
732.424	0.0161427
732.503	0.0161490
732.581	0.0161347
732.659	0.0159729
732.737	0.0160799
732.815	0.0160002
732.893	0.0158876
732.971	0.0159995
733.049	0.0160322
733.128	0.0160282
733.206	0.0159689
733.284	0.0158549
733.362	0.0158843
733.440	0.0158389
733.518	0.0159059
733.596	0.0159447
733.674	0.0158566
733.753	0.0158466
733.831	0.0158415
733.909	0.0157425
733.987	0.0159515
734.065	0.0160201
734.143	0.0159669
734.221	0.0159932
734.299	0.0161658
734.378	0.0162288
734.456	0.0160682
734.534	0.0162405
734.612	0.0160453
734.690	0.0161091
734.768	0.0162403
734.846	0.0162629
734.924	0.0161412
735.003	0.0162516
735.081	0.0163988
735.159	0.0161473
735.237	0.0162230
735.315	0.0162144
735.393	0.0161552
735.471	0.0161129
735.549	0.0161664
735.628	0.0162071
735.706	0.0160844
735.784	0.0161861
735.862	0.0160377
735.940	0.0160630
736.018	0.0159698
736.096	0.0160989
736.174	0.0160218
736.253	0.0160080
736.331	0.0160323
736.409	0.0160986
736.487	0.0158281
736.565	0.0159373
736.643	0.0159384
736.721	0.0160048
736.799	0.0159880
736.878	0.0159811
736.956	0.0159875
737.034	0.0160797
737.112	0.0158690
737.190	0.0159531
737.268	0.0159433
737.346	0.0160351
737.424	0.0162033
737.503	0.0160061
737.581	0.0160238
737.659	0.0161269
737.737	0.0161971
737.815	0.0161372
737.893	0.0162599
737.971	0.0161193
738.049	0.0161787
738.128	0.0162073
738.206	0.0162068
738.284	0.0162180
738.362	0.0162956
738.440	0.0164047
738.518	0.0162534
738.596	0.0163138
738.674	0.0163516
738.753	0.0162084
738.831	0.0162399
738.909	0.0162929
738.987	0.0162280
739.065	0.0163041
739.143	0.0162442
739.221	0.0162691
739.299	0.0161424
739.378	0.0161657
739.456	0.0161483
739.534	0.0161895
739.612	0.0163236
739.690	0.0161935
739.768	0.0162014
739.846	0.0161133
739.924	0.0160614
740.003	0.0162666
740.081	0.0161326
740.159	0.0160859
740.237	0.0161086
740.315	0.0161297
740.393	0.0160502
740.471	0.0161893
740.549	0.0161142
740.628	0.0159503
740.706	0.0162776
740.784	0.0163232
740.862	0.0161588
740.940	0.0163094
741.018	0.0162023
741.096	0.0161519
741.174	0.0162043
741.253	0.0162898
741.331	0.0163120
741.409	0.0163280
741.487	0.0162724
741.565	0.0161346
741.643	0.0160590
741.721	0.0161615
741.799	0.0162054
741.878	0.0161855
741.956	0.0161322
742.034	0.0160301
742.112	0.0159294
742.190	0.0159971
742.268	0.0160946
742.346	0.0160771
742.424	0.0161785
742.503	0.0159148
742.581	0.0159425
742.659	0.0160255
742.737	0.0160219
742.815	0.0158919
742.893	0.0161710
742.971	0.0160889
743.049	0.0159900
743.128	0.0161512
743.206	0.0160659
743.284	0.0160752
743.362	0.0161001
743.440	0.0161644
743.518	0.0160232
743.596	0.0160882
743.674	0.0161689
743.753	0.0161146
743.831	0.0161091
743.909	0.0161608
743.987	0.0160672
744.065	0.0160220
744.143	0.0161983
744.221	0.0161456
744.299	0.0162252
744.378	0.0162142
744.456	0.0161317
744.534	0.0161708
744.612	0.0160866
744.690	0.0161450
744.768	0.0161757
744.846	0.0160923
744.924	0.0161141
745.003	0.0161201
745.081	0.0162078
745.159	0.0161942
745.237	0.0161272
745.315	0.0163279
745.393	0.0161947
745.471	0.0162225
745.549	0.0162408
745.628	0.0162028
745.706	0.0160606
745.784	0.0161693
745.862	0.0160910
745.940	0.0161372
746.018	0.0161227
746.096	0.0160234
746.174	0.0160617
746.253	0.0162224
746.331	0.0160347
746.409	0.0159840
746.487	0.0159790
746.565	0.0161405
746.643	0.0160109
746.721	0.0160168
746.799	0.0160701
746.878	0.0161395
746.956	0.0161710
747.034	0.0161918
747.112	0.0161259
747.190	0.0160888
747.268	0.0160888
747.346	0.0162048
747.424	0.0160812
747.503	0.0161633
747.581	0.0161234
747.659	0.0162586
747.737	0.0161714
747.815	0.0160748
747.893	0.0161541
747.971	0.0159571
748.049	0.0161588
748.128	0.0162317
748.206	0.0161449
748.284	0.0161164
748.362	0.0160236
748.440	0.0160081
748.518	0.0159878
748.596	0.0159438
748.674	0.0160944
748.753	0.0158887
748.831	0.0160134
748.909	0.0161137
748.987	0.0159930
749.065	0.0160524
749.143	0.0161303
749.221	0.0160912
749.299	0.0160798
749.378	0.0160141
749.456	0.0161803
749.534	0.0162017
749.612	0.0161955
749.690	0.0161073
749.768	0.0162376
749.846	0.0162337
749.924	0.0162484
750.003	0.0161143
750.081	0.0161053
750.159	0.0160237
750.237	0.0160623
750.315	0.0161948
750.393	0.0161750
750.471	0.0160156
750.549	0.0160448
750.628	0.0160675
750.706	0.0159669
750.784	0.0160327
750.862	0.0160408
750.940	0.0160796
751.018	0.0160419
751.096	0.0161190
751.174	0.0161432
751.253	0.0162157
751.331	0.0161562
751.409	0.0161710
751.487	0.0161393
751.565	0.0161449
751.643	0.0162521
751.721	0.0161666
751.799	0.0161712
751.878	0.0162554
751.956	0.0162041
752.034	0.0161877
752.112	0.0162454
752.190	0.0161336
752.268	0.0161475
752.346	0.0160943
752.424	0.0161180
752.503	0.0162421
752.581	0.0159911
752.659	0.0160187
752.737	0.0162113
752.815	0.0161854
752.893	0.0160276
752.971	0.0160524
753.049	0.0159628
753.128	0.0160558
753.206	0.0161487
753.284	0.0162186
753.362	0.0162195
753.440	0.0160737
753.518	0.0163142
753.596	0.0162524
753.674	0.0162291
753.753	0.0161269
753.831	0.0160008
753.909	0.0163015
753.987	0.0163519
754.065	0.0160425
754.143	0.0161322
754.221	0.0161185
754.299	0.0162447
754.378	0.0160954
754.456	0.0161008
754.534	0.0160984
754.612	0.0161108
754.690	0.0161440
754.768	0.0161674
754.846	0.0161395
754.924	0.0162248
755.003	0.0161922
755.081	0.0161800
755.159	0.0160515
755.237	0.0161860
755.315	0.0160421
755.393	0.0161002
755.471	0.0160883
755.549	0.0160541
755.628	0.0160361
755.706	0.0160524
755.784	0.0159828
755.862	0.0159991
755.940	0.0161161
756.018	0.0160039
756.096	0.0160335
756.174	0.0161795
756.253	0.0160551
756.331	0.0160463
756.409	0.0161081
756.487	0.0161015
756.565	0.0162124
756.643	0.0159622
756.721	0.0160233
756.799	0.0162389
756.878	0.0161382
756.956	0.0161610
757.034	0.0161636
757.112	0.0163207
757.190	0.0162148
757.268	0.0160052
757.346	0.0161861
757.424	0.0161231
757.503	0.0162559
757.581	0.0161227
757.659	0.0160841
757.737	0.0160750
757.815	0.0161102
757.893	0.0162437
757.971	0.0161459
758.049	0.0161068
758.128	0.0160580
758.206	0.0160535
758.284	0.0160660
758.362	0.0161723
758.440	0.0161998
758.518	0.0161636
758.596	0.0161643
758.674	0.0160559
758.753	0.0161725
758.831	0.0161327
758.909	0.0162095
758.987	0.0161632
759.065	0.0161779
759.143	0.0162553
759.221	0.0162562
759.299	0.0162134
759.378	0.0161075
759.456	0.0161763
759.534	0.0162132
759.612	0.0162164
759.690	0.0162012
759.768	0.0161988
759.846	0.0161229
759.924	0.0161707
760.003	0.0161674
760.081	0.0161179
760.159	0.0162300
760.237	0.0161262
760.315	0.0160831
760.393	0.0161202
760.471	0.0162322
760.549	0.0161122
760.628	0.0162148
760.706	0.0162333
760.784	0.0161711
760.862	0.0161634
760.940	0.0162885
761.018	0.0162007
761.096	0.0162093
761.174	0.0162839
761.253	0.0160567
761.331	0.0163272
761.409	0.0162582
761.487	0.0162468
761.565	0.0161672
761.643	0.0162167
761.721	0.0162772
761.799	0.0161771
761.878	0.0161182
761.956	0.0161450
762.034	0.0161563
762.112	0.0161524
762.190	0.0161642
762.268	0.0160637
762.346	0.0161250
762.424	0.0161681
762.503	0.0161175
762.581	0.0161732
762.659	0.0160008
762.737	0.0160658
762.815	0.0161411
762.893	0.0160882
762.971	0.0161359
763.049	0.0160619
763.128	0.0159930
763.206	0.0159891
763.284	0.0162283
763.362	0.0162100
763.440	0.0160828
763.518	0.0161556
763.596	0.0161744
763.674	0.0161042
763.753	0.0161792
763.831	0.0163049
763.909	0.0161456
763.987	0.0160759
764.065	0.0162041
764.143	0.0162148
764.221	0.0162623
764.299	0.0163150
764.378	0.0161803
764.456	0.0161918
764.534	0.0162271
764.612	0.0163286
764.690	0.0162009
764.768	0.0161587
764.846	0.0162415
764.924	0.0162347
765.003	0.0161531
765.081	0.0161594
765.159	0.0163229
765.237	0.0161703
765.315	0.0161996
765.393	0.0160709
765.471	0.0161742
765.549	0.0161834
765.628	0.0161121
765.706	0.0162525
765.784	0.0161417
765.862	0.0162133
765.940	0.0162694
766.018	0.0161475
766.096	0.0161803
766.174	0.0163375
766.253	0.0162156
766.331	0.0160391
766.409	0.0163138
766.487	0.0161134
766.565	0.0161841
766.643	0.0161872
766.721	0.0161894
766.799	0.0160057
766.878	0.0161559
766.956	0.0161497
767.034	0.0161804
767.112	0.0161667
767.190	0.0161929
767.268	0.0161603
767.346	0.0159475
767.424	0.0161653
767.503	0.0160634
767.581	0.0161825
767.659	0.0161097
767.737	0.0162920
767.815	0.0161262
767.893	0.0162166
767.971	0.0162122
768.049	0.0161284
768.128	0.0160935
768.206	0.0161369
768.284	0.0161939
768.362	0.0161539
768.440	0.0161143
768.518	0.0162560
768.596	0.0162415
768.674	0.0160495
768.753	0.0162006
768.831	0.0162495
768.909	0.0162281
768.987	0.0160242
769.065	0.0161685
769.143	0.0162556
769.221	0.0161678
769.299	0.0161955
769.378	0.0162569
769.456	0.0161649
769.534	0.0159197
769.612	0.0161488
769.690	0.0161742
769.768	0.0162333
769.846	0.0160526
769.924	0.0161953
770.003	0.0162453
770.081	0.0161779
770.159	0.0161739
770.237	0.0161536
770.315	0.0160628
770.393	0.0162223
770.471	0.0161340
770.549	0.0162267
770.628	0.0162051
770.706	0.0162508
770.784	0.0162675
770.862	0.0162618
770.940	0.0164143
771.018	0.0162016
771.096	0.0163058
771.174	0.0162360
771.253	0.0162610
771.331	0.0163501
771.409	0.0163171
771.487	0.0161617
771.565	0.0161567
771.643	0.0162124
771.721	0.0162020
771.799	0.0161268
771.878	0.0162267
771.956	0.0162514
772.034	0.0162295
772.112	0.0161848
772.190	0.0161256
772.268	0.0161347
772.346	0.0160869
772.424	0.0160917
772.503	0.0162486
772.581	0.0161504
772.659	0.0162461
772.737	0.0162266
772.815	0.0161900
772.893	0.0162370
772.971	0.0162141
773.049	0.0161987
773.128	0.0161619
773.206	0.0161592
773.284	0.0161878
773.362	0.0161814
773.440	0.0162794
773.518	0.0162273
773.596	0.0159999
773.674	0.0161319
773.753	0.0162163
773.831	0.0160784
773.909	0.0161588
773.987	0.0160020
774.065	0.0159595
774.143	0.0160521
774.221	0.0160216
774.299	0.0159958
774.378	0.0161275
774.456	0.0159784
774.534	0.0160548
774.612	0.0160248
774.690	0.0161140
774.768	0.0161632
774.846	0.0161195
774.924	0.0161031
775.003	0.0162238
775.081	0.0162350
775.159	0.0161455
775.237	0.0160706
775.315	0.0162103
775.393	0.0162628
775.471	0.0163011
775.549	0.0161356
775.628	0.0161432
775.706	0.0160619
775.784	0.0161429
775.862	0.0161383
775.940	0.0160126
776.018	0.0161313
776.096	0.0162317
776.174	0.0161959
776.253	0.0161192
776.331	0.0164290
776.409	0.0161903
776.487	0.0162647
776.565	0.0162792
776.643	0.0162437
776.721	0.0162197
776.799	0.0163246
776.878	0.0160684
776.956	0.0161674
777.034	0.0162980
777.112	0.0161953
777.190	0.0162435
777.268	0.0161916
777.346	0.0162483
777.424	0.0162880
777.503	0.0162669
777.581	0.0161842
777.659	0.0162783
777.737	0.0162641
777.815	0.0162907
777.893	0.0161990
777.971	0.0162458
778.049	0.0162273
778.128	0.0161233
778.206	0.0161940
778.284	0.0163266
778.362	0.0162073
778.440	0.0162408
778.518	0.0162102
778.596	0.0160448
778.674	0.0160351
778.753	0.0160867
778.831	0.0160754
778.909	0.0161290
778.987	0.0159779
779.065	0.0160107
779.143	0.0158939
779.221	0.0160979
779.299	0.0160825
779.378	0.0159536
779.456	0.0159803
779.534	0.0160027
779.612	0.0160181
779.690	0.0160546
779.768	0.0159695
779.846	0.0160387
779.924	0.0161014
780.003	0.0160710
780.081	0.0161252
780.159	0.0161645
780.237	0.0160586
780.315	0.0160806
780.393	0.0161279
780.471	0.0159620
780.549	0.0161519
780.628	0.0161749
780.706	0.0161493
780.784	0.0160695
780.862	0.0161599
780.940	0.0161443
781.018	0.0161504
781.096	0.0161663
781.174	0.0160889
781.253	0.0160887
781.331	0.0161101
781.409	0.0161149
781.487	0.0162158
781.565	0.0162220
781.643	0.0161249
781.721	0.0161732
781.799	0.0161642
781.878	0.0161913
781.956	0.0162666
782.034	0.0162766
782.112	0.0162271
782.190	0.0161395
782.268	0.0162272
782.346	0.0162193
782.424	0.0162117
782.503	0.0161669
782.581	0.0161422
782.659	0.0162885
782.737	0.0162481
782.815	0.0161253
782.893	0.0163557
782.971	0.0161102
783.049	0.0161253
783.128	0.0162200
783.206	0.0161703
783.284	0.0161438
783.362	0.0160670
783.440	0.0160818
783.518	0.0161714
783.596	0.0160268
783.674	0.0160532
783.753	0.0161192
783.831	0.0159267
783.909	0.0160065
783.987	0.0160497
784.065	0.0158846
784.143	0.0161031
784.221	0.0160387
784.299	0.0162592
784.378	0.0161344
784.456	0.0160403
784.534	0.0160125
784.612	0.0161897
784.690	0.0161355
784.768	0.0162199
784.846	0.0162203
784.924	0.0159659
785.003	0.0161845
785.081	0.0162333
785.159	0.0162128
785.237	0.0161491
785.315	0.0161479
785.393	0.0162080
785.471	0.0162457
785.549	0.0160737
785.628	0.0161759
785.706	0.0162207
785.784	0.0161749
785.862	0.0159893
785.940	0.0160754
786.018	0.0162179
786.096	0.0161585
786.174	0.0160527
786.253	0.0161488
786.331	0.0161406
786.409	0.0161456
786.487	0.0161562
786.565	0.0160520
786.643	0.0162685
786.721	0.0162238
786.799	0.0162605
786.878	0.0161760
786.956	0.0160131
787.034	0.0162301
787.112	0.0161736
787.190	0.0163158
787.268	0.0162690
787.346	0.0162138
787.424	0.0162122
787.503	0.0162512
787.581	0.0160299
787.659	0.0161804
787.737	0.0161456
787.815	0.0162666
787.893	0.0161399
787.971	0.0160045
788.049	0.0158223
788.128	0.0160626
788.206	0.0161086
788.284	0.0160389
788.362	0.0161368
788.440	0.0160876
788.518	0.0160637
788.596	0.0159241
788.674	0.0161701
788.753	0.0162493
788.831	0.0161282
788.909	0.0160828
788.987	0.0161384
789.065	0.0162308
789.143	0.0161178
789.221	0.0163894
789.299	0.0162590
789.378	0.0161351
789.456	0.0161589
789.534	0.0162335
789.612	0.0163084
789.690	0.0162624
789.768	0.0163259
789.846	0.0162231
789.924	0.0162972
790.003	0.0161666
790.081	0.0162733
790.159	0.0162112
790.237	0.0162788
790.315	0.0162746
790.393	0.0163404
790.471	0.0161648
790.549	0.0162613
790.628	0.0163262
790.706	0.0162413
790.784	0.0162012
790.862	0.0162094
790.940	0.0162669
791.018	0.0161566
791.096	0.0162498
791.174	0.0162329
791.253	0.0161768
791.331	0.0162469
791.409	0.0162202
791.487	0.0161695
791.565	0.0161266
791.643	0.0161854
791.721	0.0161875
791.799	0.0161597
791.878	0.0160468
791.956	0.0161034
792.034	0.0160946
792.112	0.0161844
792.190	0.0161944
792.268	0.0162370
792.346	0.0161266
792.424	0.0160914
792.503	0.0160727
792.581	0.0161976
792.659	0.0161629
792.737	0.0160339
792.815	0.0161366
792.893	0.0161399
792.971	0.0160548
793.049	0.0160542
793.128	0.0162476
793.206	0.0161242
793.284	0.0160947
793.362	0.0160022
793.440	0.0159956
793.518	0.0161012
793.596	0.0161333
793.674	0.0162063
793.753	0.0161341
793.831	0.0160609
793.909	0.0160949
793.987	0.0160686
794.065	0.0161069
794.143	0.0162624
794.221	0.0162077
794.299	0.0161777
794.378	0.0160727
794.456	0.0163625
794.534	0.0161268
794.612	0.0161113
794.690	0.0162417
794.768	0.0162906
794.846	0.0162062
794.924	0.0163610
795.003	0.0161980
795.081	0.0163168
795.159	0.0162025
795.237	0.0161771
795.315	0.0163345
795.393	0.0161971
795.471	0.0161891
795.549	0.0163449
795.628	0.0163737
795.706	0.0162062
795.784	0.0163156
795.862	0.0163139
795.940	0.0163111
796.018	0.0161877
796.096	0.0162299
796.174	0.0164305
796.253	0.0163752
796.331	0.0163098
796.409	0.0163091
796.487	0.0163798
796.565	0.0162366
796.643	0.0162853
796.721	0.0162997
796.799	0.0162209
796.878	0.0162881
796.956	0.0163190
797.034	0.0161481
797.112	0.0161577
797.190	0.0161284
797.268	0.0161099
797.346	0.0162502
797.424	0.0162028
797.503	0.0160934
797.581	0.0161357
797.659	0.0161568
797.737	0.0161485
797.815	0.0160901
797.893	0.0161256
797.971	0.0161074
798.049	0.0161288
798.128	0.0160848
798.206	0.0161311
798.284	0.0159092
798.362	0.0159273
798.440	0.0159621
798.518	0.0162156
798.596	0.0160892
798.674	0.0159095
798.753	0.0161582
798.831	0.0161002
798.909	0.0158239
798.987	0.0160186
799.065	0.0160564
799.143	0.0160896
799.221	0.0161908
799.299	0.0161198
799.378	0.0160678
799.456	0.0160690
799.534	0.0160706
799.612	0.0161626
799.690	0.0160238
799.768	0.0160960
799.846	0.0161769
799.924	0.0161071
800.003	0.0161373
800.081	0.0160357
800.159	0.0160700
800.237	0.0161633
800.315	0.0161020
800.393	0.0160834
800.471	0.0161305
800.549	0.0160491
800.628	0.0161517
800.706	0.0161815
800.784	0.0161655
800.862	0.0160590
800.940	0.0161293
801.018	0.0161996
801.096	0.0162102
801.174	0.0161119
801.253	0.0160368
801.331	0.0162330
801.409	0.0162827
801.487	0.0161056
801.565	0.0161440
801.643	0.0161214
801.721	0.0162631
801.799	0.0161253
801.878	0.0162679
801.956	0.0162392
802.034	0.0162093
802.112	0.0161792
802.190	0.0161942
802.268	0.0161487
802.346	0.0160074
802.424	0.0163726
802.503	0.0163330
802.581	0.0161684
802.659	0.0163857
802.737	0.0161867
802.815	0.0162106
802.893	0.0162099
802.971	0.0159903
803.049	0.0160902
803.128	0.0160907
803.206	0.0161238
803.284	0.0162923
803.362	0.0162474
803.440	0.0159892
803.518	0.0159280
803.596	0.0160885
803.674	0.0161903
803.753	0.0160377
803.831	0.0159780
803.909	0.0160115
803.987	0.0159882
804.065	0.0161385
804.143	0.0160168
804.221	0.0159863
804.299	0.0159229
804.378	0.0159315
804.456	0.0160378
804.534	0.0160487
804.612	0.0159783
804.690	0.0160490
804.768	0.0157529
804.846	0.0158859
804.924	0.0159818
805.003	0.0159973
805.081	0.0158839
805.159	0.0160104
805.237	0.0160905
805.315	0.0160878
805.393	0.0160131
805.471	0.0159478
805.549	0.0159570
805.628	0.0159461
805.706	0.0159051
805.784	0.0160645
805.862	0.0159250
805.940	0.0160153
806.018	0.0160065
806.096	0.0160168
806.174	0.0160485
806.253	0.0159789
806.331	0.0161620
806.409	0.0162096
806.487	0.0159733
806.565	0.0159518
806.643	0.0161511
806.721	0.0161459
806.799	0.0161526
806.878	0.0159829
806.956	0.0161655
807.034	0.0161701
807.112	0.0160150
807.190	0.0160201
807.268	0.0162054
807.346	0.0160888
807.424	0.0160777
807.503	0.0161785
807.581	0.0163391
807.659	0.0162451
807.737	0.0162186
807.815	0.0163037
807.893	0.0161752
807.971	0.0161928
808.049	0.0162044
808.128	0.0162203
808.206	0.0161447
808.284	0.0162051
808.362	0.0163219
808.440	0.0162511
808.518	0.0161266
808.596	0.0160806
808.674	0.0162205
808.753	0.0161810
808.831	0.0162164
808.909	0.0162504
808.987	0.0162072
809.065	0.0161729
809.143	0.0160413
809.221	0.0161687
809.299	0.0161913
809.378	0.0161865
809.456	0.0161453
809.534	0.0161744
809.612	0.0161495
809.690	0.0160359
809.768	0.0160627
809.846	0.0160993
809.924	0.0160432
810.003	0.0160438
810.081	0.0159530
810.159	0.0160915
810.237	0.0161102
810.315	0.0161037
810.393	0.0160258
810.471	0.0159631
810.549	0.0160834
810.628	0.0159837
810.706	0.0159721
810.784	0.0158704
810.862	0.0158836
810.940	0.0159022
811.018	0.0159777
811.096	0.0160172
811.174	0.0160216
811.253	0.0160452
811.331	0.0160780
811.409	0.0158932
811.487	0.0159906
811.565	0.0161149
811.643	0.0158803
811.721	0.0160033
811.799	0.0160364
811.878	0.0160519
811.956	0.0160899
812.034	0.0160271
812.112	0.0160294
812.190	0.0160091
812.268	0.0160545
812.346	0.0161327
812.424	0.0160587
812.503	0.0162513
812.581	0.0159978
812.659	0.0162410
812.737	0.0161520
812.815	0.0161330
812.893	0.0160407
812.971	0.0161396
813.049	0.0161968
813.128	0.0161718
813.206	0.0161965
813.284	0.0162048
813.362	0.0161398
813.440	0.0160488
813.518	0.0161784
813.596	0.0162093
813.674	0.0161698
813.753	0.0161409
813.831	0.0159940
813.909	0.0161597
813.987	0.0162220
814.065	0.0162000
814.143	0.0162369
814.221	0.0161535
814.299	0.0160317
814.378	0.0161227
814.456	0.0161922
814.534	0.0162041
814.612	0.0162740
814.690	0.0161999
814.768	0.0161783
814.846	0.0163302
814.924	0.0161980
815.003	0.0161935
815.081	0.0162757
815.159	0.0162319
815.237	0.0162498
815.315	0.0163074
815.393	0.0162476
815.471	0.0163513
815.549	0.0162725
815.628	0.0162738
815.706	0.0161533
815.784	0.0161571
815.862	0.0162081
815.940	0.0161591
816.018	0.0161309
816.096	0.0161518
816.174	0.0160638
816.253	0.0161781
816.331	0.0160522
816.409	0.0161308
816.487	0.0159993
816.565	0.0159772
816.643	0.0159087
816.721	0.0159431
816.799	0.0160999
816.878	0.0160408
816.956	0.0159837
817.034	0.0160243
817.112	0.0159928
817.190	0.0159442
817.268	0.0158922
817.346	0.0160654
817.424	0.0160104
817.503	0.0160529
817.581	0.0159430
817.659	0.0161512
817.737	0.0161803
817.815	0.0158947
817.893	0.0160506
817.971	0.0161454
818.049	0.0161169
818.128	0.0160493
818.206	0.0161024
818.284	0.0160745
818.362	0.0160825
818.440	0.0162212
818.518	0.0161646
818.596	0.0161525
818.674	0.0161041
818.753	0.0161719
818.831	0.0160761
818.909	0.0161323
818.987	0.0162847
819.065	0.0163071
819.143	0.0162139
819.221	0.0162659
819.299	0.0163183
819.378	0.0163064
819.456	0.0161602
819.534	0.0161510
819.612	0.0163594
819.690	0.0163913
819.768	0.0164468
819.846	0.0162663
819.924	0.0162020
820.003	0.0162631
820.081	0.0161835
820.159	0.0162212
820.237	0.0162809
820.315	0.0162803
820.393	0.0163000
820.471	0.0162721
820.549	0.0162452
820.628	0.0160812
820.706	0.0163001
820.784	0.0161754
820.862	0.0161419
820.940	0.0161399
821.018	0.0162029
821.096	0.0161272
821.174	0.0162701
821.253	0.0161773
821.331	0.0162115
821.409	0.0161675
821.487	0.0162740
821.565	0.0162525
821.643	0.0161790
821.721	0.0162199
821.799	0.0162022
821.878	0.0162231
821.956	0.0161791
822.034	0.0160476
822.112	0.0161329
822.190	0.0162315
822.268	0.0162318
822.346	0.0162294
822.424	0.0160757
822.503	0.0160295
822.581	0.0158511
822.659	0.0161502
822.737	0.0159177
822.815	0.0160278
822.893	0.0161094
822.971	0.0161680
823.049	0.0159541
823.128	0.0158236
823.206	0.0160553
823.284	0.0159459
823.362	0.0159373
823.440	0.0160487
823.518	0.0159732
823.596	0.0160137
823.674	0.0160445
823.753	0.0159587
823.831	0.0159119
823.909	0.0159715
823.987	0.0161263
824.065	0.0161292
824.143	0.0160708
824.221	0.0160193
824.299	0.0160394
824.378	0.0160535
824.456	0.0160761
824.534	0.0160454
824.612	0.0161250
824.690	0.0160300
824.768	0.0160601
824.846	0.0161166
824.924	0.0161269
825.003	0.0159796
825.081	0.0160042
825.159	0.0161390
825.237	0.0161562
825.315	0.0160800
825.393	0.0160981
825.471	0.0161594
825.549	0.0160818
825.628	0.0161565
825.706	0.0161002
825.784	0.0161322
825.862	0.0160880
825.940	0.0160775
826.018	0.0160518
826.096	0.0161312
826.174	0.0162043
826.253	0.0162614
826.331	0.0161852
826.409	0.0161287
826.487	0.0161189
826.565	0.0160114
826.643	0.0161411
826.721	0.0162859
826.799	0.0161059
826.878	0.0161342
826.956	0.0161517
827.034	0.0161766
827.112	0.0161256
827.190	0.0162442
827.268	0.0160581
827.346	0.0159637
827.424	0.0160353
827.503	0.0161169
827.581	0.0160625
827.659	0.0161578
827.737	0.0161160
827.815	0.0160996
827.893	0.0160939
827.971	0.0160095
828.049	0.0160757
828.128	0.0160686
828.206	0.0161436
828.284	0.0160276
828.362	0.0160946
828.440	0.0160828
828.518	0.0160211
828.596	0.0159808
828.674	0.0159505
828.753	0.0160660
828.831	0.0160024
828.909	0.0160688
828.987	0.0160162
829.065	0.0160430
829.143	0.0160746
829.221	0.0160828
829.299	0.0160052
829.378	0.0159857
829.456	0.0160550
829.534	0.0159492
829.612	0.0159293
829.690	0.0160790
829.768	0.0160996
829.846	0.0160632
829.924	0.0159546
830.003	0.0162023
830.081	0.0162776
830.159	0.0160889
830.237	0.0161276
830.315	0.0160121
830.393	0.0160275
830.471	0.0160976
830.549	0.0161458
830.628	0.0160226
830.706	0.0160491
830.784	0.0160497
830.862	0.0162095
830.940	0.0160683
831.018	0.0160549
831.096	0.0161936
831.174	0.0161955
831.253	0.0160288
831.331	0.0160587
831.409	0.0162222
831.487	0.0160551
831.565	0.0162160
831.643	0.0161177
831.721	0.0162267
831.799	0.0161168
831.878	0.0162396
831.956	0.0161620
832.034	0.0163322
832.112	0.0160704
832.190	0.0161528
832.268	0.0161773
832.346	0.0162287
832.424	0.0160254
832.503	0.0162759
832.581	0.0162070
832.659	0.0162523
832.737	0.0160825
832.815	0.0161650
832.893	0.0162628
832.971	0.0160725
833.049	0.0161423
833.128	0.0161588
833.206	0.0161643
833.284	0.0160828
833.362	0.0161673
833.440	0.0161137
833.518	0.0161086
833.596	0.0159528
833.674	0.0160963
833.753	0.0161802
833.831	0.0160198
833.909	0.0161144
833.987	0.0161366
834.065	0.0162431
834.143	0.0159835
834.221	0.0161159
834.299	0.0161428
834.378	0.0160722
834.456	0.0162083
834.534	0.0159216
834.612	0.0160736
834.690	0.0160313
834.768	0.0161421
834.846	0.0159412
834.924	0.0160902
835.003	0.0160413
835.081	0.0160137
835.159	0.0160023
835.237	0.0161886
835.315	0.0163180
835.393	0.0161671
835.471	0.0162724
835.549	0.0161812
835.628	0.0162634
835.706	0.0162063
835.784	0.0160176
835.862	0.0163095
835.940	0.0163120
836.018	0.0162583
836.096	0.0162729
836.174	0.0163464
836.253	0.0162480
836.331	0.0160828
836.409	0.0161871
836.487	0.0163577
836.565	0.0162123
836.643	0.0162782
836.721	0.0161752
836.799	0.0162714
836.878	0.0162659
836.956	0.0162494
837.034	0.0162716
837.112	0.0162338
837.190	0.0161411
837.268	0.0162213
837.346	0.0161919
837.424	0.0161364
837.503	0.0161183
837.581	0.0161682
837.659	0.0162500
837.737	0.0163098
837.815	0.0161662
837.893	0.0161016
837.971	0.0161430
838.049	0.0161244
838.128	0.0159826
838.206	0.0161162
838.284	0.0161221
838.362	0.0160561
838.440	0.0159380
838.518	0.0160703
838.596	0.0160646
838.674	0.0160443
838.753	0.0161130
838.831	0.0162247
838.909	0.0160395
838.987	0.0160603
839.065	0.0161450
839.143	0.0160403
839.221	0.0161556
839.299	0.0161155
839.378	0.0160223
839.456	0.0161048
839.534	0.0160807
839.612	0.0161446
839.690	0.0160463
839.768	0.0160459
839.846	0.0160393
839.924	0.0160548
840.003	0.0161029
840.081	0.0161708
840.159	0.0161469
840.237	0.0160840
840.315	0.0161011
840.393	0.0160118
840.471	0.0162038
840.549	0.0161362
840.628	0.0161804
840.706	0.0162346
840.784	0.0162043
840.862	0.0160492
840.940	0.0162132
841.018	0.0162856
841.096	0.0162273
841.174	0.0161804
841.253	0.0161900
841.331	0.0162133
841.409	0.0162114
841.487	0.0161839
841.565	0.0161882
841.643	0.0162332
841.721	0.0161666
841.799	0.0162467
841.878	0.0161281
841.956	0.0161458
842.034	0.0163017
842.112	0.0162725
842.190	0.0161846
842.268	0.0162390
842.346	0.0162505
842.424	0.0161568
842.503	0.0162176
842.581	0.0162162
842.659	0.0163609
842.737	0.0162760
842.815	0.0160849
842.893	0.0161743
842.971	0.0162737
843.049	0.0162406
843.128	0.0162485
843.206	0.0162061
843.284	0.0161244
843.362	0.0161320
843.440	0.0161088
843.518	0.0162813
843.596	0.0162330
843.674	0.0162744
843.753	0.0160847
843.831	0.0162188
843.909	0.0160638
843.987	0.0161922
844.065	0.0161116
844.143	0.0161536
844.221	0.0160902
844.299	0.0160925
844.378	0.0159940
844.456	0.0161022
844.534	0.0161324
844.612	0.0160278
844.690	0.0159863
844.768	0.0161705
844.846	0.0162094
844.924	0.0161760
845.003	0.0161131
845.081	0.0160495
845.159	0.0161327
845.237	0.0161906
845.315	0.0160767
845.393	0.0159917
845.471	0.0160843
845.549	0.0159958
845.628	0.0160851
845.706	0.0160589
845.784	0.0160000
845.862	0.0161030
845.940	0.0161845
846.018	0.0161572
846.096	0.0160378
846.174	0.0161218
846.253	0.0162492
846.331	0.0160769
846.409	0.0162399
846.487	0.0161638
846.565	0.0161050
846.643	0.0161459
846.721	0.0162072
846.799	0.0161443
846.878	0.0159850
846.956	0.0160410
847.034	0.0160747
847.112	0.0161092
847.190	0.0162241
847.268	0.0162764
847.346	0.0161443
847.424	0.0160619
847.503	0.0160135
847.581	0.0161626
847.659	0.0160001
847.737	0.0161558
847.815	0.0161776
847.893	0.0163126
847.971	0.0162501
848.049	0.0161275
848.128	0.0161790
848.206	0.0161977
848.284	0.0161356
848.362	0.0161430
848.440	0.0161084
848.518	0.0162556
848.596	0.0160773
848.674	0.0162436
848.753	0.0161180
848.831	0.0160808
848.909	0.0162178
848.987	0.0161895
849.065	0.0161420
849.143	0.0161501
849.221	0.0161459
849.299	0.0160970
849.378	0.0160860
849.456	0.0162034
849.534	0.0161097
849.612	0.0161853
849.690	0.0161316
849.768	0.0160027
849.846	0.0160677
849.924	0.0160644
850.003	0.0159933
850.081	0.0159512
850.159	0.0160796
850.237	0.0161813
850.315	0.0161702
850.393	0.0159896
850.471	0.0160536
850.549	0.0161989
850.628	0.0160709
850.706	0.0160019
850.784	0.0159898
850.862	0.0159785
850.940	0.0162048
851.018	0.0160591
851.096	0.0160924
851.174	0.0161398
851.253	0.0160461
851.331	0.0159487
851.409	0.0161025
851.487	0.0162924
851.565	0.0162392
851.643	0.0160886
851.721	0.0161465
851.799	0.0160878
851.878	0.0161050
851.956	0.0160818
852.034	0.0162321
852.112	0.0161575
852.190	0.0161590
852.268	0.0162872
852.346	0.0161967
852.424	0.0161994
852.503	0.0161099
852.581	0.0160899
852.659	0.0160886
852.737	0.0161421
852.815	0.0162847
852.893	0.0161830
852.971	0.0162018
853.049	0.0161552
853.128	0.0162411
853.206	0.0162034
853.284	0.0162500
853.362	0.0161664
853.440	0.0160960
853.518	0.0162355
853.596	0.0161126
853.674	0.0161390
853.753	0.0162170
853.831	0.0161567
853.909	0.0161743
853.987	0.0160769
854.065	0.0161674
854.143	0.0161637
854.221	0.0161468
854.299	0.0162021
854.378	0.0160666
854.456	0.0161194
854.534	0.0161245
854.612	0.0160802
854.690	0.0160690
854.768	0.0162012
854.846	0.0161354
854.924	0.0161684
855.003	0.0161450
855.081	0.0160965
855.159	0.0162109
855.237	0.0161925
855.315	0.0163611
855.393	0.0161248
855.471	0.0160875
855.549	0.0161883
855.628	0.0161142
855.706	0.0161365
855.784	0.0160616
855.862	0.0160252
855.940	0.0161366
856.018	0.0162232
856.096	0.0160815
856.174	0.0161189
856.253	0.0161053
856.331	0.0162580
856.409	0.0161862
856.487	0.0162412
856.565	0.0161588
856.643	0.0160869
856.721	0.0161559
856.799	0.0161267
856.878	0.0161590
856.956	0.0163417
857.034	0.0162805
857.112	0.0161327
857.190	0.0162234
857.268	0.0160810
857.346	0.0160109
857.424	0.0161223
857.503	0.0162901
857.581	0.0163017
857.659	0.0162860
857.737	0.0161279
857.815	0.0163314
857.893	0.0161774
857.971	0.0162933
858.049	0.0160290
858.128	0.0161829
858.206	0.0161952
858.284	0.0162476
858.362	0.0163202
858.440	0.0161829
858.518	0.0162701
858.596	0.0162632
858.674	0.0162142
858.753	0.0162087
858.831	0.0161962
858.909	0.0161456
858.987	0.0161205
859.065	0.0161049
859.143	0.0162106
859.221	0.0161884
859.299	0.0160781
859.378	0.0160970
859.456	0.0161085
859.534	0.0161865
859.612	0.0161806
859.690	0.0161363
859.768	0.0161480
859.846	0.0161604
859.924	0.0161855
860.003	0.0161665
860.081	0.0159808
860.159	0.0161600
860.237	0.0162145
860.315	0.0160857
860.393	0.0160401
860.471	0.0161646
860.549	0.0161543
860.628	0.0161293
860.706	0.0160942
860.784	0.0161527
860.862	0.0161002
860.940	0.0162014
861.018	0.0161893
861.096	0.0161600
861.174	0.0161236
861.253	0.0162045
861.331	0.0162675
861.409	0.0163252
861.487	0.0161639
861.565	0.0161395
861.643	0.0161287
861.721	0.0161614
861.799	0.0160258
861.878	0.0161795
861.956	0.0161350
862.034	0.0161135
862.112	0.0162354
862.190	0.0161190
862.268	0.0162305
862.346	0.0160990
862.424	0.0161781
862.503	0.0162553
862.581	0.0161237
862.659	0.0162309
862.737	0.0161859
862.815	0.0162588
862.893	0.0161547
862.971	0.0161341
863.049	0.0161447
863.128	0.0161093
863.206	0.0163130
863.284	0.0161797
863.362	0.0161797
863.440	0.0162096
863.518	0.0161769
863.596	0.0161161
863.674	0.0160572
863.753	0.0161269
863.831	0.0161578
863.909	0.0161614
863.987	0.0161554
864.065	0.0161626
864.143	0.0160767
864.221	0.0160124
864.299	0.0160046
864.378	0.0160389
864.456	0.0160989
864.534	0.0161776
864.612	0.0159996
864.690	0.0161519
864.768	0.0161616
864.846	0.0160952
864.924	0.0160892
865.003	0.0161292
865.081	0.0161141
865.159	0.0161352
865.237	0.0160099
865.315	0.0161220
865.393	0.0160607
865.471	0.0161958
865.549	0.0162871
865.628	0.0159846
865.706	0.0160698
865.784	0.0160793
865.862	0.0160780
865.940	0.0160848
866.018	0.0161902
866.096	0.0162057
866.174	0.0162238
866.253	0.0162337
866.331	0.0162103
866.409	0.0161222
866.487	0.0160248
866.565	0.0161559
866.643	0.0162496
866.721	0.0162515
866.799	0.0162140
866.878	0.0161714
866.956	0.0162826
867.034	0.0162253
867.112	0.0161451
867.190	0.0161545
867.268	0.0161157
867.346	0.0162688
867.424	0.0162894
867.503	0.0161466
867.581	0.0162119
867.659	0.0163590
867.737	0.0163572
867.815	0.0163324
867.893	0.0161917
867.971	0.0162191
868.049	0.0161759
868.128	0.0161416
868.206	0.0162954
868.284	0.0161301
868.362	0.0161372
868.440	0.0162222
868.518	0.0163619
868.596	0.0163657
868.674	0.0162687
868.753	0.0161824
868.831	0.0162363
868.909	0.0162579
868.987	0.0162514
869.065	0.0162250
869.143	0.0161594
869.221	0.0162240
869.299	0.0161743
869.378	0.0162365
869.456	0.0161064
869.534	0.0162740
869.612	0.0161899
869.690	0.0161702
869.768	0.0161732
869.846	0.0161897
869.924	0.0161147
870.003	0.0160548
870.081	0.0159850
870.159	0.0161829
870.237	0.0159805
870.315	0.0159017
870.393	0.0160561
870.471	0.0160197
870.549	0.0160837
870.628	0.0161203
870.706	0.0159378
870.784	0.0159614
870.862	0.0159604
870.940	0.0160213
871.018	0.0160325
871.096	0.0161289
871.174	0.0160226
871.253	0.0160685
871.331	0.0161501
871.409	0.0161560
871.487	0.0159529
871.565	0.0161723
871.643	0.0161388
871.721	0.0160036
871.799	0.0160662
871.878	0.0160374
871.956	0.0162257
872.034	0.0161445
872.112	0.0161175
872.190	0.0160847
872.268	0.0161207
872.346	0.0161993
872.424	0.0161930
872.503	0.0161586
872.581	0.0162012
872.659	0.0160548
872.737	0.0162560
872.815	0.0162196
872.893	0.0162343
872.971	0.0162623
873.049	0.0163218
873.128	0.0161965
873.206	0.0161708
873.284	0.0162968
873.362	0.0162830
873.440	0.0162164
873.518	0.0163618
873.596	0.0163686
873.674	0.0161217
873.753	0.0162624
873.831	0.0161547
873.909	0.0162349
873.987	0.0162439
874.065	0.0162942
874.143	0.0160507
874.221	0.0160949
874.299	0.0162959
874.378	0.0160835
874.456	0.0160883
874.534	0.0160574
874.612	0.0162088
874.690	0.0162807
874.768	0.0160417
874.846	0.0160699
874.924	0.0162167
875.003	0.0159952
875.081	0.0161013
875.159	0.0161552
875.237	0.0160789
875.315	0.0159729
875.393	0.0160948
875.471	0.0161280
875.549	0.0160387
875.628	0.0162480
875.706	0.0161776
875.784	0.0161181
875.862	0.0160653
875.940	0.0160787
876.018	0.0159416
876.096	0.0160174
876.174	0.0160431
876.253	0.0159299
876.331	0.0159749
876.409	0.0160922
876.487	0.0161462
876.565	0.0160916
876.643	0.0161305
876.721	0.0161198
876.799	0.0161376
876.878	0.0160736
876.956	0.0162096
877.034	0.0162419
877.112	0.0161826
877.190	0.0161599
877.268	0.0162697
877.346	0.0160363
877.424	0.0161316
877.503	0.0162891
877.581	0.0161770
877.659	0.0161859
877.737	0.0163295
877.815	0.0160583
877.893	0.0162416
877.971	0.0161637
878.049	0.0160830
878.128	0.0162543
878.206	0.0161214
878.284	0.0160104
878.362	0.0161051
878.440	0.0159915
878.518	0.0160601
878.596	0.0160492
878.674	0.0159706
878.753	0.0160196
878.831	0.0160500
878.909	0.0160973
878.987	0.0160731
879.065	0.0162691
879.143	0.0161392
879.221	0.0160278
879.299	0.0161275
879.378	0.0161932
879.456	0.0161616
879.534	0.0162699
879.612	0.0160835
879.690	0.0162489
879.768	0.0163380
879.846	0.0162846
879.924	0.0162482
880.003	0.0164268
880.081	0.0163362
880.159	0.0161476
880.237	0.0162660
880.315	0.0162485
880.393	0.0162525
880.471	0.0163351
880.549	0.0162174
880.628	0.0160048
880.706	0.0161757
880.784	0.0161546
880.862	0.0161379
880.940	0.0160782
881.018	0.0162041
881.096	0.0163012
881.174	0.0161034
881.253	0.0161019
881.331	0.0161861
881.409	0.0162195
881.487	0.0161288
881.565	0.0161777
881.643	0.0162502
881.721	0.0160978
881.799	0.0162045
881.878	0.0162662
881.956	0.0161584
882.034	0.0161160
882.112	0.0161787
882.190	0.0162559
882.268	0.0161940
882.346	0.0160513
882.424	0.0161559
882.503	0.0162463
882.581	0.0162717
882.659	0.0161772
882.737	0.0161240
882.815	0.0161066
882.893	0.0160941
882.971	0.0160425
883.049	0.0161586
883.128	0.0160978
883.206	0.0159471
883.284	0.0161484
883.362	0.0162051
883.440	0.0160719
883.518	0.0161968
883.596	0.0161361
883.674	0.0161049
883.753	0.0160407
883.831	0.0162190
883.909	0.0162016
883.987	0.0161552
884.065	0.0162147
884.143	0.0162196
884.221	0.0163486
884.299	0.0162437
884.378	0.0161712
884.456	0.0163331
884.534	0.0163091
884.612	0.0162206
884.690	0.0162580
884.768	0.0163506
884.846	0.0163383
884.924	0.0164021
885.003	0.0162769
885.081	0.0161433
885.159	0.0162977
885.237	0.0163425
885.315	0.0162526
885.393	0.0162039
885.471	0.0161647
885.549	0.0160584
885.628	0.0161731
885.706	0.0161598
885.784	0.0161864
885.862	0.0160937
885.940	0.0160680
886.018	0.0161742
886.096	0.0161961
886.174	0.0161205
886.253	0.0160782
886.331	0.0160578
886.409	0.0161642
886.487	0.0160532
886.565	0.0160458
886.643	0.0161975
886.721	0.0162397
886.799	0.0161205
886.878	0.0161713
886.956	0.0161326
887.034	0.0161102
887.112	0.0160560
887.190	0.0161680
887.268	0.0160799
887.346	0.0161124
887.424	0.0160302
887.503	0.0159473
887.581	0.0160785
887.659	0.0160359
887.737	0.0161003
887.815	0.0160398
887.893	0.0162061
887.971	0.0161211
888.049	0.0161037
888.128	0.0161913
888.206	0.0160670
888.284	0.0161383
888.362	0.0161612
888.440	0.0162284
888.518	0.0161142
888.596	0.0161250
888.674	0.0161540
888.753	0.0160841
888.831	0.0162964
888.909	0.0162609
888.987	0.0160931
889.065	0.0161844
889.143	0.0162023
889.221	0.0162113
889.299	0.0161761
889.378	0.0161549
889.456	0.0162453
889.534	0.0162353
889.612	0.0161690
889.690	0.0162228
889.768	0.0160911
889.846	0.0162689
889.924	0.0162495
890.003	0.0162247
890.081	0.0161977
890.159	0.0163495
890.237	0.0163540
890.315	0.0162837
890.393	0.0163058
890.471	0.0163334
890.549	0.0162331
890.628	0.0163158
890.706	0.0164389
890.784	0.0162944
890.862	0.0163156
890.940	0.0163089
891.018	0.0162392
891.096	0.0163067
891.174	0.0163622
891.253	0.0162852
891.331	0.0161182
891.409	0.0160447
891.487	0.0160954
891.565	0.0161890
891.643	0.0161166
891.721	0.0160202
891.799	0.0160849
891.878	0.0160847
891.956	0.0162439
892.034	0.0160286
892.112	0.0160259
892.190	0.0160998
892.268	0.0159523
892.346	0.0161358
892.424	0.0159904
892.503	0.0159990
892.581	0.0160566
892.659	0.0159576
892.737	0.0159824
892.815	0.0158869
892.893	0.0160550
892.971	0.0160096
893.049	0.0160204
893.128	0.0160844
893.206	0.0158845
893.284	0.0158988
893.362	0.0160078
893.440	0.0160145
893.518	0.0159747
893.596	0.0160236
893.674	0.0161297
893.753	0.0158651
893.831	0.0159652
893.909	0.0159231
893.987	0.0160304
894.065	0.0160878
894.143	0.0160990
894.221	0.0159482
894.299	0.0159716
894.378	0.0161075
894.456	0.0160130
894.534	0.0160783
894.612	0.0159381
894.690	0.0161156
894.768	0.0160139
894.846	0.0160725
894.924	0.0161160
895.003	0.0160469
895.081	0.0159439
895.159	0.0162264
895.237	0.0161819
895.315	0.0160006
895.393	0.0160776
895.471	0.0160780
895.549	0.0161318
895.628	0.0161729
895.706	0.0161255
895.784	0.0163039
895.862	0.0161113
895.940	0.0161250
896.018	0.0162058
896.096	0.0161572
896.174	0.0161234
896.253	0.0162860
896.331	0.0162734
896.409	0.0162007
896.487	0.0163251
896.565	0.0161445
896.643	0.0160829
896.721	0.0162596
896.799	0.0162436
896.878	0.0162082
896.956	0.0162948
897.034	0.0162273
897.112	0.0161881
897.190	0.0162335
897.268	0.0162212
897.346	0.0162855
897.424	0.0161135
897.503	0.0161430
897.581	0.0160921
897.659	0.0162352
897.737	0.0162016
897.815	0.0161472
897.893	0.0161684
897.971	0.0161287
898.049	0.0160990
898.128	0.0161679
898.206	0.0161512
898.284	0.0160710
898.362	0.0162019
898.440	0.0161504
898.518	0.0162192
898.596	0.0162049
898.674	0.0160804
898.753	0.0161662
898.831	0.0162272
898.909	0.0161874
898.987	0.0162949
899.065	0.0162981
899.143	0.0161401
899.221	0.0161057
899.299	0.0160233
899.378	0.0160695
899.456	0.0160795
899.534	0.0159553
899.612	0.0162322
899.690	0.0159492
899.768	0.0161178
899.846	0.0161593
899.924	0.0161228
900.003	0.0162471
900.081	0.0162103
900.159	0.0160092
900.237	0.0160992
900.315	0.0162320
900.393	0.0161575
900.471	0.0161293
900.549	0.0161909
900.628	0.0161587
900.706	0.0160748
900.784	0.0161115
900.862	0.0162842
900.940	0.0162411
901.018	0.0161618
901.096	0.0162289
901.174	0.0161554
901.253	0.0162326
901.331	0.0161613
901.409	0.0162486
901.487	0.0161595
901.565	0.0161459
901.643	0.0162980
901.721	0.0161896
901.799	0.0161087
901.878	0.0162777
901.956	0.0161218
902.034	0.0161797
902.112	0.0161742
902.190	0.0163406
902.268	0.0161301
902.346	0.0159939
902.424	0.0161416
902.503	0.0161709
902.581	0.0161648
902.659	0.0160305
902.737	0.0161386
902.815	0.0161698
902.893	0.0161884
902.971	0.0160760
903.049	0.0161153
903.128	0.0161114
903.206	0.0159977
903.284	0.0161370
903.362	0.0160213
903.440	0.0160776
903.518	0.0161028
903.596	0.0159730
903.674	0.0160052
903.753	0.0160241
903.831	0.0160512
903.909	0.0159188
903.987	0.0159856
904.065	0.0160036
904.143	0.0160040
904.221	0.0160069
904.299	0.0159081
904.378	0.0160349
904.456	0.0160226
904.534	0.0159714
904.612	0.0161517
904.690	0.0161439
904.768	0.0161314
904.846	0.0161903
904.924	0.0161363
905.003	0.0160635
905.081	0.0162380
905.159	0.0162546
905.237	0.0162354
905.315	0.0161729
905.393	0.0161772
905.471	0.0162330
905.549	0.0161861
905.628	0.0161225
905.706	0.0162908
905.784	0.0162550
905.862	0.0161531
905.940	0.0162003
906.018	0.0162937
906.096	0.0161926
906.174	0.0162230
906.253	0.0162457
906.331	0.0161619
906.409	0.0161482
906.487	0.0161741
906.565	0.0162141
906.643	0.0161015
906.721	0.0162350
906.799	0.0163564
906.878	0.0161212
906.956	0.0161991
907.034	0.0162110
907.112	0.0160935
907.190	0.0161588
907.268	0.0162376
907.346	0.0160654
907.424	0.0160742
907.503	0.0160432
907.581	0.0160407
907.659	0.0160792
907.737	0.0160770
907.815	0.0160229
907.893	0.0160406
907.971	0.0159685
908.049	0.0159766
908.128	0.0161226
908.206	0.0161183
908.284	0.0161122
908.362	0.0160249
908.440	0.0160738
908.518	0.0159837
908.596	0.0161536
908.674	0.0161303
908.753	0.0161592
908.831	0.0161145
908.909	0.0160688
908.987	0.0161256
909.065	0.0160907
909.143	0.0161021
909.221	0.0162212
909.299	0.0161000
909.378	0.0160075
909.456	0.0161333
909.534	0.0161015
909.612	0.0160228
909.690	0.0160479
909.768	0.0161753
909.846	0.0161550
909.924	0.0159842
910.003	0.0160127
910.081	0.0160246
910.159	0.0159793
910.237	0.0160461
910.315	0.0160320
910.393	0.0159506
910.471	0.0160225
910.549	0.0160542
910.628	0.0161202
910.706	0.0160999
910.784	0.0160359
910.862	0.0160667
910.940	0.0160109
911.018	0.0161423
911.096	0.0160817
911.174	0.0160154
911.253	0.0162646
911.331	0.0163849
911.409	0.0160261
911.487	0.0160355
911.565	0.0161367
911.643	0.0162708
911.721	0.0162064
911.799	0.0161075
911.878	0.0160793
911.956	0.0161327
912.034	0.0161467
912.112	0.0161137
912.190	0.0160239
912.268	0.0162200
912.346	0.0161539
912.424	0.0161037
912.503	0.0161256
912.581	0.0160922
912.659	0.0161841
912.737	0.0160594
912.815	0.0160455
912.893	0.0161127
912.971	0.0160185
913.049	0.0160970
913.128	0.0160375
913.206	0.0161332
913.284	0.0161200
913.362	0.0161490
913.440	0.0162479
913.518	0.0161179
913.596	0.0159756
913.674	0.0161913
913.753	0.0161664
913.831	0.0161050
913.909	0.0161516
913.987	0.0161845
914.065	0.0161486
914.143	0.0161787
914.221	0.0160224
914.299	0.0161134
914.378	0.0161164
914.456	0.0161908
914.534	0.0160376
914.612	0.0160817
914.690	0.0161439
914.768	0.0161575
914.846	0.0162347
914.924	0.0162817
915.003	0.0162090
915.081	0.0161627
915.159	0.0162566
915.237	0.0161852
915.315	0.0160804
915.393	0.0162566
915.471	0.0161567
915.549	0.0160999
915.628	0.0161589
915.706	0.0162058
915.784	0.0162186
915.862	0.0162222
915.940	0.0162355
916.018	0.0162025
916.096	0.0161365
916.174	0.0160792
916.253	0.0160889
916.331	0.0162392
916.409	0.0160403
916.487	0.0163081
916.565	0.0162489
916.643	0.0160391
916.721	0.0162029
916.799	0.0162804
916.878	0.0161444
916.956	0.0162452
917.034	0.0162081
917.112	0.0162373
917.190	0.0161368
917.268	0.0162426
917.346	0.0161119
917.424	0.0161867
917.503	0.0162260
917.581	0.0161240
917.659	0.0160658
917.737	0.0162547
917.815	0.0162247
917.893	0.0162226
917.971	0.0163048
918.049	0.0161583
918.128	0.0162072
918.206	0.0161780
918.284	0.0161781
918.362	0.0160950
918.440	0.0162228
918.518	0.0162377
918.596	0.0162648
918.674	0.0161793
918.753	0.0162069
918.831	0.0162502
918.909	0.0161226
918.987	0.0160349
919.065	0.0161737
919.143	0.0161721
919.221	0.0161626
919.299	0.0163229
919.378	0.0161792
919.456	0.0160014
919.534	0.0161123
919.612	0.0160765
919.690	0.0161797
919.768	0.0160730
919.846	0.0160723
919.924	0.0162353
920.003	0.0162872
920.081	0.0162511
920.159	0.0161094
920.237	0.0161013
920.315	0.0159576
920.393	0.0161093
920.471	0.0162266
920.549	0.0161195
920.628	0.0161372
920.706	0.0161686
920.784	0.0161609
920.862	0.0161269
920.940	0.0160642
921.018	0.0162102
921.096	0.0164232
921.174	0.0161022
921.253	0.0160091
921.331	0.0160663
921.409	0.0161801
921.487	0.0162067
921.565	0.0160645
921.643	0.0162074
921.721	0.0161021
921.799	0.0160956
921.878	0.0161884
921.956	0.0161275
922.034	0.0161341
922.112	0.0160169
922.190	0.0161320
922.268	0.0160015
922.346	0.0162579
922.424	0.0161741
922.503	0.0160391
922.581	0.0162023
922.659	0.0161857
922.737	0.0161405
922.815	0.0162335
922.893	0.0162261
922.971	0.0162376
923.049	0.0162070
923.128	0.0162448
923.206	0.0162898
923.284	0.0162399
923.362	0.0162288
923.440	0.0161790
923.518	0.0162709
923.596	0.0161609
923.674	0.0162886
923.753	0.0162580
923.831	0.0163657
923.909	0.0163000
923.987	0.0162312
924.065	0.0162678
924.143	0.0162370
924.221	0.0162526
924.299	0.0162045
924.378	0.0161866
924.456	0.0162624
924.534	0.0161239
924.612	0.0160769
924.690	0.0162281
924.768	0.0161012
924.846	0.0162817
924.924	0.0161021
925.003	0.0160463
925.081	0.0161223
925.159	0.0160626
925.237	0.0160532
925.315	0.0160815
925.393	0.0160036
925.471	0.0160979
925.549	0.0161753
925.628	0.0160110
925.706	0.0159897
925.784	0.0160439
925.862	0.0159343
925.940	0.0160333
926.018	0.0160524
926.096	0.0161976
926.174	0.0161328
926.253	0.0159817
926.331	0.0161497
926.409	0.0161035
926.487	0.0161323
926.565	0.0160572
926.643	0.0162518
926.721	0.0161453
926.799	0.0161548
926.878	0.0161701
926.956	0.0161174
927.034	0.0161640
927.112	0.0160503
927.190	0.0160710
927.268	0.0161526
927.346	0.0161970
927.424	0.0160437
927.503	0.0161751
927.581	0.0162570
927.659	0.0162552
927.737	0.0160597
927.815	0.0160741
927.893	0.0161922
927.971	0.0161512
928.049	0.0163579
928.128	0.0162442
928.206	0.0162163
928.284	0.0163030
928.362	0.0162190
928.440	0.0161864
928.518	0.0163491
928.596	0.0162386
928.674	0.0162419
928.753	0.0163165
928.831	0.0162052
928.909	0.0161337
928.987	0.0162450
929.065	0.0163169
929.143	0.0161761
929.221	0.0161514
929.299	0.0162787
929.378	0.0161084
929.456	0.0161207
929.534	0.0160193
929.612	0.0161349
929.690	0.0161579
929.768	0.0162598
929.846	0.0161715
929.924	0.0161248
930.003	0.0160804
930.081	0.0160265
930.159	0.0160627
930.237	0.0160567
930.315	0.0161864
930.393	0.0162146
930.471	0.0159694
930.549	0.0161806
930.628	0.0160996
930.706	0.0159527
930.784	0.0160055
930.862	0.0161210
930.940	0.0161884
931.018	0.0160294
931.096	0.0160279
931.174	0.0159982
931.253	0.0160921
931.331	0.0162156
931.409	0.0161691
931.487	0.0160543
931.565	0.0161455
931.643	0.0161102
931.721	0.0159824
931.799	0.0160905
931.878	0.0163103
931.956	0.0161172
932.034	0.0160866
932.112	0.0161111
932.190	0.0161868
932.268	0.0162200
932.346	0.0162299
932.424	0.0161467
932.503	0.0160509
932.581	0.0162154
932.659	0.0162460
932.737	0.0163284
932.815	0.0162077
932.893	0.0163028
932.971	0.0163601
933.049	0.0163874
933.128	0.0163068
933.206	0.0162177
933.284	0.0162318
933.362	0.0161963
933.440	0.0163579
933.518	0.0162043
933.596	0.0161118
933.674	0.0163848
933.753	0.0161515
933.831	0.0162205
933.909	0.0162402
933.987	0.0162855
934.065	0.0162382
934.143	0.0162441
934.221	0.0161672
934.299	0.0160420
934.378	0.0162230
934.456	0.0162360
934.534	0.0164053
934.612	0.0163278
934.690	0.0161622
934.768	0.0161143
934.846	0.0162137
934.924	0.0162663
935.003	0.0161534
935.081	0.0163270
935.159	0.0161806
935.237	0.0161259
935.315	0.0162585
935.393	0.0161277
935.471	0.0161380
935.549	0.0161256
935.628	0.0162222
935.706	0.0161272
935.784	0.0161813
935.862	0.0161452
935.940	0.0160526
936.018	0.0161011
936.096	0.0160706
936.174	0.0161292
936.253	0.0162282
936.331	0.0161388
936.409	0.0160464
936.487	0.0161960
936.565	0.0161014
936.643	0.0161043
936.721	0.0161410
936.799	0.0162781
936.878	0.0159875
936.956	0.0160606
937.034	0.0162256
937.112	0.0162582
937.190	0.0162656
937.268	0.0161362
937.346	0.0161940
937.424	0.0160950
937.503	0.0161967
937.581	0.0162327
937.659	0.0162353
937.737	0.0161031
937.815	0.0161588
937.893	0.0161804
937.971	0.0162013
938.049	0.0162001
938.128	0.0162433
938.206	0.0160500
938.284	0.0161267
938.362	0.0162144
938.440	0.0162756
938.518	0.0161877
938.596	0.0162307
938.674	0.0163367
938.753	0.0162469
938.831	0.0161552
938.909	0.0162435
938.987	0.0163120
939.065	0.0164403
939.143	0.0163150
939.221	0.0162730
939.299	0.0163863
939.378	0.0162993
939.456	0.0162965
939.534	0.0163881
939.612	0.0163203
939.690	0.0162301
939.768	0.0163132
939.846	0.0163481
939.924	0.0162915
940.003	0.0163862
940.081	0.0163331
940.159	0.0163175
940.237	0.0162734
940.315	0.0161598
940.393	0.0162132
940.471	0.0162226
940.549	0.0162195
940.628	0.0161885
940.706	0.0161543
940.784	0.0161937
940.862	0.0162046
940.940	0.0161974
941.018	0.0163131
941.096	0.0162727
941.174	0.0162174
941.253	0.0161522
941.331	0.0161540
941.409	0.0163392
941.487	0.0163078
941.565	0.0162106
941.643	0.0161751
941.721	0.0161671
941.799	0.0160994
941.878	0.0162617
941.956	0.0161269
942.034	0.0161708
942.112	0.0161565
942.190	0.0161044
942.268	0.0160329
942.346	0.0160167
942.424	0.0160452
942.503	0.0161625
942.581	0.0160577
942.659	0.0161355
942.737	0.0159839
942.815	0.0160271
942.893	0.0160769
942.971	0.0161268
943.049	0.0160471
943.128	0.0160452
943.206	0.0160827
943.284	0.0161507
943.362	0.0160978
943.440	0.0160640
943.518	0.0161524
943.596	0.0160513
943.674	0.0159602
943.753	0.0160793
943.831	0.0160721
943.909	0.0161469
943.987	0.0161924
944.065	0.0160976
944.143	0.0161337
944.221	0.0161819
944.299	0.0162376
944.378	0.0163189
944.456	0.0162658
944.534	0.0162318
944.612	0.0162872
944.690	0.0162276
944.768	0.0162334
944.846	0.0162706
944.924	0.0162793
945.003	0.0162242
945.081	0.0163579
945.159	0.0162933
945.237	0.0162386
945.315	0.0162431
945.393	0.0163473
945.471	0.0161901
945.549	0.0162670
945.628	0.0162728
945.706	0.0161664
945.784	0.0162545
945.862	0.0162172
945.940	0.0161377
946.018	0.0162979
946.096	0.0161621
946.174	0.0162656
946.253	0.0162265
946.331	0.0161668
946.409	0.0162022
946.487	0.0162934
946.565	0.0162312
946.643	0.0162614
946.721	0.0163343
946.799	0.0162284
946.878	0.0161825
946.956	0.0162125
947.034	0.0160765
947.112	0.0161018
947.190	0.0160145
947.268	0.0161945
947.346	0.0160812
947.424	0.0160131
947.503	0.0160764
947.581	0.0159743
947.659	0.0161721
947.737	0.0160713
947.815	0.0161508
947.893	0.0160963
947.971	0.0160374
948.049	0.0160049
948.128	0.0159509
948.206	0.0160423
948.284	0.0160073
948.362	0.0159927
948.440	0.0160241
948.518	0.0160021
948.596	0.0159035
948.674	0.0160878
948.753	0.0161111
948.831	0.0160455
948.909	0.0159913
948.987	0.0160590
949.065	0.0159817
949.143	0.0160555
949.221	0.0161721
949.299	0.0160687
949.378	0.0161455
949.456	0.0161020
949.534	0.0161150
949.612	0.0160096
949.690	0.0161003
949.768	0.0161950
949.846	0.0161133
949.924	0.0160983
