05/19/2022	00:44:23	Ver.	4.1	UNKNOWN
Optical Delay	630.009178	Delta X		0.078125	Sweeps	1	Scan Rate	0/0
Coordinates	Axis 1	NaN	Axis 2	NaN	Axis 3	NaN	Axis 4	NaN	Axis 5	NaN	Axis 6	0.000000
TX Power	0.000000	RX Power	0.000000

630.009	0.0162132
630.087	0.0162482
630.165	0.0162007
630.244	0.0161665
630.322	0.0162421
630.400	0.0163383
630.478	0.0162030
630.556	0.0162881
630.634	0.0162682
630.712	0.0162173
630.790	0.0162949
630.869	0.0162788
630.947	0.0162868
631.025	0.0162675
631.103	0.0162046
631.181	0.0161838
631.259	0.0162859
631.337	0.0162183
631.415	0.0161171
631.494	0.0161355
631.572	0.0162398
631.650	0.0161605
631.728	0.0163156
631.806	0.0162678
631.884	0.0161573
631.962	0.0162136
632.040	0.0161355
632.119	0.0162238
632.197	0.0161509
632.275	0.0162103
632.353	0.0162566
632.431	0.0162148
632.509	0.0162547
632.587	0.0162342
632.665	0.0163454
632.744	0.0161987
632.822	0.0162653
632.900	0.0163053
632.978	0.0163371
633.056	0.0161977
633.134	0.0161806
633.212	0.0162489
633.290	0.0162387
633.369	0.0163804
633.447	0.0162325
633.525	0.0162001
633.603	0.0163377
633.681	0.0161781
633.759	0.0160646
633.837	0.0162160
633.915	0.0162759
633.994	0.0162184
634.072	0.0162938
634.150	0.0162471
634.228	0.0161366
634.306	0.0162598
634.384	0.0163351
634.462	0.0162405
634.540	0.0161904
634.619	0.0163226
634.697	0.0162124
634.775	0.0162766
634.853	0.0162864
634.931	0.0162341
635.009	0.0163162
635.087	0.0163600
635.165	0.0162840
635.244	0.0162877
635.322	0.0161400
635.400	0.0161859
635.478	0.0162575
635.556	0.0161613
635.634	0.0161670
635.712	0.0162084
635.790	0.0161090
635.869	0.0161807
635.947	0.0161602
636.025	0.0162473
636.103	0.0161500
636.181	0.0163364
636.259	0.0162075
636.337	0.0160734
636.415	0.0162424
636.494	0.0162886
636.572	0.0162753
636.650	0.0162603
636.728	0.0162395
636.806	0.0162302
636.884	0.0162284
636.962	0.0162714
637.040	0.0162666
637.119	0.0162171
637.197	0.0161024
637.275	0.0162806
637.353	0.0162553
637.431	0.0162435
637.509	0.0161986
637.587	0.0162585
637.665	0.0163588
637.744	0.0161914
637.822	0.0162328
637.900	0.0163039
637.978	0.0162531
638.056	0.0162859
638.134	0.0161327
638.212	0.0163074
638.290	0.0162149
638.369	0.0161737
638.447	0.0160829
638.525	0.0162225
638.603	0.0162224
638.681	0.0161127
638.759	0.0162314
638.837	0.0163044
638.915	0.0162540
638.994	0.0162016
639.072	0.0163068
639.150	0.0162174
639.228	0.0161356
639.306	0.0162828
639.384	0.0162300
639.462	0.0162084
639.540	0.0161943
639.619	0.0162836
639.697	0.0162281
639.775	0.0163015
639.853	0.0162673
639.931	0.0162977
640.009	0.0162453
640.087	0.0161620
640.165	0.0161261
640.244	0.0161124
640.322	0.0161944
640.400	0.0163400
640.478	0.0162325
640.556	0.0162632
640.634	0.0163284
640.712	0.0162697
640.790	0.0161449
640.869	0.0162498
640.947	0.0162752
641.025	0.0162691
641.103	0.0162816
641.181	0.0161669
641.259	0.0161774
641.337	0.0162673
641.415	0.0163065
641.494	0.0162872
641.572	0.0163293
641.650	0.0162613
641.728	0.0162153
641.806	0.0161243
641.884	0.0162238
641.962	0.0162607
642.040	0.0161476
642.119	0.0161921
642.197	0.0162775
642.275	0.0162679
642.353	0.0162186
642.431	0.0161728
642.509	0.0162206
642.587	0.0162412
642.665	0.0161721
642.744	0.0163696
642.822	0.0161771
642.900	0.0161589
642.978	0.0161395
643.056	0.0163103
643.134	0.0163257
643.212	0.0162564
643.290	0.0162517
643.369	0.0160453
643.447	0.0160720
643.525	0.0162444
643.603	0.0162630
643.681	0.0162926
643.759	0.0161630
643.837	0.0160847
643.915	0.0162709
643.994	0.0162926
644.072	0.0162871
644.150	0.0163599
644.228	0.0161938
644.306	0.0162196
644.384	0.0163177
644.462	0.0162858
644.540	0.0162476
644.619	0.0160802
644.697	0.0161957
644.775	0.0163732
644.853	0.0161687
644.931	0.0161986
645.009	0.0163112
645.087	0.0161745
645.165	0.0161985
645.244	0.0162397
645.322	0.0161931
645.400	0.0163187
645.478	0.0161993
645.556	0.0161752
645.634	0.0162018
645.712	0.0161373
645.790	0.0162514
645.869	0.0162629
645.947	0.0161042
646.025	0.0161599
646.103	0.0162438
646.181	0.0161858
646.259	0.0162005
646.337	0.0162160
646.415	0.0161355
646.494	0.0161681
646.572	0.0161607
646.650	0.0161736
646.728	0.0162100
646.806	0.0161952
646.884	0.0161364
646.962	0.0162402
647.040	0.0161362
647.119	0.0162298
647.197	0.0161964
647.275	0.0162197
647.353	0.0161618
647.431	0.0161610
647.509	0.0162322
647.587	0.0162589
647.665	0.0161776
647.744	0.0162862
647.822	0.0163046
647.900	0.0161612
647.978	0.0162261
648.056	0.0161992
648.134	0.0161159
648.212	0.0162511
648.290	0.0161819
648.369	0.0161676
648.447	0.0160384
648.525	0.0162183
648.603	0.0162766
648.681	0.0161285
648.759	0.0162800
648.837	0.0161479
648.915	0.0161014
648.994	0.0160309
649.072	0.0161486
649.150	0.0162497
649.228	0.0162308
649.306	0.0161982
649.384	0.0161283
649.462	0.0162666
649.540	0.0161152
649.619	0.0160828
649.697	0.0162089
649.775	0.0162669
649.853	0.0162659
649.931	0.0161365
650.009	0.0162539
650.087	0.0161038
650.165	0.0160776
650.244	0.0162135
650.322	0.0160547
650.400	0.0161195
650.478	0.0161237
650.556	0.0159850
650.634	0.0161085
650.712	0.0160999
650.790	0.0161904
650.869	0.0162283
650.947	0.0163572
651.025	0.0161598
651.103	0.0160065
651.181	0.0160446
651.259	0.0162073
651.337	0.0161851
651.415	0.0161366
651.494	0.0161994
651.572	0.0161588
651.650	0.0161444
651.728	0.0160905
651.806	0.0161481
651.884	0.0162307
651.962	0.0163038
652.040	0.0161645
652.119	0.0162219
652.197	0.0163333
652.275	0.0161401
652.353	0.0162440
652.431	0.0161230
652.509	0.0162337
652.587	0.0162332
652.665	0.0161589
652.744	0.0160278
652.822	0.0161986
652.900	0.0161811
652.978	0.0160796
653.056	0.0160960
653.134	0.0163016
653.212	0.0161950
653.290	0.0161384
653.369	0.0161790
653.447	0.0161006
653.525	0.0161722
653.603	0.0163002
653.681	0.0161367
653.759	0.0162276
653.837	0.0163328
653.915	0.0162183
653.994	0.0162746
654.072	0.0162013
654.150	0.0161745
654.228	0.0161390
654.306	0.0161350
654.384	0.0161498
654.462	0.0162397
654.540	0.0162241
654.619	0.0163308
654.697	0.0163916
654.775	0.0160973
654.853	0.0161554
654.931	0.0162576
655.009	0.0162357
655.087	0.0161494
655.165	0.0162815
655.244	0.0161916
655.322	0.0162147
655.400	0.0162715
655.478	0.0161880
655.556	0.0161955
655.634	0.0162281
655.712	0.0161917
655.790	0.0161628
655.869	0.0163027
655.947	0.0161449
656.025	0.0163132
656.103	0.0162922
656.181	0.0161258
656.259	0.0161228
656.337	0.0162053
656.415	0.0163074
656.494	0.0161232
656.572	0.0162440
656.650	0.0160753
656.728	0.0161343
656.806	0.0162387
656.884	0.0160217
656.962	0.0161755
657.040	0.0161425
657.119	0.0162865
657.197	0.0161958
657.275	0.0161649
657.353	0.0162292
657.431	0.0161669
657.509	0.0162048
657.587	0.0161137
657.665	0.0162051
657.744	0.0161237
657.822	0.0162084
657.900	0.0161400
657.978	0.0162463
658.056	0.0163578
658.134	0.0161141
658.212	0.0160918
658.290	0.0162563
658.369	0.0162492
658.447	0.0162997
658.525	0.0162090
658.603	0.0162319
658.681	0.0161784
658.759	0.0162459
658.837	0.0161153
658.915	0.0162995
658.994	0.0161695
659.072	0.0162749
659.150	0.0162602
659.228	0.0162734
659.306	0.0161335
659.384	0.0160609
659.462	0.0163141
659.540	0.0161497
659.619	0.0162418
659.697	0.0163448
659.775	0.0161767
659.853	0.0162337
659.931	0.0163264
660.009	0.0162425
660.087	0.0162921
660.165	0.0162154
660.244	0.0162170
660.322	0.0162592
660.400	0.0161066
660.478	0.0161066
660.556	0.0162342
660.634	0.0163181
660.712	0.0161826
660.790	0.0161702
660.869	0.0161700
660.947	0.0162523
661.025	0.0161488
661.103	0.0161552
661.181	0.0161629
661.259	0.0162787
661.337	0.0162014
661.415	0.0163181
661.494	0.0162186
661.572	0.0162196
661.650	0.0163425
661.728	0.0163300
661.806	0.0162629
661.884	0.0162997
661.962	0.0163141
662.040	0.0160851
662.119	0.0161472
662.197	0.0161622
662.275	0.0161954
662.353	0.0161299
662.431	0.0161843
662.509	0.0161652
662.587	0.0161320
662.665	0.0162299
662.744	0.0162241
662.822	0.0161833
662.900	0.0162132
662.978	0.0161313
663.056	0.0162566
663.134	0.0161269
663.212	0.0160961
663.290	0.0162630
663.369	0.0161573
663.447	0.0162689
663.525	0.0160872
663.603	0.0161994
663.681	0.0162460
663.759	0.0162061
663.837	0.0161849
663.915	0.0162959
663.994	0.0162219
664.072	0.0162325
664.150	0.0162537
664.228	0.0162233
664.306	0.0163309
664.384	0.0163400
664.462	0.0161285
664.540	0.0162495
664.619	0.0162725
664.697	0.0162811
664.775	0.0162023
664.853	0.0161386
664.931	0.0162548
665.009	0.0162732
665.087	0.0162425
665.165	0.0164169
665.244	0.0162021
665.322	0.0161259
665.400	0.0161943
665.478	0.0162411
665.556	0.0161633
665.634	0.0161138
665.712	0.0160606
665.790	0.0162453
665.869	0.0163149
665.947	0.0162962
666.025	0.0162218
666.103	0.0162339
666.181	0.0163114
666.259	0.0163098
666.337	0.0163827
666.415	0.0162102
666.494	0.0162036
666.572	0.0162800
666.650	0.0163155
666.728	0.0160874
666.806	0.0162271
666.884	0.0161930
666.962	0.0161853
667.040	0.0161706
667.119	0.0162204
667.197	0.0161926
667.275	0.0161977
667.353	0.0161727
667.431	0.0162312
667.509	0.0162232
667.587	0.0162871
667.665	0.0162332
667.744	0.0161781
667.822	0.0162235
667.900	0.0162454
667.978	0.0162553
668.056	0.0161776
668.134	0.0163358
668.212	0.0163461
668.290	0.0163184
668.369	0.0162498
668.447	0.0161716
668.525	0.0162328
668.603	0.0162276
668.681	0.0162575
668.759	0.0163721
668.837	0.0163244
668.915	0.0162270
668.994	0.0164153
669.072	0.0163624
669.150	0.0162193
669.228	0.0163651
669.306	0.0162984
669.384	0.0163041
669.462	0.0162591
669.540	0.0162523
669.619	0.0162260
669.697	0.0162451
669.775	0.0162187
669.853	0.0165287
669.931	0.0164077
670.009	0.0162646
670.087	0.0163647
670.165	0.0162598
670.244	0.0164711
670.322	0.0163284
670.400	0.0163308
670.478	0.0164117
670.556	0.0164362
670.634	0.0162564
670.712	0.0162879
670.790	0.0162656
670.869	0.0162533
670.947	0.0162199
671.025	0.0163199
671.103	0.0163406
671.181	0.0161317
671.259	0.0160064
671.337	0.0161729
671.415	0.0162854
671.494	0.0161681
671.572	0.0162699
671.650	0.0162354
671.728	0.0161355
671.806	0.0162563
671.884	0.0162453
671.962	0.0161873
672.040	0.0163569
672.119	0.0162971
672.197	0.0162642
672.275	0.0163312
672.353	0.0163598
672.431	0.0163897
672.509	0.0163413
672.587	0.0162100
672.665	0.0162993
672.744	0.0164873
672.822	0.0163258
672.900	0.0163457
672.978	0.0162788
673.056	0.0162108
673.134	0.0161248
673.212	0.0160793
673.290	0.0159998
673.369	0.0159711
673.447	0.0160574
673.525	0.0161956
673.603	0.0159747
673.681	0.0160396
673.759	0.0160458
673.837	0.0159499
673.915	0.0160068
673.994	0.0160947
674.072	0.0160716
674.150	0.0160732
674.228	0.0161667
674.306	0.0160275
674.384	0.0162383
674.462	0.0162025
674.540	0.0162096
674.619	0.0160562
674.697	0.0162479
674.775	0.0162155
674.853	0.0162385
674.931	0.0162538
675.009	0.0162001
675.087	0.0162486
675.165	0.0160950
675.244	0.0160255
675.322	0.0159288
675.400	0.0159512
675.478	0.0160641
675.556	0.0160249
675.634	0.0161971
675.712	0.0160600
675.790	0.0160039
675.869	0.0161571
675.947	0.0160820
676.025	0.0161426
676.103	0.0161940
676.181	0.0161479
676.259	0.0160646
676.337	0.0161763
676.415	0.0163404
676.494	0.0162679
676.572	0.0163026
676.650	0.0163232
676.728	0.0163771
676.806	0.0164206
676.884	0.0164035
676.962	0.0163660
677.040	0.0164579
677.119	0.0164753
677.197	0.0164497
677.275	0.0164368
677.353	0.0163429
677.431	0.0163512
677.509	0.0163358
677.587	0.0163314
677.665	0.0161243
677.744	0.0160994
677.822	0.0161173
677.900	0.0163071
677.978	0.0160333
678.056	0.0161526
678.134	0.0161180
678.212	0.0160311
678.290	0.0160940
678.369	0.0161545
678.447	0.0162709
678.525	0.0163203
678.603	0.0160918
678.681	0.0164286
678.759	0.0163657
678.837	0.0164663
678.915	0.0164347
678.994	0.0164603
679.072	0.0164120
679.150	0.0164422
679.228	0.0165146
679.306	0.0164207
679.384	0.0163068
679.462	0.0163343
679.540	0.0162415
679.619	0.0161516
679.697	0.0163567
679.775	0.0161510
679.853	0.0160641
679.931	0.0161790
680.009	0.0160195
680.087	0.0159239
680.165	0.0159825
680.244	0.0160497
680.322	0.0160328
680.400	0.0157645
680.478	0.0159031
680.556	0.0160223
680.634	0.0159103
680.712	0.0160169
680.790	0.0160861
680.869	0.0159676
680.947	0.0159537
681.025	0.0160966
681.103	0.0162048
681.181	0.0163000
681.259	0.0161712
681.337	0.0161773
681.415	0.0161062
681.494	0.0160703
681.572	0.0161771
681.650	0.0159642
681.728	0.0158964
681.806	0.0160338
681.884	0.0160457
681.962	0.0159894
682.040	0.0160349
682.119	0.0158669
682.197	0.0159277
682.275	0.0158543
682.353	0.0158398
682.431	0.0160145
682.509	0.0158761
682.587	0.0158584
682.665	0.0158288
682.744	0.0157422
682.822	0.0159371
682.900	0.0159391
682.978	0.0160509
683.056	0.0159174
683.134	0.0158965
683.212	0.0159042
683.290	0.0158996
683.369	0.0160278
683.447	0.0160738
683.525	0.0160748
683.603	0.0161182
683.681	0.0161448
683.759	0.0160789
683.837	0.0162700
683.915	0.0163273
683.994	0.0162406
684.072	0.0162326
684.150	0.0162411
684.228	0.0162791
684.306	0.0163164
684.384	0.0162747
684.462	0.0161475
684.540	0.0163733
684.619	0.0162797
684.697	0.0163428
684.775	0.0163836
684.853	0.0164674
684.931	0.0163525
685.009	0.0163632
685.087	0.0165269
685.165	0.0165932
685.244	0.0165984
685.322	0.0167342
685.400	0.0166656
685.478	0.0167057
685.556	0.0166729
685.634	0.0168344
685.712	0.0166003
685.790	0.0166250
685.869	0.0167596
685.947	0.0165606
686.025	0.0164997
686.103	0.0164055
686.181	0.0163961
686.259	0.0162286
686.337	0.0161078
686.415	0.0159185
686.494	0.0157929
686.572	0.0158390
686.650	0.0155003
686.728	0.0155402
686.806	0.0155002
686.884	0.0154713
686.962	0.0153014
687.040	0.0154104
687.119	0.0153716
687.197	0.0153161
687.275	0.0152530
687.353	0.0153854
687.431	0.0155440
687.509	0.0157637
687.587	0.0158733
687.665	0.0159065
687.744	0.0160769
687.822	0.0162897
687.900	0.0163869
687.978	0.0165228
688.056	0.0165810
688.134	0.0167640
688.212	0.0168320
688.290	0.0169029
688.369	0.0170241
688.447	0.0170868
688.525	0.0169824
688.603	0.0171581
688.681	0.0172076
688.759	0.0171086
688.837	0.0172729
688.915	0.0172198
688.994	0.0172465
689.072	0.0172166
689.150	0.0172684
689.228	0.0172914
689.306	0.0172255
689.384	0.0170447
689.462	0.0170116
689.540	0.0171674
689.619	0.0168623
689.697	0.0167396
689.775	0.0167833
689.853	0.0166212
689.931	0.0166930
690.009	0.0165647
690.087	0.0164172
690.165	0.0163432
690.244	0.0161685
690.322	0.0160018
690.400	0.0159739
690.478	0.0161302
690.556	0.0158620
690.634	0.0156870
690.712	0.0156523
690.790	0.0155396
690.869	0.0154193
690.947	0.0154153
691.025	0.0152086
691.103	0.0149514
691.181	0.0148141
691.259	0.0148158
691.337	0.0148141
691.415	0.0147414
691.494	0.0146878
691.572	0.0147356
691.650	0.0146802
691.728	0.0147649
691.806	0.0148763
691.884	0.0149665
691.962	0.0152612
692.040	0.0153676
692.119	0.0154567
692.197	0.0156665
692.275	0.0158127
692.353	0.0158681
692.431	0.0159331
692.509	0.0163148
692.587	0.0164699
692.665	0.0164064
692.744	0.0167676
692.822	0.0169228
692.900	0.0170860
692.978	0.0170779
693.056	0.0172261
693.134	0.0175279
693.212	0.0175207
693.290	0.0176090
693.369	0.0175091
693.447	0.0175584
693.525	0.0175490
693.603	0.0174525
693.681	0.0173851
693.759	0.0173566
693.837	0.0173811
693.915	0.0172313
693.994	0.0173886
694.072	0.0172710
694.150	0.0172664
694.228	0.0171655
694.306	0.0170448
694.384	0.0170071
694.462	0.0169659
694.540	0.0167976
694.619	0.0167741
694.697	0.0166280
694.775	0.0165173
694.853	0.0164663
694.931	0.0163226
695.009	0.0161929
695.087	0.0161932
695.165	0.0160522
695.244	0.0159332
695.322	0.0158275
695.400	0.0158543
695.478	0.0158703
695.556	0.0156470
695.634	0.0156133
695.712	0.0154765
695.790	0.0153312
695.869	0.0152836
695.947	0.0152413
696.025	0.0152258
696.103	0.0152456
696.181	0.0152162
696.259	0.0151081
696.337	0.0151711
696.415	0.0152999
696.494	0.0153141
696.572	0.0153465
696.650	0.0152492
696.728	0.0153967
696.806	0.0154675
696.884	0.0155063
696.962	0.0156718
697.040	0.0156419
697.119	0.0156916
697.197	0.0157703
697.275	0.0158384
697.353	0.0158383
697.431	0.0158400
697.509	0.0159081
697.587	0.0158847
697.665	0.0160495
697.744	0.0161102
697.822	0.0161802
697.900	0.0161799
697.978	0.0163676
698.056	0.0164565
698.134	0.0165079
698.212	0.0165389
698.290	0.0166068
698.369	0.0164943
698.447	0.0165105
698.525	0.0165234
698.603	0.0163754
698.681	0.0163934
698.759	0.0162576
698.837	0.0162582
698.915	0.0163564
698.994	0.0164652
699.072	0.0164224
699.150	0.0163835
699.228	0.0163448
699.306	0.0165018
699.384	0.0164902
699.462	0.0166570
699.540	0.0165719
699.619	0.0168093
699.697	0.0167402
699.775	0.0167170
699.853	0.0168459
699.931	0.0168370
700.009	0.0170152
700.087	0.0171335
700.165	0.0171001
700.244	0.0171091
700.322	0.0170721
700.400	0.0169708
700.478	0.0170258
700.556	0.0170647
700.634	0.0170013
700.712	0.0167378
700.790	0.0166294
700.869	0.0166947
700.947	0.0164659
701.025	0.0163891
701.103	0.0162809
701.181	0.0160802
701.259	0.0160242
701.337	0.0158589
701.415	0.0157140
701.494	0.0156564
701.572	0.0154347
701.650	0.0153357
701.728	0.0152002
701.806	0.0152412
701.884	0.0150938
701.962	0.0149896
702.040	0.0149909
702.119	0.0150269
702.197	0.0148735
702.275	0.0147476
702.353	0.0147148
702.431	0.0148068
702.509	0.0149096
702.587	0.0150531
702.665	0.0150142
702.744	0.0150542
702.822	0.0151075
702.900	0.0153761
702.978	0.0153024
703.056	0.0155367
703.134	0.0155637
703.212	0.0155257
703.290	0.0156973
703.369	0.0158273
703.447	0.0156895
703.525	0.0158356
703.603	0.0157388
703.681	0.0157195
703.759	0.0158848
703.837	0.0159555
703.915	0.0162695
703.994	0.0164056
704.072	0.0164174
704.150	0.0166411
704.228	0.0167309
704.306	0.0168362
704.384	0.0168835
704.462	0.0169588
704.540	0.0170634
704.619	0.0169890
704.697	0.0171088
704.775	0.0170358
704.853	0.0169985
704.931	0.0170050
705.009	0.0170773
705.087	0.0170524
705.165	0.0170761
705.244	0.0170077
705.322	0.0169878
705.400	0.0171174
705.478	0.0170757
705.556	0.0169595
705.634	0.0169120
705.712	0.0168886
705.790	0.0172073
705.869	0.0170402
705.947	0.0169960
706.025	0.0169518
706.103	0.0169648
706.181	0.0169347
706.259	0.0167809
706.337	0.0168405
706.415	0.0168611
706.494	0.0168001
706.572	0.0167346
706.650	0.0166441
706.728	0.0163854
706.806	0.0166424
706.884	0.0163920
706.962	0.0161464
707.040	0.0161158
707.119	0.0161245
707.197	0.0160563
707.275	0.0158424
707.353	0.0158963
707.431	0.0156526
707.509	0.0157680
707.587	0.0156370
707.665	0.0156810
707.744	0.0156377
707.822	0.0154877
707.900	0.0154136
707.978	0.0152997
708.056	0.0150734
708.134	0.0151970
708.212	0.0150965
708.290	0.0149750
708.369	0.0149099
708.447	0.0150641
708.525	0.0149853
708.603	0.0149008
708.681	0.0149673
708.759	0.0150932
708.837	0.0151561
708.915	0.0153334
708.994	0.0153577
709.072	0.0155035
709.150	0.0156800
709.228	0.0157622
709.306	0.0159122
709.384	0.0159925
709.462	0.0160735
709.540	0.0162124
709.619	0.0163213
709.697	0.0162920
709.775	0.0164090
709.853	0.0165228
709.931	0.0165545
710.009	0.0165826
710.087	0.0166993
710.165	0.0166889
710.244	0.0167484
710.322	0.0168914
710.400	0.0170731
710.478	0.0171201
710.556	0.0170696
710.634	0.0169755
710.712	0.0169922
710.790	0.0171483
710.869	0.0171532
710.947	0.0170750
711.025	0.0169543
711.103	0.0168340
711.181	0.0168837
711.259	0.0168484
711.337	0.0167670
711.415	0.0167389
711.494	0.0166901
711.572	0.0167364
711.650	0.0167084
711.728	0.0167910
711.806	0.0167056
711.884	0.0167520
711.962	0.0167123
712.040	0.0168318
712.119	0.0167513
712.197	0.0169194
712.275	0.0167815
712.353	0.0168600
712.431	0.0167461
712.509	0.0169191
712.587	0.0168060
712.665	0.0166190
712.744	0.0165242
712.822	0.0164155
712.900	0.0164773
712.978	0.0164224
713.056	0.0163017
713.134	0.0162776
713.212	0.0162032
713.290	0.0159848
713.369	0.0157095
713.447	0.0158073
713.525	0.0157006
713.603	0.0156910
713.681	0.0155680
713.759	0.0154978
713.837	0.0155166
713.915	0.0154695
713.994	0.0154124
714.072	0.0154281
714.150	0.0154427
714.228	0.0152085
714.306	0.0151598
714.384	0.0153368
714.462	0.0152451
714.540	0.0151974
714.619	0.0153154
714.697	0.0153543
714.775	0.0152549
714.853	0.0153062
714.931	0.0154142
715.009	0.0153881
715.087	0.0153653
715.165	0.0157104
715.244	0.0157517
715.322	0.0156961
715.400	0.0159516
715.478	0.0159386
715.556	0.0160986
715.634	0.0162784
715.712	0.0162736
715.790	0.0164424
715.869	0.0163111
715.947	0.0165571
716.025	0.0167242
716.103	0.0166654
716.181	0.0166077
716.259	0.0168661
716.337	0.0168393
716.415	0.0168490
716.494	0.0169245
716.572	0.0170884
716.650	0.0168897
716.728	0.0169487
716.806	0.0169136
716.884	0.0169218
716.962	0.0166772
717.040	0.0167621
717.119	0.0167589
717.197	0.0168158
717.275	0.0166001
717.353	0.0166175
717.431	0.0165945
717.509	0.0166042
717.587	0.0166203
717.665	0.0164981
717.744	0.0164990
717.822	0.0162979
717.900	0.0163674
717.978	0.0163805
718.056	0.0161687
718.134	0.0162798
718.212	0.0162920
718.290	0.0162970
718.369	0.0161829
718.447	0.0162138
718.525	0.0163602
718.603	0.0162793
718.681	0.0163372
718.759	0.0163403
718.837	0.0163757
718.915	0.0165642
718.994	0.0165096
719.072	0.0165218
719.150	0.0164896
719.228	0.0164155
719.306	0.0163863
719.384	0.0162473
719.462	0.0162362
719.540	0.0162087
719.619	0.0160278
719.697	0.0158738
719.775	0.0160472
719.853	0.0158685
719.931	0.0156472
720.009	0.0156784
720.087	0.0156827
720.165	0.0156568
720.244	0.0157101
720.322	0.0155255
720.400	0.0155896
720.478	0.0156245
720.556	0.0155602
720.634	0.0154710
720.712	0.0155452
720.790	0.0156108
720.869	0.0155521
720.947	0.0156949
721.025	0.0156311
721.103	0.0157479
721.181	0.0157170
721.259	0.0157850
721.337	0.0158549
721.415	0.0158752
721.494	0.0160117
721.572	0.0160362
721.650	0.0159933
721.728	0.0159844
721.806	0.0161411
721.884	0.0162164
721.962	0.0162219
722.040	0.0163223
722.119	0.0163303
722.197	0.0162303
722.275	0.0164613
722.353	0.0165240
722.431	0.0164832
722.509	0.0166098
722.587	0.0166261
722.665	0.0166176
722.744	0.0165671
722.822	0.0166253
722.900	0.0166022
722.978	0.0165962
723.056	0.0167370
723.134	0.0166048
723.212	0.0164220
723.290	0.0165527
723.369	0.0164567
723.447	0.0164187
723.525	0.0163232
723.603	0.0161868
723.681	0.0163438
723.759	0.0162775
723.837	0.0162360
723.915	0.0160519
723.994	0.0159278
724.072	0.0158379
724.150	0.0158161
724.228	0.0159003
724.306	0.0158704
724.384	0.0158114
724.462	0.0159785
724.540	0.0160533
724.619	0.0160120
724.697	0.0160915
724.775	0.0161168
724.853	0.0162913
724.931	0.0163708
725.009	0.0164588
725.087	0.0163763
725.165	0.0165247
725.244	0.0163053
725.322	0.0164815
725.400	0.0165909
725.478	0.0165462
725.556	0.0164185
725.634	0.0164015
725.712	0.0165182
725.790	0.0166475
725.869	0.0164213
725.947	0.0163746
726.025	0.0161739
726.103	0.0163531
726.181	0.0162944
726.259	0.0160150
726.337	0.0160220
726.415	0.0161378
726.494	0.0160691
726.572	0.0161300
726.650	0.0159902
726.728	0.0160182
726.806	0.0159129
726.884	0.0157450
726.962	0.0158549
727.040	0.0157783
727.119	0.0157797
727.197	0.0158697
727.275	0.0157632
727.353	0.0158710
727.431	0.0159342
727.509	0.0158003
727.587	0.0157455
727.665	0.0158752
727.744	0.0158774
727.822	0.0159653
727.900	0.0159697
727.978	0.0158735
728.056	0.0159773
728.134	0.0160806
728.212	0.0161191
728.290	0.0163205
728.369	0.0162344
728.447	0.0162695
728.525	0.0161131
728.603	0.0161469
728.681	0.0162379
728.759	0.0163108
728.837	0.0163574
728.915	0.0162737
728.994	0.0164730
729.072	0.0163577
729.150	0.0165113
729.228	0.0163418
729.306	0.0165546
729.384	0.0162799
729.462	0.0162210
729.540	0.0163717
729.619	0.0164336
729.697	0.0162982
729.775	0.0163193
729.853	0.0162533
729.931	0.0162243
730.009	0.0162513
730.087	0.0162372
730.165	0.0161507
730.244	0.0160807
730.322	0.0159967
730.400	0.0161320
730.478	0.0160286
730.556	0.0161446
730.634	0.0160649
730.712	0.0159828
730.790	0.0159515
730.869	0.0160591
730.947	0.0160788
731.025	0.0159401
731.103	0.0160698
731.181	0.0160704
731.259	0.0159628
731.337	0.0162295
731.415	0.0161935
731.494	0.0161951
731.572	0.0163461
731.650	0.0162001
731.728	0.0163476
731.806	0.0163571
731.884	0.0163799
731.962	0.0165299
732.040	0.0164960
732.119	0.0165226
732.197	0.0164794
732.275	0.0163946
732.353	0.0164653
732.431	0.0163396
732.509	0.0165383
732.587	0.0164159
732.665	0.0162948
732.744	0.0161987
732.822	0.0162614
732.900	0.0161279
732.978	0.0160507
733.056	0.0161299
733.134	0.0159903
733.212	0.0159260
733.290	0.0161013
733.369	0.0159335
733.447	0.0158759
733.525	0.0159116
733.603	0.0160127
733.681	0.0159864
733.759	0.0160809
733.837	0.0160476
733.915	0.0161247
733.994	0.0159964
734.072	0.0160286
734.150	0.0161211
734.228	0.0162412
734.306	0.0161503
734.384	0.0162328
734.462	0.0162138
734.540	0.0163261
734.619	0.0163757
734.697	0.0162083
734.775	0.0162437
734.853	0.0163827
734.931	0.0163574
735.009	0.0164267
735.087	0.0163932
735.165	0.0164320
735.244	0.0164363
735.322	0.0163632
735.400	0.0162846
735.478	0.0163334
735.556	0.0162888
735.634	0.0162267
735.712	0.0162243
735.790	0.0161514
735.869	0.0159917
735.947	0.0162379
736.025	0.0161337
736.103	0.0162224
736.181	0.0161620
736.259	0.0162441
736.337	0.0161265
736.415	0.0160989
736.494	0.0163522
736.572	0.0162683
736.650	0.0162522
736.728	0.0160841
736.806	0.0161946
736.884	0.0161893
736.962	0.0161811
737.040	0.0161131
737.119	0.0162719
737.197	0.0161198
737.275	0.0162007
737.353	0.0161285
737.431	0.0160803
737.509	0.0161530
737.587	0.0160691
737.665	0.0158924
737.744	0.0160573
737.822	0.0160564
737.900	0.0161424
737.978	0.0160750
738.056	0.0161128
738.134	0.0160006
738.212	0.0161716
738.290	0.0162476
738.369	0.0163412
738.447	0.0163589
738.525	0.0164135
738.603	0.0163953
738.681	0.0164162
738.759	0.0165267
738.837	0.0164978
738.915	0.0164629
738.994	0.0166400
739.072	0.0165189
739.150	0.0164339
739.228	0.0164087
739.306	0.0165041
739.384	0.0164098
739.462	0.0164310
739.540	0.0164629
739.619	0.0164005
739.697	0.0162480
739.775	0.0163120
739.853	0.0161335
739.931	0.0163699
740.009	0.0162675
740.087	0.0162016
740.165	0.0162172
740.244	0.0161684
740.322	0.0161732
740.400	0.0161558
740.478	0.0162376
740.556	0.0160945
740.634	0.0163170
740.712	0.0160986
740.790	0.0161280
740.869	0.0162278
740.947	0.0162723
741.025	0.0161742
741.103	0.0162305
741.181	0.0163266
741.259	0.0163744
741.337	0.0162871
741.415	0.0162872
741.494	0.0162937
741.572	0.0163273
741.650	0.0163792
741.728	0.0162926
741.806	0.0163130
741.884	0.0163241
741.962	0.0162141
742.040	0.0161189
742.119	0.0162328
742.197	0.0160291
742.275	0.0160330
742.353	0.0161363
742.431	0.0160301
742.509	0.0160355
742.587	0.0159526
742.665	0.0160509
742.744	0.0159840
742.822	0.0159388
742.900	0.0160506
742.978	0.0158832
743.056	0.0158747
743.134	0.0160390
743.212	0.0160679
743.290	0.0161447
743.369	0.0161478
743.447	0.0159594
743.525	0.0162323
743.603	0.0162688
743.681	0.0162188
743.759	0.0161909
743.837	0.0162795
743.915	0.0163888
743.994	0.0163136
744.072	0.0161475
744.150	0.0160909
744.228	0.0160907
744.306	0.0160757
744.384	0.0161515
744.462	0.0160643
744.540	0.0160589
744.619	0.0160986
744.697	0.0160115
744.775	0.0161129
744.853	0.0161080
744.931	0.0160805
745.009	0.0161396
745.087	0.0162791
745.165	0.0161311
745.244	0.0162354
745.322	0.0162250
745.400	0.0161496
745.478	0.0161442
745.556	0.0161893
745.634	0.0162193
745.712	0.0162976
745.790	0.0163321
745.869	0.0162318
745.947	0.0163358
746.025	0.0162796
746.103	0.0162734
746.181	0.0161993
746.259	0.0163067
746.337	0.0162549
746.415	0.0162906
746.494	0.0162484
746.572	0.0162812
746.650	0.0161159
746.728	0.0160771
746.806	0.0161045
746.884	0.0162381
746.962	0.0160980
747.040	0.0160233
747.119	0.0161954
747.197	0.0160751
747.275	0.0160625
747.353	0.0162013
747.431	0.0160231
747.509	0.0162553
747.587	0.0161704
747.665	0.0160501
747.744	0.0161343
747.822	0.0161335
747.900	0.0161418
747.978	0.0164948
748.056	0.0161936
748.134	0.0162950
748.212	0.0162203
748.290	0.0162341
748.369	0.0162013
748.447	0.0163252
748.525	0.0161983
748.603	0.0162235
748.681	0.0162223
748.759	0.0161616
748.837	0.0162615
748.915	0.0161423
748.994	0.0159863
749.072	0.0160927
749.150	0.0161900
749.228	0.0161275
749.306	0.0160667
749.384	0.0160759
749.462	0.0161016
749.540	0.0160274
749.619	0.0159608
749.697	0.0160860
749.775	0.0160732
749.853	0.0161029
749.931	0.0160650
750.009	0.0161475
750.087	0.0161411
750.165	0.0162296
750.244	0.0160741
750.322	0.0161229
750.400	0.0160998
750.478	0.0161940
750.556	0.0162922
750.634	0.0161311
750.712	0.0162705
750.790	0.0162283
750.869	0.0163023
750.947	0.0161699
751.025	0.0162329
751.103	0.0161929
751.181	0.0161652
751.259	0.0161997
751.337	0.0161360
751.415	0.0161913
751.494	0.0161280
751.572	0.0161380
751.650	0.0161147
751.728	0.0161900
751.806	0.0160917
751.884	0.0161302
751.962	0.0163307
752.040	0.0162935
752.119	0.0161485
752.197	0.0161224
752.275	0.0162517
752.353	0.0161675
752.431	0.0162054
752.509	0.0163083
752.587	0.0162239
752.665	0.0163077
752.744	0.0162998
752.822	0.0161496
752.900	0.0162520
752.978	0.0162818
753.056	0.0161127
753.134	0.0163298
753.212	0.0162765
753.290	0.0161299
753.369	0.0161551
753.447	0.0161533
753.525	0.0161890
753.603	0.0162527
753.681	0.0161832
753.759	0.0161182
753.837	0.0162067
753.915	0.0161679
753.994	0.0161633
754.072	0.0163278
754.150	0.0161951
754.228	0.0161364
754.306	0.0161395
754.384	0.0161334
754.462	0.0162261
754.540	0.0162151
754.619	0.0162800
754.697	0.0160825
754.775	0.0161160
754.853	0.0162074
754.931	0.0162508
755.009	0.0162760
755.087	0.0162522
755.165	0.0161743
755.244	0.0163569
755.322	0.0162814
755.400	0.0162492
755.478	0.0162897
755.556	0.0162941
755.634	0.0161570
755.712	0.0161225
755.790	0.0161715
755.869	0.0160962
755.947	0.0160216
756.025	0.0161270
756.103	0.0160229
756.181	0.0160735
756.259	0.0160684
756.337	0.0159548
756.415	0.0160429
756.494	0.0161177
756.572	0.0159651
756.650	0.0160002
756.728	0.0159792
756.806	0.0161126
756.884	0.0160216
756.962	0.0161662
757.040	0.0161919
757.119	0.0161880
757.197	0.0161617
757.275	0.0161330
757.353	0.0161325
757.431	0.0162713
757.509	0.0162651
757.587	0.0161283
757.665	0.0161667
757.744	0.0162281
757.822	0.0162586
757.900	0.0162510
757.978	0.0163406
758.056	0.0162788
758.134	0.0163163
758.212	0.0162388
758.290	0.0162096
758.369	0.0161446
758.447	0.0161233
758.525	0.0160752
758.603	0.0161697
758.681	0.0161492
758.759	0.0162003
758.837	0.0161742
758.915	0.0162517
758.994	0.0161890
759.072	0.0162065
759.150	0.0162761
759.228	0.0161728
759.306	0.0163436
759.384	0.0162098
759.462	0.0163709
759.540	0.0162509
759.619	0.0162273
759.697	0.0163015
759.775	0.0163953
759.853	0.0162181
759.931	0.0162940
760.009	0.0162608
760.087	0.0161572
760.165	0.0163059
760.244	0.0164180
760.322	0.0160976
760.400	0.0162478
760.478	0.0161474
760.556	0.0161975
760.634	0.0163419
760.712	0.0162299
760.790	0.0163525
760.869	0.0161909
760.947	0.0163367
761.025	0.0163173
761.103	0.0162332
761.181	0.0163274
761.259	0.0164064
761.337	0.0163011
761.415	0.0163631
761.494	0.0162486
761.572	0.0163877
761.650	0.0161974
761.728	0.0162171
761.806	0.0163262
761.884	0.0162632
761.962	0.0163615
762.040	0.0163213
762.119	0.0161908
762.197	0.0162466
762.275	0.0163282
762.353	0.0162511
762.431	0.0162958
762.509	0.0161890
762.587	0.0162429
762.665	0.0161357
762.744	0.0163209
762.822	0.0161813
762.900	0.0162939
762.978	0.0163197
763.056	0.0161198
763.134	0.0160796
763.212	0.0159884
763.290	0.0161261
763.369	0.0161813
763.447	0.0160924
763.525	0.0161001
763.603	0.0161371
763.681	0.0162853
763.759	0.0161761
763.837	0.0161356
763.915	0.0161400
763.994	0.0161086
764.072	0.0161353
764.150	0.0162908
764.228	0.0162825
764.306	0.0163409
764.384	0.0164063
764.462	0.0162746
764.540	0.0163017
764.619	0.0164372
764.697	0.0163118
764.775	0.0162820
764.853	0.0162272
764.931	0.0163517
765.009	0.0164241
765.087	0.0163507
765.165	0.0163232
765.244	0.0163080
765.322	0.0161497
765.400	0.0162926
765.478	0.0162560
765.556	0.0161635
765.634	0.0162486
765.712	0.0162032
765.790	0.0161717
765.869	0.0162298
765.947	0.0162220
766.025	0.0162341
766.103	0.0162852
766.181	0.0161514
766.259	0.0163414
766.337	0.0162679
766.415	0.0163465
766.494	0.0162988
766.572	0.0164288
766.650	0.0163204
766.728	0.0164173
766.806	0.0162595
766.884	0.0162199
766.962	0.0164796
767.040	0.0162344
767.119	0.0163399
767.197	0.0161875
767.275	0.0162334
767.353	0.0162012
767.431	0.0161546
767.509	0.0162833
767.587	0.0162846
767.665	0.0163022
767.744	0.0161094
767.822	0.0162371
767.900	0.0162256
767.978	0.0162301
768.056	0.0164278
768.134	0.0162397
768.212	0.0161652
768.290	0.0162847
768.369	0.0162288
768.447	0.0162578
768.525	0.0162285
768.603	0.0162447
768.681	0.0162283
768.759	0.0162078
768.837	0.0163166
768.915	0.0163232
768.994	0.0163728
769.072	0.0162386
769.150	0.0162977
769.228	0.0162294
769.306	0.0163818
769.384	0.0163317
769.462	0.0161734
769.540	0.0163568
769.619	0.0163103
769.697	0.0162543
769.775	0.0163760
769.853	0.0162075
769.931	0.0163325
770.009	0.0164135
770.087	0.0163046
770.165	0.0161147
770.244	0.0162084
770.322	0.0160526
770.400	0.0161877
770.478	0.0161883
770.556	0.0162149
770.634	0.0162150
770.712	0.0162482
770.790	0.0162831
770.869	0.0162257
770.947	0.0161761
771.025	0.0163803
771.103	0.0161990
771.181	0.0161711
771.259	0.0161657
771.337	0.0163770
771.415	0.0161310
771.494	0.0163448
771.572	0.0161990
771.650	0.0162225
771.728	0.0163342
771.806	0.0161256
771.884	0.0163392
771.962	0.0162696
772.040	0.0161663
772.119	0.0162115
772.197	0.0162487
772.275	0.0161393
772.353	0.0163137
772.431	0.0161891
772.509	0.0162525
772.587	0.0162769
772.665	0.0162649
772.744	0.0162664
772.822	0.0162431
772.900	0.0161553
772.978	0.0161699
773.056	0.0161133
773.134	0.0162744
773.212	0.0162959
773.290	0.0160783
773.369	0.0161938
773.447	0.0162344
773.525	0.0162451
773.603	0.0162166
773.681	0.0162597
773.759	0.0161792
773.837	0.0162122
773.915	0.0161230
773.994	0.0163892
774.072	0.0161531
774.150	0.0162207
774.228	0.0161505
774.306	0.0161037
774.384	0.0159809
774.462	0.0160439
774.540	0.0161245
774.619	0.0159763
774.697	0.0160661
774.775	0.0161214
774.853	0.0162067
774.931	0.0161333
775.009	0.0161047
775.087	0.0161401
775.165	0.0161445
775.244	0.0161170
775.322	0.0163090
775.400	0.0162668
775.478	0.0162122
775.556	0.0162182
775.634	0.0162728
775.712	0.0161194
775.790	0.0162675
775.869	0.0163488
775.947	0.0163220
776.025	0.0162268
776.103	0.0163402
776.181	0.0163123
776.259	0.0162449
776.337	0.0164395
776.415	0.0162623
776.494	0.0162419
776.572	0.0161652
776.650	0.0161143
776.728	0.0162448
776.806	0.0163001
776.884	0.0161446
776.962	0.0160136
777.040	0.0162003
777.119	0.0162562
777.197	0.0162905
777.275	0.0162268
777.353	0.0162301
777.431	0.0162941
777.509	0.0164073
777.587	0.0162650
777.665	0.0162914
777.744	0.0161451
777.822	0.0162993
777.900	0.0162929
777.978	0.0162473
778.056	0.0162094
778.134	0.0162857
778.212	0.0162441
778.290	0.0163047
778.369	0.0162602
778.447	0.0161084
778.525	0.0162737
778.603	0.0163329
778.681	0.0162032
778.759	0.0161500
778.837	0.0161975
778.915	0.0162035
778.994	0.0160529
779.072	0.0162791
779.150	0.0162897
779.228	0.0161189
779.306	0.0161783
779.384	0.0160384
779.462	0.0161089
779.540	0.0160495
779.619	0.0160215
779.697	0.0160286
779.775	0.0160129
779.853	0.0160522
779.931	0.0160488
780.009	0.0161092
780.087	0.0161448
780.165	0.0161756
780.244	0.0161676
780.322	0.0160844
780.400	0.0161148
780.478	0.0161072
780.556	0.0160720
780.634	0.0162511
780.712	0.0162859
780.790	0.0160981
780.869	0.0161015
780.947	0.0161170
781.025	0.0161820
781.103	0.0161169
781.181	0.0162492
781.259	0.0161734
781.337	0.0163422
781.415	0.0162032
781.494	0.0161283
781.572	0.0162277
781.650	0.0162459
781.728	0.0162232
781.806	0.0162045
781.884	0.0163976
781.962	0.0163599
782.040	0.0163461
782.119	0.0162294
782.197	0.0161293
782.275	0.0164597
782.353	0.0161986
782.431	0.0161152
782.509	0.0162981
782.587	0.0162235
782.665	0.0161454
782.744	0.0161947
782.822	0.0161867
782.900	0.0161289
782.978	0.0162191
783.056	0.0161763
783.134	0.0161710
783.212	0.0162231
783.290	0.0161581
783.369	0.0161286
783.447	0.0162175
783.525	0.0159732
783.603	0.0161572
783.681	0.0162865
783.759	0.0160622
783.837	0.0162088
783.915	0.0161559
783.994	0.0161752
784.072	0.0162917
784.150	0.0161798
784.228	0.0162086
784.306	0.0162142
784.384	0.0160587
784.462	0.0161480
784.540	0.0160699
784.619	0.0162038
784.697	0.0162385
784.775	0.0162011
784.853	0.0161188
784.931	0.0162128
785.009	0.0162840
785.087	0.0162691
785.165	0.0162476
785.244	0.0162525
785.322	0.0162804
785.400	0.0162449
785.478	0.0163004
785.556	0.0162401
785.634	0.0162041
785.712	0.0162363
785.790	0.0162725
785.869	0.0162883
785.947	0.0162872
786.025	0.0164201
786.103	0.0163400
786.181	0.0162640
786.259	0.0163950
786.337	0.0164740
786.415	0.0163968
786.494	0.0163870
786.572	0.0162679
786.650	0.0161766
786.728	0.0162305
786.806	0.0163051
786.884	0.0163354
786.962	0.0162124
787.040	0.0162405
787.119	0.0161424
787.197	0.0162775
787.275	0.0161921
787.353	0.0160983
787.431	0.0162328
787.509	0.0161073
787.587	0.0161030
787.665	0.0163724
787.744	0.0163357
787.822	0.0161018
787.900	0.0161618
787.978	0.0161983
788.056	0.0162558
788.134	0.0161756
788.212	0.0161803
788.290	0.0161263
788.369	0.0160889
788.447	0.0160667
788.525	0.0162577
788.603	0.0160899
788.681	0.0161292
788.759	0.0162105
788.837	0.0162692
788.915	0.0161843
788.994	0.0162392
789.072	0.0162299
789.150	0.0162163
789.228	0.0162247
789.306	0.0160692
789.384	0.0161323
789.462	0.0163464
789.540	0.0163411
789.619	0.0162048
789.697	0.0162820
789.775	0.0163369
789.853	0.0162563
789.931	0.0162070
790.009	0.0163838
790.087	0.0164114
790.165	0.0165288
790.244	0.0162894
790.322	0.0163786
790.400	0.0162009
790.478	0.0164191
790.556	0.0164863
790.634	0.0163456
790.712	0.0163485
790.790	0.0163707
790.869	0.0164437
790.947	0.0164108
791.025	0.0164922
791.103	0.0163406
791.181	0.0163280
791.259	0.0163116
791.337	0.0164179
791.415	0.0161935
791.494	0.0161776
791.572	0.0161114
791.650	0.0161833
791.728	0.0162471
791.806	0.0161974
791.884	0.0161352
791.962	0.0161824
792.040	0.0161179
792.119	0.0162321
792.197	0.0161475
792.275	0.0162042
792.353	0.0161076
792.431	0.0161208
792.509	0.0162836
792.587	0.0160416
792.665	0.0160786
792.744	0.0161154
792.822	0.0161822
792.900	0.0161144
792.978	0.0161329
793.056	0.0161916
793.134	0.0161290
793.212	0.0160100
793.290	0.0162597
793.369	0.0160837
793.447	0.0162244
793.525	0.0161697
793.603	0.0162763
793.681	0.0160453
793.759	0.0161609
793.837	0.0162820
793.915	0.0162292
793.994	0.0161774
794.072	0.0161100
794.150	0.0161907
794.228	0.0161449
794.306	0.0162893
794.384	0.0161600
794.462	0.0162868
794.540	0.0163159
794.619	0.0162540
794.697	0.0163029
794.775	0.0162788
794.853	0.0163256
794.931	0.0162399
795.009	0.0162294
795.087	0.0163393
795.165	0.0163557
795.244	0.0161887
795.322	0.0162417
795.400	0.0163457
795.478	0.0162088
795.556	0.0163545
795.634	0.0164117
795.712	0.0163114
795.790	0.0162683
795.869	0.0163256
795.947	0.0163470
796.025	0.0163327
796.103	0.0161809
796.181	0.0163186
796.259	0.0163295
796.337	0.0162839
796.415	0.0161937
796.494	0.0161426
796.572	0.0162004
796.650	0.0161902
796.728	0.0162158
796.806	0.0161766
796.884	0.0161703
796.962	0.0162292
797.040	0.0161311
797.119	0.0163160
797.197	0.0162268
797.275	0.0161606
797.353	0.0160891
797.431	0.0159998
797.509	0.0160925
797.587	0.0160130
797.665	0.0161507
797.744	0.0161263
797.822	0.0160407
797.900	0.0160645
797.978	0.0160657
798.056	0.0160802
798.134	0.0160943
798.212	0.0160131
798.290	0.0160847
798.369	0.0160767
798.447	0.0161805
798.525	0.0162254
798.603	0.0160448
798.681	0.0160648
798.759	0.0161210
798.837	0.0161594
798.915	0.0160101
798.994	0.0162975
799.072	0.0162550
799.150	0.0162232
799.228	0.0161365
799.306	0.0162006
799.384	0.0161113
799.462	0.0161202
799.540	0.0161064
799.619	0.0161172
799.697	0.0160522
799.775	0.0161663
799.853	0.0162835
799.931	0.0161897
800.009	0.0161057
800.087	0.0161592
800.165	0.0161818
800.244	0.0162107
800.322	0.0161572
800.400	0.0160554
800.478	0.0161547
800.556	0.0162328
800.634	0.0160279
800.712	0.0160666
800.790	0.0160783
800.869	0.0163169
800.947	0.0162586
801.025	0.0162106
801.103	0.0162350
801.181	0.0162280
801.259	0.0162688
801.337	0.0161227
801.415	0.0161087
801.494	0.0161319
801.572	0.0161301
801.650	0.0161839
801.728	0.0163039
801.806	0.0161678
801.884	0.0163353
801.962	0.0161413
802.040	0.0163215
802.119	0.0162528
802.197	0.0162292
802.275	0.0163191
802.353	0.0162485
802.431	0.0162987
802.509	0.0163956
802.587	0.0161663
802.665	0.0161439
802.744	0.0162399
802.822	0.0161829
802.900	0.0162439
802.978	0.0161249
803.056	0.0161121
803.134	0.0162549
803.212	0.0161325
803.290	0.0161098
803.369	0.0162547
803.447	0.0160178
803.525	0.0159754
803.603	0.0160983
803.681	0.0161448
803.759	0.0161720
803.837	0.0160625
803.915	0.0160279
803.994	0.0160699
804.072	0.0159570
804.150	0.0159892
804.228	0.0159631
804.306	0.0159547
804.384	0.0160223
804.462	0.0160272
804.540	0.0159541
804.619	0.0160621
804.697	0.0161355
804.775	0.0160583
804.853	0.0160822
804.931	0.0160989
805.009	0.0159937
805.087	0.0159940
805.165	0.0160128
805.244	0.0162128
805.322	0.0161095
805.400	0.0160239
805.478	0.0158889
805.556	0.0159206
805.634	0.0161034
805.712	0.0159750
805.790	0.0159511
805.869	0.0160813
805.947	0.0161051
806.025	0.0160091
806.103	0.0161642
806.181	0.0160512
806.259	0.0159251
806.337	0.0160891
806.415	0.0161465
806.494	0.0161224
806.572	0.0162375
806.650	0.0163470
806.728	0.0161867
806.806	0.0161479
806.884	0.0161232
806.962	0.0162762
807.040	0.0161584
807.119	0.0160919
807.197	0.0161526
807.275	0.0163123
807.353	0.0161733
807.431	0.0161254
807.509	0.0161246
807.587	0.0161711
807.665	0.0162441
807.744	0.0163029
807.822	0.0161443
807.900	0.0162719
807.978	0.0161986
808.056	0.0161732
808.134	0.0163287
808.212	0.0162619
808.290	0.0161400
808.369	0.0162287
808.447	0.0162611
808.525	0.0162918
808.603	0.0162418
808.681	0.0161742
808.759	0.0161730
808.837	0.0161633
808.915	0.0162386
808.994	0.0163297
809.072	0.0161823
809.150	0.0161676
809.228	0.0162332
809.306	0.0161861
809.384	0.0163844
809.462	0.0162155
809.540	0.0162427
809.619	0.0163351
809.697	0.0162979
809.775	0.0161312
809.853	0.0161746
809.931	0.0162138
810.009	0.0163408
810.087	0.0162464
810.165	0.0160509
810.244	0.0161706
810.322	0.0161582
810.400	0.0161620
810.478	0.0160384
810.556	0.0160873
810.634	0.0160773
810.712	0.0161966
810.790	0.0160603
810.869	0.0161255
810.947	0.0160017
811.025	0.0159962
811.103	0.0159781
811.181	0.0160787
811.259	0.0159788
811.337	0.0160316
811.415	0.0158431
811.494	0.0160667
811.572	0.0161366
811.650	0.0161095
811.728	0.0159927
811.806	0.0161887
811.884	0.0162960
811.962	0.0161138
812.040	0.0160681
812.119	0.0161164
812.197	0.0161498
812.275	0.0161989
812.353	0.0162247
812.431	0.0162265
812.509	0.0163071
812.587	0.0161803
812.665	0.0161511
812.744	0.0161505
812.822	0.0162534
812.900	0.0162417
812.978	0.0163181
813.056	0.0160783
813.134	0.0161414
813.212	0.0162052
813.290	0.0161662
813.369	0.0161688
813.447	0.0162740
813.525	0.0160680
813.603	0.0160739
813.681	0.0162158
813.759	0.0162578
813.837	0.0161267
813.915	0.0161533
813.994	0.0160281
814.072	0.0161553
814.150	0.0161565
814.228	0.0163534
814.306	0.0161684
814.384	0.0163467
814.462	0.0162721
814.540	0.0162642
814.619	0.0162603
814.697	0.0163373
814.775	0.0162435
814.853	0.0162716
814.931	0.0162517
815.009	0.0163126
815.087	0.0163439
815.165	0.0163981
815.244	0.0164159
815.322	0.0164790
815.400	0.0162572
815.478	0.0162871
815.556	0.0163990
815.634	0.0163672
815.712	0.0163601
815.790	0.0163280
815.869	0.0162703
815.947	0.0162936
816.025	0.0164600
816.103	0.0163309
816.181	0.0161891
816.259	0.0161809
816.337	0.0162018
816.415	0.0160810
816.494	0.0160898
816.572	0.0163091
816.650	0.0160528
816.728	0.0159336
816.806	0.0160311
816.884	0.0160515
816.962	0.0160818
817.040	0.0159790
817.119	0.0160915
817.197	0.0160656
817.275	0.0159953
817.353	0.0160246
817.431	0.0160459
817.509	0.0161295
817.587	0.0160651
817.665	0.0160584
817.744	0.0161319
817.822	0.0160410
817.900	0.0160256
817.978	0.0161373
818.056	0.0160979
818.134	0.0160448
818.212	0.0162028
818.290	0.0162038
818.369	0.0160478
818.447	0.0162002
818.525	0.0162067
818.603	0.0161325
818.681	0.0160810
818.759	0.0163125
818.837	0.0164313
818.915	0.0162348
818.994	0.0162076
819.072	0.0162760
819.150	0.0162672
819.228	0.0162675
819.306	0.0163398
819.384	0.0162972
819.462	0.0162890
819.540	0.0163155
819.619	0.0162824
819.697	0.0162798
819.775	0.0163127
819.853	0.0162614
819.931	0.0162471
820.009	0.0163071
820.087	0.0164239
820.165	0.0164444
820.244	0.0163006
820.322	0.0161961
820.400	0.0162074
820.478	0.0163422
820.556	0.0163899
820.634	0.0162992
820.712	0.0163561
820.790	0.0163832
820.869	0.0162705
820.947	0.0164365
821.025	0.0163029
821.103	0.0163316
821.181	0.0161830
821.259	0.0162553
821.337	0.0162761
821.415	0.0162264
821.494	0.0161730
821.572	0.0162305
821.650	0.0162019
821.728	0.0162677
821.806	0.0163572
821.884	0.0163181
821.962	0.0161923
822.040	0.0161182
822.119	0.0162607
822.197	0.0162613
822.275	0.0162370
822.353	0.0161129
822.431	0.0162548
822.509	0.0159610
822.587	0.0159802
822.665	0.0160300
822.744	0.0160764
822.822	0.0160960
822.900	0.0159700
822.978	0.0160626
823.056	0.0160538
823.134	0.0160273
823.212	0.0160077
823.290	0.0159817
823.369	0.0160815
823.447	0.0160110
823.525	0.0159109
823.603	0.0161166
823.681	0.0161269
823.759	0.0160378
823.837	0.0160027
823.915	0.0160957
823.994	0.0160236
824.072	0.0160211
824.150	0.0159328
824.228	0.0160395
824.306	0.0161008
824.384	0.0160264
824.462	0.0160279
824.540	0.0160902
824.619	0.0160705
824.697	0.0160511
824.775	0.0160056
824.853	0.0160089
824.931	0.0161790
825.009	0.0161958
825.087	0.0161362
825.165	0.0161095
825.244	0.0160378
825.322	0.0160893
825.400	0.0162772
825.478	0.0162277
825.556	0.0162457
825.634	0.0160063
825.712	0.0162418
825.790	0.0162541
825.869	0.0161894
825.947	0.0160966
826.025	0.0160906
826.103	0.0163615
826.181	0.0162613
826.259	0.0160930
826.337	0.0161793
826.415	0.0161755
826.494	0.0161077
826.572	0.0161024
826.650	0.0161990
826.728	0.0161510
826.806	0.0162215
826.884	0.0161043
826.962	0.0162507
827.040	0.0161882
827.119	0.0161211
827.197	0.0162413
827.275	0.0161456
827.353	0.0161630
827.431	0.0162856
827.509	0.0163635
827.587	0.0162698
827.665	0.0162312
827.744	0.0161243
827.822	0.0161949
827.900	0.0161983
827.978	0.0163107
828.056	0.0161893
828.134	0.0161758
828.212	0.0162336
828.290	0.0162848
828.369	0.0161609
828.447	0.0161536
828.525	0.0160654
828.603	0.0160314
828.681	0.0162485
828.759	0.0162254
828.837	0.0162028
828.915	0.0160493
828.994	0.0159663
829.072	0.0161416
829.150	0.0162052
829.228	0.0160667
829.306	0.0160172
829.384	0.0161351
829.462	0.0162209
829.540	0.0161813
829.619	0.0162236
829.697	0.0161544
829.775	0.0160949
829.853	0.0162080
829.931	0.0162595
830.009	0.0163155
830.087	0.0162525
830.165	0.0161491
830.244	0.0162078
830.322	0.0162537
830.400	0.0162023
830.478	0.0161618
830.556	0.0160925
830.634	0.0163048
830.712	0.0162486
830.790	0.0161615
830.869	0.0161263
830.947	0.0161575
831.025	0.0162309
831.103	0.0160710
831.181	0.0163069
831.259	0.0162254
831.337	0.0161715
831.415	0.0162983
831.494	0.0162383
831.572	0.0162986
831.650	0.0164088
831.728	0.0164332
831.806	0.0162476
831.884	0.0161815
831.962	0.0163136
832.040	0.0162939
832.119	0.0162096
832.197	0.0161822
832.275	0.0163056
832.353	0.0162707
832.431	0.0162164
832.509	0.0162070
832.587	0.0162375
832.665	0.0161995
832.744	0.0164736
832.822	0.0162733
832.900	0.0163342
832.978	0.0163999
833.056	0.0162437
833.134	0.0163462
833.212	0.0163968
833.290	0.0162771
833.369	0.0162138
833.447	0.0163319
833.525	0.0163439
833.603	0.0160429
833.681	0.0161779
833.759	0.0162074
833.837	0.0163351
833.915	0.0161572
833.994	0.0160932
834.072	0.0161665
834.150	0.0162714
834.228	0.0161699
834.306	0.0161021
834.384	0.0161939
834.462	0.0162544
834.540	0.0163026
834.619	0.0162947
834.697	0.0161048
834.775	0.0161842
834.853	0.0160948
834.931	0.0162762
835.009	0.0161812
835.087	0.0161278
835.165	0.0161163
835.244	0.0162291
835.322	0.0162607
835.400	0.0162228
835.478	0.0162806
835.556	0.0162744
835.634	0.0163046
835.712	0.0162711
835.790	0.0163731
835.869	0.0162740
835.947	0.0163826
836.025	0.0164046
836.103	0.0163414
836.181	0.0162702
836.259	0.0163052
836.337	0.0163167
836.415	0.0163420
836.494	0.0163152
836.572	0.0163113
836.650	0.0161555
836.728	0.0163782
836.806	0.0164042
836.884	0.0162715
836.962	0.0162151
837.040	0.0164594
837.119	0.0163943
837.197	0.0162640
837.275	0.0162819
837.353	0.0162530
837.431	0.0161259
837.509	0.0163009
837.587	0.0163814
837.665	0.0164063
837.744	0.0162753
837.822	0.0163154
837.900	0.0162263
837.978	0.0162251
838.056	0.0162915
838.134	0.0161747
838.212	0.0163274
838.290	0.0162103
838.369	0.0161629
838.447	0.0162653
838.525	0.0161545
838.603	0.0162266
838.681	0.0162811
838.759	0.0162682
838.837	0.0161800
838.915	0.0161266
838.994	0.0161804
839.072	0.0161377
839.150	0.0159733
839.228	0.0162766
839.306	0.0162469
839.384	0.0161538
839.462	0.0160409
839.540	0.0160602
839.619	0.0161436
839.697	0.0161156
839.775	0.0162937
839.853	0.0162561
839.931	0.0161749
840.009	0.0161509
840.087	0.0161971
840.165	0.0163584
840.244	0.0162233
840.322	0.0161629
840.400	0.0162601
840.478	0.0162591
840.556	0.0161533
840.634	0.0162350
840.712	0.0162203
840.790	0.0162152
840.869	0.0161095
840.947	0.0162535
841.025	0.0162152
841.103	0.0161906
841.181	0.0163273
841.259	0.0161629
841.337	0.0162144
841.415	0.0161775
841.494	0.0161102
841.572	0.0161842
841.650	0.0161963
841.728	0.0161300
841.806	0.0163003
841.884	0.0162346
841.962	0.0163049
842.040	0.0163305
842.119	0.0163496
842.197	0.0162962
842.275	0.0163579
842.353	0.0163644
842.431	0.0163786
842.509	0.0163175
842.587	0.0162676
842.665	0.0164046
842.744	0.0163228
842.822	0.0162922
842.900	0.0163265
842.978	0.0163434
843.056	0.0162216
843.134	0.0163153
843.212	0.0161745
843.290	0.0162869
843.369	0.0163212
843.447	0.0163116
843.525	0.0162000
843.603	0.0161844
843.681	0.0162205
843.759	0.0161791
843.837	0.0162011
843.915	0.0162129
843.994	0.0162273
844.072	0.0162858
844.150	0.0160310
844.228	0.0161858
844.306	0.0161695
844.384	0.0160953
844.462	0.0160529
844.540	0.0162304
844.619	0.0162159
844.697	0.0161624
844.775	0.0160985
844.853	0.0161913
844.931	0.0162074
845.009	0.0161681
845.087	0.0162148
845.165	0.0163030
845.244	0.0161522
845.322	0.0161692
845.400	0.0162138
845.478	0.0161942
845.556	0.0162151
845.634	0.0163715
845.712	0.0162077
845.790	0.0160932
845.869	0.0161841
845.947	0.0162658
846.025	0.0161288
846.103	0.0161639
846.181	0.0161851
846.259	0.0161176
846.337	0.0163057
846.415	0.0161188
846.494	0.0162574
846.572	0.0161425
846.650	0.0161293
846.728	0.0160345
846.806	0.0160149
846.884	0.0163335
846.962	0.0161749
847.040	0.0163016
847.119	0.0161564
847.197	0.0160418
847.275	0.0161380
847.353	0.0162543
847.431	0.0162344
847.509	0.0162678
847.587	0.0161853
847.665	0.0161503
847.744	0.0161813
847.822	0.0161320
847.900	0.0160868
847.978	0.0161621
848.056	0.0162595
848.134	0.0162347
848.212	0.0163362
848.290	0.0162474
848.369	0.0161906
848.447	0.0162605
848.525	0.0162814
848.603	0.0160966
848.681	0.0163448
848.759	0.0162129
848.837	0.0162015
848.915	0.0161594
848.994	0.0162372
849.072	0.0163065
849.150	0.0161479
849.228	0.0162032
849.306	0.0161529
849.384	0.0161390
849.462	0.0163042
849.540	0.0161480
849.619	0.0162016
849.697	0.0161230
849.775	0.0161241
849.853	0.0161642
849.931	0.0160824
850.009	0.0161744
850.087	0.0162086
850.165	0.0162366
850.244	0.0162222
850.322	0.0161150
850.400	0.0161905
850.478	0.0161858
850.556	0.0160945
850.634	0.0161427
850.712	0.0161918
850.790	0.0161311
850.869	0.0161996
850.947	0.0160984
851.025	0.0162350
851.103	0.0162688
851.181	0.0162760
851.259	0.0162813
851.337	0.0162295
851.415	0.0162868
851.494	0.0163244
851.572	0.0163136
851.650	0.0164178
851.728	0.0162763
851.806	0.0162258
851.884	0.0163509
851.962	0.0162723
852.040	0.0163457
852.119	0.0162886
852.197	0.0163433
852.275	0.0164284
852.353	0.0162300
852.431	0.0164232
852.509	0.0163679
852.587	0.0163483
852.665	0.0161626
852.744	0.0160861
852.822	0.0162731
852.900	0.0163102
852.978	0.0162745
853.056	0.0163102
853.134	0.0162891
853.212	0.0161853
853.290	0.0162103
853.369	0.0162930
853.447	0.0163935
853.525	0.0162925
853.603	0.0161701
853.681	0.0162035
853.759	0.0162453
853.837	0.0161985
853.915	0.0162800
853.994	0.0163481
854.072	0.0162568
854.150	0.0161634
854.228	0.0162134
854.306	0.0161826
854.384	0.0162898
854.462	0.0162515
854.540	0.0161166
854.619	0.0162466
854.697	0.0162894
854.775	0.0163226
854.853	0.0161839
854.931	0.0161852
855.009	0.0161967
855.087	0.0161492
855.165	0.0161414
855.244	0.0161252
855.322	0.0162453
855.400	0.0162526
855.478	0.0162460
855.556	0.0162569
855.634	0.0162180
855.712	0.0161034
855.790	0.0162147
855.869	0.0162981
855.947	0.0161631
856.025	0.0161279
856.103	0.0161843
856.181	0.0162824
856.259	0.0160703
856.337	0.0162930
856.415	0.0161726
856.494	0.0161674
856.572	0.0160965
856.650	0.0163338
856.728	0.0161632
856.806	0.0162643
856.884	0.0161630
856.962	0.0162357
857.040	0.0162287
857.119	0.0161835
857.197	0.0161839
857.275	0.0163014
857.353	0.0161027
857.431	0.0161943
857.509	0.0162739
857.587	0.0163132
857.665	0.0163229
857.744	0.0160316
857.822	0.0161068
857.900	0.0160725
857.978	0.0160831
858.056	0.0162415
858.134	0.0162155
858.212	0.0162414
858.290	0.0162621
858.369	0.0161811
858.447	0.0162508
858.525	0.0162659
858.603	0.0161883
858.681	0.0160905
858.759	0.0162572
858.837	0.0162826
858.915	0.0162056
858.994	0.0162022
859.072	0.0162574
859.150	0.0160926
859.228	0.0162308
859.306	0.0163067
859.384	0.0162470
859.462	0.0163471
859.540	0.0164452
859.619	0.0162846
859.697	0.0163013
859.775	0.0162309
859.853	0.0160601
859.931	0.0161068
860.009	0.0161569
860.087	0.0161483
860.165	0.0161476
860.244	0.0162130
860.322	0.0161646
860.400	0.0162231
860.478	0.0161092
860.556	0.0160967
860.634	0.0161220
860.712	0.0162381
860.790	0.0163161
860.869	0.0162763
860.947	0.0162658
861.025	0.0162534
861.103	0.0163364
861.181	0.0163334
861.259	0.0162986
861.337	0.0162991
861.415	0.0163725
861.494	0.0162599
861.572	0.0162175
861.650	0.0161736
861.728	0.0162535
861.806	0.0162930
861.884	0.0162757
861.962	0.0163657
862.040	0.0163153
862.119	0.0162874
862.197	0.0162213
862.275	0.0163189
862.353	0.0162128
862.431	0.0160964
862.509	0.0162029
862.587	0.0163062
862.665	0.0162273
862.744	0.0162960
862.822	0.0163177
862.900	0.0161425
862.978	0.0161954
863.056	0.0162704
863.134	0.0163857
863.212	0.0161335
863.290	0.0162375
863.369	0.0162024
863.447	0.0161856
863.525	0.0163009
863.603	0.0161685
863.681	0.0161892
863.759	0.0162167
863.837	0.0163052
863.915	0.0160008
863.994	0.0161269
864.072	0.0160983
864.150	0.0161999
864.228	0.0161459
864.306	0.0161548
864.384	0.0161211
864.462	0.0160827
864.540	0.0161365
864.619	0.0162447
864.697	0.0161675
864.775	0.0162109
864.853	0.0161576
864.931	0.0163032
865.009	0.0160902
865.087	0.0161704
865.165	0.0161671
865.244	0.0162099
865.322	0.0163303
865.400	0.0160736
865.478	0.0161605
865.556	0.0161804
865.634	0.0161079
865.712	0.0162305
865.790	0.0160532
865.869	0.0161818
865.947	0.0162167
866.025	0.0161007
866.103	0.0162193
866.181	0.0161685
866.259	0.0161973
866.337	0.0161780
866.415	0.0162095
866.494	0.0162310
866.572	0.0161280
866.650	0.0162282
866.728	0.0161681
866.806	0.0163110
866.884	0.0163229
866.962	0.0162114
867.040	0.0163219
867.119	0.0161925
867.197	0.0161881
867.275	0.0163610
867.353	0.0162452
867.431	0.0162604
867.509	0.0162444
867.587	0.0162927
867.665	0.0162761
867.744	0.0162413
867.822	0.0163074
867.900	0.0161943
867.978	0.0162676
868.056	0.0163197
868.134	0.0163013
868.212	0.0163204
868.290	0.0164225
868.369	0.0162163
868.447	0.0162708
868.525	0.0162495
868.603	0.0162444
868.681	0.0162395
868.759	0.0163096
868.837	0.0162887
868.915	0.0161943
868.994	0.0163075
869.072	0.0163271
869.150	0.0162366
869.228	0.0162313
869.306	0.0163039
869.384	0.0162536
869.462	0.0162834
869.540	0.0161473
869.619	0.0162420
869.697	0.0162476
869.775	0.0162757
869.853	0.0161369
869.931	0.0162342
870.009	0.0160044
870.087	0.0160913
870.165	0.0162122
870.244	0.0162744
870.322	0.0162178
870.400	0.0161093
870.478	0.0161558
870.556	0.0160799
870.634	0.0160889
870.712	0.0160952
870.790	0.0160225
870.869	0.0159648
870.947	0.0160633
871.025	0.0161643
871.103	0.0161655
871.181	0.0160496
871.259	0.0162434
871.337	0.0161842
871.415	0.0160567
871.494	0.0160474
871.572	0.0161702
871.650	0.0161963
871.728	0.0160835
871.806	0.0160955
871.884	0.0160793
871.962	0.0162375
872.040	0.0162567
872.119	0.0161631
872.197	0.0161831
872.275	0.0161606
872.353	0.0162830
872.431	0.0162292
872.509	0.0163026
872.587	0.0162877
872.665	0.0162042
872.744	0.0162755
872.822	0.0163992
872.900	0.0162253
872.978	0.0161920
873.056	0.0164360
873.134	0.0163663
873.212	0.0164293
873.290	0.0163435
873.369	0.0162947
873.447	0.0163194
873.525	0.0162645
873.603	0.0162217
873.681	0.0164181
873.759	0.0162976
873.837	0.0162442
873.915	0.0162978
873.994	0.0162872
874.072	0.0163995
874.150	0.0162672
874.228	0.0162685
874.306	0.0161407
874.384	0.0162078
874.462	0.0162642
874.540	0.0163225
874.619	0.0162519
874.697	0.0162485
874.775	0.0161457
874.853	0.0161540
874.931	0.0160423
875.009	0.0163137
875.087	0.0162122
875.165	0.0161191
875.244	0.0162547
875.322	0.0162525
875.400	0.0161452
875.478	0.0161028
875.556	0.0161655
875.634	0.0160243
875.712	0.0161320
875.790	0.0160880
875.869	0.0160896
875.947	0.0162205
876.025	0.0161485
876.103	0.0161673
876.181	0.0160400
876.259	0.0163089
876.337	0.0162931
876.415	0.0161745
876.494	0.0163062
876.572	0.0162748
876.650	0.0163396
876.728	0.0163860
876.806	0.0162148
876.884	0.0162441
876.962	0.0163304
877.040	0.0163511
877.119	0.0161324
877.197	0.0162888
877.275	0.0163239
877.353	0.0162186
877.431	0.0162889
877.509	0.0162323
877.587	0.0160139
877.665	0.0161412
877.744	0.0161604
877.822	0.0163200
877.900	0.0163573
877.978	0.0161887
878.056	0.0160976
878.134	0.0160456
878.212	0.0162135
878.290	0.0162211
878.369	0.0162570
878.447	0.0160824
878.525	0.0161235
878.603	0.0161826
878.681	0.0161086
878.759	0.0159904
878.837	0.0161250
878.915	0.0161189
878.994	0.0160099
879.072	0.0161455
879.150	0.0162790
879.228	0.0161250
879.306	0.0161678
879.384	0.0161341
879.462	0.0162171
879.540	0.0162959
879.619	0.0162685
879.697	0.0161655
879.775	0.0161622
879.853	0.0162999
879.931	0.0162439
880.009	0.0161419
880.087	0.0161929
880.165	0.0162502
880.244	0.0161567
880.322	0.0162209
880.400	0.0161803
880.478	0.0163161
880.556	0.0162848
880.634	0.0162060
880.712	0.0161090
880.790	0.0163203
880.869	0.0162486
880.947	0.0162155
881.025	0.0162326
881.103	0.0162831
881.181	0.0162527
881.259	0.0161729
881.337	0.0161922
881.415	0.0163605
881.494	0.0162133
881.572	0.0161117
881.650	0.0161671
881.728	0.0161314
881.806	0.0161692
881.884	0.0162647
881.962	0.0161637
882.040	0.0161732
882.119	0.0161506
882.197	0.0162318
882.275	0.0161844
882.353	0.0161076
882.431	0.0161973
882.509	0.0163000
882.587	0.0162019
882.665	0.0161237
882.744	0.0161195
882.822	0.0162460
882.900	0.0161131
882.978	0.0161700
883.056	0.0161722
883.134	0.0160926
883.212	0.0161613
883.290	0.0161198
883.369	0.0161109
883.447	0.0161920
883.525	0.0161218
883.603	0.0161397
883.681	0.0161132
883.759	0.0162421
883.837	0.0162416
883.915	0.0163509
883.994	0.0162766
884.072	0.0162153
884.150	0.0162878
884.228	0.0162346
884.306	0.0162775
884.384	0.0163280
884.462	0.0164176
884.540	0.0163780
884.619	0.0161699
884.697	0.0163312
884.775	0.0163908
884.853	0.0162329
884.931	0.0162391
885.009	0.0162460
885.087	0.0162409
885.165	0.0163297
885.244	0.0163789
885.322	0.0162324
885.400	0.0162103
885.478	0.0161379
885.556	0.0162010
885.634	0.0162888
885.712	0.0162424
885.790	0.0162798
885.869	0.0161373
885.947	0.0161819
886.025	0.0161969
886.103	0.0162212
886.181	0.0161923
886.259	0.0161654
886.337	0.0160707
886.415	0.0160719
886.494	0.0161265
886.572	0.0161406
886.650	0.0160672
886.728	0.0162051
886.806	0.0161154
886.884	0.0162276
886.962	0.0161909
887.040	0.0161203
887.119	0.0161848
887.197	0.0161127
887.275	0.0160374
887.353	0.0161027
887.431	0.0161201
887.509	0.0160474
887.587	0.0159743
887.665	0.0159850
887.744	0.0161357
887.822	0.0159846
887.900	0.0161382
887.978	0.0160098
888.056	0.0159537
888.134	0.0161442
888.212	0.0160757
888.290	0.0160766
888.369	0.0161063
888.447	0.0161345
888.525	0.0161776
888.603	0.0162198
888.681	0.0162328
888.759	0.0161826
888.837	0.0160400
888.915	0.0162426
888.994	0.0163579
889.072	0.0163039
889.150	0.0163233
889.228	0.0162898
889.306	0.0163142
889.384	0.0162700
889.462	0.0162370
889.540	0.0162775
889.619	0.0163698
889.697	0.0162324
889.775	0.0163010
889.853	0.0163388
889.931	0.0163740
890.009	0.0161771
890.087	0.0162902
890.165	0.0163338
890.244	0.0163828
890.322	0.0163291
890.400	0.0164471
890.478	0.0163187
890.556	0.0163538
890.634	0.0163527
890.712	0.0163142
890.790	0.0163885
890.869	0.0162784
890.947	0.0163317
891.025	0.0163749
891.103	0.0163190
891.181	0.0163762
891.259	0.0162337
891.337	0.0161674
891.415	0.0163398
891.494	0.0162152
891.572	0.0162249
891.650	0.0162350
891.728	0.0163132
891.806	0.0162880
891.884	0.0159850
891.962	0.0161250
892.040	0.0160741
892.119	0.0161449
892.197	0.0160539
892.275	0.0160278
892.353	0.0161199
892.431	0.0160977
892.509	0.0161501
892.587	0.0161311
892.665	0.0160658
892.744	0.0161378
892.822	0.0159229
892.900	0.0159138
892.978	0.0160393
893.056	0.0160522
893.134	0.0159203
893.212	0.0159763
893.290	0.0159234
893.369	0.0159739
893.447	0.0159531
893.525	0.0159241
893.603	0.0158875
893.681	0.0160161
893.759	0.0159911
893.837	0.0159760
893.915	0.0159654
893.994	0.0160691
894.072	0.0159977
894.150	0.0160780
894.228	0.0159361
894.306	0.0160444
894.384	0.0162991
894.462	0.0162512
894.540	0.0161766
894.619	0.0161447
894.697	0.0160712
894.775	0.0161530
894.853	0.0162054
894.931	0.0161629
895.009	0.0160562
895.087	0.0162041
895.165	0.0161565
895.244	0.0161512
895.322	0.0162287
895.400	0.0161259
895.478	0.0160889
895.556	0.0161369
895.634	0.0161582
895.712	0.0163103
895.790	0.0162373
895.869	0.0163484
895.947	0.0163822
896.025	0.0163129
896.103	0.0162772
896.181	0.0162054
896.259	0.0162567
896.337	0.0161990
896.415	0.0162234
896.494	0.0163310
896.572	0.0163391
896.650	0.0163649
896.728	0.0163432
896.806	0.0163844
896.884	0.0163363
896.962	0.0162556
897.040	0.0162554
897.119	0.0162440
897.197	0.0162485
897.275	0.0161919
897.353	0.0161884
897.431	0.0163484
897.509	0.0162671
897.587	0.0161465
897.665	0.0160888
897.744	0.0161138
897.822	0.0161535
897.900	0.0161505
897.978	0.0162556
898.056	0.0161697
898.134	0.0160581
898.212	0.0160741
898.290	0.0162014
898.369	0.0161943
898.447	0.0161773
898.525	0.0161205
898.603	0.0161114
898.681	0.0163361
898.759	0.0162880
898.837	0.0161994
898.915	0.0162101
898.994	0.0161920
899.072	0.0162742
899.150	0.0162564
899.228	0.0162096
899.306	0.0163064
899.384	0.0163227
899.462	0.0161968
899.540	0.0162460
899.619	0.0162862
899.697	0.0161465
899.775	0.0161461
899.853	0.0160091
899.931	0.0162435
900.009	0.0162713
900.087	0.0162782
900.165	0.0162156
900.244	0.0161789
900.322	0.0161750
900.400	0.0161709
900.478	0.0162190
900.556	0.0162618
900.634	0.0161296
900.712	0.0162031
900.790	0.0162132
900.869	0.0162057
900.947	0.0162456
901.025	0.0162677
901.103	0.0163074
901.181	0.0163148
901.259	0.0161565
901.337	0.0161965
901.415	0.0161668
901.494	0.0161478
901.572	0.0161649
901.650	0.0160962
901.728	0.0161808
901.806	0.0162657
901.884	0.0164317
901.962	0.0161673
902.040	0.0160979
902.119	0.0161721
902.197	0.0162675
902.275	0.0161466
902.353	0.0162004
902.431	0.0161415
902.509	0.0162276
902.587	0.0162300
902.665	0.0161153
902.744	0.0163375
902.822	0.0161416
902.900	0.0160677
902.978	0.0161120
903.056	0.0160104
903.134	0.0162076
903.212	0.0162143
903.290	0.0161713
903.369	0.0160367
903.447	0.0160554
903.525	0.0161571
903.603	0.0161702
903.681	0.0160750
903.759	0.0161164
903.837	0.0160832
903.915	0.0160470
903.994	0.0160928
904.072	0.0161865
904.150	0.0160061
904.228	0.0159451
904.306	0.0160339
904.384	0.0160089
904.462	0.0160790
904.540	0.0160645
904.619	0.0162273
904.697	0.0160648
904.775	0.0161179
904.853	0.0162668
904.931	0.0162955
905.009	0.0163692
905.087	0.0162540
905.165	0.0162231
905.244	0.0162584
905.322	0.0163000
905.400	0.0163615
905.478	0.0163115
905.556	0.0162966
905.634	0.0163442
905.712	0.0163277
905.790	0.0163391
905.869	0.0162914
905.947	0.0162172
906.025	0.0163287
906.103	0.0162572
906.181	0.0161977
906.259	0.0162781
906.337	0.0162402
906.415	0.0162589
906.494	0.0161974
906.572	0.0162697
906.650	0.0164167
906.728	0.0161337
906.806	0.0162677
906.884	0.0162890
906.962	0.0161339
907.040	0.0162578
907.119	0.0162794
907.197	0.0163582
907.275	0.0161789
907.353	0.0162444
907.431	0.0162352
907.509	0.0160247
907.587	0.0161629
907.665	0.0161118
907.744	0.0163265
907.822	0.0162224
907.900	0.0160884
907.978	0.0161480
908.056	0.0161063
908.134	0.0159628
908.212	0.0161788
908.290	0.0161168
908.369	0.0160568
908.447	0.0160207
908.525	0.0160457
908.603	0.0160725
908.681	0.0161588
908.759	0.0162056
908.837	0.0162495
908.915	0.0161825
908.994	0.0162377
909.072	0.0163275
909.150	0.0162730
909.228	0.0162363
909.306	0.0162682
909.384	0.0162048
909.462	0.0162202
909.540	0.0161652
909.619	0.0161635
909.697	0.0162109
909.775	0.0161488
909.853	0.0160849
909.931	0.0160868
910.009	0.0162730
910.087	0.0161375
910.165	0.0162229
910.244	0.0162691
910.322	0.0162156
910.400	0.0161798
910.478	0.0162537
910.556	0.0161490
910.634	0.0162199
910.712	0.0162513
910.790	0.0162345
910.869	0.0162588
910.947	0.0163296
911.025	0.0162254
911.103	0.0162112
911.181	0.0161673
911.259	0.0163071
911.337	0.0162701
911.415	0.0162981
911.494	0.0161875
911.572	0.0161906
911.650	0.0163306
911.728	0.0163487
911.806	0.0163165
911.884	0.0163248
911.962	0.0162558
912.040	0.0161394
912.119	0.0161045
912.197	0.0161860
912.275	0.0162596
912.353	0.0161929
912.431	0.0160342
912.509	0.0161615
912.587	0.0160773
912.665	0.0161856
912.744	0.0161292
912.822	0.0162758
912.900	0.0162796
912.978	0.0162689
913.056	0.0162208
913.134	0.0161462
913.212	0.0160587
913.290	0.0162651
913.369	0.0163675
913.447	0.0161462
913.525	0.0160728
913.603	0.0161274
913.681	0.0162291
913.759	0.0163155
913.837	0.0162346
913.915	0.0162024
913.994	0.0161486
914.072	0.0161839
914.150	0.0162824
914.228	0.0164198
914.306	0.0162698
914.384	0.0161420
914.462	0.0162350
914.540	0.0162242
914.619	0.0162102
914.697	0.0162126
914.775	0.0162257
914.853	0.0162106
914.931	0.0162857
915.009	0.0162465
915.087	0.0163440
915.165	0.0162894
915.244	0.0163085
915.322	0.0163145
915.400	0.0162157
915.478	0.0162402
915.556	0.0162279
915.634	0.0162212
915.712	0.0162071
915.790	0.0163608
915.869	0.0161565
915.947	0.0162522
916.025	0.0161894
916.103	0.0162425
916.181	0.0162746
916.259	0.0163637
916.337	0.0162254
916.415	0.0162363
916.494	0.0161594
916.572	0.0161689
916.650	0.0161678
916.728	0.0161752
916.806	0.0162013
916.884	0.0162565
916.962	0.0163114
917.040	0.0160445
917.119	0.0161765
917.197	0.0162170
917.275	0.0160862
917.353	0.0162000
917.431	0.0161913
917.509	0.0162501
917.587	0.0162000
917.665	0.0162169
917.744	0.0161757
917.822	0.0163173
917.900	0.0161268
917.978	0.0161970
918.056	0.0162788
918.134	0.0161955
918.212	0.0161574
918.290	0.0161736
918.369	0.0162347
918.447	0.0161182
918.525	0.0160359
918.603	0.0161240
918.681	0.0161533
918.759	0.0162684
918.837	0.0161855
918.915	0.0162106
918.994	0.0160263
919.072	0.0162751
919.150	0.0161534
919.228	0.0162435
919.306	0.0161572
919.384	0.0161131
919.462	0.0162257
919.540	0.0162199
919.619	0.0162396
919.697	0.0162288
919.775	0.0162569
919.853	0.0160760
919.931	0.0160684
920.009	0.0160324
920.087	0.0161038
920.165	0.0163068
920.244	0.0162598
920.322	0.0162013
920.400	0.0160284
920.478	0.0161454
920.556	0.0162183
920.634	0.0161404
920.712	0.0161177
920.790	0.0163063
920.869	0.0162909
920.947	0.0161577
921.025	0.0161055
921.103	0.0160973
921.181	0.0161939
921.259	0.0160452
921.337	0.0162210
921.415	0.0161649
921.494	0.0162168
921.572	0.0161741
921.650	0.0160903
921.728	0.0161031
921.806	0.0161035
921.884	0.0160538
921.962	0.0162040
922.040	0.0161222
922.119	0.0161070
922.197	0.0161984
922.275	0.0161603
922.353	0.0160461
922.431	0.0161041
922.509	0.0161774
922.587	0.0161845
922.665	0.0161099
922.744	0.0160800
922.822	0.0161854
922.900	0.0163236
922.978	0.0162149
923.056	0.0161785
923.134	0.0161374
923.212	0.0162003
923.290	0.0163329
923.369	0.0164176
923.447	0.0163228
923.525	0.0161837
923.603	0.0162533
923.681	0.0163105
923.759	0.0164118
923.837	0.0163344
923.915	0.0162189
923.994	0.0161830
924.072	0.0161938
924.150	0.0161864
924.228	0.0162547
924.306	0.0160599
924.384	0.0161016
924.462	0.0162275
924.540	0.0161694
924.619	0.0162151
924.697	0.0161506
924.775	0.0162451
924.853	0.0163538
924.931	0.0162091
925.009	0.0161662
925.087	0.0161076
925.165	0.0162772
925.244	0.0160741
925.322	0.0160802
925.400	0.0161548
925.478	0.0160602
925.556	0.0160108
925.634	0.0160693
925.712	0.0161184
925.790	0.0159544
925.869	0.0160706
925.947	0.0160658
926.025	0.0160312
926.103	0.0160700
926.181	0.0160130
926.259	0.0160876
926.337	0.0160462
926.415	0.0160110
926.494	0.0159725
926.572	0.0161572
926.650	0.0160764
926.728	0.0160439
926.806	0.0162321
926.884	0.0161282
926.962	0.0161555
927.040	0.0160735
927.119	0.0161453
927.197	0.0162044
927.275	0.0162492
927.353	0.0163016
927.431	0.0162099
927.509	0.0161529
927.587	0.0162111
927.665	0.0163058
927.744	0.0162237
927.822	0.0162344
927.900	0.0162676
927.978	0.0163023
928.056	0.0162720
928.134	0.0164074
928.212	0.0162936
928.290	0.0162849
928.369	0.0162653
928.447	0.0162160
928.525	0.0162629
928.603	0.0163628
928.681	0.0161706
928.759	0.0162562
928.837	0.0163388
928.915	0.0161896
928.994	0.0161627
929.072	0.0163236
929.150	0.0162697
929.228	0.0161172
929.306	0.0161937
929.384	0.0164149
929.462	0.0161584
929.540	0.0161775
929.619	0.0161990
929.697	0.0162299
929.775	0.0161719
929.853	0.0162049
929.931	0.0162856
930.009	0.0161432
930.087	0.0161467
930.165	0.0163053
930.244	0.0160963
930.322	0.0161182
930.400	0.0162052
930.478	0.0159695
930.556	0.0160681
930.634	0.0161161
930.712	0.0161546
930.790	0.0160165
930.869	0.0160802
930.947	0.0159922
931.025	0.0161156
931.103	0.0160596
931.181	0.0159570
931.259	0.0160588
931.337	0.0159854
931.415	0.0160516
931.494	0.0160857
931.572	0.0162289
931.650	0.0161961
931.728	0.0161382
931.806	0.0161146
931.884	0.0161021
931.962	0.0161331
932.040	0.0162840
932.119	0.0162489
932.197	0.0162184
932.275	0.0162995
932.353	0.0163786
932.431	0.0163823
932.509	0.0164017
932.587	0.0162900
932.665	0.0164205
932.744	0.0162647
932.822	0.0163639
932.900	0.0163502
932.978	0.0163354
933.056	0.0162756
933.134	0.0163426
933.212	0.0163245
933.290	0.0164207
933.369	0.0164043
933.447	0.0162990
933.525	0.0164362
933.603	0.0163541
933.681	0.0164284
933.759	0.0162516
933.837	0.0163094
933.915	0.0163723
933.994	0.0161920
934.072	0.0162059
934.150	0.0162709
934.228	0.0163252
934.306	0.0163048
934.384	0.0162631
934.462	0.0162294
934.540	0.0163260
934.619	0.0163650
934.697	0.0162733
934.775	0.0162659
934.853	0.0164628
934.931	0.0163921
935.009	0.0163008
935.087	0.0163293
935.165	0.0163963
935.244	0.0161445
935.322	0.0162269
935.400	0.0162760
935.478	0.0162632
935.556	0.0163901
935.634	0.0161315
935.712	0.0161950
935.790	0.0162295
935.869	0.0160917
935.947	0.0164333
936.025	0.0162481
936.103	0.0161645
936.181	0.0162203
936.259	0.0161717
936.337	0.0161589
936.415	0.0163019
936.494	0.0161888
936.572	0.0159889
936.650	0.0163029
936.728	0.0162230
936.806	0.0162170
936.884	0.0162441
936.962	0.0161836
937.040	0.0161903
937.119	0.0163358
937.197	0.0163808
937.275	0.0162367
937.353	0.0162481
937.431	0.0161509
937.509	0.0160928
937.587	0.0160323
937.665	0.0162299
937.744	0.0162091
937.822	0.0160430
937.900	0.0161360
937.978	0.0161275
938.056	0.0161327
938.134	0.0162319
938.212	0.0161082
938.290	0.0162010
938.369	0.0161984
938.447	0.0162472
938.525	0.0161784
938.603	0.0163683
938.681	0.0162151
938.759	0.0162528
938.837	0.0162891
938.915	0.0161861
938.994	0.0163376
939.072	0.0164853
939.150	0.0164407
939.228	0.0162593
939.306	0.0164685
939.384	0.0163701
939.462	0.0164272
939.540	0.0164002
939.619	0.0163581
939.697	0.0163972
939.775	0.0164629
939.853	0.0165276
939.931	0.0164451
940.009	0.0163805
940.087	0.0161980
940.165	0.0163259
940.244	0.0163995
940.322	0.0162917
940.400	0.0163512
940.478	0.0162545
940.556	0.0161936
940.634	0.0161989
940.712	0.0163408
940.790	0.0163577
940.869	0.0163197
940.947	0.0162668
941.025	0.0162927
941.103	0.0162027
941.181	0.0162814
941.259	0.0162134
941.337	0.0163095
941.415	0.0162909
941.494	0.0162035
941.572	0.0162036
941.650	0.0161173
941.728	0.0162063
941.806	0.0161721
941.884	0.0161201
941.962	0.0160931
942.040	0.0161799
942.119	0.0162182
942.197	0.0161296
942.275	0.0162251
942.353	0.0161865
942.431	0.0161019
942.509	0.0161925
942.587	0.0161127
942.665	0.0162218
942.744	0.0161023
942.822	0.0160840
942.900	0.0161279
942.978	0.0161843
943.056	0.0159306
943.134	0.0160307
943.212	0.0163396
943.290	0.0161535
943.369	0.0162041
943.447	0.0161235
943.525	0.0161687
943.603	0.0160513
943.681	0.0160690
943.759	0.0161263
943.837	0.0160826
943.915	0.0162490
943.994	0.0161468
944.072	0.0161279
944.150	0.0160526
944.228	0.0161499
944.306	0.0162905
944.384	0.0162579
944.462	0.0162060
944.540	0.0161835
944.619	0.0162865
944.697	0.0162506
944.775	0.0163624
944.853	0.0162360
944.931	0.0162376
945.009	0.0163075
945.087	0.0161834
945.165	0.0162983
945.244	0.0164630
945.322	0.0163304
945.400	0.0162621
945.478	0.0163942
945.556	0.0164301
945.634	0.0162401
945.712	0.0162292
945.790	0.0164658
945.869	0.0164558
945.947	0.0162840
946.025	0.0164220
946.103	0.0163277
946.181	0.0163589
946.259	0.0163359
946.337	0.0161720
946.415	0.0161565
946.494	0.0163705
946.572	0.0162939
946.650	0.0163070
946.728	0.0162798
946.806	0.0161311
946.884	0.0163607
946.962	0.0162637
947.040	0.0163628
947.119	0.0162221
947.197	0.0162357
947.275	0.0161951
947.353	0.0161473
947.431	0.0163830
947.509	0.0162717
947.587	0.0161160
947.665	0.0162292
947.744	0.0161130
947.822	0.0160938
947.900	0.0160352
947.978	0.0161275
948.056	0.0159602
948.134	0.0159721
948.212	0.0160905
948.290	0.0161150
948.369	0.0161740
948.447	0.0162405
948.525	0.0161326
948.603	0.0160242
948.681	0.0161301
948.759	0.0161036
948.837	0.0161891
948.915	0.0160377
948.994	0.0161035
949.072	0.0161967
949.150	0.0162370
949.228	0.0161485
949.306	0.0160970
949.384	0.0161029
949.462	0.0161905
949.540	0.0161057
949.619	0.0161863
949.697	0.0161757
949.775	0.0161770
949.853	0.0163026
949.931	0.0162790
