05/19/2022	00:47:08	Ver.	4.1	UNKNOWN
Optical Delay	630.009178	Delta X		0.078125	Sweeps	1	Scan Rate	0/0
Coordinates	Axis 1	NaN	Axis 2	NaN	Axis 3	NaN	Axis 4	NaN	Axis 5	NaN	Axis 6	0.000000
TX Power	0.000000	RX Power	0.000000

630.009	0.0162733
630.087	0.0161826
630.165	0.0161488
630.244	0.0162039
630.322	0.0163714
630.400	0.0162556
630.478	0.0161351
630.556	0.0162183
630.634	0.0162899
630.712	0.0161869
630.790	0.0162119
630.869	0.0160986
630.947	0.0161363
631.025	0.0161846
631.103	0.0159991
631.181	0.0160950
631.259	0.0161106
631.337	0.0161107
631.415	0.0161185
631.494	0.0161699
631.572	0.0161909
631.650	0.0160336
631.728	0.0161105
631.806	0.0160899
631.884	0.0161652
631.962	0.0160580
632.040	0.0160114
632.119	0.0162095
632.197	0.0161012
632.275	0.0161099
632.353	0.0160546
632.431	0.0161368
632.509	0.0160892
632.587	0.0160609
632.665	0.0160334
632.744	0.0161597
632.822	0.0161058
632.900	0.0161046
632.978	0.0161102
633.056	0.0161145
633.134	0.0161860
633.212	0.0159820
633.290	0.0160191
633.369	0.0161355
633.447	0.0160255
633.525	0.0159911
633.603	0.0161420
633.681	0.0159283
633.759	0.0160461
633.837	0.0160795
633.915	0.0160572
633.994	0.0161750
634.072	0.0160561
634.150	0.0160100
634.228	0.0161847
634.306	0.0161365
634.384	0.0161254
634.462	0.0161109
634.540	0.0161145
634.619	0.0161488
634.697	0.0161901
634.775	0.0161555
634.853	0.0160052
634.931	0.0159452
635.009	0.0159543
635.087	0.0160080
635.165	0.0159850
635.244	0.0159897
635.322	0.0160495
635.400	0.0159855
635.478	0.0160104
635.556	0.0160443
635.634	0.0160075
635.712	0.0160361
635.790	0.0160477
635.869	0.0161254
635.947	0.0160786
636.025	0.0161243
636.103	0.0161495
636.181	0.0161758
636.259	0.0160468
636.337	0.0159970
636.415	0.0160163
636.494	0.0161279
636.572	0.0162072
636.650	0.0161535
636.728	0.0159629
636.806	0.0160836
636.884	0.0161631
636.962	0.0161024
637.040	0.0160796
637.119	0.0161478
637.197	0.0161675
637.275	0.0161576
637.353	0.0161041
637.431	0.0160614
637.509	0.0160099
637.587	0.0160488
637.665	0.0161279
637.744	0.0161456
637.822	0.0160827
637.900	0.0159807
637.978	0.0161003
638.056	0.0159859
638.134	0.0159295
638.212	0.0161925
638.290	0.0159802
638.369	0.0159962
638.447	0.0161784
638.525	0.0160359
638.603	0.0160846
638.681	0.0161079
638.759	0.0160385
638.837	0.0161433
638.915	0.0161179
638.994	0.0161617
639.072	0.0161245
639.150	0.0160938
639.228	0.0161518
639.306	0.0161135
639.384	0.0160975
639.462	0.0162370
639.540	0.0160986
639.619	0.0161346
639.697	0.0160947
639.775	0.0160764
639.853	0.0161684
639.931	0.0160387
640.009	0.0161794
640.087	0.0161135
640.165	0.0163305
640.244	0.0160398
640.322	0.0161076
640.400	0.0161332
640.478	0.0161954
640.556	0.0161443
640.634	0.0162313
640.712	0.0162799
640.790	0.0161246
640.869	0.0160561
640.947	0.0161238
641.025	0.0160320
641.103	0.0162128
641.181	0.0161652
641.259	0.0161444
641.337	0.0161840
641.415	0.0160818
641.494	0.0161971
641.572	0.0161224
641.650	0.0161435
641.728	0.0161976
641.806	0.0162272
641.884	0.0162711
641.962	0.0163187
642.040	0.0161050
642.119	0.0161679
642.197	0.0162357
642.275	0.0161118
642.353	0.0162142
642.431	0.0161436
642.509	0.0162210
642.587	0.0160606
642.665	0.0161077
642.744	0.0162933
642.822	0.0161877
642.900	0.0161607
642.978	0.0162452
643.056	0.0161857
643.134	0.0161852
643.212	0.0162700
643.290	0.0164238
643.369	0.0163210
643.447	0.0162886
643.525	0.0162389
643.603	0.0164024
643.681	0.0162978
643.759	0.0161192
643.837	0.0162366
643.915	0.0163192
643.994	0.0163404
644.072	0.0162602
644.150	0.0163116
644.228	0.0162083
644.306	0.0162450
644.384	0.0163895
644.462	0.0163775
644.540	0.0163367
644.619	0.0162570
644.697	0.0162637
644.775	0.0162504
644.853	0.0162777
644.931	0.0162272
645.009	0.0162347
645.087	0.0162603
645.165	0.0162238
645.244	0.0162038
645.322	0.0163764
645.400	0.0162406
645.478	0.0163065
645.556	0.0162952
645.634	0.0161960
645.712	0.0162797
645.790	0.0163589
645.869	0.0162970
645.947	0.0162604
646.025	0.0162679
646.103	0.0162899
646.181	0.0162083
646.259	0.0161992
646.337	0.0162180
646.415	0.0162981
646.494	0.0164674
646.572	0.0162830
646.650	0.0163821
646.728	0.0163773
646.806	0.0163293
646.884	0.0164123
646.962	0.0162057
647.040	0.0161934
647.119	0.0162936
647.197	0.0163824
647.275	0.0162743
647.353	0.0162829
647.431	0.0163112
647.509	0.0163301
647.587	0.0161848
647.665	0.0163509
647.744	0.0162244
647.822	0.0161848
647.900	0.0162646
647.978	0.0163305
648.056	0.0163170
648.134	0.0163237
648.212	0.0164062
648.290	0.0163404
648.369	0.0162167
648.447	0.0162504
648.525	0.0162115
648.603	0.0162540
648.681	0.0162873
648.759	0.0160610
648.837	0.0162684
648.915	0.0163401
648.994	0.0163624
649.072	0.0163021
649.150	0.0162345
649.228	0.0162242
649.306	0.0163112
649.384	0.0163026
649.462	0.0162655
649.540	0.0162018
649.619	0.0162907
649.697	0.0162916
649.775	0.0162910
649.853	0.0162856
649.931	0.0163087
650.009	0.0163081
650.087	0.0162361
650.165	0.0162074
650.244	0.0162573
650.322	0.0161241
650.400	0.0162510
650.478	0.0162020
650.556	0.0162740
650.634	0.0163140
650.712	0.0162346
650.790	0.0162459
650.869	0.0161965
650.947	0.0161694
651.025	0.0162750
651.103	0.0161485
651.181	0.0162395
651.259	0.0163686
651.337	0.0162955
651.415	0.0161440
651.494	0.0162254
651.572	0.0161230
651.650	0.0163248
651.728	0.0161562
651.806	0.0161375
651.884	0.0162003
651.962	0.0161258
652.040	0.0161422
652.119	0.0161572
652.197	0.0161842
652.275	0.0161993
652.353	0.0161139
652.431	0.0162034
652.509	0.0160924
652.587	0.0161234
652.665	0.0162376
652.744	0.0161314
652.822	0.0160438
652.900	0.0161243
652.978	0.0162087
653.056	0.0161795
653.134	0.0161296
653.212	0.0160098
653.290	0.0161206
653.369	0.0161990
653.447	0.0162288
653.525	0.0162056
653.603	0.0162202
653.681	0.0162721
653.759	0.0160649
653.837	0.0161990
653.915	0.0160993
653.994	0.0160970
654.072	0.0161453
654.150	0.0161763
654.228	0.0160336
654.306	0.0161421
654.384	0.0160278
654.462	0.0160556
654.540	0.0160977
654.619	0.0159972
654.697	0.0160233
654.775	0.0160956
654.853	0.0161024
654.931	0.0161044
655.009	0.0160376
655.087	0.0160591
655.165	0.0161819
655.244	0.0160085
655.322	0.0161520
655.400	0.0162020
655.478	0.0160464
655.556	0.0160321
655.634	0.0160310
655.712	0.0161920
655.790	0.0161324
655.869	0.0161163
655.947	0.0161124
656.025	0.0160854
656.103	0.0161259
656.181	0.0162263
656.259	0.0159597
656.337	0.0159805
656.415	0.0161172
656.494	0.0160388
656.572	0.0158663
656.650	0.0160703
656.728	0.0159079
656.806	0.0160352
656.884	0.0161465
656.962	0.0159647
657.040	0.0160165
657.119	0.0161167
657.197	0.0161592
657.275	0.0161308
657.353	0.0161387
657.431	0.0162400
657.509	0.0162527
657.587	0.0160522
657.665	0.0161726
657.744	0.0161935
657.822	0.0162430
657.900	0.0160895
657.978	0.0160257
658.056	0.0160641
658.134	0.0160824
658.212	0.0160349
658.290	0.0161678
658.369	0.0159426
658.447	0.0160078
658.525	0.0159737
658.603	0.0160258
658.681	0.0159570
658.759	0.0160812
658.837	0.0161264
658.915	0.0160445
658.994	0.0161078
659.072	0.0161164
659.150	0.0160768
659.228	0.0160522
659.306	0.0160491
659.384	0.0161720
659.462	0.0160199
659.540	0.0161011
659.619	0.0161544
659.697	0.0161075
659.775	0.0160194
659.853	0.0160938
659.931	0.0162466
660.009	0.0160365
660.087	0.0160778
660.165	0.0160080
660.244	0.0160101
660.322	0.0161853
660.400	0.0160809
660.478	0.0160679
660.556	0.0160674
660.634	0.0160923
660.712	0.0161090
660.790	0.0159688
660.869	0.0160185
660.947	0.0160102
661.025	0.0160091
661.103	0.0160843
661.181	0.0161806
661.259	0.0160830
661.337	0.0159300
661.415	0.0160830
661.494	0.0160765
661.572	0.0160125
661.650	0.0159657
661.728	0.0159174
661.806	0.0160820
661.884	0.0159776
661.962	0.0160336
662.040	0.0160715
662.119	0.0161066
662.197	0.0160084
662.275	0.0160849
662.353	0.0160773
662.431	0.0160447
662.509	0.0160239
662.587	0.0160417
662.665	0.0160709
662.744	0.0160195
662.822	0.0159178
662.900	0.0160822
662.978	0.0159367
663.056	0.0159212
663.134	0.0160173
663.212	0.0159947
663.290	0.0160111
663.369	0.0158891
663.447	0.0159553
663.525	0.0160761
663.603	0.0160073
663.681	0.0159380
663.759	0.0159211
663.837	0.0161465
663.915	0.0161393
663.994	0.0162566
664.072	0.0162950
664.150	0.0162269
664.228	0.0163123
664.306	0.0161307
664.384	0.0162584
664.462	0.0163212
664.540	0.0162519
664.619	0.0162219
664.697	0.0162801
664.775	0.0161374
664.853	0.0161198
664.931	0.0162672
665.009	0.0162445
665.087	0.0161721
665.165	0.0162127
665.244	0.0161366
665.322	0.0161063
665.400	0.0161542
665.478	0.0163251
665.556	0.0162389
665.634	0.0163866
665.712	0.0162356
665.790	0.0161310
665.869	0.0163786
665.947	0.0163314
666.025	0.0162260
666.103	0.0161871
666.181	0.0163727
666.259	0.0163576
666.337	0.0163202
666.415	0.0164140
666.494	0.0164174
666.572	0.0163005
666.650	0.0163824
666.728	0.0165536
666.806	0.0163128
666.884	0.0162529
666.962	0.0163318
667.040	0.0163569
667.119	0.0162091
667.197	0.0163632
667.275	0.0163458
667.353	0.0162667
667.431	0.0162173
667.509	0.0162684
667.587	0.0161747
667.665	0.0163264
667.744	0.0164314
667.822	0.0162047
667.900	0.0161728
667.978	0.0163059
668.056	0.0162891
668.134	0.0163322
668.212	0.0164134
668.290	0.0163083
668.369	0.0163805
668.447	0.0163541
668.525	0.0164067
668.603	0.0164466
668.681	0.0165239
668.759	0.0163692
668.837	0.0163454
668.915	0.0163835
668.994	0.0164132
669.072	0.0162450
669.150	0.0162822
669.228	0.0161793
669.306	0.0160715
669.384	0.0159512
669.462	0.0160371
669.540	0.0160473
669.619	0.0159412
669.697	0.0158781
669.775	0.0158891
669.853	0.0159231
669.931	0.0158270
670.009	0.0157535
670.087	0.0158298
670.165	0.0158148
670.244	0.0158702
670.322	0.0158643
670.400	0.0158077
670.478	0.0158120
670.556	0.0159103
670.634	0.0160811
670.712	0.0161446
670.790	0.0161421
670.869	0.0160583
670.947	0.0162464
671.025	0.0162325
671.103	0.0163921
671.181	0.0161738
671.259	0.0162972
671.337	0.0164087
671.415	0.0162306
671.494	0.0162017
671.572	0.0162129
671.650	0.0161494
671.728	0.0161827
671.806	0.0159710
671.884	0.0160937
671.962	0.0161353
672.040	0.0160170
672.119	0.0159132
672.197	0.0158771
672.275	0.0160870
672.353	0.0160004
672.431	0.0158650
672.509	0.0159395
672.587	0.0159716
672.665	0.0161671
672.744	0.0161800
672.822	0.0161573
672.900	0.0160412
672.978	0.0161835
673.056	0.0163583
673.134	0.0161316
673.212	0.0162251
673.290	0.0163562
673.369	0.0162981
673.447	0.0160473
673.525	0.0162935
673.603	0.0163037
673.681	0.0160824
673.759	0.0162298
673.837	0.0160944
673.915	0.0163259
673.994	0.0162720
674.072	0.0162552
674.150	0.0164225
674.228	0.0162910
674.306	0.0162283
674.384	0.0161927
674.462	0.0163125
674.540	0.0162499
674.619	0.0162406
674.697	0.0163649
674.775	0.0163941
674.853	0.0163689
674.931	0.0163516
675.009	0.0163146
675.087	0.0163277
675.165	0.0163008
675.244	0.0163589
675.322	0.0163004
675.400	0.0161662
675.478	0.0161652
675.556	0.0161897
675.634	0.0163243
675.712	0.0161514
675.790	0.0162324
675.869	0.0161071
675.947	0.0161813
676.025	0.0162446
676.103	0.0162375
676.181	0.0162296
676.259	0.0163287
676.337	0.0162883
676.415	0.0163518
676.494	0.0163239
676.572	0.0162869
676.650	0.0163652
676.728	0.0164618
676.806	0.0163115
676.884	0.0162896
676.962	0.0163662
677.040	0.0163534
677.119	0.0163391
677.197	0.0163300
677.275	0.0163490
677.353	0.0163290
677.431	0.0162926
677.509	0.0164160
677.587	0.0163438
677.665	0.0163429
677.744	0.0164688
677.822	0.0164157
677.900	0.0162721
677.978	0.0162284
678.056	0.0161463
678.134	0.0162096
678.212	0.0161930
678.290	0.0160043
678.369	0.0159666
678.447	0.0159734
678.525	0.0159949
678.603	0.0159942
678.681	0.0159628
678.759	0.0159957
678.837	0.0161027
678.915	0.0159325
678.994	0.0161119
679.072	0.0160673
679.150	0.0160504
679.228	0.0160143
679.306	0.0161037
679.384	0.0161929
679.462	0.0161336
679.540	0.0158647
679.619	0.0160933
679.697	0.0162145
679.775	0.0161279
679.853	0.0160413
679.931	0.0161076
680.009	0.0160649
680.087	0.0160416
680.165	0.0161290
680.244	0.0160667
680.322	0.0162172
680.400	0.0163242
680.478	0.0162510
680.556	0.0162745
680.634	0.0162643
680.712	0.0163497
680.790	0.0163795
680.869	0.0163488
680.947	0.0163329
681.025	0.0163842
681.103	0.0164352
681.181	0.0162941
681.259	0.0162078
681.337	0.0162119
681.415	0.0161283
681.494	0.0160785
681.572	0.0159518
681.650	0.0159090
681.728	0.0158214
681.806	0.0158875
681.884	0.0158781
681.962	0.0158368
682.040	0.0159184
682.119	0.0158876
682.197	0.0158326
682.275	0.0158356
682.353	0.0157341
682.431	0.0157568
682.509	0.0158305
682.587	0.0159564
682.665	0.0160000
682.744	0.0161131
682.822	0.0160543
682.900	0.0161677
682.978	0.0162971
683.056	0.0162272
683.134	0.0161980
683.212	0.0163210
683.290	0.0163427
683.369	0.0163301
683.447	0.0164275
683.525	0.0161143
683.603	0.0163426
683.681	0.0162395
683.759	0.0162983
683.837	0.0162627
683.915	0.0162733
683.994	0.0162054
684.072	0.0160298
684.150	0.0162090
684.228	0.0162645
684.306	0.0161087
684.384	0.0159591
684.462	0.0159285
684.540	0.0160477
684.619	0.0158219
684.697	0.0159659
684.775	0.0158477
684.853	0.0158270
684.931	0.0159105
685.009	0.0159447
685.087	0.0158884
685.165	0.0159261
685.244	0.0159780
685.322	0.0158814
685.400	0.0161317
685.478	0.0160336
685.556	0.0160208
685.634	0.0161617
685.712	0.0161909
685.790	0.0162392
685.869	0.0163058
685.947	0.0164500
686.025	0.0163313
686.103	0.0165300
686.181	0.0164831
686.259	0.0164377
686.337	0.0164624
686.415	0.0166357
686.494	0.0165468
686.572	0.0165735
686.650	0.0165398
686.728	0.0164598
686.806	0.0163857
686.884	0.0163297
686.962	0.0163523
687.040	0.0161876
687.119	0.0162048
687.197	0.0161445
687.275	0.0161172
687.353	0.0160773
687.431	0.0160672
687.509	0.0160419
687.587	0.0160442
687.665	0.0161114
687.744	0.0160397
687.822	0.0160242
687.900	0.0160075
687.978	0.0161038
688.056	0.0161854
688.134	0.0161073
688.212	0.0160780
688.290	0.0160445
688.369	0.0160116
688.447	0.0162769
688.525	0.0160325
688.603	0.0161019
688.681	0.0161650
688.759	0.0160865
688.837	0.0159555
688.915	0.0160877
688.994	0.0161134
689.072	0.0160166
689.150	0.0159986
689.228	0.0161039
689.306	0.0159346
689.384	0.0159825
689.462	0.0161206
689.540	0.0161021
689.619	0.0160690
689.697	0.0161089
689.775	0.0161741
689.853	0.0161907
689.931	0.0161289
690.009	0.0161514
690.087	0.0162003
690.165	0.0161786
690.244	0.0161255
690.322	0.0160667
690.400	0.0161919
690.478	0.0161155
690.556	0.0159590
690.634	0.0159804
690.712	0.0158408
690.790	0.0158627
690.869	0.0159425
690.947	0.0158429
691.025	0.0157156
691.103	0.0157552
691.181	0.0157787
691.259	0.0159023
691.337	0.0158027
691.415	0.0157885
691.494	0.0158064
691.572	0.0158821
691.650	0.0160326
691.728	0.0159928
691.806	0.0160998
691.884	0.0161430
691.962	0.0160924
692.040	0.0162080
692.119	0.0162454
692.197	0.0162299
692.275	0.0162210
692.353	0.0164875
692.431	0.0162077
692.509	0.0163505
692.587	0.0163705
692.665	0.0164141
692.744	0.0164000
692.822	0.0164270
692.900	0.0166039
692.978	0.0166116
693.056	0.0166268
693.134	0.0166569
693.212	0.0165877
693.290	0.0165704
693.369	0.0166257
693.447	0.0167924
693.525	0.0166419
693.603	0.0164291
693.681	0.0164896
693.759	0.0164469
693.837	0.0164559
693.915	0.0164417
693.994	0.0164440
694.072	0.0163386
694.150	0.0163333
694.228	0.0163216
694.306	0.0163666
694.384	0.0162991
694.462	0.0162539
694.540	0.0162200
694.619	0.0162306
694.697	0.0163749
694.775	0.0162566
694.853	0.0162790
694.931	0.0162801
695.009	0.0164130
695.087	0.0163228
695.165	0.0161866
695.244	0.0160777
695.322	0.0160970
695.400	0.0160445
695.478	0.0160715
695.556	0.0160188
695.634	0.0159748
695.712	0.0157889
695.790	0.0158326
695.869	0.0159016
695.947	0.0157966
696.025	0.0155348
696.103	0.0156914
696.181	0.0155493
696.259	0.0157262
696.337	0.0156474
696.415	0.0155846
696.494	0.0155980
696.572	0.0156324
696.650	0.0157054
696.728	0.0158182
696.806	0.0157584
696.884	0.0157538
696.962	0.0159653
697.040	0.0159016
697.119	0.0159254
697.197	0.0159911
697.275	0.0159991
697.353	0.0160334
697.431	0.0160997
697.509	0.0162476
697.587	0.0163528
697.665	0.0162468
697.744	0.0161897
697.822	0.0163496
697.900	0.0164975
697.978	0.0162834
698.056	0.0165916
698.134	0.0165800
698.212	0.0165334
698.290	0.0166205
698.369	0.0166924
698.447	0.0166735
698.525	0.0166813
698.603	0.0168472
698.681	0.0167764
698.759	0.0168378
698.837	0.0169600
698.915	0.0169086
698.994	0.0169358
699.072	0.0168965
699.150	0.0167806
699.228	0.0167737
699.306	0.0167208
699.384	0.0167565
699.462	0.0165916
699.540	0.0164862
699.619	0.0164204
699.697	0.0163570
699.775	0.0163837
699.853	0.0162263
699.931	0.0161752
700.009	0.0162490
700.087	0.0161923
700.165	0.0160659
700.244	0.0160691
700.322	0.0159965
700.400	0.0161037
700.478	0.0161787
700.556	0.0159860
700.634	0.0159544
700.712	0.0159282
700.790	0.0160959
700.869	0.0160046
700.947	0.0160378
701.025	0.0159327
701.103	0.0158415
701.181	0.0158240
701.259	0.0156689
701.337	0.0155344
701.415	0.0156907
701.494	0.0155674
701.572	0.0155177
701.650	0.0155136
701.728	0.0156281
701.806	0.0153847
701.884	0.0153621
701.962	0.0154438
702.040	0.0154352
702.119	0.0153648
702.197	0.0154115
702.275	0.0155772
702.353	0.0154987
702.431	0.0153654
702.509	0.0155473
702.587	0.0155693
702.665	0.0156593
702.744	0.0157906
702.822	0.0158285
702.900	0.0157036
702.978	0.0159206
703.056	0.0160242
703.134	0.0159080
703.212	0.0159481
703.290	0.0160666
703.369	0.0160344
703.447	0.0163901
703.525	0.0163981
703.603	0.0163835
703.681	0.0162814
703.759	0.0164327
703.837	0.0164479
703.915	0.0166370
703.994	0.0166002
704.072	0.0164700
704.150	0.0166329
704.228	0.0167403
704.306	0.0166817
704.384	0.0168265
704.462	0.0167944
704.540	0.0167898
704.619	0.0169473
704.697	0.0167548
704.775	0.0168173
704.853	0.0168204
704.931	0.0167123
705.009	0.0167432
705.087	0.0166813
705.165	0.0166208
705.244	0.0167490
705.322	0.0167155
705.400	0.0166913
705.478	0.0166444
705.556	0.0167996
705.634	0.0167355
705.712	0.0166171
705.790	0.0166163
705.869	0.0165594
705.947	0.0164994
706.025	0.0165820
706.103	0.0163686
706.181	0.0163094
706.259	0.0163765
706.337	0.0161607
706.415	0.0161594
706.494	0.0161886
706.572	0.0161242
706.650	0.0160233
706.728	0.0159648
706.806	0.0158159
706.884	0.0157875
706.962	0.0158581
707.040	0.0157915
707.119	0.0155746
707.197	0.0156473
707.275	0.0156718
707.353	0.0156396
707.431	0.0157429
707.509	0.0156741
707.587	0.0156910
707.665	0.0157488
707.744	0.0158163
707.822	0.0158163
707.900	0.0156857
707.978	0.0158574
708.056	0.0158090
708.134	0.0158295
708.212	0.0157140
708.290	0.0157653
708.369	0.0157602
708.447	0.0157811
708.525	0.0156883
708.603	0.0155766
708.681	0.0156966
708.759	0.0157929
708.837	0.0158877
708.915	0.0159790
708.994	0.0158831
709.072	0.0158240
709.150	0.0158910
709.228	0.0158337
709.306	0.0158675
709.384	0.0158945
709.462	0.0158092
709.540	0.0159108
709.619	0.0159120
709.697	0.0160469
709.775	0.0162325
709.853	0.0162539
709.931	0.0163271
710.009	0.0165025
710.087	0.0163873
710.165	0.0164810
710.244	0.0165599
710.322	0.0166029
710.400	0.0165914
710.478	0.0166344
710.556	0.0166504
710.634	0.0165746
710.712	0.0165503
710.790	0.0165083
710.869	0.0167141
710.947	0.0165916
711.025	0.0164635
711.103	0.0165576
711.181	0.0165229
711.259	0.0164610
711.337	0.0165172
711.415	0.0164754
711.494	0.0164627
711.572	0.0162451
711.650	0.0164125
711.728	0.0163892
711.806	0.0162920
711.884	0.0164346
711.962	0.0164713
712.040	0.0163503
712.119	0.0164814
712.197	0.0164397
712.275	0.0163713
712.353	0.0163364
712.431	0.0161378
712.509	0.0164483
712.587	0.0163017
712.665	0.0161819
712.744	0.0160890
712.822	0.0162308
712.900	0.0161302
712.978	0.0161402
713.056	0.0161928
713.134	0.0163177
713.212	0.0162508
713.290	0.0163383
713.369	0.0163853
713.447	0.0162578
713.525	0.0162915
713.603	0.0161802
713.681	0.0161396
713.759	0.0160976
713.837	0.0161098
713.915	0.0161596
713.994	0.0161471
714.072	0.0159441
714.150	0.0159492
714.228	0.0159192
714.306	0.0156964
714.384	0.0156944
714.462	0.0158703
714.540	0.0157372
714.619	0.0157843
714.697	0.0158369
714.775	0.0157417
714.853	0.0159232
714.931	0.0158542
715.009	0.0158241
715.087	0.0158805
715.165	0.0157933
715.244	0.0157340
715.322	0.0158860
715.400	0.0158177
715.478	0.0156652
715.556	0.0157660
715.634	0.0156084
715.712	0.0156440
715.790	0.0157867
715.869	0.0157050
715.947	0.0157924
716.025	0.0158553
716.103	0.0158939
716.181	0.0157706
716.259	0.0158397
716.337	0.0160229
716.415	0.0161517
716.494	0.0158930
716.572	0.0160803
716.650	0.0160889
716.728	0.0158949
716.806	0.0161048
716.884	0.0161732
716.962	0.0162743
717.040	0.0164346
717.119	0.0163521
717.197	0.0163345
717.275	0.0165040
717.353	0.0164368
717.431	0.0163091
717.509	0.0164733
717.587	0.0165092
717.665	0.0164268
717.744	0.0165068
717.822	0.0164738
717.900	0.0164490
717.978	0.0164346
718.056	0.0164084
718.134	0.0165249
718.212	0.0165058
718.290	0.0163715
718.369	0.0163760
718.447	0.0164207
718.525	0.0164576
718.603	0.0163410
718.681	0.0164618
718.759	0.0164137
718.837	0.0164262
718.915	0.0164223
718.994	0.0163673
719.072	0.0164583
719.150	0.0164945
719.228	0.0164661
719.306	0.0164942
719.384	0.0165093
719.462	0.0163906
719.540	0.0165071
719.619	0.0164505
719.697	0.0163371
719.775	0.0163657
719.853	0.0162955
719.931	0.0163568
720.009	0.0165504
720.087	0.0164998
720.165	0.0163449
720.244	0.0165115
720.322	0.0164303
720.400	0.0163152
720.478	0.0163483
720.556	0.0163105
720.634	0.0162174
720.712	0.0161703
720.790	0.0162204
720.869	0.0161975
720.947	0.0160802
721.025	0.0159417
721.103	0.0159908
721.181	0.0158422
721.259	0.0157754
721.337	0.0156891
721.415	0.0154653
721.494	0.0155157
721.572	0.0154831
721.650	0.0155015
721.728	0.0153369
721.806	0.0152390
721.884	0.0153461
721.962	0.0153383
722.040	0.0154123
722.119	0.0155151
722.197	0.0154771
722.275	0.0156038
722.353	0.0156575
722.431	0.0156496
722.509	0.0158821
722.587	0.0159410
722.665	0.0160655
722.744	0.0160773
722.822	0.0162614
722.900	0.0161063
722.978	0.0160473
723.056	0.0162164
723.134	0.0161606
723.212	0.0161515
723.290	0.0163478
723.369	0.0162623
723.447	0.0162927
723.525	0.0163368
723.603	0.0163905
723.681	0.0163503
723.759	0.0164536
723.837	0.0163911
723.915	0.0163261
723.994	0.0164588
724.072	0.0164689
724.150	0.0164388
724.228	0.0165583
724.306	0.0165054
724.384	0.0165451
724.462	0.0165644
724.540	0.0165863
724.619	0.0165712
724.697	0.0165652
724.775	0.0167313
724.853	0.0168065
724.931	0.0166564
725.009	0.0166229
725.087	0.0165381
725.165	0.0167499
725.244	0.0165775
725.322	0.0166751
725.400	0.0166853
725.478	0.0165634
725.556	0.0165202
725.634	0.0162963
725.712	0.0165701
725.790	0.0164882
725.869	0.0163849
725.947	0.0164866
726.025	0.0166080
726.103	0.0162549
726.181	0.0161003
726.259	0.0163689
726.337	0.0163535
726.415	0.0163270
726.494	0.0163766
726.572	0.0163822
726.650	0.0163626
726.728	0.0164810
726.806	0.0163131
726.884	0.0163623
726.962	0.0163074
727.040	0.0162550
727.119	0.0161764
727.197	0.0162886
727.275	0.0161596
727.353	0.0161720
727.431	0.0160680
727.509	0.0160680
727.587	0.0160191
727.665	0.0160708
727.744	0.0159554
727.822	0.0158819
727.900	0.0159659
727.978	0.0159196
728.056	0.0158524
728.134	0.0159465
728.212	0.0157306
728.290	0.0157429
728.369	0.0155936
728.447	0.0156795
728.525	0.0155959
728.603	0.0156948
728.681	0.0158045
728.759	0.0154638
728.837	0.0155532
728.915	0.0156621
728.994	0.0156335
729.072	0.0156074
729.150	0.0155482
729.228	0.0155862
729.306	0.0158263
729.384	0.0156564
729.462	0.0157562
729.540	0.0160732
729.619	0.0160340
729.697	0.0160629
729.775	0.0161832
729.853	0.0163071
729.931	0.0164219
730.009	0.0162978
730.087	0.0163986
730.165	0.0162659
730.244	0.0164436
730.322	0.0163715
730.400	0.0163470
730.478	0.0162234
730.556	0.0162550
730.634	0.0161936
730.712	0.0164229
730.790	0.0164772
730.869	0.0164297
730.947	0.0163264
731.025	0.0163976
731.103	0.0164769
731.181	0.0165594
731.259	0.0165054
731.337	0.0165429
731.415	0.0167112
731.494	0.0166673
731.572	0.0166016
731.650	0.0166331
731.728	0.0166277
731.806	0.0166190
731.884	0.0166797
731.962	0.0166738
732.040	0.0166010
732.119	0.0165887
732.197	0.0164893
732.275	0.0166394
732.353	0.0165855
732.431	0.0165761
732.509	0.0166406
732.587	0.0164474
732.665	0.0164635
732.744	0.0164883
732.822	0.0164604
732.900	0.0164426
732.978	0.0163061
733.056	0.0162719
733.134	0.0161649
733.212	0.0161580
733.290	0.0161601
733.369	0.0160954
733.447	0.0162850
733.525	0.0161256
733.603	0.0161113
733.681	0.0161367
733.759	0.0159906
733.837	0.0160300
733.915	0.0160435
733.994	0.0159237
734.072	0.0160484
734.150	0.0159552
734.228	0.0160075
734.306	0.0160251
734.384	0.0160361
734.462	0.0159029
734.540	0.0159657
734.619	0.0159740
734.697	0.0159735
734.775	0.0160349
734.853	0.0157929
734.931	0.0158651
735.009	0.0160109
735.087	0.0160513
735.165	0.0160098
735.244	0.0159753
735.322	0.0159357
735.400	0.0158582
735.478	0.0157645
735.556	0.0158707
735.634	0.0158703
735.712	0.0157513
735.790	0.0158273
735.869	0.0158447
735.947	0.0157322
736.025	0.0158416
736.103	0.0157423
736.181	0.0157654
736.259	0.0158436
736.337	0.0156562
736.415	0.0157498
736.494	0.0157236
736.572	0.0158135
736.650	0.0159462
736.728	0.0159872
736.806	0.0158352
736.884	0.0160368
736.962	0.0160067
737.040	0.0160831
737.119	0.0162668
737.197	0.0163177
737.275	0.0163317
737.353	0.0163143
737.431	0.0163817
737.509	0.0164301
737.587	0.0164557
737.665	0.0164656
737.744	0.0163012
737.822	0.0163847
737.900	0.0164275
737.978	0.0164232
738.056	0.0163885
738.134	0.0164388
738.212	0.0163578
738.290	0.0164863
738.369	0.0164338
738.447	0.0164125
738.525	0.0163736
738.603	0.0163165
738.681	0.0163155
738.759	0.0163892
738.837	0.0162636
738.915	0.0163555
738.994	0.0163979
739.072	0.0163369
739.150	0.0164765
739.228	0.0164040
739.306	0.0163412
739.384	0.0164174
739.462	0.0163273
739.540	0.0164365
739.619	0.0162889
739.697	0.0163728
739.775	0.0164520
739.853	0.0162923
739.931	0.0162096
740.009	0.0162299
740.087	0.0162049
740.165	0.0161310
740.244	0.0160141
740.322	0.0160502
740.400	0.0161046
740.478	0.0161073
740.556	0.0162149
740.634	0.0162063
740.712	0.0163087
740.790	0.0162541
740.869	0.0160952
740.947	0.0163465
741.025	0.0162218
741.103	0.0162024
741.181	0.0161402
741.259	0.0161853
741.337	0.0160257
741.415	0.0160786
741.494	0.0161833
741.572	0.0160235
741.650	0.0160133
741.728	0.0160262
741.806	0.0159412
741.884	0.0160331
741.962	0.0161405
742.040	0.0160099
742.119	0.0161337
742.197	0.0160294
742.275	0.0161543
742.353	0.0162053
742.431	0.0162621
742.509	0.0162122
742.587	0.0161485
742.665	0.0160569
742.744	0.0161797
742.822	0.0161761
742.900	0.0160376
742.978	0.0161782
743.056	0.0161095
743.134	0.0160623
743.212	0.0160762
743.290	0.0162200
743.369	0.0160940
743.447	0.0160281
743.525	0.0160341
743.603	0.0160131
743.681	0.0160448
743.759	0.0160143
743.837	0.0161646
743.915	0.0160278
743.994	0.0161497
744.072	0.0160170
744.150	0.0159715
744.228	0.0161192
744.306	0.0159023
744.384	0.0160876
744.462	0.0160961
744.540	0.0162753
744.619	0.0162183
744.697	0.0160944
744.775	0.0161335
744.853	0.0162949
744.931	0.0162811
745.009	0.0162478
745.087	0.0162050
745.165	0.0162551
745.244	0.0164564
745.322	0.0163193
745.400	0.0163078
745.478	0.0163971
745.556	0.0163086
745.634	0.0162644
745.712	0.0163377
745.790	0.0163686
745.869	0.0161753
745.947	0.0162388
746.025	0.0163380
746.103	0.0161723
746.181	0.0162043
746.259	0.0161490
746.337	0.0163287
746.415	0.0161998
746.494	0.0163480
746.572	0.0162706
746.650	0.0163312
746.728	0.0163359
746.806	0.0162637
746.884	0.0163200
746.962	0.0164191
747.040	0.0164646
747.119	0.0163799
747.197	0.0164322
747.275	0.0163811
747.353	0.0164489
747.431	0.0162865
747.509	0.0162428
747.587	0.0162488
747.665	0.0162673
747.744	0.0162100
747.822	0.0163425
747.900	0.0163578
747.978	0.0162479
748.056	0.0162362
748.134	0.0161703
748.212	0.0161566
748.290	0.0164317
748.369	0.0163827
748.447	0.0163872
748.525	0.0163919
748.603	0.0162334
748.681	0.0162298
748.759	0.0163291
748.837	0.0163678
748.915	0.0162567
748.994	0.0162647
749.072	0.0162256
749.150	0.0162560
749.228	0.0161602
749.306	0.0161694
749.384	0.0162243
749.462	0.0161466
749.540	0.0160906
749.619	0.0161670
749.697	0.0160911
749.775	0.0161536
749.853	0.0161564
749.931	0.0160471
750.009	0.0160666
750.087	0.0161839
750.165	0.0160530
750.244	0.0161853
750.322	0.0160117
750.400	0.0158596
750.478	0.0159183
750.556	0.0160336
750.634	0.0160120
750.712	0.0158721
750.790	0.0158163
750.869	0.0158644
750.947	0.0158758
751.025	0.0158353
751.103	0.0157777
751.181	0.0158704
751.259	0.0159686
751.337	0.0160494
751.415	0.0160645
751.494	0.0160380
751.572	0.0160435
751.650	0.0160291
751.728	0.0160362
751.806	0.0160514
751.884	0.0161760
751.962	0.0160980
752.040	0.0160878
752.119	0.0160339
752.197	0.0162457
752.275	0.0161371
752.353	0.0160980
752.431	0.0162954
752.509	0.0160756
752.587	0.0162122
752.665	0.0163718
752.744	0.0164233
752.822	0.0164053
752.900	0.0164377
752.978	0.0163355
753.056	0.0163911
753.134	0.0164518
753.212	0.0164452
753.290	0.0162151
753.369	0.0162950
753.447	0.0163303
753.525	0.0163205
753.603	0.0163181
753.681	0.0161830
753.759	0.0161423
753.837	0.0161943
753.915	0.0160970
753.994	0.0160669
754.072	0.0161745
754.150	0.0162416
754.228	0.0162475
754.306	0.0161658
754.384	0.0163042
754.462	0.0163119
754.540	0.0163072
754.619	0.0163633
754.697	0.0162991
754.775	0.0162779
754.853	0.0163058
754.931	0.0163176
755.009	0.0162967
755.087	0.0162619
755.165	0.0163721
755.244	0.0162102
755.322	0.0162576
755.400	0.0161855
755.478	0.0161864
755.556	0.0162886
755.634	0.0163190
755.712	0.0161775
755.790	0.0161903
755.869	0.0162379
755.947	0.0161852
756.025	0.0162462
756.103	0.0163696
756.181	0.0162927
756.259	0.0162323
756.337	0.0161707
756.415	0.0161749
756.494	0.0160732
756.572	0.0161460
756.650	0.0159764
756.728	0.0159432
756.806	0.0159476
756.884	0.0160238
756.962	0.0159708
757.040	0.0158485
757.119	0.0157841
757.197	0.0158006
757.275	0.0158401
757.353	0.0159124
757.431	0.0159542
757.509	0.0158030
757.587	0.0158665
757.665	0.0159919
757.744	0.0159713
757.822	0.0158808
757.900	0.0159503
757.978	0.0159238
758.056	0.0158692
758.134	0.0160349
758.212	0.0159948
758.290	0.0158968
758.369	0.0159088
758.447	0.0158442
758.525	0.0159381
758.603	0.0159382
758.681	0.0160607
758.759	0.0161264
758.837	0.0160506
758.915	0.0160076
758.994	0.0161050
759.072	0.0159753
759.150	0.0160204
759.228	0.0161726
759.306	0.0161368
759.384	0.0161776
759.462	0.0162407
759.540	0.0162009
759.619	0.0161673
759.697	0.0162141
759.775	0.0163002
759.853	0.0162399
759.931	0.0161903
760.009	0.0161744
760.087	0.0162340
760.165	0.0161976
760.244	0.0161162
760.322	0.0162074
760.400	0.0162638
760.478	0.0163509
760.556	0.0163342
760.634	0.0163017
760.712	0.0162853
760.790	0.0163017
760.869	0.0163271
760.947	0.0163380
761.025	0.0163793
761.103	0.0162060
761.181	0.0162467
761.259	0.0161707
761.337	0.0161967
761.415	0.0161294
761.494	0.0161601
761.572	0.0161349
761.650	0.0161116
761.728	0.0160369
761.806	0.0161762
761.884	0.0161533
761.962	0.0161880
762.040	0.0162561
762.119	0.0161810
762.197	0.0160818
762.275	0.0161693
762.353	0.0162960
762.431	0.0162421
762.509	0.0160986
762.587	0.0161568
762.665	0.0160969
762.744	0.0159556
762.822	0.0160024
762.900	0.0161709
762.978	0.0160001
763.056	0.0159791
763.134	0.0160461
763.212	0.0161362
763.290	0.0160637
763.369	0.0160946
763.447	0.0159821
763.525	0.0160334
763.603	0.0160065
763.681	0.0161143
763.759	0.0161087
763.837	0.0161612
763.915	0.0160114
763.994	0.0160873
764.072	0.0161163
764.150	0.0160387
764.228	0.0160201
764.306	0.0160804
764.384	0.0160227
764.462	0.0159369
764.540	0.0161149
764.619	0.0160123
764.697	0.0160053
764.775	0.0159315
764.853	0.0159091
764.931	0.0159857
765.009	0.0159914
765.087	0.0161903
765.165	0.0160760
765.244	0.0159827
765.322	0.0158905
765.400	0.0161371
765.478	0.0160742
765.556	0.0160281
765.634	0.0160014
765.712	0.0160675
765.790	0.0159965
765.869	0.0160844
765.947	0.0160250
766.025	0.0159942
766.103	0.0160458
766.181	0.0160593
766.259	0.0159858
766.337	0.0159230
766.415	0.0159471
766.494	0.0159293
766.572	0.0159238
766.650	0.0161028
766.728	0.0160754
766.806	0.0162486
766.884	0.0161489
766.962	0.0162155
767.040	0.0163367
767.119	0.0162720
767.197	0.0162387
767.275	0.0164007
767.353	0.0163541
767.431	0.0162914
767.509	0.0163834
767.587	0.0162605
767.665	0.0162155
767.744	0.0163239
767.822	0.0163370
767.900	0.0162754
767.978	0.0163745
768.056	0.0162643
768.134	0.0162679
768.212	0.0164288
768.290	0.0163239
768.369	0.0162394
768.447	0.0162263
768.525	0.0162412
768.603	0.0162062
768.681	0.0163360
768.759	0.0162838
768.837	0.0161854
768.915	0.0161293
768.994	0.0162564
769.072	0.0163113
769.150	0.0162166
769.228	0.0162767
769.306	0.0162183
769.384	0.0161288
769.462	0.0162638
769.540	0.0162209
769.619	0.0161295
769.697	0.0162610
769.775	0.0162472
769.853	0.0161688
769.931	0.0162500
770.009	0.0161845
770.087	0.0161037
770.165	0.0161301
770.244	0.0161903
770.322	0.0160995
770.400	0.0162325
770.478	0.0161771
770.556	0.0162007
770.634	0.0160773
770.712	0.0160335
770.790	0.0160785
770.869	0.0161100
770.947	0.0161384
771.025	0.0160793
771.103	0.0161181
771.181	0.0163181
771.259	0.0162014
771.337	0.0161484
771.415	0.0160905
771.494	0.0162351
771.572	0.0161803
771.650	0.0162011
771.728	0.0162884
771.806	0.0161836
771.884	0.0162012
771.962	0.0161448
772.040	0.0161847
772.119	0.0161522
772.197	0.0160046
772.275	0.0162218
772.353	0.0162147
772.431	0.0160529
772.509	0.0160362
772.587	0.0160703
772.665	0.0160952
772.744	0.0161106
772.822	0.0162061
772.900	0.0160738
772.978	0.0160733
773.056	0.0161832
773.134	0.0161573
773.212	0.0160871
773.290	0.0162045
773.369	0.0163154
773.447	0.0162507
773.525	0.0161440
773.603	0.0163706
773.681	0.0161236
773.759	0.0162712
773.837	0.0161600
773.915	0.0162244
773.994	0.0161463
774.072	0.0161145
774.150	0.0161689
774.228	0.0162200
774.306	0.0162897
774.384	0.0161372
774.462	0.0161257
774.540	0.0163694
774.619	0.0162201
774.697	0.0163388
774.775	0.0162027
774.853	0.0163757
774.931	0.0164430
775.009	0.0162563
775.087	0.0163626
775.165	0.0163580
775.244	0.0163354
775.322	0.0161372
775.400	0.0162784
775.478	0.0162191
775.556	0.0163552
775.634	0.0160547
775.712	0.0161890
775.790	0.0163161
775.869	0.0162758
775.947	0.0161521
776.025	0.0162560
776.103	0.0164012
776.181	0.0161175
776.259	0.0164046
776.337	0.0162148
776.415	0.0161578
776.494	0.0162064
776.572	0.0160094
776.650	0.0161176
776.728	0.0161054
776.806	0.0161092
776.884	0.0161399
776.962	0.0160916
777.040	0.0160030
777.119	0.0160934
777.197	0.0160819
777.275	0.0161097
777.353	0.0160787
777.431	0.0161984
777.509	0.0161237
777.587	0.0160297
777.665	0.0160905
777.744	0.0161433
777.822	0.0160233
777.900	0.0159114
777.978	0.0159435
778.056	0.0160770
778.134	0.0159512
778.212	0.0158898
778.290	0.0159474
778.369	0.0160337
778.447	0.0160806
778.525	0.0159887
778.603	0.0161052
778.681	0.0159599
778.759	0.0159772
778.837	0.0160584
778.915	0.0160701
778.994	0.0161172
779.072	0.0159743
779.150	0.0161443
779.228	0.0160576
779.306	0.0160523
779.384	0.0161459
779.462	0.0161163
779.540	0.0160629
779.619	0.0160172
779.697	0.0159959
779.775	0.0160888
779.853	0.0161526
779.931	0.0160223
780.009	0.0161353
780.087	0.0160915
780.165	0.0159504
780.244	0.0159523
780.322	0.0161150
780.400	0.0159765
780.478	0.0159269
780.556	0.0161061
780.634	0.0160509
780.712	0.0160305
780.790	0.0160993
780.869	0.0160021
780.947	0.0160187
781.025	0.0160535
781.103	0.0162643
781.181	0.0162467
781.259	0.0162585
781.337	0.0163227
781.415	0.0162059
781.494	0.0160885
781.572	0.0160570
781.650	0.0162429
781.728	0.0163030
781.806	0.0161478
781.884	0.0160661
781.962	0.0161707
782.040	0.0164224
782.119	0.0162454
782.197	0.0160492
782.275	0.0160654
782.353	0.0161312
782.431	0.0161250
782.509	0.0161652
782.587	0.0161901
782.665	0.0163396
782.744	0.0162467
782.822	0.0162163
782.900	0.0162404
782.978	0.0161379
783.056	0.0161749
783.134	0.0161662
783.212	0.0162395
783.290	0.0160889
783.369	0.0160529
783.447	0.0161349
783.525	0.0160458
783.603	0.0160330
783.681	0.0160780
783.759	0.0162940
783.837	0.0162081
783.915	0.0162338
783.994	0.0162954
784.072	0.0161864
784.150	0.0161530
784.228	0.0162479
784.306	0.0162261
784.384	0.0162405
784.462	0.0160823
784.540	0.0162725
784.619	0.0161537
784.697	0.0160347
784.775	0.0161503
784.853	0.0160669
784.931	0.0160002
785.009	0.0162311
785.087	0.0160943
785.165	0.0160286
785.244	0.0160004
785.322	0.0159077
785.400	0.0159313
785.478	0.0161357
785.556	0.0158755
785.634	0.0158606
785.712	0.0160406
785.790	0.0160424
785.869	0.0160684
785.947	0.0159695
786.025	0.0160069
786.103	0.0160623
786.181	0.0160429
786.259	0.0161390
786.337	0.0160696
786.415	0.0160722
786.494	0.0162420
786.572	0.0161973
786.650	0.0160880
786.728	0.0161983
786.806	0.0162807
786.884	0.0162447
786.962	0.0162002
787.040	0.0162234
787.119	0.0160803
787.197	0.0163221
787.275	0.0161594
787.353	0.0162106
787.431	0.0161531
787.509	0.0161864
787.587	0.0160596
787.665	0.0162180
787.744	0.0161568
787.822	0.0160989
787.900	0.0161263
787.978	0.0161709
788.056	0.0161444
788.134	0.0162852
788.212	0.0161972
788.290	0.0160889
788.369	0.0162911
788.447	0.0163378
788.525	0.0163384
788.603	0.0162122
788.681	0.0163741
788.759	0.0162299
788.837	0.0162161
788.915	0.0163074
788.994	0.0163364
789.072	0.0162356
789.150	0.0164246
789.228	0.0162063
789.306	0.0163197
789.384	0.0163848
789.462	0.0162183
789.540	0.0163809
789.619	0.0163049
789.697	0.0162209
789.775	0.0161945
789.853	0.0161423
789.931	0.0160617
790.009	0.0161514
790.087	0.0162449
790.165	0.0160979
790.244	0.0161782
790.322	0.0162737
790.400	0.0162427
790.478	0.0161559
790.556	0.0160988
790.634	0.0161847
790.712	0.0160860
790.790	0.0162193
790.869	0.0162171
790.947	0.0161996
791.025	0.0162362
791.103	0.0162425
791.181	0.0160367
791.259	0.0161294
791.337	0.0161820
791.415	0.0160727
791.494	0.0160995
791.572	0.0159527
791.650	0.0160068
791.728	0.0160205
791.806	0.0162076
791.884	0.0161608
791.962	0.0159762
792.040	0.0159454
792.119	0.0160835
792.197	0.0161880
792.275	0.0160210
792.353	0.0159988
792.431	0.0160990
792.509	0.0161726
792.587	0.0161884
792.665	0.0159020
792.744	0.0160123
792.822	0.0161413
792.900	0.0161646
792.978	0.0161169
793.056	0.0161814
793.134	0.0161073
793.212	0.0159933
793.290	0.0160590
793.369	0.0161958
793.447	0.0160923
793.525	0.0160574
793.603	0.0160840
793.681	0.0161429
793.759	0.0160825
793.837	0.0160072
793.915	0.0163234
793.994	0.0161473
794.072	0.0160727
794.150	0.0161855
794.228	0.0161994
794.306	0.0162070
794.384	0.0162070
794.462	0.0162766
794.540	0.0162279
794.619	0.0163869
794.697	0.0162197
794.775	0.0162339
794.853	0.0162187
794.931	0.0162905
795.009	0.0164601
795.087	0.0163271
795.165	0.0161746
795.244	0.0163804
795.322	0.0163815
795.400	0.0162928
795.478	0.0162878
795.556	0.0163644
795.634	0.0162667
795.712	0.0162507
795.790	0.0162552
795.869	0.0161417
795.947	0.0162396
796.025	0.0164158
796.103	0.0162904
796.181	0.0161597
796.259	0.0162435
796.337	0.0161768
796.415	0.0161518
796.494	0.0162656
796.572	0.0161813
796.650	0.0160656
796.728	0.0160605
796.806	0.0161588
796.884	0.0161151
796.962	0.0161935
797.040	0.0160566
797.119	0.0160909
797.197	0.0161429
797.275	0.0161324
797.353	0.0159373
797.431	0.0160046
797.509	0.0159621
797.587	0.0159896
797.665	0.0160734
797.744	0.0159158
797.822	0.0159020
797.900	0.0159126
797.978	0.0159456
798.056	0.0159631
798.134	0.0159892
798.212	0.0160717
798.290	0.0160862
798.369	0.0162183
798.447	0.0160689
798.525	0.0160494
798.603	0.0160594
798.681	0.0161068
798.759	0.0160767
798.837	0.0160529
798.915	0.0160921
798.994	0.0161012
799.072	0.0162103
799.150	0.0160764
799.228	0.0162080
799.306	0.0160609
799.384	0.0162558
799.462	0.0161105
799.540	0.0160867
799.619	0.0160641
799.697	0.0161543
799.775	0.0162951
799.853	0.0162424
799.931	0.0162412
800.009	0.0161488
800.087	0.0160535
800.165	0.0162625
800.244	0.0164180
800.322	0.0162666
800.400	0.0162695
800.478	0.0163631
800.556	0.0164299
800.634	0.0162445
800.712	0.0162633
800.790	0.0163405
800.869	0.0161761
800.947	0.0164146
801.025	0.0162654
801.103	0.0161964
801.181	0.0162572
801.259	0.0162280
801.337	0.0163938
801.415	0.0161244
801.494	0.0163160
801.572	0.0162099
801.650	0.0161237
801.728	0.0162687
801.806	0.0162074
801.884	0.0163512
801.962	0.0163960
802.040	0.0162112
802.119	0.0163284
802.197	0.0163594
802.275	0.0161906
802.353	0.0160941
802.431	0.0162267
802.509	0.0161743
802.587	0.0162007
802.665	0.0162486
802.744	0.0161312
802.822	0.0161006
802.900	0.0160987
802.978	0.0161098
803.056	0.0161722
803.134	0.0160658
803.212	0.0160281
803.290	0.0162142
803.369	0.0161575
803.447	0.0160918
803.525	0.0160223
803.603	0.0160241
803.681	0.0159732
803.759	0.0161080
803.837	0.0161536
803.915	0.0161031
803.994	0.0160749
804.072	0.0161117
804.150	0.0159459
804.228	0.0160701
804.306	0.0161691
804.384	0.0161583
804.462	0.0160974
804.540	0.0161649
804.619	0.0161684
804.697	0.0161478
804.775	0.0161177
804.853	0.0161431
804.931	0.0160146
805.009	0.0161382
805.087	0.0161786
805.165	0.0162362
805.244	0.0160914
805.322	0.0159187
805.400	0.0160540
805.478	0.0160548
805.556	0.0161623
805.634	0.0162179
805.712	0.0162621
805.790	0.0161403
805.869	0.0161333
805.947	0.0163286
806.025	0.0160291
806.103	0.0161568
806.181	0.0160497
806.259	0.0161919
806.337	0.0163843
806.415	0.0162454
806.494	0.0161119
806.572	0.0162735
806.650	0.0163295
806.728	0.0162214
806.806	0.0162122
806.884	0.0161923
806.962	0.0163098
807.040	0.0161876
807.119	0.0162754
807.197	0.0164038
807.275	0.0162714
807.353	0.0161871
807.431	0.0162791
807.509	0.0162935
807.587	0.0162614
807.665	0.0161942
807.744	0.0164193
807.822	0.0163167
807.900	0.0164405
807.978	0.0162622
808.056	0.0162506
808.134	0.0164470
808.212	0.0163611
808.290	0.0163457
808.369	0.0162589
808.447	0.0163161
808.525	0.0162960
808.603	0.0163338
808.681	0.0162725
808.759	0.0163090
808.837	0.0162388
808.915	0.0163149
808.994	0.0162728
809.072	0.0163609
809.150	0.0161971
809.228	0.0161988
809.306	0.0162531
809.384	0.0162735
809.462	0.0163280
809.540	0.0163132
809.619	0.0162080
809.697	0.0160168
809.775	0.0161605
809.853	0.0162163
809.931	0.0162198
810.009	0.0162326
810.087	0.0162106
810.165	0.0161758
810.244	0.0161908
810.322	0.0162121
810.400	0.0162238
810.478	0.0162579
810.556	0.0162241
810.634	0.0161630
810.712	0.0162863
810.790	0.0163725
810.869	0.0161097
810.947	0.0162432
811.025	0.0161667
811.103	0.0162311
811.181	0.0162157
811.259	0.0162493
811.337	0.0161088
811.415	0.0160807
811.494	0.0160332
811.572	0.0160261
811.650	0.0161270
811.728	0.0160327
811.806	0.0160919
811.884	0.0159792
811.962	0.0159436
812.040	0.0159904
812.119	0.0162167
812.197	0.0161126
812.275	0.0157836
812.353	0.0159238
812.431	0.0160938
812.509	0.0159311
812.587	0.0160276
812.665	0.0160970
812.744	0.0161246
812.822	0.0159929
812.900	0.0159538
812.978	0.0161637
813.056	0.0160902
813.134	0.0160261
813.212	0.0161699
813.290	0.0162746
813.369	0.0163058
813.447	0.0162150
813.525	0.0159505
813.603	0.0161997
813.681	0.0162226
813.759	0.0160912
813.837	0.0161617
813.915	0.0161576
813.994	0.0161300
814.072	0.0160405
814.150	0.0161436
814.228	0.0160234
814.306	0.0162529
814.384	0.0161852
814.462	0.0162393
814.540	0.0161575
814.619	0.0162626
814.697	0.0162354
814.775	0.0162743
814.853	0.0162432
814.931	0.0161906
815.009	0.0162644
815.087	0.0161279
815.165	0.0162289
815.244	0.0162517
815.322	0.0162554
815.400	0.0162186
815.478	0.0162018
815.556	0.0161840
815.634	0.0160812
815.712	0.0160820
815.790	0.0160121
815.869	0.0163578
815.947	0.0161774
816.025	0.0162735
816.103	0.0162913
816.181	0.0162967
816.259	0.0161273
816.337	0.0162380
816.415	0.0162716
816.494	0.0161337
816.572	0.0162058
816.650	0.0162061
816.728	0.0161538
816.806	0.0160470
816.884	0.0161633
816.962	0.0161778
817.040	0.0160725
817.119	0.0160880
817.197	0.0161134
817.275	0.0161776
817.353	0.0159991
817.431	0.0159566
817.509	0.0159946
817.587	0.0161382
817.665	0.0159253
817.744	0.0161111
817.822	0.0162714
817.900	0.0160411
817.978	0.0158470
818.056	0.0160512
818.134	0.0161913
818.212	0.0161239
818.290	0.0159739
818.369	0.0160044
818.447	0.0159951
818.525	0.0162504
818.603	0.0160690
818.681	0.0160440
818.759	0.0160801
818.837	0.0160635
818.915	0.0161536
818.994	0.0161296
819.072	0.0159804
819.150	0.0159492
819.228	0.0160851
819.306	0.0160204
819.384	0.0159481
819.462	0.0160156
819.540	0.0160603
819.619	0.0162367
819.697	0.0161686
819.775	0.0161112
819.853	0.0162943
819.931	0.0161560
820.009	0.0160654
820.087	0.0162045
820.165	0.0163429
820.244	0.0163718
820.322	0.0164421
820.400	0.0162770
820.478	0.0162845
820.556	0.0162226
820.634	0.0163100
820.712	0.0163853
820.790	0.0163860
820.869	0.0162003
820.947	0.0163395
821.025	0.0162860
821.103	0.0161468
821.181	0.0161810
821.259	0.0162151
821.337	0.0162074
821.415	0.0162442
821.494	0.0161859
821.572	0.0161472
821.650	0.0161806
821.728	0.0161343
821.806	0.0161036
821.884	0.0161459
821.962	0.0161646
822.040	0.0161454
822.119	0.0160774
822.197	0.0160576
822.275	0.0161256
822.353	0.0162837
822.431	0.0161462
822.509	0.0160885
822.587	0.0161021
822.665	0.0162609
822.744	0.0161531
822.822	0.0161022
822.900	0.0162392
822.978	0.0162358
823.056	0.0161581
823.134	0.0160997
823.212	0.0161303
823.290	0.0162322
823.369	0.0162752
823.447	0.0160934
823.525	0.0161179
823.603	0.0161324
823.681	0.0160661
823.759	0.0162126
823.837	0.0162050
823.915	0.0160949
823.994	0.0160966
824.072	0.0161720
824.150	0.0162057
824.228	0.0160524
824.306	0.0160953
824.384	0.0161981
824.462	0.0162424
824.540	0.0162084
824.619	0.0162038
824.697	0.0160952
824.775	0.0161446
824.853	0.0160828
824.931	0.0161844
825.009	0.0161595
825.087	0.0161789
825.165	0.0161275
825.244	0.0160874
825.322	0.0161354
825.400	0.0161897
825.478	0.0161963
825.556	0.0161040
825.634	0.0161413
825.712	0.0162222
825.790	0.0162022
825.869	0.0161310
825.947	0.0162370
826.025	0.0160017
826.103	0.0161584
826.181	0.0161662
826.259	0.0162451
826.337	0.0161503
826.415	0.0161576
826.494	0.0161456
826.572	0.0161195
826.650	0.0162286
826.728	0.0163317
826.806	0.0162653
826.884	0.0161340
826.962	0.0161915
827.040	0.0162016
827.119	0.0162518
827.197	0.0162685
827.275	0.0161343
827.353	0.0162880
827.431	0.0163011
827.509	0.0162611
827.587	0.0162804
827.665	0.0162765
827.744	0.0163297
827.822	0.0162675
827.900	0.0163166
827.978	0.0163096
828.056	0.0162855
828.134	0.0162876
828.212	0.0163273
828.290	0.0162859
828.369	0.0161539
828.447	0.0163204
828.525	0.0163329
828.603	0.0162097
828.681	0.0163213
828.759	0.0162939
828.837	0.0162395
828.915	0.0162295
828.994	0.0162038
829.072	0.0162131
829.150	0.0162709
829.228	0.0161564
829.306	0.0161693
829.384	0.0162997
829.462	0.0162778
829.540	0.0161727
829.619	0.0162949
829.697	0.0162473
829.775	0.0162779
829.853	0.0162909
829.931	0.0162563
830.009	0.0162962
830.087	0.0164003
830.165	0.0162255
830.244	0.0162397
830.322	0.0161464
830.400	0.0162122
830.478	0.0162071
830.556	0.0163119
830.634	0.0162562
830.712	0.0162737
830.790	0.0162164
830.869	0.0161616
830.947	0.0162656
831.025	0.0162023
831.103	0.0162771
831.181	0.0162658
831.259	0.0162775
831.337	0.0162362
831.415	0.0161462
831.494	0.0161266
831.572	0.0162276
831.650	0.0161447
831.728	0.0161303
831.806	0.0160789
831.884	0.0161315
831.962	0.0160565
832.040	0.0160903
832.119	0.0161188
832.197	0.0159021
832.275	0.0160420
832.353	0.0161224
832.431	0.0161940
832.509	0.0161629
832.587	0.0159781
832.665	0.0159812
832.744	0.0161456
832.822	0.0161671
832.900	0.0160296
832.978	0.0162981
833.056	0.0162166
833.134	0.0160926
833.212	0.0162091
833.290	0.0161611
833.369	0.0161079
833.447	0.0162141
833.525	0.0160816
833.603	0.0161400
833.681	0.0162818
833.759	0.0162366
833.837	0.0161172
833.915	0.0163000
833.994	0.0162106
834.072	0.0162077
834.150	0.0162080
834.228	0.0163850
834.306	0.0162354
834.384	0.0162888
834.462	0.0163502
834.540	0.0164129
834.619	0.0163478
834.697	0.0163156
834.775	0.0162183
834.853	0.0163144
834.931	0.0163433
835.009	0.0162481
835.087	0.0163290
835.165	0.0163715
835.244	0.0163109
835.322	0.0163064
835.400	0.0162814
835.478	0.0163026
835.556	0.0163424
835.634	0.0161500
835.712	0.0162144
835.790	0.0162558
835.869	0.0162112
835.947	0.0162483
836.025	0.0161999
836.103	0.0161944
836.181	0.0162531
836.259	0.0161254
836.337	0.0163036
836.415	0.0162723
836.494	0.0161954
836.572	0.0161961
836.650	0.0160542
836.728	0.0160536
836.806	0.0160794
836.884	0.0161476
836.962	0.0162302
837.040	0.0161275
837.119	0.0160889
837.197	0.0161659
837.275	0.0162258
837.353	0.0161710
837.431	0.0159941
837.509	0.0160845
837.587	0.0161572
837.665	0.0161044
837.744	0.0161147
837.822	0.0162370
837.900	0.0162938
837.978	0.0160769
838.056	0.0160320
838.134	0.0161594
838.212	0.0163134
838.290	0.0159957
838.369	0.0160752
838.447	0.0160737
838.525	0.0161597
838.603	0.0160251
838.681	0.0160686
838.759	0.0161686
838.837	0.0162014
838.915	0.0160638
838.994	0.0160910
839.072	0.0159570
839.150	0.0159880
839.228	0.0161833
839.306	0.0160828
839.384	0.0161064
839.462	0.0161625
839.540	0.0162470
839.619	0.0162020
839.697	0.0161373
839.775	0.0162160
839.853	0.0160252
839.931	0.0161558
840.009	0.0162600
840.087	0.0162022
840.165	0.0160802
840.244	0.0161226
840.322	0.0160921
840.400	0.0160592
840.478	0.0160452
840.556	0.0161005
840.634	0.0160923
840.712	0.0160950
840.790	0.0163473
840.869	0.0162998
840.947	0.0160848
841.025	0.0161114
841.103	0.0160912
841.181	0.0162850
841.259	0.0162177
841.337	0.0161234
841.415	0.0161950
841.494	0.0161625
841.572	0.0161331
841.650	0.0162775
841.728	0.0162621
841.806	0.0162453
841.884	0.0161520
841.962	0.0161511
842.040	0.0160445
842.119	0.0161138
842.197	0.0160809
842.275	0.0161860
842.353	0.0163038
842.431	0.0160056
842.509	0.0161663
842.587	0.0163560
842.665	0.0161816
842.744	0.0162148
842.822	0.0162315
842.900	0.0160670
842.978	0.0161185
843.056	0.0161478
843.134	0.0162192
843.212	0.0162354
843.290	0.0161163
843.369	0.0161379
843.447	0.0160694
843.525	0.0160907
843.603	0.0160379
843.681	0.0161877
843.759	0.0160850
843.837	0.0161417
843.915	0.0160396
843.994	0.0161537
844.072	0.0161524
844.150	0.0161362
844.228	0.0161333
844.306	0.0160455
844.384	0.0160101
844.462	0.0160957
844.540	0.0160595
844.619	0.0161591
844.697	0.0159404
844.775	0.0159518
844.853	0.0159663
844.931	0.0159932
845.009	0.0160908
845.087	0.0160877
845.165	0.0161631
845.244	0.0160501
845.322	0.0159124
845.400	0.0160146
845.478	0.0160126
845.556	0.0159495
845.634	0.0159935
845.712	0.0159634
845.790	0.0160969
845.869	0.0159676
845.947	0.0160687
846.025	0.0159635
846.103	0.0160039
846.181	0.0161380
846.259	0.0161320
846.337	0.0160226
846.415	0.0160697
846.494	0.0160778
846.572	0.0159775
846.650	0.0159798
846.728	0.0161076
846.806	0.0159988
846.884	0.0160654
846.962	0.0160636
847.040	0.0160492
847.119	0.0162051
847.197	0.0160506
847.275	0.0161727
847.353	0.0162743
847.431	0.0160682
847.509	0.0160669
847.587	0.0160386
847.665	0.0160592
847.744	0.0160786
847.822	0.0162257
847.900	0.0160995
847.978	0.0161939
848.056	0.0160796
848.134	0.0161101
848.212	0.0161585
848.290	0.0160600
848.369	0.0160755
848.447	0.0160983
848.525	0.0162471
848.603	0.0159962
848.681	0.0161073
848.759	0.0161723
848.837	0.0162701
848.915	0.0161430
848.994	0.0160471
849.072	0.0162352
849.150	0.0162567
849.228	0.0161615
849.306	0.0161891
849.384	0.0161664
849.462	0.0162637
849.540	0.0162958
849.619	0.0161552
849.697	0.0162959
849.775	0.0160147
849.853	0.0161421
849.931	0.0161798
850.009	0.0162294
850.087	0.0162690
850.165	0.0163448
850.244	0.0161703
850.322	0.0162742
850.400	0.0162254
850.478	0.0161408
850.556	0.0161729
850.634	0.0161893
850.712	0.0162023
850.790	0.0160632
850.869	0.0161734
850.947	0.0161794
851.025	0.0160849
851.103	0.0160452
851.181	0.0159985
851.259	0.0161079
851.337	0.0160290
851.415	0.0160718
851.494	0.0161959
851.572	0.0160272
851.650	0.0162283
851.728	0.0161616
851.806	0.0160007
851.884	0.0161177
851.962	0.0161492
852.040	0.0160021
852.119	0.0161930
852.197	0.0162077
852.275	0.0162066
852.353	0.0161420
852.431	0.0161333
852.509	0.0161204
852.587	0.0161920
852.665	0.0162010
852.744	0.0160363
852.822	0.0161642
852.900	0.0161469
852.978	0.0159932
853.056	0.0161362
853.134	0.0160143
853.212	0.0161057
853.290	0.0160223
853.369	0.0160556
853.447	0.0161172
853.525	0.0160207
853.603	0.0160287
853.681	0.0161115
853.759	0.0160996
853.837	0.0161321
853.915	0.0160922
853.994	0.0160773
854.072	0.0160413
854.150	0.0161382
854.228	0.0161475
854.306	0.0161433
854.384	0.0161980
854.462	0.0160748
854.540	0.0161427
854.619	0.0161794
854.697	0.0161034
854.775	0.0159992
854.853	0.0161938
854.931	0.0161910
855.009	0.0161934
855.087	0.0161395
855.165	0.0160426
855.244	0.0162627
855.322	0.0162409
855.400	0.0161744
855.478	0.0161147
855.556	0.0162374
855.634	0.0162230
855.712	0.0161347
855.790	0.0161935
855.869	0.0162566
855.947	0.0161665
856.025	0.0161932
856.103	0.0162312
856.181	0.0162199
856.259	0.0161834
856.337	0.0162511
856.415	0.0161587
856.494	0.0161551
856.572	0.0161902
856.650	0.0160759
856.728	0.0162650
856.806	0.0160597
856.884	0.0161800
856.962	0.0162216
857.040	0.0161186
857.119	0.0161807
857.197	0.0161705
857.275	0.0161804
857.353	0.0162366
857.431	0.0161440
857.509	0.0161912
857.587	0.0163718
857.665	0.0161320
857.744	0.0161549
857.822	0.0162945
857.900	0.0162463
857.978	0.0162409
858.056	0.0161561
858.134	0.0162009
858.212	0.0161826
858.290	0.0160358
858.369	0.0161925
858.447	0.0162551
858.525	0.0161236
858.603	0.0162264
858.681	0.0162263
858.759	0.0159945
858.837	0.0160206
858.915	0.0161452
858.994	0.0160443
859.072	0.0160674
859.150	0.0159643
859.228	0.0160279
859.306	0.0159257
859.384	0.0160971
859.462	0.0161382
859.540	0.0160550
859.619	0.0160349
859.697	0.0160954
859.775	0.0160046
859.853	0.0159134
859.931	0.0160292
860.009	0.0160802
860.087	0.0160622
860.165	0.0160670
860.244	0.0161214
860.322	0.0160415
860.400	0.0159333
860.478	0.0159176
860.556	0.0160232
860.634	0.0160285
860.712	0.0158587
860.790	0.0159109
860.869	0.0159660
860.947	0.0160979
861.025	0.0158809
861.103	0.0159801
861.181	0.0159914
861.259	0.0160236
861.337	0.0158910
861.415	0.0159394
861.494	0.0160574
861.572	0.0160603
861.650	0.0160151
861.728	0.0161060
861.806	0.0160806
861.884	0.0161647
861.962	0.0160699
862.040	0.0160699
862.119	0.0162125
862.197	0.0162202
862.275	0.0161549
862.353	0.0161929
862.431	0.0162488
862.509	0.0162807
862.587	0.0161766
862.665	0.0163045
862.744	0.0163634
862.822	0.0161896
862.900	0.0163420
862.978	0.0162131
863.056	0.0163693
863.134	0.0161295
863.212	0.0162530
863.290	0.0161505
863.369	0.0160994
863.447	0.0160851
863.525	0.0160870
863.603	0.0161777
863.681	0.0162093
863.759	0.0160226
863.837	0.0161131
863.915	0.0161179
863.994	0.0161166
864.072	0.0161063
864.150	0.0160046
864.228	0.0161040
864.306	0.0161308
864.384	0.0161549
864.462	0.0162160
864.540	0.0162236
864.619	0.0162138
864.697	0.0162675
864.775	0.0162385
864.853	0.0161610
864.931	0.0161237
865.009	0.0161803
865.087	0.0161792
865.165	0.0161935
865.244	0.0161308
865.322	0.0159885
865.400	0.0160525
865.478	0.0161381
865.556	0.0160325
865.634	0.0161047
865.712	0.0161400
865.790	0.0160826
865.869	0.0159762
865.947	0.0160121
866.025	0.0162057
866.103	0.0161555
866.181	0.0161693
866.259	0.0160587
866.337	0.0162000
866.415	0.0159953
866.494	0.0161849
866.572	0.0161376
866.650	0.0163618
866.728	0.0161539
866.806	0.0162724
866.884	0.0163352
866.962	0.0161324
867.040	0.0161984
867.119	0.0162191
867.197	0.0162276
867.275	0.0162595
867.353	0.0161214
867.431	0.0160765
867.509	0.0162429
867.587	0.0162199
867.665	0.0161947
867.744	0.0162051
867.822	0.0162309
867.900	0.0161979
867.978	0.0160744
868.056	0.0161214
868.134	0.0161172
868.212	0.0160461
868.290	0.0162153
868.369	0.0162184
868.447	0.0161340
868.525	0.0161778
868.603	0.0162156
868.681	0.0160651
868.759	0.0161182
868.837	0.0160439
868.915	0.0161582
868.994	0.0162672
869.072	0.0161415
869.150	0.0162354
869.228	0.0162411
869.306	0.0160848
869.384	0.0161369
869.462	0.0162327
869.540	0.0162547
869.619	0.0162243
869.697	0.0161307
869.775	0.0160164
869.853	0.0161353
869.931	0.0159798
870.009	0.0160773
870.087	0.0162081
870.165	0.0161892
870.244	0.0161861
870.322	0.0162041
870.400	0.0161154
870.478	0.0160960
870.556	0.0162114
870.634	0.0161450
870.712	0.0161811
870.790	0.0162330
870.869	0.0162556
870.947	0.0162399
871.025	0.0162553
871.103	0.0162167
871.181	0.0162559
871.259	0.0161963
871.337	0.0162859
871.415	0.0163103
871.494	0.0162608
871.572	0.0162545
871.650	0.0161792
871.728	0.0161717
871.806	0.0163138
871.884	0.0161459
871.962	0.0162241
872.040	0.0161639
872.119	0.0161751
872.197	0.0163189
872.275	0.0162399
872.353	0.0161846
872.431	0.0162371
872.509	0.0161003
872.587	0.0160913
872.665	0.0160236
872.744	0.0161494
872.822	0.0162182
872.900	0.0161433
872.978	0.0161599
873.056	0.0161636
873.134	0.0161835
873.212	0.0162394
873.290	0.0161294
873.369	0.0162166
873.447	0.0161710
873.525	0.0162255
873.603	0.0162980
873.681	0.0162282
873.759	0.0162648
873.837	0.0161641
873.915	0.0161948
873.994	0.0161657
874.072	0.0160992
874.150	0.0160969
874.228	0.0160851
874.306	0.0161867
874.384	0.0161143
874.462	0.0161350
874.540	0.0161518
874.619	0.0160622
874.697	0.0161576
874.775	0.0162032
874.853	0.0161778
874.931	0.0159560
875.009	0.0160856
875.087	0.0162740
875.165	0.0161154
875.244	0.0160362
875.322	0.0161904
875.400	0.0160737
875.478	0.0162066
875.556	0.0160628
875.634	0.0161379
875.712	0.0160806
875.790	0.0161302
875.869	0.0161208
875.947	0.0161543
876.025	0.0160426
876.103	0.0160388
876.181	0.0160854
876.259	0.0161347
876.337	0.0160912
876.415	0.0161343
876.494	0.0159860
876.572	0.0160144
876.650	0.0160721
876.728	0.0160701
876.806	0.0161018
876.884	0.0161266
876.962	0.0161960
877.040	0.0161480
877.119	0.0160937
877.197	0.0160674
877.275	0.0160782
877.353	0.0159785
877.431	0.0161764
877.509	0.0160166
877.587	0.0162016
877.665	0.0160237
877.744	0.0160416
877.822	0.0160393
877.900	0.0160778
877.978	0.0160926
878.056	0.0161674
878.134	0.0160551
878.212	0.0159592
878.290	0.0160846
878.369	0.0160854
878.447	0.0160860
878.525	0.0160552
878.603	0.0161629
878.681	0.0160811
878.759	0.0159098
878.837	0.0160971
878.915	0.0160321
878.994	0.0160781
879.072	0.0160928
879.150	0.0161063
879.228	0.0161514
879.306	0.0160902
879.384	0.0161398
879.462	0.0160851
879.540	0.0160922
879.619	0.0161146
879.697	0.0161258
879.775	0.0161477
879.853	0.0162130
879.931	0.0161249
880.009	0.0161604
880.087	0.0161503
880.165	0.0162457
880.244	0.0161013
880.322	0.0160491
880.400	0.0161330
880.478	0.0162106
880.556	0.0161498
880.634	0.0161773
880.712	0.0162222
880.790	0.0161684
880.869	0.0160804
880.947	0.0160675
881.025	0.0161343
881.103	0.0161634
881.181	0.0161903
881.259	0.0161394
881.337	0.0160254
881.415	0.0160199
881.494	0.0160483
881.572	0.0160984
881.650	0.0162331
881.728	0.0161933
881.806	0.0161300
881.884	0.0160565
881.962	0.0161766
882.040	0.0159280
882.119	0.0160765
882.197	0.0160767
882.275	0.0161662
882.353	0.0161415
882.431	0.0160232
882.509	0.0161013
882.587	0.0161244
882.665	0.0161124
882.744	0.0160588
882.822	0.0161494
882.900	0.0161817
882.978	0.0161462
883.056	0.0161197
883.134	0.0161659
883.212	0.0163053
883.290	0.0161534
883.369	0.0161600
883.447	0.0161066
883.525	0.0160635
883.603	0.0161366
883.681	0.0161253
883.759	0.0161189
883.837	0.0162421
883.915	0.0162249
883.994	0.0162344
884.072	0.0159367
884.150	0.0160622
884.228	0.0163110
884.306	0.0162476
884.384	0.0162381
884.462	0.0162596
884.540	0.0161686
884.619	0.0162679
884.697	0.0159984
884.775	0.0160797
884.853	0.0160458
884.931	0.0161540
885.009	0.0163890
885.087	0.0161947
885.165	0.0161418
885.244	0.0161860
885.322	0.0159198
885.400	0.0161565
885.478	0.0161403
885.556	0.0161597
885.634	0.0161342
885.712	0.0160391
885.790	0.0159840
885.869	0.0161259
885.947	0.0160339
886.025	0.0161382
886.103	0.0160692
886.181	0.0160731
886.259	0.0160948
886.337	0.0161534
886.415	0.0161606
886.494	0.0161623
886.572	0.0161520
886.650	0.0161476
886.728	0.0161227
886.806	0.0161460
886.884	0.0160464
886.962	0.0162776
887.040	0.0163715
887.119	0.0160328
887.197	0.0160979
887.275	0.0162650
887.353	0.0161395
887.431	0.0162171
887.509	0.0162783
887.587	0.0160794
887.665	0.0161341
887.744	0.0162630
887.822	0.0160330
887.900	0.0162859
887.978	0.0162833
888.056	0.0163143
888.134	0.0162312
888.212	0.0161736
888.290	0.0160517
888.369	0.0163568
888.447	0.0164169
888.525	0.0162122
888.603	0.0162578
888.681	0.0163028
888.759	0.0162134
888.837	0.0161273
888.915	0.0161996
888.994	0.0163029
889.072	0.0163323
889.150	0.0163430
889.228	0.0162881
889.306	0.0162040
889.384	0.0163936
889.462	0.0162572
889.540	0.0163033
889.619	0.0163305
889.697	0.0163063
889.775	0.0162283
889.853	0.0162067
889.931	0.0162807
890.009	0.0161956
890.087	0.0161210
890.165	0.0162206
890.244	0.0161507
890.322	0.0161654
890.400	0.0161535
890.478	0.0162187
890.556	0.0161867
890.634	0.0161295
890.712	0.0161286
890.790	0.0161176
890.869	0.0160674
890.947	0.0162641
891.025	0.0159129
891.103	0.0160208
891.181	0.0162347
891.259	0.0161084
891.337	0.0161110
891.415	0.0161043
891.494	0.0161486
891.572	0.0160766
891.650	0.0160034
891.728	0.0159640
891.806	0.0160891
891.884	0.0161579
891.962	0.0159896
892.040	0.0162780
892.119	0.0162600
892.197	0.0161504
892.275	0.0160328
892.353	0.0161571
892.431	0.0160323
892.509	0.0162936
892.587	0.0162188
892.665	0.0160411
892.744	0.0160779
892.822	0.0160285
892.900	0.0161458
892.978	0.0161428
893.056	0.0163912
893.134	0.0162731
893.212	0.0160726
893.290	0.0161187
893.369	0.0163151
893.447	0.0162296
893.525	0.0160370
893.603	0.0161705
893.681	0.0161589
893.759	0.0160541
893.837	0.0160759
893.915	0.0161197
893.994	0.0162558
894.072	0.0162877
894.150	0.0161812
894.228	0.0162541
894.306	0.0161499
894.384	0.0161929
894.462	0.0161842
894.540	0.0162561
894.619	0.0162849
894.697	0.0162444
894.775	0.0161954
894.853	0.0162014
894.931	0.0162363
895.009	0.0162305
895.087	0.0162758
895.165	0.0161681
895.244	0.0163466
895.322	0.0162859
895.400	0.0161687
895.478	0.0162440
895.556	0.0163418
895.634	0.0161251
895.712	0.0162969
895.790	0.0162827
895.869	0.0161878
895.947	0.0162972
896.025	0.0162514
896.103	0.0162354
896.181	0.0162315
896.259	0.0162494
896.337	0.0160506
896.415	0.0163367
896.494	0.0161513
896.572	0.0162505
896.650	0.0162029
896.728	0.0161256
896.806	0.0161940
896.884	0.0161301
896.962	0.0160246
897.040	0.0159664
897.119	0.0160272
897.197	0.0161971
897.275	0.0162414
897.353	0.0163247
897.431	0.0162210
897.509	0.0161862
897.587	0.0161938
897.665	0.0162907
897.744	0.0163557
897.822	0.0161565
897.900	0.0162251
897.978	0.0162028
898.056	0.0163221
898.134	0.0162498
898.212	0.0161809
898.290	0.0162200
898.369	0.0162320
898.447	0.0163787
898.525	0.0162617
898.603	0.0161469
898.681	0.0162466
898.759	0.0161993
898.837	0.0162355
898.915	0.0160749
898.994	0.0161190
899.072	0.0161773
899.150	0.0161041
899.228	0.0160555
899.306	0.0161552
899.384	0.0160809
899.462	0.0162799
899.540	0.0161527
899.619	0.0160858
899.697	0.0161774
899.775	0.0163199
899.853	0.0161633
899.931	0.0160476
900.009	0.0161954
900.087	0.0161285
900.165	0.0161855
900.244	0.0162296
900.322	0.0161492
900.400	0.0160693
900.478	0.0162422
900.556	0.0161708
900.634	0.0161896
900.712	0.0161780
900.790	0.0160956
900.869	0.0160582
900.947	0.0162438
901.025	0.0160535
901.103	0.0160760
901.181	0.0159605
901.259	0.0160614
901.337	0.0160030
901.415	0.0160729
901.494	0.0159559
901.572	0.0159818
901.650	0.0161156
901.728	0.0159793
901.806	0.0160562
901.884	0.0161456
901.962	0.0160085
902.040	0.0161446
902.119	0.0161285
902.197	0.0161144
902.275	0.0161089
902.353	0.0160876
902.431	0.0160525
902.509	0.0161039
902.587	0.0162193
902.665	0.0162279
902.744	0.0161701
902.822	0.0161909
902.900	0.0161884
902.978	0.0161257
903.056	0.0160944
903.134	0.0160739
903.212	0.0161315
903.290	0.0161502
903.369	0.0160883
903.447	0.0161565
903.525	0.0162289
903.603	0.0162407
903.681	0.0162289
903.759	0.0161628
903.837	0.0163388
903.915	0.0163488
903.994	0.0163701
904.072	0.0163725
904.150	0.0162175
904.228	0.0163518
904.306	0.0162471
904.384	0.0162691
904.462	0.0163075
904.540	0.0161761
904.619	0.0161930
904.697	0.0162786
904.775	0.0163010
904.853	0.0161686
904.931	0.0160973
905.009	0.0162055
905.087	0.0161784
905.165	0.0160612
905.244	0.0163173
905.322	0.0162547
905.400	0.0162002
905.478	0.0159648
905.556	0.0161152
905.634	0.0163013
905.712	0.0161951
905.790	0.0163090
905.869	0.0163413
905.947	0.0161798
906.025	0.0162866
906.103	0.0162797
906.181	0.0160720
906.259	0.0162232
906.337	0.0162597
906.415	0.0161720
906.494	0.0161017
906.572	0.0161092
906.650	0.0162143
906.728	0.0162627
906.806	0.0160560
906.884	0.0161027
906.962	0.0161427
907.040	0.0161426
907.119	0.0162399
907.197	0.0160557
907.275	0.0161792
907.353	0.0162428
907.431	0.0159933
907.509	0.0159988
907.587	0.0162851
907.665	0.0159483
907.744	0.0161023
907.822	0.0162783
907.900	0.0161701
907.978	0.0161899
908.056	0.0161161
908.134	0.0160341
908.212	0.0161024
908.290	0.0161327
908.369	0.0161418
908.447	0.0162093
908.525	0.0161466
908.603	0.0160978
908.681	0.0160698
908.759	0.0161361
908.837	0.0161376
908.915	0.0161069
908.994	0.0162562
909.072	0.0162148
909.150	0.0162820
909.228	0.0160899
909.306	0.0162406
909.384	0.0161063
909.462	0.0161584
909.540	0.0162236
909.619	0.0161951
909.697	0.0162550
909.775	0.0161730
909.853	0.0162217
909.931	0.0163474
910.009	0.0163802
910.087	0.0163937
910.165	0.0162463
910.244	0.0162354
910.322	0.0162019
910.400	0.0162572
910.478	0.0162277
910.556	0.0162627
910.634	0.0162733
910.712	0.0161826
910.790	0.0163311
910.869	0.0162991
910.947	0.0162937
911.025	0.0162482
911.103	0.0163817
911.181	0.0162641
911.259	0.0161799
911.337	0.0163805
911.415	0.0161709
911.494	0.0162483
911.572	0.0163297
911.650	0.0161940
911.728	0.0161777
911.806	0.0161919
911.884	0.0162773
911.962	0.0162827
912.040	0.0162699
912.119	0.0163090
912.197	0.0162094
912.275	0.0162102
912.353	0.0161697
912.431	0.0161691
912.509	0.0162263
912.587	0.0161211
912.665	0.0162717
912.744	0.0161899
912.822	0.0161407
912.900	0.0161286
912.978	0.0162289
913.056	0.0162447
913.134	0.0162334
913.212	0.0163140
913.290	0.0162759
913.369	0.0162759
913.447	0.0162080
913.525	0.0162493
913.603	0.0161726
913.681	0.0161048
913.759	0.0162151
913.837	0.0162323
913.915	0.0161536
913.994	0.0160633
914.072	0.0161771
914.150	0.0160725
914.228	0.0160921
914.306	0.0161749
914.384	0.0161725
914.462	0.0161082
914.540	0.0161246
914.619	0.0161913
914.697	0.0160564
914.775	0.0160417
914.853	0.0159692
914.931	0.0161049
915.009	0.0162545
915.087	0.0161274
915.165	0.0160679
915.244	0.0162503
915.322	0.0161290
915.400	0.0160957
915.478	0.0161193
915.556	0.0161515
915.634	0.0160526
915.712	0.0161164
915.790	0.0161020
915.869	0.0161797
915.947	0.0161719
916.025	0.0161356
916.103	0.0162045
916.181	0.0161100
916.259	0.0161475
916.337	0.0161333
916.415	0.0162329
916.494	0.0162444
916.572	0.0161386
916.650	0.0161700
916.728	0.0161196
916.806	0.0162555
916.884	0.0162122
916.962	0.0162255
917.040	0.0160376
917.119	0.0162538
917.197	0.0162161
917.275	0.0160796
917.353	0.0160760
917.431	0.0162270
917.509	0.0161819
917.587	0.0161167
917.665	0.0161365
917.744	0.0161952
917.822	0.0160892
917.900	0.0160706
917.978	0.0160986
918.056	0.0160788
918.134	0.0161265
918.212	0.0161150
918.290	0.0161457
918.369	0.0161340
918.447	0.0162288
918.525	0.0160699
918.603	0.0161196
918.681	0.0161212
918.759	0.0161359
918.837	0.0160962
918.915	0.0160099
918.994	0.0161683
919.072	0.0161609
919.150	0.0161277
919.228	0.0159839
919.306	0.0160961
919.384	0.0162372
919.462	0.0161923
919.540	0.0162012
919.619	0.0160635
919.697	0.0161649
919.775	0.0161645
919.853	0.0161398
919.931	0.0161454
920.009	0.0162363
920.087	0.0162435
920.165	0.0162568
920.244	0.0162585
920.322	0.0161154
920.400	0.0162139
920.478	0.0161497
920.556	0.0161871
920.634	0.0159476
920.712	0.0161878
920.790	0.0160553
920.869	0.0160920
920.947	0.0160452
921.025	0.0161630
921.103	0.0161391
921.181	0.0160499
921.259	0.0161755
921.337	0.0161826
921.415	0.0162077
921.494	0.0160252
921.572	0.0161459
921.650	0.0161848
921.728	0.0161541
921.806	0.0160802
921.884	0.0161038
921.962	0.0160690
922.040	0.0160830
922.119	0.0161380
922.197	0.0161430
922.275	0.0160683
922.353	0.0160301
922.431	0.0159970
922.509	0.0160321
922.587	0.0160395
922.665	0.0160442
922.744	0.0159255
922.822	0.0159725
922.900	0.0159492
922.978	0.0158517
923.056	0.0158958
923.134	0.0159842
923.212	0.0160493
923.290	0.0159190
923.369	0.0159592
923.447	0.0160275
923.525	0.0158835
923.603	0.0159666
923.681	0.0160117
923.759	0.0160751
923.837	0.0160361
923.915	0.0161156
923.994	0.0162703
924.072	0.0160193
924.150	0.0160240
924.228	0.0160612
924.306	0.0160763
924.384	0.0161187
924.462	0.0161069
924.540	0.0162331
924.619	0.0162728
924.697	0.0161552
924.775	0.0162389
924.853	0.0161999
924.931	0.0162487
925.009	0.0161547
925.087	0.0161478
925.165	0.0161539
925.244	0.0163012
925.322	0.0162034
925.400	0.0161430
925.478	0.0161867
925.556	0.0161568
925.634	0.0161285
925.712	0.0161948
925.790	0.0161792
925.869	0.0161636
925.947	0.0162898
926.025	0.0161249
926.103	0.0162219
926.181	0.0162357
926.259	0.0162605
926.337	0.0162222
926.415	0.0160740
926.494	0.0161767
926.572	0.0161909
926.650	0.0161445
926.728	0.0161115
926.806	0.0162430
926.884	0.0162823
926.962	0.0161712
927.040	0.0161393
927.119	0.0161809
927.197	0.0161832
927.275	0.0162826
927.353	0.0162102
927.431	0.0162562
927.509	0.0161698
927.587	0.0162148
927.665	0.0163007
927.744	0.0160229
927.822	0.0161549
927.900	0.0162704
927.978	0.0162624
928.056	0.0160168
928.134	0.0161982
928.212	0.0162402
928.290	0.0161372
928.369	0.0161096
928.447	0.0162752
928.525	0.0160450
928.603	0.0161992
928.681	0.0160945
928.759	0.0162283
928.837	0.0161775
928.915	0.0160653
928.994	0.0161340
929.072	0.0162122
929.150	0.0161144
929.228	0.0160897
929.306	0.0161805
929.384	0.0161934
929.462	0.0161892
929.540	0.0162101
929.619	0.0160513
929.697	0.0161363
929.775	0.0161187
929.853	0.0160921
929.931	0.0162375
930.009	0.0160106
930.087	0.0162507
930.165	0.0161623
930.244	0.0161641
930.322	0.0160954
930.400	0.0160598
930.478	0.0161455
930.556	0.0162781
930.634	0.0161388
930.712	0.0161398
930.790	0.0161249
930.869	0.0161184
930.947	0.0161866
931.025	0.0161649
931.103	0.0161776
931.181	0.0161854
931.259	0.0160902
931.337	0.0161970
931.415	0.0162817
931.494	0.0162713
931.572	0.0162895
931.650	0.0162572
931.728	0.0161763
931.806	0.0162038
931.884	0.0162767
931.962	0.0162252
932.040	0.0162369
932.119	0.0161754
932.197	0.0162632
932.275	0.0162564
932.353	0.0162318
932.431	0.0160121
932.509	0.0161455
932.587	0.0161414
932.665	0.0163197
932.744	0.0162613
932.822	0.0162193
932.900	0.0161873
932.978	0.0161572
933.056	0.0162283
933.134	0.0160815
933.212	0.0163042
933.290	0.0162417
933.369	0.0161663
933.447	0.0163245
933.525	0.0161768
933.603	0.0161785
933.681	0.0163591
933.759	0.0162534
933.837	0.0162504
933.915	0.0161270
933.994	0.0162617
934.072	0.0162300
934.150	0.0162910
934.228	0.0161537
934.306	0.0161933
934.384	0.0161569
934.462	0.0162556
934.540	0.0162140
934.619	0.0162260
934.697	0.0161582
934.775	0.0161887
934.853	0.0161416
934.931	0.0161921
935.009	0.0162411
935.087	0.0160275
935.165	0.0162836
935.244	0.0161781
935.322	0.0160470
935.400	0.0161137
935.478	0.0160392
935.556	0.0160800
935.634	0.0161464
935.712	0.0162183
935.790	0.0161348
935.869	0.0160885
935.947	0.0159584
936.025	0.0160757
936.103	0.0161022
936.181	0.0162027
936.259	0.0160277
936.337	0.0160360
936.415	0.0160292
936.494	0.0162845
936.572	0.0160835
936.650	0.0159048
936.728	0.0160713
936.806	0.0160823
936.884	0.0160564
936.962	0.0162066
937.040	0.0160574
937.119	0.0161246
937.197	0.0161433
937.275	0.0161487
937.353	0.0162170
937.431	0.0161497
937.509	0.0161575
937.587	0.0161664
937.665	0.0162014
937.744	0.0161663
937.822	0.0162522
937.900	0.0159969
937.978	0.0160487
938.056	0.0160827
938.134	0.0162682
938.212	0.0162601
938.290	0.0160629
938.369	0.0161859
938.447	0.0161446
938.525	0.0161455
938.603	0.0160267
938.681	0.0161192
938.759	0.0162133
938.837	0.0160799
938.915	0.0162672
938.994	0.0161565
939.072	0.0161076
939.150	0.0161417
939.228	0.0162540
939.306	0.0163412
939.384	0.0162902
939.462	0.0162210
939.540	0.0162930
939.619	0.0162564
939.697	0.0162519
939.775	0.0162856
939.853	0.0161581
939.931	0.0163490
940.009	0.0162708
940.087	0.0162564
940.165	0.0162336
940.244	0.0161196
940.322	0.0162555
940.400	0.0161613
940.478	0.0159598
940.556	0.0160260
940.634	0.0161667
940.712	0.0160966
940.790	0.0160083
940.869	0.0159994
940.947	0.0160284
941.025	0.0159673
941.103	0.0160115
941.181	0.0160369
941.259	0.0160815
941.337	0.0159612
941.415	0.0159867
941.494	0.0159356
941.572	0.0160229
941.650	0.0160294
941.728	0.0159164
941.806	0.0160300
941.884	0.0159769
941.962	0.0159863
942.040	0.0158980
942.119	0.0159477
942.197	0.0160492
942.275	0.0160197
942.353	0.0160882
942.431	0.0159945
942.509	0.0159847
942.587	0.0160426
942.665	0.0161004
942.744	0.0160325
942.822	0.0159814
942.900	0.0159862
942.978	0.0160024
943.056	0.0159935
943.134	0.0160908
943.212	0.0160457
943.290	0.0160603
943.369	0.0161728
943.447	0.0161532
943.525	0.0160099
943.603	0.0160339
943.681	0.0161491
943.759	0.0160028
943.837	0.0160520
943.915	0.0160231
943.994	0.0160178
944.072	0.0162235
944.150	0.0162211
944.228	0.0161660
944.306	0.0160991
944.384	0.0162885
944.462	0.0161457
944.540	0.0161905
944.619	0.0162762
944.697	0.0161375
944.775	0.0163297
944.853	0.0163372
944.931	0.0162161
945.009	0.0162582
945.087	0.0161577
945.165	0.0160563
945.244	0.0161687
945.322	0.0160641
945.400	0.0163077
945.478	0.0164318
945.556	0.0162802
945.634	0.0161816
945.712	0.0163127
945.790	0.0163143
945.869	0.0162366
945.947	0.0163032
946.025	0.0161440
946.103	0.0162502
946.181	0.0162049
946.259	0.0162572
946.337	0.0161047
946.415	0.0162779
946.494	0.0162928
946.572	0.0161315
946.650	0.0162713
946.728	0.0161468
946.806	0.0161057
946.884	0.0162485
946.962	0.0161472
947.040	0.0160506
947.119	0.0159744
947.197	0.0161526
947.275	0.0160770
947.353	0.0160486
947.431	0.0158905
947.509	0.0160176
947.587	0.0160490
947.665	0.0160485
947.744	0.0159409
947.822	0.0160262
947.900	0.0160777
947.978	0.0162607
948.056	0.0159637
948.134	0.0159596
948.212	0.0159600
948.290	0.0162562
948.369	0.0160840
948.447	0.0159200
948.525	0.0161240
948.603	0.0161540
948.681	0.0161629
948.759	0.0160638
948.837	0.0160378
948.915	0.0161385
948.994	0.0162634
949.072	0.0162109
949.150	0.0161724
949.228	0.0160017
949.306	0.0161839
949.384	0.0161197
949.462	0.0161815
949.540	0.0161993
949.619	0.0161234
949.697	0.0161294
949.775	0.0161871
949.853	0.0162142
949.931	0.0161575
