05/19/2022	00:47:23	Ver.	4.1	UNKNOWN
Optical Delay	630.002507	Delta X		0.078125	Sweeps	1	Scan Rate	0/0
Coordinates	Axis 1	NaN	Axis 2	NaN	Axis 3	NaN	Axis 4	NaN	Axis 5	NaN	Axis 6	0.000000
TX Power	0.000000	RX Power	0.000000

630.003	0.0165157
630.081	0.0165815
630.159	0.0164687
630.237	0.0164951
630.315	0.0164408
630.393	0.0165561
630.471	0.0162955
630.549	0.0165218
630.628	0.0164409
630.706	0.0164491
630.784	0.0166015
630.862	0.0164818
630.940	0.0164304
631.018	0.0163744
631.096	0.0164217
631.174	0.0166011
631.253	0.0164867
631.331	0.0164910
631.409	0.0165250
631.487	0.0165415
631.565	0.0164304
631.643	0.0163718
631.721	0.0165546
631.799	0.0164690
631.878	0.0164573
631.956	0.0164262
632.034	0.0164002
632.112	0.0164864
632.190	0.0165915
632.268	0.0163998
632.346	0.0163390
632.424	0.0165025
632.503	0.0164058
632.581	0.0164664
632.659	0.0164921
632.737	0.0163851
632.815	0.0163374
632.893	0.0164720
632.971	0.0164642
633.049	0.0163413
633.128	0.0165163
633.206	0.0164622
633.284	0.0164333
633.362	0.0165127
633.440	0.0164539
633.518	0.0164881
633.596	0.0164174
633.674	0.0164100
633.753	0.0165079
633.831	0.0164813
633.909	0.0164594
633.987	0.0165380
634.065	0.0165121
634.143	0.0163657
634.221	0.0164573
634.299	0.0166558
634.378	0.0165125
634.456	0.0164977
634.534	0.0164297
634.612	0.0165603
634.690	0.0165849
634.768	0.0164622
634.846	0.0165455
634.924	0.0164634
635.003	0.0165189
635.081	0.0165063
635.159	0.0164843
635.237	0.0164658
635.315	0.0165606
635.393	0.0166221
635.471	0.0165914
635.549	0.0163993
635.628	0.0164986
635.706	0.0164498
635.784	0.0166277
635.862	0.0165984
635.940	0.0165473
636.018	0.0164410
636.096	0.0163797
636.174	0.0164487
636.253	0.0166759
636.331	0.0166872
636.409	0.0165236
636.487	0.0166087
636.565	0.0167139
636.643	0.0166222
636.721	0.0164813
636.799	0.0165710
636.878	0.0165712
636.956	0.0166461
637.034	0.0166338
637.112	0.0165971
637.190	0.0165121
637.268	0.0166700
637.346	0.0165944
637.424	0.0166708
637.503	0.0167152
637.581	0.0166912
637.659	0.0166106
637.737	0.0165956
637.815	0.0165641
637.893	0.0166969
637.971	0.0165871
638.049	0.0166251
638.128	0.0166685
638.206	0.0165832
638.284	0.0164632
638.362	0.0166694
638.440	0.0165782
638.518	0.0165964
638.596	0.0166296
638.674	0.0166636
638.753	0.0166383
638.831	0.0165945
638.909	0.0166256
638.987	0.0165494
639.065	0.0166440
639.143	0.0167246
639.221	0.0167719
639.299	0.0166486
639.378	0.0164825
639.456	0.0165819
639.534	0.0166610
639.612	0.0165594
639.690	0.0166384
639.768	0.0166090
639.846	0.0166746
639.924	0.0167177
640.003	0.0167046
640.081	0.0165681
640.159	0.0166156
640.237	0.0166058
640.315	0.0166537
640.393	0.0168561
640.471	0.0166847
640.549	0.0165803
640.628	0.0166812
640.706	0.0166461
640.784	0.0167822
640.862	0.0166399
640.940	0.0167530
641.018	0.0167111
641.096	0.0165826
641.174	0.0166264
641.253	0.0166750
641.331	0.0166434
641.409	0.0166104
641.487	0.0166521
641.565	0.0165435
641.643	0.0166225
641.721	0.0168619
641.799	0.0167426
641.878	0.0166438
641.956	0.0166241
642.034	0.0167718
642.112	0.0166328
642.190	0.0168233
642.268	0.0166622
642.346	0.0167693
642.424	0.0168040
642.503	0.0166171
642.581	0.0165649
642.659	0.0166186
642.737	0.0166888
642.815	0.0167819
642.893	0.0166138
642.971	0.0167480
643.049	0.0167107
643.128	0.0167620
643.206	0.0167716
643.284	0.0166712
643.362	0.0166525
643.440	0.0166008
643.518	0.0167162
643.596	0.0168180
643.674	0.0166805
643.753	0.0165404
643.831	0.0166551
643.909	0.0168127
643.987	0.0166664
644.065	0.0166768
644.143	0.0166878
644.221	0.0166271
644.299	0.0166335
644.378	0.0167322
644.456	0.0166783
644.534	0.0167004
644.612	0.0167463
644.690	0.0167360
644.768	0.0164571
644.846	0.0165825
644.924	0.0166827
645.003	0.0166414
645.081	0.0166463
645.159	0.0166248
645.237	0.0168483
645.315	0.0166912
645.393	0.0166602
645.471	0.0167822
645.549	0.0166932
645.628	0.0166010
645.706	0.0167267
645.784	0.0168449
645.862	0.0166436
645.940	0.0167761
646.018	0.0166412
646.096	0.0166207
646.174	0.0167014
646.253	0.0166586
646.331	0.0167013
646.409	0.0168275
646.487	0.0167972
646.565	0.0166759
646.643	0.0167157
646.721	0.0167610
646.799	0.0167159
646.878	0.0165798
646.956	0.0165497
647.034	0.0166641
647.112	0.0166535
647.190	0.0167131
647.268	0.0166249
647.346	0.0167221
647.424	0.0165540
647.503	0.0167296
647.581	0.0167410
647.659	0.0165450
647.737	0.0166361
647.815	0.0166633
647.893	0.0167387
647.971	0.0166386
648.049	0.0165802
648.128	0.0166885
648.206	0.0166637
648.284	0.0167056
648.362	0.0166777
648.440	0.0165433
648.518	0.0164910
648.596	0.0165758
648.674	0.0165718
648.753	0.0165543
648.831	0.0166319
648.909	0.0165140
648.987	0.0163389
649.065	0.0166574
649.143	0.0164877
649.221	0.0164857
649.299	0.0164150
649.378	0.0165575
649.456	0.0165498
649.534	0.0165813
649.612	0.0164893
649.690	0.0165598
649.768	0.0165254
649.846	0.0165553
649.924	0.0166425
650.003	0.0164622
650.081	0.0164989
650.159	0.0165012
650.237	0.0165871
650.315	0.0165820
650.393	0.0164882
650.471	0.0165778
650.549	0.0165259
650.628	0.0166064
650.706	0.0165943
650.784	0.0165298
650.862	0.0165815
650.940	0.0165864
651.018	0.0164157
651.096	0.0163817
651.174	0.0164754
651.253	0.0164735
651.331	0.0165571
651.409	0.0165267
651.487	0.0164216
651.565	0.0164719
651.643	0.0164804
651.721	0.0164662
651.799	0.0165307
651.878	0.0163942
651.956	0.0164852
652.034	0.0164539
652.112	0.0164119
652.190	0.0166785
652.268	0.0163884
652.346	0.0163794
652.424	0.0165430
652.503	0.0164557
652.581	0.0165160
652.659	0.0165871
652.737	0.0164278
652.815	0.0164022
652.893	0.0164787
652.971	0.0164552
653.049	0.0163389
653.128	0.0163488
653.206	0.0163538
653.284	0.0165008
653.362	0.0164110
653.440	0.0163886
653.518	0.0164623
653.596	0.0166726
653.674	0.0164037
653.753	0.0164201
653.831	0.0165714
653.909	0.0163770
653.987	0.0164919
654.065	0.0165707
654.143	0.0166761
654.221	0.0164748
654.299	0.0165730
654.378	0.0164049
654.456	0.0164275
654.534	0.0165572
654.612	0.0164842
654.690	0.0164962
654.768	0.0162798
654.846	0.0163211
654.924	0.0164101
655.003	0.0164537
655.081	0.0165086
655.159	0.0164844
655.237	0.0165316
655.315	0.0164185
655.393	0.0164800
655.471	0.0165898
655.549	0.0165214
655.628	0.0166380
655.706	0.0165005
655.784	0.0165371
655.862	0.0166735
655.940	0.0166761
656.018	0.0166367
656.096	0.0165569
656.174	0.0167229
656.253	0.0166216
656.331	0.0164992
656.409	0.0165025
656.487	0.0166945
656.565	0.0165475
656.643	0.0164474
656.721	0.0166319
656.799	0.0164923
656.878	0.0164217
656.956	0.0165746
657.034	0.0165724
657.112	0.0164895
657.190	0.0165256
657.268	0.0165876
657.346	0.0164254
657.424	0.0164946
657.503	0.0164153
657.581	0.0165868
657.659	0.0165113
657.737	0.0165385
657.815	0.0166293
657.893	0.0166335
657.971	0.0166539
658.049	0.0164974
658.128	0.0165680
658.206	0.0165949
658.284	0.0165738
658.362	0.0165930
658.440	0.0166496
658.518	0.0165163
658.596	0.0165243
658.674	0.0165731
658.753	0.0164912
658.831	0.0165878
658.909	0.0165695
658.987	0.0165607
659.065	0.0166003
659.143	0.0166488
659.221	0.0165591
659.299	0.0165797
659.378	0.0166078
659.456	0.0167619
659.534	0.0167452
659.612	0.0165756
659.690	0.0165183
659.768	0.0166367
659.846	0.0166004
659.924	0.0165953
660.003	0.0164252
660.081	0.0165970
660.159	0.0164642
660.237	0.0164971
660.315	0.0165233
660.393	0.0164286
660.471	0.0164771
660.549	0.0165760
660.628	0.0165446
660.706	0.0164854
660.784	0.0165212
660.862	0.0166211
660.940	0.0164339
661.018	0.0164299
661.096	0.0165301
661.174	0.0166078
661.253	0.0163924
661.331	0.0163379
661.409	0.0164462
661.487	0.0163300
661.565	0.0163360
661.643	0.0164719
661.721	0.0164063
661.799	0.0164234
661.878	0.0163529
661.956	0.0163454
662.034	0.0166023
662.112	0.0164040
662.190	0.0165169
662.268	0.0165076
662.346	0.0165712
662.424	0.0165143
662.503	0.0165925
662.581	0.0166637
662.659	0.0165479
662.737	0.0166808
662.815	0.0166859
662.893	0.0166404
662.971	0.0167234
663.049	0.0167184
663.128	0.0167179
663.206	0.0167080
663.284	0.0166201
663.362	0.0166840
663.440	0.0165900
663.518	0.0166132
663.596	0.0164977
663.674	0.0165511
663.753	0.0165900
663.831	0.0165908
663.909	0.0166215
663.987	0.0167272
664.065	0.0165475
664.143	0.0165858
664.221	0.0166757
664.299	0.0166314
664.378	0.0168681
664.456	0.0167284
664.534	0.0168683
664.612	0.0167318
664.690	0.0168091
664.768	0.0167231
664.846	0.0167202
664.924	0.0166961
665.003	0.0168620
665.081	0.0168604
665.159	0.0168096
665.237	0.0167665
665.315	0.0167173
665.393	0.0167181
665.471	0.0167657
665.549	0.0167909
665.628	0.0167988
665.706	0.0168021
665.784	0.0166637
665.862	0.0167329
665.940	0.0166821
666.018	0.0166833
666.096	0.0167312
666.174	0.0167427
666.253	0.0167933
666.331	0.0168994
666.409	0.0167011
666.487	0.0167712
666.565	0.0166418
666.643	0.0165889
666.721	0.0164594
666.799	0.0166732
666.878	0.0167171
666.956	0.0165553
667.034	0.0166084
667.112	0.0167303
667.190	0.0166955
667.268	0.0166560
667.346	0.0165860
667.424	0.0166908
667.503	0.0166249
667.581	0.0167585
667.659	0.0167515
667.737	0.0167013
667.815	0.0167242
667.893	0.0168084
667.971	0.0165405
668.049	0.0166775
668.128	0.0165357
668.206	0.0165559
668.284	0.0165348
668.362	0.0165118
668.440	0.0163581
668.518	0.0163941
668.596	0.0163514
668.674	0.0164336
668.753	0.0163625
668.831	0.0163037
668.909	0.0163509
668.987	0.0164128
669.065	0.0163557
669.143	0.0164333
669.221	0.0164657
669.299	0.0163610
669.378	0.0163806
669.456	0.0163772
669.534	0.0163866
669.612	0.0164078
669.690	0.0164072
669.768	0.0166088
669.846	0.0165022
669.924	0.0164642
670.003	0.0165136
670.081	0.0164832
670.159	0.0165245
670.237	0.0165142
670.315	0.0165417
670.393	0.0165029
670.471	0.0165597
670.549	0.0164863
670.628	0.0164565
670.706	0.0165044
670.784	0.0165143
670.862	0.0164975
670.940	0.0166290
671.018	0.0165563
671.096	0.0165450
671.174	0.0165425
671.253	0.0164773
671.331	0.0165562
671.409	0.0165958
671.487	0.0166282
671.565	0.0165653
671.643	0.0164684
671.721	0.0164668
671.799	0.0164563
671.878	0.0165029
671.956	0.0165679
672.034	0.0164577
672.112	0.0165283
672.190	0.0165817
672.268	0.0166239
672.346	0.0165301
672.424	0.0165910
672.503	0.0165686
672.581	0.0165224
672.659	0.0165679
672.737	0.0165437
672.815	0.0165203
672.893	0.0166138
672.971	0.0166491
673.049	0.0167017
673.128	0.0166264
673.206	0.0164554
673.284	0.0165263
673.362	0.0164866
673.440	0.0165742
673.518	0.0167639
673.596	0.0166813
673.674	0.0165794
673.753	0.0167035
673.831	0.0167309
673.909	0.0168221
673.987	0.0169272
674.065	0.0168964
674.143	0.0166902
674.221	0.0169596
674.299	0.0168407
674.378	0.0168495
674.456	0.0167521
674.534	0.0167517
674.612	0.0166858
674.690	0.0166478
674.768	0.0165546
674.846	0.0165778
674.924	0.0165477
675.003	0.0165718
675.081	0.0165524
675.159	0.0164130
675.237	0.0164502
675.315	0.0164471
675.393	0.0163836
675.471	0.0164084
675.549	0.0164641
675.628	0.0165753
675.706	0.0165166
675.784	0.0166652
675.862	0.0166129
675.940	0.0167179
676.018	0.0166077
676.096	0.0167023
676.174	0.0167818
676.253	0.0166226
676.331	0.0166372
676.409	0.0167246
676.487	0.0166254
676.565	0.0165991
676.643	0.0165269
676.721	0.0165691
676.799	0.0167896
676.878	0.0166482
676.956	0.0165201
677.034	0.0167147
677.112	0.0166753
677.190	0.0168450
677.268	0.0166668
677.346	0.0166343
677.424	0.0165347
677.503	0.0165891
677.581	0.0166232
677.659	0.0164698
677.737	0.0164293
677.815	0.0163352
677.893	0.0162656
677.971	0.0164201
678.049	0.0163554
678.128	0.0162141
678.206	0.0163383
678.284	0.0163927
678.362	0.0164657
678.440	0.0163304
678.518	0.0163662
678.596	0.0162491
678.674	0.0163144
678.753	0.0164068
678.831	0.0164622
678.909	0.0163374
678.987	0.0163455
679.065	0.0164167
679.143	0.0163943
679.221	0.0163851
679.299	0.0165299
679.378	0.0164692
679.456	0.0165211
679.534	0.0164943
679.612	0.0164033
679.690	0.0167250
679.768	0.0166037
679.846	0.0163514
679.924	0.0165179
680.003	0.0166617
680.081	0.0164404
680.159	0.0165415
680.237	0.0166330
680.315	0.0166350
680.393	0.0167225
680.471	0.0167375
680.549	0.0167531
680.628	0.0165392
680.706	0.0165942
680.784	0.0165870
680.862	0.0165250
680.940	0.0166798
681.018	0.0164700
681.096	0.0163853
681.174	0.0164495
681.253	0.0163594
681.331	0.0163380
681.409	0.0162941
681.487	0.0162411
681.565	0.0163542
681.643	0.0163221
681.721	0.0162618
681.799	0.0163083
681.878	0.0161908
681.956	0.0162460
682.034	0.0163094
682.112	0.0163476
682.190	0.0164742
682.268	0.0163823
682.346	0.0164226
682.424	0.0164790
682.503	0.0164942
682.581	0.0165295
682.659	0.0165300
682.737	0.0165200
682.815	0.0166405
682.893	0.0166476
682.971	0.0165463
683.049	0.0166254
683.128	0.0166328
683.206	0.0164733
683.284	0.0165387
683.362	0.0166971
683.440	0.0165575
683.518	0.0165412
683.596	0.0167433
683.674	0.0167051
683.753	0.0165944
683.831	0.0166393
683.909	0.0165930
683.987	0.0166183
684.065	0.0165804
684.143	0.0165443
684.221	0.0166732
684.299	0.0166443
684.378	0.0165658
684.456	0.0165617
684.534	0.0164943
684.612	0.0164788
684.690	0.0166069
684.768	0.0165978
684.846	0.0165434
684.924	0.0165630
685.003	0.0164138
685.081	0.0165302
685.159	0.0163752
685.237	0.0166594
685.315	0.0165243
685.393	0.0165278
685.471	0.0165352
685.549	0.0166702
685.628	0.0166633
685.706	0.0165742
685.784	0.0168355
685.862	0.0167227
685.940	0.0167750
686.018	0.0168659
686.096	0.0168010
686.174	0.0168012
686.253	0.0168342
686.331	0.0169821
686.409	0.0169923
686.487	0.0169683
686.565	0.0169408
686.643	0.0168624
686.721	0.0168410
686.799	0.0167863
686.878	0.0167796
686.956	0.0165527
687.034	0.0165577
687.112	0.0165531
687.190	0.0164754
687.268	0.0164569
687.346	0.0164420
687.424	0.0163004
687.503	0.0164342
687.581	0.0163325
687.659	0.0164468
687.737	0.0164123
687.815	0.0163472
687.893	0.0164420
687.971	0.0164520
688.049	0.0165063
688.128	0.0163985
688.206	0.0163459
688.284	0.0165056
688.362	0.0164880
688.440	0.0165768
688.518	0.0166828
688.596	0.0166026
688.674	0.0165945
688.753	0.0165166
688.831	0.0166069
688.909	0.0166702
688.987	0.0164273
689.065	0.0164581
689.143	0.0162826
689.221	0.0163528
689.299	0.0163409
689.378	0.0163374
689.456	0.0164597
689.534	0.0163493
689.612	0.0162615
689.690	0.0162862
689.768	0.0165126
689.846	0.0164748
689.924	0.0165552
690.003	0.0164858
690.081	0.0165759
690.159	0.0165487
690.237	0.0166030
690.315	0.0165842
690.393	0.0163865
690.471	0.0165522
690.549	0.0165411
690.628	0.0164751
690.706	0.0164915
690.784	0.0164091
690.862	0.0164005
690.940	0.0163196
691.018	0.0164408
691.096	0.0164322
691.174	0.0163648
691.253	0.0164242
691.331	0.0164061
691.409	0.0164672
691.487	0.0165659
691.565	0.0165771
691.643	0.0165697
691.721	0.0164808
691.799	0.0166363
691.878	0.0167147
691.956	0.0166515
692.034	0.0167642
692.112	0.0167570
692.190	0.0167210
692.268	0.0167310
692.346	0.0168049
692.424	0.0166637
692.503	0.0168587
692.581	0.0168854
692.659	0.0168103
692.737	0.0168256
692.815	0.0169577
692.893	0.0169228
692.971	0.0167892
693.049	0.0169176
693.128	0.0168040
693.206	0.0170209
693.284	0.0169440
693.362	0.0169197
693.440	0.0168876
693.518	0.0168044
693.596	0.0166814
693.674	0.0166718
693.753	0.0165742
693.831	0.0166053
693.909	0.0165775
693.987	0.0166413
694.065	0.0164288
694.143	0.0166108
694.221	0.0164984
694.299	0.0163571
694.378	0.0164624
694.456	0.0164309
694.534	0.0164914
694.612	0.0165451
694.690	0.0165501
694.768	0.0164661
694.846	0.0165348
694.924	0.0165230
695.003	0.0165336
695.081	0.0165928
695.159	0.0164150
695.237	0.0165401
695.315	0.0164353
695.393	0.0164474
695.471	0.0162562
695.549	0.0161874
695.628	0.0162628
695.706	0.0162589
695.784	0.0162994
695.862	0.0162737
695.940	0.0161755
696.018	0.0161900
696.096	0.0162458
696.174	0.0163403
696.253	0.0161485
696.331	0.0160608
696.409	0.0162491
696.487	0.0161357
696.565	0.0164107
696.643	0.0163087
696.721	0.0162992
696.799	0.0164446
696.878	0.0164180
696.956	0.0165048
697.034	0.0166750
697.112	0.0165699
697.190	0.0165540
697.268	0.0166164
697.346	0.0167054
697.424	0.0168243
697.503	0.0168200
697.581	0.0169759
697.659	0.0168502
697.737	0.0169460
697.815	0.0170200
697.893	0.0169705
697.971	0.0169031
698.049	0.0171088
698.128	0.0170008
698.206	0.0171815
698.284	0.0170377
698.362	0.0168887
698.440	0.0169899
698.518	0.0169880
698.596	0.0169431
698.674	0.0169252
698.753	0.0168077
698.831	0.0169332
698.909	0.0167394
698.987	0.0167182
699.065	0.0167860
699.143	0.0166875
699.221	0.0165484
699.299	0.0166883
699.378	0.0165600
699.456	0.0166183
699.534	0.0167425
699.612	0.0167193
699.690	0.0167525
699.768	0.0165726
699.846	0.0166048
699.924	0.0165733
700.003	0.0166358
700.081	0.0166882
700.159	0.0166032
700.237	0.0165386
700.315	0.0164087
700.393	0.0162112
700.471	0.0162694
700.549	0.0162111
700.628	0.0164242
700.706	0.0162794
700.784	0.0162574
700.862	0.0161959
700.940	0.0161236
701.018	0.0161734
701.096	0.0161031
701.174	0.0161584
701.253	0.0161443
701.331	0.0160009
701.409	0.0159644
701.487	0.0160408
701.565	0.0159396
701.643	0.0158979
701.721	0.0159111
701.799	0.0158941
701.878	0.0160536
701.956	0.0160596
702.034	0.0160274
702.112	0.0160777
702.190	0.0162950
702.268	0.0163278
702.346	0.0163065
702.424	0.0163744
702.503	0.0163795
702.581	0.0163887
702.659	0.0165985
702.737	0.0165027
702.815	0.0165815
702.893	0.0167309
702.971	0.0167543
703.049	0.0166991
703.128	0.0167801
703.206	0.0166499
703.284	0.0169059
703.362	0.0169555
703.440	0.0168304
703.518	0.0169881
703.596	0.0171265
703.674	0.0172458
703.753	0.0170399
703.831	0.0171382
703.909	0.0171986
703.987	0.0171514
704.065	0.0172432
704.143	0.0171909
704.221	0.0172164
704.299	0.0172565
704.378	0.0170713
704.456	0.0171730
704.534	0.0171507
704.612	0.0170426
704.690	0.0170638
704.768	0.0170709
704.846	0.0171249
704.924	0.0171497
705.003	0.0171152
705.081	0.0171252
705.159	0.0171116
705.237	0.0170066
705.315	0.0169693
705.393	0.0169444
705.471	0.0169456
705.549	0.0169551
705.628	0.0169292
705.706	0.0167307
705.784	0.0166271
705.862	0.0165561
705.940	0.0165531
706.018	0.0164038
706.096	0.0163332
706.174	0.0163061
706.253	0.0162058
706.331	0.0160666
706.409	0.0160612
706.487	0.0161177
706.565	0.0162542
706.643	0.0160029
706.721	0.0159342
706.799	0.0163304
706.878	0.0162107
706.956	0.0162687
707.034	0.0161626
707.112	0.0161093
707.190	0.0162580
707.268	0.0161888
707.346	0.0161141
707.424	0.0162160
707.503	0.0161989
707.581	0.0160769
707.659	0.0160700
707.737	0.0159811
707.815	0.0159710
707.893	0.0158723
707.971	0.0159965
708.049	0.0160211
708.128	0.0160652
708.206	0.0160980
708.284	0.0160963
708.362	0.0160347
708.440	0.0162087
708.518	0.0162170
708.596	0.0161039
708.674	0.0162036
708.753	0.0163790
708.831	0.0163799
708.909	0.0163660
708.987	0.0164429
709.065	0.0165842
709.143	0.0166512
709.221	0.0166536
709.299	0.0166959
709.378	0.0168813
709.456	0.0167613
709.534	0.0169280
709.612	0.0169395
709.690	0.0169533
709.768	0.0168958
709.846	0.0168800
709.924	0.0169059
710.003	0.0169592
710.081	0.0170290
710.159	0.0169694
710.237	0.0169748
710.315	0.0169815
710.393	0.0170375
710.471	0.0169137
710.549	0.0169588
710.628	0.0170387
710.706	0.0169636
710.784	0.0170334
710.862	0.0170438
710.940	0.0169295
711.018	0.0170691
711.096	0.0170808
711.174	0.0169685
711.253	0.0169482
711.331	0.0168669
711.409	0.0168300
711.487	0.0168578
711.565	0.0168274
711.643	0.0166606
711.721	0.0166627
711.799	0.0166318
711.878	0.0167374
711.956	0.0164796
712.034	0.0164209
712.112	0.0166363
712.190	0.0166784
712.268	0.0164862
712.346	0.0162732
712.424	0.0165676
712.503	0.0164420
712.581	0.0165636
712.659	0.0163630
712.737	0.0165213
712.815	0.0166586
712.893	0.0165421
712.971	0.0165044
713.049	0.0165268
713.128	0.0165505
713.206	0.0166193
713.284	0.0165311
713.362	0.0163044
713.440	0.0163365
713.518	0.0164561
713.596	0.0163042
713.674	0.0164011
713.753	0.0165016
713.831	0.0165066
713.909	0.0163441
713.987	0.0163631
714.065	0.0163738
714.143	0.0163024
714.221	0.0163004
714.299	0.0163127
714.378	0.0163139
714.456	0.0162532
714.534	0.0163354
714.612	0.0163071
714.690	0.0163103
714.768	0.0162656
714.846	0.0162859
714.924	0.0162430
715.003	0.0162803
715.081	0.0162669
715.159	0.0162375
715.237	0.0161448
715.315	0.0161231
715.393	0.0162738
715.471	0.0164277
715.549	0.0163355
715.628	0.0163882
715.706	0.0165029
715.784	0.0166175
715.862	0.0164178
715.940	0.0164075
716.018	0.0165294
716.096	0.0164159
716.174	0.0166158
716.253	0.0166102
716.331	0.0166391
716.409	0.0165384
716.487	0.0167816
716.565	0.0167807
716.643	0.0168665
716.721	0.0169165
716.799	0.0168572
716.878	0.0167656
716.956	0.0168673
717.034	0.0169044
717.112	0.0169157
717.190	0.0171049
717.268	0.0169333
717.346	0.0169878
717.424	0.0169725
717.503	0.0169078
717.581	0.0169271
717.659	0.0168766
717.737	0.0170242
717.815	0.0167946
717.893	0.0169556
717.971	0.0169583
718.049	0.0168341
718.128	0.0167854
718.206	0.0168578
718.284	0.0167886
718.362	0.0166840
718.440	0.0167667
718.518	0.0167433
718.596	0.0168974
718.674	0.0167783
718.753	0.0168169
718.831	0.0167870
718.909	0.0168183
718.987	0.0167262
719.065	0.0168202
719.143	0.0166834
719.221	0.0167626
719.299	0.0167372
719.378	0.0167077
719.456	0.0166601
719.534	0.0167883
719.612	0.0167252
719.690	0.0167309
719.768	0.0168556
719.846	0.0167034
719.924	0.0166624
720.003	0.0168293
720.081	0.0167947
720.159	0.0165819
720.237	0.0164993
720.315	0.0166212
720.393	0.0164551
720.471	0.0164804
720.549	0.0163575
720.628	0.0163175
720.706	0.0162166
720.784	0.0161725
720.862	0.0161436
720.940	0.0160484
721.018	0.0160490
721.096	0.0158447
721.174	0.0158376
721.253	0.0159073
721.331	0.0159266
721.409	0.0159073
721.487	0.0158042
721.565	0.0159859
721.643	0.0162328
721.721	0.0162214
721.799	0.0162051
721.878	0.0161256
721.956	0.0162679
722.034	0.0162935
722.112	0.0163070
722.190	0.0163094
722.268	0.0164388
722.346	0.0164936
722.424	0.0164029
722.503	0.0163955
722.581	0.0163911
722.659	0.0165826
722.737	0.0164761
722.815	0.0164603
722.893	0.0166893
722.971	0.0167014
723.049	0.0168755
723.128	0.0168454
723.206	0.0169272
723.284	0.0168201
723.362	0.0169559
723.440	0.0167757
723.518	0.0169198
723.596	0.0169809
723.674	0.0169860
723.753	0.0168941
723.831	0.0169967
723.909	0.0170265
723.987	0.0170670
724.065	0.0170892
724.143	0.0170197
724.221	0.0171562
724.299	0.0171284
724.378	0.0170138
724.456	0.0171267
724.534	0.0169699
724.612	0.0170196
724.690	0.0169408
724.768	0.0168303
724.846	0.0169226
724.924	0.0168559
725.003	0.0169814
725.081	0.0170409
725.159	0.0167857
725.237	0.0168882
725.315	0.0169867
725.393	0.0168145
725.471	0.0168185
725.549	0.0166521
725.628	0.0167403
725.706	0.0168607
725.784	0.0166784
725.862	0.0165246
725.940	0.0167828
726.018	0.0167300
726.096	0.0167248
726.174	0.0167591
726.253	0.0167042
726.331	0.0167551
726.409	0.0167215
726.487	0.0167399
726.565	0.0166930
726.643	0.0165101
726.721	0.0165813
726.799	0.0166145
726.878	0.0165987
726.956	0.0164675
727.034	0.0165052
727.112	0.0164201
727.190	0.0164569
727.268	0.0164171
727.346	0.0162717
727.424	0.0162716
727.503	0.0160468
727.581	0.0162140
727.659	0.0163000
727.737	0.0162490
727.815	0.0159534
727.893	0.0160593
727.971	0.0160249
728.049	0.0160720
728.128	0.0159650
728.206	0.0159599
728.284	0.0159698
728.362	0.0159047
728.440	0.0159088
728.518	0.0158975
728.596	0.0159906
728.674	0.0159874
728.753	0.0158796
728.831	0.0160070
728.909	0.0160580
728.987	0.0161646
729.065	0.0163799
729.143	0.0164365
729.221	0.0165469
729.299	0.0166733
729.378	0.0164956
729.456	0.0165200
729.534	0.0165354
729.612	0.0166726
729.690	0.0167273
729.768	0.0166526
729.846	0.0166321
729.924	0.0168140
730.003	0.0167329
730.081	0.0166702
730.159	0.0166934
730.237	0.0167511
730.315	0.0167204
730.393	0.0168121
730.471	0.0167641
730.549	0.0167080
730.628	0.0169654
730.706	0.0169340
730.784	0.0167899
730.862	0.0168351
730.940	0.0169016
731.018	0.0170331
731.096	0.0168807
731.174	0.0169196
731.253	0.0168915
731.331	0.0169413
731.409	0.0168570
731.487	0.0169413
731.565	0.0168549
731.643	0.0169381
731.721	0.0168759
731.799	0.0168949
731.878	0.0168246
731.956	0.0167458
732.034	0.0167473
732.112	0.0169779
732.190	0.0168604
732.268	0.0167033
732.346	0.0168222
732.424	0.0167547
732.503	0.0169496
732.581	0.0168672
732.659	0.0167253
732.737	0.0166789
732.815	0.0166938
732.893	0.0165954
732.971	0.0164869
733.049	0.0164726
733.128	0.0164197
733.206	0.0164123
733.284	0.0164635
733.362	0.0162856
733.440	0.0163442
733.518	0.0162959
733.596	0.0162344
733.674	0.0163288
733.753	0.0164365
733.831	0.0163106
733.909	0.0162843
733.987	0.0163641
734.065	0.0163422
734.143	0.0163912
734.221	0.0164869
734.299	0.0162608
734.378	0.0162751
734.456	0.0163967
734.534	0.0163784
734.612	0.0161573
734.690	0.0163951
734.768	0.0164040
734.846	0.0163942
734.924	0.0163262
735.003	0.0164132
735.081	0.0161707
735.159	0.0165120
735.237	0.0162702
735.315	0.0162155
735.393	0.0161471
735.471	0.0163277
735.549	0.0162058
735.628	0.0162198
735.706	0.0161658
735.784	0.0162523
735.862	0.0162116
735.940	0.0163428
736.018	0.0163347
736.096	0.0163209
736.174	0.0163689
736.253	0.0163178
736.331	0.0163082
736.409	0.0165768
736.487	0.0166321
736.565	0.0166343
736.643	0.0168581
736.721	0.0168543
736.799	0.0166462
736.878	0.0167590
736.956	0.0169827
737.034	0.0170398
737.112	0.0168839
737.190	0.0168176
737.268	0.0168119
737.346	0.0168326
737.424	0.0169120
737.503	0.0167307
737.581	0.0168074
737.659	0.0168003
737.737	0.0167720
737.815	0.0165328
737.893	0.0166898
737.971	0.0167207
738.049	0.0167893
738.128	0.0166570
738.206	0.0167169
738.284	0.0167682
738.362	0.0167729
738.440	0.0168884
738.518	0.0168847
738.596	0.0168601
738.674	0.0167104
738.753	0.0168649
738.831	0.0170039
738.909	0.0167074
738.987	0.0167192
739.065	0.0169147
739.143	0.0168604
739.221	0.0167512
739.299	0.0167424
739.378	0.0167938
739.456	0.0166024
739.534	0.0166956
739.612	0.0166484
739.690	0.0165634
739.768	0.0166567
739.846	0.0167442
739.924	0.0167722
740.003	0.0166614
740.081	0.0166585
740.159	0.0166914
740.237	0.0164951
740.315	0.0164783
740.393	0.0166001
740.471	0.0165379
740.549	0.0165612
740.628	0.0164856
740.706	0.0164674
740.784	0.0163675
740.862	0.0164246
740.940	0.0164259
741.018	0.0164076
741.096	0.0163023
741.174	0.0163875
741.253	0.0165102
741.331	0.0165759
741.409	0.0165611
741.487	0.0163776
741.565	0.0164822
741.643	0.0165070
741.721	0.0165352
741.799	0.0164624
741.878	0.0165493
741.956	0.0165298
742.034	0.0165263
742.112	0.0163998
742.190	0.0163822
742.268	0.0164645
742.346	0.0163342
742.424	0.0163863
742.503	0.0166236
742.581	0.0166178
742.659	0.0165099
742.737	0.0164115
742.815	0.0163830
742.893	0.0163611
742.971	0.0163717
743.049	0.0164353
743.128	0.0164229
743.206	0.0164277
743.284	0.0164068
743.362	0.0165736
743.440	0.0164928
743.518	0.0165130
743.596	0.0163911
743.674	0.0164295
743.753	0.0165746
743.831	0.0165529
743.909	0.0165005
743.987	0.0165661
744.065	0.0166259
744.143	0.0165975
744.221	0.0166006
744.299	0.0168239
744.378	0.0166320
744.456	0.0166748
744.534	0.0169081
744.612	0.0167702
744.690	0.0167181
744.768	0.0166732
744.846	0.0168931
744.924	0.0166674
745.003	0.0165822
745.081	0.0168110
745.159	0.0165617
745.237	0.0165138
745.315	0.0165384
745.393	0.0166065
745.471	0.0166297
745.549	0.0166155
745.628	0.0166359
745.706	0.0166082
745.784	0.0165998
745.862	0.0167369
745.940	0.0167541
746.018	0.0167251
746.096	0.0167593
746.174	0.0168186
746.253	0.0167194
746.331	0.0167358
746.409	0.0168953
746.487	0.0168079
746.565	0.0168736
746.643	0.0169550
746.721	0.0168459
746.799	0.0168575
746.878	0.0167795
746.956	0.0165480
747.034	0.0166358
747.112	0.0166572
747.190	0.0166322
747.268	0.0167500
747.346	0.0167180
747.424	0.0167931
747.503	0.0167471
747.581	0.0167694
747.659	0.0166772
747.737	0.0168383
747.815	0.0168040
747.893	0.0167538
747.971	0.0168509
748.049	0.0168550
748.128	0.0167309
748.206	0.0167682
748.284	0.0167347
748.362	0.0165760
748.440	0.0165513
748.518	0.0165756
748.596	0.0165188
748.674	0.0164504
748.753	0.0163423
748.831	0.0165196
748.909	0.0164746
748.987	0.0163663
749.065	0.0163393
749.143	0.0162866
749.221	0.0164153
749.299	0.0162644
749.378	0.0164499
749.456	0.0163773
749.534	0.0163404
749.612	0.0163546
749.690	0.0165490
749.768	0.0164046
749.846	0.0164301
749.924	0.0162851
750.003	0.0162778
750.081	0.0162642
750.159	0.0162598
750.237	0.0162107
750.315	0.0162667
750.393	0.0161080
750.471	0.0162554
750.549	0.0163004
750.628	0.0163788
750.706	0.0162492
750.784	0.0162952
750.862	0.0165055
750.940	0.0163499
751.018	0.0163728
751.096	0.0163971
751.174	0.0164724
751.253	0.0164647
751.331	0.0165112
751.409	0.0165168
751.487	0.0164742
751.565	0.0165563
751.643	0.0165842
751.721	0.0165143
751.799	0.0166486
751.878	0.0164930
751.956	0.0164700
752.034	0.0164931
752.112	0.0166157
752.190	0.0166233
752.268	0.0166095
752.346	0.0165775
752.424	0.0166007
752.503	0.0166668
752.581	0.0167265
752.659	0.0166926
752.737	0.0166872
752.815	0.0167416
752.893	0.0168015
752.971	0.0167423
753.049	0.0166277
753.128	0.0165897
753.206	0.0166666
753.284	0.0166904
753.362	0.0165942
753.440	0.0165107
753.518	0.0167020
753.596	0.0166259
753.674	0.0166600
753.753	0.0167371
753.831	0.0167381
753.909	0.0166138
753.987	0.0165833
754.065	0.0166962
754.143	0.0166037
754.221	0.0167606
754.299	0.0167088
754.378	0.0166125
754.456	0.0166404
754.534	0.0166256
754.612	0.0165366
754.690	0.0166810
754.768	0.0166763
754.846	0.0166456
754.924	0.0166113
755.003	0.0165244
755.081	0.0166223
755.159	0.0165598
755.237	0.0166437
755.315	0.0165875
755.393	0.0164751
755.471	0.0165549
755.549	0.0165823
755.628	0.0165293
755.706	0.0166216
755.784	0.0166716
755.862	0.0166652
755.940	0.0164670
756.018	0.0164241
756.096	0.0163751
756.174	0.0163997
756.253	0.0164545
756.331	0.0163939
756.409	0.0162340
756.487	0.0161378
756.565	0.0162023
756.643	0.0161531
756.721	0.0162582
756.799	0.0161088
756.878	0.0163443
756.956	0.0163647
757.034	0.0163610
757.112	0.0162910
757.190	0.0162951
757.268	0.0163718
757.346	0.0162672
757.424	0.0164421
757.503	0.0163883
757.581	0.0163377
757.659	0.0163333
757.737	0.0164101
757.815	0.0162953
757.893	0.0163725
757.971	0.0163884
758.049	0.0163242
758.128	0.0162603
758.206	0.0165170
758.284	0.0163984
758.362	0.0163864
758.440	0.0162318
758.518	0.0164033
758.596	0.0164420
758.674	0.0165859
758.753	0.0165755
758.831	0.0163980
758.909	0.0165230
758.987	0.0165495
759.065	0.0165388
759.143	0.0166039
759.221	0.0166738
759.299	0.0164969
759.378	0.0165469
759.456	0.0165759
759.534	0.0167409
759.612	0.0165786
759.690	0.0167283
759.768	0.0168324
759.846	0.0166872
759.924	0.0167484
760.003	0.0168600
760.081	0.0167582
760.159	0.0167602
760.237	0.0167977
760.315	0.0167212
760.393	0.0167918
760.471	0.0167603
760.549	0.0166799
760.628	0.0165822
760.706	0.0165691
760.784	0.0167694
760.862	0.0166040
760.940	0.0166644
761.018	0.0165666
761.096	0.0165368
761.174	0.0165067
761.253	0.0164938
761.331	0.0165017
761.409	0.0165862
761.487	0.0166168
761.565	0.0166413
761.643	0.0165633
761.721	0.0165573
761.799	0.0165382
761.878	0.0165559
761.956	0.0167577
762.034	0.0167239
762.112	0.0165244
762.190	0.0166229
762.268	0.0165564
762.346	0.0165437
762.424	0.0163415
762.503	0.0165043
762.581	0.0166296
762.659	0.0165069
762.737	0.0165321
762.815	0.0165623
762.893	0.0163436
762.971	0.0163342
763.049	0.0164783
763.128	0.0165380
763.206	0.0164989
763.284	0.0165179
763.362	0.0165285
763.440	0.0165883
763.518	0.0165155
763.596	0.0166999
763.674	0.0165734
763.753	0.0164746
763.831	0.0163641
763.909	0.0164603
763.987	0.0167014
764.065	0.0165224
764.143	0.0165516
764.221	0.0166211
764.299	0.0165101
764.378	0.0164323
764.456	0.0164654
764.534	0.0164111
764.612	0.0163799
764.690	0.0164369
764.768	0.0165357
764.846	0.0165041
764.924	0.0164651
765.003	0.0164634
765.081	0.0163303
765.159	0.0166385
765.237	0.0164612
765.315	0.0163712
765.393	0.0165181
765.471	0.0165104
765.549	0.0164665
765.628	0.0165107
765.706	0.0163076
765.784	0.0164204
765.862	0.0165347
765.940	0.0164304
766.018	0.0164975
766.096	0.0166180
766.174	0.0165414
766.253	0.0165932
766.331	0.0166926
766.409	0.0166624
766.487	0.0166518
766.565	0.0167210
766.643	0.0166840
766.721	0.0167041
766.799	0.0167413
766.878	0.0166811
766.956	0.0168446
767.034	0.0166666
767.112	0.0168006
767.190	0.0167442
767.268	0.0167844
767.346	0.0168496
767.424	0.0168019
767.503	0.0167340
767.581	0.0168237
767.659	0.0167765
767.737	0.0165676
767.815	0.0168024
767.893	0.0169524
767.971	0.0167390
768.049	0.0166209
768.128	0.0167262
768.206	0.0167542
768.284	0.0168448
768.362	0.0166860
768.440	0.0166677
768.518	0.0166373
768.596	0.0166292
768.674	0.0165687
768.753	0.0165366
768.831	0.0166967
768.909	0.0164906
768.987	0.0166093
769.065	0.0165302
769.143	0.0164416
769.221	0.0164385
769.299	0.0165580
769.378	0.0166302
769.456	0.0166259
769.534	0.0165649
769.612	0.0166451
769.690	0.0166218
769.768	0.0165945
769.846	0.0167039
769.924	0.0165752
770.003	0.0165615
770.081	0.0165121
770.159	0.0165623
770.237	0.0164799
770.315	0.0164790
770.393	0.0164066
770.471	0.0164789
770.549	0.0164419
770.628	0.0164033
770.706	0.0165001
770.784	0.0165325
770.862	0.0166140
770.940	0.0164509
771.018	0.0166190
771.096	0.0165990
771.174	0.0166154
771.253	0.0166756
771.331	0.0167052
771.409	0.0164854
771.487	0.0166133
771.565	0.0167148
771.643	0.0167030
771.721	0.0165608
771.799	0.0166355
771.878	0.0165471
771.956	0.0164629
772.034	0.0166287
772.112	0.0165785
772.190	0.0165219
772.268	0.0165906
772.346	0.0165633
772.424	0.0164462
772.503	0.0164247
772.581	0.0165393
772.659	0.0165334
772.737	0.0164902
772.815	0.0164858
772.893	0.0165519
772.971	0.0165625
773.049	0.0165029
773.128	0.0166000
773.206	0.0164886
773.284	0.0165198
773.362	0.0165714
773.440	0.0165118
773.518	0.0165663
773.596	0.0164426
773.674	0.0165166
773.753	0.0164397
773.831	0.0164268
773.909	0.0165422
773.987	0.0166006
774.065	0.0164775
774.143	0.0164305
774.221	0.0164587
774.299	0.0167405
774.378	0.0166436
774.456	0.0165737
774.534	0.0165733
774.612	0.0166094
774.690	0.0166951
774.768	0.0166117
774.846	0.0166374
774.924	0.0166601
775.003	0.0167024
775.081	0.0166270
775.159	0.0164896
775.237	0.0164882
775.315	0.0165088
775.393	0.0165895
775.471	0.0165639
775.549	0.0166250
775.628	0.0164940
775.706	0.0164617
775.784	0.0163999
775.862	0.0164926
775.940	0.0165172
776.018	0.0165546
776.096	0.0165089
776.174	0.0165611
776.253	0.0165031
776.331	0.0164937
776.409	0.0165647
776.487	0.0165718
776.565	0.0162612
776.643	0.0163438
776.721	0.0165179
776.799	0.0164307
776.878	0.0163594
776.956	0.0164043
777.034	0.0164236
777.112	0.0163009
777.190	0.0164221
777.268	0.0164996
777.346	0.0164996
777.424	0.0164595
777.503	0.0164368
777.581	0.0162846
777.659	0.0164532
777.737	0.0163647
777.815	0.0164989
777.893	0.0165508
777.971	0.0164090
778.049	0.0163773
778.128	0.0164262
778.206	0.0165430
778.284	0.0165392
778.362	0.0165334
778.440	0.0166743
778.518	0.0165818
778.596	0.0165469
778.674	0.0166655
778.753	0.0165938
778.831	0.0165015
778.909	0.0165207
778.987	0.0165770
779.065	0.0165737
779.143	0.0167406
779.221	0.0164936
779.299	0.0166050
779.378	0.0164936
779.456	0.0164185
779.534	0.0163912
779.612	0.0166027
779.690	0.0165966
779.768	0.0163871
779.846	0.0164488
779.924	0.0164270
780.003	0.0164366
780.081	0.0164688
780.159	0.0164149
780.237	0.0163074
780.315	0.0163770
780.393	0.0164831
780.471	0.0164059
780.549	0.0163684
780.628	0.0165778
780.706	0.0164573
780.784	0.0162504
780.862	0.0164922
780.940	0.0165961
781.018	0.0166541
781.096	0.0165515
781.174	0.0165333
781.253	0.0164564
781.331	0.0165386
781.409	0.0166161
781.487	0.0164919
781.565	0.0164934
781.643	0.0163831
781.721	0.0164940
781.799	0.0165848
781.878	0.0164437
781.956	0.0166376
782.034	0.0165327
782.112	0.0165314
782.190	0.0166940
782.268	0.0166297
782.346	0.0166868
782.424	0.0167387
782.503	0.0166319
782.581	0.0166614
782.659	0.0167552
782.737	0.0167744
782.815	0.0167599
782.893	0.0165894
782.971	0.0165450
783.049	0.0166459
783.128	0.0167141
783.206	0.0166525
783.284	0.0167065
783.362	0.0166290
783.440	0.0165729
783.518	0.0166212
783.596	0.0165537
783.674	0.0165420
783.753	0.0165155
783.831	0.0165179
783.909	0.0166796
783.987	0.0164538
784.065	0.0165188
784.143	0.0164314
784.221	0.0163412
784.299	0.0165815
784.378	0.0164513
784.456	0.0164430
784.534	0.0164635
784.612	0.0165123
784.690	0.0165157
784.768	0.0165367
784.846	0.0164639
784.924	0.0164590
785.003	0.0164850
785.081	0.0164856
785.159	0.0164278
785.237	0.0164012
785.315	0.0163300
785.393	0.0164324
785.471	0.0163751
785.549	0.0163799
785.628	0.0164680
785.706	0.0163952
785.784	0.0164755
785.862	0.0164848
785.940	0.0165531
786.018	0.0164942
786.096	0.0165284
786.174	0.0166595
786.253	0.0165151
786.331	0.0166172
786.409	0.0166047
786.487	0.0165336
786.565	0.0165965
786.643	0.0167921
786.721	0.0166634
786.799	0.0166221
786.878	0.0166148
786.956	0.0166001
787.034	0.0166312
787.112	0.0166919
787.190	0.0166525
787.268	0.0166285
787.346	0.0167796
787.424	0.0166220
787.503	0.0166554
787.581	0.0167193
787.659	0.0167005
787.737	0.0166538
787.815	0.0166110
787.893	0.0167152
787.971	0.0166932
788.049	0.0166730
788.128	0.0166640
788.206	0.0166829
788.284	0.0166362
788.362	0.0166994
788.440	0.0166328
788.518	0.0166232
788.596	0.0167726
788.674	0.0165665
788.753	0.0167195
788.831	0.0166275
788.909	0.0165948
788.987	0.0165923
789.065	0.0165620
789.143	0.0166022
789.221	0.0166521
789.299	0.0166192
789.378	0.0166566
789.456	0.0165690
789.534	0.0165964
789.612	0.0167163
789.690	0.0167200
789.768	0.0167130
789.846	0.0165369
789.924	0.0165999
790.003	0.0165661
790.081	0.0167009
790.159	0.0166159
790.237	0.0165151
790.315	0.0166438
790.393	0.0167105
790.471	0.0164851
790.549	0.0164890
790.628	0.0166595
790.706	0.0165564
790.784	0.0164967
790.862	0.0165383
790.940	0.0164378
791.018	0.0161533
791.096	0.0163564
791.174	0.0163355
791.253	0.0164056
791.331	0.0162674
791.409	0.0164882
791.487	0.0163780
791.565	0.0163427
791.643	0.0164473
791.721	0.0164911
791.799	0.0164975
791.878	0.0164804
791.956	0.0164695
792.034	0.0164479
792.112	0.0165660
792.190	0.0164235
792.268	0.0166376
792.346	0.0164076
792.424	0.0164345
792.503	0.0166022
792.581	0.0163789
792.659	0.0163889
792.737	0.0165343
792.815	0.0166080
792.893	0.0165722
792.971	0.0165122
793.049	0.0165639
793.128	0.0165970
793.206	0.0166924
793.284	0.0164840
793.362	0.0165475
793.440	0.0165339
793.518	0.0166349
793.596	0.0165292
793.674	0.0165369
793.753	0.0165492
793.831	0.0166127
793.909	0.0167715
793.987	0.0165825
794.065	0.0168559
794.143	0.0168223
794.221	0.0166624
794.299	0.0167016
794.378	0.0168333
794.456	0.0166771
794.534	0.0166983
794.612	0.0167038
794.690	0.0166732
794.768	0.0167104
794.846	0.0167367
794.924	0.0166639
795.003	0.0165946
795.081	0.0167282
795.159	0.0164983
795.237	0.0166692
795.315	0.0166105
795.393	0.0166496
795.471	0.0166918
795.549	0.0167090
795.628	0.0166366
795.706	0.0166521
795.784	0.0165852
795.862	0.0166061
795.940	0.0166416
796.018	0.0165491
796.096	0.0165519
796.174	0.0165062
796.253	0.0165435
796.331	0.0164818
796.409	0.0166209
796.487	0.0165591
796.565	0.0165572
796.643	0.0164413
796.721	0.0166732
796.799	0.0164704
796.878	0.0164691
796.956	0.0165816
797.034	0.0164601
797.112	0.0164723
797.190	0.0164143
797.268	0.0164742
797.346	0.0164949
797.424	0.0164725
797.503	0.0164861
797.581	0.0165128
797.659	0.0163661
797.737	0.0163878
797.815	0.0165017
797.893	0.0165022
797.971	0.0163280
798.049	0.0164303
798.128	0.0165430
798.206	0.0165483
798.284	0.0164174
798.362	0.0165114
798.440	0.0164374
798.518	0.0165873
798.596	0.0165437
798.674	0.0165371
798.753	0.0164534
798.831	0.0165888
798.909	0.0164632
798.987	0.0165603
799.065	0.0165645
799.143	0.0165719
799.221	0.0165350
799.299	0.0164336
799.378	0.0165947
799.456	0.0165962
799.534	0.0166917
799.612	0.0166367
799.690	0.0166409
799.768	0.0165699
799.846	0.0166959
799.924	0.0168035
800.003	0.0167233
800.081	0.0166276
800.159	0.0168951
800.237	0.0167986
800.315	0.0168134
800.393	0.0169086
800.471	0.0167843
800.549	0.0168121
800.628	0.0167956
800.706	0.0168464
800.784	0.0168443
800.862	0.0167272
800.940	0.0166239
801.018	0.0166917
801.096	0.0167245
801.174	0.0166622
801.253	0.0166737
801.331	0.0166514
801.409	0.0166798
801.487	0.0166425
801.565	0.0165943
801.643	0.0166955
801.721	0.0166586
801.799	0.0165990
801.878	0.0165733
801.956	0.0165643
802.034	0.0166009
802.112	0.0166447
802.190	0.0167165
802.268	0.0167876
802.346	0.0166156
802.424	0.0165805
802.503	0.0165109
802.581	0.0165000
802.659	0.0165503
802.737	0.0167521
802.815	0.0165676
802.893	0.0164651
802.971	0.0165730
803.049	0.0164925
803.128	0.0165018
803.206	0.0165260
803.284	0.0164388
803.362	0.0166047
803.440	0.0165874
803.518	0.0164561
803.596	0.0165831
803.674	0.0166249
803.753	0.0165829
803.831	0.0165730
803.909	0.0163980
803.987	0.0164943
804.065	0.0164755
804.143	0.0165314
804.221	0.0165124
804.299	0.0164550
804.378	0.0164981
804.456	0.0165735
804.534	0.0164688
804.612	0.0165301
804.690	0.0165322
804.768	0.0164613
804.846	0.0165813
804.924	0.0165975
805.003	0.0165881
805.081	0.0167632
805.159	0.0166792
805.237	0.0165317
805.315	0.0165999
805.393	0.0166299
805.471	0.0165350
805.549	0.0166439
805.628	0.0167056
805.706	0.0166611
805.784	0.0166862
805.862	0.0166235
805.940	0.0167139
806.018	0.0167117
806.096	0.0166837
806.174	0.0166647
806.253	0.0165531
806.331	0.0166431
806.409	0.0166708
806.487	0.0165985
806.565	0.0166627
806.643	0.0167268
806.721	0.0166129
806.799	0.0166730
806.878	0.0167763
806.956	0.0165409
807.034	0.0166042
807.112	0.0167146
807.190	0.0167374
807.268	0.0167713
807.346	0.0166924
807.424	0.0166968
807.503	0.0167448
807.581	0.0167995
807.659	0.0169228
807.737	0.0167857
807.815	0.0167358
807.893	0.0167513
807.971	0.0166991
808.049	0.0167374
808.128	0.0166930
808.206	0.0167372
808.284	0.0167561
808.362	0.0165244
808.440	0.0165883
808.518	0.0165843
808.596	0.0166917
808.674	0.0166296
808.753	0.0165820
808.831	0.0164858
808.909	0.0165901
808.987	0.0163693
809.065	0.0166055
809.143	0.0166385
809.221	0.0163694
809.299	0.0164612
809.378	0.0165193
809.456	0.0166000
809.534	0.0165284
809.612	0.0166196
809.690	0.0165662
809.768	0.0166260
809.846	0.0165723
809.924	0.0165900
810.003	0.0165961
810.081	0.0166003
810.159	0.0166621
810.237	0.0165611
810.315	0.0165177
810.393	0.0165890
810.471	0.0165105
810.549	0.0164924
810.628	0.0165042
810.706	0.0164990
810.784	0.0164476
810.862	0.0163145
810.940	0.0164240
811.018	0.0164979
811.096	0.0164257
811.174	0.0163323
811.253	0.0163489
811.331	0.0163856
811.409	0.0163747
811.487	0.0165204
811.565	0.0164832
811.643	0.0162850
811.721	0.0165228
811.799	0.0164550
811.878	0.0164754
811.956	0.0164767
812.034	0.0165187
812.112	0.0163299
812.190	0.0164016
812.268	0.0164429
812.346	0.0165308
812.424	0.0164547
812.503	0.0165138
812.581	0.0164529
812.659	0.0165410
812.737	0.0164662
812.815	0.0164584
812.893	0.0165518
812.971	0.0167031
813.049	0.0164520
813.128	0.0164764
813.206	0.0164625
813.284	0.0164850
813.362	0.0166164
813.440	0.0165712
813.518	0.0165481
813.596	0.0166505
813.674	0.0167287
813.753	0.0166293
813.831	0.0165459
813.909	0.0165520
813.987	0.0165394
814.065	0.0165527
814.143	0.0166311
814.221	0.0165549
814.299	0.0166840
814.378	0.0166026
814.456	0.0166392
814.534	0.0166122
814.612	0.0166720
814.690	0.0166858
814.768	0.0165082
814.846	0.0166714
814.924	0.0166445
815.003	0.0165422
815.081	0.0166493
815.159	0.0165145
815.237	0.0165189
815.315	0.0165356
815.393	0.0165315
815.471	0.0166270
815.549	0.0165746
815.628	0.0164108
815.706	0.0166897
815.784	0.0166503
815.862	0.0165224
815.940	0.0164854
816.018	0.0165565
816.096	0.0165204
816.174	0.0164743
816.253	0.0166778
816.331	0.0166186
816.409	0.0166208
816.487	0.0165365
816.565	0.0164738
816.643	0.0166122
816.721	0.0165721
816.799	0.0164767
816.878	0.0165021
816.956	0.0164016
817.034	0.0165065
817.112	0.0164505
817.190	0.0163386
817.268	0.0165168
817.346	0.0164045
817.424	0.0163775
817.503	0.0164159
817.581	0.0164736
817.659	0.0164929
817.737	0.0165028
817.815	0.0165201
817.893	0.0164243
817.971	0.0164233
818.049	0.0164471
818.128	0.0165184
818.206	0.0165363
818.284	0.0164275
818.362	0.0163310
818.440	0.0164130
818.518	0.0165202
818.596	0.0166196
818.674	0.0163407
818.753	0.0164368
818.831	0.0165215
818.909	0.0164689
818.987	0.0165009
819.065	0.0164393
819.143	0.0166075
819.221	0.0164948
819.299	0.0165240
819.378	0.0166154
819.456	0.0165349
819.534	0.0166003
819.612	0.0164415
819.690	0.0165891
819.768	0.0166791
819.846	0.0166492
819.924	0.0164804
820.003	0.0166107
820.081	0.0167280
820.159	0.0166558
820.237	0.0166444
820.315	0.0165353
820.393	0.0166002
820.471	0.0166722
820.549	0.0166935
820.628	0.0165495
820.706	0.0167096
820.784	0.0166127
820.862	0.0166216
820.940	0.0166055
821.018	0.0167429
821.096	0.0167355
821.174	0.0166268
821.253	0.0165791
821.331	0.0165079
821.409	0.0166348
821.487	0.0166800
821.565	0.0165021
821.643	0.0165935
821.721	0.0166588
821.799	0.0165804
821.878	0.0166340
821.956	0.0167329
822.034	0.0165725
822.112	0.0165167
822.190	0.0166906
822.268	0.0166270
822.346	0.0166322
822.424	0.0165448
822.503	0.0165543
822.581	0.0166212
822.659	0.0166149
822.737	0.0165604
822.815	0.0166443
822.893	0.0166196
822.971	0.0165807
823.049	0.0165808
823.128	0.0165674
823.206	0.0165911
823.284	0.0166981
823.362	0.0167206
823.440	0.0166555
823.518	0.0165945
823.596	0.0166667
823.674	0.0167200
823.753	0.0167083
823.831	0.0166644
823.909	0.0166348
823.987	0.0166451
824.065	0.0166122
824.143	0.0164790
824.221	0.0165927
824.299	0.0167117
824.378	0.0165988
824.456	0.0165759
824.534	0.0166250
824.612	0.0166498
824.690	0.0165281
824.768	0.0166374
824.846	0.0165976
824.924	0.0164547
825.003	0.0165690
825.081	0.0165724
825.159	0.0165385
825.237	0.0166231
825.315	0.0164716
825.393	0.0165110
825.471	0.0164960
825.549	0.0165529
825.628	0.0164755
825.706	0.0165665
825.784	0.0165872
825.862	0.0165257
825.940	0.0166106
826.018	0.0165883
826.096	0.0165082
826.174	0.0165570
826.253	0.0166941
826.331	0.0165193
826.409	0.0165178
826.487	0.0166859
826.565	0.0167199
826.643	0.0164658
826.721	0.0165202
826.799	0.0166296
826.878	0.0165704
826.956	0.0165733
827.034	0.0166634
827.112	0.0166571
827.190	0.0167300
827.268	0.0166160
827.346	0.0165343
827.424	0.0166273
827.503	0.0167242
827.581	0.0166066
827.659	0.0167099
827.737	0.0167953
827.815	0.0167336
827.893	0.0167318
827.971	0.0167494
828.049	0.0166203
828.128	0.0166475
828.206	0.0166280
828.284	0.0166537
828.362	0.0166412
828.440	0.0165977
828.518	0.0167558
828.596	0.0166713
828.674	0.0166149
828.753	0.0167424
828.831	0.0166780
828.909	0.0166884
828.987	0.0167080
829.065	0.0166563
829.143	0.0167396
829.221	0.0167416
829.299	0.0166320
829.378	0.0168079
829.456	0.0167493
829.534	0.0166168
829.612	0.0167072
829.690	0.0167506
829.768	0.0166536
829.846	0.0165766
829.924	0.0166142
830.003	0.0165372
830.081	0.0165089
830.159	0.0166493
830.237	0.0166059
830.315	0.0164722
830.393	0.0165447
830.471	0.0165838
830.549	0.0165441
830.628	0.0165241
830.706	0.0166484
830.784	0.0166668
830.862	0.0166497
830.940	0.0165176
831.018	0.0165947
831.096	0.0164627
831.174	0.0164566
831.253	0.0165896
831.331	0.0164925
831.409	0.0165495
831.487	0.0165333
831.565	0.0164864
831.643	0.0164059
831.721	0.0164650
831.799	0.0165568
831.878	0.0166297
831.956	0.0165048
832.034	0.0163653
832.112	0.0164401
832.190	0.0164874
832.268	0.0164079
832.346	0.0164775
832.424	0.0163884
832.503	0.0163641
832.581	0.0164282
832.659	0.0165060
832.737	0.0164241
832.815	0.0164351
832.893	0.0166035
832.971	0.0164401
833.049	0.0164619
833.128	0.0165421
833.206	0.0165658
833.284	0.0166956
833.362	0.0165621
833.440	0.0166378
833.518	0.0165737
833.596	0.0165345
833.674	0.0166461
833.753	0.0167258
833.831	0.0166685
833.909	0.0166523
833.987	0.0166538
834.065	0.0167694
834.143	0.0167586
834.221	0.0166422
834.299	0.0166307
834.378	0.0166284
834.456	0.0166367
834.534	0.0165902
834.612	0.0165254
834.690	0.0166329
834.768	0.0166478
834.846	0.0165892
834.924	0.0165869
835.003	0.0166454
835.081	0.0167152
835.159	0.0165256
835.237	0.0164450
835.315	0.0166597
835.393	0.0167027
835.471	0.0165955
835.549	0.0166864
835.628	0.0165964
835.706	0.0165465
835.784	0.0166488
835.862	0.0166726
835.940	0.0165474
836.018	0.0167413
836.096	0.0167020
836.174	0.0166135
836.253	0.0166605
836.331	0.0165386
836.409	0.0166174
836.487	0.0166077
836.565	0.0166476
836.643	0.0166798
836.721	0.0165512
836.799	0.0165277
836.878	0.0165507
836.956	0.0165506
837.034	0.0165107
837.112	0.0165045
837.190	0.0165343
837.268	0.0165041
837.346	0.0164043
837.424	0.0165533
837.503	0.0164319
837.581	0.0165245
837.659	0.0165124
837.737	0.0164686
837.815	0.0166116
837.893	0.0165141
837.971	0.0164766
838.049	0.0163704
838.128	0.0163841
838.206	0.0166309
838.284	0.0164487
838.362	0.0166438
838.440	0.0164525
838.518	0.0164204
838.596	0.0165340
838.674	0.0165665
838.753	0.0166994
838.831	0.0165245
838.909	0.0162514
838.987	0.0164066
839.065	0.0165193
839.143	0.0164907
839.221	0.0164508
839.299	0.0165822
839.378	0.0165907
839.456	0.0165462
839.534	0.0165488
839.612	0.0164851
839.690	0.0164632
839.768	0.0166069
839.846	0.0164770
839.924	0.0164767
840.003	0.0165332
840.081	0.0165942
840.159	0.0163823
840.237	0.0165601
840.315	0.0165755
840.393	0.0165041
840.471	0.0165772
840.549	0.0166167
840.628	0.0164899
840.706	0.0166746
840.784	0.0166417
840.862	0.0165710
840.940	0.0166920
841.018	0.0166793
841.096	0.0166531
841.174	0.0164705
841.253	0.0165408
841.331	0.0166124
841.409	0.0166548
841.487	0.0165179
841.565	0.0165787
841.643	0.0165416
841.721	0.0165242
841.799	0.0165002
841.878	0.0165668
841.956	0.0165586
842.034	0.0167028
842.112	0.0165931
842.190	0.0166287
842.268	0.0164602
842.346	0.0165486
842.424	0.0165076
842.503	0.0164365
842.581	0.0164796
842.659	0.0166819
842.737	0.0165510
842.815	0.0165264
842.893	0.0165757
842.971	0.0166312
843.049	0.0163337
843.128	0.0164047
843.206	0.0165214
843.284	0.0166380
843.362	0.0166273
843.440	0.0165524
843.518	0.0164748
843.596	0.0163660
843.674	0.0165066
843.753	0.0165656
843.831	0.0165861
843.909	0.0164455
843.987	0.0164858
844.065	0.0165919
844.143	0.0163880
844.221	0.0165794
844.299	0.0164865
844.378	0.0164503
844.456	0.0164082
844.534	0.0164062
844.612	0.0165163
844.690	0.0163890
844.768	0.0165102
844.846	0.0164944
844.924	0.0163444
845.003	0.0164735
845.081	0.0162740
845.159	0.0164478
845.237	0.0163972
845.315	0.0164246
845.393	0.0164325
845.471	0.0163779
845.549	0.0162057
845.628	0.0165933
845.706	0.0164090
845.784	0.0164898
845.862	0.0164923
845.940	0.0165050
846.018	0.0164885
846.096	0.0166217
846.174	0.0164931
846.253	0.0164568
846.331	0.0165343
846.409	0.0165334
846.487	0.0164635
846.565	0.0164439
846.643	0.0165930
846.721	0.0165986
846.799	0.0166197
846.878	0.0165630
846.956	0.0165057
847.034	0.0164835
847.112	0.0166141
847.190	0.0164820
847.268	0.0166434
847.346	0.0164790
847.424	0.0166380
847.503	0.0165247
847.581	0.0165504
847.659	0.0166119
847.737	0.0164606
847.815	0.0164404
847.893	0.0165699
847.971	0.0164113
848.049	0.0163937
848.128	0.0165228
848.206	0.0165574
848.284	0.0166313
848.362	0.0166056
848.440	0.0166209
848.518	0.0165826
848.596	0.0166373
848.674	0.0165668
848.753	0.0166628
848.831	0.0165382
848.909	0.0167731
848.987	0.0165849
849.065	0.0165508
849.143	0.0165650
849.221	0.0167637
849.299	0.0166976
849.378	0.0165585
849.456	0.0166283
849.534	0.0165743
849.612	0.0165620
849.690	0.0166011
849.768	0.0167103
849.846	0.0166946
849.924	0.0165556
850.003	0.0166534
850.081	0.0165315
850.159	0.0166484
850.237	0.0165490
850.315	0.0166067
850.393	0.0166229
850.471	0.0165491
850.549	0.0165802
850.628	0.0165869
850.706	0.0165242
850.784	0.0166319
850.862	0.0165807
850.940	0.0165071
851.018	0.0166334
851.096	0.0167317
851.174	0.0166575
851.253	0.0165240
851.331	0.0166176
851.409	0.0165560
851.487	0.0165224
851.565	0.0166384
851.643	0.0165247
851.721	0.0164756
851.799	0.0165361
851.878	0.0164710
851.956	0.0166495
852.034	0.0166567
852.112	0.0164144
852.190	0.0165031
852.268	0.0165125
852.346	0.0164871
852.424	0.0166296
852.503	0.0165412
852.581	0.0165024
852.659	0.0164509
852.737	0.0166010
852.815	0.0165858
852.893	0.0164766
852.971	0.0163851
853.049	0.0163712
853.128	0.0164030
853.206	0.0165039
853.284	0.0165002
853.362	0.0164766
853.440	0.0165331
853.518	0.0165605
853.596	0.0165788
853.674	0.0164441
853.753	0.0164205
853.831	0.0164925
853.909	0.0163583
853.987	0.0164487
854.065	0.0166521
854.143	0.0165388
854.221	0.0164318
854.299	0.0163922
854.378	0.0165214
854.456	0.0165234
854.534	0.0164820
854.612	0.0164866
854.690	0.0164715
854.768	0.0164826
854.846	0.0165426
854.924	0.0165165
855.003	0.0164650
855.081	0.0163702
855.159	0.0164133
855.237	0.0165413
855.315	0.0166006
855.393	0.0165707
855.471	0.0164763
855.549	0.0164724
855.628	0.0164270
855.706	0.0165025
855.784	0.0164294
855.862	0.0164415
855.940	0.0164577
856.018	0.0165168
856.096	0.0163868
856.174	0.0165829
856.253	0.0166014
856.331	0.0165898
856.409	0.0165119
856.487	0.0165387
856.565	0.0163719
856.643	0.0164188
856.721	0.0165884
856.799	0.0165132
856.878	0.0166183
856.956	0.0165402
857.034	0.0165762
857.112	0.0167453
857.190	0.0165993
857.268	0.0166013
857.346	0.0165324
857.424	0.0164778
857.503	0.0165612
857.581	0.0166412
857.659	0.0166223
857.737	0.0165350
857.815	0.0165581
857.893	0.0166500
857.971	0.0163615
858.049	0.0163443
858.128	0.0165552
858.206	0.0166354
858.284	0.0165614
858.362	0.0165449
858.440	0.0164122
858.518	0.0165415
858.596	0.0165739
858.674	0.0164925
858.753	0.0165395
858.831	0.0165392
858.909	0.0164182
858.987	0.0165388
859.065	0.0164456
859.143	0.0162720
859.221	0.0163226
859.299	0.0165269
859.378	0.0164427
859.456	0.0165151
859.534	0.0163979
859.612	0.0164281
859.690	0.0164736
859.768	0.0165221
859.846	0.0164830
859.924	0.0163892
860.003	0.0163058
860.081	0.0164091
860.159	0.0163554
860.237	0.0165559
860.315	0.0165957
860.393	0.0164963
860.471	0.0163616
860.549	0.0162685
860.628	0.0163770
860.706	0.0163599
860.784	0.0162708
860.862	0.0164501
860.940	0.0163399
861.018	0.0164316
861.096	0.0165662
861.174	0.0166447
861.253	0.0165017
861.331	0.0164635
861.409	0.0164243
861.487	0.0165040
861.565	0.0165706
861.643	0.0164510
861.721	0.0164211
861.799	0.0165566
861.878	0.0164533
861.956	0.0164906
862.034	0.0165569
862.112	0.0164589
862.190	0.0164458
862.268	0.0165154
862.346	0.0164417
862.424	0.0165199
862.503	0.0164882
862.581	0.0165536
862.659	0.0165211
862.737	0.0166701
862.815	0.0165850
862.893	0.0165042
862.971	0.0165490
863.049	0.0166463
863.128	0.0164409
863.206	0.0166451
863.284	0.0166627
863.362	0.0165862
863.440	0.0166960
863.518	0.0166838
863.596	0.0166429
863.674	0.0166256
863.753	0.0166648
863.831	0.0165498
863.909	0.0166800
863.987	0.0165088
864.065	0.0166286
864.143	0.0167466
864.221	0.0166451
864.299	0.0166199
864.378	0.0166071
864.456	0.0166451
864.534	0.0165401
864.612	0.0164275
864.690	0.0165764
864.768	0.0165250
864.846	0.0164147
864.924	0.0165741
865.003	0.0166240
865.081	0.0163985
865.159	0.0165979
865.237	0.0166134
865.315	0.0165269
865.393	0.0165603
865.471	0.0167320
865.549	0.0167593
865.628	0.0165735
865.706	0.0166209
865.784	0.0166838
865.862	0.0167233
865.940	0.0166469
866.018	0.0166459
866.096	0.0167075
866.174	0.0165723
866.253	0.0166511
866.331	0.0166628
866.409	0.0165868
866.487	0.0165872
866.565	0.0167182
866.643	0.0166158
866.721	0.0163840
866.799	0.0165340
866.878	0.0165872
866.956	0.0165924
867.034	0.0163999
867.112	0.0164860
867.190	0.0165595
867.268	0.0166392
867.346	0.0166425
867.424	0.0167726
867.503	0.0165085
867.581	0.0167153
867.659	0.0166768
867.737	0.0165800
867.815	0.0165022
867.893	0.0164622
867.971	0.0166156
868.049	0.0166839
868.128	0.0166241
868.206	0.0165545
868.284	0.0165850
868.362	0.0164166
868.440	0.0164162
868.518	0.0165531
868.596	0.0164949
868.674	0.0164172
868.753	0.0164838
868.831	0.0164548
868.909	0.0164917
868.987	0.0165751
869.065	0.0165149
869.143	0.0165202
869.221	0.0165501
869.299	0.0165105
869.378	0.0164130
869.456	0.0165780
869.534	0.0166586
869.612	0.0164347
869.690	0.0165292
869.768	0.0165910
869.846	0.0166316
869.924	0.0166817
870.003	0.0166022
870.081	0.0166557
870.159	0.0165976
870.237	0.0167213
870.315	0.0167198
870.393	0.0166250
870.471	0.0167523
870.549	0.0167403
870.628	0.0166307
870.706	0.0166231
870.784	0.0165694
870.862	0.0166206
870.940	0.0164722
871.018	0.0165858
871.096	0.0165262
871.174	0.0166859
871.253	0.0165591
871.331	0.0163422
871.409	0.0164624
871.487	0.0165872
871.565	0.0164684
871.643	0.0164220
871.721	0.0165009
871.799	0.0165321
871.878	0.0164703
871.956	0.0165530
872.034	0.0165610
872.112	0.0166055
872.190	0.0165609
872.268	0.0165430
872.346	0.0165502
872.424	0.0166093
872.503	0.0167296
872.581	0.0165791
872.659	0.0164504
872.737	0.0165247
872.815	0.0165218
872.893	0.0164838
872.971	0.0165715
873.049	0.0164561
873.128	0.0165435
873.206	0.0164460
873.284	0.0164751
873.362	0.0165025
873.440	0.0166026
873.518	0.0165762
873.596	0.0163717
873.674	0.0163323
873.753	0.0164539
873.831	0.0165359
873.909	0.0165726
873.987	0.0166171
874.065	0.0165335
874.143	0.0165422
874.221	0.0166096
874.299	0.0165680
874.378	0.0166082
874.456	0.0166171
874.534	0.0165861
874.612	0.0166492
874.690	0.0167067
874.768	0.0165731
874.846	0.0165815
874.924	0.0165709
875.003	0.0165674
875.081	0.0167471
875.159	0.0165810
875.237	0.0165269
875.315	0.0164464
875.393	0.0166048
875.471	0.0164481
875.549	0.0165444
875.628	0.0165427
875.706	0.0166942
875.784	0.0166177
875.862	0.0165019
875.940	0.0166324
876.018	0.0165068
876.096	0.0164682
876.174	0.0165839
876.253	0.0165026
876.331	0.0165632
876.409	0.0164301
876.487	0.0165064
876.565	0.0164246
876.643	0.0163865
876.721	0.0164074
876.799	0.0164976
876.878	0.0167068
876.956	0.0165007
877.034	0.0165006
877.112	0.0165123
877.190	0.0164286
877.268	0.0165431
877.346	0.0166933
877.424	0.0164818
877.503	0.0163836
877.581	0.0165329
877.659	0.0165639
877.737	0.0166158
877.815	0.0164372
877.893	0.0166178
877.971	0.0165743
878.049	0.0165891
878.128	0.0165904
878.206	0.0164672
878.284	0.0165365
878.362	0.0166066
878.440	0.0165148
878.518	0.0165736
878.596	0.0165826
878.674	0.0165064
878.753	0.0165104
878.831	0.0167493
878.909	0.0166847
878.987	0.0166344
879.065	0.0166540
879.143	0.0167259
879.221	0.0165711
879.299	0.0166159
879.378	0.0166691
879.456	0.0166279
879.534	0.0166776
879.612	0.0165762
879.690	0.0165705
879.768	0.0165789
879.846	0.0165605
879.924	0.0165567
880.003	0.0165822
880.081	0.0166149
880.159	0.0165022
880.237	0.0165452
880.315	0.0164236
880.393	0.0165129
880.471	0.0164676
880.549	0.0166078
880.628	0.0164363
880.706	0.0164914
880.784	0.0164484
880.862	0.0165107
880.940	0.0164626
881.018	0.0165458
881.096	0.0165475
881.174	0.0164820
881.253	0.0165543
881.331	0.0163860
881.409	0.0163962
881.487	0.0166002
881.565	0.0166170
881.643	0.0164637
881.721	0.0165729
881.799	0.0166100
881.878	0.0164985
881.956	0.0165131
882.034	0.0166091
882.112	0.0166474
882.190	0.0165244
882.268	0.0165278
882.346	0.0164813
882.424	0.0166798
882.503	0.0168198
882.581	0.0166671
882.659	0.0165525
882.737	0.0167047
882.815	0.0166908
882.893	0.0166959
882.971	0.0164973
883.049	0.0165485
883.128	0.0165747
883.206	0.0166713
883.284	0.0165815
883.362	0.0166529
883.440	0.0165884
883.518	0.0166342
883.596	0.0166541
883.674	0.0167015
883.753	0.0166827
883.831	0.0165656
883.909	0.0165401
883.987	0.0167792
884.065	0.0165865
884.143	0.0165387
884.221	0.0165392
884.299	0.0165339
884.378	0.0165363
884.456	0.0164706
884.534	0.0164861
884.612	0.0166124
884.690	0.0166008
884.768	0.0166481
884.846	0.0166222
884.924	0.0164827
885.003	0.0164332
885.081	0.0164957
885.159	0.0166355
885.237	0.0164104
885.315	0.0165730
885.393	0.0164771
885.471	0.0165502
885.549	0.0165521
885.628	0.0166134
885.706	0.0164626
885.784	0.0165919
885.862	0.0164851
885.940	0.0164540
886.018	0.0166262
886.096	0.0165633
886.174	0.0165670
886.253	0.0164538
886.331	0.0165114
886.409	0.0166125
886.487	0.0165932
886.565	0.0165472
886.643	0.0165952
886.721	0.0166004
886.799	0.0166180
886.878	0.0165043
886.956	0.0166367
887.034	0.0165848
887.112	0.0166627
887.190	0.0166483
887.268	0.0166923
887.346	0.0165441
887.424	0.0164914
887.503	0.0167210
887.581	0.0167717
887.659	0.0166363
887.737	0.0166615
887.815	0.0165916
887.893	0.0165583
887.971	0.0167217
888.049	0.0166969
888.128	0.0166704
888.206	0.0166277
888.284	0.0166528
888.362	0.0166575
888.440	0.0166125
888.518	0.0166859
888.596	0.0166383
888.674	0.0165819
888.753	0.0166760
888.831	0.0165889
888.909	0.0165741
888.987	0.0165501
889.065	0.0165916
889.143	0.0166153
889.221	0.0166627
889.299	0.0167293
889.378	0.0165243
889.456	0.0166704
889.534	0.0167261
889.612	0.0166350
889.690	0.0165202
889.768	0.0165563
889.846	0.0165359
889.924	0.0165966
890.003	0.0166262
890.081	0.0165202
890.159	0.0164598
890.237	0.0165098
890.315	0.0165910
890.393	0.0166494
890.471	0.0165788
890.549	0.0164883
890.628	0.0165639
890.706	0.0164539
890.784	0.0165684
890.862	0.0164473
890.940	0.0163734
891.018	0.0164828
891.096	0.0165504
891.174	0.0166296
891.253	0.0166171
891.331	0.0164810
891.409	0.0164225
891.487	0.0164618
891.565	0.0165996
891.643	0.0166604
891.721	0.0165196
891.799	0.0164866
891.878	0.0166185
891.956	0.0165117
892.034	0.0165520
892.112	0.0164785
892.190	0.0165247
892.268	0.0166116
892.346	0.0165546
892.424	0.0164425
892.503	0.0164152
892.581	0.0165210
892.659	0.0166018
892.737	0.0165801
892.815	0.0166097
892.893	0.0166127
892.971	0.0164905
893.049	0.0165356
893.128	0.0165208
893.206	0.0163714
893.284	0.0164774
893.362	0.0165921
893.440	0.0165998
893.518	0.0164282
893.596	0.0164733
893.674	0.0165877
893.753	0.0164699
893.831	0.0165224
893.909	0.0164872
893.987	0.0166626
894.065	0.0166203
894.143	0.0166587
894.221	0.0164922
894.299	0.0165733
894.378	0.0165974
894.456	0.0165280
894.534	0.0166890
894.612	0.0166422
894.690	0.0166514
894.768	0.0166806
894.846	0.0167003
894.924	0.0166919
895.003	0.0167113
895.081	0.0165890
895.159	0.0165552
895.237	0.0165516
895.315	0.0167842
895.393	0.0165948
895.471	0.0166646
895.549	0.0166960
895.628	0.0166744
895.706	0.0166115
895.784	0.0165057
895.862	0.0165295
895.940	0.0165951
896.018	0.0166306
896.096	0.0165739
896.174	0.0166707
896.253	0.0166142
896.331	0.0165982
896.409	0.0166098
896.487	0.0167971
896.565	0.0166957
896.643	0.0167081
896.721	0.0165827
896.799	0.0166844
896.878	0.0166734
896.956	0.0166969
897.034	0.0165585
897.112	0.0167426
897.190	0.0166709
897.268	0.0166148
897.346	0.0165279
897.424	0.0164674
897.503	0.0165742
897.581	0.0165308
897.659	0.0165276
897.737	0.0164512
897.815	0.0165168
897.893	0.0164846
897.971	0.0164941
898.049	0.0165516
898.128	0.0165404
898.206	0.0163711
898.284	0.0164664
898.362	0.0166727
898.440	0.0165649
898.518	0.0165157
898.596	0.0166649
898.674	0.0165784
898.753	0.0165284
898.831	0.0165841
898.909	0.0165511
898.987	0.0166589
899.065	0.0165917
899.143	0.0164662
899.221	0.0165857
899.299	0.0164130
899.378	0.0165732
899.456	0.0165158
899.534	0.0164875
899.612	0.0165253
899.690	0.0165417
899.768	0.0165434
899.846	0.0165171
899.924	0.0165369
900.003	0.0164784
900.081	0.0164084
900.159	0.0164563
900.237	0.0166243
900.315	0.0164745
900.393	0.0165153
900.471	0.0164730
900.549	0.0164635
900.628	0.0165424
900.706	0.0164745
900.784	0.0164217
900.862	0.0165726
900.940	0.0165299
901.018	0.0164667
901.096	0.0165820
901.174	0.0165162
901.253	0.0165698
901.331	0.0165845
901.409	0.0164014
901.487	0.0166473
901.565	0.0165212
901.643	0.0165649
901.721	0.0166422
901.799	0.0163850
901.878	0.0165557
901.956	0.0166611
902.034	0.0165118
902.112	0.0165025
902.190	0.0165113
902.268	0.0167416
902.346	0.0167052
902.424	0.0165790
902.503	0.0167911
902.581	0.0167098
902.659	0.0166750
902.737	0.0166837
902.815	0.0166322
902.893	0.0168301
902.971	0.0167443
903.049	0.0167129
903.128	0.0167491
903.206	0.0168960
903.284	0.0167353
903.362	0.0165987
903.440	0.0167062
903.518	0.0166235
903.596	0.0166192
903.674	0.0166853
903.753	0.0167399
903.831	0.0166322
903.909	0.0166412
903.987	0.0167004
904.065	0.0167352
904.143	0.0167309
904.221	0.0166839
904.299	0.0166441
904.378	0.0166454
904.456	0.0165254
904.534	0.0165768
904.612	0.0166530
904.690	0.0166922
904.768	0.0166604
904.846	0.0167144
904.924	0.0165491
905.003	0.0165798
905.081	0.0166519
905.159	0.0165134
905.237	0.0163979
905.315	0.0165712
905.393	0.0166006
905.471	0.0164588
905.549	0.0165067
905.628	0.0164923
905.706	0.0166097
905.784	0.0164820
905.862	0.0165937
905.940	0.0167188
906.018	0.0164931
906.096	0.0165067
906.174	0.0165609
906.253	0.0166578
906.331	0.0165807
906.409	0.0165748
906.487	0.0165420
906.565	0.0166061
906.643	0.0166473
906.721	0.0164816
906.799	0.0165530
906.878	0.0165658
906.956	0.0164431
907.034	0.0165543
907.112	0.0164954
907.190	0.0166508
907.268	0.0165558
907.346	0.0164706
907.424	0.0166249
907.503	0.0164279
907.581	0.0164346
907.659	0.0165804
907.737	0.0166835
907.815	0.0165726
907.893	0.0164847
907.971	0.0167291
908.049	0.0166740
908.128	0.0165745
908.206	0.0165142
908.284	0.0166098
908.362	0.0165909
908.440	0.0165684
908.518	0.0165465
908.596	0.0167007
908.674	0.0166393
908.753	0.0164989
908.831	0.0166927
908.909	0.0166202
908.987	0.0165431
909.065	0.0166067
909.143	0.0167792
909.221	0.0166329
909.299	0.0166859
909.378	0.0167007
909.456	0.0167630
909.534	0.0167664
909.612	0.0167308
909.690	0.0167990
909.768	0.0166267
909.846	0.0166594
909.924	0.0166785
910.003	0.0165776
910.081	0.0168326
910.159	0.0166514
910.237	0.0166621
910.315	0.0165547
910.393	0.0166146
910.471	0.0166145
910.549	0.0165617
910.628	0.0166473
910.706	0.0167604
910.784	0.0165900
910.862	0.0166800
910.940	0.0167332
911.018	0.0166451
911.096	0.0165740
911.174	0.0165418
911.253	0.0166662
911.331	0.0166655
911.409	0.0166046
911.487	0.0166459
911.565	0.0165321
911.643	0.0165578
911.721	0.0165659
911.799	0.0166615
911.878	0.0164817
911.956	0.0164458
912.034	0.0164792
912.112	0.0166045
912.190	0.0166384
912.268	0.0165935
912.346	0.0165274
912.424	0.0166437
912.503	0.0166034
912.581	0.0165722
912.659	0.0165572
912.737	0.0166003
912.815	0.0166199
912.893	0.0165475
912.971	0.0165768
913.049	0.0167069
913.128	0.0163995
913.206	0.0165173
913.284	0.0165052
913.362	0.0165903
913.440	0.0164709
913.518	0.0166457
913.596	0.0165620
913.674	0.0164484
913.753	0.0165206
913.831	0.0165513
913.909	0.0164863
913.987	0.0163478
914.065	0.0165121
914.143	0.0165320
914.221	0.0164646
914.299	0.0163893
914.378	0.0165580
914.456	0.0164958
914.534	0.0165845
914.612	0.0165747
914.690	0.0164458
914.768	0.0163990
914.846	0.0163728
914.924	0.0164754
915.003	0.0163774
915.081	0.0163085
915.159	0.0164655
915.237	0.0164970
915.315	0.0163998
915.393	0.0165240
915.471	0.0164634
915.549	0.0165033
915.628	0.0164688
915.706	0.0165616
915.784	0.0164314
915.862	0.0164210
915.940	0.0165607
916.018	0.0165908
916.096	0.0165552
916.174	0.0166316
916.253	0.0164018
916.331	0.0164700
916.409	0.0165265
916.487	0.0164885
916.565	0.0165364
916.643	0.0165150
916.721	0.0165884
916.799	0.0164731
916.878	0.0166598
916.956	0.0165364
917.034	0.0165300
917.112	0.0165144
917.190	0.0165331
917.268	0.0164975
917.346	0.0165611
917.424	0.0166428
917.503	0.0164601
917.581	0.0165282
917.659	0.0165096
917.737	0.0165981
917.815	0.0164812
917.893	0.0165588
917.971	0.0165675
918.049	0.0165537
918.128	0.0164022
918.206	0.0165633
918.284	0.0165859
918.362	0.0165125
918.440	0.0164462
918.518	0.0166377
918.596	0.0165761
918.674	0.0164941
918.753	0.0164728
918.831	0.0167836
918.909	0.0166007
918.987	0.0165778
919.065	0.0164536
919.143	0.0165479
919.221	0.0165724
919.299	0.0165369
919.378	0.0164681
919.456	0.0164481
919.534	0.0164991
919.612	0.0166012
919.690	0.0164175
919.768	0.0163379
919.846	0.0164840
919.924	0.0164947
920.003	0.0165678
920.081	0.0164248
920.159	0.0164909
920.237	0.0163354
920.315	0.0163924
920.393	0.0164994
920.471	0.0164922
920.549	0.0164813
920.628	0.0163995
920.706	0.0165592
920.784	0.0165500
920.862	0.0165510
920.940	0.0164803
921.018	0.0164962
921.096	0.0164300
921.174	0.0165120
921.253	0.0165197
921.331	0.0164699
921.409	0.0164500
921.487	0.0164468
921.565	0.0164000
921.643	0.0165877
921.721	0.0163228
921.799	0.0164126
921.878	0.0164713
921.956	0.0164616
922.034	0.0164680
922.112	0.0164221
922.190	0.0165689
922.268	0.0166070
922.346	0.0165216
922.424	0.0166051
922.503	0.0164691
922.581	0.0165338
922.659	0.0165026
922.737	0.0164848
922.815	0.0165443
922.893	0.0164923
922.971	0.0164843
923.049	0.0164095
923.128	0.0165334
923.206	0.0164984
923.284	0.0165527
923.362	0.0165898
923.440	0.0166010
923.518	0.0167015
923.596	0.0166872
923.674	0.0164918
923.753	0.0165867
923.831	0.0166155
923.909	0.0165368
923.987	0.0166575
924.065	0.0165511
924.143	0.0165463
924.221	0.0165535
924.299	0.0165896
924.378	0.0165363
924.456	0.0166592
924.534	0.0164947
924.612	0.0165740
924.690	0.0166547
924.768	0.0164645
924.846	0.0164286
924.924	0.0165918
925.003	0.0166335
925.081	0.0165559
925.159	0.0166281
925.237	0.0164751
925.315	0.0166027
925.393	0.0166061
925.471	0.0167080
925.549	0.0167203
925.628	0.0166058
925.706	0.0167697
925.784	0.0166055
925.862	0.0166225
925.940	0.0167143
926.018	0.0166830
926.096	0.0164944
926.174	0.0166518
926.253	0.0165884
926.331	0.0166640
926.409	0.0167242
926.487	0.0166798
926.565	0.0166809
926.643	0.0165430
926.721	0.0166526
926.799	0.0168053
926.878	0.0165766
926.956	0.0166839
927.034	0.0165427
927.112	0.0166259
927.190	0.0166695
927.268	0.0166235
927.346	0.0164323
927.424	0.0165586
927.503	0.0166728
927.581	0.0165322
927.659	0.0164340
927.737	0.0166017
927.815	0.0165150
927.893	0.0165755
927.971	0.0165482
928.049	0.0166116
928.128	0.0165022
928.206	0.0164669
928.284	0.0166101
928.362	0.0164438
928.440	0.0165733
928.518	0.0166321
928.596	0.0164287
928.674	0.0165807
928.753	0.0165271
928.831	0.0164834
928.909	0.0164822
928.987	0.0165445
929.065	0.0164799
929.143	0.0164986
929.221	0.0164650
929.299	0.0164487
929.378	0.0164801
929.456	0.0166132
929.534	0.0166119
929.612	0.0165485
929.690	0.0165088
929.768	0.0164722
929.846	0.0165598
929.924	0.0165564
930.003	0.0165142
930.081	0.0163805
930.159	0.0165569
930.237	0.0166155
930.315	0.0165585
930.393	0.0165539
930.471	0.0164771
930.549	0.0164179
930.628	0.0165005
930.706	0.0165763
930.784	0.0164365
930.862	0.0165321
930.940	0.0166310
931.018	0.0167677
931.096	0.0165356
931.174	0.0164976
931.253	0.0164314
931.331	0.0166637
931.409	0.0166806
931.487	0.0165154
931.565	0.0166450
931.643	0.0166702
931.721	0.0165804
931.799	0.0167206
931.878	0.0166443
931.956	0.0165063
932.034	0.0166231
932.112	0.0165317
932.190	0.0163315
932.268	0.0165830
932.346	0.0165419
932.424	0.0164838
932.503	0.0164935
932.581	0.0165289
932.659	0.0165574
932.737	0.0166129
932.815	0.0166171
932.893	0.0166049
932.971	0.0166674
933.049	0.0166647
933.128	0.0165056
933.206	0.0165971
933.284	0.0166576
933.362	0.0167011
933.440	0.0164470
933.518	0.0166247
933.596	0.0166113
933.674	0.0165741
933.753	0.0165730
933.831	0.0166181
933.909	0.0167081
933.987	0.0166846
934.065	0.0165775
934.143	0.0167014
934.221	0.0166196
934.299	0.0165729
934.378	0.0166305
934.456	0.0165264
934.534	0.0163902
934.612	0.0165317
934.690	0.0166328
934.768	0.0164914
934.846	0.0163436
934.924	0.0165539
935.003	0.0165994
935.081	0.0165564
935.159	0.0166008
935.237	0.0164889
935.315	0.0166100
935.393	0.0165098
935.471	0.0166027
935.549	0.0164588
935.628	0.0165423
935.706	0.0165598
935.784	0.0165092
935.862	0.0165419
935.940	0.0165792
936.018	0.0164526
936.096	0.0165736
936.174	0.0164951
936.253	0.0165593
936.331	0.0166142
936.409	0.0164903
936.487	0.0164854
936.565	0.0165906
936.643	0.0164906
936.721	0.0165317
936.799	0.0164812
936.878	0.0166081
936.956	0.0165269
937.034	0.0164179
937.112	0.0165944
937.190	0.0164817
937.268	0.0165754
937.346	0.0165323
937.424	0.0166913
937.503	0.0164776
937.581	0.0164708
937.659	0.0165519
937.737	0.0165528
937.815	0.0164790
937.893	0.0165383
937.971	0.0164365
938.049	0.0165598
938.128	0.0164455
938.206	0.0166238
938.284	0.0165210
938.362	0.0165195
938.440	0.0165449
938.518	0.0166515
938.596	0.0166381
938.674	0.0165928
938.753	0.0165147
938.831	0.0165783
938.909	0.0164819
938.987	0.0165829
939.065	0.0165913
939.143	0.0165691
939.221	0.0166003
939.299	0.0166669
939.378	0.0166070
939.456	0.0165928
939.534	0.0164959
939.612	0.0165720
939.690	0.0165536
939.768	0.0164921
939.846	0.0165847
939.924	0.0166177
940.003	0.0165218
940.081	0.0165851
940.159	0.0165582
940.237	0.0164529
940.315	0.0163937
940.393	0.0164834
940.471	0.0164269
940.549	0.0164111
940.628	0.0164819
940.706	0.0166543
940.784	0.0163963
940.862	0.0165013
940.940	0.0162769
941.018	0.0165540
941.096	0.0166118
941.174	0.0164968
941.253	0.0164000
941.331	0.0165038
941.409	0.0165327
941.487	0.0164566
941.565	0.0165030
941.643	0.0165205
941.721	0.0164186
941.799	0.0164729
941.878	0.0165149
941.956	0.0163810
942.034	0.0164072
942.112	0.0164235
942.190	0.0165224
942.268	0.0165427
942.346	0.0165538
942.424	0.0164645
942.503	0.0165944
942.581	0.0164510
942.659	0.0164046
942.737	0.0165281
942.815	0.0165512
942.893	0.0165754
942.971	0.0165210
943.049	0.0165224
943.128	0.0165872
943.206	0.0165957
943.284	0.0164561
943.362	0.0163971
943.440	0.0165672
943.518	0.0166125
943.596	0.0165985
943.674	0.0165557
943.753	0.0165946
943.831	0.0165030
943.909	0.0166164
943.987	0.0164963
944.065	0.0165961
944.143	0.0165457
944.221	0.0167822
944.299	0.0167505
944.378	0.0165860
944.456	0.0166013
944.534	0.0166093
944.612	0.0166536
944.690	0.0165739
944.768	0.0166306
944.846	0.0166815
944.924	0.0167161
945.003	0.0166485
945.081	0.0166814
945.159	0.0168214
945.237	0.0167585
945.315	0.0167928
945.393	0.0166581
945.471	0.0166988
945.549	0.0166766
945.628	0.0166270
945.706	0.0165255
945.784	0.0165938
945.862	0.0167151
945.940	0.0165969
946.018	0.0166032
946.096	0.0165573
946.174	0.0165598
946.253	0.0164902
946.331	0.0165091
946.409	0.0165032
946.487	0.0164418
946.565	0.0163725
946.643	0.0163644
946.721	0.0165935
946.799	0.0165280
946.878	0.0164823
946.956	0.0165675
947.034	0.0164420
947.112	0.0164873
947.190	0.0164168
947.268	0.0163931
947.346	0.0165377
947.424	0.0164780
947.503	0.0164571
947.581	0.0165113
947.659	0.0165480
947.737	0.0165430
947.815	0.0166248
947.893	0.0164092
947.971	0.0164510
948.049	0.0164438
948.128	0.0165592
948.206	0.0165896
948.284	0.0164764
948.362	0.0165262
948.440	0.0165593
948.518	0.0165606
948.596	0.0165940
948.674	0.0165967
948.753	0.0164689
948.831	0.0166155
948.909	0.0166261
948.987	0.0166190
949.065	0.0166064
949.143	0.0167603
949.221	0.0164928
949.299	0.0165464
949.378	0.0166943
949.456	0.0166409
949.534	0.0165634
949.612	0.0166121
949.690	0.0165330
949.768	0.0165558
949.846	0.0165732
949.924	0.0165878
