05/19/2022	00:48:28	Ver.	4.1	UNKNOWN
Optical Delay	630.002507	Delta X		0.078125	Sweeps	1	Scan Rate	0/0
Coordinates	Axis 1	NaN	Axis 2	NaN	Axis 3	NaN	Axis 4	NaN	Axis 5	NaN	Axis 6	0.000000
TX Power	0.000000	RX Power	0.000000

630.003	0.0163779
630.081	0.0163707
630.159	0.0165388
630.237	0.0163147
630.315	0.0164008
630.393	0.0162395
630.471	0.0162306
630.549	0.0162913
630.628	0.0163165
630.706	0.0163779
630.784	0.0162093
630.862	0.0163474
630.940	0.0163651
631.018	0.0162676
631.096	0.0163977
631.174	0.0163213
631.253	0.0163963
631.331	0.0163651
631.409	0.0163452
631.487	0.0162783
631.565	0.0163993
631.643	0.0164345
631.721	0.0162804
631.799	0.0163158
631.878	0.0162818
631.956	0.0162975
632.034	0.0162111
632.112	0.0161466
632.190	0.0163405
632.268	0.0163092
632.346	0.0163014
632.424	0.0162578
632.503	0.0162690
632.581	0.0163068
632.659	0.0163129
632.737	0.0162354
632.815	0.0163365
632.893	0.0165739
632.971	0.0163273
633.049	0.0163943
633.128	0.0164059
633.206	0.0162279
633.284	0.0162796
633.362	0.0163278
633.440	0.0162272
633.518	0.0162160
633.596	0.0163832
633.674	0.0162943
633.753	0.0163863
633.831	0.0163061
633.909	0.0163589
633.987	0.0162407
634.065	0.0161547
634.143	0.0162156
634.221	0.0163664
634.299	0.0162895
634.378	0.0162973
634.456	0.0163622
634.534	0.0163087
634.612	0.0163314
634.690	0.0163095
634.768	0.0162922
634.846	0.0161810
634.924	0.0163223
635.003	0.0162765
635.081	0.0162759
635.159	0.0162617
635.237	0.0162819
635.315	0.0162084
635.393	0.0162353
635.471	0.0163113
635.549	0.0161712
635.628	0.0163017
635.706	0.0161313
635.784	0.0162709
635.862	0.0163721
635.940	0.0161713
636.018	0.0161552
636.096	0.0161237
636.174	0.0161879
636.253	0.0161948
636.331	0.0162442
636.409	0.0160755
636.487	0.0162384
636.565	0.0162282
636.643	0.0162276
636.721	0.0162059
636.799	0.0160972
636.878	0.0162572
636.956	0.0161366
637.034	0.0161942
637.112	0.0162361
637.190	0.0160587
637.268	0.0162310
637.346	0.0161835
637.424	0.0161078
637.503	0.0161034
637.581	0.0160906
637.659	0.0163262
637.737	0.0161103
637.815	0.0161369
637.893	0.0161204
637.971	0.0161110
638.049	0.0161001
638.128	0.0162801
638.206	0.0161896
638.284	0.0161513
638.362	0.0161353
638.440	0.0162041
638.518	0.0161696
638.596	0.0160895
638.674	0.0160995
638.753	0.0161843
638.831	0.0160894
638.909	0.0161112
638.987	0.0162302
639.065	0.0163395
639.143	0.0161118
639.221	0.0161293
639.299	0.0162438
639.378	0.0161893
639.456	0.0161513
639.534	0.0161615
639.612	0.0161153
639.690	0.0161888
639.768	0.0161510
639.846	0.0161700
639.924	0.0161667
640.003	0.0161018
640.081	0.0161952
640.159	0.0162449
640.237	0.0161329
640.315	0.0160402
640.393	0.0161013
640.471	0.0162334
640.549	0.0160916
640.628	0.0160907
640.706	0.0162658
640.784	0.0161440
640.862	0.0162049
640.940	0.0162459
641.018	0.0162260
641.096	0.0162616
641.174	0.0162145
641.253	0.0162164
641.331	0.0160991
641.409	0.0162238
641.487	0.0161096
641.565	0.0162502
641.643	0.0160466
641.721	0.0162058
641.799	0.0160201
641.878	0.0160846
641.956	0.0161447
642.034	0.0161825
642.112	0.0161592
642.190	0.0162016
642.268	0.0161909
642.346	0.0163060
642.424	0.0161602
642.503	0.0162653
642.581	0.0160945
642.659	0.0161859
642.737	0.0161708
642.815	0.0161759
642.893	0.0161290
642.971	0.0162069
643.049	0.0162220
643.128	0.0163207
643.206	0.0162574
643.284	0.0161111
643.362	0.0161397
643.440	0.0162401
643.518	0.0161214
643.596	0.0161433
643.674	0.0162470
643.753	0.0162958
643.831	0.0161063
643.909	0.0161835
643.987	0.0162972
644.065	0.0163274
644.143	0.0161736
644.221	0.0162290
644.299	0.0162444
644.378	0.0162040
644.456	0.0161443
644.534	0.0161871
644.612	0.0162257
644.690	0.0162191
644.768	0.0160639
644.846	0.0162427
644.924	0.0164365
645.003	0.0162673
645.081	0.0162620
645.159	0.0161769
645.237	0.0161372
645.315	0.0162772
645.393	0.0162232
645.471	0.0163195
645.549	0.0161725
645.628	0.0162758
645.706	0.0161621
645.784	0.0161563
645.862	0.0162640
645.940	0.0162958
646.018	0.0163059
646.096	0.0164487
646.174	0.0162347
646.253	0.0162360
646.331	0.0163728
646.409	0.0163628
646.487	0.0163407
646.565	0.0162762
646.643	0.0164213
646.721	0.0162729
646.799	0.0162987
646.878	0.0163035
646.956	0.0162978
647.034	0.0163163
647.112	0.0164075
647.190	0.0161725
647.268	0.0163001
647.346	0.0163148
647.424	0.0162367
647.503	0.0163696
647.581	0.0165464
647.659	0.0165232
647.737	0.0165243
647.815	0.0164545
647.893	0.0164213
647.971	0.0164275
648.049	0.0162626
648.128	0.0163705
648.206	0.0163506
648.284	0.0163157
648.362	0.0162531
648.440	0.0162412
648.518	0.0163733
648.596	0.0163027
648.674	0.0163763
648.753	0.0163690
648.831	0.0162544
648.909	0.0164005
648.987	0.0164001
649.065	0.0163728
649.143	0.0163777
649.221	0.0162186
649.299	0.0163322
649.378	0.0164973
649.456	0.0163744
649.534	0.0161912
649.612	0.0163504
649.690	0.0163326
649.768	0.0164095
649.846	0.0164204
649.924	0.0163389
650.003	0.0163403
650.081	0.0163672
650.159	0.0164230
650.237	0.0162727
650.315	0.0162294
650.393	0.0163470
650.471	0.0162775
650.549	0.0161651
650.628	0.0163109
650.706	0.0162962
650.784	0.0163436
650.862	0.0162530
650.940	0.0162520
651.018	0.0162443
651.096	0.0163213
651.174	0.0164255
651.253	0.0163226
651.331	0.0162840
651.409	0.0163628
651.487	0.0163436
651.565	0.0163818
651.643	0.0163131
651.721	0.0163422
651.799	0.0162302
651.878	0.0163100
651.956	0.0163135
652.034	0.0163302
652.112	0.0164100
652.190	0.0163342
652.268	0.0163308
652.346	0.0161660
652.424	0.0163712
652.503	0.0164619
652.581	0.0163081
652.659	0.0161507
652.737	0.0162598
652.815	0.0163870
652.893	0.0163393
652.971	0.0161965
653.049	0.0164598
653.128	0.0162353
653.206	0.0163598
653.284	0.0163046
653.362	0.0164059
653.440	0.0163410
653.518	0.0164450
653.596	0.0164443
653.674	0.0163369
653.753	0.0164676
653.831	0.0163541
653.909	0.0163160
653.987	0.0163589
654.065	0.0163856
654.143	0.0163763
654.221	0.0162989
654.299	0.0162822
654.378	0.0161876
654.456	0.0163702
654.534	0.0163387
654.612	0.0162763
654.690	0.0161948
654.768	0.0161983
654.846	0.0163569
654.924	0.0163027
655.003	0.0162110
655.081	0.0162189
655.159	0.0163517
655.237	0.0163356
655.315	0.0162256
655.393	0.0163136
655.471	0.0164140
655.549	0.0163224
655.628	0.0162364
655.706	0.0163122
655.784	0.0163142
655.862	0.0164594
655.940	0.0163474
656.018	0.0163565
656.096	0.0163387
656.174	0.0162980
656.253	0.0162575
656.331	0.0162922
656.409	0.0162300
656.487	0.0164298
656.565	0.0162240
656.643	0.0162428
656.721	0.0163274
656.799	0.0161539
656.878	0.0161135
656.956	0.0161475
657.034	0.0161063
657.112	0.0159916
657.190	0.0159673
657.268	0.0160331
657.346	0.0160383
657.424	0.0160599
657.503	0.0159524
657.581	0.0158826
657.659	0.0161270
657.737	0.0161092
657.815	0.0160739
657.893	0.0160880
657.971	0.0161069
658.049	0.0162347
658.128	0.0162566
658.206	0.0162051
658.284	0.0161784
658.362	0.0161106
658.440	0.0162067
658.518	0.0161958
658.596	0.0162291
658.674	0.0161296
658.753	0.0162001
658.831	0.0160368
658.909	0.0161187
658.987	0.0161495
659.065	0.0161454
659.143	0.0161998
659.221	0.0161028
659.299	0.0161246
659.378	0.0162224
659.456	0.0162411
659.534	0.0161898
659.612	0.0162757
659.690	0.0163238
659.768	0.0163204
659.846	0.0163931
659.924	0.0161539
660.003	0.0165002
660.081	0.0163721
660.159	0.0164435
660.237	0.0163415
660.315	0.0163477
660.393	0.0163023
660.471	0.0162918
660.549	0.0163476
660.628	0.0165842
660.706	0.0163196
660.784	0.0162986
660.862	0.0162627
660.940	0.0162932
661.018	0.0164571
661.096	0.0162852
661.174	0.0161919
661.253	0.0162231
661.331	0.0163396
661.409	0.0164129
661.487	0.0162304
661.565	0.0161996
661.643	0.0163299
661.721	0.0163190
661.799	0.0163401
661.878	0.0162019
661.956	0.0161639
662.034	0.0162254
662.112	0.0160908
662.190	0.0162140
662.268	0.0162221
662.346	0.0164039
662.424	0.0163375
662.503	0.0162788
662.581	0.0164616
662.659	0.0164375
662.737	0.0164365
662.815	0.0164148
662.893	0.0164556
662.971	0.0164056
663.049	0.0165015
663.128	0.0164056
663.206	0.0164961
663.284	0.0163580
663.362	0.0162545
663.440	0.0162330
663.518	0.0161700
663.596	0.0163132
663.674	0.0162915
663.753	0.0161803
663.831	0.0161349
663.909	0.0161217
663.987	0.0160745
664.065	0.0161163
664.143	0.0160756
664.221	0.0160510
664.299	0.0161655
664.378	0.0161683
664.456	0.0161231
664.534	0.0160739
664.612	0.0161871
664.690	0.0161166
664.768	0.0161718
664.846	0.0161107
664.924	0.0161481
665.003	0.0161903
665.081	0.0162249
665.159	0.0161224
665.237	0.0160673
665.315	0.0161098
665.393	0.0161088
665.471	0.0160896
665.549	0.0160014
665.628	0.0160510
665.706	0.0161459
665.784	0.0160303
665.862	0.0159788
665.940	0.0159878
666.018	0.0159428
666.096	0.0160791
666.174	0.0160988
666.253	0.0160068
666.331	0.0161198
666.409	0.0160786
666.487	0.0161317
666.565	0.0161845
666.643	0.0160965
666.721	0.0161138
666.799	0.0161227
666.878	0.0160882
666.956	0.0162834
667.034	0.0161781
667.112	0.0161286
667.190	0.0163031
667.268	0.0162720
667.346	0.0160989
667.424	0.0161610
667.503	0.0162870
667.581	0.0162456
667.659	0.0161864
667.737	0.0162160
667.815	0.0160742
667.893	0.0162898
667.971	0.0161253
668.049	0.0161823
668.128	0.0161073
668.206	0.0161598
668.284	0.0161525
668.362	0.0161774
668.440	0.0160444
668.518	0.0160708
668.596	0.0161663
668.674	0.0162111
668.753	0.0160988
668.831	0.0162399
668.909	0.0161645
668.987	0.0161997
669.065	0.0162930
669.143	0.0162233
669.221	0.0162705
669.299	0.0162958
669.378	0.0163109
669.456	0.0163346
669.534	0.0163513
669.612	0.0164476
669.690	0.0163859
669.768	0.0163630
669.846	0.0162727
669.924	0.0163024
670.003	0.0163457
670.081	0.0163904
670.159	0.0162785
670.237	0.0163433
670.315	0.0162225
670.393	0.0162193
670.471	0.0160763
670.549	0.0161226
670.628	0.0162772
670.706	0.0162455
670.784	0.0162735
670.862	0.0162730
670.940	0.0162730
671.018	0.0162569
671.096	0.0162410
671.174	0.0163965
671.253	0.0164294
671.331	0.0163094
671.409	0.0163445
671.487	0.0162411
671.565	0.0164538
671.643	0.0163912
671.721	0.0163773
671.799	0.0164592
671.878	0.0163559
671.956	0.0163524
672.034	0.0164727
672.112	0.0164413
672.190	0.0165494
672.268	0.0163668
672.346	0.0164629
672.424	0.0165139
672.503	0.0164923
672.581	0.0165712
672.659	0.0164520
672.737	0.0164477
672.815	0.0164653
672.893	0.0163931
672.971	0.0162750
673.049	0.0161625
673.128	0.0163193
673.206	0.0162510
673.284	0.0161884
673.362	0.0162719
673.440	0.0161561
673.518	0.0162000
673.596	0.0161125
673.674	0.0161985
673.753	0.0161581
673.831	0.0161091
673.909	0.0162022
673.987	0.0162164
674.065	0.0161208
674.143	0.0161084
674.221	0.0162038
674.299	0.0161201
674.378	0.0162013
674.456	0.0162347
674.534	0.0162312
674.612	0.0163409
674.690	0.0163759
674.768	0.0163049
674.846	0.0164254
674.924	0.0161750
675.003	0.0163170
675.081	0.0163826
675.159	0.0164352
675.237	0.0163499
675.315	0.0164344
675.393	0.0164233
675.471	0.0164150
675.549	0.0163093
675.628	0.0165239
675.706	0.0163351
675.784	0.0163461
675.862	0.0164169
675.940	0.0162424
676.018	0.0162206
676.096	0.0162550
676.174	0.0161205
676.253	0.0163287
676.331	0.0163140
676.409	0.0161529
676.487	0.0162633
676.565	0.0162051
676.643	0.0162929
676.721	0.0163346
676.799	0.0164269
676.878	0.0164220
676.956	0.0163306
677.034	0.0163585
677.112	0.0162845
677.190	0.0162489
677.268	0.0162086
677.346	0.0162103
677.424	0.0160487
677.503	0.0161913
677.581	0.0161032
677.659	0.0159851
677.737	0.0158623
677.815	0.0159840
677.893	0.0161327
677.971	0.0158573
678.049	0.0162281
678.128	0.0159631
678.206	0.0160397
678.284	0.0161330
678.362	0.0161342
678.440	0.0162621
678.518	0.0163641
678.596	0.0163499
678.674	0.0164957
678.753	0.0163512
678.831	0.0163862
678.909	0.0165732
678.987	0.0166689
679.065	0.0165614
679.143	0.0165730
679.221	0.0166000
679.299	0.0166379
679.378	0.0165113
679.456	0.0163442
679.534	0.0163155
679.612	0.0164524
679.690	0.0163528
679.768	0.0163530
679.846	0.0162511
679.924	0.0163245
680.003	0.0163209
680.081	0.0160141
680.159	0.0160921
680.237	0.0161281
680.315	0.0160731
680.393	0.0160838
680.471	0.0161391
680.549	0.0162087
680.628	0.0161554
680.706	0.0161814
680.784	0.0162130
680.862	0.0163135
680.940	0.0161154
681.018	0.0161327
681.096	0.0162377
681.174	0.0161948
681.253	0.0161624
681.331	0.0163638
681.409	0.0162944
681.487	0.0161932
681.565	0.0161124
681.643	0.0162543
681.721	0.0163666
681.799	0.0164021
681.878	0.0163080
681.956	0.0163383
682.034	0.0163781
682.112	0.0162637
682.190	0.0163844
682.268	0.0164808
682.346	0.0165197
682.424	0.0164986
682.503	0.0164271
682.581	0.0164587
682.659	0.0165355
682.737	0.0166030
682.815	0.0163596
682.893	0.0164114
682.971	0.0163634
683.049	0.0162981
683.128	0.0164350
683.206	0.0162730
683.284	0.0163091
683.362	0.0162435
683.440	0.0164226
683.518	0.0163763
683.596	0.0163038
683.674	0.0162858
683.753	0.0162410
683.831	0.0163140
683.909	0.0162262
683.987	0.0163526
684.065	0.0161310
684.143	0.0161401
684.221	0.0161442
684.299	0.0160133
684.378	0.0159235
684.456	0.0160571
684.534	0.0157762
684.612	0.0157776
684.690	0.0159132
684.768	0.0157854
684.846	0.0157570
684.924	0.0159636
685.003	0.0159482
685.081	0.0159043
685.159	0.0161800
685.237	0.0161192
685.315	0.0161814
685.393	0.0162679
685.471	0.0162812
685.549	0.0164013
685.628	0.0163448
685.706	0.0162904
685.784	0.0163314
685.862	0.0163535
685.940	0.0163590
686.018	0.0162986
686.096	0.0162595
686.174	0.0162353
686.253	0.0163251
686.331	0.0162399
686.409	0.0162408
686.487	0.0160876
686.565	0.0161774
686.643	0.0162464
686.721	0.0162415
686.799	0.0161583
686.878	0.0161526
686.956	0.0160905
687.034	0.0162570
687.112	0.0160689
687.190	0.0161625
687.268	0.0160283
687.346	0.0160441
687.424	0.0160040
687.503	0.0160441
687.581	0.0159630
687.659	0.0159644
687.737	0.0158964
687.815	0.0158830
687.893	0.0158898
687.971	0.0158731
688.049	0.0160362
688.128	0.0160005
688.206	0.0159862
688.284	0.0161662
688.362	0.0161348
688.440	0.0162486
688.518	0.0161964
688.596	0.0163152
688.674	0.0163686
688.753	0.0164484
688.831	0.0163641
688.909	0.0165826
688.987	0.0165327
689.065	0.0166357
689.143	0.0166889
689.221	0.0165368
689.299	0.0166318
689.378	0.0165101
689.456	0.0164958
689.534	0.0164896
689.612	0.0165739
689.690	0.0164247
689.768	0.0164602
689.846	0.0164933
689.924	0.0165182
690.003	0.0164587
690.081	0.0165509
690.159	0.0166537
690.237	0.0163740
690.315	0.0165406
690.393	0.0164581
690.471	0.0164032
690.549	0.0166088
690.628	0.0164160
690.706	0.0162849
690.784	0.0162813
690.862	0.0162635
690.940	0.0163950
691.018	0.0162255
691.096	0.0161883
691.174	0.0161575
691.253	0.0161140
691.331	0.0160119
691.409	0.0160556
691.487	0.0160941
691.565	0.0159439
691.643	0.0158071
691.721	0.0159340
691.799	0.0160258
691.878	0.0157937
691.956	0.0159466
692.034	0.0158913
692.112	0.0158511
692.190	0.0160303
692.268	0.0160195
692.346	0.0160104
692.424	0.0161322
692.503	0.0161423
692.581	0.0163738
692.659	0.0163441
692.737	0.0163338
692.815	0.0164441
692.893	0.0165142
692.971	0.0164890
693.049	0.0165295
693.128	0.0165888
693.206	0.0165617
693.284	0.0166364
693.362	0.0165741
693.440	0.0164917
693.518	0.0165226
693.596	0.0165896
693.674	0.0163857
693.753	0.0163653
693.831	0.0163387
693.909	0.0163876
693.987	0.0163333
694.065	0.0162588
694.143	0.0162379
694.221	0.0162370
694.299	0.0160955
694.378	0.0160475
694.456	0.0160766
694.534	0.0161826
694.612	0.0159786
694.690	0.0159458
694.768	0.0159059
694.846	0.0158813
694.924	0.0159911
695.003	0.0160632
695.081	0.0158687
695.159	0.0160612
695.237	0.0161610
695.315	0.0161286
695.393	0.0162125
695.471	0.0161434
695.549	0.0162718
695.628	0.0163598
695.706	0.0164230
695.784	0.0162120
695.862	0.0163192
695.940	0.0163400
696.018	0.0163307
696.096	0.0162525
696.174	0.0163511
696.253	0.0164949
696.331	0.0163903
696.409	0.0163519
696.487	0.0163123
696.565	0.0164465
696.643	0.0164414
696.721	0.0164554
696.799	0.0163758
696.878	0.0164659
696.956	0.0165009
697.034	0.0165701
697.112	0.0164819
697.190	0.0164010
697.268	0.0164565
697.346	0.0164182
697.424	0.0164851
697.503	0.0164059
697.581	0.0163013
697.659	0.0163101
697.737	0.0162367
697.815	0.0160735
697.893	0.0160461
697.971	0.0161158
698.049	0.0161494
698.128	0.0160390
698.206	0.0160030
698.284	0.0160136
698.362	0.0160741
698.440	0.0161951
698.518	0.0161142
698.596	0.0160594
698.674	0.0161603
698.753	0.0162434
698.831	0.0162579
698.909	0.0163470
698.987	0.0165137
699.065	0.0164232
699.143	0.0164027
699.221	0.0165570
699.299	0.0164250
699.378	0.0162360
699.456	0.0162019
699.534	0.0163419
699.612	0.0162337
699.690	0.0161861
699.768	0.0162390
699.846	0.0160179
699.924	0.0159933
700.003	0.0159529
700.081	0.0160760
700.159	0.0160474
700.237	0.0160696
700.315	0.0160397
700.393	0.0162470
700.471	0.0161804
700.549	0.0162493
700.628	0.0163185
700.706	0.0162969
700.784	0.0164323
700.862	0.0165555
700.940	0.0162379
701.018	0.0163493
701.096	0.0163000
701.174	0.0162054
701.253	0.0162926
701.331	0.0160597
701.409	0.0161147
701.487	0.0163314
701.565	0.0163216
701.643	0.0162166
701.721	0.0161856
701.799	0.0163012
701.878	0.0161545
701.956	0.0163450
702.034	0.0163673
702.112	0.0162680
702.190	0.0163143
702.268	0.0164035
702.346	0.0164597
702.424	0.0164322
702.503	0.0164774
702.581	0.0165717
702.659	0.0165763
702.737	0.0164350
702.815	0.0166480
702.893	0.0166132
702.971	0.0165617
703.049	0.0166034
703.128	0.0166624
703.206	0.0166802
703.284	0.0167650
703.362	0.0166734
703.440	0.0166314
703.518	0.0167568
703.596	0.0167170
703.674	0.0166245
703.753	0.0166818
703.831	0.0166005
703.909	0.0167300
703.987	0.0165490
704.065	0.0166718
704.143	0.0165810
704.221	0.0165018
704.299	0.0163657
704.378	0.0163988
704.456	0.0164326
704.534	0.0164388
704.612	0.0163282
704.690	0.0162720
704.768	0.0162630
704.846	0.0162382
704.924	0.0162166
705.003	0.0160878
705.081	0.0161479
705.159	0.0161823
705.237	0.0161236
705.315	0.0160509
705.393	0.0161166
705.471	0.0161462
705.549	0.0160553
705.628	0.0159798
705.706	0.0157797
705.784	0.0157652
705.862	0.0157913
705.940	0.0157716
706.018	0.0156108
706.096	0.0155564
706.174	0.0157626
706.253	0.0156879
706.331	0.0157948
706.409	0.0156079
706.487	0.0155279
706.565	0.0157312
706.643	0.0157649
706.721	0.0158334
706.799	0.0158891
706.878	0.0157977
706.956	0.0158022
707.034	0.0158806
707.112	0.0160932
707.190	0.0159457
707.268	0.0161211
707.346	0.0161253
707.424	0.0160910
707.503	0.0162750
707.581	0.0161985
707.659	0.0163171
707.737	0.0163554
707.815	0.0161371
707.893	0.0163108
707.971	0.0164298
708.049	0.0164581
708.128	0.0165327
708.206	0.0165535
708.284	0.0165794
708.362	0.0165075
708.440	0.0167029
708.518	0.0168494
708.596	0.0166438
708.674	0.0166086
708.753	0.0166512
708.831	0.0167815
708.909	0.0167688
708.987	0.0167992
709.065	0.0167732
709.143	0.0167608
709.221	0.0168764
709.299	0.0168337
709.378	0.0168252
709.456	0.0167591
709.534	0.0167612
709.612	0.0167353
709.690	0.0168596
709.768	0.0167002
709.846	0.0166616
709.924	0.0166991
710.003	0.0163929
710.081	0.0165910
710.159	0.0165878
710.237	0.0164573
710.315	0.0165650
710.393	0.0165946
710.471	0.0164419
710.549	0.0164629
710.628	0.0162984
710.706	0.0162641
710.784	0.0164001
710.862	0.0163799
710.940	0.0162463
711.018	0.0162534
711.096	0.0162354
711.174	0.0159210
711.253	0.0159082
711.331	0.0158694
711.409	0.0158687
711.487	0.0158392
711.565	0.0157671
711.643	0.0158740
711.721	0.0156749
711.799	0.0155949
711.878	0.0156773
711.956	0.0157662
712.034	0.0157372
712.112	0.0157696
712.190	0.0159997
712.268	0.0159579
712.346	0.0159386
712.424	0.0157999
712.503	0.0160144
712.581	0.0159428
712.659	0.0160123
712.737	0.0159920
712.815	0.0159460
712.893	0.0160244
712.971	0.0158300
713.049	0.0157922
713.128	0.0159009
713.206	0.0159846
713.284	0.0160563
713.362	0.0160650
713.440	0.0160082
713.518	0.0160514
713.596	0.0161685
713.674	0.0161335
713.753	0.0162405
713.831	0.0162910
713.909	0.0161890
713.987	0.0162732
714.065	0.0162688
714.143	0.0161423
714.221	0.0162284
714.299	0.0163589
714.378	0.0162923
714.456	0.0162288
714.534	0.0163400
714.612	0.0164071
714.690	0.0163822
714.768	0.0163815
714.846	0.0164011
714.924	0.0164463
715.003	0.0165681
715.081	0.0164518
715.159	0.0165115
715.237	0.0167014
715.315	0.0165865
715.393	0.0164234
715.471	0.0165253
715.549	0.0166792
715.628	0.0166091
715.706	0.0166194
715.784	0.0166546
715.862	0.0166859
715.940	0.0166607
716.018	0.0166171
716.096	0.0165910
716.174	0.0165698
716.253	0.0164278
716.331	0.0165581
716.409	0.0165508
716.487	0.0163714
716.565	0.0165408
716.643	0.0164426
716.721	0.0163988
716.799	0.0162458
716.878	0.0163705
716.956	0.0164732
717.034	0.0164379
717.112	0.0162628
717.190	0.0163237
717.268	0.0162323
717.346	0.0162432
717.424	0.0161844
717.503	0.0163100
717.581	0.0162184
717.659	0.0161626
717.737	0.0160094
717.815	0.0160416
717.893	0.0161111
717.971	0.0161430
718.049	0.0160064
718.128	0.0160011
718.206	0.0159768
718.284	0.0158969
718.362	0.0159514
718.440	0.0159538
718.518	0.0159428
718.596	0.0159026
718.674	0.0158495
718.753	0.0158302
718.831	0.0158795
718.909	0.0158741
718.987	0.0158398
719.065	0.0157755
719.143	0.0157353
719.221	0.0158881
719.299	0.0158121
719.378	0.0158965
719.456	0.0157852
719.534	0.0157744
719.612	0.0159760
719.690	0.0158806
719.768	0.0160566
719.846	0.0159958
719.924	0.0160002
720.003	0.0160404
720.081	0.0160960
720.159	0.0161096
720.237	0.0161107
720.315	0.0160748
720.393	0.0160716
720.471	0.0160994
720.549	0.0161354
720.628	0.0159339
720.706	0.0160607
720.784	0.0159368
720.862	0.0159657
720.940	0.0160184
721.018	0.0161089
721.096	0.0160421
721.174	0.0161603
721.253	0.0161947
721.331	0.0162290
721.409	0.0161242
721.487	0.0162077
721.565	0.0162160
721.643	0.0165024
721.721	0.0164957
721.799	0.0163848
721.878	0.0164400
721.956	0.0164864
722.034	0.0166836
722.112	0.0166341
722.190	0.0167657
722.268	0.0167220
722.346	0.0167352
722.424	0.0167889
722.503	0.0169412
722.581	0.0168537
722.659	0.0168473
722.737	0.0168638
722.815	0.0167561
722.893	0.0168413
722.971	0.0168530
723.049	0.0167289
723.128	0.0169134
723.206	0.0168935
723.284	0.0166898
723.362	0.0168933
723.440	0.0167579
723.518	0.0167254
723.596	0.0165946
723.674	0.0167430
723.753	0.0165546
723.831	0.0164647
723.909	0.0164028
723.987	0.0162171
724.065	0.0162991
724.143	0.0162451
724.221	0.0162197
724.299	0.0159531
724.378	0.0160480
724.456	0.0160513
724.534	0.0160564
724.612	0.0161269
724.690	0.0161773
724.768	0.0159682
724.846	0.0160970
724.924	0.0161064
725.003	0.0161053
725.081	0.0162865
725.159	0.0160867
725.237	0.0161301
725.315	0.0162243
725.393	0.0162916
725.471	0.0161165
725.549	0.0161427
725.628	0.0161403
725.706	0.0161070
725.784	0.0161647
725.862	0.0161244
725.940	0.0160529
726.018	0.0158948
726.096	0.0158360
726.174	0.0160093
726.253	0.0159024
726.331	0.0158102
726.409	0.0158595
726.487	0.0156983
726.565	0.0158509
726.643	0.0156889
726.721	0.0156586
726.799	0.0157623
726.878	0.0157313
726.956	0.0157066
727.034	0.0159097
727.112	0.0159026
727.190	0.0158747
727.268	0.0160181
727.346	0.0160692
727.424	0.0161456
727.503	0.0160923
727.581	0.0162529
727.659	0.0163546
727.737	0.0162463
727.815	0.0162809
727.893	0.0161606
727.971	0.0162549
728.049	0.0162074
728.128	0.0162179
728.206	0.0163387
728.284	0.0163159
728.362	0.0162293
728.440	0.0162099
728.518	0.0162461
728.596	0.0163429
728.674	0.0163585
728.753	0.0163322
728.831	0.0165495
728.909	0.0165891
728.987	0.0165248
729.065	0.0166537
729.143	0.0166386
729.221	0.0168322
729.299	0.0167113
729.378	0.0168159
729.456	0.0168239
729.534	0.0168009
729.612	0.0168380
729.690	0.0168013
729.768	0.0168195
729.846	0.0166418
729.924	0.0166993
730.003	0.0166759
730.081	0.0166669
730.159	0.0166432
730.237	0.0166053
730.315	0.0166379
730.393	0.0165038
730.471	0.0165886
730.549	0.0165605
730.628	0.0165932
730.706	0.0165668
730.784	0.0164980
730.862	0.0166539
730.940	0.0166936
731.018	0.0166105
731.096	0.0165112
731.174	0.0163851
731.253	0.0164769
731.331	0.0165238
731.409	0.0164249
731.487	0.0164090
731.565	0.0164971
731.643	0.0163940
731.721	0.0162512
731.799	0.0162079
731.878	0.0160756
731.956	0.0163582
732.034	0.0161976
732.112	0.0161705
732.190	0.0161491
732.268	0.0160766
732.346	0.0160105
732.424	0.0161622
732.503	0.0159647
732.581	0.0159621
732.659	0.0160616
732.737	0.0159300
732.815	0.0159005
732.893	0.0158311
732.971	0.0158225
733.049	0.0158548
733.128	0.0156349
733.206	0.0157605
733.284	0.0156340
733.362	0.0156981
733.440	0.0157250
733.518	0.0156654
733.596	0.0156833
733.674	0.0157574
733.753	0.0156494
733.831	0.0158511
733.909	0.0158569
733.987	0.0158381
734.065	0.0158313
734.143	0.0157324
734.221	0.0158540
734.299	0.0159668
734.378	0.0158931
734.456	0.0161689
734.534	0.0160355
734.612	0.0160526
734.690	0.0160577
734.768	0.0161124
734.846	0.0161903
734.924	0.0163305
735.003	0.0164289
735.081	0.0164385
735.159	0.0165625
735.237	0.0165271
735.315	0.0165807
735.393	0.0166590
735.471	0.0167238
735.549	0.0167219
735.628	0.0165814
735.706	0.0166026
735.784	0.0165809
735.862	0.0166713
735.940	0.0165086
736.018	0.0165569
736.096	0.0163750
736.174	0.0163897
736.253	0.0164776
736.331	0.0164253
736.409	0.0164672
736.487	0.0163714
736.565	0.0165045
736.643	0.0165147
736.721	0.0166354
736.799	0.0164914
736.878	0.0164690
736.956	0.0166686
737.034	0.0165745
737.112	0.0164539
737.190	0.0165804
737.268	0.0166753
737.346	0.0165186
737.424	0.0165230
737.503	0.0165606
737.581	0.0165327
737.659	0.0163826
737.737	0.0162034
737.815	0.0163441
737.893	0.0164619
737.971	0.0163705
738.049	0.0162922
738.128	0.0163454
738.206	0.0163042
738.284	0.0162995
738.362	0.0163193
738.440	0.0162840
738.518	0.0163564
738.596	0.0163597
738.674	0.0163003
738.753	0.0161732
738.831	0.0162155
738.909	0.0160518
738.987	0.0161127
739.065	0.0159610
739.143	0.0161841
739.221	0.0161998
739.299	0.0160606
739.378	0.0159765
739.456	0.0160976
739.534	0.0160015
739.612	0.0161639
739.690	0.0161037
739.768	0.0160347
739.846	0.0160202
739.924	0.0159754
740.003	0.0160036
740.081	0.0159500
740.159	0.0160471
740.237	0.0160159
740.315	0.0159178
740.393	0.0159342
740.471	0.0159449
740.549	0.0157643
740.628	0.0158600
740.706	0.0158110
740.784	0.0157999
740.862	0.0157553
740.940	0.0158320
741.018	0.0157920
741.096	0.0157716
741.174	0.0157185
741.253	0.0157427
741.331	0.0158596
741.409	0.0159857
741.487	0.0161143
741.565	0.0160155
741.643	0.0159814
741.721	0.0161245
741.799	0.0159797
741.878	0.0161272
741.956	0.0160774
742.034	0.0159270
742.112	0.0160616
742.190	0.0160915
742.268	0.0162552
742.346	0.0161396
742.424	0.0162596
742.503	0.0161887
742.581	0.0162540
742.659	0.0164555
742.737	0.0163830
742.815	0.0162260
742.893	0.0165475
742.971	0.0163631
743.049	0.0163497
743.128	0.0164880
743.206	0.0165955
743.284	0.0166548
743.362	0.0165958
743.440	0.0165674
743.518	0.0165306
743.596	0.0165139
743.674	0.0163715
743.753	0.0163602
743.831	0.0162767
743.909	0.0163960
743.987	0.0163490
744.065	0.0162328
744.143	0.0163158
744.221	0.0162828
744.299	0.0162791
744.378	0.0162719
744.456	0.0163816
744.534	0.0162473
744.612	0.0163996
744.690	0.0165175
744.768	0.0165761
744.846	0.0164091
744.924	0.0164359
745.003	0.0164471
745.081	0.0165282
745.159	0.0164405
745.237	0.0164141
745.315	0.0163547
745.393	0.0163824
745.471	0.0162598
745.549	0.0162746
745.628	0.0162770
745.706	0.0163596
745.784	0.0162943
745.862	0.0163147
745.940	0.0163354
746.018	0.0163115
746.096	0.0164827
746.174	0.0163885
746.253	0.0162675
746.331	0.0163966
746.409	0.0163341
746.487	0.0164318
746.565	0.0162550
746.643	0.0163033
746.721	0.0162611
746.799	0.0161186
746.878	0.0160836
746.956	0.0160661
747.034	0.0160397
747.112	0.0160681
747.190	0.0158599
747.268	0.0159413
747.346	0.0160053
747.424	0.0161173
747.503	0.0160042
747.581	0.0161079
747.659	0.0160697
747.737	0.0162185
747.815	0.0161831
747.893	0.0162303
747.971	0.0161353
748.049	0.0161989
748.128	0.0160835
748.206	0.0161258
748.284	0.0160774
748.362	0.0160402
748.440	0.0160648
748.518	0.0159533
748.596	0.0160329
748.674	0.0159900
748.753	0.0157841
748.831	0.0158567
748.909	0.0158340
748.987	0.0159557
749.065	0.0159001
749.143	0.0159850
749.221	0.0160683
749.299	0.0160563
749.378	0.0160394
749.456	0.0162250
749.534	0.0161671
749.612	0.0161904
749.690	0.0161341
749.768	0.0160377
749.846	0.0161434
749.924	0.0161838
750.003	0.0162794
750.081	0.0163409
750.159	0.0164698
750.237	0.0161944
750.315	0.0162494
750.393	0.0164108
750.471	0.0163982
750.549	0.0164342
750.628	0.0164902
750.706	0.0162531
750.784	0.0164307
750.862	0.0163766
750.940	0.0163389
751.018	0.0165519
751.096	0.0164857
751.174	0.0164382
751.253	0.0164092
751.331	0.0164487
751.409	0.0163845
751.487	0.0164516
751.565	0.0163509
751.643	0.0163771
751.721	0.0164032
751.799	0.0163828
751.878	0.0164455
751.956	0.0164149
752.034	0.0165387
752.112	0.0163919
752.190	0.0165353
752.268	0.0165092
752.346	0.0165576
752.424	0.0165166
752.503	0.0164696
752.581	0.0166415
752.659	0.0167338
752.737	0.0167603
752.815	0.0166092
752.893	0.0164346
752.971	0.0164453
753.049	0.0165311
753.128	0.0164931
753.206	0.0163146
753.284	0.0163377
753.362	0.0161867
753.440	0.0162646
753.518	0.0162016
753.596	0.0162193
753.674	0.0160744
753.753	0.0164038
753.831	0.0162994
753.909	0.0163412
753.987	0.0163990
754.065	0.0163229
754.143	0.0163151
754.221	0.0162859
754.299	0.0162109
754.378	0.0163396
754.456	0.0162074
754.534	0.0161757
754.612	0.0160207
754.690	0.0159425
754.768	0.0160399
754.846	0.0160750
754.924	0.0159054
755.003	0.0158773
755.081	0.0160574
755.159	0.0160891
755.237	0.0158937
755.315	0.0159552
755.393	0.0159962
755.471	0.0160467
755.549	0.0160127
755.628	0.0160008
755.706	0.0160883
755.784	0.0160594
755.862	0.0159942
755.940	0.0159738
756.018	0.0158866
756.096	0.0159648
756.174	0.0159418
756.253	0.0160712
756.331	0.0160542
756.409	0.0158751
756.487	0.0160628
756.565	0.0161651
756.643	0.0159007
756.721	0.0158426
756.799	0.0159566
756.878	0.0160600
756.956	0.0160984
757.034	0.0160210
757.112	0.0161369
757.190	0.0163801
757.268	0.0162483
757.346	0.0162928
757.424	0.0163145
757.503	0.0162633
757.581	0.0163357
757.659	0.0164539
757.737	0.0164259
757.815	0.0163901
757.893	0.0164551
757.971	0.0164857
758.049	0.0163096
758.128	0.0163963
758.206	0.0163193
758.284	0.0163731
758.362	0.0164782
758.440	0.0164945
758.518	0.0165026
758.596	0.0164731
758.674	0.0164393
758.753	0.0164600
758.831	0.0165375
758.909	0.0164617
758.987	0.0165411
759.065	0.0165030
759.143	0.0164653
759.221	0.0164096
759.299	0.0163811
759.378	0.0163445
759.456	0.0164481
759.534	0.0164454
759.612	0.0164745
759.690	0.0163993
759.768	0.0164606
759.846	0.0164004
759.924	0.0163241
760.003	0.0164507
760.081	0.0165675
760.159	0.0164996
760.237	0.0163145
760.315	0.0163548
760.393	0.0162780
760.471	0.0161741
760.549	0.0161564
760.628	0.0161694
760.706	0.0163650
760.784	0.0162099
760.862	0.0161210
760.940	0.0161233
761.018	0.0162110
761.096	0.0160352
761.174	0.0162965
761.253	0.0161408
761.331	0.0159636
761.409	0.0160481
761.487	0.0160822
761.565	0.0161806
761.643	0.0161060
761.721	0.0160586
761.799	0.0162040
761.878	0.0161028
761.956	0.0161317
762.034	0.0161448
762.112	0.0160886
762.190	0.0161794
762.268	0.0160670
762.346	0.0160655
762.424	0.0161902
762.503	0.0160725
762.581	0.0161404
762.659	0.0160048
762.737	0.0160221
762.815	0.0159441
762.893	0.0159375
762.971	0.0159895
763.049	0.0160887
763.128	0.0159278
763.206	0.0160017
763.284	0.0161537
763.362	0.0160563
763.440	0.0160115
763.518	0.0161271
763.596	0.0159965
763.674	0.0161600
763.753	0.0160282
763.831	0.0160970
763.909	0.0161060
763.987	0.0160567
764.065	0.0160501
764.143	0.0160663
764.221	0.0161036
764.299	0.0160991
764.378	0.0162159
764.456	0.0161056
764.534	0.0160433
764.612	0.0161541
764.690	0.0163103
764.768	0.0163077
764.846	0.0161592
764.924	0.0162996
765.003	0.0164114
765.081	0.0163416
765.159	0.0161977
765.237	0.0163148
765.315	0.0162817
765.393	0.0164648
765.471	0.0164188
765.549	0.0165165
765.628	0.0164638
765.706	0.0163274
765.784	0.0163503
765.862	0.0163607
765.940	0.0164606
766.018	0.0164209
766.096	0.0164361
766.174	0.0161464
766.253	0.0164330
766.331	0.0163971
766.409	0.0164160
766.487	0.0162883
766.565	0.0164399
766.643	0.0164218
766.721	0.0162784
766.799	0.0162946
766.878	0.0163545
766.956	0.0165169
767.034	0.0165105
767.112	0.0163766
767.190	0.0165349
767.268	0.0164985
767.346	0.0162218
767.424	0.0162670
767.503	0.0163848
767.581	0.0164133
767.659	0.0164597
767.737	0.0163988
767.815	0.0162866
767.893	0.0163791
767.971	0.0163402
768.049	0.0162774
768.128	0.0162283
768.206	0.0162392
768.284	0.0163018
768.362	0.0162611
768.440	0.0162295
768.518	0.0162988
768.596	0.0161946
768.674	0.0163057
768.753	0.0161827
768.831	0.0162280
768.909	0.0163280
768.987	0.0162388
769.065	0.0162481
769.143	0.0162328
769.221	0.0161645
769.299	0.0160909
769.378	0.0161897
769.456	0.0162547
769.534	0.0161562
769.612	0.0161456
769.690	0.0161132
769.768	0.0162504
769.846	0.0163068
769.924	0.0160130
770.003	0.0161539
770.081	0.0160909
770.159	0.0161459
770.237	0.0160671
770.315	0.0162364
770.393	0.0162315
770.471	0.0161274
770.549	0.0162798
770.628	0.0160784
770.706	0.0161041
770.784	0.0160807
770.862	0.0161818
770.940	0.0161621
771.018	0.0162103
771.096	0.0160554
771.174	0.0160954
771.253	0.0160962
771.331	0.0161655
771.409	0.0160413
771.487	0.0161787
771.565	0.0162907
771.643	0.0162737
771.721	0.0162788
771.799	0.0163438
771.878	0.0162186
771.956	0.0162025
772.034	0.0163393
772.112	0.0164305
772.190	0.0162044
772.268	0.0163786
772.346	0.0164625
772.424	0.0163402
772.503	0.0163915
772.581	0.0163960
772.659	0.0162839
772.737	0.0163399
772.815	0.0163536
772.893	0.0162619
772.971	0.0161784
773.049	0.0163041
773.128	0.0163877
773.206	0.0162865
773.284	0.0163740
773.362	0.0163594
773.440	0.0163126
773.518	0.0164303
773.596	0.0164104
773.674	0.0161553
773.753	0.0162815
773.831	0.0162720
773.909	0.0163791
773.987	0.0163076
774.065	0.0163397
774.143	0.0162620
774.221	0.0163065
774.299	0.0163175
774.378	0.0164072
774.456	0.0163068
774.534	0.0163255
774.612	0.0163087
774.690	0.0163046
774.768	0.0163415
774.846	0.0163127
774.924	0.0162462
775.003	0.0163059
775.081	0.0162663
775.159	0.0162928
775.237	0.0163739
775.315	0.0165364
775.393	0.0163454
775.471	0.0162019
775.549	0.0162666
775.628	0.0163222
775.706	0.0162436
775.784	0.0162429
775.862	0.0163461
775.940	0.0162028
776.018	0.0163152
776.096	0.0163406
776.174	0.0162255
776.253	0.0162103
776.331	0.0162767
776.409	0.0162013
776.487	0.0161978
776.565	0.0162100
776.643	0.0162284
776.721	0.0163561
776.799	0.0163240
776.878	0.0164966
776.956	0.0163201
777.034	0.0162126
777.112	0.0163321
777.190	0.0162484
777.268	0.0162903
777.346	0.0162564
777.424	0.0163404
777.503	0.0161568
777.581	0.0161023
777.659	0.0162936
777.737	0.0161825
777.815	0.0161283
777.893	0.0160997
777.971	0.0162610
778.049	0.0161419
778.128	0.0161243
778.206	0.0161480
778.284	0.0160362
778.362	0.0163113
778.440	0.0163408
778.518	0.0161968
778.596	0.0163624
778.674	0.0162167
778.753	0.0162195
778.831	0.0162457
778.909	0.0163244
778.987	0.0162436
779.065	0.0163380
779.143	0.0161290
779.221	0.0160743
779.299	0.0160697
779.378	0.0161886
779.456	0.0161176
779.534	0.0162038
779.612	0.0161378
779.690	0.0160171
779.768	0.0161733
779.846	0.0161868
779.924	0.0161794
780.003	0.0162878
780.081	0.0162958
780.159	0.0161642
780.237	0.0162810
780.315	0.0161647
780.393	0.0162511
780.471	0.0161466
780.549	0.0161900
780.628	0.0162684
780.706	0.0161631
780.784	0.0162914
780.862	0.0161257
780.940	0.0160770
781.018	0.0162437
781.096	0.0161735
781.174	0.0161560
781.253	0.0162444
781.331	0.0161642
781.409	0.0161602
781.487	0.0162531
781.565	0.0162129
781.643	0.0162577
781.721	0.0162044
781.799	0.0163123
781.878	0.0161691
781.956	0.0162014
782.034	0.0162605
782.112	0.0162024
782.190	0.0163087
782.268	0.0163080
782.346	0.0162992
782.424	0.0161430
782.503	0.0162762
782.581	0.0163306
782.659	0.0161591
782.737	0.0162144
782.815	0.0163425
782.893	0.0163486
782.971	0.0164641
783.049	0.0163223
783.128	0.0164519
783.206	0.0164899
783.284	0.0164566
783.362	0.0163553
783.440	0.0164249
783.518	0.0164329
783.596	0.0164101
783.674	0.0163348
783.753	0.0161909
783.831	0.0162698
783.909	0.0162687
783.987	0.0162421
784.065	0.0162160
784.143	0.0162593
784.221	0.0162637
784.299	0.0162331
784.378	0.0162960
784.456	0.0163216
784.534	0.0162279
784.612	0.0162223
784.690	0.0162781
784.768	0.0162453
784.846	0.0162317
784.924	0.0163158
785.003	0.0164011
785.081	0.0161945
785.159	0.0162847
785.237	0.0162231
785.315	0.0162372
785.393	0.0163177
785.471	0.0160983
785.549	0.0159621
785.628	0.0160171
785.706	0.0161060
785.784	0.0161974
785.862	0.0160596
785.940	0.0161257
786.018	0.0161265
786.096	0.0163439
786.174	0.0161180
786.253	0.0162606
786.331	0.0162279
786.409	0.0162634
786.487	0.0162164
786.565	0.0162720
786.643	0.0163897
786.721	0.0164234
786.799	0.0163858
786.878	0.0162905
786.956	0.0161900
787.034	0.0162267
787.112	0.0162608
787.190	0.0162849
787.268	0.0163384
787.346	0.0163165
787.424	0.0162829
787.503	0.0163020
787.581	0.0161835
787.659	0.0163063
787.737	0.0163345
787.815	0.0164365
787.893	0.0161458
787.971	0.0162717
788.049	0.0164069
788.128	0.0164931
788.206	0.0163675
788.284	0.0164408
788.362	0.0164258
788.440	0.0164645
788.518	0.0163824
788.596	0.0164651
788.674	0.0164031
788.753	0.0164899
788.831	0.0163369
788.909	0.0163310
788.987	0.0162840
789.065	0.0162833
789.143	0.0162779
789.221	0.0163371
789.299	0.0164240
789.378	0.0164444
789.456	0.0163464
789.534	0.0165170
789.612	0.0163548
789.690	0.0163935
789.768	0.0164880
789.846	0.0163880
789.924	0.0163829
790.003	0.0164458
790.081	0.0162572
790.159	0.0163699
790.237	0.0162911
790.315	0.0163451
790.393	0.0163184
790.471	0.0163195
790.549	0.0162511
790.628	0.0161676
790.706	0.0161474
790.784	0.0161483
790.862	0.0160765
790.940	0.0162402
791.018	0.0160566
791.096	0.0161175
791.174	0.0164610
791.253	0.0163009
791.331	0.0162556
791.409	0.0162771
791.487	0.0162827
791.565	0.0162149
791.643	0.0163819
791.721	0.0162413
791.799	0.0162621
791.878	0.0161853
791.956	0.0162254
792.034	0.0163712
792.112	0.0162991
792.190	0.0161877
792.268	0.0162448
792.346	0.0162925
792.424	0.0163717
792.503	0.0164027
792.581	0.0164333
792.659	0.0163527
792.737	0.0162962
792.815	0.0164362
792.893	0.0165318
792.971	0.0163574
793.049	0.0164415
793.128	0.0164314
793.206	0.0164431
793.284	0.0163818
793.362	0.0165433
793.440	0.0164661
793.518	0.0164552
793.596	0.0163906
793.674	0.0166299
793.753	0.0164145
793.831	0.0162109
793.909	0.0162305
793.987	0.0163643
794.065	0.0165034
794.143	0.0164912
794.221	0.0163559
794.299	0.0162123
794.378	0.0162939
794.456	0.0163107
794.534	0.0161747
794.612	0.0164103
794.690	0.0162291
794.768	0.0162908
794.846	0.0162842
794.924	0.0161846
795.003	0.0162824
795.081	0.0162696
795.159	0.0161372
795.237	0.0160900
795.315	0.0163068
795.393	0.0163036
795.471	0.0161218
795.549	0.0160748
795.628	0.0161222
795.706	0.0162720
795.784	0.0162364
795.862	0.0161941
795.940	0.0161827
796.018	0.0161879
796.096	0.0161186
796.174	0.0162282
796.253	0.0162738
796.331	0.0161697
796.409	0.0162785
796.487	0.0162672
796.565	0.0162668
796.643	0.0162788
796.721	0.0161993
796.799	0.0162296
796.878	0.0161946
796.956	0.0163048
797.034	0.0162569
797.112	0.0161737
797.190	0.0161156
797.268	0.0161013
797.346	0.0162072
797.424	0.0161017
797.503	0.0162312
797.581	0.0160789
797.659	0.0162759
797.737	0.0163067
797.815	0.0161771
797.893	0.0160302
797.971	0.0163235
798.049	0.0161817
798.128	0.0161634
798.206	0.0162386
798.284	0.0162092
798.362	0.0161265
798.440	0.0162307
798.518	0.0161868
798.596	0.0162215
798.674	0.0163499
798.753	0.0161387
798.831	0.0160678
798.909	0.0162071
798.987	0.0161127
799.065	0.0162274
799.143	0.0162757
799.221	0.0162329
799.299	0.0162408
799.378	0.0163197
799.456	0.0162799
799.534	0.0162762
799.612	0.0163302
799.690	0.0162238
799.768	0.0162209
799.846	0.0162954
799.924	0.0162234
800.003	0.0161490
800.081	0.0161620
800.159	0.0162325
800.237	0.0162202
800.315	0.0161749
800.393	0.0163349
800.471	0.0163250
800.549	0.0161934
800.628	0.0161846
800.706	0.0162862
800.784	0.0163560
800.862	0.0162871
800.940	0.0162771
801.018	0.0164876
801.096	0.0163976
801.174	0.0164244
801.253	0.0163345
801.331	0.0164213
801.409	0.0164999
801.487	0.0163426
801.565	0.0165734
801.643	0.0165391
801.721	0.0163517
801.799	0.0163707
801.878	0.0164469
801.956	0.0162964
802.034	0.0163147
802.112	0.0163963
802.190	0.0161268
802.268	0.0162833
802.346	0.0163980
802.424	0.0162970
802.503	0.0161813
802.581	0.0162186
802.659	0.0161754
802.737	0.0162102
802.815	0.0163126
802.893	0.0162572
802.971	0.0162578
803.049	0.0162484
803.128	0.0162643
803.206	0.0162673
803.284	0.0161803
803.362	0.0162088
803.440	0.0161674
803.518	0.0162286
803.596	0.0161280
803.674	0.0160343
803.753	0.0161716
803.831	0.0162292
803.909	0.0160355
803.987	0.0161541
804.065	0.0161342
804.143	0.0159901
804.221	0.0162352
804.299	0.0160471
804.378	0.0161327
804.456	0.0162213
804.534	0.0162200
804.612	0.0163170
804.690	0.0161504
804.768	0.0162256
804.846	0.0162876
804.924	0.0162611
805.003	0.0163051
805.081	0.0162716
805.159	0.0162585
805.237	0.0163171
805.315	0.0164914
805.393	0.0163099
805.471	0.0162459
805.549	0.0163720
805.628	0.0162481
805.706	0.0163467
805.784	0.0162975
805.862	0.0164365
805.940	0.0163606
806.018	0.0163661
806.096	0.0164478
806.174	0.0162327
806.253	0.0161858
806.331	0.0162115
806.409	0.0161910
806.487	0.0163173
806.565	0.0163322
806.643	0.0162690
806.721	0.0161692
806.799	0.0162317
806.878	0.0161669
806.956	0.0162358
807.034	0.0163005
807.112	0.0162161
807.190	0.0162550
807.268	0.0162524
807.346	0.0162990
807.424	0.0161810
807.503	0.0163995
807.581	0.0162054
807.659	0.0162577
807.737	0.0164409
807.815	0.0164808
807.893	0.0163674
807.971	0.0163409
808.049	0.0164189
808.128	0.0163354
808.206	0.0163860
808.284	0.0164312
808.362	0.0162167
808.440	0.0162706
808.518	0.0163326
808.596	0.0163573
808.674	0.0163561
808.753	0.0162289
808.831	0.0161772
808.909	0.0162008
808.987	0.0162299
809.065	0.0162491
809.143	0.0164246
809.221	0.0162388
809.299	0.0160562
809.378	0.0161844
809.456	0.0163251
809.534	0.0162071
809.612	0.0162290
809.690	0.0161192
809.768	0.0162160
809.846	0.0163663
809.924	0.0161700
810.003	0.0161821
810.081	0.0162257
810.159	0.0162478
810.237	0.0162825
810.315	0.0163722
810.393	0.0164407
810.471	0.0163099
810.549	0.0163164
810.628	0.0161969
810.706	0.0161245
810.784	0.0161870
810.862	0.0162222
810.940	0.0162362
811.018	0.0161996
811.096	0.0161687
811.174	0.0161676
811.253	0.0163154
811.331	0.0162939
811.409	0.0161926
811.487	0.0161800
811.565	0.0161948
811.643	0.0162054
811.721	0.0162380
811.799	0.0161649
811.878	0.0161739
811.956	0.0160730
812.034	0.0161092
812.112	0.0162885
812.190	0.0162457
812.268	0.0162225
812.346	0.0161513
812.424	0.0162115
812.503	0.0163403
812.581	0.0164823
812.659	0.0162917
812.737	0.0163361
812.815	0.0163873
812.893	0.0163178
812.971	0.0162853
813.049	0.0164272
813.128	0.0163399
813.206	0.0163554
813.284	0.0163409
813.362	0.0162466
813.440	0.0163139
813.518	0.0162637
813.596	0.0162722
813.674	0.0163083
813.753	0.0162415
813.831	0.0163908
813.909	0.0163078
813.987	0.0162412
814.065	0.0163650
814.143	0.0163352
814.221	0.0164594
814.299	0.0163982
814.378	0.0163889
814.456	0.0163436
814.534	0.0163780
814.612	0.0163514
814.690	0.0162918
814.768	0.0163793
814.846	0.0163947
814.924	0.0163351
815.003	0.0162605
815.081	0.0163183
815.159	0.0164330
815.237	0.0162652
815.315	0.0162975
815.393	0.0162711
815.471	0.0162309
815.549	0.0161642
815.628	0.0162975
815.706	0.0162258
815.784	0.0163903
815.862	0.0163036
815.940	0.0163068
816.018	0.0163430
816.096	0.0161272
816.174	0.0161645
816.253	0.0162583
816.331	0.0161131
816.409	0.0161789
816.487	0.0163363
816.565	0.0162736
816.643	0.0161542
816.721	0.0161993
816.799	0.0160855
816.878	0.0161975
816.956	0.0162208
817.034	0.0161341
817.112	0.0162038
817.190	0.0162360
817.268	0.0162662
817.346	0.0162956
817.424	0.0162651
817.503	0.0163023
817.581	0.0161979
817.659	0.0162968
817.737	0.0161335
817.815	0.0162693
817.893	0.0161998
817.971	0.0160674
818.049	0.0161580
818.128	0.0162267
818.206	0.0160341
818.284	0.0160897
818.362	0.0162218
818.440	0.0162680
818.518	0.0163548
818.596	0.0162029
818.674	0.0161495
818.753	0.0161074
818.831	0.0163088
818.909	0.0162973
818.987	0.0162716
819.065	0.0162159
819.143	0.0161880
819.221	0.0162236
819.299	0.0162698
819.378	0.0163548
819.456	0.0162558
819.534	0.0161599
819.612	0.0162732
819.690	0.0163644
819.768	0.0162359
819.846	0.0161995
819.924	0.0162021
820.003	0.0163472
820.081	0.0162763
820.159	0.0162279
820.237	0.0162763
820.315	0.0163167
820.393	0.0162194
820.471	0.0161874
820.549	0.0162232
820.628	0.0163836
820.706	0.0162848
820.784	0.0163502
820.862	0.0162798
820.940	0.0162160
821.018	0.0162229
821.096	0.0163026
821.174	0.0162151
821.253	0.0162615
821.331	0.0161942
821.409	0.0163200
821.487	0.0162191
821.565	0.0161975
821.643	0.0162823
821.721	0.0163028
821.799	0.0163498
821.878	0.0162826
821.956	0.0160737
822.034	0.0160852
822.112	0.0162617
822.190	0.0163200
822.268	0.0162587
822.346	0.0161348
822.424	0.0163302
822.503	0.0163770
822.581	0.0163168
822.659	0.0163160
822.737	0.0163625
822.815	0.0161975
822.893	0.0162576
822.971	0.0162043
823.049	0.0161962
823.128	0.0162780
823.206	0.0163126
823.284	0.0161854
823.362	0.0162104
823.440	0.0162331
823.518	0.0161131
823.596	0.0161604
823.674	0.0161951
823.753	0.0162160
823.831	0.0161462
823.909	0.0161738
823.987	0.0162885
824.065	0.0162512
824.143	0.0161015
824.221	0.0163490
824.299	0.0161897
824.378	0.0161809
824.456	0.0162699
824.534	0.0162647
824.612	0.0161345
824.690	0.0163430
824.768	0.0163437
824.846	0.0162373
824.924	0.0161230
825.003	0.0162012
825.081	0.0163751
825.159	0.0163031
825.237	0.0161568
825.315	0.0162260
825.393	0.0161997
825.471	0.0162138
825.549	0.0162023
825.628	0.0162349
825.706	0.0161713
825.784	0.0163503
825.862	0.0161682
825.940	0.0163098
826.018	0.0162166
826.096	0.0160624
826.174	0.0162059
826.253	0.0160680
826.331	0.0161402
826.409	0.0161924
826.487	0.0161005
826.565	0.0160902
826.643	0.0161594
826.721	0.0162276
826.799	0.0162132
826.878	0.0162410
826.956	0.0163261
827.034	0.0162875
827.112	0.0162901
827.190	0.0164330
827.268	0.0163039
827.346	0.0162621
827.424	0.0164157
827.503	0.0163686
827.581	0.0162877
827.659	0.0162410
827.737	0.0164301
827.815	0.0163358
827.893	0.0161831
827.971	0.0163562
828.049	0.0161562
828.128	0.0161651
828.206	0.0162595
828.284	0.0162856
828.362	0.0161337
828.440	0.0162087
828.518	0.0162658
828.596	0.0162174
828.674	0.0161369
828.753	0.0161223
828.831	0.0163099
828.909	0.0161597
828.987	0.0162571
829.065	0.0161966
829.143	0.0162429
829.221	0.0161976
829.299	0.0161876
829.378	0.0162733
829.456	0.0162070
829.534	0.0161671
829.612	0.0163570
829.690	0.0161056
829.768	0.0160143
829.846	0.0162014
829.924	0.0161000
830.003	0.0162920
830.081	0.0162058
830.159	0.0161975
830.237	0.0161098
830.315	0.0161768
830.393	0.0161889
830.471	0.0162187
830.549	0.0161385
830.628	0.0162112
830.706	0.0161317
830.784	0.0161666
830.862	0.0161099
830.940	0.0161317
831.018	0.0162273
831.096	0.0161766
831.174	0.0160750
831.253	0.0160177
831.331	0.0161600
831.409	0.0161631
831.487	0.0161377
831.565	0.0161878
831.643	0.0163100
831.721	0.0162382
831.799	0.0162277
831.878	0.0162442
831.956	0.0162192
832.034	0.0162370
832.112	0.0161662
832.190	0.0161890
832.268	0.0162196
832.346	0.0162220
832.424	0.0162510
832.503	0.0161969
832.581	0.0162730
832.659	0.0163669
832.737	0.0161974
832.815	0.0161973
832.893	0.0162206
832.971	0.0163863
833.049	0.0162906
833.128	0.0163988
833.206	0.0162483
833.284	0.0162689
833.362	0.0163190
833.440	0.0163263
833.518	0.0162491
833.596	0.0161980
833.674	0.0163857
833.753	0.0162306
833.831	0.0162147
833.909	0.0161617
833.987	0.0162886
834.065	0.0163005
834.143	0.0162547
834.221	0.0162805
834.299	0.0163539
834.378	0.0163551
834.456	0.0163509
834.534	0.0162303
834.612	0.0163154
834.690	0.0162021
834.768	0.0161374
834.846	0.0161979
834.924	0.0161138
835.003	0.0162493
835.081	0.0161465
835.159	0.0161574
835.237	0.0160739
835.315	0.0162417
835.393	0.0163123
835.471	0.0161592
835.549	0.0160049
835.628	0.0160816
835.706	0.0160054
835.784	0.0160461
835.862	0.0161238
835.940	0.0160612
836.018	0.0159864
836.096	0.0160652
836.174	0.0160173
836.253	0.0159792
836.331	0.0161943
836.409	0.0159590
836.487	0.0160542
836.565	0.0159718
836.643	0.0160458
836.721	0.0162388
836.799	0.0160653
836.878	0.0162197
836.956	0.0160749
837.034	0.0160150
837.112	0.0160719
837.190	0.0160393
837.268	0.0159415
837.346	0.0162187
837.424	0.0161566
837.503	0.0161005
837.581	0.0161703
837.659	0.0161034
837.737	0.0162503
837.815	0.0162565
837.893	0.0161798
837.971	0.0162347
838.049	0.0163046
838.128	0.0162901
838.206	0.0161623
838.284	0.0162778
838.362	0.0164111
838.440	0.0163035
838.518	0.0162923
838.596	0.0162868
838.674	0.0162275
838.753	0.0162855
838.831	0.0164693
838.909	0.0164037
838.987	0.0164397
839.065	0.0163066
839.143	0.0162883
839.221	0.0163621
839.299	0.0163049
839.378	0.0163229
839.456	0.0162419
839.534	0.0163847
839.612	0.0164180
839.690	0.0162442
839.768	0.0162692
839.846	0.0161153
839.924	0.0161759
840.003	0.0161998
840.081	0.0162133
840.159	0.0161653
840.237	0.0161211
840.315	0.0161878
840.393	0.0162195
840.471	0.0161946
840.549	0.0161047
840.628	0.0160078
840.706	0.0161903
840.784	0.0162471
840.862	0.0161081
840.940	0.0160735
841.018	0.0161239
841.096	0.0162137
841.174	0.0162358
841.253	0.0160496
841.331	0.0160759
841.409	0.0162978
841.487	0.0161371
841.565	0.0162389
841.643	0.0162843
841.721	0.0162552
841.799	0.0160992
841.878	0.0162401
841.956	0.0160487
842.034	0.0161919
842.112	0.0160820
842.190	0.0161118
842.268	0.0162140
842.346	0.0162811
842.424	0.0161673
842.503	0.0161269
842.581	0.0161705
842.659	0.0161665
842.737	0.0162359
842.815	0.0162403
842.893	0.0162305
842.971	0.0160101
843.049	0.0162698
843.128	0.0161454
843.206	0.0162331
843.284	0.0160300
843.362	0.0160742
843.440	0.0161375
843.518	0.0161157
843.596	0.0162785
843.674	0.0161133
843.753	0.0161940
843.831	0.0161815
843.909	0.0160389
843.987	0.0160295
844.065	0.0161970
844.143	0.0161411
844.221	0.0161110
844.299	0.0163981
844.378	0.0161742
844.456	0.0162285
844.534	0.0161963
844.612	0.0161998
844.690	0.0162374
844.768	0.0164060
844.846	0.0163937
844.924	0.0162017
845.003	0.0161117
845.081	0.0162376
845.159	0.0160892
845.237	0.0162057
845.315	0.0163157
845.393	0.0161823
845.471	0.0161722
845.549	0.0160810
845.628	0.0161577
845.706	0.0162898
845.784	0.0162774
845.862	0.0163688
845.940	0.0162728
846.018	0.0162830
846.096	0.0163468
846.174	0.0161501
846.253	0.0161231
846.331	0.0162540
846.409	0.0163351
846.487	0.0163956
846.565	0.0161533
846.643	0.0162527
846.721	0.0162743
846.799	0.0163347
846.878	0.0162380
846.956	0.0162943
847.034	0.0163218
847.112	0.0162361
847.190	0.0162439
847.268	0.0162745
847.346	0.0163222
847.424	0.0161861
847.503	0.0162114
847.581	0.0162523
847.659	0.0161828
847.737	0.0161349
847.815	0.0160966
847.893	0.0162008
847.971	0.0161826
848.049	0.0161608
848.128	0.0161330
848.206	0.0162037
848.284	0.0161549
848.362	0.0163197
848.440	0.0160757
848.518	0.0162381
848.596	0.0162555
848.674	0.0163483
848.753	0.0164025
848.831	0.0162395
848.909	0.0163052
848.987	0.0161894
849.065	0.0162211
849.143	0.0164289
849.221	0.0161937
849.299	0.0163330
849.378	0.0162460
849.456	0.0162553
849.534	0.0162076
849.612	0.0162954
849.690	0.0161909
849.768	0.0162014
849.846	0.0162974
849.924	0.0162254
850.003	0.0160728
850.081	0.0161395
850.159	0.0162053
850.237	0.0162344
850.315	0.0160847
850.393	0.0162092
850.471	0.0162778
850.549	0.0160733
850.628	0.0161548
850.706	0.0162061
850.784	0.0162410
850.862	0.0161574
850.940	0.0162401
851.018	0.0163065
851.096	0.0161985
851.174	0.0162099
851.253	0.0162666
851.331	0.0162684
851.409	0.0162418
851.487	0.0161792
851.565	0.0162482
851.643	0.0162126
851.721	0.0163479
851.799	0.0161864
851.878	0.0160786
851.956	0.0161974
852.034	0.0162550
852.112	0.0162614
852.190	0.0162835
852.268	0.0162127
852.346	0.0161408
852.424	0.0161712
852.503	0.0162321
852.581	0.0161301
852.659	0.0161368
852.737	0.0161061
852.815	0.0162879
852.893	0.0161884
852.971	0.0162206
853.049	0.0162889
853.128	0.0161282
853.206	0.0160582
853.284	0.0162459
853.362	0.0162425
853.440	0.0162135
853.518	0.0161948
853.596	0.0163397
853.674	0.0161397
853.753	0.0162169
853.831	0.0163036
853.909	0.0162234
853.987	0.0163303
854.065	0.0163050
854.143	0.0161536
854.221	0.0163415
854.299	0.0162230
854.378	0.0161422
854.456	0.0162912
854.534	0.0161156
854.612	0.0160986
854.690	0.0162959
854.768	0.0162481
854.846	0.0161691
854.924	0.0162155
855.003	0.0160574
855.081	0.0159363
855.159	0.0163357
855.237	0.0161689
855.315	0.0160813
855.393	0.0162021
855.471	0.0161958
855.549	0.0161375
855.628	0.0161243
855.706	0.0162505
855.784	0.0162102
855.862	0.0161763
855.940	0.0161617
856.018	0.0161292
856.096	0.0160850
856.174	0.0162057
856.253	0.0162478
856.331	0.0160448
856.409	0.0160916
856.487	0.0161691
856.565	0.0162518
856.643	0.0162313
856.721	0.0161503
856.799	0.0160394
856.878	0.0161979
856.956	0.0161938
857.034	0.0161589
857.112	0.0162386
857.190	0.0161926
857.268	0.0161617
857.346	0.0160686
857.424	0.0161716
857.503	0.0163190
857.581	0.0161437
857.659	0.0160360
857.737	0.0161710
857.815	0.0161629
857.893	0.0162189
857.971	0.0161654
858.049	0.0162072
858.128	0.0161328
858.206	0.0162468
858.284	0.0163057
858.362	0.0161848
858.440	0.0161980
858.518	0.0161745
858.596	0.0161512
858.674	0.0161774
858.753	0.0162116
858.831	0.0162290
858.909	0.0163097
858.987	0.0162008
859.065	0.0162363
859.143	0.0163115
859.221	0.0162962
859.299	0.0162760
859.378	0.0162162
859.456	0.0160961
859.534	0.0162175
859.612	0.0161834
859.690	0.0161716
859.768	0.0161139
859.846	0.0161743
859.924	0.0161810
860.003	0.0162383
860.081	0.0162405
860.159	0.0160913
860.237	0.0160601
860.315	0.0161406
860.393	0.0160706
860.471	0.0160897
860.549	0.0159953
860.628	0.0161295
860.706	0.0160830
860.784	0.0162918
860.862	0.0161814
860.940	0.0160976
861.018	0.0161836
861.096	0.0162568
861.174	0.0162449
861.253	0.0162110
861.331	0.0161438
861.409	0.0161148
861.487	0.0162373
861.565	0.0162838
861.643	0.0161065
861.721	0.0161115
861.799	0.0161723
861.878	0.0162215
861.956	0.0161430
862.034	0.0160701
862.112	0.0161917
862.190	0.0161539
862.268	0.0160253
862.346	0.0162216
862.424	0.0161247
862.503	0.0159889
862.581	0.0160861
862.659	0.0163483
862.737	0.0162665
862.815	0.0161908
862.893	0.0162700
862.971	0.0161935
863.049	0.0162136
863.128	0.0163086
863.206	0.0163674
863.284	0.0164173
863.362	0.0164056
863.440	0.0164067
863.518	0.0164053
863.596	0.0164587
863.674	0.0164056
863.753	0.0166652
863.831	0.0163757
863.909	0.0163793
863.987	0.0162978
864.065	0.0163865
864.143	0.0163404
864.221	0.0162791
864.299	0.0162818
864.378	0.0162452
864.456	0.0161079
864.534	0.0161929
864.612	0.0162024
864.690	0.0161415
864.768	0.0162749
864.846	0.0162170
864.924	0.0163459
865.003	0.0163091
865.081	0.0162671
865.159	0.0162904
865.237	0.0162334
865.315	0.0163380
865.393	0.0162817
865.471	0.0162766
865.549	0.0163075
865.628	0.0161898
865.706	0.0163517
865.784	0.0162970
865.862	0.0161897
865.940	0.0162830
866.018	0.0161402
866.096	0.0162568
866.174	0.0164362
866.253	0.0162422
866.331	0.0162213
866.409	0.0162814
866.487	0.0162174
866.565	0.0162710
866.643	0.0162138
866.721	0.0162733
866.799	0.0162102
866.878	0.0161831
866.956	0.0161937
867.034	0.0162009
867.112	0.0162411
867.190	0.0161731
867.268	0.0164307
867.346	0.0162801
867.424	0.0162407
867.503	0.0162192
867.581	0.0162685
867.659	0.0162401
867.737	0.0163033
867.815	0.0162949
867.893	0.0162944
867.971	0.0162376
868.049	0.0162845
868.128	0.0162565
868.206	0.0162402
868.284	0.0162658
868.362	0.0161774
868.440	0.0162178
868.518	0.0163162
868.596	0.0161781
868.674	0.0160651
868.753	0.0162664
868.831	0.0161204
868.909	0.0162440
868.987	0.0161028
869.065	0.0161459
869.143	0.0161388
869.221	0.0160707
869.299	0.0162204
869.378	0.0161273
869.456	0.0161060
869.534	0.0162894
869.612	0.0162506
869.690	0.0163046
869.768	0.0163542
869.846	0.0162736
869.924	0.0162394
870.003	0.0162543
870.081	0.0163548
870.159	0.0162638
870.237	0.0162798
870.315	0.0162802
870.393	0.0163942
870.471	0.0162416
870.549	0.0163358
870.628	0.0162923
870.706	0.0162036
870.784	0.0163077
870.862	0.0163720
870.940	0.0163070
871.018	0.0162467
871.096	0.0162463
871.174	0.0164301
871.253	0.0164931
871.331	0.0161854
871.409	0.0162758
871.487	0.0162400
871.565	0.0162893
871.643	0.0163235
871.721	0.0163338
871.799	0.0161790
871.878	0.0163468
871.956	0.0163385
872.034	0.0163346
872.112	0.0162928
872.190	0.0163168
872.268	0.0161946
872.346	0.0162229
872.424	0.0163158
872.503	0.0162730
872.581	0.0163240
872.659	0.0162424
872.737	0.0162440
872.815	0.0162353
872.893	0.0160689
872.971	0.0161958
873.049	0.0162286
873.128	0.0161594
873.206	0.0162261
873.284	0.0162946
873.362	0.0161292
873.440	0.0161944
873.518	0.0160279
873.596	0.0161710
873.674	0.0162321
873.753	0.0160420
873.831	0.0160675
873.909	0.0162451
873.987	0.0162446
874.065	0.0161433
874.143	0.0163979
874.221	0.0163283
874.299	0.0160511
874.378	0.0161755
874.456	0.0160387
874.534	0.0162070
874.612	0.0162654
874.690	0.0162342
874.768	0.0161730
874.846	0.0163875
874.924	0.0163329
875.003	0.0162443
875.081	0.0162819
875.159	0.0162584
875.237	0.0161710
875.315	0.0163490
875.393	0.0162754
875.471	0.0162924
875.549	0.0162843
875.628	0.0161469
875.706	0.0161623
875.784	0.0160925
875.862	0.0162378
875.940	0.0161612
876.018	0.0160269
876.096	0.0161340
876.174	0.0159902
876.253	0.0160940
876.331	0.0162092
876.409	0.0162102
876.487	0.0161185
876.565	0.0160289
876.643	0.0161295
876.721	0.0162259
876.799	0.0161871
876.878	0.0160776
876.956	0.0162058
877.034	0.0162598
877.112	0.0161413
877.190	0.0163054
877.268	0.0163499
877.346	0.0162364
877.424	0.0160600
877.503	0.0163420
877.581	0.0162189
877.659	0.0162424
877.737	0.0162110
877.815	0.0163255
877.893	0.0162736
877.971	0.0162659
878.049	0.0162003
878.128	0.0161024
878.206	0.0161789
878.284	0.0161829
878.362	0.0161121
878.440	0.0163027
878.518	0.0163769
878.596	0.0162509
878.674	0.0163267
878.753	0.0163495
878.831	0.0162550
878.909	0.0163152
878.987	0.0164558
879.065	0.0163981
879.143	0.0163528
879.221	0.0164409
879.299	0.0162260
879.378	0.0162135
879.456	0.0162389
879.534	0.0162269
879.612	0.0161472
879.690	0.0163537
879.768	0.0164227
879.846	0.0161807
879.924	0.0161576
880.003	0.0162539
880.081	0.0161617
880.159	0.0162100
880.237	0.0162622
880.315	0.0161481
880.393	0.0161052
880.471	0.0162354
880.549	0.0162835
880.628	0.0162774
880.706	0.0164196
880.784	0.0162982
880.862	0.0164890
880.940	0.0162959
881.018	0.0162354
881.096	0.0163017
881.174	0.0162138
881.253	0.0162865
881.331	0.0163694
881.409	0.0163262
881.487	0.0161504
881.565	0.0162311
881.643	0.0162872
881.721	0.0162952
881.799	0.0162717
881.878	0.0160055
881.956	0.0162849
882.034	0.0161975
882.112	0.0161204
882.190	0.0162455
882.268	0.0160678
882.346	0.0162653
882.424	0.0161912
882.503	0.0162288
882.581	0.0162635
882.659	0.0161380
882.737	0.0161987
882.815	0.0161282
882.893	0.0162770
882.971	0.0163772
883.049	0.0162531
883.128	0.0162644
883.206	0.0161954
883.284	0.0162035
883.362	0.0161834
883.440	0.0162281
883.518	0.0164104
883.596	0.0161900
883.674	0.0161707
883.753	0.0162037
883.831	0.0163654
883.909	0.0164026
883.987	0.0162350
884.065	0.0162554
884.143	0.0162584
884.221	0.0162190
884.299	0.0162293
884.378	0.0163038
884.456	0.0162345
884.534	0.0162062
884.612	0.0163184
884.690	0.0162470
884.768	0.0163049
884.846	0.0162708
884.924	0.0161322
885.003	0.0163874
885.081	0.0163667
885.159	0.0163477
885.237	0.0161304
885.315	0.0163322
885.393	0.0161632
885.471	0.0161801
885.549	0.0164046
885.628	0.0162048
885.706	0.0163769
885.784	0.0162549
885.862	0.0161822
885.940	0.0162153
886.018	0.0161155
886.096	0.0162359
886.174	0.0161898
886.253	0.0162514
886.331	0.0162788
886.409	0.0163118
886.487	0.0162630
886.565	0.0162685
886.643	0.0163341
886.721	0.0163383
886.799	0.0164064
886.878	0.0163348
886.956	0.0162773
887.034	0.0163376
887.112	0.0163446
887.190	0.0163547
887.268	0.0163138
887.346	0.0164184
887.424	0.0163130
887.503	0.0162830
887.581	0.0164418
887.659	0.0162868
887.737	0.0163856
887.815	0.0163810
887.893	0.0163475
887.971	0.0162016
888.049	0.0163503
888.128	0.0163199
888.206	0.0162607
888.284	0.0162260
888.362	0.0162761
888.440	0.0162604
888.518	0.0162038
888.596	0.0163381
888.674	0.0163604
888.753	0.0162305
888.831	0.0161319
888.909	0.0162710
888.987	0.0163268
889.065	0.0163043
889.143	0.0162210
889.221	0.0162920
889.299	0.0162278
889.378	0.0164102
889.456	0.0162391
889.534	0.0162782
889.612	0.0161526
889.690	0.0160857
889.768	0.0161816
889.846	0.0161166
889.924	0.0161979
890.003	0.0160530
890.081	0.0162089
890.159	0.0162553
890.237	0.0162151
890.315	0.0164402
890.393	0.0161711
890.471	0.0161327
890.549	0.0161721
890.628	0.0162299
890.706	0.0162241
890.784	0.0162726
890.862	0.0163709
890.940	0.0163625
891.018	0.0162522
891.096	0.0163341
891.174	0.0162971
891.253	0.0163417
891.331	0.0163257
891.409	0.0163634
891.487	0.0161799
891.565	0.0162685
891.643	0.0162713
891.721	0.0163509
891.799	0.0162178
891.878	0.0162144
891.956	0.0163021
892.034	0.0162786
892.112	0.0162806
892.190	0.0164460
892.268	0.0164130
892.346	0.0163049
892.424	0.0162992
892.503	0.0164199
892.581	0.0164126
892.659	0.0164547
892.737	0.0161392
892.815	0.0162075
892.893	0.0163296
892.971	0.0161095
893.049	0.0161825
893.128	0.0162547
893.206	0.0164279
893.284	0.0163407
893.362	0.0162205
893.440	0.0162812
893.518	0.0163087
893.596	0.0163495
893.674	0.0162164
893.753	0.0163147
893.831	0.0163914
893.909	0.0162328
893.987	0.0162701
894.065	0.0162190
894.143	0.0162782
894.221	0.0162496
894.299	0.0162437
894.378	0.0162528
894.456	0.0163175
894.534	0.0161809
894.612	0.0162327
894.690	0.0162646
894.768	0.0162260
894.846	0.0162782
894.924	0.0162705
895.003	0.0161880
895.081	0.0162478
895.159	0.0163586
895.237	0.0164973
895.315	0.0161872
895.393	0.0162408
895.471	0.0162272
895.549	0.0164075
895.628	0.0162492
895.706	0.0162970
895.784	0.0163607
895.862	0.0162684
895.940	0.0162247
896.018	0.0162214
896.096	0.0162807
896.174	0.0163638
896.253	0.0162827
896.331	0.0163539
896.409	0.0162630
896.487	0.0161997
896.565	0.0162208
896.643	0.0161998
896.721	0.0162170
896.799	0.0163406
896.878	0.0161126
896.956	0.0162476
897.034	0.0162331
897.112	0.0162014
897.190	0.0162679
897.268	0.0161594
897.346	0.0161904
897.424	0.0161761
897.503	0.0162256
897.581	0.0160676
897.659	0.0160847
897.737	0.0162602
897.815	0.0161377
897.893	0.0160943
897.971	0.0162937
898.049	0.0162592
898.128	0.0163309
898.206	0.0162532
898.284	0.0161996
898.362	0.0161657
898.440	0.0162335
898.518	0.0163214
898.596	0.0163766
898.674	0.0164052
898.753	0.0163399
898.831	0.0163685
898.909	0.0162862
898.987	0.0162576
899.065	0.0162991
899.143	0.0163744
899.221	0.0164754
899.299	0.0162884
899.378	0.0163515
899.456	0.0163521
899.534	0.0163706
899.612	0.0162605
899.690	0.0162445
899.768	0.0162289
899.846	0.0163503
899.924	0.0163392
900.003	0.0163950
900.081	0.0161905
900.159	0.0164232
900.237	0.0163026
900.315	0.0161156
900.393	0.0161154
900.471	0.0161945
900.549	0.0162289
900.628	0.0163451
900.706	0.0161085
900.784	0.0163387
900.862	0.0163599
900.940	0.0162357
901.018	0.0162655
901.096	0.0162044
901.174	0.0162272
901.253	0.0162349
901.331	0.0162655
901.409	0.0163215
901.487	0.0163521
901.565	0.0161969
901.643	0.0163063
901.721	0.0161839
901.799	0.0162710
901.878	0.0162862
901.956	0.0162552
902.034	0.0163667
902.112	0.0163431
902.190	0.0162692
902.268	0.0163556
902.346	0.0161918
902.424	0.0161823
902.503	0.0162186
902.581	0.0163252
902.659	0.0161946
902.737	0.0161617
902.815	0.0161479
902.893	0.0162005
902.971	0.0161134
903.049	0.0161478
903.128	0.0160994
903.206	0.0160943
903.284	0.0161856
903.362	0.0161890
903.440	0.0161407
903.518	0.0160461
903.596	0.0160576
903.674	0.0160719
903.753	0.0161089
903.831	0.0161068
903.909	0.0161797
903.987	0.0160729
904.065	0.0161955
904.143	0.0160800
904.221	0.0160152
904.299	0.0160820
904.378	0.0160145
904.456	0.0161932
904.534	0.0161792
904.612	0.0163031
904.690	0.0162362
904.768	0.0161315
904.846	0.0163833
904.924	0.0161516
905.003	0.0162115
905.081	0.0162330
905.159	0.0161835
905.237	0.0162618
905.315	0.0161406
905.393	0.0162846
905.471	0.0162548
905.549	0.0162233
905.628	0.0162078
905.706	0.0162067
905.784	0.0162415
905.862	0.0162755
905.940	0.0161116
906.018	0.0161697
906.096	0.0163230
906.174	0.0162736
906.253	0.0161825
906.331	0.0164098
906.409	0.0162520
906.487	0.0163005
906.565	0.0164205
906.643	0.0163740
906.721	0.0164510
906.799	0.0162666
906.878	0.0162690
906.956	0.0162583
907.034	0.0163139
907.112	0.0163765
907.190	0.0163366
907.268	0.0163841
907.346	0.0163789
907.424	0.0163657
907.503	0.0163256
907.581	0.0163478
907.659	0.0164270
907.737	0.0164242
907.815	0.0163525
907.893	0.0163342
907.971	0.0164489
908.049	0.0162849
908.128	0.0162462
908.206	0.0162115
908.284	0.0163141
908.362	0.0161957
908.440	0.0163126
908.518	0.0161771
908.596	0.0162619
908.674	0.0163052
908.753	0.0162202
908.831	0.0162127
908.909	0.0162192
908.987	0.0161452
909.065	0.0162405
909.143	0.0161922
909.221	0.0162794
909.299	0.0162808
909.378	0.0163470
909.456	0.0162747
909.534	0.0162231
909.612	0.0162103
909.690	0.0162418
909.768	0.0162669
909.846	0.0162083
909.924	0.0162817
910.003	0.0162960
910.081	0.0162840
910.159	0.0161756
910.237	0.0161536
910.315	0.0162422
910.393	0.0162090
910.471	0.0163138
910.549	0.0163639
910.628	0.0163974
910.706	0.0164992
910.784	0.0163673
910.862	0.0163673
910.940	0.0164435
911.018	0.0164574
911.096	0.0164662
911.174	0.0163564
911.253	0.0163498
911.331	0.0164234
911.409	0.0163930
911.487	0.0163374
911.565	0.0163609
911.643	0.0163230
911.721	0.0163331
911.799	0.0163210
911.878	0.0162534
911.956	0.0162086
912.034	0.0162656
912.112	0.0162668
912.190	0.0162611
912.268	0.0162324
912.346	0.0162107
912.424	0.0162070
912.503	0.0163586
912.581	0.0162711
912.659	0.0162228
912.737	0.0162859
912.815	0.0163544
912.893	0.0161627
912.971	0.0162106
913.049	0.0163367
913.128	0.0162779
913.206	0.0163129
913.284	0.0162964
913.362	0.0163673
913.440	0.0163599
913.518	0.0163548
913.596	0.0162466
913.674	0.0163489
913.753	0.0162942
913.831	0.0162865
913.909	0.0162688
913.987	0.0163458
914.065	0.0163833
914.143	0.0162565
914.221	0.0165052
914.299	0.0163841
914.378	0.0163142
914.456	0.0163253
914.534	0.0162923
914.612	0.0161964
914.690	0.0163126
914.768	0.0163026
914.846	0.0161438
914.924	0.0161650
915.003	0.0162132
915.081	0.0162543
915.159	0.0161816
915.237	0.0161267
915.315	0.0161928
915.393	0.0162157
915.471	0.0162612
915.549	0.0161897
915.628	0.0162679
915.706	0.0161062
915.784	0.0163697
915.862	0.0163127
915.940	0.0163020
916.018	0.0161049
916.096	0.0163522
916.174	0.0162615
916.253	0.0162111
916.331	0.0162999
916.409	0.0161660
916.487	0.0163168
916.565	0.0162105
916.643	0.0161871
916.721	0.0163011
916.799	0.0163417
916.878	0.0162620
916.956	0.0162679
917.034	0.0162377
917.112	0.0161955
917.190	0.0162134
917.268	0.0162753
917.346	0.0162680
917.424	0.0162103
917.503	0.0161884
917.581	0.0162663
917.659	0.0163498
917.737	0.0162402
917.815	0.0161348
917.893	0.0161179
917.971	0.0161694
918.049	0.0162756
918.128	0.0161579
918.206	0.0161938
918.284	0.0160695
918.362	0.0160936
918.440	0.0160889
918.518	0.0161371
918.596	0.0161462
918.674	0.0161554
918.753	0.0161592
918.831	0.0161996
918.909	0.0160716
918.987	0.0161562
919.065	0.0161971
919.143	0.0161056
919.221	0.0162283
919.299	0.0161730
919.378	0.0160246
919.456	0.0162446
919.534	0.0161963
919.612	0.0160951
919.690	0.0161085
919.768	0.0161725
919.846	0.0160587
919.924	0.0161222
920.003	0.0161361
920.081	0.0161462
920.159	0.0163178
920.237	0.0160906
920.315	0.0161792
920.393	0.0160528
920.471	0.0163393
920.549	0.0162136
920.628	0.0162106
920.706	0.0161596
920.784	0.0161031
920.862	0.0163490
920.940	0.0161871
921.018	0.0162755
921.096	0.0162035
921.174	0.0162618
921.253	0.0162255
921.331	0.0161613
921.409	0.0161943
921.487	0.0160987
921.565	0.0162134
921.643	0.0162544
921.721	0.0162328
921.799	0.0161988
921.878	0.0162473
921.956	0.0161651
922.034	0.0161889
922.112	0.0162095
922.190	0.0161023
922.268	0.0161728
922.346	0.0161128
922.424	0.0161457
922.503	0.0161822
922.581	0.0162266
922.659	0.0162930
922.737	0.0163793
922.815	0.0162422
922.893	0.0162623
922.971	0.0162767
923.049	0.0163096
923.128	0.0162349
923.206	0.0161317
923.284	0.0162850
923.362	0.0162525
923.440	0.0161741
923.518	0.0161922
923.596	0.0161358
923.674	0.0161358
923.753	0.0162097
923.831	0.0161889
923.909	0.0163234
923.987	0.0161666
924.065	0.0161887
924.143	0.0162161
924.221	0.0161947
924.299	0.0161779
924.378	0.0161879
924.456	0.0161299
924.534	0.0161060
924.612	0.0162117
924.690	0.0162817
924.768	0.0161259
924.846	0.0161623
924.924	0.0161794
925.003	0.0162445
925.081	0.0161773
925.159	0.0162621
925.237	0.0161979
925.315	0.0162085
925.393	0.0162135
925.471	0.0161523
925.549	0.0161459
925.628	0.0162340
925.706	0.0161159
925.784	0.0161351
925.862	0.0162400
925.940	0.0161890
926.018	0.0161286
926.096	0.0161198
926.174	0.0160974
926.253	0.0160553
926.331	0.0161460
926.409	0.0161369
926.487	0.0161892
926.565	0.0161428
926.643	0.0162850
926.721	0.0161909
926.799	0.0161619
926.878	0.0161516
926.956	0.0162522
927.034	0.0161964
927.112	0.0161965
927.190	0.0161289
927.268	0.0163274
927.346	0.0162244
927.424	0.0162529
927.503	0.0163704
927.581	0.0162216
927.659	0.0161925
927.737	0.0162524
927.815	0.0163197
927.893	0.0163677
927.971	0.0161444
928.049	0.0162756
928.128	0.0162341
928.206	0.0161854
928.284	0.0162512
928.362	0.0162005
928.440	0.0160416
928.518	0.0162054
928.596	0.0162343
928.674	0.0162484
928.753	0.0161725
928.831	0.0161133
928.909	0.0162482
928.987	0.0162193
929.065	0.0162973
929.143	0.0162408
929.221	0.0161900
929.299	0.0162079
929.378	0.0163811
929.456	0.0163193
929.534	0.0162266
929.612	0.0162392
929.690	0.0162981
929.768	0.0161765
929.846	0.0162007
929.924	0.0161577
930.003	0.0162435
930.081	0.0162857
930.159	0.0161987
930.237	0.0162884
930.315	0.0162231
930.393	0.0162320
930.471	0.0162955
930.549	0.0162341
930.628	0.0161812
930.706	0.0163418
930.784	0.0163685
930.862	0.0163265
930.940	0.0162787
931.018	0.0163744
931.096	0.0163377
931.174	0.0162734
931.253	0.0163454
931.331	0.0162977
931.409	0.0163177
931.487	0.0163020
931.565	0.0162847
931.643	0.0163013
931.721	0.0163870
931.799	0.0162872
931.878	0.0163462
931.956	0.0163176
932.034	0.0163011
932.112	0.0162232
932.190	0.0164256
932.268	0.0161834
932.346	0.0162411
932.424	0.0161600
932.503	0.0162103
932.581	0.0162720
932.659	0.0162564
932.737	0.0162704
932.815	0.0162022
932.893	0.0162720
932.971	0.0164034
933.049	0.0162035
933.128	0.0163364
933.206	0.0161885
933.284	0.0162725
933.362	0.0163753
933.440	0.0162455
933.518	0.0163217
933.596	0.0162190
933.674	0.0163428
933.753	0.0163243
933.831	0.0163086
933.909	0.0163834
933.987	0.0163033
934.065	0.0162624
934.143	0.0163731
934.221	0.0162920
934.299	0.0163452
934.378	0.0163773
934.456	0.0163369
934.534	0.0163085
934.612	0.0163886
934.690	0.0162350
934.768	0.0161381
934.846	0.0162132
934.924	0.0160791
935.003	0.0161423
935.081	0.0161984
935.159	0.0161845
935.237	0.0163180
935.315	0.0163389
935.393	0.0162207
935.471	0.0161161
935.549	0.0163342
935.628	0.0162783
935.706	0.0162014
935.784	0.0162270
935.862	0.0162010
935.940	0.0162675
936.018	0.0162497
936.096	0.0162940
936.174	0.0161868
936.253	0.0161832
936.331	0.0162482
936.409	0.0162047
936.487	0.0160358
936.565	0.0161377
936.643	0.0161496
936.721	0.0161280
936.799	0.0162746
936.878	0.0162133
936.956	0.0163028
937.034	0.0162795
937.112	0.0161875
937.190	0.0161954
937.268	0.0163170
937.346	0.0161666
937.424	0.0162960
937.503	0.0163055
937.581	0.0163858
937.659	0.0162161
937.737	0.0163958
937.815	0.0165358
937.893	0.0162093
937.971	0.0163609
938.049	0.0163618
938.128	0.0161806
938.206	0.0163964
938.284	0.0163869
938.362	0.0162842
938.440	0.0163192
938.518	0.0163883
938.596	0.0162347
938.674	0.0163682
938.753	0.0162726
938.831	0.0161880
938.909	0.0163002
938.987	0.0162132
939.065	0.0163300
939.143	0.0162965
939.221	0.0162449
939.299	0.0162585
939.378	0.0162679
939.456	0.0162047
939.534	0.0162943
939.612	0.0161643
939.690	0.0161505
939.768	0.0161275
939.846	0.0160444
939.924	0.0161172
940.003	0.0160828
940.081	0.0161176
940.159	0.0160558
940.237	0.0161519
940.315	0.0161816
940.393	0.0161924
940.471	0.0161936
940.549	0.0162771
940.628	0.0162325
940.706	0.0162241
940.784	0.0161828
940.862	0.0162049
940.940	0.0163113
941.018	0.0162650
941.096	0.0162415
941.174	0.0163200
941.253	0.0163319
941.331	0.0161531
941.409	0.0163190
941.487	0.0162385
941.565	0.0161843
941.643	0.0161111
941.721	0.0161468
941.799	0.0162210
941.878	0.0160638
941.956	0.0161994
942.034	0.0162913
942.112	0.0162148
942.190	0.0161483
942.268	0.0162215
942.346	0.0164450
942.424	0.0161630
942.503	0.0163395
942.581	0.0164050
942.659	0.0162338
942.737	0.0163767
942.815	0.0162765
942.893	0.0163869
942.971	0.0163261
943.049	0.0162640
943.128	0.0164462
943.206	0.0162792
943.284	0.0162557
943.362	0.0162785
943.440	0.0164620
943.518	0.0163518
943.596	0.0163069
943.674	0.0164725
943.753	0.0162627
943.831	0.0163538
943.909	0.0164474
943.987	0.0165057
944.065	0.0163110
944.143	0.0161562
944.221	0.0163668
944.299	0.0163921
944.378	0.0163141
944.456	0.0163378
944.534	0.0162485
944.612	0.0162113
944.690	0.0163443
944.768	0.0162908
944.846	0.0162909
944.924	0.0163663
945.003	0.0162254
945.081	0.0163876
945.159	0.0163080
945.237	0.0163785
945.315	0.0162704
945.393	0.0162710
945.471	0.0164226
945.549	0.0163065
945.628	0.0163708
945.706	0.0162123
945.784	0.0163457
945.862	0.0163937
945.940	0.0162432
946.018	0.0163451
946.096	0.0162843
946.174	0.0161168
946.253	0.0161932
946.331	0.0161861
946.409	0.0162824
946.487	0.0162611
946.565	0.0165140
946.643	0.0163576
946.721	0.0162474
946.799	0.0162808
946.878	0.0161800
946.956	0.0162051
947.034	0.0161475
947.112	0.0162952
947.190	0.0163399
947.268	0.0164017
947.346	0.0162081
947.424	0.0161890
947.503	0.0163512
947.581	0.0162475
947.659	0.0161455
947.737	0.0165277
947.815	0.0162107
947.893	0.0163583
947.971	0.0161829
948.049	0.0161111
948.128	0.0163773
948.206	0.0163785
948.284	0.0162289
948.362	0.0162005
948.440	0.0162878
948.518	0.0162059
948.596	0.0161139
948.674	0.0162447
948.753	0.0163387
948.831	0.0163654
948.909	0.0162803
948.987	0.0162907
949.065	0.0164290
949.143	0.0163285
949.221	0.0162758
949.299	0.0163127
949.378	0.0163354
949.456	0.0163892
949.534	0.0162244
949.612	0.0162537
949.690	0.0163412
949.768	0.0163261
949.846	0.0161250
949.924	0.0162741
