05/19/2022	00:48:58	Ver.	4.1	UNKNOWN
Optical Delay	630.002507	Delta X		0.078125	Sweeps	1	Scan Rate	0/0
Coordinates	Axis 1	NaN	Axis 2	NaN	Axis 3	NaN	Axis 4	NaN	Axis 5	NaN	Axis 6	0.000000
TX Power	0.000000	RX Power	0.000000

630.003	0.0154578
630.081	0.0154111
630.159	0.0154057
630.237	0.0154460
630.315	0.0153961
630.393	0.0154040
630.471	0.0152947
630.549	0.0155083
630.628	0.0153210
630.706	0.0152522
630.784	0.0153609
630.862	0.0154387
630.940	0.0154162
631.018	0.0154185
631.096	0.0153634
631.174	0.0153860
631.253	0.0153220
631.331	0.0154033
631.409	0.0153510
631.487	0.0153329
631.565	0.0154075
631.643	0.0153557
631.721	0.0153604
631.799	0.0153201
631.878	0.0153562
631.956	0.0154364
632.034	0.0152538
632.112	0.0152878
632.190	0.0154571
632.268	0.0154575
632.346	0.0153805
632.424	0.0154240
632.503	0.0153156
632.581	0.0153968
632.659	0.0153133
632.737	0.0153540
632.815	0.0153733
632.893	0.0155303
632.971	0.0154448
633.049	0.0153425
633.128	0.0154646
633.206	0.0153452
633.284	0.0154009
633.362	0.0152917
633.440	0.0153000
633.518	0.0154395
633.596	0.0154010
633.674	0.0154691
633.753	0.0155130
633.831	0.0154152
633.909	0.0154410
633.987	0.0153422
634.065	0.0154136
634.143	0.0153705
634.221	0.0154305
634.299	0.0153822
634.378	0.0154643
634.456	0.0155023
634.534	0.0154143
634.612	0.0152613
634.690	0.0154108
634.768	0.0154581
634.846	0.0153256
634.924	0.0154920
635.003	0.0153166
635.081	0.0154330
635.159	0.0153323
635.237	0.0154417
635.315	0.0154430
635.393	0.0152608
635.471	0.0154691
635.549	0.0153139
635.628	0.0153955
635.706	0.0153625
635.784	0.0154963
635.862	0.0153768
635.940	0.0153707
636.018	0.0153433
636.096	0.0154443
636.174	0.0154295
636.253	0.0152949
636.331	0.0154555
636.409	0.0154237
636.487	0.0154247
636.565	0.0156240
636.643	0.0152988
636.721	0.0155154
636.799	0.0153679
636.878	0.0155356
636.956	0.0153680
637.034	0.0154485
637.112	0.0153516
637.190	0.0152618
637.268	0.0154509
637.346	0.0154919
637.424	0.0153704
637.503	0.0153196
637.581	0.0154098
637.659	0.0154777
637.737	0.0154871
637.815	0.0156094
637.893	0.0154477
637.971	0.0155522
638.049	0.0155441
638.128	0.0154401
638.206	0.0155075
638.284	0.0156123
638.362	0.0155313
638.440	0.0155090
638.518	0.0155270
638.596	0.0154945
638.674	0.0154314
638.753	0.0154176
638.831	0.0154187
638.909	0.0156692
638.987	0.0156092
639.065	0.0155547
639.143	0.0155896
639.221	0.0155177
639.299	0.0155287
639.378	0.0155440
639.456	0.0154662
639.534	0.0156582
639.612	0.0156736
639.690	0.0155743
639.768	0.0155666
639.846	0.0155888
639.924	0.0155528
640.003	0.0156393
640.081	0.0156404
640.159	0.0154945
640.237	0.0155940
640.315	0.0155182
640.393	0.0156078
640.471	0.0156689
640.549	0.0156280
640.628	0.0156802
640.706	0.0155170
640.784	0.0154642
640.862	0.0156134
640.940	0.0155835
641.018	0.0155006
641.096	0.0156516
641.174	0.0156287
641.253	0.0157227
641.331	0.0156614
641.409	0.0155621
641.487	0.0154696
641.565	0.0155305
641.643	0.0156889
641.721	0.0155386
641.799	0.0156173
641.878	0.0155699
641.956	0.0156110
642.034	0.0156029
642.112	0.0154757
642.190	0.0155486
642.268	0.0155990
642.346	0.0156507
642.424	0.0155455
642.503	0.0156171
642.581	0.0156682
642.659	0.0154597
642.737	0.0154871
642.815	0.0156028
642.893	0.0155884
642.971	0.0154877
643.049	0.0156248
643.128	0.0155129
643.206	0.0155476
643.284	0.0154846
643.362	0.0155613
643.440	0.0156263
643.518	0.0155284
643.596	0.0155388
643.674	0.0155562
643.753	0.0156434
643.831	0.0155337
643.909	0.0155870
643.987	0.0155415
644.065	0.0155943
644.143	0.0155037
644.221	0.0154126
644.299	0.0155269
644.378	0.0155518
644.456	0.0155583
644.534	0.0154343
644.612	0.0155814
644.690	0.0156248
644.768	0.0155960
644.846	0.0156499
644.924	0.0156026
645.003	0.0156856
645.081	0.0154520
645.159	0.0155034
645.237	0.0156134
645.315	0.0155479
645.393	0.0155983
645.471	0.0154714
645.549	0.0155478
645.628	0.0155529
645.706	0.0155417
645.784	0.0155596
645.862	0.0155655
645.940	0.0155773
646.018	0.0155521
646.096	0.0154311
646.174	0.0155515
646.253	0.0154815
646.331	0.0156863
646.409	0.0156467
646.487	0.0156052
646.565	0.0155457
646.643	0.0156110
646.721	0.0155870
646.799	0.0155488
646.878	0.0156235
646.956	0.0155566
647.034	0.0157043
647.112	0.0155964
647.190	0.0154955
647.268	0.0154180
647.346	0.0154967
647.424	0.0156806
647.503	0.0154990
647.581	0.0154861
647.659	0.0154234
647.737	0.0154341
647.815	0.0154253
647.893	0.0154519
647.971	0.0156303
648.049	0.0154665
648.128	0.0154121
648.206	0.0154877
648.284	0.0155002
648.362	0.0154274
648.440	0.0155054
648.518	0.0155198
648.596	0.0155527
648.674	0.0156383
648.753	0.0155936
648.831	0.0155674
648.909	0.0155577
648.987	0.0156783
649.065	0.0155234
649.143	0.0154111
649.221	0.0157726
649.299	0.0157214
649.378	0.0155266
649.456	0.0155148
649.534	0.0155167
649.612	0.0154768
649.690	0.0154879
649.768	0.0154305
649.846	0.0156759
649.924	0.0155835
650.003	0.0156690
650.081	0.0155107
650.159	0.0156110
650.237	0.0155838
650.315	0.0155343
650.393	0.0156039
650.471	0.0154825
650.549	0.0156192
650.628	0.0156149
650.706	0.0156184
650.784	0.0157352
650.862	0.0156440
650.940	0.0156567
651.018	0.0155807
651.096	0.0155408
651.174	0.0156439
651.253	0.0156980
651.331	0.0156075
651.409	0.0154468
651.487	0.0155045
651.565	0.0155032
651.643	0.0155878
651.721	0.0156008
651.799	0.0155318
651.878	0.0155390
651.956	0.0155779
652.034	0.0154645
652.112	0.0155279
652.190	0.0155472
652.268	0.0154910
652.346	0.0154204
652.424	0.0155454
652.503	0.0155141
652.581	0.0155302
652.659	0.0155531
652.737	0.0155376
652.815	0.0155244
652.893	0.0154774
652.971	0.0155441
653.049	0.0155428
653.128	0.0155241
653.206	0.0155229
653.284	0.0154809
653.362	0.0156698
653.440	0.0155401
653.518	0.0154182
653.596	0.0155402
653.674	0.0154857
653.753	0.0156463
653.831	0.0154184
653.909	0.0155544
653.987	0.0154173
654.065	0.0154687
654.143	0.0153246
654.221	0.0152921
654.299	0.0154655
654.378	0.0153036
654.456	0.0154417
654.534	0.0153340
654.612	0.0153102
654.690	0.0153122
654.768	0.0152781
654.846	0.0152561
654.924	0.0152721
655.003	0.0153059
655.081	0.0154282
655.159	0.0153383
655.237	0.0153029
655.315	0.0154137
655.393	0.0153961
655.471	0.0152614
655.549	0.0152252
655.628	0.0155129
655.706	0.0153693
655.784	0.0152682
655.862	0.0152861
655.940	0.0152544
656.018	0.0153239
656.096	0.0154321
656.174	0.0153343
656.253	0.0152875
656.331	0.0153069
656.409	0.0151362
656.487	0.0152710
656.565	0.0152761
656.643	0.0151801
656.721	0.0153322
656.799	0.0153590
656.878	0.0154257
656.956	0.0153181
657.034	0.0154718
657.112	0.0155547
657.190	0.0155689
657.268	0.0154607
657.346	0.0155412
657.424	0.0157476
657.503	0.0155675
657.581	0.0155458
657.659	0.0155461
657.737	0.0155455
657.815	0.0155738
657.893	0.0154197
657.971	0.0154572
658.049	0.0156071
658.128	0.0154424
658.206	0.0154809
658.284	0.0154532
658.362	0.0153622
658.440	0.0153762
658.518	0.0155022
658.596	0.0155614
658.674	0.0154321
658.753	0.0155016
658.831	0.0155431
658.909	0.0155093
658.987	0.0155088
659.065	0.0152969
659.143	0.0155173
659.221	0.0154908
659.299	0.0154826
659.378	0.0155187
659.456	0.0154494
659.534	0.0155296
659.612	0.0154723
659.690	0.0153545
659.768	0.0155578
659.846	0.0155379
659.924	0.0155907
660.003	0.0157140
660.081	0.0156673
660.159	0.0155663
660.237	0.0155427
660.315	0.0156291
660.393	0.0155701
660.471	0.0155432
660.549	0.0156108
660.628	0.0154762
660.706	0.0155700
660.784	0.0154694
660.862	0.0154779
660.940	0.0155791
661.018	0.0154397
661.096	0.0153439
661.174	0.0154911
661.253	0.0156493
661.331	0.0155236
661.409	0.0153898
661.487	0.0154823
661.565	0.0156128
661.643	0.0154109
661.721	0.0154859
661.799	0.0154217
661.878	0.0154018
661.956	0.0153655
662.034	0.0155364
662.112	0.0154412
662.190	0.0154218
662.268	0.0153022
662.346	0.0154799
662.424	0.0155138
662.503	0.0154982
662.581	0.0154176
662.659	0.0154088
662.737	0.0153761
662.815	0.0153284
662.893	0.0153041
662.971	0.0154460
663.049	0.0153214
663.128	0.0153680
663.206	0.0152638
663.284	0.0153227
663.362	0.0154245
663.440	0.0152840
663.518	0.0151638
663.596	0.0150995
663.674	0.0154589
663.753	0.0153811
663.831	0.0153167
663.909	0.0153473
663.987	0.0153131
664.065	0.0154170
664.143	0.0153280
664.221	0.0153751
664.299	0.0154626
664.378	0.0154047
664.456	0.0154402
664.534	0.0154192
664.612	0.0154982
664.690	0.0154858
664.768	0.0155486
664.846	0.0156213
664.924	0.0155314
665.003	0.0155076
665.081	0.0155508
665.159	0.0156223
665.237	0.0156126
665.315	0.0155370
665.393	0.0156237
665.471	0.0156012
665.549	0.0154575
665.628	0.0154988
665.706	0.0153788
665.784	0.0155270
665.862	0.0154075
665.940	0.0155179
666.018	0.0156201
666.096	0.0156261
666.174	0.0156615
666.253	0.0155764
666.331	0.0155571
666.409	0.0156433
666.487	0.0155688
666.565	0.0154214
666.643	0.0154352
666.721	0.0155605
666.799	0.0155395
666.878	0.0155737
666.956	0.0154435
667.034	0.0154468
667.112	0.0154115
667.190	0.0156133
667.268	0.0154684
667.346	0.0154379
667.424	0.0155109
667.503	0.0156547
667.581	0.0156429
667.659	0.0155817
667.737	0.0156548
667.815	0.0155572
667.893	0.0155667
667.971	0.0157283
668.049	0.0156909
668.128	0.0156416
668.206	0.0157582
668.284	0.0156419
668.362	0.0156409
668.440	0.0156220
668.518	0.0157414
668.596	0.0155307
668.674	0.0155434
668.753	0.0156650
668.831	0.0156161
668.909	0.0156561
668.987	0.0156310
669.065	0.0154668
669.143	0.0155222
669.221	0.0153622
669.299	0.0154351
669.378	0.0154364
669.456	0.0155634
669.534	0.0154575
669.612	0.0155949
669.690	0.0155756
669.768	0.0155141
669.846	0.0156152
669.924	0.0156055
670.003	0.0155267
670.081	0.0156671
670.159	0.0156509
670.237	0.0155481
670.315	0.0154877
670.393	0.0155770
670.471	0.0155888
670.549	0.0155457
670.628	0.0154813
670.706	0.0155708
670.784	0.0156131
670.862	0.0154338
670.940	0.0154852
671.018	0.0154869
671.096	0.0153956
671.174	0.0155936
671.253	0.0155606
671.331	0.0155482
671.409	0.0156600
671.487	0.0156804
671.565	0.0156214
671.643	0.0155560
671.721	0.0157818
671.799	0.0154874
671.878	0.0154958
671.956	0.0155442
672.034	0.0155162
672.112	0.0155749
672.190	0.0154419
672.268	0.0153676
672.346	0.0155119
672.424	0.0153938
672.503	0.0154372
672.581	0.0152756
672.659	0.0154180
672.737	0.0153259
672.815	0.0152868
672.893	0.0153067
672.971	0.0152560
673.049	0.0152796
673.128	0.0152537
673.206	0.0152238
673.284	0.0152329
673.362	0.0151917
673.440	0.0151803
673.518	0.0153188
673.596	0.0152085
673.674	0.0151212
673.753	0.0152761
673.831	0.0153617
673.909	0.0153769
673.987	0.0154230
674.065	0.0154926
674.143	0.0156197
674.221	0.0156872
674.299	0.0158179
674.378	0.0157652
674.456	0.0158862
674.534	0.0159020
674.612	0.0158485
674.690	0.0157957
674.768	0.0157626
674.846	0.0158344
674.924	0.0155650
675.003	0.0156458
675.081	0.0154457
675.159	0.0154967
675.237	0.0154008
675.315	0.0153154
675.393	0.0153342
675.471	0.0152197
675.549	0.0152177
675.628	0.0151774
675.706	0.0152477
675.784	0.0154698
675.862	0.0154396
675.940	0.0152697
676.018	0.0153580
676.096	0.0155224
676.174	0.0154921
676.253	0.0154163
676.331	0.0154314
676.409	0.0153769
676.487	0.0155035
676.565	0.0153404
676.643	0.0153944
676.721	0.0153910
676.799	0.0152545
676.878	0.0151426
676.956	0.0152168
677.034	0.0152277
677.112	0.0153355
677.190	0.0152265
677.268	0.0152367
677.346	0.0153400
677.424	0.0151996
677.503	0.0152608
677.581	0.0152686
677.659	0.0154803
677.737	0.0154845
677.815	0.0155807
677.893	0.0156799
677.971	0.0157546
678.049	0.0155945
678.128	0.0156770
678.206	0.0158601
678.284	0.0158712
678.362	0.0159531
678.440	0.0158705
678.518	0.0158560
678.596	0.0158520
678.674	0.0158929
678.753	0.0157079
678.831	0.0157024
678.909	0.0155738
678.987	0.0157327
679.065	0.0156400
679.143	0.0155546
679.221	0.0153516
679.299	0.0155241
679.378	0.0154476
679.456	0.0153861
679.534	0.0153712
679.612	0.0154819
679.690	0.0154192
679.768	0.0154007
679.846	0.0155067
679.924	0.0153668
680.003	0.0154016
680.081	0.0153290
680.159	0.0153030
680.237	0.0153834
680.315	0.0154234
680.393	0.0154768
680.471	0.0153795
680.549	0.0155340
680.628	0.0155232
680.706	0.0154559
680.784	0.0154889
680.862	0.0155547
680.940	0.0154544
681.018	0.0154884
681.096	0.0156992
681.174	0.0157260
681.253	0.0157330
681.331	0.0155923
681.409	0.0154987
681.487	0.0157185
681.565	0.0158130
681.643	0.0157411
681.721	0.0157036
681.799	0.0157079
681.878	0.0157394
681.956	0.0156937
682.034	0.0156626
682.112	0.0155982
682.190	0.0154891
682.268	0.0156199
682.346	0.0156516
682.424	0.0155674
682.503	0.0155521
682.581	0.0155180
682.659	0.0154816
682.737	0.0155249
682.815	0.0154808
682.893	0.0154983
682.971	0.0155119
683.049	0.0154922
683.128	0.0154935
683.206	0.0155748
683.284	0.0153857
683.362	0.0155377
683.440	0.0155856
683.518	0.0154111
683.596	0.0153866
683.674	0.0154124
683.753	0.0153442
683.831	0.0153006
683.909	0.0153387
683.987	0.0150911
684.065	0.0151514
684.143	0.0150909
684.221	0.0149372
684.299	0.0149414
684.378	0.0149734
684.456	0.0151031
684.534	0.0150378
684.612	0.0151416
684.690	0.0150176
684.768	0.0150980
684.846	0.0151901
684.924	0.0152848
685.003	0.0154018
685.081	0.0153939
685.159	0.0155407
685.237	0.0155884
685.315	0.0156077
685.393	0.0157212
685.471	0.0157074
685.549	0.0157011
685.628	0.0158903
685.706	0.0158742
685.784	0.0157586
685.862	0.0157848
685.940	0.0157616
686.018	0.0156672
686.096	0.0157202
686.174	0.0155741
686.253	0.0155320
686.331	0.0155906
686.409	0.0156395
686.487	0.0155070
686.565	0.0154900
686.643	0.0153887
686.721	0.0154834
686.799	0.0153041
686.878	0.0152496
686.956	0.0152892
687.034	0.0153043
687.112	0.0153214
687.190	0.0152213
687.268	0.0153488
687.346	0.0153410
687.424	0.0154605
687.503	0.0154453
687.581	0.0153772
687.659	0.0154341
687.737	0.0153396
687.815	0.0154185
687.893	0.0154997
687.971	0.0154144
688.049	0.0155781
688.128	0.0156615
688.206	0.0155412
688.284	0.0155773
688.362	0.0155587
688.440	0.0155095
688.518	0.0155406
688.596	0.0156689
688.674	0.0156666
688.753	0.0156969
688.831	0.0156497
688.909	0.0156018
688.987	0.0156940
689.065	0.0156519
689.143	0.0157590
689.221	0.0156916
689.299	0.0157681
689.378	0.0157123
689.456	0.0157808
689.534	0.0156608
689.612	0.0156898
689.690	0.0156094
689.768	0.0156359
689.846	0.0154763
689.924	0.0154050
690.003	0.0155491
690.081	0.0153810
690.159	0.0154401
690.237	0.0154530
690.315	0.0153489
690.393	0.0154123
690.471	0.0154646
690.549	0.0154678
690.628	0.0154495
690.706	0.0154242
690.784	0.0154172
690.862	0.0154581
690.940	0.0154605
691.018	0.0154176
691.096	0.0155965
691.174	0.0153321
691.253	0.0154057
691.331	0.0154037
691.409	0.0151931
691.487	0.0151991
691.565	0.0152681
691.643	0.0152958
691.721	0.0152154
691.799	0.0151393
691.878	0.0151923
691.956	0.0152477
692.034	0.0152107
692.112	0.0153985
692.190	0.0153263
692.268	0.0155453
692.346	0.0155837
692.424	0.0155006
692.503	0.0155689
692.581	0.0157164
692.659	0.0156484
692.737	0.0156789
692.815	0.0157291
692.893	0.0159412
692.971	0.0158353
693.049	0.0158516
693.128	0.0159889
693.206	0.0158952
693.284	0.0159599
693.362	0.0160359
693.440	0.0159995
693.518	0.0159500
693.596	0.0159300
693.674	0.0158890
693.753	0.0157342
693.831	0.0157047
693.909	0.0155315
693.987	0.0155442
694.065	0.0154802
694.143	0.0154137
694.221	0.0153720
694.299	0.0152084
694.378	0.0151199
694.456	0.0152098
694.534	0.0151064
694.612	0.0152981
694.690	0.0153107
694.768	0.0152131
694.846	0.0152477
694.924	0.0152475
695.003	0.0152447
695.081	0.0153343
695.159	0.0153111
695.237	0.0152274
695.315	0.0153392
695.393	0.0155059
695.471	0.0154328
695.549	0.0155238
695.628	0.0154516
695.706	0.0153869
695.784	0.0155687
695.862	0.0156466
695.940	0.0155119
696.018	0.0155840
696.096	0.0156772
696.174	0.0156558
696.253	0.0156134
696.331	0.0155244
696.409	0.0156596
696.487	0.0158475
696.565	0.0157588
696.643	0.0157170
696.721	0.0156409
696.799	0.0156941
696.878	0.0158611
696.956	0.0156825
697.034	0.0157722
697.112	0.0157866
697.190	0.0156937
697.268	0.0156189
697.346	0.0154671
697.424	0.0155533
697.503	0.0155703
697.581	0.0154669
697.659	0.0153754
697.737	0.0153873
697.815	0.0153477
697.893	0.0152773
697.971	0.0153277
698.049	0.0154584
698.128	0.0154446
698.206	0.0153890
698.284	0.0153201
698.362	0.0154289
698.440	0.0153698
698.518	0.0155005
698.596	0.0154021
698.674	0.0155758
698.753	0.0155802
698.831	0.0156211
698.909	0.0155411
698.987	0.0156358
699.065	0.0157500
699.143	0.0156962
699.221	0.0155876
699.299	0.0156383
699.378	0.0156609
699.456	0.0156566
699.534	0.0157050
699.612	0.0155589
699.690	0.0155180
699.768	0.0155263
699.846	0.0156451
699.924	0.0155627
700.003	0.0153973
700.081	0.0156344
700.159	0.0155610
700.237	0.0156054
700.315	0.0156200
700.393	0.0154192
700.471	0.0155907
700.549	0.0154546
700.628	0.0155622
700.706	0.0155931
700.784	0.0156427
700.862	0.0155956
700.940	0.0155734
701.018	0.0157842
701.096	0.0158292
701.174	0.0156921
701.253	0.0157406
701.331	0.0157270
701.409	0.0156826
701.487	0.0157187
701.565	0.0156589
701.643	0.0155755
701.721	0.0156821
701.799	0.0155717
701.878	0.0156228
701.956	0.0155363
702.034	0.0155029
702.112	0.0155511
702.190	0.0154932
702.268	0.0154631
702.346	0.0155538
702.424	0.0154822
702.503	0.0155062
702.581	0.0155253
702.659	0.0156220
702.737	0.0156773
702.815	0.0157309
702.893	0.0156539
702.971	0.0156669
703.049	0.0155533
703.128	0.0156378
703.206	0.0156953
703.284	0.0157250
703.362	0.0156953
703.440	0.0156259
703.518	0.0156372
703.596	0.0157151
703.674	0.0155805
703.753	0.0156224
703.831	0.0156207
703.909	0.0157196
703.987	0.0157278
704.065	0.0157961
704.143	0.0156097
704.221	0.0155846
704.299	0.0155934
704.378	0.0156686
704.456	0.0155983
704.534	0.0156345
704.612	0.0155847
704.690	0.0155343
704.768	0.0155594
704.846	0.0154248
704.924	0.0154095
705.003	0.0154221
705.081	0.0153044
705.159	0.0152635
705.237	0.0153201
705.315	0.0151682
705.393	0.0151905
705.471	0.0152389
705.549	0.0151746
705.628	0.0151411
705.706	0.0150541
705.784	0.0150142
705.862	0.0151349
705.940	0.0151669
706.018	0.0152175
706.096	0.0152151
706.174	0.0152734
706.253	0.0153079
706.331	0.0153104
706.409	0.0152790
706.487	0.0152283
706.565	0.0152692
706.643	0.0152460
706.721	0.0153882
706.799	0.0152987
706.878	0.0152563
706.956	0.0154100
707.034	0.0155027
707.112	0.0155997
707.190	0.0156359
707.268	0.0156726
707.346	0.0156080
707.424	0.0156541
707.503	0.0157954
707.581	0.0158392
707.659	0.0157996
707.737	0.0158255
707.815	0.0157661
707.893	0.0158322
707.971	0.0158007
708.049	0.0157638
708.128	0.0158327
708.206	0.0159212
708.284	0.0159771
708.362	0.0159538
708.440	0.0159048
708.518	0.0159018
708.596	0.0158485
708.674	0.0159368
708.753	0.0160442
708.831	0.0157819
708.909	0.0157620
708.987	0.0158080
709.065	0.0159203
709.143	0.0156869
709.221	0.0157455
709.299	0.0156926
709.378	0.0156973
709.456	0.0156022
709.534	0.0157249
709.612	0.0153355
709.690	0.0153968
709.768	0.0153562
709.846	0.0153532
709.924	0.0153137
710.003	0.0153381
710.081	0.0153001
710.159	0.0151904
710.237	0.0151865
710.315	0.0152456
710.393	0.0151930
710.471	0.0153070
710.549	0.0152715
710.628	0.0153206
710.706	0.0152675
710.784	0.0151292
710.862	0.0152440
710.940	0.0151825
711.018	0.0152625
711.096	0.0151818
711.174	0.0151291
711.253	0.0151244
711.331	0.0150835
711.409	0.0151205
711.487	0.0149150
711.565	0.0150047
711.643	0.0149825
711.721	0.0150051
711.799	0.0149522
711.878	0.0148586
711.956	0.0148957
712.034	0.0150280
712.112	0.0149384
712.190	0.0151752
712.268	0.0151223
712.346	0.0153443
712.424	0.0151254
712.503	0.0152625
712.581	0.0152963
712.659	0.0153664
712.737	0.0154069
712.815	0.0154754
712.893	0.0154290
712.971	0.0155291
713.049	0.0155102
713.128	0.0156155
713.206	0.0155545
713.284	0.0155590
713.362	0.0156112
713.440	0.0157301
713.518	0.0158789
713.596	0.0156575
713.674	0.0155792
713.753	0.0157358
713.831	0.0157227
713.909	0.0159142
713.987	0.0158378
714.065	0.0158990
714.143	0.0157997
714.221	0.0160252
714.299	0.0158930
714.378	0.0159460
714.456	0.0159209
714.534	0.0159467
714.612	0.0158690
714.690	0.0158045
714.768	0.0158785
714.846	0.0158366
714.924	0.0158223
715.003	0.0158579
715.081	0.0158260
715.159	0.0157542
715.237	0.0157170
715.315	0.0158360
715.393	0.0158311
715.471	0.0156885
715.549	0.0156490
715.628	0.0156674
715.706	0.0159229
715.784	0.0156648
715.862	0.0156160
715.940	0.0157337
716.018	0.0157001
716.096	0.0156371
716.174	0.0155222
716.253	0.0154563
716.331	0.0155827
716.409	0.0154933
716.487	0.0156554
716.565	0.0153934
716.643	0.0154385
716.721	0.0154278
716.799	0.0155164
716.878	0.0153871
716.956	0.0155436
717.034	0.0155475
717.112	0.0154205
717.190	0.0154199
717.268	0.0153038
717.346	0.0153480
717.424	0.0152071
717.503	0.0152274
717.581	0.0151861
717.659	0.0151936
717.737	0.0151514
717.815	0.0151234
717.893	0.0152502
717.971	0.0151725
718.049	0.0151093
718.128	0.0150987
718.206	0.0151377
718.284	0.0151689
718.362	0.0151567
718.440	0.0151287
718.518	0.0152068
718.596	0.0151258
718.674	0.0153162
718.753	0.0151931
718.831	0.0152697
718.909	0.0153415
718.987	0.0153500
719.065	0.0152769
719.143	0.0152940
719.221	0.0153206
719.299	0.0152334
719.378	0.0154509
719.456	0.0153178
719.534	0.0153427
719.612	0.0155469
719.690	0.0154043
719.768	0.0154443
719.846	0.0156048
719.924	0.0155966
720.003	0.0155157
720.081	0.0155456
720.159	0.0156541
720.237	0.0156532
720.315	0.0156835
720.393	0.0157307
720.471	0.0159340
720.549	0.0157761
720.628	0.0158866
720.706	0.0158772
720.784	0.0159496
720.862	0.0158954
720.940	0.0156604
721.018	0.0157914
721.096	0.0156740
721.174	0.0157842
721.253	0.0157438
721.331	0.0158182
721.409	0.0158383
721.487	0.0159467
721.565	0.0159483
721.643	0.0158468
721.721	0.0159041
721.799	0.0160183
721.878	0.0159688
721.956	0.0159174
722.034	0.0160198
722.112	0.0160506
722.190	0.0159280
722.268	0.0159736
722.346	0.0159834
722.424	0.0159049
722.503	0.0158818
722.581	0.0159686
722.659	0.0157772
722.737	0.0158906
722.815	0.0158324
722.893	0.0157716
722.971	0.0157861
723.049	0.0157441
723.128	0.0155441
723.206	0.0155164
723.284	0.0153613
723.362	0.0154892
723.440	0.0155095
723.518	0.0153057
723.596	0.0152733
723.674	0.0153767
723.753	0.0154781
723.831	0.0155509
723.909	0.0153724
723.987	0.0153509
724.065	0.0153088
724.143	0.0151519
724.221	0.0152032
724.299	0.0151577
724.378	0.0153334
724.456	0.0153219
724.534	0.0151836
724.612	0.0151824
724.690	0.0152323
724.768	0.0152840
724.846	0.0152303
724.924	0.0149730
725.003	0.0150461
725.081	0.0152056
725.159	0.0150610
725.237	0.0151167
725.315	0.0151910
725.393	0.0151688
725.471	0.0152261
725.549	0.0150443
725.628	0.0151969
725.706	0.0151610
725.784	0.0153323
725.862	0.0150463
725.940	0.0153126
726.018	0.0152497
726.096	0.0153349
726.174	0.0152779
726.253	0.0152257
726.331	0.0154160
726.409	0.0152782
726.487	0.0153725
726.565	0.0155188
726.643	0.0154564
726.721	0.0153715
726.799	0.0153346
726.878	0.0153391
726.956	0.0154033
727.034	0.0154333
727.112	0.0154752
727.190	0.0155412
727.268	0.0155865
727.346	0.0156442
727.424	0.0155559
727.503	0.0156007
727.581	0.0156317
727.659	0.0156506
727.737	0.0157748
727.815	0.0157035
727.893	0.0158517
727.971	0.0158459
728.049	0.0157921
728.128	0.0157665
728.206	0.0160528
728.284	0.0159140
728.362	0.0157990
728.440	0.0159092
728.518	0.0159512
728.596	0.0156779
728.674	0.0156915
728.753	0.0158295
728.831	0.0157881
728.909	0.0157077
728.987	0.0158532
729.065	0.0158734
729.143	0.0157888
729.221	0.0158278
729.299	0.0157832
729.378	0.0158773
729.456	0.0157745
729.534	0.0157681
729.612	0.0157711
729.690	0.0157217
729.768	0.0158072
729.846	0.0156653
729.924	0.0155682
730.003	0.0157153
730.081	0.0155774
730.159	0.0154205
730.237	0.0154142
730.315	0.0153754
730.393	0.0153656
730.471	0.0154504
730.549	0.0152799
730.628	0.0153712
730.706	0.0152274
730.784	0.0153604
730.862	0.0155431
730.940	0.0153626
731.018	0.0153604
731.096	0.0151517
731.174	0.0152116
731.253	0.0153967
731.331	0.0153329
731.409	0.0153236
731.487	0.0154395
731.565	0.0152998
731.643	0.0152982
731.721	0.0153068
731.799	0.0151540
731.878	0.0150997
731.956	0.0151567
732.034	0.0150550
732.112	0.0150670
732.190	0.0151859
732.268	0.0150205
732.346	0.0151113
732.424	0.0149060
732.503	0.0149675
732.581	0.0151196
732.659	0.0150699
732.737	0.0150297
732.815	0.0148730
732.893	0.0148485
732.971	0.0149474
733.049	0.0150739
733.128	0.0149358
733.206	0.0149741
733.284	0.0150875
733.362	0.0149840
733.440	0.0150892
733.518	0.0152671
733.596	0.0149883
733.674	0.0152329
733.753	0.0153145
733.831	0.0152712
733.909	0.0152384
733.987	0.0153675
734.065	0.0155608
734.143	0.0155194
734.221	0.0156564
734.299	0.0156892
734.378	0.0156363
734.456	0.0155507
734.534	0.0156390
734.612	0.0157067
734.690	0.0157310
734.768	0.0157586
734.846	0.0156895
734.924	0.0156242
735.003	0.0157300
735.081	0.0157397
735.159	0.0156534
735.237	0.0158114
735.315	0.0157079
735.393	0.0157212
735.471	0.0157272
735.549	0.0159267
735.628	0.0157905
735.706	0.0157899
735.784	0.0158237
735.862	0.0157918
735.940	0.0157574
736.018	0.0159000
736.096	0.0157767
736.174	0.0157140
736.253	0.0158775
736.331	0.0158618
736.409	0.0157669
736.487	0.0156779
736.565	0.0158811
736.643	0.0156538
736.721	0.0157077
736.799	0.0156825
736.878	0.0156956
736.956	0.0157325
737.034	0.0157088
737.112	0.0156082
737.190	0.0157014
737.268	0.0155442
737.346	0.0154742
737.424	0.0156171
737.503	0.0155653
737.581	0.0155107
737.659	0.0154823
737.737	0.0154051
737.815	0.0153006
737.893	0.0154127
737.971	0.0153366
738.049	0.0152129
738.128	0.0151964
738.206	0.0151804
738.284	0.0152734
738.362	0.0151350
738.440	0.0151841
738.518	0.0151228
738.596	0.0152829
738.674	0.0151395
738.753	0.0152018
738.831	0.0152991
738.909	0.0152635
738.987	0.0153432
739.065	0.0152689
739.143	0.0151639
739.221	0.0151694
739.299	0.0151875
739.378	0.0151384
739.456	0.0151453
739.534	0.0150571
739.612	0.0151309
739.690	0.0150909
739.768	0.0150591
739.846	0.0151121
739.924	0.0152121
740.003	0.0152099
740.081	0.0151854
740.159	0.0151934
740.237	0.0153030
740.315	0.0153794
740.393	0.0152122
740.471	0.0152287
740.549	0.0153188
740.628	0.0152835
740.706	0.0153844
740.784	0.0154536
740.862	0.0153368
740.940	0.0153263
741.018	0.0154942
741.096	0.0154576
741.174	0.0153810
741.253	0.0154359
741.331	0.0154624
741.409	0.0155460
741.487	0.0157328
741.565	0.0156420
741.643	0.0156534
741.721	0.0157795
741.799	0.0158459
741.878	0.0157827
741.956	0.0158517
742.034	0.0158037
742.112	0.0157726
742.190	0.0158677
742.268	0.0158434
742.346	0.0159132
742.424	0.0157333
742.503	0.0157806
742.581	0.0157551
742.659	0.0157428
742.737	0.0156049
742.815	0.0156765
742.893	0.0157471
742.971	0.0157563
743.049	0.0158731
743.128	0.0158118
743.206	0.0157117
743.284	0.0156631
743.362	0.0159513
743.440	0.0159473
743.518	0.0158933
743.596	0.0158170
743.674	0.0157652
743.753	0.0158706
743.831	0.0157592
743.909	0.0158813
743.987	0.0157912
744.065	0.0157603
744.143	0.0158134
744.221	0.0160297
744.299	0.0156489
744.378	0.0157217
744.456	0.0156720
744.534	0.0156768
744.612	0.0155048
744.690	0.0156290
744.768	0.0155507
744.846	0.0156266
744.924	0.0155387
745.003	0.0155715
745.081	0.0156436
745.159	0.0154906
745.237	0.0155611
745.315	0.0155350
745.393	0.0155452
745.471	0.0154686
745.549	0.0154375
745.628	0.0155276
745.706	0.0154436
745.784	0.0155116
745.862	0.0153432
745.940	0.0154152
746.018	0.0155367
746.096	0.0154051
746.174	0.0154362
746.253	0.0153409
746.331	0.0153778
746.409	0.0153249
746.487	0.0153824
746.565	0.0153313
746.643	0.0152424
746.721	0.0153086
746.799	0.0153708
746.878	0.0152236
746.956	0.0151587
747.034	0.0151411
747.112	0.0153091
747.190	0.0152458
747.268	0.0152670
747.346	0.0151667
747.424	0.0151832
747.503	0.0150929
747.581	0.0151606
747.659	0.0153143
747.737	0.0152808
747.815	0.0153407
747.893	0.0155314
747.971	0.0153560
748.049	0.0153168
748.128	0.0152628
748.206	0.0153455
748.284	0.0154105
748.362	0.0154709
748.440	0.0154324
748.518	0.0152617
748.596	0.0155454
748.674	0.0153694
748.753	0.0154665
748.831	0.0155841
748.909	0.0154590
748.987	0.0156059
749.065	0.0155846
749.143	0.0155684
749.221	0.0156702
749.299	0.0156761
749.378	0.0155463
749.456	0.0157261
749.534	0.0157767
749.612	0.0157772
749.690	0.0156407
749.768	0.0156882
749.846	0.0156585
749.924	0.0157127
750.003	0.0156879
750.081	0.0156534
750.159	0.0157292
750.237	0.0157421
750.315	0.0156532
750.393	0.0156235
750.471	0.0155184
750.549	0.0156015
750.628	0.0153898
750.706	0.0156149
750.784	0.0155993
750.862	0.0155718
750.940	0.0157049
751.018	0.0156104
751.096	0.0156304
751.174	0.0155703
751.253	0.0155481
751.331	0.0155936
751.409	0.0155676
751.487	0.0157855
751.565	0.0156113
751.643	0.0156437
751.721	0.0157092
751.799	0.0157030
751.878	0.0155835
751.956	0.0156239
752.034	0.0155850
752.112	0.0156168
752.190	0.0154961
752.268	0.0154768
752.346	0.0154852
752.424	0.0155705
752.503	0.0154517
752.581	0.0154763
752.659	0.0154932
752.737	0.0154533
752.815	0.0153677
752.893	0.0153897
752.971	0.0155009
753.049	0.0152062
753.128	0.0154160
753.206	0.0154470
753.284	0.0153624
753.362	0.0154278
753.440	0.0152266
753.518	0.0153109
753.596	0.0153011
753.674	0.0152997
753.753	0.0152586
753.831	0.0152220
753.909	0.0153220
753.987	0.0152843
754.065	0.0152869
754.143	0.0152684
754.221	0.0152477
754.299	0.0152681
754.378	0.0152393
754.456	0.0151596
754.534	0.0151692
754.612	0.0153692
754.690	0.0153768
754.768	0.0153888
754.846	0.0153756
754.924	0.0152604
755.003	0.0153274
755.081	0.0153391
755.159	0.0153742
755.237	0.0153360
755.315	0.0153902
755.393	0.0153648
755.471	0.0151693
755.549	0.0152801
755.628	0.0151544
755.706	0.0152808
755.784	0.0153969
755.862	0.0153445
755.940	0.0153310
756.018	0.0153638
756.096	0.0155637
756.174	0.0154840
756.253	0.0155616
756.331	0.0155128
756.409	0.0154548
756.487	0.0154498
756.565	0.0154961
756.643	0.0155535
756.721	0.0156146
756.799	0.0156935
756.878	0.0155180
756.956	0.0154819
757.034	0.0155644
757.112	0.0155722
757.190	0.0156521
757.268	0.0157841
757.346	0.0156592
757.424	0.0155006
757.503	0.0157462
757.581	0.0158133
757.659	0.0157288
757.737	0.0157531
757.815	0.0157276
757.893	0.0157105
757.971	0.0158043
758.049	0.0158588
758.128	0.0158904
758.206	0.0156543
758.284	0.0158144
758.362	0.0156805
758.440	0.0156638
758.518	0.0157506
758.596	0.0158031
758.674	0.0156274
758.753	0.0157049
758.831	0.0157786
758.909	0.0157985
758.987	0.0155514
759.065	0.0156169
759.143	0.0154879
759.221	0.0155721
759.299	0.0157564
759.378	0.0156632
759.456	0.0157577
759.534	0.0157537
759.612	0.0156731
759.690	0.0156120
759.768	0.0155654
759.846	0.0154875
759.924	0.0155177
760.003	0.0155658
760.081	0.0155946
760.159	0.0153873
760.237	0.0153291
760.315	0.0154466
760.393	0.0154145
760.471	0.0153841
760.549	0.0152790
760.628	0.0153395
760.706	0.0154346
760.784	0.0154140
760.862	0.0153465
760.940	0.0154750
761.018	0.0153876
761.096	0.0153209
761.174	0.0154202
761.253	0.0154183
761.331	0.0153684
761.409	0.0154626
761.487	0.0155551
761.565	0.0152525
761.643	0.0152511
761.721	0.0153398
761.799	0.0154660
761.878	0.0154089
761.956	0.0152307
762.034	0.0152934
762.112	0.0152963
762.190	0.0152846
762.268	0.0152761
762.346	0.0152984
762.424	0.0153687
762.503	0.0154394
762.581	0.0152596
762.659	0.0155112
762.737	0.0156160
762.815	0.0154235
762.893	0.0153391
762.971	0.0154565
763.049	0.0153398
763.128	0.0154681
763.206	0.0153465
763.284	0.0153036
763.362	0.0153977
763.440	0.0154056
763.518	0.0153487
763.596	0.0154097
763.674	0.0155765
763.753	0.0155128
763.831	0.0156353
763.909	0.0154251
763.987	0.0156010
764.065	0.0155919
764.143	0.0155684
764.221	0.0154891
764.299	0.0156283
764.378	0.0156958
764.456	0.0157705
764.534	0.0157666
764.612	0.0155463
764.690	0.0156688
764.768	0.0155783
764.846	0.0157255
764.924	0.0157478
765.003	0.0156345
765.081	0.0156735
765.159	0.0156081
765.237	0.0157349
765.315	0.0155850
765.393	0.0157400
765.471	0.0158091
765.549	0.0157061
765.628	0.0156630
765.706	0.0155247
765.784	0.0157175
765.862	0.0156113
765.940	0.0157657
766.018	0.0156155
766.096	0.0156480
766.174	0.0156153
766.253	0.0158089
766.331	0.0158247
766.409	0.0157095
766.487	0.0156434
766.565	0.0156544
766.643	0.0155865
766.721	0.0157094
766.799	0.0156863
766.878	0.0157079
766.956	0.0155151
767.034	0.0155531
767.112	0.0155870
767.190	0.0154665
767.268	0.0155267
767.346	0.0155365
767.424	0.0155927
767.503	0.0155006
767.581	0.0155033
767.659	0.0155114
767.737	0.0155446
767.815	0.0157041
767.893	0.0154832
767.971	0.0155381
768.049	0.0154016
768.128	0.0153152
768.206	0.0155260
768.284	0.0154874
768.362	0.0155061
768.440	0.0154614
768.518	0.0154051
768.596	0.0151484
768.674	0.0155035
768.753	0.0154232
768.831	0.0153405
768.909	0.0154517
768.987	0.0153731
769.065	0.0154850
769.143	0.0153627
769.221	0.0154340
769.299	0.0154185
769.378	0.0154607
769.456	0.0154816
769.534	0.0153958
769.612	0.0153137
769.690	0.0154969
769.768	0.0155735
769.846	0.0152912
769.924	0.0154199
770.003	0.0155362
770.081	0.0152803
770.159	0.0153978
770.237	0.0152634
770.315	0.0153128
770.393	0.0152900
770.471	0.0154455
770.549	0.0155260
770.628	0.0152554
770.706	0.0153660
770.784	0.0155151
770.862	0.0155555
770.940	0.0153873
771.018	0.0154512
771.096	0.0154248
771.174	0.0154378
771.253	0.0153752
771.331	0.0153412
771.409	0.0154654
771.487	0.0153788
771.565	0.0154021
771.643	0.0154595
771.721	0.0155047
771.799	0.0155528
771.878	0.0155444
771.956	0.0155634
772.034	0.0156233
772.112	0.0156960
772.190	0.0155435
772.268	0.0155801
772.346	0.0156863
772.424	0.0157404
772.503	0.0155845
772.581	0.0155328
772.659	0.0154887
772.737	0.0155921
772.815	0.0156432
772.893	0.0155335
772.971	0.0155601
773.049	0.0155627
773.128	0.0154549
773.206	0.0157050
773.284	0.0155772
773.362	0.0155372
773.440	0.0156206
773.518	0.0156420
773.596	0.0156242
773.674	0.0157320
773.753	0.0156931
773.831	0.0156402
773.909	0.0156748
773.987	0.0156775
774.065	0.0155543
774.143	0.0155952
774.221	0.0156349
774.299	0.0155987
774.378	0.0155968
774.456	0.0154371
774.534	0.0155117
774.612	0.0156844
774.690	0.0155001
774.768	0.0154550
774.846	0.0153790
774.924	0.0154953
775.003	0.0154121
775.081	0.0152801
775.159	0.0152930
775.237	0.0152788
775.315	0.0152718
775.393	0.0154098
775.471	0.0153188
775.549	0.0153373
775.628	0.0153401
775.706	0.0152216
775.784	0.0153802
775.862	0.0153012
775.940	0.0153664
776.018	0.0154279
776.096	0.0154471
776.174	0.0155341
776.253	0.0155231
776.331	0.0154364
776.409	0.0152191
776.487	0.0152991
776.565	0.0154152
776.643	0.0154232
776.721	0.0154203
776.799	0.0153252
776.878	0.0153076
776.956	0.0153740
777.034	0.0154743
777.112	0.0154874
777.190	0.0153891
777.268	0.0153538
777.346	0.0155108
777.424	0.0155242
777.503	0.0154135
777.581	0.0155306
777.659	0.0155928
777.737	0.0155042
777.815	0.0154908
777.893	0.0153541
777.971	0.0154987
778.049	0.0154211
778.128	0.0154256
778.206	0.0154836
778.284	0.0154409
778.362	0.0155116
778.440	0.0154736
778.518	0.0154600
778.596	0.0154992
778.674	0.0154871
778.753	0.0155875
778.831	0.0154951
778.909	0.0154244
778.987	0.0156216
779.065	0.0156088
779.143	0.0155488
779.221	0.0155176
779.299	0.0155961
779.378	0.0154865
779.456	0.0155975
779.534	0.0154070
779.612	0.0154929
779.690	0.0155109
779.768	0.0155297
779.846	0.0155941
779.924	0.0155115
780.003	0.0155903
780.081	0.0156385
780.159	0.0156565
780.237	0.0157911
780.315	0.0155716
780.393	0.0157071
780.471	0.0156715
780.549	0.0155935
780.628	0.0156533
780.706	0.0158197
780.784	0.0157301
780.862	0.0156856
780.940	0.0155880
781.018	0.0156154
781.096	0.0156721
781.174	0.0155786
781.253	0.0155964
781.331	0.0155976
781.409	0.0155997
781.487	0.0155334
781.565	0.0156185
781.643	0.0155829
781.721	0.0155836
781.799	0.0157212
781.878	0.0156664
781.956	0.0155932
782.034	0.0155875
782.112	0.0156630
782.190	0.0154893
782.268	0.0155862
782.346	0.0156406
782.424	0.0155115
782.503	0.0155457
782.581	0.0156017
782.659	0.0154855
782.737	0.0154861
782.815	0.0154269
782.893	0.0154480
782.971	0.0154873
783.049	0.0155114
783.128	0.0154076
783.206	0.0154034
783.284	0.0155264
783.362	0.0155882
783.440	0.0154865
783.518	0.0155342
783.596	0.0155439
783.674	0.0156969
783.753	0.0156635
783.831	0.0157058
783.909	0.0156361
783.987	0.0156155
784.065	0.0155469
784.143	0.0157494
784.221	0.0155937
784.299	0.0156221
784.378	0.0156704
784.456	0.0155670
784.534	0.0153944
784.612	0.0155713
784.690	0.0154420
784.768	0.0154601
784.846	0.0154305
784.924	0.0154994
785.003	0.0154547
785.081	0.0155109
785.159	0.0154417
785.237	0.0153575
785.315	0.0155711
785.393	0.0155840
785.471	0.0155551
785.549	0.0155087
785.628	0.0154694
785.706	0.0154615
785.784	0.0154939
785.862	0.0155245
785.940	0.0155171
786.018	0.0153952
786.096	0.0154742
786.174	0.0154415
786.253	0.0153205
786.331	0.0152820
786.409	0.0153058
786.487	0.0153728
786.565	0.0153329
786.643	0.0153759
786.721	0.0152929
786.799	0.0153082
786.878	0.0154233
786.956	0.0154479
787.034	0.0154324
787.112	0.0153320
787.190	0.0155286
787.268	0.0154781
787.346	0.0154001
787.424	0.0155102
787.503	0.0154600
787.581	0.0154400
787.659	0.0154169
787.737	0.0153337
787.815	0.0153952
787.893	0.0154508
787.971	0.0156087
788.049	0.0154430
788.128	0.0156029
788.206	0.0156068
788.284	0.0154604
788.362	0.0155431
788.440	0.0155080
788.518	0.0155394
788.596	0.0154688
788.674	0.0155085
788.753	0.0156304
788.831	0.0154566
788.909	0.0155212
788.987	0.0156251
789.065	0.0156671
789.143	0.0154543
789.221	0.0155286
789.299	0.0155846
789.378	0.0156345
789.456	0.0155666
789.534	0.0155135
789.612	0.0156293
789.690	0.0156084
789.768	0.0156574
789.846	0.0155898
789.924	0.0155795
790.003	0.0155321
790.081	0.0156083
790.159	0.0156898
790.237	0.0155526
790.315	0.0154954
790.393	0.0154510
790.471	0.0154642
790.549	0.0154031
790.628	0.0153885
790.706	0.0155360
790.784	0.0154694
790.862	0.0153857
790.940	0.0155030
791.018	0.0154053
791.096	0.0153580
791.174	0.0154274
791.253	0.0154333
791.331	0.0153613
791.409	0.0153756
791.487	0.0154000
791.565	0.0154221
791.643	0.0155514
791.721	0.0153891
791.799	0.0154364
791.878	0.0155183
791.956	0.0154327
792.034	0.0155730
792.112	0.0154817
792.190	0.0153991
792.268	0.0155623
792.346	0.0153929
792.424	0.0154287
792.503	0.0155254
792.581	0.0155044
792.659	0.0155734
792.737	0.0155317
792.815	0.0154857
792.893	0.0154994
792.971	0.0155132
793.049	0.0156364
793.128	0.0154535
793.206	0.0155389
793.284	0.0154048
793.362	0.0156214
793.440	0.0155457
793.518	0.0154872
793.596	0.0156903
793.674	0.0157156
793.753	0.0155331
793.831	0.0154462
793.909	0.0154947
793.987	0.0155268
794.065	0.0156012
794.143	0.0153981
794.221	0.0155204
794.299	0.0155050
794.378	0.0156224
794.456	0.0153323
794.534	0.0153708
794.612	0.0153867
794.690	0.0155222
794.768	0.0154881
794.846	0.0154680
794.924	0.0154571
795.003	0.0154222
795.081	0.0154458
795.159	0.0155379
795.237	0.0155132
795.315	0.0154867
795.393	0.0155772
795.471	0.0154308
795.549	0.0155305
795.628	0.0154620
795.706	0.0155869
795.784	0.0154974
795.862	0.0153722
795.940	0.0154883
796.018	0.0154877
796.096	0.0154019
796.174	0.0153699
796.253	0.0154076
796.331	0.0154784
796.409	0.0155181
796.487	0.0156186
796.565	0.0155554
796.643	0.0156463
796.721	0.0156916
796.799	0.0155453
796.878	0.0157323
796.956	0.0155619
797.034	0.0155711
797.112	0.0155351
797.190	0.0155869
797.268	0.0155051
797.346	0.0155761
797.424	0.0155647
797.503	0.0154871
797.581	0.0154729
797.659	0.0155064
797.737	0.0155625
797.815	0.0155156
797.893	0.0155220
797.971	0.0154958
798.049	0.0155019
798.128	0.0154276
798.206	0.0154935
798.284	0.0155904
798.362	0.0154110
798.440	0.0154245
798.518	0.0153942
798.596	0.0154212
798.674	0.0154782
798.753	0.0153501
798.831	0.0153236
798.909	0.0153809
798.987	0.0153737
799.065	0.0155465
799.143	0.0154681
799.221	0.0154314
799.299	0.0153945
799.378	0.0156059
799.456	0.0155595
799.534	0.0154220
799.612	0.0155419
799.690	0.0154237
799.768	0.0154757
799.846	0.0154581
799.924	0.0154996
800.003	0.0155392
800.081	0.0155092
800.159	0.0156124
800.237	0.0156155
800.315	0.0155964
800.393	0.0155041
800.471	0.0156848
800.549	0.0155583
800.628	0.0154111
800.706	0.0155796
800.784	0.0155675
800.862	0.0156349
800.940	0.0155326
801.018	0.0158558
801.096	0.0156949
801.174	0.0155298
801.253	0.0156091
801.331	0.0155370
801.409	0.0156906
801.487	0.0156043
801.565	0.0156208
801.643	0.0156628
801.721	0.0156151
801.799	0.0155999
801.878	0.0155994
801.956	0.0155893
802.034	0.0156967
802.112	0.0156366
802.190	0.0154771
802.268	0.0157236
802.346	0.0157820
802.424	0.0155957
802.503	0.0154180
802.581	0.0156150
802.659	0.0156724
802.737	0.0156753
802.815	0.0155222
802.893	0.0155345
802.971	0.0154259
803.049	0.0155657
803.128	0.0154819
803.206	0.0156165
803.284	0.0155830
803.362	0.0156064
803.440	0.0155758
803.518	0.0156029
803.596	0.0155282
803.674	0.0157259
803.753	0.0154900
803.831	0.0155589
803.909	0.0155639
803.987	0.0155340
804.065	0.0155121
804.143	0.0154447
804.221	0.0155721
804.299	0.0156741
804.378	0.0153848
804.456	0.0154405
804.534	0.0155587
804.612	0.0155393
804.690	0.0153981
804.768	0.0155857
804.846	0.0155288
804.924	0.0155523
805.003	0.0155141
805.081	0.0154791
805.159	0.0152956
805.237	0.0156580
805.315	0.0154841
805.393	0.0154263
805.471	0.0157051
805.549	0.0155088
805.628	0.0154507
805.706	0.0155024
805.784	0.0155412
805.862	0.0154989
805.940	0.0154437
806.018	0.0153319
806.096	0.0154895
806.174	0.0154086
806.253	0.0153547
806.331	0.0154598
806.409	0.0153732
806.487	0.0154472
806.565	0.0154816
806.643	0.0155466
806.721	0.0154961
806.799	0.0155685
806.878	0.0154965
806.956	0.0155224
807.034	0.0155710
807.112	0.0154604
807.190	0.0155564
807.268	0.0157126
807.346	0.0156811
807.424	0.0155192
807.503	0.0156214
807.581	0.0155663
807.659	0.0156566
807.737	0.0154668
807.815	0.0156317
807.893	0.0154777
807.971	0.0155466
808.049	0.0156322
808.128	0.0155534
808.206	0.0156629
808.284	0.0156919
808.362	0.0155676
808.440	0.0154655
808.518	0.0155643
808.596	0.0156306
808.674	0.0154710
808.753	0.0156229
808.831	0.0156219
808.909	0.0154739
808.987	0.0154914
809.065	0.0155037
809.143	0.0156464
809.221	0.0154630
809.299	0.0154521
809.378	0.0154922
809.456	0.0155779
809.534	0.0156143
809.612	0.0154775
809.690	0.0155842
809.768	0.0156403
809.846	0.0156126
809.924	0.0154597
810.003	0.0155640
810.081	0.0155934
810.159	0.0155688
810.237	0.0153917
810.315	0.0154919
810.393	0.0154790
810.471	0.0154357
810.549	0.0156090
810.628	0.0154842
810.706	0.0155117
810.784	0.0153030
810.862	0.0153928
810.940	0.0155077
811.018	0.0153462
811.096	0.0153362
811.174	0.0153157
811.253	0.0153747
811.331	0.0154599
811.409	0.0154111
811.487	0.0154266
811.565	0.0154086
811.643	0.0155263
811.721	0.0153735
811.799	0.0154732
811.878	0.0154755
811.956	0.0153786
812.034	0.0154480
812.112	0.0154596
812.190	0.0154471
812.268	0.0154659
812.346	0.0153690
812.424	0.0154166
812.503	0.0155007
812.581	0.0155088
812.659	0.0154710
812.737	0.0155534
812.815	0.0154770
812.893	0.0154008
812.971	0.0154681
813.049	0.0155238
813.128	0.0154426
813.206	0.0154069
813.284	0.0155078
813.362	0.0155846
813.440	0.0154617
813.518	0.0155806
813.596	0.0155002
813.674	0.0155862
813.753	0.0155417
813.831	0.0155853
813.909	0.0153876
813.987	0.0155659
814.065	0.0155585
814.143	0.0155019
814.221	0.0154958
814.299	0.0154909
814.378	0.0155193
814.456	0.0154891
814.534	0.0156049
814.612	0.0155648
814.690	0.0156527
814.768	0.0155583
814.846	0.0154738
814.924	0.0154262
815.003	0.0154614
815.081	0.0154973
815.159	0.0156329
815.237	0.0155730
815.315	0.0156036
815.393	0.0155328
815.471	0.0154892
815.549	0.0154434
815.628	0.0154395
815.706	0.0154781
815.784	0.0154591
815.862	0.0154298
815.940	0.0154930
816.018	0.0154236
816.096	0.0155692
816.174	0.0155124
816.253	0.0154809
816.331	0.0155230
816.409	0.0155192
816.487	0.0154285
816.565	0.0155196
816.643	0.0155441
816.721	0.0156185
816.799	0.0155644
816.878	0.0155025
816.956	0.0154545
817.034	0.0156243
817.112	0.0155643
817.190	0.0154360
817.268	0.0153862
817.346	0.0154754
817.424	0.0154741
817.503	0.0154685
817.581	0.0153368
817.659	0.0154372
817.737	0.0155042
817.815	0.0154678
817.893	0.0155710
817.971	0.0155511
818.049	0.0155276
818.128	0.0154363
818.206	0.0153231
818.284	0.0154298
818.362	0.0154737
818.440	0.0153648
818.518	0.0154282
818.596	0.0154363
818.674	0.0154121
818.753	0.0155284
818.831	0.0154686
818.909	0.0154811
818.987	0.0154349
819.065	0.0154876
819.143	0.0152969
819.221	0.0154699
819.299	0.0154688
819.378	0.0155540
819.456	0.0156293
819.534	0.0153928
819.612	0.0153276
819.690	0.0153522
819.768	0.0153372
819.846	0.0155253
819.924	0.0154323
820.003	0.0155450
820.081	0.0156144
820.159	0.0156296
820.237	0.0157038
820.315	0.0155722
820.393	0.0155140
820.471	0.0157106
820.549	0.0156727
820.628	0.0155476
820.706	0.0155729
820.784	0.0155666
820.862	0.0153945
820.940	0.0154128
821.018	0.0154407
821.096	0.0155257
821.174	0.0155863
821.253	0.0155072
821.331	0.0153664
821.409	0.0154417
821.487	0.0154631
821.565	0.0155217
821.643	0.0155278
821.721	0.0154725
821.799	0.0155295
821.878	0.0155876
821.956	0.0155850
822.034	0.0156027
822.112	0.0155741
822.190	0.0154760
822.268	0.0154986
822.346	0.0154590
822.424	0.0154659
822.503	0.0154079
822.581	0.0154726
822.659	0.0154816
822.737	0.0154266
822.815	0.0156046
822.893	0.0155387
822.971	0.0155217
823.049	0.0154121
823.128	0.0154544
823.206	0.0154823
823.284	0.0155547
823.362	0.0155225
823.440	0.0155318
823.518	0.0155700
823.596	0.0154289
823.674	0.0155511
823.753	0.0154893
823.831	0.0153184
823.909	0.0155923
823.987	0.0156241
824.065	0.0154767
824.143	0.0154373
824.221	0.0154019
824.299	0.0155293
824.378	0.0154529
824.456	0.0154617
824.534	0.0153523
824.612	0.0156577
824.690	0.0154566
824.768	0.0154563
824.846	0.0154728
824.924	0.0155083
825.003	0.0155772
825.081	0.0154551
825.159	0.0155445
825.237	0.0155701
825.315	0.0155600
825.393	0.0155341
825.471	0.0154924
825.549	0.0154260
825.628	0.0154599
825.706	0.0156759
825.784	0.0154230
825.862	0.0154931
825.940	0.0156449
826.018	0.0156139
826.096	0.0154926
826.174	0.0156693
826.253	0.0155768
826.331	0.0155984
826.409	0.0155677
826.487	0.0154783
826.565	0.0155855
826.643	0.0155741
826.721	0.0155722
826.799	0.0155088
826.878	0.0155315
826.956	0.0156153
827.034	0.0155813
827.112	0.0156322
827.190	0.0154526
827.268	0.0156417
827.346	0.0156186
827.424	0.0154919
827.503	0.0154421
827.581	0.0154246
827.659	0.0155112
827.737	0.0156483
827.815	0.0154475
827.893	0.0154950
827.971	0.0153452
828.049	0.0154676
828.128	0.0154489
828.206	0.0154025
828.284	0.0154060
828.362	0.0156113
828.440	0.0155064
828.518	0.0154297
828.596	0.0155209
828.674	0.0155053
828.753	0.0155044
828.831	0.0156058
828.909	0.0154368
828.987	0.0153896
829.065	0.0153596
829.143	0.0154684
829.221	0.0153693
829.299	0.0153990
829.378	0.0154505
829.456	0.0153406
829.534	0.0155539
829.612	0.0154684
829.690	0.0154472
829.768	0.0155571
829.846	0.0153925
829.924	0.0155774
830.003	0.0154881
830.081	0.0153961
830.159	0.0154427
830.237	0.0155519
830.315	0.0154952
830.393	0.0155181
830.471	0.0154297
830.549	0.0154133
830.628	0.0154797
830.706	0.0155631
830.784	0.0154274
830.862	0.0155022
830.940	0.0154739
831.018	0.0154333
831.096	0.0155265
831.174	0.0154592
831.253	0.0154200
831.331	0.0153982
831.409	0.0154366
831.487	0.0155213
831.565	0.0153959
831.643	0.0154624
831.721	0.0155357
831.799	0.0154694
831.878	0.0154794
831.956	0.0155710
832.034	0.0154327
832.112	0.0153708
832.190	0.0155856
832.268	0.0155626
832.346	0.0152946
832.424	0.0154682
832.503	0.0153031
832.581	0.0154572
832.659	0.0153921
832.737	0.0155834
832.815	0.0155544
832.893	0.0155669
832.971	0.0154602
833.049	0.0156973
833.128	0.0157098
833.206	0.0155556
833.284	0.0155915
833.362	0.0156374
833.440	0.0155578
833.518	0.0155837
833.596	0.0157343
833.674	0.0156093
833.753	0.0155831
833.831	0.0155801
833.909	0.0155878
833.987	0.0156034
834.065	0.0155161
834.143	0.0155755
834.221	0.0156511
834.299	0.0154163
834.378	0.0155377
834.456	0.0155114
834.534	0.0154962
834.612	0.0154311
834.690	0.0154990
834.768	0.0154932
834.846	0.0152864
834.924	0.0154840
835.003	0.0153976
835.081	0.0153358
835.159	0.0155547
835.237	0.0154115
835.315	0.0153854
835.393	0.0154252
835.471	0.0153960
835.549	0.0154961
835.628	0.0154964
835.706	0.0153583
835.784	0.0154227
835.862	0.0155373
835.940	0.0153799
836.018	0.0155806
836.096	0.0152692
836.174	0.0154518
836.253	0.0154379
836.331	0.0154258
836.409	0.0154183
836.487	0.0154794
836.565	0.0155472
836.643	0.0155443
836.721	0.0155347
836.799	0.0154060
836.878	0.0154218
836.956	0.0154366
837.034	0.0154161
837.112	0.0153423
837.190	0.0154143
837.268	0.0154370
837.346	0.0153819
837.424	0.0155376
837.503	0.0156116
837.581	0.0154533
837.659	0.0154818
837.737	0.0155196
837.815	0.0154980
837.893	0.0156049
837.971	0.0155272
838.049	0.0155341
838.128	0.0154883
838.206	0.0156473
838.284	0.0156660
838.362	0.0155849
838.440	0.0155681
838.518	0.0155549
838.596	0.0155981
838.674	0.0155589
838.753	0.0154745
838.831	0.0155086
838.909	0.0155589
838.987	0.0154159
839.065	0.0154571
839.143	0.0155157
839.221	0.0155499
839.299	0.0154555
839.378	0.0155193
839.456	0.0154734
839.534	0.0155889
839.612	0.0155999
839.690	0.0154218
839.768	0.0155787
839.846	0.0156372
839.924	0.0155846
840.003	0.0153898
840.081	0.0155237
840.159	0.0154180
840.237	0.0155340
840.315	0.0156310
840.393	0.0156612
840.471	0.0155357
840.549	0.0156726
840.628	0.0157303
840.706	0.0155824
840.784	0.0155272
840.862	0.0155396
840.940	0.0156948
841.018	0.0156950
841.096	0.0155649
841.174	0.0153469
841.253	0.0154899
841.331	0.0155589
841.409	0.0155381
841.487	0.0155617
841.565	0.0156097
841.643	0.0155428
841.721	0.0154792
841.799	0.0155228
841.878	0.0155261
841.956	0.0154923
842.034	0.0155708
842.112	0.0155392
842.190	0.0154105
842.268	0.0155147
842.346	0.0155874
842.424	0.0154629
842.503	0.0154737
842.581	0.0153664
842.659	0.0155114
842.737	0.0154729
842.815	0.0154092
842.893	0.0153489
842.971	0.0153538
843.049	0.0156032
843.128	0.0153548
843.206	0.0153606
843.284	0.0152892
843.362	0.0154906
843.440	0.0153397
843.518	0.0152483
843.596	0.0152642
843.674	0.0154742
843.753	0.0154377
843.831	0.0153843
843.909	0.0155308
843.987	0.0155273
844.065	0.0155093
844.143	0.0153791
844.221	0.0153984
844.299	0.0154837
844.378	0.0155042
844.456	0.0155718
844.534	0.0153278
844.612	0.0154616
844.690	0.0154553
844.768	0.0154475
844.846	0.0154903
844.924	0.0155340
845.003	0.0155538
845.081	0.0155827
845.159	0.0153358
845.237	0.0154523
845.315	0.0156320
845.393	0.0154356
845.471	0.0154219
845.549	0.0156561
845.628	0.0155483
845.706	0.0155684
845.784	0.0156669
845.862	0.0155129
845.940	0.0155513
846.018	0.0155914
846.096	0.0155461
846.174	0.0155490
846.253	0.0155175
846.331	0.0155418
846.409	0.0156693
846.487	0.0157018
846.565	0.0156168
846.643	0.0155193
846.721	0.0154194
846.799	0.0155518
846.878	0.0155588
846.956	0.0156167
847.034	0.0156221
847.112	0.0154589
847.190	0.0154675
847.268	0.0154501
847.346	0.0155388
847.424	0.0154281
847.503	0.0155696
847.581	0.0155154
847.659	0.0155045
847.737	0.0154434
847.815	0.0154970
847.893	0.0154266
847.971	0.0155840
848.049	0.0155336
848.128	0.0154195
848.206	0.0156086
848.284	0.0154695
848.362	0.0154157
848.440	0.0153241
848.518	0.0155527
848.596	0.0154963
848.674	0.0155256
848.753	0.0155195
848.831	0.0154257
848.909	0.0153743
848.987	0.0154210
849.065	0.0153291
849.143	0.0154671
849.221	0.0155328
849.299	0.0154395
849.378	0.0153996
849.456	0.0153612
849.534	0.0154370
849.612	0.0153956
849.690	0.0151730
849.768	0.0153567
849.846	0.0154530
849.924	0.0153660
850.003	0.0153769
850.081	0.0154919
850.159	0.0154839
850.237	0.0153249
850.315	0.0154867
850.393	0.0154926
850.471	0.0155107
850.549	0.0154028
850.628	0.0153900
850.706	0.0155212
850.784	0.0154974
850.862	0.0154880
850.940	0.0153418
851.018	0.0154193
851.096	0.0155240
851.174	0.0156345
851.253	0.0155402
851.331	0.0154076
851.409	0.0155377
851.487	0.0155182
851.565	0.0154774
851.643	0.0155428
851.721	0.0155577
851.799	0.0156880
851.878	0.0154549
851.956	0.0155970
852.034	0.0155892
852.112	0.0153422
852.190	0.0154729
852.268	0.0155623
852.346	0.0153913
852.424	0.0153934
852.503	0.0155112
852.581	0.0153450
852.659	0.0154937
852.737	0.0153089
852.815	0.0152952
852.893	0.0155058
852.971	0.0154912
853.049	0.0154448
853.128	0.0155856
853.206	0.0154527
853.284	0.0154316
853.362	0.0153043
853.440	0.0153999
853.518	0.0153062
853.596	0.0153764
853.674	0.0156122
853.753	0.0154440
853.831	0.0153413
853.909	0.0154868
853.987	0.0154444
854.065	0.0154185
854.143	0.0153142
854.221	0.0153393
854.299	0.0154583
854.378	0.0154215
854.456	0.0154394
854.534	0.0155155
854.612	0.0154451
854.690	0.0155018
854.768	0.0156011
854.846	0.0155400
854.924	0.0155879
855.003	0.0156239
855.081	0.0155789
855.159	0.0155745
855.237	0.0154165
855.315	0.0156661
855.393	0.0156541
855.471	0.0155663
855.549	0.0154772
855.628	0.0156718
855.706	0.0156278
855.784	0.0155947
855.862	0.0156367
855.940	0.0156592
856.018	0.0157131
856.096	0.0156980
856.174	0.0155709
856.253	0.0154474
856.331	0.0155774
856.409	0.0156245
856.487	0.0155570
856.565	0.0154493
856.643	0.0155678
856.721	0.0155447
856.799	0.0155788
856.878	0.0154491
856.956	0.0154780
857.034	0.0155389
857.112	0.0154434
857.190	0.0155545
857.268	0.0154738
857.346	0.0154913
857.424	0.0155458
857.503	0.0154773
857.581	0.0155688
857.659	0.0155579
857.737	0.0153893
857.815	0.0155360
857.893	0.0156242
857.971	0.0154817
858.049	0.0155669
858.128	0.0156113
858.206	0.0155054
858.284	0.0155450
858.362	0.0155580
858.440	0.0154824
858.518	0.0156019
858.596	0.0156871
858.674	0.0155152
858.753	0.0154900
858.831	0.0156389
858.909	0.0155576
858.987	0.0154347
859.065	0.0155260
859.143	0.0156679
859.221	0.0154417
859.299	0.0155522
859.378	0.0154955
859.456	0.0154070
859.534	0.0154491
859.612	0.0155408
859.690	0.0155414
859.768	0.0154333
859.846	0.0155230
859.924	0.0156841
860.003	0.0154947
860.081	0.0154269
860.159	0.0154937
860.237	0.0154192
860.315	0.0154513
860.393	0.0155331
860.471	0.0155443
860.549	0.0154366
860.628	0.0156700
860.706	0.0156617
860.784	0.0156557
860.862	0.0156877
860.940	0.0156160
861.018	0.0155811
861.096	0.0156182
861.174	0.0155238
861.253	0.0156383
861.331	0.0154788
861.409	0.0156046
861.487	0.0155804
861.565	0.0155032
861.643	0.0154272
861.721	0.0154910
861.799	0.0154989
861.878	0.0154788
861.956	0.0154172
862.034	0.0153657
862.112	0.0153361
862.190	0.0156001
862.268	0.0155065
862.346	0.0155093
862.424	0.0155813
862.503	0.0154594
862.581	0.0154208
862.659	0.0157178
862.737	0.0155177
862.815	0.0155972
862.893	0.0155269
862.971	0.0155681
863.049	0.0153361
863.128	0.0153954
863.206	0.0154350
863.284	0.0156828
863.362	0.0154564
863.440	0.0154393
863.518	0.0154076
863.596	0.0155484
863.674	0.0155000
863.753	0.0155050
863.831	0.0155437
863.909	0.0154823
863.987	0.0155671
864.065	0.0155389
864.143	0.0154900
864.221	0.0155141
864.299	0.0155323
864.378	0.0156200
864.456	0.0155419
864.534	0.0154500
864.612	0.0154015
864.690	0.0154231
864.768	0.0153831
864.846	0.0155714
864.924	0.0156070
865.003	0.0155717
865.081	0.0154903
865.159	0.0155707
865.237	0.0154829
865.315	0.0155974
865.393	0.0155690
865.471	0.0154942
865.549	0.0155406
865.628	0.0154111
865.706	0.0155967
865.784	0.0155480
865.862	0.0154124
865.940	0.0154315
866.018	0.0154929
866.096	0.0155455
866.174	0.0153839
866.253	0.0153969
866.331	0.0154547
866.409	0.0154807
866.487	0.0154431
866.565	0.0154877
866.643	0.0153210
866.721	0.0153561
866.799	0.0153152
866.878	0.0153205
866.956	0.0153763
867.034	0.0154459
867.112	0.0154668
867.190	0.0156448
867.268	0.0154515
867.346	0.0154234
867.424	0.0155463
867.503	0.0155614
867.581	0.0155231
867.659	0.0156089
867.737	0.0155795
867.815	0.0155048
867.893	0.0154703
867.971	0.0156387
868.049	0.0154213
868.128	0.0154176
868.206	0.0154534
868.284	0.0154487
868.362	0.0155051
868.440	0.0153117
868.518	0.0153869
868.596	0.0152904
868.674	0.0152930
868.753	0.0153702
868.831	0.0154774
868.909	0.0154649
868.987	0.0153299
869.065	0.0154221
869.143	0.0153952
869.221	0.0154639
869.299	0.0154994
869.378	0.0156436
869.456	0.0155092
869.534	0.0154946
869.612	0.0154454
869.690	0.0156271
869.768	0.0154823
869.846	0.0154562
869.924	0.0155064
870.003	0.0155476
870.081	0.0155576
870.159	0.0155360
870.237	0.0154695
870.315	0.0154539
870.393	0.0154966
870.471	0.0155298
870.549	0.0155708
870.628	0.0155245
870.706	0.0154450
870.784	0.0155173
870.862	0.0155800
870.940	0.0155583
871.018	0.0155421
871.096	0.0154415
871.174	0.0154858
871.253	0.0155147
871.331	0.0154282
871.409	0.0155965
871.487	0.0155424
871.565	0.0155884
871.643	0.0155569
871.721	0.0154993
871.799	0.0153456
871.878	0.0155892
871.956	0.0156444
872.034	0.0156092
872.112	0.0154210
872.190	0.0154796
872.268	0.0155459
872.346	0.0154585
872.424	0.0154280
872.503	0.0154934
872.581	0.0155386
872.659	0.0154987
872.737	0.0154912
872.815	0.0153790
872.893	0.0155302
872.971	0.0153659
873.049	0.0154742
873.128	0.0153450
873.206	0.0153818
873.284	0.0154476
873.362	0.0154910
873.440	0.0154491
873.518	0.0154416
873.596	0.0155074
873.674	0.0152820
873.753	0.0154058
873.831	0.0156168
873.909	0.0155299
873.987	0.0154981
874.065	0.0156078
874.143	0.0154400
874.221	0.0156367
874.299	0.0154886
874.378	0.0153661
874.456	0.0156413
874.534	0.0155444
874.612	0.0153457
874.690	0.0153799
874.768	0.0154093
874.846	0.0154240
874.924	0.0155539
875.003	0.0154884
875.081	0.0155458
875.159	0.0154292
875.237	0.0153970
875.315	0.0154782
875.393	0.0154211
875.471	0.0153620
875.549	0.0155326
875.628	0.0154218
875.706	0.0153662
875.784	0.0155162
875.862	0.0153696
875.940	0.0153198
876.018	0.0153416
876.096	0.0153824
876.174	0.0154866
876.253	0.0154616
876.331	0.0155237
876.409	0.0154509
876.487	0.0155070
876.565	0.0154747
876.643	0.0154807
876.721	0.0156006
876.799	0.0155951
876.878	0.0155446
876.956	0.0155733
877.034	0.0156078
877.112	0.0156205
877.190	0.0155292
877.268	0.0154788
877.346	0.0155055
877.424	0.0155566
877.503	0.0155734
877.581	0.0154317
877.659	0.0154101
877.737	0.0154487
877.815	0.0154748
877.893	0.0154793
877.971	0.0154528
878.049	0.0154884
878.128	0.0155151
878.206	0.0155052
878.284	0.0154635
878.362	0.0154344
878.440	0.0155579
878.518	0.0155724
878.596	0.0155912
878.674	0.0156241
878.753	0.0154852
878.831	0.0156228
878.909	0.0156102
878.987	0.0156280
879.065	0.0155175
879.143	0.0154143
879.221	0.0155346
879.299	0.0155454
879.378	0.0155376
879.456	0.0155756
879.534	0.0156950
879.612	0.0154929
879.690	0.0155061
879.768	0.0154830
879.846	0.0156560
879.924	0.0155973
880.003	0.0154833
880.081	0.0155489
880.159	0.0155266
880.237	0.0154101
880.315	0.0155820
880.393	0.0155617
880.471	0.0155305
880.549	0.0155337
880.628	0.0155618
880.706	0.0156826
880.784	0.0157508
880.862	0.0157027
880.940	0.0155702
881.018	0.0155209
881.096	0.0155449
881.174	0.0156692
881.253	0.0155802
881.331	0.0154237
881.409	0.0153381
881.487	0.0154595
881.565	0.0155544
881.643	0.0154676
881.721	0.0155582
881.799	0.0157108
881.878	0.0153969
881.956	0.0155942
882.034	0.0156395
882.112	0.0155186
882.190	0.0153352
882.268	0.0156262
882.346	0.0155573
882.424	0.0154832
882.503	0.0154842
882.581	0.0155556
882.659	0.0156346
882.737	0.0155298
882.815	0.0156236
882.893	0.0155764
882.971	0.0156358
883.049	0.0156293
883.128	0.0156213
883.206	0.0155408
883.284	0.0154780
883.362	0.0156516
883.440	0.0155284
883.518	0.0153863
883.596	0.0154127
883.674	0.0154931
883.753	0.0155116
883.831	0.0155875
883.909	0.0155679
883.987	0.0154833
884.065	0.0155896
884.143	0.0154841
884.221	0.0154963
884.299	0.0154927
884.378	0.0156169
884.456	0.0156133
884.534	0.0155473
884.612	0.0155843
884.690	0.0155491
884.768	0.0156726
884.846	0.0154896
884.924	0.0155486
885.003	0.0155063
885.081	0.0155741
885.159	0.0153870
885.237	0.0155436
885.315	0.0154406
885.393	0.0154524
885.471	0.0154507
885.549	0.0154630
885.628	0.0154920
885.706	0.0153012
885.784	0.0153856
885.862	0.0154639
885.940	0.0154561
886.018	0.0154119
886.096	0.0155222
886.174	0.0155452
886.253	0.0154625
886.331	0.0155044
886.409	0.0154199
886.487	0.0154417
886.565	0.0155759
886.643	0.0154805
886.721	0.0156865
886.799	0.0156544
886.878	0.0156850
886.956	0.0155500
887.034	0.0156741
887.112	0.0156219
887.190	0.0154290
887.268	0.0155940
887.346	0.0155738
887.424	0.0156489
887.503	0.0155511
887.581	0.0154139
887.659	0.0154206
887.737	0.0156305
887.815	0.0155925
887.893	0.0154924
887.971	0.0153521
888.049	0.0154326
888.128	0.0156082
888.206	0.0153641
888.284	0.0154905
888.362	0.0155647
888.440	0.0155154
888.518	0.0155889
888.596	0.0154229
888.674	0.0153966
888.753	0.0154108
888.831	0.0153596
888.909	0.0154877
888.987	0.0154858
889.065	0.0154777
889.143	0.0154467
889.221	0.0154212
889.299	0.0153303
889.378	0.0153329
889.456	0.0154060
889.534	0.0153797
889.612	0.0153870
889.690	0.0153809
889.768	0.0154725
889.846	0.0154654
889.924	0.0153941
890.003	0.0154176
890.081	0.0154823
890.159	0.0154763
890.237	0.0154798
890.315	0.0154258
890.393	0.0154482
890.471	0.0155149
890.549	0.0155827
890.628	0.0155604
890.706	0.0156133
890.784	0.0155720
890.862	0.0156007
890.940	0.0156685
891.018	0.0157564
891.096	0.0155957
891.174	0.0155621
891.253	0.0156197
891.331	0.0156271
891.409	0.0155040
891.487	0.0154708
891.565	0.0154930
891.643	0.0156646
891.721	0.0155190
891.799	0.0155563
891.878	0.0154732
891.956	0.0156717
892.034	0.0154381
892.112	0.0154465
892.190	0.0154161
892.268	0.0154882
892.346	0.0155091
892.424	0.0155344
892.503	0.0155165
892.581	0.0156568
892.659	0.0155839
892.737	0.0154390
892.815	0.0154514
892.893	0.0154617
892.971	0.0155455
893.049	0.0155730
893.128	0.0153570
893.206	0.0153852
893.284	0.0154051
893.362	0.0153667
893.440	0.0153242
893.518	0.0152415
893.596	0.0153879
893.674	0.0153170
893.753	0.0154415
893.831	0.0154243
893.909	0.0153848
893.987	0.0154062
894.065	0.0154272
894.143	0.0154143
894.221	0.0155120
894.299	0.0155588
894.378	0.0153645
894.456	0.0155239
894.534	0.0155318
894.612	0.0154960
894.690	0.0155482
894.768	0.0154616
894.846	0.0153853
894.924	0.0154285
895.003	0.0154663
895.081	0.0154935
895.159	0.0154015
895.237	0.0155587
895.315	0.0156857
895.393	0.0154918
895.471	0.0154739
895.549	0.0154017
895.628	0.0154637
895.706	0.0155254
895.784	0.0155586
895.862	0.0155284
895.940	0.0155341
896.018	0.0154715
896.096	0.0155158
896.174	0.0154490
896.253	0.0155267
896.331	0.0155586
896.409	0.0153887
896.487	0.0156885
896.565	0.0155799
896.643	0.0155605
896.721	0.0153141
896.799	0.0154623
896.878	0.0154379
896.956	0.0154763
897.034	0.0154291
897.112	0.0155139
897.190	0.0154228
897.268	0.0154905
897.346	0.0155279
897.424	0.0154780
897.503	0.0153844
897.581	0.0156074
897.659	0.0155002
897.737	0.0154246
897.815	0.0154288
897.893	0.0155075
897.971	0.0154410
898.049	0.0154529
898.128	0.0154549
898.206	0.0154980
898.284	0.0154565
898.362	0.0156682
898.440	0.0156213
898.518	0.0155175
898.596	0.0155224
898.674	0.0155304
898.753	0.0156355
898.831	0.0155705
898.909	0.0155997
898.987	0.0156964
899.065	0.0155748
899.143	0.0154974
899.221	0.0157229
899.299	0.0156624
899.378	0.0155763
899.456	0.0156186
899.534	0.0155909
899.612	0.0156332
899.690	0.0156142
899.768	0.0156223
899.846	0.0154675
899.924	0.0156021
900.003	0.0154951
900.081	0.0154997
900.159	0.0154531
900.237	0.0154635
900.315	0.0155578
900.393	0.0154742
900.471	0.0155059
900.549	0.0156116
900.628	0.0154253
900.706	0.0153635
900.784	0.0154758
900.862	0.0154954
900.940	0.0155269
901.018	0.0155074
901.096	0.0154807
901.174	0.0156624
901.253	0.0155239
901.331	0.0154141
901.409	0.0155789
901.487	0.0153893
901.565	0.0155280
901.643	0.0156535
901.721	0.0155124
901.799	0.0154955
901.878	0.0155033
901.956	0.0154497
902.034	0.0155183
902.112	0.0156164
902.190	0.0156178
902.268	0.0156133
902.346	0.0155412
902.424	0.0155034
902.503	0.0156855
902.581	0.0154089
902.659	0.0155864
902.737	0.0155162
902.815	0.0155452
902.893	0.0155986
902.971	0.0155511
903.049	0.0154948
903.128	0.0155228
903.206	0.0155902
903.284	0.0156300
903.362	0.0155850
903.440	0.0156536
903.518	0.0155769
903.596	0.0154469
903.674	0.0156207
903.753	0.0156003
903.831	0.0157922
903.909	0.0156976
903.987	0.0157301
904.065	0.0156023
904.143	0.0156064
904.221	0.0157003
904.299	0.0156526
904.378	0.0157793
904.456	0.0157571
904.534	0.0158817
904.612	0.0157424
904.690	0.0156429
904.768	0.0157104
904.846	0.0157508
904.924	0.0156474
905.003	0.0157262
905.081	0.0157561
905.159	0.0156248
905.237	0.0156516
905.315	0.0155054
905.393	0.0155251
905.471	0.0154948
905.549	0.0155473
905.628	0.0156638
905.706	0.0156580
905.784	0.0156268
905.862	0.0156486
905.940	0.0154736
906.018	0.0156552
906.096	0.0157350
906.174	0.0155991
906.253	0.0156382
906.331	0.0155642
906.409	0.0156482
906.487	0.0157043
906.565	0.0155847
906.643	0.0155965
906.721	0.0155521
906.799	0.0155091
906.878	0.0154926
906.956	0.0154866
907.034	0.0155366
907.112	0.0155444
907.190	0.0155370
907.268	0.0155574
907.346	0.0155349
907.424	0.0156212
907.503	0.0155113
907.581	0.0155083
907.659	0.0155229
907.737	0.0155299
907.815	0.0155135
907.893	0.0155763
907.971	0.0154814
908.049	0.0155156
908.128	0.0155711
908.206	0.0154678
908.284	0.0155067
908.362	0.0155936
908.440	0.0155424
908.518	0.0155148
908.596	0.0154907
908.674	0.0156214
908.753	0.0155532
908.831	0.0154577
908.909	0.0154461
908.987	0.0155138
909.065	0.0153488
909.143	0.0154852
909.221	0.0153237
909.299	0.0153851
909.378	0.0154224
909.456	0.0153197
909.534	0.0152588
909.612	0.0154431
909.690	0.0154672
909.768	0.0153799
909.846	0.0153164
909.924	0.0155664
910.003	0.0154295
910.081	0.0153979
910.159	0.0153020
910.237	0.0153752
910.315	0.0154652
910.393	0.0153466
910.471	0.0154362
910.549	0.0155470
910.628	0.0153735
910.706	0.0154198
910.784	0.0155790
910.862	0.0154893
910.940	0.0154904
911.018	0.0154803
911.096	0.0154745
911.174	0.0154745
911.253	0.0154677
911.331	0.0154986
911.409	0.0156660
911.487	0.0155469
911.565	0.0154327
911.643	0.0154980
911.721	0.0155369
911.799	0.0154990
911.878	0.0155214
911.956	0.0153884
912.034	0.0155212
912.112	0.0154256
912.190	0.0155005
912.268	0.0155566
912.346	0.0154909
912.424	0.0154364
912.503	0.0154826
912.581	0.0154958
912.659	0.0154551
912.737	0.0154868
912.815	0.0154500
912.893	0.0156054
912.971	0.0154504
913.049	0.0154149
913.128	0.0155691
913.206	0.0154288
913.284	0.0155373
913.362	0.0155158
913.440	0.0154459
913.518	0.0154151
913.596	0.0154272
913.674	0.0154027
913.753	0.0155362
913.831	0.0155180
913.909	0.0153295
913.987	0.0154689
914.065	0.0155726
914.143	0.0153891
914.221	0.0154022
914.299	0.0154732
914.378	0.0153483
914.456	0.0153777
914.534	0.0154189
914.612	0.0154803
914.690	0.0152763
914.768	0.0153547
914.846	0.0154940
914.924	0.0154389
915.003	0.0154234
915.081	0.0154890
915.159	0.0154228
915.237	0.0155882
915.315	0.0154558
915.393	0.0154268
915.471	0.0153399
915.549	0.0154549
915.628	0.0155893
915.706	0.0154662
915.784	0.0155013
915.862	0.0153706
915.940	0.0154742
916.018	0.0155731
916.096	0.0155173
916.174	0.0154488
916.253	0.0154836
916.331	0.0155270
916.409	0.0156406
916.487	0.0154270
916.565	0.0154875
916.643	0.0153461
916.721	0.0153719
916.799	0.0153587
916.878	0.0154039
916.956	0.0154879
917.034	0.0154520
917.112	0.0154787
917.190	0.0155450
917.268	0.0154658
917.346	0.0154746
917.424	0.0153484
917.503	0.0154140
917.581	0.0153936
917.659	0.0155530
917.737	0.0154168
917.815	0.0154819
917.893	0.0155411
917.971	0.0154557
918.049	0.0153899
918.128	0.0154671
918.206	0.0153748
918.284	0.0153828
918.362	0.0154585
918.440	0.0155402
918.518	0.0155658
918.596	0.0154408
918.674	0.0153832
918.753	0.0154391
918.831	0.0155219
918.909	0.0154038
918.987	0.0153883
919.065	0.0154951
919.143	0.0154169
919.221	0.0154607
919.299	0.0155717
919.378	0.0154785
919.456	0.0154639
919.534	0.0156463
919.612	0.0154826
919.690	0.0155184
919.768	0.0155397
919.846	0.0156542
919.924	0.0155793
920.003	0.0154979
920.081	0.0155804
920.159	0.0155067
920.237	0.0155327
920.315	0.0155759
920.393	0.0155411
920.471	0.0156437
920.549	0.0156189
920.628	0.0155090
920.706	0.0155434
920.784	0.0154906
920.862	0.0154677
920.940	0.0155111
921.018	0.0155468
921.096	0.0155364
921.174	0.0154458
921.253	0.0155801
921.331	0.0156055
921.409	0.0154665
921.487	0.0153853
921.565	0.0154362
921.643	0.0154439
921.721	0.0154345
921.799	0.0155363
921.878	0.0155397
921.956	0.0154310
922.034	0.0154552
922.112	0.0154313
922.190	0.0155229
922.268	0.0155451
922.346	0.0154492
922.424	0.0154353
922.503	0.0154312
922.581	0.0155591
922.659	0.0155147
922.737	0.0155011
922.815	0.0155127
922.893	0.0154427
922.971	0.0154603
923.049	0.0155171
923.128	0.0154477
923.206	0.0155798
923.284	0.0156081
923.362	0.0153815
923.440	0.0154432
923.518	0.0155477
923.596	0.0154975
923.674	0.0154976
923.753	0.0154353
923.831	0.0155014
923.909	0.0155113
923.987	0.0154559
924.065	0.0155791
924.143	0.0154407
924.221	0.0152987
924.299	0.0153603
924.378	0.0154409
924.456	0.0154166
924.534	0.0154931
924.612	0.0154516
924.690	0.0153611
924.768	0.0154837
924.846	0.0155688
924.924	0.0154112
925.003	0.0154971
925.081	0.0155078
925.159	0.0155907
925.237	0.0154420
925.315	0.0154218
925.393	0.0154778
925.471	0.0155862
925.549	0.0155038
925.628	0.0155099
925.706	0.0155155
925.784	0.0155024
925.862	0.0156268
925.940	0.0154913
926.018	0.0154618
926.096	0.0155780
926.174	0.0155209
926.253	0.0155872
926.331	0.0155261
926.409	0.0156416
926.487	0.0156047
926.565	0.0156145
926.643	0.0155207
926.721	0.0156407
926.799	0.0156596
926.878	0.0155832
926.956	0.0156495
927.034	0.0154417
927.112	0.0156144
927.190	0.0156262
927.268	0.0157052
927.346	0.0154564
927.424	0.0154659
927.503	0.0155836
927.581	0.0154431
927.659	0.0154713
927.737	0.0155289
927.815	0.0155296
927.893	0.0154772
927.971	0.0154236
928.049	0.0155730
928.128	0.0154465
928.206	0.0155954
928.284	0.0156692
928.362	0.0153956
928.440	0.0153671
928.518	0.0156970
928.596	0.0155869
928.674	0.0154911
928.753	0.0155911
928.831	0.0155806
928.909	0.0155550
928.987	0.0154483
929.065	0.0156175
929.143	0.0154516
929.221	0.0155328
929.299	0.0155637
929.378	0.0154159
929.456	0.0153761
929.534	0.0155978
929.612	0.0155260
929.690	0.0155121
929.768	0.0155073
929.846	0.0154214
929.924	0.0156087
930.003	0.0156194
930.081	0.0154443
930.159	0.0153809
930.237	0.0156200
930.315	0.0155332
930.393	0.0154947
930.471	0.0155874
930.549	0.0155400
930.628	0.0155916
930.706	0.0155643
930.784	0.0154700
930.862	0.0155746
930.940	0.0154158
931.018	0.0155032
931.096	0.0154652
931.174	0.0154394
931.253	0.0154112
931.331	0.0154022
931.409	0.0154042
931.487	0.0152961
931.565	0.0155293
931.643	0.0155157
931.721	0.0155044
931.799	0.0155511
931.878	0.0155114
931.956	0.0155070
932.034	0.0155614
932.112	0.0155560
932.190	0.0154676
932.268	0.0154596
932.346	0.0155287
932.424	0.0154031
932.503	0.0154351
932.581	0.0154931
932.659	0.0154729
932.737	0.0155264
932.815	0.0154337
932.893	0.0154734
932.971	0.0154910
933.049	0.0155679
933.128	0.0155705
933.206	0.0154809
933.284	0.0154448
933.362	0.0154588
933.440	0.0156248
933.518	0.0155703
933.596	0.0153667
933.674	0.0155582
933.753	0.0155821
933.831	0.0154601
933.909	0.0154871
933.987	0.0154668
934.065	0.0155542
934.143	0.0154881
934.221	0.0154041
934.299	0.0154025
934.378	0.0154432
934.456	0.0153891
934.534	0.0154412
934.612	0.0154207
934.690	0.0153652
934.768	0.0154523
934.846	0.0154048
934.924	0.0154987
935.003	0.0154937
935.081	0.0154421
935.159	0.0155034
935.237	0.0155543
935.315	0.0154948
935.393	0.0153845
935.471	0.0154375
935.549	0.0154745
935.628	0.0153724
935.706	0.0155090
935.784	0.0155726
935.862	0.0153924
935.940	0.0154824
936.018	0.0153939
936.096	0.0156409
936.174	0.0155539
936.253	0.0154789
936.331	0.0155400
936.409	0.0155789
936.487	0.0155093
936.565	0.0154086
936.643	0.0154720
936.721	0.0155746
936.799	0.0156461
936.878	0.0154548
936.956	0.0155264
937.034	0.0154974
937.112	0.0155711
937.190	0.0156531
937.268	0.0156398
937.346	0.0155519
937.424	0.0154527
937.503	0.0156496
937.581	0.0156333
937.659	0.0155245
937.737	0.0154983
937.815	0.0155457
937.893	0.0156367
937.971	0.0156978
938.049	0.0155752
938.128	0.0154929
938.206	0.0156702
938.284	0.0156116
938.362	0.0155624
938.440	0.0154852
938.518	0.0155956
938.596	0.0156123
938.674	0.0154576
938.753	0.0153271
938.831	0.0156767
938.909	0.0154644
938.987	0.0154887
939.065	0.0154695
939.143	0.0154386
939.221	0.0157018
939.299	0.0154848
939.378	0.0154697
939.456	0.0154481
939.534	0.0155554
939.612	0.0154751
939.690	0.0155566
939.768	0.0155393
939.846	0.0155074
939.924	0.0155294
940.003	0.0155417
940.081	0.0154487
940.159	0.0154698
940.237	0.0153175
940.315	0.0155827
940.393	0.0154734
940.471	0.0152615
940.549	0.0154545
940.628	0.0155439
940.706	0.0155019
940.784	0.0154755
940.862	0.0153892
940.940	0.0155702
941.018	0.0154302
941.096	0.0154414
941.174	0.0153716
941.253	0.0153126
941.331	0.0153855
941.409	0.0154140
941.487	0.0154626
941.565	0.0153963
941.643	0.0155638
941.721	0.0154392
941.799	0.0154913
941.878	0.0155526
941.956	0.0156235
942.034	0.0155789
942.112	0.0155210
942.190	0.0155450
942.268	0.0155173
942.346	0.0155486
942.424	0.0155730
942.503	0.0156435
942.581	0.0155930
942.659	0.0156555
942.737	0.0156686
942.815	0.0156126
942.893	0.0155446
942.971	0.0156100
943.049	0.0156271
943.128	0.0156458
943.206	0.0155527
943.284	0.0155949
943.362	0.0154646
943.440	0.0155265
943.518	0.0154379
943.596	0.0155696
943.674	0.0155700
943.753	0.0154475
943.831	0.0154977
943.909	0.0155439
943.987	0.0155728
944.065	0.0156429
944.143	0.0155537
944.221	0.0154414
944.299	0.0155359
944.378	0.0155497
944.456	0.0155528
944.534	0.0154549
944.612	0.0154984
944.690	0.0154862
944.768	0.0153941
944.846	0.0153715
944.924	0.0154527
945.003	0.0156022
945.081	0.0154615
945.159	0.0153251
945.237	0.0154079
945.315	0.0155087
945.393	0.0155019
945.471	0.0154699
945.549	0.0153275
945.628	0.0154271
945.706	0.0153481
945.784	0.0153050
945.862	0.0154212
945.940	0.0152729
946.018	0.0153573
946.096	0.0155446
946.174	0.0153182
946.253	0.0153571
946.331	0.0154018
946.409	0.0155540
946.487	0.0153738
946.565	0.0154482
946.643	0.0156244
946.721	0.0153589
946.799	0.0156058
946.878	0.0154836
946.956	0.0155367
947.034	0.0155401
947.112	0.0154552
947.190	0.0154971
947.268	0.0155570
947.346	0.0155223
947.424	0.0153946
947.503	0.0154391
947.581	0.0155083
947.659	0.0156078
947.737	0.0153301
947.815	0.0154873
947.893	0.0154942
947.971	0.0154367
948.049	0.0154577
948.128	0.0154506
948.206	0.0154382
948.284	0.0155161
948.362	0.0154407
948.440	0.0155315
948.518	0.0153296
948.596	0.0154343
948.674	0.0154717
948.753	0.0154679
948.831	0.0154031
948.909	0.0154021
948.987	0.0155331
949.065	0.0155469
949.143	0.0154856
949.221	0.0155677
949.299	0.0156704
949.378	0.0155173
949.456	0.0154150
949.534	0.0154137
949.612	0.0154860
949.690	0.0155204
949.768	0.0156001
949.846	0.0155074
949.924	0.0154829
