05/19/2022	00:49:18	Ver.	4.1	UNKNOWN
Optical Delay	630.002507	Delta X		0.078125	Sweeps	1	Scan Rate	0/0
Coordinates	Axis 1	NaN	Axis 2	NaN	Axis 3	NaN	Axis 4	NaN	Axis 5	NaN	Axis 6	0.000000
TX Power	0.000000	RX Power	0.000000

630.003	0.0158618
630.081	0.0158298
630.159	0.0159076
630.237	0.0158780
630.315	0.0157650
630.393	0.0157657
630.471	0.0158107
630.549	0.0157629
630.628	0.0159172
630.706	0.0158779
630.784	0.0157787
630.862	0.0159798
630.940	0.0158395
631.018	0.0158102
631.096	0.0159017
631.174	0.0159042
631.253	0.0157893
631.331	0.0157714
631.409	0.0158631
631.487	0.0158675
631.565	0.0159663
631.643	0.0159578
631.721	0.0157487
631.799	0.0159299
631.878	0.0159023
631.956	0.0158975
632.034	0.0159116
632.112	0.0158562
632.190	0.0158374
632.268	0.0158954
632.346	0.0156729
632.424	0.0157803
632.503	0.0160649
632.581	0.0159839
632.659	0.0159064
632.737	0.0158009
632.815	0.0160165
632.893	0.0159723
632.971	0.0158115
633.049	0.0160002
633.128	0.0159890
633.206	0.0159084
633.284	0.0159356
633.362	0.0159328
633.440	0.0159225
633.518	0.0159849
633.596	0.0158878
633.674	0.0160091
633.753	0.0160133
633.831	0.0158321
633.909	0.0159084
633.987	0.0160117
634.065	0.0160077
634.143	0.0159750
634.221	0.0159536
634.299	0.0158932
634.378	0.0159379
634.456	0.0159933
634.534	0.0159893
634.612	0.0159814
634.690	0.0159197
634.768	0.0160829
634.846	0.0161085
634.924	0.0160007
635.003	0.0160516
635.081	0.0159526
635.159	0.0159612
635.237	0.0159597
635.315	0.0160501
635.393	0.0159285
635.471	0.0160062
635.549	0.0160138
635.628	0.0159206
635.706	0.0159944
635.784	0.0160454
635.862	0.0160511
635.940	0.0159758
636.018	0.0159042
636.096	0.0160336
636.174	0.0160563
636.253	0.0159364
636.331	0.0159867
636.409	0.0160192
636.487	0.0160013
636.565	0.0159749
636.643	0.0160968
636.721	0.0160184
636.799	0.0160016
636.878	0.0160578
636.956	0.0160654
637.034	0.0161112
637.112	0.0160808
637.190	0.0160944
637.268	0.0159621
637.346	0.0160460
637.424	0.0160128
637.503	0.0159570
637.581	0.0160269
637.659	0.0160739
637.737	0.0160921
637.815	0.0160026
637.893	0.0159476
637.971	0.0161057
638.049	0.0160409
638.128	0.0159798
638.206	0.0159631
638.284	0.0159812
638.362	0.0160648
638.440	0.0160640
638.518	0.0159992
638.596	0.0159799
638.674	0.0160439
638.753	0.0160101
638.831	0.0160658
638.909	0.0160232
638.987	0.0159743
639.065	0.0161560
639.143	0.0160008
639.221	0.0160056
639.299	0.0160570
639.378	0.0160495
639.456	0.0159545
639.534	0.0160153
639.612	0.0159368
639.690	0.0160609
639.768	0.0161078
639.846	0.0159566
639.924	0.0158848
640.003	0.0160636
640.081	0.0159115
640.159	0.0159216
640.237	0.0160226
640.315	0.0161143
640.393	0.0161567
640.471	0.0158605
640.549	0.0159520
640.628	0.0160011
640.706	0.0160139
640.784	0.0161209
640.862	0.0160265
640.940	0.0158276
641.018	0.0159735
641.096	0.0160251
641.174	0.0161573
641.253	0.0160996
641.331	0.0159785
641.409	0.0160041
641.487	0.0160222
641.565	0.0161864
641.643	0.0160670
641.721	0.0158695
641.799	0.0160408
641.878	0.0160572
641.956	0.0159846
642.034	0.0158804
642.112	0.0159631
642.190	0.0160120
642.268	0.0159567
642.346	0.0159827
642.424	0.0159602
642.503	0.0158967
642.581	0.0160040
642.659	0.0159923
642.737	0.0159997
642.815	0.0159537
642.893	0.0159744
642.971	0.0159760
643.049	0.0159007
643.128	0.0159254
643.206	0.0161121
643.284	0.0160068
643.362	0.0160160
643.440	0.0159530
643.518	0.0159540
643.596	0.0160225
643.674	0.0160175
643.753	0.0159581
643.831	0.0159798
643.909	0.0161060
643.987	0.0159744
644.065	0.0158808
644.143	0.0159336
644.221	0.0158712
644.299	0.0159268
644.378	0.0160110
644.456	0.0159643
644.534	0.0157233
644.612	0.0158328
644.690	0.0159387
644.768	0.0160332
644.846	0.0159284
644.924	0.0159333
645.003	0.0158891
645.081	0.0159882
645.159	0.0158178
645.237	0.0157612
645.315	0.0159393
645.393	0.0159123
645.471	0.0159631
645.549	0.0160233
645.628	0.0159590
645.706	0.0158385
645.784	0.0159161
645.862	0.0158893
645.940	0.0160632
646.018	0.0159492
646.096	0.0157683
646.174	0.0158118
646.253	0.0158849
646.331	0.0158250
646.409	0.0157545
646.487	0.0158223
646.565	0.0159248
646.643	0.0160284
646.721	0.0159366
646.799	0.0159497
646.878	0.0159224
646.956	0.0159014
647.034	0.0159698
647.112	0.0159197
647.190	0.0159139
647.268	0.0160429
647.346	0.0159613
647.424	0.0160321
647.503	0.0159223
647.581	0.0159635
647.659	0.0161062
647.737	0.0159486
647.815	0.0159280
647.893	0.0159908
647.971	0.0158596
648.049	0.0159490
648.128	0.0159029
648.206	0.0158382
648.284	0.0160036
648.362	0.0158846
648.440	0.0157895
648.518	0.0159723
648.596	0.0159680
648.674	0.0158377
648.753	0.0159501
648.831	0.0160320
648.909	0.0159390
648.987	0.0158790
649.065	0.0160191
649.143	0.0161313
649.221	0.0160471
649.299	0.0160549
649.378	0.0161561
649.456	0.0160406
649.534	0.0160348
649.612	0.0161967
649.690	0.0161095
649.768	0.0161022
649.846	0.0159475
649.924	0.0158893
650.003	0.0160509
650.081	0.0159769
650.159	0.0160541
650.237	0.0158565
650.315	0.0157637
650.393	0.0159067
650.471	0.0159120
650.549	0.0160566
650.628	0.0159657
650.706	0.0159178
650.784	0.0158717
650.862	0.0158827
650.940	0.0159071
651.018	0.0160060
651.096	0.0158797
651.174	0.0159842
651.253	0.0159653
651.331	0.0159277
651.409	0.0158776
651.487	0.0160063
651.565	0.0158840
651.643	0.0159261
651.721	0.0160240
651.799	0.0160445
651.878	0.0160277
651.956	0.0159054
652.034	0.0159653
652.112	0.0158941
652.190	0.0160993
652.268	0.0160101
652.346	0.0159766
652.424	0.0158758
652.503	0.0160366
652.581	0.0160029
652.659	0.0158112
652.737	0.0158749
652.815	0.0157892
652.893	0.0158782
652.971	0.0157744
653.049	0.0157113
653.128	0.0158758
653.206	0.0157358
653.284	0.0156934
653.362	0.0158179
653.440	0.0158401
653.518	0.0156766
653.596	0.0157460
653.674	0.0158839
653.753	0.0157471
653.831	0.0158298
653.909	0.0159171
653.987	0.0158057
654.065	0.0158294
654.143	0.0157034
654.221	0.0158652
654.299	0.0157959
654.378	0.0157192
654.456	0.0157074
654.534	0.0158401
654.612	0.0157166
654.690	0.0156731
654.768	0.0156137
654.846	0.0156405
654.924	0.0156789
655.003	0.0156583
655.081	0.0156703
655.159	0.0155225
655.237	0.0157684
655.315	0.0156873
655.393	0.0156946
655.471	0.0156644
655.549	0.0158233
655.628	0.0157800
655.706	0.0157511
655.784	0.0159306
655.862	0.0160146
655.940	0.0160053
656.018	0.0160259
656.096	0.0160096
656.174	0.0159599
656.253	0.0161909
656.331	0.0161149
656.409	0.0161082
656.487	0.0158916
656.565	0.0158861
656.643	0.0158969
656.721	0.0159146
656.799	0.0159719
656.878	0.0159819
656.956	0.0159229
657.034	0.0160425
657.112	0.0159550
657.190	0.0158858
657.268	0.0158759
657.346	0.0158702
657.424	0.0158990
657.503	0.0158715
657.581	0.0159710
657.659	0.0160006
657.737	0.0159533
657.815	0.0159474
657.893	0.0159701
657.971	0.0160578
658.049	0.0160159
658.128	0.0159998
658.206	0.0160715
658.284	0.0161109
658.362	0.0160040
658.440	0.0161259
658.518	0.0160018
658.596	0.0160552
658.674	0.0161467
658.753	0.0161794
658.831	0.0161842
658.909	0.0159834
658.987	0.0160139
659.065	0.0161810
659.143	0.0160332
659.221	0.0160471
659.299	0.0160486
659.378	0.0161718
659.456	0.0160688
659.534	0.0160094
659.612	0.0159263
659.690	0.0160112
659.768	0.0159582
659.846	0.0159048
659.924	0.0160291
660.003	0.0160842
660.081	0.0160851
660.159	0.0159395
660.237	0.0160761
660.315	0.0159574
660.393	0.0159097
660.471	0.0160163
660.549	0.0159944
660.628	0.0159235
660.706	0.0159489
660.784	0.0161156
660.862	0.0161035
660.940	0.0158927
661.018	0.0160724
661.096	0.0161224
661.174	0.0160243
661.253	0.0160237
661.331	0.0159251
661.409	0.0158996
661.487	0.0160269
661.565	0.0159841
661.643	0.0158768
661.721	0.0158871
661.799	0.0156922
661.878	0.0157020
661.956	0.0158867
662.034	0.0156950
662.112	0.0156837
662.190	0.0157050
662.268	0.0156616
662.346	0.0158293
662.424	0.0157166
662.503	0.0156837
662.581	0.0158807
662.659	0.0159874
662.737	0.0158504
662.815	0.0159834
662.893	0.0159095
662.971	0.0158225
663.049	0.0159083
663.128	0.0159204
663.206	0.0159319
663.284	0.0158813
663.362	0.0159045
663.440	0.0159425
663.518	0.0159422
663.596	0.0159148
663.674	0.0160845
663.753	0.0159618
663.831	0.0158562
663.909	0.0157119
663.987	0.0158781
664.065	0.0159398
664.143	0.0157843
664.221	0.0159109
664.299	0.0158694
664.378	0.0160041
664.456	0.0158095
664.534	0.0158982
664.612	0.0160601
664.690	0.0159714
664.768	0.0160354
664.846	0.0159285
664.924	0.0159748
665.003	0.0161015
665.081	0.0162243
665.159	0.0160947
665.237	0.0160303
665.315	0.0160612
665.393	0.0160405
665.471	0.0161414
665.549	0.0160958
665.628	0.0161157
665.706	0.0158686
665.784	0.0159633
665.862	0.0160245
665.940	0.0159023
666.018	0.0158506
666.096	0.0158607
666.174	0.0158556
666.253	0.0158983
666.331	0.0157236
666.409	0.0160109
666.487	0.0160427
666.565	0.0160196
666.643	0.0159834
666.721	0.0160185
666.799	0.0159895
666.878	0.0160526
666.956	0.0160374
667.034	0.0159762
667.112	0.0160834
667.190	0.0160010
667.268	0.0161436
667.346	0.0160857
667.424	0.0161281
667.503	0.0160550
667.581	0.0161557
667.659	0.0159898
667.737	0.0160658
667.815	0.0161442
667.893	0.0160731
667.971	0.0160829
668.049	0.0161112
668.128	0.0161770
668.206	0.0163892
668.284	0.0161729
668.362	0.0162793
668.440	0.0162308
668.518	0.0162209
668.596	0.0161613
668.674	0.0162065
668.753	0.0160258
668.831	0.0158694
668.909	0.0159321
668.987	0.0158196
669.065	0.0157530
669.143	0.0158563
669.221	0.0158450
669.299	0.0158300
669.378	0.0158537
669.456	0.0159322
669.534	0.0159001
669.612	0.0159949
669.690	0.0159919
669.768	0.0160167
669.846	0.0160139
669.924	0.0160260
670.003	0.0160854
670.081	0.0160008
670.159	0.0160162
670.237	0.0161084
670.315	0.0159785
670.393	0.0160571
670.471	0.0161973
670.549	0.0161388
670.628	0.0159856
670.706	0.0159734
670.784	0.0160627
670.862	0.0161171
670.940	0.0160709
671.018	0.0159496
671.096	0.0160464
671.174	0.0160288
671.253	0.0160690
671.331	0.0160229
671.409	0.0160669
671.487	0.0158611
671.565	0.0158654
671.643	0.0157884
671.721	0.0158631
671.799	0.0157634
671.878	0.0156905
671.956	0.0158308
672.034	0.0156419
672.112	0.0157898
672.190	0.0157780
672.268	0.0156358
672.346	0.0156802
672.424	0.0158602
672.503	0.0157642
672.581	0.0157146
672.659	0.0158760
672.737	0.0157664
672.815	0.0157806
672.893	0.0157636
672.971	0.0159198
673.049	0.0159822
673.128	0.0159183
673.206	0.0159312
673.284	0.0161053
673.362	0.0159956
673.440	0.0159404
673.518	0.0157943
673.596	0.0158450
673.674	0.0161246
673.753	0.0160865
673.831	0.0158703
673.909	0.0160726
673.987	0.0161720
674.065	0.0161993
674.143	0.0160527
674.221	0.0160693
674.299	0.0161111
674.378	0.0160292
674.456	0.0160320
674.534	0.0160726
674.612	0.0161715
674.690	0.0160249
674.768	0.0159936
674.846	0.0160910
674.924	0.0159489
675.003	0.0159927
675.081	0.0160955
675.159	0.0161216
675.237	0.0160892
675.315	0.0160486
675.393	0.0161743
675.471	0.0159813
675.549	0.0160809
675.628	0.0159709
675.706	0.0158596
675.784	0.0158804
675.862	0.0157858
675.940	0.0156680
676.018	0.0157769
676.096	0.0156612
676.174	0.0156548
676.253	0.0156824
676.331	0.0155230
676.409	0.0156302
676.487	0.0156259
676.565	0.0156908
676.643	0.0155952
676.721	0.0157330
676.799	0.0158524
676.878	0.0158833
676.956	0.0158667
677.034	0.0158849
677.112	0.0159010
677.190	0.0161436
677.268	0.0160315
677.346	0.0160604
677.424	0.0161826
677.503	0.0163371
677.581	0.0162989
677.659	0.0164069
677.737	0.0163165
677.815	0.0163702
677.893	0.0162275
677.971	0.0162778
678.049	0.0164317
678.128	0.0163885
678.206	0.0162339
678.284	0.0162791
678.362	0.0161746
678.440	0.0161994
678.518	0.0160985
678.596	0.0160720
678.674	0.0158965
678.753	0.0161648
678.831	0.0160543
678.909	0.0158953
678.987	0.0159422
679.065	0.0157996
679.143	0.0158803
679.221	0.0159740
679.299	0.0158233
679.378	0.0157641
679.456	0.0157722
679.534	0.0159784
679.612	0.0159248
679.690	0.0159757
679.768	0.0160127
679.846	0.0160018
679.924	0.0159275
680.003	0.0159737
680.081	0.0159321
680.159	0.0159109
680.237	0.0160513
680.315	0.0159769
680.393	0.0159808
680.471	0.0159368
680.549	0.0159056
680.628	0.0157686
680.706	0.0158641
680.784	0.0159858
680.862	0.0158649
680.940	0.0159933
681.018	0.0158772
681.096	0.0159633
681.174	0.0160876
681.253	0.0159225
681.331	0.0160629
681.409	0.0160496
681.487	0.0160662
681.565	0.0162481
681.643	0.0160278
681.721	0.0161140
681.799	0.0161697
681.878	0.0161777
681.956	0.0160465
682.034	0.0160818
682.112	0.0161429
682.190	0.0161507
682.268	0.0159702
682.346	0.0160549
682.424	0.0160076
682.503	0.0158546
682.581	0.0159510
682.659	0.0160298
682.737	0.0160000
682.815	0.0159955
682.893	0.0158727
682.971	0.0157616
683.049	0.0157892
683.128	0.0158991
683.206	0.0157262
683.284	0.0156890
683.362	0.0157094
683.440	0.0157422
683.518	0.0156847
683.596	0.0156858
683.674	0.0156779
683.753	0.0156141
683.831	0.0155130
683.909	0.0156901
683.987	0.0157229
684.065	0.0156817
684.143	0.0156662
684.221	0.0157397
684.299	0.0157470
684.378	0.0156821
684.456	0.0158377
684.534	0.0158572
684.612	0.0157520
684.690	0.0158233
684.768	0.0159761
684.846	0.0159260
684.924	0.0159780
685.003	0.0160268
685.081	0.0162196
685.159	0.0161403
685.237	0.0161372
685.315	0.0163349
685.393	0.0161851
685.471	0.0161755
685.549	0.0163090
685.628	0.0163648
685.706	0.0164074
685.784	0.0161434
685.862	0.0161536
685.940	0.0161650
686.018	0.0161839
686.096	0.0162859
686.174	0.0160928
686.253	0.0161022
686.331	0.0159435
686.409	0.0160793
686.487	0.0159364
686.565	0.0159104
686.643	0.0158315
686.721	0.0157766
686.799	0.0158193
686.878	0.0158384
686.956	0.0156977
687.034	0.0157467
687.112	0.0158595
687.190	0.0159215
687.268	0.0157635
687.346	0.0158177
687.424	0.0158627
687.503	0.0159352
687.581	0.0159064
687.659	0.0159445
687.737	0.0159771
687.815	0.0159692
687.893	0.0159536
687.971	0.0160027
688.049	0.0159378
688.128	0.0159679
688.206	0.0159917
688.284	0.0159917
688.362	0.0159924
688.440	0.0160696
688.518	0.0161221
688.596	0.0161421
688.674	0.0161700
688.753	0.0162370
688.831	0.0162942
688.909	0.0163214
688.987	0.0163450
689.065	0.0163481
689.143	0.0162575
689.221	0.0163032
689.299	0.0162277
689.378	0.0162772
689.456	0.0161797
689.534	0.0161045
689.612	0.0160256
689.690	0.0162339
689.768	0.0159935
689.846	0.0159782
689.924	0.0160184
690.003	0.0158116
690.081	0.0158434
690.159	0.0159620
690.237	0.0158211
690.315	0.0159570
690.393	0.0158194
690.471	0.0159256
690.549	0.0158116
690.628	0.0160207
690.706	0.0158900
690.784	0.0157880
690.862	0.0159769
690.940	0.0160010
691.018	0.0160515
691.096	0.0158630
691.174	0.0157028
691.253	0.0158640
691.331	0.0157307
691.409	0.0158974
691.487	0.0158678
691.565	0.0157830
691.643	0.0157778
691.721	0.0157968
691.799	0.0158756
691.878	0.0159727
691.956	0.0158276
692.034	0.0159151
692.112	0.0158224
692.190	0.0158305
692.268	0.0158904
692.346	0.0159817
692.424	0.0160530
692.503	0.0161427
692.581	0.0162224
692.659	0.0160515
692.737	0.0162531
692.815	0.0162598
692.893	0.0162392
692.971	0.0162994
693.049	0.0162978
693.128	0.0163590
693.206	0.0163648
693.284	0.0164671
693.362	0.0164313
693.440	0.0164485
693.518	0.0164118
693.596	0.0166078
693.674	0.0163251
693.753	0.0162649
693.831	0.0162241
693.909	0.0162017
693.987	0.0161931
694.065	0.0160078
694.143	0.0159160
694.221	0.0159682
694.299	0.0159035
694.378	0.0158115
694.456	0.0158026
694.534	0.0157562
694.612	0.0156210
694.690	0.0154725
694.768	0.0156660
694.846	0.0155740
694.924	0.0154889
695.003	0.0155563
695.081	0.0155194
695.159	0.0155902
695.237	0.0155904
695.315	0.0156507
695.393	0.0157545
695.471	0.0157528
695.549	0.0158428
695.628	0.0158620
695.706	0.0160068
695.784	0.0161068
695.862	0.0162526
695.940	0.0161937
696.018	0.0160571
696.096	0.0161382
696.174	0.0162555
696.253	0.0162174
696.331	0.0160641
696.409	0.0162016
696.487	0.0162203
696.565	0.0161284
696.643	0.0161874
696.721	0.0162327
696.799	0.0162022
696.878	0.0161671
696.956	0.0162955
697.034	0.0160805
697.112	0.0162310
697.190	0.0161789
697.268	0.0161910
697.346	0.0163469
697.424	0.0162701
697.503	0.0161998
697.581	0.0160577
697.659	0.0161236
697.737	0.0159671
697.815	0.0159528
697.893	0.0159395
697.971	0.0158825
698.049	0.0160673
698.128	0.0158493
698.206	0.0158563
698.284	0.0157145
698.362	0.0158976
698.440	0.0156501
698.518	0.0156076
698.596	0.0158511
698.674	0.0158352
698.753	0.0158731
698.831	0.0158805
698.909	0.0160375
698.987	0.0161050
699.065	0.0160876
699.143	0.0161057
699.221	0.0162302
699.299	0.0159497
699.378	0.0161538
699.456	0.0162465
699.534	0.0161266
699.612	0.0162999
699.690	0.0162596
699.768	0.0161204
699.846	0.0160737
699.924	0.0160638
700.003	0.0161488
700.081	0.0160039
700.159	0.0160758
700.237	0.0159946
700.315	0.0160384
700.393	0.0159911
700.471	0.0159216
700.549	0.0160941
700.628	0.0160376
700.706	0.0160030
700.784	0.0161267
700.862	0.0160363
700.940	0.0160069
701.018	0.0161616
701.096	0.0161655
701.174	0.0162087
701.253	0.0161710
701.331	0.0160509
701.409	0.0160111
701.487	0.0160020
701.565	0.0160437
701.643	0.0160027
701.721	0.0159852
701.799	0.0160463
701.878	0.0159160
701.956	0.0158485
702.034	0.0160423
702.112	0.0159662
702.190	0.0159576
702.268	0.0158945
702.346	0.0158855
702.424	0.0158653
702.503	0.0158774
702.581	0.0157148
702.659	0.0158076
702.737	0.0158430
702.815	0.0158385
702.893	0.0158648
702.971	0.0159091
703.049	0.0159853
703.128	0.0159499
703.206	0.0160710
703.284	0.0158951
703.362	0.0158642
703.440	0.0160287
703.518	0.0160947
703.596	0.0159957
703.674	0.0160957
703.753	0.0160825
703.831	0.0160596
703.909	0.0161332
703.987	0.0161133
704.065	0.0160534
704.143	0.0159318
704.221	0.0159953
704.299	0.0158793
704.378	0.0159554
704.456	0.0159361
704.534	0.0159544
704.612	0.0159928
704.690	0.0159217
704.768	0.0158662
704.846	0.0160638
704.924	0.0158002
705.003	0.0157224
705.081	0.0157150
705.159	0.0158230
705.237	0.0158469
705.315	0.0158723
705.393	0.0156824
705.471	0.0157529
705.549	0.0158592
705.628	0.0157285
705.706	0.0157349
705.784	0.0158920
705.862	0.0157502
705.940	0.0156211
706.018	0.0156729
706.096	0.0156351
706.174	0.0156937
706.253	0.0155959
706.331	0.0155547
706.409	0.0155877
706.487	0.0154792
706.565	0.0155722
706.643	0.0155659
706.721	0.0156362
706.799	0.0156686
706.878	0.0158691
706.956	0.0157519
707.034	0.0158141
707.112	0.0159450
707.190	0.0161581
707.268	0.0160285
707.346	0.0161562
707.424	0.0163453
707.503	0.0162750
707.581	0.0163520
707.659	0.0163945
707.737	0.0164256
707.815	0.0163461
707.893	0.0162920
707.971	0.0163275
708.049	0.0163952
708.128	0.0165975
708.206	0.0164671
708.284	0.0164771
708.362	0.0165281
708.440	0.0164627
708.518	0.0163605
708.596	0.0163912
708.674	0.0162319
708.753	0.0162679
708.831	0.0162487
708.909	0.0161919
708.987	0.0160960
709.065	0.0161407
709.143	0.0159759
709.221	0.0159471
709.299	0.0160831
709.378	0.0159496
709.456	0.0160552
709.534	0.0159964
709.612	0.0158531
709.690	0.0159339
709.768	0.0158924
709.846	0.0159529
709.924	0.0158844
710.003	0.0159351
710.081	0.0157785
710.159	0.0158603
710.237	0.0158041
710.315	0.0156164
710.393	0.0157702
710.471	0.0156690
710.549	0.0156534
710.628	0.0156779
710.706	0.0156306
710.784	0.0157378
710.862	0.0154790
710.940	0.0155109
711.018	0.0154789
711.096	0.0155389
711.174	0.0155486
711.253	0.0155734
711.331	0.0155276
711.409	0.0155470
711.487	0.0155135
711.565	0.0155909
711.643	0.0157113
711.721	0.0154848
711.799	0.0155932
711.878	0.0155774
711.956	0.0154524
712.034	0.0155820
712.112	0.0156260
712.190	0.0156834
712.268	0.0158128
712.346	0.0155785
712.424	0.0157704
712.503	0.0156515
712.581	0.0158309
712.659	0.0158305
712.737	0.0160195
712.815	0.0160392
712.893	0.0159664
712.971	0.0161655
713.049	0.0161884
713.128	0.0161799
713.206	0.0162434
713.284	0.0163526
713.362	0.0161996
713.440	0.0164333
713.518	0.0164573
713.596	0.0164773
713.674	0.0163427
713.753	0.0165932
713.831	0.0164164
713.909	0.0163429
713.987	0.0165068
714.065	0.0164742
714.143	0.0165204
714.221	0.0164779
714.299	0.0164082
714.378	0.0164929
714.456	0.0162823
714.534	0.0162876
714.612	0.0163420
714.690	0.0163931
714.768	0.0163070
714.846	0.0160974
714.924	0.0162433
715.003	0.0163425
715.081	0.0162804
715.159	0.0161813
715.237	0.0161698
715.315	0.0161968
715.393	0.0162376
715.471	0.0160944
715.549	0.0161130
715.628	0.0161659
715.706	0.0161121
715.784	0.0161646
715.862	0.0160233
715.940	0.0158061
716.018	0.0160778
716.096	0.0159640
716.174	0.0159956
716.253	0.0159299
716.331	0.0158382
716.409	0.0157280
716.487	0.0156803
716.565	0.0159023
716.643	0.0157227
716.721	0.0158131
716.799	0.0156527
716.878	0.0156537
716.956	0.0156350
717.034	0.0155904
717.112	0.0155752
717.190	0.0156237
717.268	0.0156929
717.346	0.0155593
717.424	0.0156300
717.503	0.0157594
717.581	0.0157119
717.659	0.0157010
717.737	0.0156667
717.815	0.0157591
717.893	0.0156650
717.971	0.0158530
718.049	0.0157784
718.128	0.0157309
718.206	0.0158262
718.284	0.0157820
718.362	0.0157494
718.440	0.0157059
718.518	0.0156380
718.596	0.0158520
718.674	0.0157403
718.753	0.0157429
718.831	0.0157117
718.909	0.0156123
718.987	0.0157204
719.065	0.0159743
719.143	0.0158593
719.221	0.0158099
719.299	0.0159689
719.378	0.0159104
719.456	0.0161372
719.534	0.0161351
719.612	0.0161100
719.690	0.0161289
719.768	0.0162431
719.846	0.0163364
719.924	0.0162611
720.003	0.0162907
720.081	0.0162861
720.159	0.0163235
720.237	0.0162296
720.315	0.0161781
720.393	0.0162498
720.471	0.0163936
720.549	0.0162862
720.628	0.0163769
720.706	0.0161948
720.784	0.0164468
720.862	0.0165804
720.940	0.0163701
721.018	0.0163728
721.096	0.0164843
721.174	0.0166075
721.253	0.0163530
721.331	0.0164177
721.409	0.0163171
721.487	0.0163036
721.565	0.0163177
721.643	0.0163021
721.721	0.0161508
721.799	0.0161691
721.878	0.0162720
721.956	0.0160851
722.034	0.0159018
722.112	0.0160146
722.190	0.0160456
722.268	0.0160046
722.346	0.0161707
722.424	0.0161337
722.503	0.0161739
722.581	0.0160566
722.659	0.0159067
722.737	0.0159920
722.815	0.0160212
722.893	0.0159322
722.971	0.0159505
723.049	0.0159746
723.128	0.0157998
723.206	0.0157512
723.284	0.0157244
723.362	0.0157166
723.440	0.0157935
723.518	0.0157770
723.596	0.0155253
723.674	0.0157143
723.753	0.0158469
723.831	0.0155894
723.909	0.0157133
723.987	0.0156046
724.065	0.0156686
724.143	0.0156246
724.221	0.0154816
724.299	0.0155968
724.378	0.0156003
724.456	0.0155859
724.534	0.0156274
724.612	0.0154691
724.690	0.0155457
724.768	0.0156265
724.846	0.0155085
724.924	0.0154740
725.003	0.0156872
725.081	0.0156231
725.159	0.0157156
725.237	0.0156516
725.315	0.0156596
725.393	0.0156188
725.471	0.0156951
725.549	0.0157839
725.628	0.0157562
725.706	0.0158654
725.784	0.0159208
725.862	0.0159625
725.940	0.0159265
726.018	0.0160329
726.096	0.0159519
726.174	0.0158896
726.253	0.0160557
726.331	0.0159392
726.409	0.0158730
726.487	0.0158308
726.565	0.0160325
726.643	0.0161175
726.721	0.0159001
726.799	0.0160128
726.878	0.0159822
726.956	0.0159238
727.034	0.0159597
727.112	0.0160772
727.190	0.0162351
727.268	0.0161475
727.346	0.0162749
727.424	0.0161714
727.503	0.0162628
727.581	0.0163288
727.659	0.0163381
727.737	0.0163279
727.815	0.0162981
727.893	0.0162962
727.971	0.0163517
728.049	0.0162538
728.128	0.0163923
728.206	0.0162025
728.284	0.0162177
728.362	0.0162032
728.440	0.0162703
728.518	0.0160656
728.596	0.0161761
728.674	0.0162395
728.753	0.0162386
728.831	0.0161221
728.909	0.0161978
728.987	0.0161357
729.065	0.0162076
729.143	0.0160793
729.221	0.0159492
729.299	0.0160732
729.378	0.0160995
729.456	0.0160953
729.534	0.0159569
729.612	0.0158695
729.690	0.0158112
729.768	0.0158865
729.846	0.0157127
729.924	0.0159206
730.003	0.0158243
730.081	0.0158231
730.159	0.0157346
730.237	0.0158682
730.315	0.0157016
730.393	0.0157881
730.471	0.0157563
730.549	0.0156799
730.628	0.0156533
730.706	0.0157203
730.784	0.0157214
730.862	0.0157185
730.940	0.0155726
731.018	0.0156857
731.096	0.0157677
731.174	0.0157970
731.253	0.0156364
731.331	0.0157491
731.409	0.0157533
731.487	0.0156443
731.565	0.0157436
731.643	0.0157410
731.721	0.0156230
731.799	0.0157013
731.878	0.0157027
731.956	0.0156415
732.034	0.0157007
732.112	0.0157058
732.190	0.0155795
732.268	0.0156352
732.346	0.0155914
732.424	0.0155816
732.503	0.0156023
732.581	0.0155933
732.659	0.0157825
732.737	0.0156404
732.815	0.0155918
732.893	0.0155591
732.971	0.0155589
733.049	0.0156196
733.128	0.0156882
733.206	0.0158295
733.284	0.0157076
733.362	0.0157912
733.440	0.0159400
733.518	0.0157615
733.596	0.0158949
733.674	0.0160623
733.753	0.0158965
733.831	0.0159116
733.909	0.0160596
733.987	0.0161159
734.065	0.0159693
734.143	0.0159754
734.221	0.0160452
734.299	0.0161642
734.378	0.0162455
734.456	0.0159992
734.534	0.0161102
734.612	0.0162292
734.690	0.0162843
734.768	0.0162244
734.846	0.0163126
734.924	0.0162342
735.003	0.0162482
735.081	0.0164082
735.159	0.0163724
735.237	0.0163010
735.315	0.0165120
735.393	0.0162740
735.471	0.0164784
735.549	0.0162843
735.628	0.0163108
735.706	0.0163338
735.784	0.0162829
735.862	0.0163580
735.940	0.0162302
736.018	0.0161768
736.096	0.0161444
736.174	0.0161637
736.253	0.0161819
736.331	0.0161551
736.409	0.0162085
736.487	0.0161173
736.565	0.0160856
736.643	0.0161050
736.721	0.0159582
736.799	0.0161499
736.878	0.0161431
736.956	0.0161483
737.034	0.0160130
737.112	0.0160436
737.190	0.0160807
737.268	0.0158863
737.346	0.0159481
737.424	0.0159127
737.503	0.0157996
737.581	0.0157560
737.659	0.0158258
737.737	0.0159457
737.815	0.0157578
737.893	0.0156256
737.971	0.0157812
738.049	0.0157684
738.128	0.0157996
738.206	0.0157392
738.284	0.0155641
738.362	0.0155058
738.440	0.0156869
738.518	0.0157544
738.596	0.0156947
738.674	0.0157195
738.753	0.0156581
738.831	0.0156660
738.909	0.0156544
738.987	0.0156413
739.065	0.0156253
739.143	0.0156295
739.221	0.0156893
739.299	0.0157072
739.378	0.0157811
739.456	0.0158195
739.534	0.0157237
739.612	0.0157752
739.690	0.0157883
739.768	0.0157506
739.846	0.0157598
739.924	0.0157517
740.003	0.0159826
740.081	0.0159105
740.159	0.0158687
740.237	0.0158243
740.315	0.0159530
740.393	0.0159647
740.471	0.0157931
740.549	0.0159502
740.628	0.0158253
740.706	0.0160978
740.784	0.0159987
740.862	0.0159538
740.940	0.0161210
741.018	0.0160616
741.096	0.0160822
741.174	0.0161709
741.253	0.0161808
741.331	0.0162843
741.409	0.0162677
741.487	0.0162907
741.565	0.0162347
741.643	0.0164634
741.721	0.0162283
741.799	0.0164070
741.878	0.0162485
741.956	0.0162527
742.034	0.0162360
742.112	0.0162815
742.190	0.0161486
742.268	0.0161814
742.346	0.0161153
742.424	0.0161967
742.503	0.0162029
742.581	0.0162068
742.659	0.0162367
742.737	0.0161873
742.815	0.0162321
742.893	0.0163263
742.971	0.0163444
743.049	0.0163599
743.128	0.0163030
743.206	0.0162806
743.284	0.0164162
743.362	0.0163802
743.440	0.0163351
743.518	0.0163293
743.596	0.0162034
743.674	0.0161934
743.753	0.0161304
743.831	0.0161111
743.909	0.0161676
743.987	0.0160637
744.065	0.0159786
744.143	0.0160714
744.221	0.0159205
744.299	0.0159564
744.378	0.0158297
744.456	0.0158681
744.534	0.0159049
744.612	0.0159638
744.690	0.0159305
744.768	0.0161208
744.846	0.0159286
744.924	0.0159253
745.003	0.0159981
745.081	0.0158993
745.159	0.0158029
745.237	0.0157619
745.315	0.0158465
745.393	0.0157984
745.471	0.0156919
745.549	0.0157690
745.628	0.0157652
745.706	0.0156411
745.784	0.0157525
745.862	0.0157378
745.940	0.0158245
746.018	0.0158259
746.096	0.0157103
746.174	0.0156574
746.253	0.0156892
746.331	0.0157109
746.409	0.0157938
746.487	0.0157546
746.565	0.0155383
746.643	0.0156118
746.721	0.0155402
746.799	0.0154909
746.878	0.0156462
746.956	0.0154700
747.034	0.0155830
747.112	0.0156396
747.190	0.0155374
747.268	0.0154639
747.346	0.0154955
747.424	0.0158199
747.503	0.0157941
747.581	0.0156924
747.659	0.0157642
747.737	0.0158626
747.815	0.0158250
747.893	0.0158945
747.971	0.0157571
748.049	0.0158365
748.128	0.0159067
748.206	0.0158544
748.284	0.0158679
748.362	0.0158907
748.440	0.0160242
748.518	0.0159251
748.596	0.0159535
748.674	0.0159044
748.753	0.0158842
748.831	0.0159545
748.909	0.0159876
748.987	0.0160159
749.065	0.0160340
749.143	0.0161111
749.221	0.0159499
749.299	0.0160368
749.378	0.0159512
749.456	0.0161348
749.534	0.0161430
749.612	0.0161583
749.690	0.0161441
749.768	0.0160284
749.846	0.0161197
749.924	0.0161203
750.003	0.0160500
750.081	0.0160894
750.159	0.0159708
750.237	0.0159970
750.315	0.0161136
750.393	0.0161874
750.471	0.0160663
750.549	0.0159720
750.628	0.0159864
750.706	0.0159489
750.784	0.0160006
750.862	0.0161152
750.940	0.0160969
751.018	0.0161678
751.096	0.0160036
751.174	0.0161481
751.253	0.0161492
751.331	0.0160638
751.409	0.0159608
751.487	0.0161076
751.565	0.0160523
751.643	0.0160611
751.721	0.0158411
751.799	0.0159187
751.878	0.0159267
751.956	0.0158673
752.034	0.0159202
752.112	0.0157478
752.190	0.0159382
752.268	0.0159412
752.346	0.0158288
752.424	0.0157886
752.503	0.0159290
752.581	0.0159213
752.659	0.0159124
752.737	0.0160686
752.815	0.0159213
752.893	0.0158215
752.971	0.0156992
753.049	0.0158453
753.128	0.0158841
753.206	0.0158162
753.284	0.0157234
753.362	0.0156920
753.440	0.0157783
753.518	0.0158072
753.596	0.0157184
753.674	0.0156603
753.753	0.0155924
753.831	0.0157160
753.909	0.0156753
753.987	0.0156487
754.065	0.0159036
754.143	0.0156384
754.221	0.0156300
754.299	0.0157346
754.378	0.0158748
754.456	0.0157631
754.534	0.0157584
754.612	0.0158709
754.690	0.0157502
754.768	0.0156590
754.846	0.0157242
754.924	0.0157016
755.003	0.0157695
755.081	0.0157601
755.159	0.0157790
755.237	0.0158153
755.315	0.0158052
755.393	0.0159057
755.471	0.0159957
755.549	0.0159368
755.628	0.0159946
755.706	0.0160593
755.784	0.0160193
755.862	0.0161910
755.940	0.0160345
756.018	0.0159953
756.096	0.0161177
756.174	0.0158770
756.253	0.0159615
756.331	0.0161757
756.409	0.0160849
756.487	0.0161031
756.565	0.0160458
756.643	0.0160358
756.721	0.0160317
756.799	0.0162503
756.878	0.0160281
756.956	0.0160559
757.034	0.0162206
757.112	0.0159917
757.190	0.0162724
757.268	0.0161549
757.346	0.0162933
757.424	0.0162475
757.503	0.0162876
757.581	0.0161784
757.659	0.0163294
757.737	0.0162534
757.815	0.0163129
757.893	0.0161947
757.971	0.0161560
758.049	0.0163590
758.128	0.0162189
758.206	0.0160312
758.284	0.0161429
758.362	0.0161641
758.440	0.0159961
758.518	0.0159766
758.596	0.0160740
758.674	0.0160241
758.753	0.0160963
758.831	0.0160427
758.909	0.0160371
758.987	0.0162234
759.065	0.0160249
759.143	0.0160368
759.221	0.0161165
759.299	0.0161853
759.378	0.0159613
759.456	0.0160231
759.534	0.0160059
759.612	0.0159744
759.690	0.0160285
759.768	0.0160402
759.846	0.0160119
759.924	0.0160487
760.003	0.0159681
760.081	0.0158541
760.159	0.0159467
760.237	0.0158877
760.315	0.0158578
760.393	0.0159955
760.471	0.0156870
760.549	0.0160690
760.628	0.0159351
760.706	0.0159552
760.784	0.0158633
760.862	0.0158162
760.940	0.0158695
761.018	0.0158067
761.096	0.0157829
761.174	0.0158332
761.253	0.0158830
761.331	0.0157870
761.409	0.0158250
761.487	0.0157167
761.565	0.0159427
761.643	0.0157751
761.721	0.0158561
761.799	0.0158731
761.878	0.0157157
761.956	0.0157494
762.034	0.0158807
762.112	0.0157563
762.190	0.0158547
762.268	0.0159905
762.346	0.0159290
762.424	0.0158534
762.503	0.0158683
762.581	0.0159622
762.659	0.0158398
762.737	0.0158116
762.815	0.0157647
762.893	0.0157771
762.971	0.0158060
763.049	0.0158201
763.128	0.0159196
763.206	0.0159177
763.284	0.0158909
763.362	0.0158344
763.440	0.0159286
763.518	0.0160016
763.596	0.0161771
763.674	0.0162273
763.753	0.0159337
763.831	0.0161109
763.909	0.0161472
763.987	0.0160574
764.065	0.0161989
764.143	0.0161612
764.221	0.0162286
764.299	0.0161532
764.378	0.0161586
764.456	0.0162838
764.534	0.0162598
764.612	0.0160516
764.690	0.0161739
764.768	0.0162447
764.846	0.0161368
764.924	0.0161514
765.003	0.0161211
765.081	0.0161967
765.159	0.0161109
765.237	0.0161369
765.315	0.0161723
765.393	0.0162229
765.471	0.0160618
765.549	0.0162241
765.628	0.0161533
765.706	0.0160815
765.784	0.0160149
765.862	0.0160004
765.940	0.0161371
766.018	0.0160243
766.096	0.0160898
766.174	0.0161493
766.253	0.0162505
766.331	0.0159396
766.409	0.0160536
766.487	0.0160218
766.565	0.0160017
766.643	0.0158139
766.721	0.0160165
766.799	0.0159453
766.878	0.0159363
766.956	0.0160721
767.034	0.0159306
767.112	0.0158556
767.190	0.0159020
767.268	0.0159524
767.346	0.0158881
767.424	0.0159241
767.503	0.0159390
767.581	0.0158875
767.659	0.0159090
767.737	0.0158776
767.815	0.0159065
767.893	0.0158260
767.971	0.0158521
768.049	0.0158782
768.128	0.0157310
768.206	0.0158160
768.284	0.0158391
768.362	0.0157618
768.440	0.0157704
768.518	0.0158275
768.596	0.0157931
768.674	0.0157900
768.753	0.0158136
768.831	0.0160218
768.909	0.0157812
768.987	0.0158474
769.065	0.0158778
769.143	0.0157431
769.221	0.0158543
769.299	0.0157653
769.378	0.0157584
769.456	0.0158439
769.534	0.0156471
769.612	0.0158669
769.690	0.0156707
769.768	0.0156539
769.846	0.0157939
769.924	0.0157582
770.003	0.0158790
770.081	0.0157712
770.159	0.0157942
770.237	0.0157835
770.315	0.0157648
770.393	0.0157478
770.471	0.0157512
770.549	0.0159183
770.628	0.0158321
770.706	0.0158130
770.784	0.0158299
770.862	0.0159296
770.940	0.0159921
771.018	0.0158713
771.096	0.0159969
771.174	0.0159319
771.253	0.0161013
771.331	0.0158726
771.409	0.0158759
771.487	0.0160750
771.565	0.0160306
771.643	0.0159148
771.721	0.0159769
771.799	0.0162119
771.878	0.0161646
771.956	0.0161188
772.034	0.0160604
772.112	0.0162302
772.190	0.0162081
772.268	0.0160944
772.346	0.0164059
772.424	0.0162116
772.503	0.0161510
772.581	0.0162005
772.659	0.0160910
772.737	0.0161188
772.815	0.0162918
772.893	0.0162042
772.971	0.0162518
773.049	0.0162070
773.128	0.0160788
773.206	0.0162886
773.284	0.0160909
773.362	0.0160987
773.440	0.0161045
773.518	0.0161888
773.596	0.0161375
773.674	0.0159978
773.753	0.0161240
773.831	0.0161981
773.909	0.0161414
773.987	0.0162012
774.065	0.0160616
774.143	0.0160606
774.221	0.0160671
774.299	0.0161386
774.378	0.0161615
774.456	0.0161217
774.534	0.0159354
774.612	0.0159646
774.690	0.0159561
774.768	0.0159521
774.846	0.0160384
774.924	0.0157851
775.003	0.0158772
775.081	0.0159259
775.159	0.0158601
775.237	0.0159692
775.315	0.0160462
775.393	0.0159679
775.471	0.0158404
775.549	0.0158879
775.628	0.0160905
775.706	0.0159732
775.784	0.0158260
775.862	0.0158166
775.940	0.0158355
776.018	0.0158492
776.096	0.0158202
776.174	0.0159322
776.253	0.0159199
776.331	0.0157350
776.409	0.0158444
776.487	0.0160095
776.565	0.0158467
776.643	0.0157554
776.721	0.0159410
776.799	0.0160019
776.878	0.0160309
776.956	0.0159632
777.034	0.0160131
777.112	0.0158743
777.190	0.0161290
777.268	0.0160114
777.346	0.0159008
777.424	0.0159662
777.503	0.0158968
777.581	0.0159329
777.659	0.0159850
777.737	0.0159579
777.815	0.0157802
777.893	0.0159270
777.971	0.0159338
778.049	0.0159634
778.128	0.0158857
778.206	0.0160596
778.284	0.0160509
778.362	0.0160075
778.440	0.0161798
778.518	0.0159921
778.596	0.0160161
778.674	0.0161053
778.753	0.0161115
778.831	0.0161288
778.909	0.0160696
778.987	0.0160707
779.065	0.0160249
779.143	0.0160703
779.221	0.0160880
779.299	0.0161346
779.378	0.0161015
779.456	0.0161275
779.534	0.0161240
779.612	0.0161584
779.690	0.0160674
779.768	0.0161184
779.846	0.0163074
779.924	0.0163660
780.003	0.0162952
780.081	0.0163175
780.159	0.0161861
780.237	0.0160699
780.315	0.0162879
780.393	0.0162688
780.471	0.0161335
780.549	0.0161185
780.628	0.0159322
780.706	0.0160669
780.784	0.0160671
780.862	0.0160074
780.940	0.0159957
781.018	0.0160537
781.096	0.0160742
781.174	0.0158675
781.253	0.0159016
781.331	0.0159298
781.409	0.0161218
781.487	0.0159765
781.565	0.0160892
781.643	0.0160673
781.721	0.0161218
781.799	0.0160741
781.878	0.0159692
781.956	0.0160374
782.034	0.0160147
782.112	0.0160370
782.190	0.0161507
782.268	0.0159654
782.346	0.0160057
782.424	0.0159594
782.503	0.0158223
782.581	0.0159434
782.659	0.0158144
782.737	0.0158001
782.815	0.0159337
782.893	0.0158598
782.971	0.0158576
783.049	0.0157502
783.128	0.0157787
783.206	0.0159229
783.284	0.0159234
783.362	0.0159468
783.440	0.0160696
783.518	0.0160256
783.596	0.0160709
783.674	0.0162118
783.753	0.0160282
783.831	0.0161307
783.909	0.0161203
783.987	0.0160064
784.065	0.0160130
784.143	0.0159119
784.221	0.0159428
784.299	0.0159248
784.378	0.0159147
784.456	0.0159504
784.534	0.0158096
784.612	0.0159143
784.690	0.0158999
784.768	0.0158994
784.846	0.0159203
784.924	0.0157745
785.003	0.0159106
785.081	0.0159470
785.159	0.0160278
785.237	0.0160133
785.315	0.0159619
785.393	0.0159807
785.471	0.0159570
785.549	0.0159635
785.628	0.0160101
785.706	0.0158569
785.784	0.0158998
785.862	0.0159483
785.940	0.0159481
786.018	0.0158468
786.096	0.0157228
786.174	0.0159052
786.253	0.0158241
786.331	0.0158440
786.409	0.0159251
786.487	0.0159469
786.565	0.0159147
786.643	0.0158658
786.721	0.0158405
786.799	0.0159332
786.878	0.0159689
786.956	0.0158434
787.034	0.0159367
787.112	0.0159071
787.190	0.0158669
787.268	0.0158860
787.346	0.0159747
787.424	0.0158433
787.503	0.0158872
787.581	0.0160278
787.659	0.0160316
787.737	0.0159440
787.815	0.0160146
787.893	0.0159474
787.971	0.0160343
788.049	0.0160418
788.128	0.0160833
788.206	0.0160108
788.284	0.0159638
788.362	0.0160419
788.440	0.0161488
788.518	0.0162156
788.596	0.0162693
788.674	0.0160904
788.753	0.0160493
788.831	0.0160648
788.909	0.0160522
788.987	0.0161378
789.065	0.0160949
789.143	0.0160553
789.221	0.0162090
789.299	0.0161280
789.378	0.0163256
789.456	0.0162083
789.534	0.0161797
789.612	0.0161472
789.690	0.0159908
789.768	0.0161315
789.846	0.0161362
789.924	0.0160972
790.003	0.0160453
790.081	0.0160529
790.159	0.0159960
790.237	0.0160149
790.315	0.0161318
790.393	0.0161395
790.471	0.0159793
790.549	0.0160381
790.628	0.0158843
790.706	0.0159705
790.784	0.0160110
790.862	0.0159251
790.940	0.0159069
791.018	0.0158157
791.096	0.0158127
791.174	0.0157939
791.253	0.0158636
791.331	0.0160600
791.409	0.0159208
791.487	0.0158660
791.565	0.0159648
791.643	0.0160890
791.721	0.0158461
791.799	0.0159504
791.878	0.0160384
791.956	0.0159288
792.034	0.0159562
792.112	0.0159184
792.190	0.0158894
792.268	0.0159101
792.346	0.0157996
792.424	0.0158413
792.503	0.0159650
792.581	0.0158691
792.659	0.0157394
792.737	0.0158309
792.815	0.0158502
792.893	0.0159305
792.971	0.0157417
793.049	0.0159779
793.128	0.0160507
793.206	0.0159029
793.284	0.0159549
793.362	0.0159729
793.440	0.0160659
793.518	0.0160905
793.596	0.0161240
793.674	0.0160426
793.753	0.0160055
793.831	0.0160328
793.909	0.0159897
793.987	0.0158940
794.065	0.0160056
794.143	0.0159630
794.221	0.0159875
794.299	0.0158966
794.378	0.0158214
794.456	0.0159679
794.534	0.0158239
794.612	0.0157654
794.690	0.0159344
794.768	0.0160194
794.846	0.0159567
794.924	0.0159924
795.003	0.0161061
795.081	0.0160374
795.159	0.0160583
795.237	0.0160387
795.315	0.0158988
795.393	0.0162217
795.471	0.0161169
795.549	0.0160007
795.628	0.0161533
795.706	0.0160778
795.784	0.0160402
795.862	0.0161143
795.940	0.0160571
796.018	0.0161938
796.096	0.0160279
796.174	0.0161130
796.253	0.0161629
796.331	0.0161914
796.409	0.0160308
796.487	0.0159574
796.565	0.0161155
796.643	0.0161366
796.721	0.0160309
796.799	0.0161384
796.878	0.0160848
796.956	0.0159212
797.034	0.0159979
797.112	0.0159988
797.190	0.0161024
797.268	0.0161028
797.346	0.0159547
797.424	0.0161222
797.503	0.0160144
797.581	0.0161292
797.659	0.0159753
797.737	0.0160997
797.815	0.0161186
797.893	0.0159675
797.971	0.0160468
798.049	0.0160037
798.128	0.0160696
798.206	0.0160728
798.284	0.0159991
798.362	0.0158398
798.440	0.0160352
798.518	0.0160310
798.596	0.0158862
798.674	0.0158183
798.753	0.0158878
798.831	0.0159183
798.909	0.0158803
798.987	0.0158551
799.065	0.0159753
799.143	0.0158638
799.221	0.0158703
799.299	0.0160629
799.378	0.0160484
799.456	0.0160133
799.534	0.0160614
799.612	0.0160316
799.690	0.0159975
799.768	0.0160715
799.846	0.0160142
799.924	0.0159214
800.003	0.0160793
800.081	0.0160758
800.159	0.0160455
800.237	0.0161539
800.315	0.0161265
800.393	0.0160555
800.471	0.0160339
800.549	0.0160509
800.628	0.0159339
800.706	0.0160221
800.784	0.0160365
800.862	0.0159223
800.940	0.0160299
801.018	0.0159324
801.096	0.0160166
801.174	0.0160101
801.253	0.0159069
801.331	0.0159480
801.409	0.0161317
801.487	0.0161394
801.565	0.0160764
801.643	0.0160863
801.721	0.0161313
801.799	0.0162276
801.878	0.0160722
801.956	0.0161446
802.034	0.0162981
802.112	0.0161149
802.190	0.0160284
802.268	0.0162237
802.346	0.0162685
802.424	0.0161009
802.503	0.0161381
802.581	0.0162287
802.659	0.0161678
802.737	0.0161993
802.815	0.0161613
802.893	0.0161169
802.971	0.0161590
803.049	0.0160634
803.128	0.0159470
803.206	0.0161439
803.284	0.0159791
803.362	0.0161208
803.440	0.0161098
803.518	0.0160446
803.596	0.0161781
803.674	0.0161038
803.753	0.0158241
803.831	0.0159260
803.909	0.0159721
803.987	0.0161234
804.065	0.0160439
804.143	0.0160986
804.221	0.0161654
804.299	0.0159187
804.378	0.0161119
804.456	0.0159943
804.534	0.0158984
804.612	0.0158952
804.690	0.0159579
804.768	0.0159715
804.846	0.0159050
804.924	0.0159359
805.003	0.0159205
805.081	0.0158372
805.159	0.0156960
805.237	0.0158719
805.315	0.0157912
805.393	0.0157700
805.471	0.0157569
805.549	0.0158087
805.628	0.0158626
805.706	0.0158269
805.784	0.0157240
805.862	0.0157201
805.940	0.0158208
806.018	0.0159291
806.096	0.0159165
806.174	0.0158214
806.253	0.0158753
806.331	0.0160930
806.409	0.0159437
806.487	0.0159137
806.565	0.0158604
806.643	0.0158733
806.721	0.0157501
806.799	0.0158614
806.878	0.0160365
806.956	0.0158066
807.034	0.0160040
807.112	0.0158206
807.190	0.0158652
807.268	0.0158987
807.346	0.0157994
807.424	0.0159351
807.503	0.0159549
807.581	0.0159309
807.659	0.0158475
807.737	0.0158784
807.815	0.0159212
807.893	0.0159044
807.971	0.0157970
808.049	0.0158541
808.128	0.0160166
808.206	0.0158497
808.284	0.0159914
808.362	0.0161012
808.440	0.0159747
808.518	0.0160831
808.596	0.0160255
808.674	0.0160002
808.753	0.0160929
808.831	0.0161520
808.909	0.0161300
808.987	0.0159750
809.065	0.0160985
809.143	0.0160741
809.221	0.0159705
809.299	0.0161297
809.378	0.0160970
809.456	0.0160320
809.534	0.0161596
809.612	0.0161694
809.690	0.0158956
809.768	0.0161022
809.846	0.0161637
809.924	0.0160217
810.003	0.0160616
810.081	0.0160276
810.159	0.0159905
810.237	0.0160027
810.315	0.0161245
810.393	0.0160489
810.471	0.0160771
810.549	0.0158929
810.628	0.0158769
810.706	0.0159844
810.784	0.0160728
810.862	0.0159254
810.940	0.0161010
811.018	0.0160951
811.096	0.0158909
811.174	0.0160678
811.253	0.0160567
811.331	0.0159393
811.409	0.0159164
811.487	0.0159979
811.565	0.0160743
811.643	0.0160461
811.721	0.0160994
811.799	0.0159608
811.878	0.0160884
811.956	0.0160556
812.034	0.0158039
812.112	0.0158501
812.190	0.0158884
812.268	0.0159621
812.346	0.0159589
812.424	0.0159956
812.503	0.0157897
812.581	0.0159008
812.659	0.0159507
812.737	0.0158741
812.815	0.0159251
812.893	0.0159761
812.971	0.0159577
813.049	0.0159840
813.128	0.0159553
813.206	0.0158842
813.284	0.0159171
813.362	0.0159035
813.440	0.0157635
813.518	0.0158533
813.596	0.0158518
813.674	0.0157707
813.753	0.0160072
813.831	0.0159127
813.909	0.0158361
813.987	0.0159406
814.065	0.0159872
814.143	0.0159666
814.221	0.0157484
814.299	0.0158862
814.378	0.0158671
814.456	0.0159020
814.534	0.0160487
814.612	0.0159113
814.690	0.0159060
814.768	0.0159668
814.846	0.0160398
814.924	0.0160262
815.003	0.0160020
815.081	0.0159620
815.159	0.0160307
815.237	0.0159774
815.315	0.0160789
815.393	0.0160641
815.471	0.0160348
815.549	0.0159811
815.628	0.0159869
815.706	0.0160323
815.784	0.0159825
815.862	0.0159829
815.940	0.0161256
816.018	0.0160095
816.096	0.0159995
816.174	0.0160638
816.253	0.0159608
816.331	0.0160001
816.409	0.0160276
816.487	0.0160142
816.565	0.0161499
816.643	0.0160506
816.721	0.0161212
816.799	0.0159586
816.878	0.0159404
816.956	0.0160809
817.034	0.0160352
817.112	0.0161085
817.190	0.0160435
817.268	0.0159402
817.346	0.0159532
817.424	0.0160439
817.503	0.0159400
817.581	0.0159209
817.659	0.0158371
817.737	0.0159972
817.815	0.0159168
817.893	0.0158642
817.971	0.0158986
818.049	0.0158938
818.128	0.0158684
818.206	0.0158588
818.284	0.0159537
818.362	0.0159014
818.440	0.0159067
818.518	0.0157996
818.596	0.0158944
818.674	0.0159837
818.753	0.0158901
818.831	0.0157603
818.909	0.0159689
818.987	0.0157813
819.065	0.0158826
819.143	0.0160805
819.221	0.0158706
819.299	0.0159859
819.378	0.0158813
819.456	0.0158654
819.534	0.0158026
819.612	0.0158401
819.690	0.0160253
819.768	0.0159527
819.846	0.0158558
819.924	0.0158694
820.003	0.0160214
820.081	0.0159857
820.159	0.0159559
820.237	0.0159438
820.315	0.0158378
820.393	0.0158997
820.471	0.0161230
820.549	0.0159487
820.628	0.0159270
820.706	0.0159508
820.784	0.0157677
820.862	0.0158469
820.940	0.0158921
821.018	0.0157982
821.096	0.0159755
821.174	0.0159173
821.253	0.0159975
821.331	0.0158480
821.409	0.0159399
821.487	0.0160296
821.565	0.0159459
821.643	0.0159727
821.721	0.0159566
821.799	0.0157773
821.878	0.0160296
821.956	0.0158530
822.034	0.0160682
822.112	0.0160010
822.190	0.0159534
822.268	0.0158512
822.346	0.0160022
822.424	0.0159050
822.503	0.0160692
822.581	0.0159396
822.659	0.0158298
822.737	0.0159770
822.815	0.0160078
822.893	0.0160520
822.971	0.0159499
823.049	0.0159378
823.128	0.0159678
823.206	0.0159595
823.284	0.0157885
823.362	0.0159451
823.440	0.0159412
823.518	0.0158434
823.596	0.0160226
823.674	0.0159248
823.753	0.0159173
823.831	0.0159140
823.909	0.0158649
823.987	0.0158356
824.065	0.0158883
824.143	0.0157937
824.221	0.0158360
824.299	0.0158175
824.378	0.0159575
824.456	0.0158387
824.534	0.0158179
824.612	0.0159574
824.690	0.0159542
824.768	0.0159077
824.846	0.0159371
824.924	0.0159563
825.003	0.0159470
825.081	0.0159128
825.159	0.0157957
825.237	0.0160837
825.315	0.0160773
825.393	0.0161412
825.471	0.0161033
825.549	0.0160451
825.628	0.0160730
825.706	0.0159545
825.784	0.0160275
825.862	0.0159901
825.940	0.0159229
826.018	0.0159872
826.096	0.0160378
826.174	0.0159182
826.253	0.0160576
826.331	0.0161445
826.409	0.0159758
826.487	0.0159379
826.565	0.0158866
826.643	0.0158925
826.721	0.0161401
826.799	0.0159651
826.878	0.0158575
826.956	0.0159692
827.034	0.0159338
827.112	0.0160236
827.190	0.0158315
827.268	0.0159546
827.346	0.0159282
827.424	0.0158580
827.503	0.0158879
827.581	0.0161028
827.659	0.0159119
827.737	0.0158968
827.815	0.0159155
827.893	0.0159576
827.971	0.0159802
828.049	0.0159895
828.128	0.0159505
828.206	0.0158516
828.284	0.0159076
828.362	0.0157941
828.440	0.0157905
828.518	0.0159545
828.596	0.0157706
828.674	0.0158078
828.753	0.0157947
828.831	0.0160242
828.909	0.0159792
828.987	0.0158369
829.065	0.0157854
829.143	0.0158334
829.221	0.0159644
829.299	0.0158547
829.378	0.0158472
829.456	0.0158662
829.534	0.0158665
829.612	0.0157735
829.690	0.0159759
829.768	0.0160567
829.846	0.0160469
829.924	0.0157617
830.003	0.0159651
830.081	0.0158838
830.159	0.0160155
830.237	0.0159940
830.315	0.0160188
830.393	0.0158216
830.471	0.0158794
830.549	0.0159415
830.628	0.0161024
830.706	0.0158972
830.784	0.0158881
830.862	0.0161199
830.940	0.0160723
831.018	0.0159285
831.096	0.0157596
831.174	0.0159022
831.253	0.0159676
831.331	0.0158403
831.409	0.0160339
831.487	0.0159393
831.565	0.0160728
831.643	0.0160229
831.721	0.0159592
831.799	0.0160063
831.878	0.0160309
831.956	0.0160181
832.034	0.0160533
832.112	0.0160065
832.190	0.0160125
832.268	0.0160248
832.346	0.0159539
832.424	0.0159818
832.503	0.0159042
832.581	0.0160003
832.659	0.0159988
832.737	0.0159475
832.815	0.0160052
832.893	0.0159818
832.971	0.0159993
833.049	0.0159605
833.128	0.0161063
833.206	0.0160648
833.284	0.0158878
833.362	0.0160583
833.440	0.0161247
833.518	0.0161116
833.596	0.0160281
833.674	0.0160260
833.753	0.0159651
833.831	0.0160287
833.909	0.0159715
833.987	0.0158743
834.065	0.0160003
834.143	0.0159709
834.221	0.0158263
834.299	0.0160054
834.378	0.0160158
834.456	0.0160757
834.534	0.0158920
834.612	0.0159805
834.690	0.0159434
834.768	0.0160893
834.846	0.0160553
834.924	0.0158736
835.003	0.0158118
835.081	0.0160037
835.159	0.0160202
835.237	0.0159349
835.315	0.0157916
835.393	0.0160404
835.471	0.0160598
835.549	0.0158057
835.628	0.0159000
835.706	0.0158348
835.784	0.0158195
835.862	0.0158662
835.940	0.0159090
836.018	0.0158831
836.096	0.0159052
836.174	0.0158764
836.253	0.0159532
836.331	0.0158646
836.409	0.0158051
836.487	0.0158331
836.565	0.0159401
836.643	0.0158757
836.721	0.0159621
836.799	0.0158204
836.878	0.0159435
836.956	0.0158658
837.034	0.0158282
837.112	0.0157896
837.190	0.0160284
837.268	0.0160384
837.346	0.0159264
837.424	0.0159808
837.503	0.0158923
837.581	0.0159719
837.659	0.0159802
837.737	0.0159837
837.815	0.0160009
837.893	0.0159093
837.971	0.0159583
838.049	0.0158225
838.128	0.0159416
838.206	0.0159605
838.284	0.0158821
838.362	0.0158477
838.440	0.0158880
838.518	0.0158418
838.596	0.0158659
838.674	0.0159360
838.753	0.0158195
838.831	0.0159306
838.909	0.0158855
838.987	0.0157624
839.065	0.0160880
839.143	0.0158928
839.221	0.0159486
839.299	0.0158955
839.378	0.0159487
839.456	0.0157954
839.534	0.0159809
839.612	0.0160535
839.690	0.0159208
839.768	0.0158414
839.846	0.0159376
839.924	0.0160797
840.003	0.0160551
840.081	0.0159628
840.159	0.0160626
840.237	0.0159689
840.315	0.0159425
840.393	0.0159967
840.471	0.0159538
840.549	0.0159946
840.628	0.0160062
840.706	0.0161172
840.784	0.0160825
840.862	0.0160579
840.940	0.0159650
841.018	0.0160393
841.096	0.0161003
841.174	0.0159023
841.253	0.0159982
841.331	0.0159578
841.409	0.0157426
841.487	0.0159136
841.565	0.0160302
841.643	0.0159644
841.721	0.0158193
841.799	0.0159158
841.878	0.0158826
841.956	0.0160126
842.034	0.0159821
842.112	0.0159330
842.190	0.0159771
842.268	0.0159196
842.346	0.0159238
842.424	0.0159069
842.503	0.0158055
842.581	0.0160143
842.659	0.0159216
842.737	0.0159075
842.815	0.0158819
842.893	0.0158582
842.971	0.0160202
843.049	0.0160134
843.128	0.0158044
843.206	0.0158485
843.284	0.0159435
843.362	0.0158910
843.440	0.0159549
843.518	0.0158940
843.596	0.0159235
843.674	0.0159866
843.753	0.0160031
843.831	0.0160085
843.909	0.0159096
843.987	0.0161332
844.065	0.0158353
844.143	0.0159702
844.221	0.0159185
844.299	0.0158632
844.378	0.0158952
844.456	0.0158284
844.534	0.0159071
844.612	0.0159604
844.690	0.0159059
844.768	0.0160339
844.846	0.0159048
844.924	0.0160056
845.003	0.0159541
845.081	0.0158009
845.159	0.0159855
845.237	0.0159474
845.315	0.0159788
845.393	0.0159678
845.471	0.0159229
845.549	0.0159818
845.628	0.0159954
845.706	0.0157987
845.784	0.0158889
845.862	0.0158594
845.940	0.0158023
846.018	0.0158662
846.096	0.0159434
846.174	0.0159473
846.253	0.0158857
846.331	0.0159206
846.409	0.0159511
846.487	0.0158137
846.565	0.0159198
846.643	0.0157439
846.721	0.0158239
846.799	0.0158522
846.878	0.0159513
846.956	0.0159238
847.034	0.0159078
847.112	0.0159957
847.190	0.0158745
847.268	0.0160246
847.346	0.0159886
847.424	0.0159921
847.503	0.0161042
847.581	0.0159345
847.659	0.0160271
847.737	0.0161130
847.815	0.0161539
847.893	0.0159626
847.971	0.0159608
848.049	0.0160180
848.128	0.0159917
848.206	0.0160110
848.284	0.0160071
848.362	0.0158801
848.440	0.0158443
848.518	0.0159974
848.596	0.0157886
848.674	0.0159117
848.753	0.0160094
848.831	0.0160499
848.909	0.0159747
848.987	0.0159324
849.065	0.0157967
849.143	0.0159262
849.221	0.0158591
849.299	0.0160373
849.378	0.0159727
849.456	0.0158791
849.534	0.0158778
849.612	0.0160084
849.690	0.0160079
849.768	0.0159728
849.846	0.0159997
849.924	0.0158776
850.003	0.0158944
850.081	0.0158895
850.159	0.0158875
850.237	0.0159209
850.315	0.0158971
850.393	0.0159070
850.471	0.0159258
850.549	0.0159473
850.628	0.0158916
850.706	0.0158450
850.784	0.0159269
850.862	0.0159237
850.940	0.0159732
851.018	0.0159305
851.096	0.0159122
851.174	0.0160335
851.253	0.0160249
851.331	0.0158999
851.409	0.0158192
851.487	0.0158879
851.565	0.0158733
851.643	0.0160197
851.721	0.0161174
851.799	0.0160046
851.878	0.0160318
851.956	0.0160284
852.034	0.0158858
852.112	0.0159883
852.190	0.0160229
852.268	0.0161821
852.346	0.0160126
852.424	0.0160012
852.503	0.0160658
852.581	0.0160378
852.659	0.0159598
852.737	0.0160741
852.815	0.0159361
852.893	0.0161020
852.971	0.0159673
853.049	0.0158894
853.128	0.0158614
853.206	0.0159225
853.284	0.0160319
853.362	0.0160458
853.440	0.0159782
853.518	0.0160905
853.596	0.0158896
853.674	0.0161094
853.753	0.0161143
853.831	0.0159312
853.909	0.0161148
853.987	0.0160525
854.065	0.0159824
854.143	0.0160838
854.221	0.0160770
854.299	0.0160595
854.378	0.0160843
854.456	0.0159752
854.534	0.0159726
854.612	0.0159865
854.690	0.0160919
854.768	0.0160606
854.846	0.0160936
854.924	0.0159171
855.003	0.0159740
855.081	0.0160799
855.159	0.0161472
855.237	0.0159775
855.315	0.0160085
855.393	0.0159933
855.471	0.0159953
855.549	0.0160165
855.628	0.0160334
855.706	0.0160749
855.784	0.0159672
855.862	0.0160621
855.940	0.0160838
856.018	0.0159802
856.096	0.0160207
856.174	0.0161528
856.253	0.0160143
856.331	0.0160199
856.409	0.0160169
856.487	0.0159618
856.565	0.0159432
856.643	0.0160760
856.721	0.0161815
856.799	0.0160348
856.878	0.0159588
856.956	0.0159835
857.034	0.0161383
857.112	0.0161098
857.190	0.0161378
857.268	0.0160757
857.346	0.0159801
857.424	0.0160262
857.503	0.0159805
857.581	0.0160004
857.659	0.0159655
857.737	0.0160403
857.815	0.0160445
857.893	0.0160303
857.971	0.0161127
858.049	0.0160206
858.128	0.0159345
858.206	0.0158982
858.284	0.0157886
858.362	0.0158884
858.440	0.0159399
858.518	0.0158701
858.596	0.0159975
858.674	0.0160091
858.753	0.0159083
858.831	0.0158274
858.909	0.0160100
858.987	0.0159363
859.065	0.0159589
859.143	0.0157993
859.221	0.0159097
859.299	0.0159563
859.378	0.0161022
859.456	0.0159436
859.534	0.0159979
859.612	0.0160782
859.690	0.0159661
859.768	0.0160161
859.846	0.0159278
859.924	0.0160886
860.003	0.0159493
860.081	0.0159148
860.159	0.0160056
860.237	0.0159638
860.315	0.0159983
860.393	0.0160176
860.471	0.0158799
860.549	0.0160597
860.628	0.0160802
860.706	0.0158765
860.784	0.0158525
860.862	0.0158583
860.940	0.0159486
861.018	0.0159085
861.096	0.0158696
861.174	0.0159496
861.253	0.0160117
861.331	0.0160201
861.409	0.0159727
861.487	0.0159706
861.565	0.0160386
861.643	0.0159620
861.721	0.0159872
861.799	0.0161077
861.878	0.0160151
861.956	0.0159977
862.034	0.0160622
862.112	0.0160533
862.190	0.0160126
862.268	0.0160771
862.346	0.0159647
862.424	0.0159422
862.503	0.0159441
862.581	0.0161309
862.659	0.0160561
862.737	0.0159163
862.815	0.0159325
862.893	0.0160255
862.971	0.0159578
863.049	0.0159531
863.128	0.0160175
863.206	0.0157995
863.284	0.0160242
863.362	0.0160091
863.440	0.0160267
863.518	0.0159076
863.596	0.0160548
863.674	0.0159496
863.753	0.0160155
863.831	0.0159447
863.909	0.0159342
863.987	0.0160397
864.065	0.0160305
864.143	0.0160629
864.221	0.0161213
864.299	0.0161101
864.378	0.0160963
864.456	0.0161340
864.534	0.0159400
864.612	0.0159715
864.690	0.0160426
864.768	0.0160262
864.846	0.0160806
864.924	0.0159714
865.003	0.0158774
865.081	0.0158453
865.159	0.0158065
865.237	0.0159808
865.315	0.0158652
865.393	0.0158900
865.471	0.0159314
865.549	0.0157336
865.628	0.0158932
865.706	0.0158868
865.784	0.0158543
865.862	0.0158394
865.940	0.0159186
866.018	0.0160490
866.096	0.0159856
866.174	0.0160526
866.253	0.0159992
866.331	0.0159434
866.409	0.0159473
866.487	0.0159247
866.565	0.0159342
866.643	0.0159541
866.721	0.0159988
866.799	0.0159785
866.878	0.0159985
866.956	0.0159348
867.034	0.0159309
867.112	0.0158629
867.190	0.0157825
867.268	0.0157529
867.346	0.0158845
867.424	0.0158851
867.503	0.0159272
867.581	0.0159013
867.659	0.0158570
867.737	0.0159842
867.815	0.0158749
867.893	0.0159421
867.971	0.0160081
868.049	0.0160133
868.128	0.0159773
868.206	0.0159371
868.284	0.0160488
868.362	0.0160639
868.440	0.0161185
868.518	0.0159263
868.596	0.0160727
868.674	0.0159636
868.753	0.0160028
868.831	0.0158356
868.909	0.0158600
868.987	0.0158624
869.065	0.0160482
869.143	0.0157936
869.221	0.0159153
869.299	0.0158861
869.378	0.0159361
869.456	0.0158951
869.534	0.0160126
869.612	0.0159071
869.690	0.0157732
869.768	0.0160378
869.846	0.0158942
869.924	0.0160839
870.003	0.0159710
870.081	0.0159126
870.159	0.0159795
870.237	0.0160371
870.315	0.0158704
870.393	0.0159013
870.471	0.0159718
870.549	0.0160740
870.628	0.0160463
870.706	0.0158414
870.784	0.0161014
870.862	0.0160506
870.940	0.0160284
871.018	0.0160226
871.096	0.0159647
871.174	0.0160320
871.253	0.0160486
871.331	0.0161375
871.409	0.0159229
871.487	0.0160638
871.565	0.0159733
871.643	0.0160845
871.721	0.0160772
871.799	0.0160139
871.878	0.0159135
871.956	0.0160361
872.034	0.0160765
872.112	0.0159517
872.190	0.0160757
872.268	0.0160854
872.346	0.0159520
872.424	0.0159345
872.503	0.0160023
872.581	0.0161075
872.659	0.0160260
872.737	0.0160258
872.815	0.0161411
872.893	0.0159457
872.971	0.0160793
873.049	0.0161465
873.128	0.0160334
873.206	0.0159190
873.284	0.0161117
873.362	0.0161145
873.440	0.0160226
873.518	0.0158911
873.596	0.0160709
873.674	0.0160496
873.753	0.0160637
873.831	0.0159536
873.909	0.0158663
873.987	0.0158915
874.065	0.0159808
874.143	0.0159568
874.221	0.0160517
874.299	0.0159239
874.378	0.0159174
874.456	0.0159446
874.534	0.0158553
874.612	0.0157877
874.690	0.0160244
874.768	0.0160686
874.846	0.0159724
874.924	0.0158846
875.003	0.0159101
875.081	0.0159880
875.159	0.0160143
875.237	0.0159278
875.315	0.0159444
875.393	0.0162137
875.471	0.0161201
875.549	0.0158385
875.628	0.0158713
875.706	0.0159965
875.784	0.0161124
875.862	0.0160923
875.940	0.0159037
876.018	0.0158389
876.096	0.0159710
876.174	0.0160730
876.253	0.0157552
876.331	0.0158547
876.409	0.0159665
876.487	0.0160071
876.565	0.0158968
876.643	0.0160538
876.721	0.0160017
876.799	0.0159361
876.878	0.0159602
876.956	0.0159443
877.034	0.0159693
877.112	0.0159570
877.190	0.0160188
877.268	0.0160776
877.346	0.0159186
877.424	0.0159792
877.503	0.0160533
877.581	0.0160979
877.659	0.0160765
877.737	0.0161223
877.815	0.0160994
877.893	0.0160754
877.971	0.0160068
878.049	0.0159580
878.128	0.0161375
878.206	0.0160113
878.284	0.0158955
878.362	0.0157981
878.440	0.0159927
878.518	0.0160867
878.596	0.0160184
878.674	0.0159647
878.753	0.0159603
878.831	0.0160151
878.909	0.0159962
878.987	0.0163037
879.065	0.0161825
879.143	0.0161203
879.221	0.0160892
879.299	0.0161669
879.378	0.0162274
879.456	0.0160610
879.534	0.0161555
879.612	0.0160966
879.690	0.0162278
879.768	0.0161781
879.846	0.0160365
879.924	0.0160703
880.003	0.0160371
880.081	0.0161862
880.159	0.0160892
880.237	0.0160966
880.315	0.0160999
880.393	0.0160724
880.471	0.0161588
880.549	0.0161399
880.628	0.0161414
880.706	0.0160691
880.784	0.0159754
880.862	0.0160085
880.940	0.0161849
881.018	0.0160378
881.096	0.0160780
881.174	0.0160754
881.253	0.0159557
881.331	0.0160573
881.409	0.0159625
881.487	0.0159840
881.565	0.0160341
881.643	0.0159892
881.721	0.0158652
881.799	0.0159247
881.878	0.0161105
881.956	0.0159279
882.034	0.0158405
882.112	0.0158216
882.190	0.0159579
882.268	0.0160395
882.346	0.0158681
882.424	0.0158503
882.503	0.0158119
882.581	0.0159579
882.659	0.0158076
882.737	0.0158773
882.815	0.0158846
882.893	0.0158958
882.971	0.0159476
883.049	0.0160305
883.128	0.0158743
883.206	0.0160252
883.284	0.0159753
883.362	0.0159755
883.440	0.0160753
883.518	0.0159943
883.596	0.0160181
883.674	0.0160779
883.753	0.0159943
883.831	0.0160622
883.909	0.0160625
883.987	0.0159605
884.065	0.0160195
884.143	0.0159957
884.221	0.0161519
884.299	0.0160735
884.378	0.0159214
884.456	0.0158694
884.534	0.0158698
884.612	0.0160211
884.690	0.0159871
884.768	0.0158968
884.846	0.0160185
884.924	0.0159063
885.003	0.0159227
885.081	0.0161810
885.159	0.0160785
885.237	0.0160896
885.315	0.0159820
885.393	0.0160984
885.471	0.0159349
885.549	0.0159122
885.628	0.0159777
885.706	0.0160320
885.784	0.0157774
885.862	0.0160458
885.940	0.0160770
886.018	0.0159762
886.096	0.0158633
886.174	0.0158266
886.253	0.0159848
886.331	0.0160114
886.409	0.0159552
886.487	0.0159189
886.565	0.0160025
886.643	0.0159778
886.721	0.0160281
886.799	0.0161366
886.878	0.0159638
886.956	0.0161527
887.034	0.0160216
887.112	0.0160350
887.190	0.0160700
887.268	0.0161116
887.346	0.0160351
887.424	0.0160828
887.503	0.0160271
887.581	0.0160776
887.659	0.0158670
887.737	0.0159752
887.815	0.0160365
887.893	0.0159295
887.971	0.0160015
888.049	0.0158739
888.128	0.0160358
888.206	0.0159322
888.284	0.0159056
888.362	0.0159103
888.440	0.0157285
888.518	0.0159734
888.596	0.0159030
888.674	0.0157539
888.753	0.0159168
888.831	0.0158994
888.909	0.0158270
888.987	0.0159205
889.065	0.0158581
889.143	0.0159005
889.221	0.0159531
889.299	0.0159534
889.378	0.0158842
889.456	0.0159864
889.534	0.0160222
889.612	0.0158515
889.690	0.0158252
889.768	0.0159366
889.846	0.0159758
889.924	0.0158446
890.003	0.0158698
890.081	0.0159257
890.159	0.0158973
890.237	0.0157623
890.315	0.0159421
890.393	0.0160587
890.471	0.0159544
890.549	0.0158936
890.628	0.0159222
890.706	0.0159919
890.784	0.0159521
890.862	0.0160094
890.940	0.0159931
891.018	0.0159505
891.096	0.0158984
891.174	0.0159392
891.253	0.0159538
891.331	0.0158511
891.409	0.0159981
891.487	0.0159595
891.565	0.0158514
891.643	0.0159434
891.721	0.0158182
891.799	0.0159069
891.878	0.0158478
891.956	0.0157807
892.034	0.0158744
892.112	0.0158211
892.190	0.0158078
892.268	0.0159075
892.346	0.0158796
892.424	0.0157484
892.503	0.0157505
892.581	0.0158958
892.659	0.0158320
892.737	0.0159164
892.815	0.0159793
892.893	0.0158786
892.971	0.0159297
893.049	0.0158677
893.128	0.0157903
893.206	0.0158706
893.284	0.0159177
893.362	0.0158126
893.440	0.0159532
893.518	0.0158418
893.596	0.0158495
893.674	0.0159417
893.753	0.0158759
893.831	0.0158435
893.909	0.0160529
893.987	0.0158445
894.065	0.0159817
894.143	0.0159775
894.221	0.0159457
894.299	0.0158882
894.378	0.0160619
894.456	0.0159657
894.534	0.0160227
894.612	0.0159280
894.690	0.0158888
894.768	0.0160641
894.846	0.0160158
894.924	0.0159447
895.003	0.0160147
895.081	0.0158515
895.159	0.0160369
895.237	0.0161414
895.315	0.0159695
895.393	0.0158103
895.471	0.0160062
895.549	0.0158488
895.628	0.0161242
895.706	0.0159451
895.784	0.0159257
895.862	0.0159692
895.940	0.0160310
896.018	0.0159651
896.096	0.0159937
896.174	0.0159560
896.253	0.0159289
896.331	0.0158825
896.409	0.0157786
896.487	0.0158937
896.565	0.0160480
896.643	0.0160299
896.721	0.0159145
896.799	0.0158784
896.878	0.0160291
896.956	0.0160281
897.034	0.0160744
897.112	0.0159005
897.190	0.0160765
897.268	0.0159712
897.346	0.0161392
897.424	0.0159953
897.503	0.0160886
897.581	0.0159095
897.659	0.0160543
897.737	0.0159695
897.815	0.0159013
897.893	0.0159209
897.971	0.0160233
898.049	0.0159652
898.128	0.0159655
898.206	0.0160036
898.284	0.0160157
898.362	0.0161253
898.440	0.0160578
898.518	0.0159290
898.596	0.0159281
898.674	0.0160226
898.753	0.0161505
898.831	0.0160395
898.909	0.0159528
898.987	0.0160387
899.065	0.0160237
899.143	0.0160949
899.221	0.0160465
899.299	0.0160686
899.378	0.0161537
899.456	0.0159153
899.534	0.0161292
899.612	0.0160706
899.690	0.0159708
899.768	0.0159751
899.846	0.0160361
899.924	0.0161517
900.003	0.0161533
900.081	0.0160056
900.159	0.0161890
900.237	0.0161365
900.315	0.0161097
900.393	0.0160268
900.471	0.0160254
900.549	0.0159203
900.628	0.0161492
900.706	0.0160538
900.784	0.0159428
900.862	0.0158783
900.940	0.0159560
901.018	0.0161668
901.096	0.0160973
901.174	0.0160839
901.253	0.0158645
901.331	0.0159585
901.409	0.0161562
901.487	0.0160315
901.565	0.0160465
901.643	0.0160424
901.721	0.0159570
901.799	0.0159808
901.878	0.0160287
901.956	0.0160140
902.034	0.0160099
902.112	0.0158424
902.190	0.0159674
902.268	0.0160678
902.346	0.0159250
902.424	0.0160269
902.503	0.0160295
902.581	0.0158789
902.659	0.0159649
902.737	0.0159763
902.815	0.0159798
902.893	0.0160281
902.971	0.0160588
903.049	0.0160239
903.128	0.0159364
903.206	0.0158881
903.284	0.0159698
903.362	0.0160239
903.440	0.0159361
903.518	0.0159993
903.596	0.0158994
903.674	0.0157693
903.753	0.0158743
903.831	0.0159487
903.909	0.0158903
903.987	0.0158968
904.065	0.0158398
904.143	0.0158423
904.221	0.0158636
904.299	0.0159277
904.378	0.0160008
904.456	0.0159650
904.534	0.0158924
904.612	0.0160213
904.690	0.0159776
904.768	0.0161098
904.846	0.0160992
904.924	0.0160505
905.003	0.0160351
905.081	0.0161692
905.159	0.0160795
905.237	0.0159428
905.315	0.0159234
905.393	0.0160252
905.471	0.0159531
905.549	0.0159267
905.628	0.0159196
905.706	0.0158884
905.784	0.0159090
905.862	0.0158210
905.940	0.0158812
906.018	0.0159055
906.096	0.0157580
906.174	0.0158846
906.253	0.0158549
906.331	0.0159018
906.409	0.0157804
906.487	0.0157598
906.565	0.0158293
906.643	0.0159704
906.721	0.0158399
906.799	0.0157983
906.878	0.0159746
906.956	0.0160185
907.034	0.0158459
907.112	0.0159267
907.190	0.0159489
907.268	0.0158194
907.346	0.0159228
907.424	0.0159734
907.503	0.0157814
907.581	0.0159657
907.659	0.0159589
907.737	0.0158833
907.815	0.0159205
907.893	0.0158843
907.971	0.0158780
908.049	0.0158984
908.128	0.0158839
908.206	0.0159185
908.284	0.0159031
908.362	0.0157591
908.440	0.0159106
908.518	0.0159158
908.596	0.0157819
908.674	0.0157658
908.753	0.0158341
908.831	0.0158905
908.909	0.0158913
908.987	0.0158788
909.065	0.0159205
909.143	0.0157795
909.221	0.0157233
909.299	0.0159617
909.378	0.0158813
909.456	0.0158615
909.534	0.0159650
909.612	0.0159314
909.690	0.0157844
909.768	0.0158997
909.846	0.0159618
909.924	0.0159688
910.003	0.0159238
910.081	0.0158451
910.159	0.0158044
910.237	0.0158547
910.315	0.0158992
910.393	0.0158863
910.471	0.0158172
910.549	0.0158050
910.628	0.0158891
910.706	0.0159875
910.784	0.0159319
910.862	0.0159234
910.940	0.0158910
911.018	0.0159262
911.096	0.0158863
911.174	0.0159206
911.253	0.0160024
911.331	0.0159191
911.409	0.0158575
911.487	0.0156941
911.565	0.0158817
911.643	0.0159216
911.721	0.0158748
911.799	0.0158014
911.878	0.0160132
911.956	0.0158278
912.034	0.0158720
912.112	0.0158785
912.190	0.0159932
912.268	0.0159599
912.346	0.0159205
912.424	0.0158524
912.503	0.0157548
912.581	0.0160983
912.659	0.0160500
912.737	0.0158966
912.815	0.0158270
912.893	0.0159570
912.971	0.0159665
913.049	0.0158588
913.128	0.0158803
913.206	0.0159391
913.284	0.0158662
913.362	0.0157425
913.440	0.0158584
913.518	0.0158361
913.596	0.0158141
913.674	0.0157921
913.753	0.0158183
913.831	0.0159259
913.909	0.0158109
913.987	0.0158793
914.065	0.0157359
914.143	0.0160267
914.221	0.0159692
914.299	0.0160002
914.378	0.0160709
914.456	0.0159519
914.534	0.0159207
914.612	0.0159054
914.690	0.0159023
914.768	0.0159628
914.846	0.0159614
914.924	0.0158365
915.003	0.0158569
915.081	0.0159181
915.159	0.0159332
915.237	0.0159049
915.315	0.0159016
915.393	0.0158205
915.471	0.0158941
915.549	0.0159300
915.628	0.0158492
915.706	0.0158754
915.784	0.0158492
915.862	0.0159241
915.940	0.0159143
916.018	0.0158379
916.096	0.0159301
916.174	0.0158513
916.253	0.0159789
916.331	0.0159372
916.409	0.0160469
916.487	0.0159727
916.565	0.0159184
916.643	0.0159971
916.721	0.0160030
916.799	0.0158740
916.878	0.0158846
916.956	0.0159281
917.034	0.0160435
917.112	0.0160090
917.190	0.0158732
917.268	0.0158674
917.346	0.0158546
917.424	0.0159852
917.503	0.0159261
917.581	0.0158887
917.659	0.0158916
917.737	0.0158006
917.815	0.0157957
917.893	0.0158514
917.971	0.0160497
918.049	0.0160381
918.128	0.0160233
918.206	0.0160367
918.284	0.0159669
918.362	0.0159631
918.440	0.0160342
918.518	0.0160198
918.596	0.0160388
918.674	0.0159042
918.753	0.0159412
918.831	0.0159862
918.909	0.0161839
918.987	0.0161613
919.065	0.0159171
919.143	0.0159437
919.221	0.0160794
919.299	0.0160233
919.378	0.0158908
919.456	0.0159539
919.534	0.0159826
919.612	0.0159077
919.690	0.0158327
919.768	0.0160570
919.846	0.0159921
919.924	0.0159966
920.003	0.0159799
920.081	0.0158553
920.159	0.0158884
920.237	0.0160257
920.315	0.0160724
920.393	0.0158911
920.471	0.0159735
920.549	0.0159059
920.628	0.0160534
920.706	0.0159587
920.784	0.0159215
920.862	0.0160976
920.940	0.0160815
921.018	0.0161066
921.096	0.0159024
921.174	0.0160088
921.253	0.0160938
921.331	0.0158945
921.409	0.0158730
921.487	0.0160510
921.565	0.0158966
921.643	0.0159650
921.721	0.0159710
921.799	0.0159167
921.878	0.0159795
921.956	0.0159616
922.034	0.0158219
922.112	0.0160136
922.190	0.0159469
922.268	0.0160832
922.346	0.0160207
922.424	0.0159232
922.503	0.0159109
922.581	0.0160249
922.659	0.0159791
922.737	0.0159405
922.815	0.0159879
922.893	0.0159512
922.971	0.0158988
923.049	0.0159155
923.128	0.0161253
923.206	0.0161156
923.284	0.0160849
923.362	0.0160481
923.440	0.0160155
923.518	0.0160462
923.596	0.0160594
923.674	0.0159423
923.753	0.0159121
923.831	0.0159488
923.909	0.0160186
923.987	0.0161343
924.065	0.0158535
924.143	0.0159965
924.221	0.0158611
924.299	0.0159705
924.378	0.0160568
924.456	0.0159590
924.534	0.0158586
924.612	0.0159438
924.690	0.0159711
924.768	0.0160442
924.846	0.0159786
924.924	0.0158605
925.003	0.0158553
925.081	0.0158680
925.159	0.0159250
925.237	0.0160373
925.315	0.0160428
925.393	0.0158656
925.471	0.0159064
925.549	0.0159823
925.628	0.0159937
925.706	0.0160519
925.784	0.0159541
925.862	0.0159383
925.940	0.0160279
926.018	0.0159741
926.096	0.0159425
926.174	0.0160682
926.253	0.0158566
926.331	0.0160915
926.409	0.0159704
926.487	0.0159186
926.565	0.0160658
926.643	0.0160767
926.721	0.0159855
926.799	0.0159881
926.878	0.0159515
926.956	0.0158592
927.034	0.0159511
927.112	0.0160220
927.190	0.0160691
927.268	0.0159824
927.346	0.0159675
927.424	0.0159644
927.503	0.0160044
927.581	0.0160522
927.659	0.0159239
927.737	0.0158149
927.815	0.0159907
927.893	0.0159092
927.971	0.0159219
928.049	0.0161033
928.128	0.0159280
928.206	0.0158164
928.284	0.0159799
928.362	0.0159338
928.440	0.0160486
928.518	0.0161535
928.596	0.0160178
928.674	0.0158313
928.753	0.0161029
928.831	0.0160204
928.909	0.0158977
928.987	0.0158901
929.065	0.0158810
929.143	0.0159967
929.221	0.0159723
929.299	0.0160795
929.378	0.0160574
929.456	0.0159687
929.534	0.0160304
929.612	0.0160574
929.690	0.0161181
929.768	0.0159513
929.846	0.0158916
929.924	0.0161504
930.003	0.0159773
930.081	0.0159622
930.159	0.0160056
930.237	0.0159755
930.315	0.0157998
930.393	0.0159503
930.471	0.0159277
930.549	0.0157381
930.628	0.0159613
930.706	0.0159648
930.784	0.0159773
930.862	0.0159728
930.940	0.0158416
931.018	0.0158231
931.096	0.0159762
931.174	0.0159414
931.253	0.0158958
931.331	0.0160219
931.409	0.0159962
931.487	0.0160170
931.565	0.0162566
931.643	0.0160636
931.721	0.0158771
931.799	0.0160233
931.878	0.0160017
931.956	0.0160517
932.034	0.0160543
932.112	0.0160529
932.190	0.0160847
932.268	0.0159747
932.346	0.0159295
932.424	0.0159432
932.503	0.0160825
932.581	0.0160474
932.659	0.0160036
932.737	0.0160118
932.815	0.0160209
932.893	0.0161312
932.971	0.0160210
933.049	0.0159763
933.128	0.0160686
933.206	0.0160506
933.284	0.0160826
933.362	0.0158686
933.440	0.0159565
933.518	0.0160703
933.596	0.0160012
933.674	0.0159572
933.753	0.0158701
933.831	0.0159434
933.909	0.0159558
933.987	0.0159863
934.065	0.0159151
934.143	0.0159978
934.221	0.0161223
934.299	0.0159044
934.378	0.0160389
934.456	0.0158832
934.534	0.0158797
934.612	0.0158717
934.690	0.0159732
934.768	0.0159418
934.846	0.0159425
934.924	0.0160818
935.003	0.0159404
935.081	0.0159643
935.159	0.0159108
935.237	0.0159471
935.315	0.0159771
935.393	0.0157275
935.471	0.0159630
935.549	0.0159336
935.628	0.0159341
935.706	0.0158520
935.784	0.0158244
935.862	0.0158836
935.940	0.0158926
936.018	0.0158755
936.096	0.0159420
936.174	0.0157209
936.253	0.0159640
936.331	0.0160400
936.409	0.0159729
936.487	0.0158692
936.565	0.0159253
936.643	0.0157541
936.721	0.0160106
936.799	0.0159313
936.878	0.0159067
936.956	0.0159834
937.034	0.0160797
937.112	0.0158956
937.190	0.0160476
937.268	0.0159987
937.346	0.0160213
937.424	0.0159714
937.503	0.0158421
937.581	0.0160644
937.659	0.0160362
937.737	0.0159769
937.815	0.0159837
937.893	0.0158910
937.971	0.0158572
938.049	0.0159277
938.128	0.0158858
938.206	0.0158712
938.284	0.0159460
938.362	0.0159087
938.440	0.0158318
938.518	0.0159386
938.596	0.0159428
938.674	0.0159975
938.753	0.0161591
938.831	0.0158932
938.909	0.0159183
938.987	0.0161102
939.065	0.0159593
939.143	0.0159283
939.221	0.0160390
939.299	0.0160663
939.378	0.0160020
939.456	0.0159972
939.534	0.0160417
939.612	0.0159063
939.690	0.0159915
939.768	0.0160406
939.846	0.0160292
939.924	0.0160039
940.003	0.0159422
940.081	0.0158347
940.159	0.0159848
940.237	0.0159356
940.315	0.0160369
940.393	0.0159889
940.471	0.0159387
940.549	0.0159801
940.628	0.0158987
940.706	0.0160010
940.784	0.0160473
940.862	0.0160627
940.940	0.0158951
941.018	0.0160645
941.096	0.0159957
941.174	0.0160468
941.253	0.0161762
941.331	0.0159886
941.409	0.0159580
941.487	0.0160261
941.565	0.0159032
941.643	0.0160006
941.721	0.0159266
941.799	0.0159290
941.878	0.0161465
941.956	0.0161477
942.034	0.0159697
942.112	0.0160159
942.190	0.0159874
942.268	0.0160048
942.346	0.0159359
942.424	0.0158235
942.503	0.0159694
942.581	0.0159687
942.659	0.0159227
942.737	0.0160002
942.815	0.0159361
942.893	0.0159721
942.971	0.0159536
943.049	0.0159824
943.128	0.0159397
943.206	0.0158452
943.284	0.0160340
943.362	0.0160596
943.440	0.0160242
943.518	0.0159593
943.596	0.0159924
943.674	0.0160070
943.753	0.0160179
943.831	0.0158913
943.909	0.0160280
943.987	0.0160003
944.065	0.0159866
944.143	0.0157581
944.221	0.0157902
944.299	0.0159737
944.378	0.0159943
944.456	0.0158980
944.534	0.0159278
944.612	0.0158028
944.690	0.0158438
944.768	0.0159795
944.846	0.0159854
944.924	0.0157986
945.003	0.0158552
945.081	0.0157796
945.159	0.0157961
945.237	0.0159213
945.315	0.0159104
945.393	0.0158244
945.471	0.0158190
945.549	0.0158782
945.628	0.0160166
945.706	0.0158022
945.784	0.0157823
945.862	0.0158617
945.940	0.0159561
946.018	0.0159834
946.096	0.0158546
946.174	0.0159695
946.253	0.0160223
946.331	0.0159075
946.409	0.0159641
946.487	0.0159733
946.565	0.0159967
946.643	0.0160107
946.721	0.0160156
946.799	0.0159549
946.878	0.0160155
946.956	0.0161375
947.034	0.0158810
947.112	0.0160018
947.190	0.0159631
947.268	0.0159630
947.346	0.0159904
947.424	0.0160016
947.503	0.0160004
947.581	0.0159424
947.659	0.0159729
947.737	0.0159291
947.815	0.0159207
947.893	0.0159095
947.971	0.0160274
948.049	0.0158398
948.128	0.0157343
948.206	0.0159753
948.284	0.0160727
948.362	0.0160915
948.440	0.0159778
948.518	0.0158987
948.596	0.0160197
948.674	0.0159362
948.753	0.0159480
948.831	0.0159528
948.909	0.0159757
948.987	0.0160682
949.065	0.0160757
949.143	0.0159407
949.221	0.0160677
949.299	0.0158403
949.378	0.0158641
949.456	0.0160014
949.534	0.0158894
949.612	0.0158818
949.690	0.0158636
949.768	0.0159695
949.846	0.0161453
949.924	0.0159319
