05/19/2022	00:49:33	Ver.	4.1	UNKNOWN
Optical Delay	630.002507	Delta X		0.078125	Sweeps	1	Scan Rate	0/0
Coordinates	Axis 1	NaN	Axis 2	NaN	Axis 3	NaN	Axis 4	NaN	Axis 5	NaN	Axis 6	0.000000
TX Power	0.000000	RX Power	0.000000

630.003	0.0163065
630.081	0.0164016
630.159	0.0164186
630.237	0.0163165
630.315	0.0164232
630.393	0.0164489
630.471	0.0163547
630.549	0.0163757
630.628	0.0163285
630.706	0.0163461
630.784	0.0163134
630.862	0.0163109
630.940	0.0164098
631.018	0.0163786
631.096	0.0164469
631.174	0.0163629
631.253	0.0163899
631.331	0.0164124
631.409	0.0163009
631.487	0.0163053
631.565	0.0165266
631.643	0.0163725
631.721	0.0163086
631.799	0.0164339
631.878	0.0164211
631.956	0.0163416
632.034	0.0161496
632.112	0.0164406
632.190	0.0164317
632.268	0.0163448
632.346	0.0163569
632.424	0.0164424
632.503	0.0163612
632.581	0.0164301
632.659	0.0162983
632.737	0.0164536
632.815	0.0163533
632.893	0.0163754
632.971	0.0163373
633.049	0.0163914
633.128	0.0164132
633.206	0.0163754
633.284	0.0164771
633.362	0.0164018
633.440	0.0164179
633.518	0.0163047
633.596	0.0163102
633.674	0.0164367
633.753	0.0163912
633.831	0.0163860
633.909	0.0164023
633.987	0.0162997
634.065	0.0163676
634.143	0.0163223
634.221	0.0162787
634.299	0.0163438
634.378	0.0165010
634.456	0.0164236
634.534	0.0163700
634.612	0.0162840
634.690	0.0162694
634.768	0.0162380
634.846	0.0163358
634.924	0.0162170
635.003	0.0163506
635.081	0.0164451
635.159	0.0164497
635.237	0.0163052
635.315	0.0163316
635.393	0.0164635
635.471	0.0165417
635.549	0.0163591
635.628	0.0164033
635.706	0.0162824
635.784	0.0164237
635.862	0.0164492
635.940	0.0163805
636.018	0.0163948
636.096	0.0163757
636.174	0.0164396
636.253	0.0164298
636.331	0.0163683
636.409	0.0164502
636.487	0.0164296
636.565	0.0163464
636.643	0.0163617
636.721	0.0164009
636.799	0.0163544
636.878	0.0163447
636.956	0.0163321
637.034	0.0164366
637.112	0.0163091
637.190	0.0162933
637.268	0.0163979
637.346	0.0162823
637.424	0.0164642
637.503	0.0162889
637.581	0.0163288
637.659	0.0163016
637.737	0.0164445
637.815	0.0163789
637.893	0.0163182
637.971	0.0163361
638.049	0.0164462
638.128	0.0164830
638.206	0.0163004
638.284	0.0162863
638.362	0.0164108
638.440	0.0162967
638.518	0.0162786
638.596	0.0163483
638.674	0.0164561
638.753	0.0162811
638.831	0.0163921
638.909	0.0164494
638.987	0.0162473
639.065	0.0164025
639.143	0.0163487
639.221	0.0162729
639.299	0.0162841
639.378	0.0162486
639.456	0.0163648
639.534	0.0164258
639.612	0.0164069
639.690	0.0163677
639.768	0.0164285
639.846	0.0162890
639.924	0.0162913
640.003	0.0164437
640.081	0.0162994
640.159	0.0162709
640.237	0.0163297
640.315	0.0163162
640.393	0.0163364
640.471	0.0163270
640.549	0.0162608
640.628	0.0162699
640.706	0.0161993
640.784	0.0162955
640.862	0.0162041
640.940	0.0163552
641.018	0.0162248
641.096	0.0162515
641.174	0.0163214
641.253	0.0163098
641.331	0.0163178
641.409	0.0164051
641.487	0.0163280
641.565	0.0163268
641.643	0.0163025
641.721	0.0164620
641.799	0.0163084
641.878	0.0162562
641.956	0.0163613
642.034	0.0162950
642.112	0.0163116
642.190	0.0163371
642.268	0.0164332
642.346	0.0162925
642.424	0.0163174
642.503	0.0162502
642.581	0.0163490
642.659	0.0162200
642.737	0.0162775
642.815	0.0162984
642.893	0.0162550
642.971	0.0163710
643.049	0.0162347
643.128	0.0162556
643.206	0.0162464
643.284	0.0162914
643.362	0.0162411
643.440	0.0163309
643.518	0.0162260
643.596	0.0162679
643.674	0.0162859
643.753	0.0162454
643.831	0.0161994
643.909	0.0164091
643.987	0.0163840
644.065	0.0163551
644.143	0.0164292
644.221	0.0163641
644.299	0.0163197
644.378	0.0161721
644.456	0.0161497
644.534	0.0162915
644.612	0.0162996
644.690	0.0161044
644.768	0.0161171
644.846	0.0162056
644.924	0.0160778
645.003	0.0162038
645.081	0.0162731
645.159	0.0163130
645.237	0.0162447
645.315	0.0162305
645.393	0.0162086
645.471	0.0162920
645.549	0.0163110
645.628	0.0162965
645.706	0.0161927
645.784	0.0162694
645.862	0.0162554
645.940	0.0162396
646.018	0.0163120
646.096	0.0162783
646.174	0.0162242
646.253	0.0161665
646.331	0.0162551
646.409	0.0161861
646.487	0.0161761
646.565	0.0161646
646.643	0.0161490
646.721	0.0162901
646.799	0.0162120
646.878	0.0161224
646.956	0.0162546
647.034	0.0162225
647.112	0.0162443
647.190	0.0163165
647.268	0.0162782
647.346	0.0162422
647.424	0.0162746
647.503	0.0163519
647.581	0.0161428
647.659	0.0162865
647.737	0.0163475
647.815	0.0163584
647.893	0.0163921
647.971	0.0163924
648.049	0.0164173
648.128	0.0162358
648.206	0.0161921
648.284	0.0163258
648.362	0.0162716
648.440	0.0162767
648.518	0.0163917
648.596	0.0162887
648.674	0.0162149
648.753	0.0161496
648.831	0.0163120
648.909	0.0162045
648.987	0.0162172
649.065	0.0162907
649.143	0.0162423
649.221	0.0161045
649.299	0.0160831
649.378	0.0161945
649.456	0.0161884
649.534	0.0162395
649.612	0.0161435
649.690	0.0162307
649.768	0.0163278
649.846	0.0162521
649.924	0.0162288
650.003	0.0164137
650.081	0.0163026
650.159	0.0162643
650.237	0.0164039
650.315	0.0163943
650.393	0.0165807
650.471	0.0163727
650.549	0.0164139
650.628	0.0163749
650.706	0.0163364
650.784	0.0163154
650.862	0.0162879
650.940	0.0162595
651.018	0.0161441
651.096	0.0163755
651.174	0.0163026
651.253	0.0161644
651.331	0.0162357
651.409	0.0161367
651.487	0.0161996
651.565	0.0161693
651.643	0.0161451
651.721	0.0162476
651.799	0.0162085
651.878	0.0161160
651.956	0.0163298
652.034	0.0162801
652.112	0.0162677
652.190	0.0163405
652.268	0.0162186
652.346	0.0162010
652.424	0.0162711
652.503	0.0161867
652.581	0.0160774
652.659	0.0162318
652.737	0.0161790
652.815	0.0161600
652.893	0.0162331
652.971	0.0161605
653.049	0.0162254
653.128	0.0160483
653.206	0.0159515
653.284	0.0161412
653.362	0.0161084
653.440	0.0160096
653.518	0.0160502
653.596	0.0161223
653.674	0.0159775
653.753	0.0159727
653.831	0.0161777
653.909	0.0161836
653.987	0.0162480
654.065	0.0161005
654.143	0.0163164
654.221	0.0162961
654.299	0.0162649
654.378	0.0163853
654.456	0.0163326
654.534	0.0163803
654.612	0.0163452
654.690	0.0164536
654.768	0.0163256
654.846	0.0162574
654.924	0.0163654
655.003	0.0163675
655.081	0.0163724
655.159	0.0163756
655.237	0.0164057
655.315	0.0163947
655.393	0.0162283
655.471	0.0162968
655.549	0.0163425
655.628	0.0164058
655.706	0.0163345
655.784	0.0164494
655.862	0.0163992
655.940	0.0165077
656.018	0.0163847
656.096	0.0163251
656.174	0.0163123
656.253	0.0162713
656.331	0.0162817
656.409	0.0163029
656.487	0.0163851
656.565	0.0163860
656.643	0.0164285
656.721	0.0163849
656.799	0.0163882
656.878	0.0165152
656.956	0.0163845
657.034	0.0163895
657.112	0.0165494
657.190	0.0164166
657.268	0.0164792
657.346	0.0165028
657.424	0.0164342
657.503	0.0164022
657.581	0.0164467
657.659	0.0164266
657.737	0.0164307
657.815	0.0163605
657.893	0.0164243
657.971	0.0165376
658.049	0.0164261
658.128	0.0164186
658.206	0.0164611
658.284	0.0162598
658.362	0.0162557
658.440	0.0163862
658.518	0.0164945
658.596	0.0164480
658.674	0.0164301
658.753	0.0165129
658.831	0.0164172
658.909	0.0163635
658.987	0.0164346
659.065	0.0165128
659.143	0.0163484
659.221	0.0162748
659.299	0.0163112
659.378	0.0163309
659.456	0.0164186
659.534	0.0162485
659.612	0.0161774
659.690	0.0161673
659.768	0.0160906
659.846	0.0161280
659.924	0.0162873
660.003	0.0161072
660.081	0.0160839
660.159	0.0161998
660.237	0.0161780
660.315	0.0160801
660.393	0.0161410
660.471	0.0161181
660.549	0.0162199
660.628	0.0161893
660.706	0.0160134
660.784	0.0160314
660.862	0.0161942
660.940	0.0161634
661.018	0.0160128
661.096	0.0160754
661.174	0.0162781
661.253	0.0162112
661.331	0.0161466
661.409	0.0161933
661.487	0.0162392
661.565	0.0163186
661.643	0.0163213
661.721	0.0162059
661.799	0.0162088
661.878	0.0162111
661.956	0.0162842
662.034	0.0162627
662.112	0.0164607
662.190	0.0162910
662.268	0.0162492
662.346	0.0162843
662.424	0.0162600
662.503	0.0162241
662.581	0.0162226
662.659	0.0162106
662.737	0.0162366
662.815	0.0161666
662.893	0.0161205
662.971	0.0161790
663.049	0.0162166
663.128	0.0161333
663.206	0.0162936
663.284	0.0163218
663.362	0.0163606
663.440	0.0164744
663.518	0.0164552
663.596	0.0164973
663.674	0.0164220
663.753	0.0164027
663.831	0.0164735
663.909	0.0163169
663.987	0.0163546
664.065	0.0163194
664.143	0.0163569
664.221	0.0163644
664.299	0.0162218
664.378	0.0161720
664.456	0.0163226
664.534	0.0163644
664.612	0.0162895
664.690	0.0162753
664.768	0.0163231
664.846	0.0163255
664.924	0.0163842
665.003	0.0163721
665.081	0.0163303
665.159	0.0164482
665.237	0.0163117
665.315	0.0164884
665.393	0.0163261
665.471	0.0163060
665.549	0.0163915
665.628	0.0162392
665.706	0.0161678
665.784	0.0162502
665.862	0.0161819
665.940	0.0162754
666.018	0.0163235
666.096	0.0162347
666.174	0.0161211
666.253	0.0162981
666.331	0.0161809
666.409	0.0162872
666.487	0.0163146
666.565	0.0162982
666.643	0.0163512
666.721	0.0162989
666.799	0.0163539
666.878	0.0163496
666.956	0.0164364
667.034	0.0164630
667.112	0.0165380
667.190	0.0165269
667.268	0.0165851
667.346	0.0165590
667.424	0.0164634
667.503	0.0164384
667.581	0.0164732
667.659	0.0165823
667.737	0.0164622
667.815	0.0163009
667.893	0.0163358
667.971	0.0164047
668.049	0.0164198
668.128	0.0162114
668.206	0.0163225
668.284	0.0161396
668.362	0.0163162
668.440	0.0162321
668.518	0.0162255
668.596	0.0161664
668.674	0.0162598
668.753	0.0162652
668.831	0.0162771
668.909	0.0163985
668.987	0.0164333
669.065	0.0162090
669.143	0.0163323
669.221	0.0163284
669.299	0.0162524
669.378	0.0164318
669.456	0.0162827
669.534	0.0163126
669.612	0.0164473
669.690	0.0164678
669.768	0.0164082
669.846	0.0164121
669.924	0.0163470
670.003	0.0163721
670.081	0.0163126
670.159	0.0162628
670.237	0.0162363
670.315	0.0162501
670.393	0.0162988
670.471	0.0163847
670.549	0.0162785
670.628	0.0162602
670.706	0.0163194
670.784	0.0162466
670.862	0.0161816
670.940	0.0163293
671.018	0.0162535
671.096	0.0161658
671.174	0.0162460
671.253	0.0161967
671.331	0.0162081
671.409	0.0162105
671.487	0.0163883
671.565	0.0164310
671.643	0.0163309
671.721	0.0164087
671.799	0.0162773
671.878	0.0163241
671.956	0.0162826
672.034	0.0162202
672.112	0.0160941
672.190	0.0162875
672.268	0.0161726
672.346	0.0160046
672.424	0.0161356
672.503	0.0161182
672.581	0.0160689
672.659	0.0160838
672.737	0.0161304
672.815	0.0163039
672.893	0.0162309
672.971	0.0161858
673.049	0.0162114
673.128	0.0163361
673.206	0.0164047
673.284	0.0164845
673.362	0.0164131
673.440	0.0165417
673.518	0.0166375
673.596	0.0165841
673.674	0.0167265
673.753	0.0167192
673.831	0.0166177
673.909	0.0165936
673.987	0.0165886
674.065	0.0165282
674.143	0.0164939
674.221	0.0165499
674.299	0.0163561
674.378	0.0164143
674.456	0.0163819
674.534	0.0163001
674.612	0.0162049
674.690	0.0161618
674.768	0.0159874
674.846	0.0161285
674.924	0.0161987
675.003	0.0160390
675.081	0.0159748
675.159	0.0161160
675.237	0.0161303
675.315	0.0160809
675.393	0.0161229
675.471	0.0161807
675.549	0.0162234
675.628	0.0162948
675.706	0.0161325
675.784	0.0161384
675.862	0.0161784
675.940	0.0162324
676.018	0.0161222
676.096	0.0161936
676.174	0.0161346
676.253	0.0162357
676.331	0.0161458
676.409	0.0162203
676.487	0.0161926
676.565	0.0162740
676.643	0.0162199
676.721	0.0163465
676.799	0.0163277
676.878	0.0163762
676.956	0.0163605
677.034	0.0163727
677.112	0.0163952
677.190	0.0164442
677.268	0.0165681
677.346	0.0165079
677.424	0.0165356
677.503	0.0165593
677.581	0.0165874
677.659	0.0166528
677.737	0.0166306
677.815	0.0166364
677.893	0.0167075
677.971	0.0166441
678.049	0.0166330
678.128	0.0166779
678.206	0.0166422
678.284	0.0164823
678.362	0.0165695
678.440	0.0163579
678.518	0.0162646
678.596	0.0163956
678.674	0.0161304
678.753	0.0161588
678.831	0.0161169
678.909	0.0162351
678.987	0.0161515
679.065	0.0161562
679.143	0.0161689
679.221	0.0162366
679.299	0.0161212
679.378	0.0161364
679.456	0.0162055
679.534	0.0161932
679.612	0.0160891
679.690	0.0161710
679.768	0.0161418
679.846	0.0161610
679.924	0.0159676
680.003	0.0159888
680.081	0.0161660
680.159	0.0160844
680.237	0.0161320
680.315	0.0162069
680.393	0.0162183
680.471	0.0160848
680.549	0.0162280
680.628	0.0163660
680.706	0.0162389
680.784	0.0163505
680.862	0.0164497
680.940	0.0163808
681.018	0.0163784
681.096	0.0166127
681.174	0.0164068
681.253	0.0163720
681.331	0.0164332
681.409	0.0165005
681.487	0.0164958
681.565	0.0164551
681.643	0.0162901
681.721	0.0162430
681.799	0.0162276
681.878	0.0161925
681.956	0.0162260
682.034	0.0161704
682.112	0.0163081
682.190	0.0161354
682.268	0.0161613
682.346	0.0161736
682.424	0.0160634
682.503	0.0161455
682.581	0.0162506
682.659	0.0161121
682.737	0.0161325
682.815	0.0161757
682.893	0.0162014
682.971	0.0160389
683.049	0.0162967
683.128	0.0162150
683.206	0.0160466
683.284	0.0160703
683.362	0.0161812
683.440	0.0161024
683.518	0.0161091
683.596	0.0160744
683.674	0.0160162
683.753	0.0160590
683.831	0.0159963
683.909	0.0159310
683.987	0.0161078
684.065	0.0159954
684.143	0.0160567
684.221	0.0160141
684.299	0.0160369
684.378	0.0161156
684.456	0.0161632
684.534	0.0161762
684.612	0.0162609
684.690	0.0162600
684.768	0.0164058
684.846	0.0164088
684.924	0.0164188
685.003	0.0164694
685.081	0.0165305
685.159	0.0164378
685.237	0.0165520
685.315	0.0166390
685.393	0.0167915
685.471	0.0166904
685.549	0.0167754
685.628	0.0167231
685.706	0.0167783
685.784	0.0167819
685.862	0.0165968
685.940	0.0166264
686.018	0.0164915
686.096	0.0163505
686.174	0.0163398
686.253	0.0161466
686.331	0.0162822
686.409	0.0161050
686.487	0.0160048
686.565	0.0160962
686.643	0.0160307
686.721	0.0159495
686.799	0.0160169
686.878	0.0160485
686.956	0.0159757
687.034	0.0161868
687.112	0.0160783
687.190	0.0162170
687.268	0.0162313
687.346	0.0164391
687.424	0.0164099
687.503	0.0163435
687.581	0.0165676
687.659	0.0165800
687.737	0.0165539
687.815	0.0165940
687.893	0.0163969
687.971	0.0164655
688.049	0.0164254
688.128	0.0164513
688.206	0.0165924
688.284	0.0163525
688.362	0.0163868
688.440	0.0164000
688.518	0.0163977
688.596	0.0164159
688.674	0.0164738
688.753	0.0164003
688.831	0.0164604
688.909	0.0163773
688.987	0.0164317
689.065	0.0164729
689.143	0.0164167
689.221	0.0164627
689.299	0.0164073
689.378	0.0163209
689.456	0.0164951
689.534	0.0162004
689.612	0.0161858
689.690	0.0162298
689.768	0.0163166
689.846	0.0162186
689.924	0.0162123
690.003	0.0162122
690.081	0.0161667
690.159	0.0160874
690.237	0.0163385
690.315	0.0162836
690.393	0.0161810
690.471	0.0161409
690.549	0.0163603
690.628	0.0163983
690.706	0.0162103
690.784	0.0162516
690.862	0.0162768
690.940	0.0162003
691.018	0.0162638
691.096	0.0162880
691.174	0.0162521
691.253	0.0163502
691.331	0.0162851
691.409	0.0162733
691.487	0.0163680
691.565	0.0163195
691.643	0.0163493
691.721	0.0163913
691.799	0.0163242
691.878	0.0162729
691.956	0.0163004
692.034	0.0163528
692.112	0.0163336
692.190	0.0163276
692.268	0.0162793
692.346	0.0163282
692.424	0.0163149
692.503	0.0165181
692.581	0.0163234
692.659	0.0163883
692.737	0.0164724
692.815	0.0164742
692.893	0.0166241
692.971	0.0166444
693.049	0.0167019
693.128	0.0167732
693.206	0.0167960
693.284	0.0166423
693.362	0.0167714
693.440	0.0167372
693.518	0.0166921
693.596	0.0165697
693.674	0.0166589
693.753	0.0166063
693.831	0.0165732
693.909	0.0166428
693.987	0.0164452
694.065	0.0162984
694.143	0.0163221
694.221	0.0162009
694.299	0.0162212
694.378	0.0161094
694.456	0.0160539
694.534	0.0159656
694.612	0.0156630
694.690	0.0159111
694.768	0.0158772
694.846	0.0158629
694.924	0.0159106
695.003	0.0159192
695.081	0.0159808
695.159	0.0159555
695.237	0.0160564
695.315	0.0161397
695.393	0.0161363
695.471	0.0162311
695.549	0.0163639
695.628	0.0163220
695.706	0.0163650
695.784	0.0163948
695.862	0.0163535
695.940	0.0164320
696.018	0.0164545
696.096	0.0164704
696.174	0.0163929
696.253	0.0165611
696.331	0.0166762
696.409	0.0165359
696.487	0.0165984
696.565	0.0165292
696.643	0.0166402
696.721	0.0166762
696.799	0.0167232
696.878	0.0165623
696.956	0.0166682
697.034	0.0167001
697.112	0.0167443
697.190	0.0165621
697.268	0.0165414
697.346	0.0167300
697.424	0.0164742
697.503	0.0166205
697.581	0.0165003
697.659	0.0164175
697.737	0.0163585
697.815	0.0164734
697.893	0.0163576
697.971	0.0161967
698.049	0.0161701
698.128	0.0162736
698.206	0.0162215
698.284	0.0160859
698.362	0.0159364
698.440	0.0160820
698.518	0.0160594
698.596	0.0159906
698.674	0.0159789
698.753	0.0161260
698.831	0.0161862
698.909	0.0161163
698.987	0.0161352
699.065	0.0162670
699.143	0.0163226
699.221	0.0164739
699.299	0.0163994
699.378	0.0163050
699.456	0.0165345
699.534	0.0166177
699.612	0.0162991
699.690	0.0164139
699.768	0.0164888
699.846	0.0166862
699.924	0.0165184
700.003	0.0164864
700.081	0.0164396
700.159	0.0164414
700.237	0.0165427
700.315	0.0165005
700.393	0.0164093
700.471	0.0164334
700.549	0.0164704
700.628	0.0165042
700.706	0.0164314
700.784	0.0163085
700.862	0.0162651
700.940	0.0161881
701.018	0.0162489
701.096	0.0163149
701.174	0.0162604
701.253	0.0162486
701.331	0.0163438
701.409	0.0164014
701.487	0.0162632
701.565	0.0163526
701.643	0.0163818
701.721	0.0163605
701.799	0.0162675
701.878	0.0163230
701.956	0.0162244
702.034	0.0162279
702.112	0.0162251
702.190	0.0161147
702.268	0.0162936
702.346	0.0161424
702.424	0.0161452
702.503	0.0161110
702.581	0.0160497
702.659	0.0159775
702.737	0.0160393
702.815	0.0161033
702.893	0.0161027
702.971	0.0163258
703.049	0.0162794
703.128	0.0162196
703.206	0.0163381
703.284	0.0163293
703.362	0.0164062
703.440	0.0165067
703.518	0.0164256
703.596	0.0165859
703.674	0.0165530
703.753	0.0163523
703.831	0.0162759
703.909	0.0164137
703.987	0.0165694
704.065	0.0163175
704.143	0.0162317
704.221	0.0163537
704.299	0.0161695
704.378	0.0160371
704.456	0.0163192
704.534	0.0162377
704.612	0.0160780
704.690	0.0161540
704.768	0.0161938
704.846	0.0163917
704.924	0.0165112
705.003	0.0163902
705.081	0.0163972
705.159	0.0164212
705.237	0.0163808
705.315	0.0164927
705.393	0.0164384
705.471	0.0164370
705.549	0.0161963
705.628	0.0161378
705.706	0.0162389
705.784	0.0161720
705.862	0.0162026
705.940	0.0160893
706.018	0.0160583
706.096	0.0161456
706.174	0.0160252
706.253	0.0159599
706.331	0.0160754
706.409	0.0161201
706.487	0.0161031
706.565	0.0161192
706.643	0.0161398
706.721	0.0160880
706.799	0.0162132
706.878	0.0161756
706.956	0.0163149
707.034	0.0163866
707.112	0.0162310
707.190	0.0165089
707.268	0.0165247
707.346	0.0165893
707.424	0.0165703
707.503	0.0167182
707.581	0.0168242
707.659	0.0167336
707.737	0.0166977
707.815	0.0167914
707.893	0.0169784
707.971	0.0168475
708.049	0.0168176
708.128	0.0168173
708.206	0.0165929
708.284	0.0166903
708.362	0.0167075
708.440	0.0165227
708.518	0.0165366
708.596	0.0164548
708.674	0.0164212
708.753	0.0165219
708.831	0.0165620
708.909	0.0164336
708.987	0.0163007
709.065	0.0162851
709.143	0.0162724
709.221	0.0163774
709.299	0.0162045
709.378	0.0162566
709.456	0.0162872
709.534	0.0161930
709.612	0.0163178
709.690	0.0162422
709.768	0.0162878
709.846	0.0162508
709.924	0.0162038
710.003	0.0162886
710.081	0.0162495
710.159	0.0160729
710.237	0.0160038
710.315	0.0160578
710.393	0.0160353
710.471	0.0161433
710.549	0.0159846
710.628	0.0159293
710.706	0.0158099
710.784	0.0159063
710.862	0.0158728
710.940	0.0160204
711.018	0.0160606
711.096	0.0159277
711.174	0.0158847
711.253	0.0160056
711.331	0.0160701
711.409	0.0160913
711.487	0.0160593
711.565	0.0160609
711.643	0.0159855
711.721	0.0161266
711.799	0.0162048
711.878	0.0162881
711.956	0.0162747
712.034	0.0161855
712.112	0.0161694
712.190	0.0162969
712.268	0.0162788
712.346	0.0163486
712.424	0.0163689
712.503	0.0164669
712.581	0.0165694
712.659	0.0164319
712.737	0.0164079
712.815	0.0164409
712.893	0.0165736
712.971	0.0165535
713.049	0.0164947
713.128	0.0166002
713.206	0.0166117
713.284	0.0166732
713.362	0.0167551
713.440	0.0167638
713.518	0.0166391
713.596	0.0166814
713.674	0.0167612
713.753	0.0167754
713.831	0.0169137
713.909	0.0168365
713.987	0.0167419
714.065	0.0168392
714.143	0.0170131
714.221	0.0167848
714.299	0.0165797
714.378	0.0168452
714.456	0.0166332
714.534	0.0165279
714.612	0.0165628
714.690	0.0165964
714.768	0.0165586
714.846	0.0163898
714.924	0.0164949
715.003	0.0164939
715.081	0.0164874
715.159	0.0163907
715.237	0.0165326
715.315	0.0163699
715.393	0.0164745
715.471	0.0163986
715.549	0.0165279
715.628	0.0164698
715.706	0.0162981
715.784	0.0162737
715.862	0.0162376
715.940	0.0162412
716.018	0.0161761
716.096	0.0161141
716.174	0.0159455
716.253	0.0160473
716.331	0.0160679
716.409	0.0159447
716.487	0.0159029
716.565	0.0157539
716.643	0.0157705
716.721	0.0158569
716.799	0.0157697
716.878	0.0158892
716.956	0.0158692
717.034	0.0158495
717.112	0.0159045
717.190	0.0159572
717.268	0.0159251
717.346	0.0159758
717.424	0.0159925
717.503	0.0159815
717.581	0.0160140
717.659	0.0161461
717.737	0.0161444
717.815	0.0160416
717.893	0.0161473
717.971	0.0161157
718.049	0.0161690
718.128	0.0162434
718.206	0.0162001
718.284	0.0162158
718.362	0.0162163
718.440	0.0161952
718.518	0.0161764
718.596	0.0162497
718.674	0.0163782
718.753	0.0163106
718.831	0.0163050
718.909	0.0163776
718.987	0.0164269
719.065	0.0164366
719.143	0.0165356
719.221	0.0165868
719.299	0.0165411
719.378	0.0165115
719.456	0.0166168
719.534	0.0165177
719.612	0.0165568
719.690	0.0165454
719.768	0.0166827
719.846	0.0166427
719.924	0.0165395
720.003	0.0168039
720.081	0.0166874
720.159	0.0166805
720.237	0.0167227
720.315	0.0165805
720.393	0.0165859
720.471	0.0166639
720.549	0.0165897
720.628	0.0166975
720.706	0.0165110
720.784	0.0168121
720.862	0.0164527
720.940	0.0166860
721.018	0.0167070
721.096	0.0165953
721.174	0.0167439
721.253	0.0165209
721.331	0.0166267
721.409	0.0166402
721.487	0.0165557
721.565	0.0165213
721.643	0.0165256
721.721	0.0164861
721.799	0.0163345
721.878	0.0163477
721.956	0.0163425
722.034	0.0163496
722.112	0.0163963
722.190	0.0163425
722.268	0.0162472
722.346	0.0162511
722.424	0.0162444
722.503	0.0160971
722.581	0.0163165
722.659	0.0160871
722.737	0.0162209
722.815	0.0161398
722.893	0.0161092
722.971	0.0161762
723.049	0.0159696
723.128	0.0160339
723.206	0.0161891
723.284	0.0160485
723.362	0.0159465
723.440	0.0161539
723.518	0.0160021
723.596	0.0159922
723.674	0.0159472
723.753	0.0158351
723.831	0.0158131
723.909	0.0158798
723.987	0.0157443
724.065	0.0157278
724.143	0.0157882
724.221	0.0158429
724.299	0.0158090
724.378	0.0156672
724.456	0.0157780
724.534	0.0159119
724.612	0.0157693
724.690	0.0158867
724.768	0.0159605
724.846	0.0158929
724.924	0.0161221
725.003	0.0159402
725.081	0.0160580
725.159	0.0162114
725.237	0.0162538
725.315	0.0162080
725.393	0.0162478
725.471	0.0162021
725.549	0.0161369
725.628	0.0162846
725.706	0.0163159
725.784	0.0162197
725.862	0.0164032
725.940	0.0161687
726.018	0.0162727
726.096	0.0163257
726.174	0.0164736
726.253	0.0163988
726.331	0.0163917
726.409	0.0165194
726.487	0.0165465
726.565	0.0165880
726.643	0.0165279
726.721	0.0165849
726.799	0.0167155
726.878	0.0167226
726.956	0.0165983
727.034	0.0167225
727.112	0.0167431
727.190	0.0166222
727.268	0.0165938
727.346	0.0165759
727.424	0.0167296
727.503	0.0165645
727.581	0.0167020
727.659	0.0166380
727.737	0.0166252
727.815	0.0166663
727.893	0.0166020
727.971	0.0166133
728.049	0.0165994
728.128	0.0165010
728.206	0.0165862
728.284	0.0165186
728.362	0.0166866
728.440	0.0165783
728.518	0.0164574
728.596	0.0165053
728.674	0.0166055
728.753	0.0164726
728.831	0.0163373
728.909	0.0163479
728.987	0.0164467
729.065	0.0163240
729.143	0.0162803
729.221	0.0163345
729.299	0.0163178
729.378	0.0163128
729.456	0.0162091
729.534	0.0162189
729.612	0.0163390
729.690	0.0161803
729.768	0.0161188
729.846	0.0161830
729.924	0.0162002
730.003	0.0161314
730.081	0.0162119
730.159	0.0160471
730.237	0.0160628
730.315	0.0160752
730.393	0.0161340
730.471	0.0160493
730.549	0.0160966
730.628	0.0160819
730.706	0.0160363
730.784	0.0161643
730.862	0.0161906
730.940	0.0160535
731.018	0.0162031
731.096	0.0162458
731.174	0.0161555
731.253	0.0160607
731.331	0.0160482
731.409	0.0160878
731.487	0.0160381
731.565	0.0161120
731.643	0.0158469
731.721	0.0160320
731.799	0.0160591
731.878	0.0160360
731.956	0.0160174
732.034	0.0159310
732.112	0.0160195
732.190	0.0160690
732.268	0.0161939
732.346	0.0161348
732.424	0.0160513
732.503	0.0161786
732.581	0.0161954
732.659	0.0162022
732.737	0.0163798
732.815	0.0161459
732.893	0.0162337
732.971	0.0163019
733.049	0.0163778
733.128	0.0164160
733.206	0.0164806
733.284	0.0165561
733.362	0.0165691
733.440	0.0164302
733.518	0.0165939
733.596	0.0165323
733.674	0.0165261
733.753	0.0165779
733.831	0.0165273
733.909	0.0165278
733.987	0.0165639
734.065	0.0164489
734.143	0.0165903
734.221	0.0165812
734.299	0.0165771
734.378	0.0166132
734.456	0.0166237
734.534	0.0166264
734.612	0.0166834
734.690	0.0166755
734.768	0.0167587
734.846	0.0167083
734.924	0.0166925
735.003	0.0166698
735.081	0.0167516
735.159	0.0166757
735.237	0.0165221
735.315	0.0166299
735.393	0.0165440
735.471	0.0165723
735.549	0.0166222
735.628	0.0166557
735.706	0.0165663
735.784	0.0167825
735.862	0.0165227
735.940	0.0166788
736.018	0.0167325
736.096	0.0166467
736.174	0.0166232
736.253	0.0165426
736.331	0.0166382
736.409	0.0165602
736.487	0.0163775
736.565	0.0163966
736.643	0.0163360
736.721	0.0162704
736.799	0.0163818
736.878	0.0162259
736.956	0.0162653
737.034	0.0161289
737.112	0.0160963
737.190	0.0160869
737.268	0.0160184
737.346	0.0160810
737.424	0.0160249
737.503	0.0161993
737.581	0.0161316
737.659	0.0160920
737.737	0.0160433
737.815	0.0161085
737.893	0.0160573
737.971	0.0161723
738.049	0.0161081
738.128	0.0160406
738.206	0.0161166
738.284	0.0160600
738.362	0.0160862
738.440	0.0160143
738.518	0.0160118
738.596	0.0160838
738.674	0.0160947
738.753	0.0160387
738.831	0.0160713
738.909	0.0160645
738.987	0.0160072
739.065	0.0160532
739.143	0.0162256
739.221	0.0160735
739.299	0.0160625
739.378	0.0160759
739.456	0.0160783
739.534	0.0161161
739.612	0.0160494
739.690	0.0163065
739.768	0.0162230
739.846	0.0162007
739.924	0.0161224
740.003	0.0162626
740.081	0.0164628
740.159	0.0163847
740.237	0.0164624
740.315	0.0163673
740.393	0.0164182
740.471	0.0163773
740.549	0.0162345
740.628	0.0163386
740.706	0.0165372
740.784	0.0165443
740.862	0.0164513
740.940	0.0164616
741.018	0.0163742
741.096	0.0165301
741.174	0.0166918
741.253	0.0165808
741.331	0.0165489
741.409	0.0166482
741.487	0.0164796
741.565	0.0164744
741.643	0.0164917
741.721	0.0165158
741.799	0.0163139
741.878	0.0164767
741.956	0.0165465
742.034	0.0166432
742.112	0.0165141
742.190	0.0164242
742.268	0.0164948
742.346	0.0166228
742.424	0.0166376
742.503	0.0166199
742.581	0.0165926
742.659	0.0165727
742.737	0.0166132
742.815	0.0165069
742.893	0.0166016
742.971	0.0165306
743.049	0.0165334
743.128	0.0164294
743.206	0.0165067
743.284	0.0163888
743.362	0.0163441
743.440	0.0163132
743.518	0.0162853
743.596	0.0162416
743.674	0.0163134
743.753	0.0163337
743.831	0.0161443
743.909	0.0162174
743.987	0.0162579
744.065	0.0161391
744.143	0.0161665
744.221	0.0161787
744.299	0.0162373
744.378	0.0160898
744.456	0.0160727
744.534	0.0160590
744.612	0.0159447
744.690	0.0161597
744.768	0.0160439
744.846	0.0160822
744.924	0.0160045
745.003	0.0161923
745.081	0.0160485
745.159	0.0159715
745.237	0.0159972
745.315	0.0160616
745.393	0.0159982
745.471	0.0160084
745.549	0.0158878
745.628	0.0160194
745.706	0.0160198
745.784	0.0160580
745.862	0.0160422
745.940	0.0160923
746.018	0.0160043
746.096	0.0159707
746.174	0.0159570
746.253	0.0160017
746.331	0.0159755
746.409	0.0160684
746.487	0.0160052
746.565	0.0159370
746.643	0.0159367
746.721	0.0160896
746.799	0.0161565
746.878	0.0160052
746.956	0.0159888
747.034	0.0163003
747.112	0.0162292
747.190	0.0162631
747.268	0.0162836
747.346	0.0162579
747.424	0.0161925
747.503	0.0163016
747.581	0.0163358
747.659	0.0165397
747.737	0.0163766
747.815	0.0163496
747.893	0.0163431
747.971	0.0164661
748.049	0.0164705
748.128	0.0164799
748.206	0.0165176
748.284	0.0163657
748.362	0.0165343
748.440	0.0166510
748.518	0.0164070
748.596	0.0164710
748.674	0.0166194
748.753	0.0164824
748.831	0.0164893
748.909	0.0164240
748.987	0.0164192
749.065	0.0164655
749.143	0.0164158
749.221	0.0166553
749.299	0.0165255
749.378	0.0165023
749.456	0.0165327
749.534	0.0165364
749.612	0.0165854
749.690	0.0165443
749.768	0.0165028
749.846	0.0165123
749.924	0.0164926
750.003	0.0164280
750.081	0.0164041
750.159	0.0165103
750.237	0.0166962
750.315	0.0165883
750.393	0.0164295
750.471	0.0165624
750.549	0.0166750
750.628	0.0165718
750.706	0.0163869
750.784	0.0165260
750.862	0.0165369
750.940	0.0162784
751.018	0.0164937
751.096	0.0163541
751.174	0.0163429
751.253	0.0163702
751.331	0.0163010
751.409	0.0162463
751.487	0.0162653
751.565	0.0160754
751.643	0.0161645
751.721	0.0161279
751.799	0.0163068
751.878	0.0163271
751.956	0.0162817
752.034	0.0161688
752.112	0.0162392
752.190	0.0163181
752.268	0.0164065
752.346	0.0163020
752.424	0.0162058
752.503	0.0163002
752.581	0.0163074
752.659	0.0161983
752.737	0.0161220
752.815	0.0161741
752.893	0.0161085
752.971	0.0163095
753.049	0.0160697
753.128	0.0161216
753.206	0.0161271
753.284	0.0160814
753.362	0.0160942
753.440	0.0161448
753.518	0.0161298
753.596	0.0160366
753.674	0.0160676
753.753	0.0159548
753.831	0.0161382
753.909	0.0162135
753.987	0.0162189
754.065	0.0162053
754.143	0.0160678
754.221	0.0161795
754.299	0.0162719
754.378	0.0161269
754.456	0.0162205
754.534	0.0162658
754.612	0.0162265
754.690	0.0162418
754.768	0.0164330
754.846	0.0163950
754.924	0.0163257
755.003	0.0164150
755.081	0.0164395
755.159	0.0164016
755.237	0.0165171
755.315	0.0164906
755.393	0.0165097
755.471	0.0164971
755.549	0.0164417
755.628	0.0165150
755.706	0.0164597
755.784	0.0163404
755.862	0.0163931
755.940	0.0165864
756.018	0.0165075
756.096	0.0163620
756.174	0.0164363
756.253	0.0165471
756.331	0.0164522
756.409	0.0164524
756.487	0.0165993
756.565	0.0163764
756.643	0.0165033
756.721	0.0165291
756.799	0.0165119
756.878	0.0165228
756.956	0.0164629
757.034	0.0166872
757.112	0.0164706
757.190	0.0164334
757.268	0.0165840
757.346	0.0163206
757.424	0.0165128
757.503	0.0165359
757.581	0.0164537
757.659	0.0163292
757.737	0.0164945
757.815	0.0164642
757.893	0.0163933
757.971	0.0164314
758.049	0.0165282
758.128	0.0165251
758.206	0.0166167
758.284	0.0165144
758.362	0.0164929
758.440	0.0164992
758.518	0.0163203
758.596	0.0165554
758.674	0.0165163
758.753	0.0165439
758.831	0.0163869
758.909	0.0163880
758.987	0.0163310
759.065	0.0164355
759.143	0.0162938
759.221	0.0162267
759.299	0.0162129
759.378	0.0162312
759.456	0.0160513
759.534	0.0159658
759.612	0.0160396
759.690	0.0161515
759.768	0.0161932
759.846	0.0161487
759.924	0.0159523
760.003	0.0160237
760.081	0.0162573
760.159	0.0161950
760.237	0.0161825
760.315	0.0161673
760.393	0.0163063
760.471	0.0161767
760.549	0.0161457
760.628	0.0161792
760.706	0.0161442
760.784	0.0161029
760.862	0.0161076
760.940	0.0162025
761.018	0.0161888
761.096	0.0160656
761.174	0.0161602
761.253	0.0161092
761.331	0.0160255
761.409	0.0160982
761.487	0.0160394
761.565	0.0161980
761.643	0.0162357
761.721	0.0159606
761.799	0.0162119
761.878	0.0162421
761.956	0.0162075
762.034	0.0160262
762.112	0.0161428
762.190	0.0162119
762.268	0.0161831
762.346	0.0162608
762.424	0.0163383
762.503	0.0162959
762.581	0.0161470
762.659	0.0162481
762.737	0.0163665
762.815	0.0163224
762.893	0.0162588
762.971	0.0164863
763.049	0.0165831
763.128	0.0163875
763.206	0.0166030
763.284	0.0164194
763.362	0.0164442
763.440	0.0164848
763.518	0.0164723
763.596	0.0164146
763.674	0.0164491
763.753	0.0164450
763.831	0.0162791
763.909	0.0163425
763.987	0.0163577
764.065	0.0164694
764.143	0.0164146
764.221	0.0164548
764.299	0.0163927
764.378	0.0162730
764.456	0.0164780
764.534	0.0165157
764.612	0.0165583
764.690	0.0164758
764.768	0.0164998
764.846	0.0165018
764.924	0.0166615
765.003	0.0166106
765.081	0.0164988
765.159	0.0164066
765.237	0.0166391
765.315	0.0165887
765.393	0.0165430
765.471	0.0165077
765.549	0.0165229
765.628	0.0165220
765.706	0.0163299
765.784	0.0163769
765.862	0.0161907
765.940	0.0163448
766.018	0.0163316
766.096	0.0164361
766.174	0.0163020
766.253	0.0160553
766.331	0.0162579
766.409	0.0163367
766.487	0.0161768
766.565	0.0161537
766.643	0.0163173
766.721	0.0162374
766.799	0.0163048
766.878	0.0163380
766.956	0.0163513
767.034	0.0163252
767.112	0.0164693
767.190	0.0163251
767.268	0.0161840
767.346	0.0163000
767.424	0.0162877
767.503	0.0162334
767.581	0.0162321
767.659	0.0161956
767.737	0.0161441
767.815	0.0161191
767.893	0.0163654
767.971	0.0163324
768.049	0.0160897
768.128	0.0161859
768.206	0.0163248
768.284	0.0161932
768.362	0.0162390
768.440	0.0162598
768.518	0.0162418
768.596	0.0162648
768.674	0.0161947
768.753	0.0162530
768.831	0.0161543
768.909	0.0162733
768.987	0.0162857
769.065	0.0163670
769.143	0.0163278
769.221	0.0162904
769.299	0.0162453
769.378	0.0162530
769.456	0.0162737
769.534	0.0162405
769.612	0.0163953
769.690	0.0162341
769.768	0.0161920
769.846	0.0165231
769.924	0.0163460
770.003	0.0163757
770.081	0.0163284
770.159	0.0163399
770.237	0.0163604
770.315	0.0163499
770.393	0.0163897
770.471	0.0162621
770.549	0.0164221
770.628	0.0163200
770.706	0.0164465
770.784	0.0164550
770.862	0.0164743
770.940	0.0164552
771.018	0.0165791
771.096	0.0166005
771.174	0.0165732
771.253	0.0166035
771.331	0.0165405
771.409	0.0166287
771.487	0.0165282
771.565	0.0166360
771.643	0.0165765
771.721	0.0165306
771.799	0.0164408
771.878	0.0166094
771.956	0.0165581
772.034	0.0164383
772.112	0.0166107
772.190	0.0165231
772.268	0.0164887
772.346	0.0165131
772.424	0.0165441
772.503	0.0165704
772.581	0.0166705
772.659	0.0165599
772.737	0.0164522
772.815	0.0165039
772.893	0.0164149
772.971	0.0164837
773.049	0.0165819
773.128	0.0163615
773.206	0.0162997
773.284	0.0165497
773.362	0.0164825
773.440	0.0164752
773.518	0.0164263
773.596	0.0163910
773.674	0.0165907
773.753	0.0163288
773.831	0.0164538
773.909	0.0164374
773.987	0.0163575
774.065	0.0163888
774.143	0.0163660
774.221	0.0163065
774.299	0.0162202
774.378	0.0164041
774.456	0.0163622
774.534	0.0162875
774.612	0.0162392
774.690	0.0163902
774.768	0.0164571
774.846	0.0163358
774.924	0.0163083
775.003	0.0163345
775.081	0.0162424
775.159	0.0163103
775.237	0.0162830
775.315	0.0162568
775.393	0.0163338
775.471	0.0162602
775.549	0.0162357
775.628	0.0162025
775.706	0.0160485
775.784	0.0161313
775.862	0.0161317
775.940	0.0161230
776.018	0.0162344
776.096	0.0160443
776.174	0.0161319
776.253	0.0161652
776.331	0.0160987
776.409	0.0162054
776.487	0.0162931
776.565	0.0162309
776.643	0.0162166
776.721	0.0162599
776.799	0.0161605
776.878	0.0161790
776.956	0.0161797
777.034	0.0161843
777.112	0.0161327
777.190	0.0160982
777.268	0.0161934
777.346	0.0161370
777.424	0.0160842
777.503	0.0161665
777.581	0.0161047
777.659	0.0161878
777.737	0.0161766
777.815	0.0162685
777.893	0.0162386
777.971	0.0162782
778.049	0.0164379
778.128	0.0163968
778.206	0.0163044
778.284	0.0164037
778.362	0.0164761
778.440	0.0164315
778.518	0.0163772
778.596	0.0164299
778.674	0.0162391
778.753	0.0163573
778.831	0.0164668
778.909	0.0163152
778.987	0.0165494
779.065	0.0164715
779.143	0.0163873
779.221	0.0164565
779.299	0.0163393
779.378	0.0165144
779.456	0.0164368
779.534	0.0164502
779.612	0.0164806
779.690	0.0163225
779.768	0.0164337
779.846	0.0163628
779.924	0.0165331
780.003	0.0165163
780.081	0.0163431
780.159	0.0163145
780.237	0.0164118
780.315	0.0163786
780.393	0.0163465
780.471	0.0162554
780.549	0.0164379
780.628	0.0163864
780.706	0.0163389
780.784	0.0162085
780.862	0.0163126
780.940	0.0162817
781.018	0.0162611
781.096	0.0163165
781.174	0.0162306
781.253	0.0163326
781.331	0.0163211
781.409	0.0163207
781.487	0.0162818
781.565	0.0161911
781.643	0.0162177
781.721	0.0162519
781.799	0.0161024
781.878	0.0160806
781.956	0.0162298
782.034	0.0161781
782.112	0.0160921
782.190	0.0160815
782.268	0.0161127
782.346	0.0161076
782.424	0.0162914
782.503	0.0162098
782.581	0.0161666
782.659	0.0161600
782.737	0.0161684
782.815	0.0163146
782.893	0.0163790
782.971	0.0161156
783.049	0.0164368
783.128	0.0164553
783.206	0.0164532
783.284	0.0163245
783.362	0.0163293
783.440	0.0163301
783.518	0.0162624
783.596	0.0162473
783.674	0.0161848
783.753	0.0162283
783.831	0.0163206
783.909	0.0162185
783.987	0.0161784
784.065	0.0161454
784.143	0.0162805
784.221	0.0162218
784.299	0.0162223
784.378	0.0162867
784.456	0.0163144
784.534	0.0162891
784.612	0.0162387
784.690	0.0164237
784.768	0.0164312
784.846	0.0163875
784.924	0.0164307
785.003	0.0163631
785.081	0.0162983
785.159	0.0162403
785.237	0.0163406
785.315	0.0161971
785.393	0.0164339
785.471	0.0162764
785.549	0.0162663
785.628	0.0163243
785.706	0.0161748
785.784	0.0161843
785.862	0.0162041
785.940	0.0161902
786.018	0.0162921
786.096	0.0164019
786.174	0.0161715
786.253	0.0162135
786.331	0.0162516
786.409	0.0162809
786.487	0.0161752
786.565	0.0162337
786.643	0.0162473
786.721	0.0161535
786.799	0.0160813
786.878	0.0162762
786.956	0.0162812
787.034	0.0163284
787.112	0.0160801
787.190	0.0161748
787.268	0.0162247
787.346	0.0162557
787.424	0.0163327
787.503	0.0162718
787.581	0.0162777
787.659	0.0164300
787.737	0.0164023
787.815	0.0164022
787.893	0.0163026
787.971	0.0163550
788.049	0.0163270
788.128	0.0163557
788.206	0.0161226
788.284	0.0163812
788.362	0.0165376
788.440	0.0163477
788.518	0.0163651
788.596	0.0163194
788.674	0.0163751
788.753	0.0162753
788.831	0.0165500
788.909	0.0164957
788.987	0.0165709
789.065	0.0165685
789.143	0.0164652
789.221	0.0164530
789.299	0.0164675
789.378	0.0164667
789.456	0.0164767
789.534	0.0164887
789.612	0.0164400
789.690	0.0163882
789.768	0.0163587
789.846	0.0163004
789.924	0.0164549
790.003	0.0165536
790.081	0.0163920
790.159	0.0163485
790.237	0.0163293
790.315	0.0162760
790.393	0.0164771
790.471	0.0163769
790.549	0.0163298
790.628	0.0162614
790.706	0.0162615
790.784	0.0163581
790.862	0.0164749
790.940	0.0164094
791.018	0.0162395
791.096	0.0162371
791.174	0.0163956
791.253	0.0164523
791.331	0.0161923
791.409	0.0162885
791.487	0.0163387
791.565	0.0162753
791.643	0.0161986
791.721	0.0161781
791.799	0.0161588
791.878	0.0162524
791.956	0.0160707
792.034	0.0163132
792.112	0.0161108
792.190	0.0162005
792.268	0.0161720
792.346	0.0161837
792.424	0.0162090
792.503	0.0160897
792.581	0.0160990
792.659	0.0163203
792.737	0.0162696
792.815	0.0162584
792.893	0.0163134
792.971	0.0163061
793.049	0.0163682
793.128	0.0162817
793.206	0.0162862
793.284	0.0161852
793.362	0.0163718
793.440	0.0163609
793.518	0.0163898
793.596	0.0163926
793.674	0.0162718
793.753	0.0162868
793.831	0.0164300
793.909	0.0162716
793.987	0.0162816
794.065	0.0163246
794.143	0.0165007
794.221	0.0164164
794.299	0.0163171
794.378	0.0164473
794.456	0.0164598
794.534	0.0163544
794.612	0.0164561
794.690	0.0165828
794.768	0.0163396
794.846	0.0163509
794.924	0.0164246
795.003	0.0164687
795.081	0.0162182
795.159	0.0162671
795.237	0.0165083
795.315	0.0164191
795.393	0.0163910
795.471	0.0163790
795.549	0.0163734
795.628	0.0164893
795.706	0.0164553
795.784	0.0163640
795.862	0.0163759
795.940	0.0164880
796.018	0.0164182
796.096	0.0164079
796.174	0.0166434
796.253	0.0163654
796.331	0.0162901
796.409	0.0163206
796.487	0.0164008
796.565	0.0163392
796.643	0.0163225
796.721	0.0162321
796.799	0.0162386
796.878	0.0162740
796.956	0.0164364
797.034	0.0163728
797.112	0.0163612
797.190	0.0162579
797.268	0.0163071
797.346	0.0163766
797.424	0.0163948
797.503	0.0161850
797.581	0.0163576
797.659	0.0163880
797.737	0.0162486
797.815	0.0162798
797.893	0.0163666
797.971	0.0162932
798.049	0.0162605
798.128	0.0161331
798.206	0.0161947
798.284	0.0163222
798.362	0.0162872
798.440	0.0163120
798.518	0.0163234
798.596	0.0162473
798.674	0.0162392
798.753	0.0162234
798.831	0.0162318
798.909	0.0162899
798.987	0.0162894
799.065	0.0162765
799.143	0.0161712
799.221	0.0161404
799.299	0.0163219
799.378	0.0163262
799.456	0.0161848
799.534	0.0162411
799.612	0.0163138
799.690	0.0163288
799.768	0.0162947
799.846	0.0163519
799.924	0.0161928
800.003	0.0163162
800.081	0.0161633
800.159	0.0161630
800.237	0.0162346
800.315	0.0162752
800.393	0.0161813
800.471	0.0162192
800.549	0.0163631
800.628	0.0163612
800.706	0.0162807
800.784	0.0161597
800.862	0.0163277
800.940	0.0163786
801.018	0.0162228
801.096	0.0162106
801.174	0.0164664
801.253	0.0163570
801.331	0.0163323
801.409	0.0161697
801.487	0.0162167
801.565	0.0165720
801.643	0.0162401
801.721	0.0162364
801.799	0.0161748
801.878	0.0163140
801.956	0.0162468
802.034	0.0162550
802.112	0.0163089
802.190	0.0162773
802.268	0.0162493
802.346	0.0164387
802.424	0.0164388
802.503	0.0163561
802.581	0.0164349
802.659	0.0164266
802.737	0.0164675
802.815	0.0165832
802.893	0.0164627
802.971	0.0163672
803.049	0.0165261
803.128	0.0164620
803.206	0.0164539
803.284	0.0163522
803.362	0.0162463
803.440	0.0163516
803.518	0.0163922
803.596	0.0163100
803.674	0.0161449
803.753	0.0162784
803.831	0.0163170
803.909	0.0162393
803.987	0.0162925
804.065	0.0163321
804.143	0.0162303
804.221	0.0163324
804.299	0.0164761
804.378	0.0163313
804.456	0.0161848
804.534	0.0163931
804.612	0.0162074
804.690	0.0163300
804.768	0.0162677
804.846	0.0161044
804.924	0.0161895
805.003	0.0162283
805.081	0.0162909
805.159	0.0161963
805.237	0.0162036
805.315	0.0162514
805.393	0.0162700
805.471	0.0162752
805.549	0.0161774
805.628	0.0162478
805.706	0.0162130
805.784	0.0161665
805.862	0.0163140
805.940	0.0161110
806.018	0.0163343
806.096	0.0160808
806.174	0.0161015
806.253	0.0161650
806.331	0.0162859
806.409	0.0162537
806.487	0.0162675
806.565	0.0161763
806.643	0.0161847
806.721	0.0162288
806.799	0.0163974
806.878	0.0162995
806.956	0.0162000
807.034	0.0161694
807.112	0.0163359
807.190	0.0162231
807.268	0.0161575
807.346	0.0163309
807.424	0.0163309
807.503	0.0161551
807.581	0.0162534
807.659	0.0164278
807.737	0.0165200
807.815	0.0163319
807.893	0.0161830
807.971	0.0163261
808.049	0.0162444
808.128	0.0163474
808.206	0.0163822
808.284	0.0163010
808.362	0.0163335
808.440	0.0162379
808.518	0.0162595
808.596	0.0162510
808.674	0.0163065
808.753	0.0163039
808.831	0.0164192
808.909	0.0162291
808.987	0.0162056
809.065	0.0164651
809.143	0.0163506
809.221	0.0163389
809.299	0.0164075
809.378	0.0164033
809.456	0.0165050
809.534	0.0164497
809.612	0.0163319
809.690	0.0162810
809.768	0.0165204
809.846	0.0164628
809.924	0.0163382
810.003	0.0163737
810.081	0.0164288
810.159	0.0164059
810.237	0.0164401
810.315	0.0164467
810.393	0.0163697
810.471	0.0162469
810.549	0.0163305
810.628	0.0163392
810.706	0.0163312
810.784	0.0163235
810.862	0.0163876
810.940	0.0163070
811.018	0.0162417
811.096	0.0163167
811.174	0.0161793
811.253	0.0162545
811.331	0.0162028
811.409	0.0162851
811.487	0.0163088
811.565	0.0163184
811.643	0.0161983
811.721	0.0161720
811.799	0.0163271
811.878	0.0161656
811.956	0.0160719
812.034	0.0161488
812.112	0.0163509
812.190	0.0162182
812.268	0.0161678
812.346	0.0161768
812.424	0.0161474
812.503	0.0161680
812.581	0.0162043
812.659	0.0163139
812.737	0.0161559
812.815	0.0160351
812.893	0.0161403
812.971	0.0162553
813.049	0.0160593
813.128	0.0161409
813.206	0.0160287
813.284	0.0161456
813.362	0.0161549
813.440	0.0163091
813.518	0.0162144
813.596	0.0162224
813.674	0.0161771
813.753	0.0160583
813.831	0.0160976
813.909	0.0162134
813.987	0.0162089
814.065	0.0162234
814.143	0.0161714
814.221	0.0161868
814.299	0.0162699
814.378	0.0162045
814.456	0.0162729
814.534	0.0163463
814.612	0.0162518
814.690	0.0161976
814.768	0.0164264
814.846	0.0163541
814.924	0.0163909
815.003	0.0164140
815.081	0.0163100
815.159	0.0163152
815.237	0.0163680
815.315	0.0164749
815.393	0.0165221
815.471	0.0162871
815.549	0.0164275
815.628	0.0161803
815.706	0.0162249
815.784	0.0162726
815.862	0.0162959
815.940	0.0163565
816.018	0.0163599
816.096	0.0162812
816.174	0.0164133
816.253	0.0164090
816.331	0.0163856
816.409	0.0164709
816.487	0.0163503
816.565	0.0163106
816.643	0.0163519
816.721	0.0163759
816.799	0.0161556
816.878	0.0162589
816.956	0.0163108
817.034	0.0162888
817.112	0.0162367
817.190	0.0161935
817.268	0.0160517
817.346	0.0162504
817.424	0.0162306
817.503	0.0162505
817.581	0.0162952
817.659	0.0161105
817.737	0.0162704
817.815	0.0162790
817.893	0.0162315
817.971	0.0161940
818.049	0.0161913
818.128	0.0163055
818.206	0.0162610
818.284	0.0162417
818.362	0.0161753
818.440	0.0162277
818.518	0.0163212
818.596	0.0162473
818.674	0.0162178
818.753	0.0163324
818.831	0.0163220
818.909	0.0164619
818.987	0.0162670
819.065	0.0162740
819.143	0.0163273
819.221	0.0163594
819.299	0.0163753
819.378	0.0163531
819.456	0.0164416
819.534	0.0164141
819.612	0.0162446
819.690	0.0163233
819.768	0.0163701
819.846	0.0162905
819.924	0.0161759
820.003	0.0162914
820.081	0.0162017
820.159	0.0162488
820.237	0.0161541
820.315	0.0161849
820.393	0.0162603
820.471	0.0163935
820.549	0.0161488
820.628	0.0161806
820.706	0.0162531
820.784	0.0162583
820.862	0.0162312
820.940	0.0161604
821.018	0.0162164
821.096	0.0162353
821.174	0.0162307
821.253	0.0163055
821.331	0.0162888
821.409	0.0161485
821.487	0.0162521
821.565	0.0161916
821.643	0.0161935
821.721	0.0162275
821.799	0.0162291
821.878	0.0163263
821.956	0.0161726
822.034	0.0162846
822.112	0.0162645
822.190	0.0160882
822.268	0.0161894
822.346	0.0162674
822.424	0.0161992
822.503	0.0161967
822.581	0.0162258
822.659	0.0162704
822.737	0.0162347
822.815	0.0163541
822.893	0.0161623
822.971	0.0162606
823.049	0.0162557
823.128	0.0162762
823.206	0.0162814
823.284	0.0162286
823.362	0.0162595
823.440	0.0162903
823.518	0.0162894
823.596	0.0162882
823.674	0.0162627
823.753	0.0163437
823.831	0.0162679
823.909	0.0162707
823.987	0.0162057
824.065	0.0162334
824.143	0.0162452
824.221	0.0163033
824.299	0.0162358
824.378	0.0162415
824.456	0.0162665
824.534	0.0162699
824.612	0.0164472
824.690	0.0164380
824.768	0.0163533
824.846	0.0164067
824.924	0.0163868
825.003	0.0162984
825.081	0.0163583
825.159	0.0163164
825.237	0.0163293
825.315	0.0164365
825.393	0.0164977
825.471	0.0163935
825.549	0.0162650
825.628	0.0163622
825.706	0.0164407
825.784	0.0162905
825.862	0.0164170
825.940	0.0164063
826.018	0.0162017
826.096	0.0162668
826.174	0.0163636
826.253	0.0162964
826.331	0.0164677
826.409	0.0162736
826.487	0.0163529
826.565	0.0164075
826.643	0.0163596
826.721	0.0163409
826.799	0.0164703
826.878	0.0163287
826.956	0.0163809
827.034	0.0163207
827.112	0.0164279
827.190	0.0163692
827.268	0.0162946
827.346	0.0163319
827.424	0.0163856
827.503	0.0163261
827.581	0.0162377
827.659	0.0162839
827.737	0.0162749
827.815	0.0162740
827.893	0.0162978
827.971	0.0163565
828.049	0.0162125
828.128	0.0162058
828.206	0.0162973
828.284	0.0162747
828.362	0.0161605
828.440	0.0162175
828.518	0.0161189
828.596	0.0163283
828.674	0.0163369
828.753	0.0162271
828.831	0.0162781
828.909	0.0161938
828.987	0.0161760
829.065	0.0163052
829.143	0.0162180
829.221	0.0163487
829.299	0.0161800
829.378	0.0163259
829.456	0.0162563
829.534	0.0161084
829.612	0.0162617
829.690	0.0162162
829.768	0.0161993
829.846	0.0161465
829.924	0.0162404
830.003	0.0161855
830.081	0.0162920
830.159	0.0162524
830.237	0.0161997
830.315	0.0162582
830.393	0.0162986
830.471	0.0164366
830.549	0.0162839
830.628	0.0161581
830.706	0.0164037
830.784	0.0164155
830.862	0.0163587
830.940	0.0162580
831.018	0.0163698
831.096	0.0163456
831.174	0.0161655
831.253	0.0162338
831.331	0.0165327
831.409	0.0164130
831.487	0.0163314
831.565	0.0163370
831.643	0.0163327
831.721	0.0163088
831.799	0.0163017
831.878	0.0164618
831.956	0.0162220
832.034	0.0162469
832.112	0.0163884
832.190	0.0164255
832.268	0.0163875
832.346	0.0162552
832.424	0.0163769
832.503	0.0164509
832.581	0.0163691
832.659	0.0162477
832.737	0.0164095
832.815	0.0163944
832.893	0.0162803
832.971	0.0163377
833.049	0.0164086
833.128	0.0163225
833.206	0.0163171
833.284	0.0161961
833.362	0.0162146
833.440	0.0162852
833.518	0.0162630
833.596	0.0161678
833.674	0.0161720
833.753	0.0162872
833.831	0.0162550
833.909	0.0161578
833.987	0.0162746
834.065	0.0162994
834.143	0.0161694
834.221	0.0162391
834.299	0.0164342
834.378	0.0162506
834.456	0.0162102
834.534	0.0164259
834.612	0.0162601
834.690	0.0161532
834.768	0.0162991
834.846	0.0162950
834.924	0.0162627
835.003	0.0162982
835.081	0.0162429
835.159	0.0162329
835.237	0.0163210
835.315	0.0163475
835.393	0.0161354
835.471	0.0162614
835.549	0.0161376
835.628	0.0161556
835.706	0.0161992
835.784	0.0163132
835.862	0.0161717
835.940	0.0161438
836.018	0.0162215
836.096	0.0162788
836.174	0.0162985
836.253	0.0164001
836.331	0.0162896
836.409	0.0161777
836.487	0.0163235
836.565	0.0162635
836.643	0.0162608
836.721	0.0163643
836.799	0.0162499
836.878	0.0162720
836.956	0.0161406
837.034	0.0162817
837.112	0.0163762
837.190	0.0162577
837.268	0.0162885
837.346	0.0162389
837.424	0.0162022
837.503	0.0162432
837.581	0.0161613
837.659	0.0160620
837.737	0.0161827
837.815	0.0160935
837.893	0.0162160
837.971	0.0161507
838.049	0.0161776
838.128	0.0163068
838.206	0.0162208
838.284	0.0161250
838.362	0.0160491
838.440	0.0163174
838.518	0.0161728
838.596	0.0161950
838.674	0.0161423
838.753	0.0161194
838.831	0.0162350
838.909	0.0162578
838.987	0.0162372
839.065	0.0161649
839.143	0.0161484
839.221	0.0161989
839.299	0.0162448
839.378	0.0163126
839.456	0.0161486
839.534	0.0162572
839.612	0.0163327
839.690	0.0163184
839.768	0.0163350
839.846	0.0162960
839.924	0.0162251
840.003	0.0162952
840.081	0.0163428
840.159	0.0162575
840.237	0.0163318
840.315	0.0162366
840.393	0.0163725
840.471	0.0163680
840.549	0.0161590
840.628	0.0162295
840.706	0.0165259
840.784	0.0163559
840.862	0.0163699
840.940	0.0162273
841.018	0.0163715
841.096	0.0163421
841.174	0.0162206
841.253	0.0163461
841.331	0.0162241
841.409	0.0162886
841.487	0.0164291
841.565	0.0162669
841.643	0.0163258
841.721	0.0162630
841.799	0.0162019
841.878	0.0163206
841.956	0.0162141
842.034	0.0163083
842.112	0.0161912
842.190	0.0163139
842.268	0.0162963
842.346	0.0161537
842.424	0.0162038
842.503	0.0162501
842.581	0.0163300
842.659	0.0163737
842.737	0.0162827
842.815	0.0162173
842.893	0.0162823
842.971	0.0161458
843.049	0.0162160
843.128	0.0162023
843.206	0.0162350
843.284	0.0161717
843.362	0.0161822
843.440	0.0162912
843.518	0.0163390
843.596	0.0162096
843.674	0.0161453
843.753	0.0162399
843.831	0.0162545
843.909	0.0162009
843.987	0.0161921
844.065	0.0162446
844.143	0.0163191
844.221	0.0161550
844.299	0.0162549
844.378	0.0161740
844.456	0.0163248
844.534	0.0163148
844.612	0.0162646
844.690	0.0162408
844.768	0.0162286
844.846	0.0162119
844.924	0.0162788
845.003	0.0162955
845.081	0.0162655
845.159	0.0162941
845.237	0.0161372
845.315	0.0162915
845.393	0.0162978
845.471	0.0161713
845.549	0.0161687
845.628	0.0162576
845.706	0.0163013
845.784	0.0163622
845.862	0.0164623
845.940	0.0163528
846.018	0.0163111
846.096	0.0163016
846.174	0.0162694
846.253	0.0162787
846.331	0.0162290
846.409	0.0163875
846.487	0.0164225
846.565	0.0163444
846.643	0.0162226
846.721	0.0163416
846.799	0.0162189
846.878	0.0162955
846.956	0.0163103
847.034	0.0163976
847.112	0.0164021
847.190	0.0162775
847.268	0.0162792
847.346	0.0163557
847.424	0.0162607
847.503	0.0164034
847.581	0.0163921
847.659	0.0163418
847.737	0.0165013
847.815	0.0164334
847.893	0.0163180
847.971	0.0164181
848.049	0.0163140
848.128	0.0161935
848.206	0.0163286
848.284	0.0163919
848.362	0.0162415
848.440	0.0163856
848.518	0.0163768
848.596	0.0163237
848.674	0.0163494
848.753	0.0163748
848.831	0.0164600
848.909	0.0163541
848.987	0.0164760
849.065	0.0163767
849.143	0.0162851
849.221	0.0164746
849.299	0.0163651
849.378	0.0161818
849.456	0.0163285
849.534	0.0163593
849.612	0.0162025
849.690	0.0163084
849.768	0.0163982
849.846	0.0162691
849.924	0.0161811
850.003	0.0164668
850.081	0.0163194
850.159	0.0162360
850.237	0.0163239
850.315	0.0164008
850.393	0.0163056
850.471	0.0163934
850.549	0.0163016
850.628	0.0164535
850.706	0.0163927
850.784	0.0164153
850.862	0.0163510
850.940	0.0163650
851.018	0.0163751
851.096	0.0163636
851.174	0.0163406
851.253	0.0162514
851.331	0.0161954
851.409	0.0164240
851.487	0.0163001
851.565	0.0163377
851.643	0.0163690
851.721	0.0163613
851.799	0.0161842
851.878	0.0162072
851.956	0.0162650
852.034	0.0161616
852.112	0.0162058
852.190	0.0163187
852.268	0.0162722
852.346	0.0163210
852.424	0.0162871
852.503	0.0163012
852.581	0.0163414
852.659	0.0162845
852.737	0.0163135
852.815	0.0163696
852.893	0.0163246
852.971	0.0162299
853.049	0.0162242
853.128	0.0161955
853.206	0.0162346
853.284	0.0163857
853.362	0.0162698
853.440	0.0161789
853.518	0.0162325
853.596	0.0163533
853.674	0.0162529
853.753	0.0162402
853.831	0.0160890
853.909	0.0163770
853.987	0.0162781
854.065	0.0161466
854.143	0.0163243
854.221	0.0162344
854.299	0.0163081
854.378	0.0161279
854.456	0.0161788
854.534	0.0162265
854.612	0.0163400
854.690	0.0162610
854.768	0.0162486
854.846	0.0163285
854.924	0.0163155
855.003	0.0163260
855.081	0.0163452
855.159	0.0163702
855.237	0.0162592
855.315	0.0163846
855.393	0.0162170
855.471	0.0163259
855.549	0.0164637
855.628	0.0162772
855.706	0.0164293
855.784	0.0163980
855.862	0.0162848
855.940	0.0164548
856.018	0.0164606
856.096	0.0164471
856.174	0.0163216
856.253	0.0162412
856.331	0.0164056
856.409	0.0163816
856.487	0.0164496
856.565	0.0163369
856.643	0.0163132
856.721	0.0164179
856.799	0.0163313
856.878	0.0162411
856.956	0.0163209
857.034	0.0162635
857.112	0.0163018
857.190	0.0162888
857.268	0.0163046
857.346	0.0162580
857.424	0.0162565
857.503	0.0163738
857.581	0.0163086
857.659	0.0163169
857.737	0.0162177
857.815	0.0162534
857.893	0.0163756
857.971	0.0162738
858.049	0.0164086
858.128	0.0163611
858.206	0.0163443
858.284	0.0163426
858.362	0.0162054
858.440	0.0162334
858.518	0.0163441
858.596	0.0162891
858.674	0.0162715
858.753	0.0162470
858.831	0.0162952
858.909	0.0161169
858.987	0.0160342
859.065	0.0161255
859.143	0.0162986
859.221	0.0163780
859.299	0.0162319
859.378	0.0162268
859.456	0.0160232
859.534	0.0163317
859.612	0.0163547
859.690	0.0162579
859.768	0.0162778
859.846	0.0162941
859.924	0.0163606
860.003	0.0163396
860.081	0.0162234
860.159	0.0163076
860.237	0.0163609
860.315	0.0163245
860.393	0.0161681
860.471	0.0163309
860.549	0.0162196
860.628	0.0163229
860.706	0.0163139
860.784	0.0162448
860.862	0.0160870
860.940	0.0162352
861.018	0.0162721
861.096	0.0163839
861.174	0.0162474
861.253	0.0162994
861.331	0.0163849
861.409	0.0163384
861.487	0.0162836
861.565	0.0163866
861.643	0.0162300
861.721	0.0162488
861.799	0.0162514
861.878	0.0161689
861.956	0.0163345
862.034	0.0164376
862.112	0.0165035
862.190	0.0164531
862.268	0.0162814
862.346	0.0163219
862.424	0.0163952
862.503	0.0163975
862.581	0.0162482
862.659	0.0163251
862.737	0.0164355
862.815	0.0164839
862.893	0.0164522
862.971	0.0164513
863.049	0.0162771
863.128	0.0163084
863.206	0.0162676
863.284	0.0163798
863.362	0.0162681
863.440	0.0163466
863.518	0.0162971
863.596	0.0162757
863.674	0.0162722
863.753	0.0161768
863.831	0.0162045
863.909	0.0162500
863.987	0.0161922
864.065	0.0162352
864.143	0.0162395
864.221	0.0162281
864.299	0.0163559
864.378	0.0163520
864.456	0.0162946
864.534	0.0163193
864.612	0.0163000
864.690	0.0164555
864.768	0.0163483
864.846	0.0163039
864.924	0.0164095
865.003	0.0163142
865.081	0.0163498
865.159	0.0163266
865.237	0.0163571
865.315	0.0162405
865.393	0.0163108
865.471	0.0163169
865.549	0.0162260
865.628	0.0163177
865.706	0.0162995
865.784	0.0162949
865.862	0.0162046
865.940	0.0162073
866.018	0.0163637
866.096	0.0162856
866.174	0.0162379
866.253	0.0163102
866.331	0.0165018
866.409	0.0163716
866.487	0.0162603
866.565	0.0164839
866.643	0.0162122
866.721	0.0163000
866.799	0.0164056
866.878	0.0164114
866.956	0.0165025
867.034	0.0164232
867.112	0.0164189
867.190	0.0162638
867.268	0.0162952
867.346	0.0164072
867.424	0.0163464
867.503	0.0162724
867.581	0.0163750
867.659	0.0163289
867.737	0.0162556
867.815	0.0162090
867.893	0.0162443
867.971	0.0162872
868.049	0.0161356
868.128	0.0162280
868.206	0.0163710
868.284	0.0164207
868.362	0.0162214
868.440	0.0162794
868.518	0.0163694
868.596	0.0162792
868.674	0.0162520
868.753	0.0162175
868.831	0.0162270
868.909	0.0163127
868.987	0.0164309
869.065	0.0163648
869.143	0.0163604
869.221	0.0164426
869.299	0.0163861
869.378	0.0164890
869.456	0.0163229
869.534	0.0164767
869.612	0.0164617
869.690	0.0163289
869.768	0.0164030
869.846	0.0163276
869.924	0.0164249
870.003	0.0164651
870.081	0.0164017
870.159	0.0164114
870.237	0.0164936
870.315	0.0164191
870.393	0.0163617
870.471	0.0163741
870.549	0.0163920
870.628	0.0163171
870.706	0.0162852
870.784	0.0165676
870.862	0.0164018
870.940	0.0163579
871.018	0.0163850
871.096	0.0162709
871.174	0.0163969
871.253	0.0163719
871.331	0.0164426
871.409	0.0163449
871.487	0.0163593
871.565	0.0165884
871.643	0.0162431
871.721	0.0163527
871.799	0.0163990
871.878	0.0165080
871.956	0.0161933
872.034	0.0163735
872.112	0.0163660
872.190	0.0164089
872.268	0.0161561
872.346	0.0163388
872.424	0.0162923
872.503	0.0163792
872.581	0.0162527
872.659	0.0162642
872.737	0.0162400
872.815	0.0163137
872.893	0.0163841
872.971	0.0162823
873.049	0.0162472
873.128	0.0163727
873.206	0.0163586
873.284	0.0162547
873.362	0.0162955
873.440	0.0161459
873.518	0.0162533
873.596	0.0163086
873.674	0.0163232
873.753	0.0162922
873.831	0.0162393
873.909	0.0163341
873.987	0.0165705
874.065	0.0163873
874.143	0.0164634
874.221	0.0163971
874.299	0.0164663
874.378	0.0163723
874.456	0.0163176
874.534	0.0164664
874.612	0.0163763
874.690	0.0163717
874.768	0.0164009
874.846	0.0165066
874.924	0.0163616
875.003	0.0162253
875.081	0.0163798
875.159	0.0164712
875.237	0.0163635
875.315	0.0162391
875.393	0.0163303
875.471	0.0162758
875.549	0.0162453
875.628	0.0164178
875.706	0.0162360
875.784	0.0163137
875.862	0.0163850
875.940	0.0162991
876.018	0.0162804
876.096	0.0162568
876.174	0.0163139
876.253	0.0163625
876.331	0.0164693
876.409	0.0163158
876.487	0.0161523
876.565	0.0161987
876.643	0.0163463
876.721	0.0162279
876.799	0.0162946
876.878	0.0162564
876.956	0.0162749
877.034	0.0161356
877.112	0.0164079
877.190	0.0162343
877.268	0.0162948
877.346	0.0164360
877.424	0.0163673
877.503	0.0162659
877.581	0.0162054
877.659	0.0163084
877.737	0.0164123
877.815	0.0163740
877.893	0.0162862
877.971	0.0163913
878.049	0.0162047
878.128	0.0162685
878.206	0.0163560
878.284	0.0161164
878.362	0.0162876
878.440	0.0163686
878.518	0.0163945
878.596	0.0163974
878.674	0.0163655
878.753	0.0164476
878.831	0.0163415
878.909	0.0162684
878.987	0.0163828
879.065	0.0162743
879.143	0.0163100
879.221	0.0163593
879.299	0.0163471
879.378	0.0163361
879.456	0.0163903
879.534	0.0162181
879.612	0.0163428
879.690	0.0164165
879.768	0.0164329
879.846	0.0162724
879.924	0.0163518
880.003	0.0164847
880.081	0.0163676
880.159	0.0164127
880.237	0.0163270
880.315	0.0164550
880.393	0.0162949
880.471	0.0164226
880.549	0.0163712
880.628	0.0162726
880.706	0.0164219
880.784	0.0165109
880.862	0.0163676
880.940	0.0162981
881.018	0.0161744
881.096	0.0162239
881.174	0.0164549
881.253	0.0163149
881.331	0.0163294
881.409	0.0163962
881.487	0.0163555
881.565	0.0162840
881.643	0.0163889
881.721	0.0163348
881.799	0.0162163
881.878	0.0163844
881.956	0.0162954
882.034	0.0164191
882.112	0.0163954
882.190	0.0164708
882.268	0.0163338
882.346	0.0161224
882.424	0.0163217
882.503	0.0162790
882.581	0.0161754
882.659	0.0161989
882.737	0.0162679
882.815	0.0162629
882.893	0.0162169
882.971	0.0161800
883.049	0.0161587
883.128	0.0161820
883.206	0.0162063
883.284	0.0161872
883.362	0.0162650
883.440	0.0162500
883.518	0.0163551
883.596	0.0163425
883.674	0.0162742
883.753	0.0162129
883.831	0.0162937
883.909	0.0162985
883.987	0.0162372
884.065	0.0162475
884.143	0.0162971
884.221	0.0163151
884.299	0.0163799
884.378	0.0163013
884.456	0.0162354
884.534	0.0163093
884.612	0.0162203
884.690	0.0162273
884.768	0.0164063
884.846	0.0163070
884.924	0.0162678
885.003	0.0162530
885.081	0.0162248
885.159	0.0163103
885.237	0.0163335
885.315	0.0162833
885.393	0.0163438
885.471	0.0164514
885.549	0.0162309
885.628	0.0162844
885.706	0.0163442
885.784	0.0163800
885.862	0.0162572
885.940	0.0162158
886.018	0.0163520
886.096	0.0162879
886.174	0.0163078
886.253	0.0162212
886.331	0.0163006
886.409	0.0161974
886.487	0.0162289
886.565	0.0163130
886.643	0.0161719
886.721	0.0163342
886.799	0.0162958
886.878	0.0162902
886.956	0.0162416
887.034	0.0163502
887.112	0.0162875
887.190	0.0162836
887.268	0.0163707
887.346	0.0162745
887.424	0.0162122
887.503	0.0162913
887.581	0.0162402
887.659	0.0163148
887.737	0.0164822
887.815	0.0163005
887.893	0.0163438
887.971	0.0162714
888.049	0.0163016
888.128	0.0163644
888.206	0.0164065
888.284	0.0163572
888.362	0.0162872
888.440	0.0163063
888.518	0.0161894
888.596	0.0164766
888.674	0.0163273
888.753	0.0163358
888.831	0.0162783
888.909	0.0162740
888.987	0.0163237
889.065	0.0163793
889.143	0.0163738
889.221	0.0163802
889.299	0.0163418
889.378	0.0163892
889.456	0.0164042
889.534	0.0163955
889.612	0.0163156
889.690	0.0163031
889.768	0.0162445
889.846	0.0164257
889.924	0.0162998
890.003	0.0163064
890.081	0.0162955
890.159	0.0163049
890.237	0.0163438
890.315	0.0163560
890.393	0.0163428
890.471	0.0163026
890.549	0.0163677
890.628	0.0163907
890.706	0.0163508
890.784	0.0162886
890.862	0.0164020
890.940	0.0162325
891.018	0.0163497
891.096	0.0164085
891.174	0.0164264
891.253	0.0162887
891.331	0.0163625
891.409	0.0162685
891.487	0.0163020
891.565	0.0162740
891.643	0.0164739
891.721	0.0163827
891.799	0.0161733
891.878	0.0163170
891.956	0.0163766
892.034	0.0163097
892.112	0.0162487
892.190	0.0162785
892.268	0.0163390
892.346	0.0162212
892.424	0.0162635
892.503	0.0163567
892.581	0.0161485
892.659	0.0163029
892.737	0.0162989
892.815	0.0162525
892.893	0.0162399
892.971	0.0162424
893.049	0.0163395
893.128	0.0162927
893.206	0.0162772
893.284	0.0163689
893.362	0.0164215
893.440	0.0164218
893.518	0.0163480
893.596	0.0162489
893.674	0.0162527
893.753	0.0163807
893.831	0.0165456
893.909	0.0163515
893.987	0.0164729
894.065	0.0163895
894.143	0.0162994
894.221	0.0162578
894.299	0.0163663
894.378	0.0164704
894.456	0.0164059
894.534	0.0164470
894.612	0.0164834
894.690	0.0165431
894.768	0.0163939
894.846	0.0165210
894.924	0.0164809
895.003	0.0163400
895.081	0.0163896
895.159	0.0164624
895.237	0.0162576
895.315	0.0164261
895.393	0.0163516
895.471	0.0164602
895.549	0.0166380
895.628	0.0164273
895.706	0.0163732
895.784	0.0164361
895.862	0.0165392
895.940	0.0164820
896.018	0.0164734
896.096	0.0164422
896.174	0.0165280
896.253	0.0164841
896.331	0.0165151
896.409	0.0165804
896.487	0.0163825
896.565	0.0166404
896.643	0.0166051
896.721	0.0164449
896.799	0.0164287
896.878	0.0165659
896.956	0.0164864
897.034	0.0163681
897.112	0.0164616
897.190	0.0163955
897.268	0.0164636
897.346	0.0163276
897.424	0.0162753
897.503	0.0162727
897.581	0.0162225
897.659	0.0162251
897.737	0.0163967
897.815	0.0164021
897.893	0.0163066
897.971	0.0162964
898.049	0.0161428
898.128	0.0163931
898.206	0.0163204
898.284	0.0164541
898.362	0.0164281
898.440	0.0162483
898.518	0.0162174
898.596	0.0162484
898.674	0.0162107
898.753	0.0163543
898.831	0.0162274
898.909	0.0162882
898.987	0.0163688
899.065	0.0163927
899.143	0.0163923
899.221	0.0164024
899.299	0.0163898
899.378	0.0163023
899.456	0.0162839
899.534	0.0163049
899.612	0.0163314
899.690	0.0163488
899.768	0.0162064
899.846	0.0162195
899.924	0.0163846
900.003	0.0163125
900.081	0.0161818
900.159	0.0161707
900.237	0.0162771
900.315	0.0162477
900.393	0.0161946
900.471	0.0161995
900.549	0.0161350
900.628	0.0162435
900.706	0.0161958
900.784	0.0162936
900.862	0.0161665
900.940	0.0162872
901.018	0.0162744
901.096	0.0162580
901.174	0.0163227
901.253	0.0162298
901.331	0.0162045
901.409	0.0163100
901.487	0.0162581
901.565	0.0161914
901.643	0.0162694
901.721	0.0163638
901.799	0.0161794
901.878	0.0162435
901.956	0.0162527
902.034	0.0162645
902.112	0.0161031
902.190	0.0162695
902.268	0.0163354
902.346	0.0162251
902.424	0.0163731
902.503	0.0162527
902.581	0.0161102
902.659	0.0161693
902.737	0.0161838
902.815	0.0161800
902.893	0.0164093
902.971	0.0161900
903.049	0.0162041
903.128	0.0162968
903.206	0.0161046
903.284	0.0161900
903.362	0.0160908
903.440	0.0162050
903.518	0.0163520
903.596	0.0164975
903.674	0.0163756
903.753	0.0162267
903.831	0.0162759
903.909	0.0163249
903.987	0.0163632
904.065	0.0162228
904.143	0.0162360
904.221	0.0162696
904.299	0.0162000
904.378	0.0162519
904.456	0.0163022
904.534	0.0162833
904.612	0.0162573
904.690	0.0163358
904.768	0.0162951
904.846	0.0162569
904.924	0.0162492
905.003	0.0162836
905.081	0.0163435
905.159	0.0162205
905.237	0.0161474
905.315	0.0162562
905.393	0.0163806
905.471	0.0162408
905.549	0.0162278
905.628	0.0163131
905.706	0.0163642
905.784	0.0162145
905.862	0.0162643
905.940	0.0163415
906.018	0.0162596
906.096	0.0162956
906.174	0.0162668
906.253	0.0161710
906.331	0.0163303
906.409	0.0164048
906.487	0.0163436
906.565	0.0162888
906.643	0.0161828
906.721	0.0161369
906.799	0.0162372
906.878	0.0162834
906.956	0.0162524
907.034	0.0161542
907.112	0.0161941
907.190	0.0161185
907.268	0.0162708
907.346	0.0161852
907.424	0.0162960
907.503	0.0162001
907.581	0.0161771
907.659	0.0162425
907.737	0.0161583
907.815	0.0162185
907.893	0.0162291
907.971	0.0161950
908.049	0.0161345
908.128	0.0161686
908.206	0.0162129
908.284	0.0161667
908.362	0.0163480
908.440	0.0162701
908.518	0.0162382
908.596	0.0161992
908.674	0.0162624
908.753	0.0163062
908.831	0.0163225
908.909	0.0162430
908.987	0.0162112
909.065	0.0162241
909.143	0.0162670
909.221	0.0163290
909.299	0.0163147
909.378	0.0161594
909.456	0.0162413
909.534	0.0162122
909.612	0.0162149
909.690	0.0163324
909.768	0.0162080
909.846	0.0162955
909.924	0.0162004
910.003	0.0163644
910.081	0.0163060
910.159	0.0163067
910.237	0.0162598
910.315	0.0162275
910.393	0.0163579
910.471	0.0162691
910.549	0.0161221
910.628	0.0164161
910.706	0.0162643
910.784	0.0162543
910.862	0.0160661
910.940	0.0163194
911.018	0.0162807
911.096	0.0163100
911.174	0.0162595
911.253	0.0161368
911.331	0.0160525
911.409	0.0162555
911.487	0.0162507
911.565	0.0160458
911.643	0.0161913
911.721	0.0162033
911.799	0.0163380
911.878	0.0164103
911.956	0.0163454
912.034	0.0162286
912.112	0.0163092
912.190	0.0164259
912.268	0.0163020
912.346	0.0162235
912.424	0.0163888
912.503	0.0161607
912.581	0.0161201
912.659	0.0162983
912.737	0.0163000
912.815	0.0161367
912.893	0.0162206
912.971	0.0162190
913.049	0.0162653
913.128	0.0163036
913.206	0.0163692
913.284	0.0163264
913.362	0.0162376
913.440	0.0162362
913.518	0.0162786
913.596	0.0162505
913.674	0.0163284
913.753	0.0162209
913.831	0.0162917
913.909	0.0160720
913.987	0.0163734
914.065	0.0162919
914.143	0.0162985
914.221	0.0163960
914.299	0.0164326
914.378	0.0163718
914.456	0.0163377
914.534	0.0163162
914.612	0.0164036
914.690	0.0163262
914.768	0.0162170
914.846	0.0162696
914.924	0.0163587
915.003	0.0163100
915.081	0.0162862
915.159	0.0164391
915.237	0.0163672
915.315	0.0163187
915.393	0.0163509
915.471	0.0163242
915.549	0.0163625
915.628	0.0161526
915.706	0.0162806
915.784	0.0162150
915.862	0.0162753
915.940	0.0163523
916.018	0.0163382
916.096	0.0162244
916.174	0.0163553
916.253	0.0161675
916.331	0.0161983
916.409	0.0161797
916.487	0.0162059
916.565	0.0162199
916.643	0.0162231
916.721	0.0162529
916.799	0.0162446
916.878	0.0162447
916.956	0.0164168
917.034	0.0163084
917.112	0.0163245
917.190	0.0163541
917.268	0.0162983
917.346	0.0163564
917.424	0.0163511
917.503	0.0164383
917.581	0.0164824
917.659	0.0163111
917.737	0.0163839
917.815	0.0163665
917.893	0.0162591
917.971	0.0164417
918.049	0.0163323
918.128	0.0163480
918.206	0.0162486
918.284	0.0164094
918.362	0.0164355
918.440	0.0163348
918.518	0.0162639
918.596	0.0162057
918.674	0.0162736
918.753	0.0164268
918.831	0.0163057
918.909	0.0163575
918.987	0.0163075
919.065	0.0163545
919.143	0.0162074
919.221	0.0163195
919.299	0.0163373
919.378	0.0163415
919.456	0.0162820
919.534	0.0163350
919.612	0.0163544
919.690	0.0162891
919.768	0.0162526
919.846	0.0163245
919.924	0.0163351
920.003	0.0163483
920.081	0.0163983
920.159	0.0164380
920.237	0.0163407
920.315	0.0162457
920.393	0.0163314
920.471	0.0162908
920.549	0.0162342
920.628	0.0162380
920.706	0.0164082
920.784	0.0163514
920.862	0.0161831
920.940	0.0162957
921.018	0.0163776
921.096	0.0162988
921.174	0.0163255
921.253	0.0162503
921.331	0.0162033
921.409	0.0162296
921.487	0.0163250
921.565	0.0163121
921.643	0.0162411
921.721	0.0163113
921.799	0.0163189
921.878	0.0162264
921.956	0.0162358
922.034	0.0164220
922.112	0.0163386
922.190	0.0161684
922.268	0.0162866
922.346	0.0162883
922.424	0.0162358
922.503	0.0163903
922.581	0.0164278
922.659	0.0161574
922.737	0.0162932
922.815	0.0162492
922.893	0.0162189
922.971	0.0162007
923.049	0.0161759
923.128	0.0161547
923.206	0.0162021
923.284	0.0160927
923.362	0.0162304
923.440	0.0161928
923.518	0.0161951
923.596	0.0163194
923.674	0.0162491
923.753	0.0162294
923.831	0.0161913
923.909	0.0160810
923.987	0.0161567
924.065	0.0161268
924.143	0.0162959
924.221	0.0161151
924.299	0.0162054
924.378	0.0162055
924.456	0.0161677
924.534	0.0161833
924.612	0.0162491
924.690	0.0162513
924.768	0.0163282
924.846	0.0163006
924.924	0.0163094
925.003	0.0161589
925.081	0.0162711
925.159	0.0162053
925.237	0.0161794
925.315	0.0161835
925.393	0.0162948
925.471	0.0163789
925.549	0.0162637
925.628	0.0162902
925.706	0.0163157
925.784	0.0163808
925.862	0.0163314
925.940	0.0163238
926.018	0.0163872
926.096	0.0162215
926.174	0.0164451
926.253	0.0163461
926.331	0.0163874
926.409	0.0163498
926.487	0.0164192
926.565	0.0163956
926.643	0.0163322
926.721	0.0162418
926.799	0.0163290
926.878	0.0163995
926.956	0.0163457
927.034	0.0165031
927.112	0.0163789
927.190	0.0165142
927.268	0.0164291
927.346	0.0163543
927.424	0.0164001
927.503	0.0164238
927.581	0.0165305
927.659	0.0165085
927.737	0.0163102
927.815	0.0163698
927.893	0.0163855
927.971	0.0163634
928.049	0.0163071
928.128	0.0163643
928.206	0.0164071
928.284	0.0164117
928.362	0.0163979
928.440	0.0162687
928.518	0.0162051
928.596	0.0162509
928.674	0.0163400
928.753	0.0164340
928.831	0.0165480
928.909	0.0163212
928.987	0.0162296
929.065	0.0163451
929.143	0.0165074
929.221	0.0164622
929.299	0.0163604
929.378	0.0164201
929.456	0.0163854
929.534	0.0162104
929.612	0.0163988
929.690	0.0165765
929.768	0.0165660
929.846	0.0163487
929.924	0.0163474
930.003	0.0162973
930.081	0.0162486
930.159	0.0163094
930.237	0.0163825
930.315	0.0162669
930.393	0.0162875
930.471	0.0163383
930.549	0.0162980
930.628	0.0164073
930.706	0.0163195
930.784	0.0162809
930.862	0.0162920
930.940	0.0163645
931.018	0.0163062
931.096	0.0161781
931.174	0.0163164
931.253	0.0163005
931.331	0.0162914
931.409	0.0162949
931.487	0.0163487
931.565	0.0162151
931.643	0.0163421
931.721	0.0164724
931.799	0.0162395
931.878	0.0163470
931.956	0.0164134
932.034	0.0163367
932.112	0.0162709
932.190	0.0163598
932.268	0.0164095
932.346	0.0162361
932.424	0.0162024
932.503	0.0162832
932.581	0.0162774
932.659	0.0164204
932.737	0.0162397
932.815	0.0161816
932.893	0.0161815
932.971	0.0162383
933.049	0.0161803
933.128	0.0161935
933.206	0.0162837
933.284	0.0162168
933.362	0.0162233
933.440	0.0162988
933.518	0.0162856
933.596	0.0160777
933.674	0.0161022
933.753	0.0163108
933.831	0.0162951
933.909	0.0164257
933.987	0.0161556
934.065	0.0162251
934.143	0.0163335
934.221	0.0162712
934.299	0.0162212
934.378	0.0161288
934.456	0.0163037
934.534	0.0162304
934.612	0.0160805
934.690	0.0162579
934.768	0.0161288
934.846	0.0161606
934.924	0.0161206
935.003	0.0161200
935.081	0.0163207
935.159	0.0162749
935.237	0.0163496
935.315	0.0164305
935.393	0.0163593
935.471	0.0163547
935.549	0.0164199
935.628	0.0163216
935.706	0.0163865
935.784	0.0162681
935.862	0.0162057
935.940	0.0161767
936.018	0.0164387
936.096	0.0162611
936.174	0.0163145
936.253	0.0163998
936.331	0.0162605
936.409	0.0163161
936.487	0.0162655
936.565	0.0163444
936.643	0.0163557
936.721	0.0162998
936.799	0.0163011
936.878	0.0163311
936.956	0.0163203
937.034	0.0164108
937.112	0.0164001
937.190	0.0163059
937.268	0.0163787
937.346	0.0163292
937.424	0.0162234
937.503	0.0162946
937.581	0.0164111
937.659	0.0163387
937.737	0.0163223
937.815	0.0162440
937.893	0.0162479
937.971	0.0162504
938.049	0.0163306
938.128	0.0164183
938.206	0.0163029
938.284	0.0164292
938.362	0.0162518
938.440	0.0161953
938.518	0.0163210
938.596	0.0162843
938.674	0.0161401
938.753	0.0161390
938.831	0.0161555
938.909	0.0162427
938.987	0.0161579
939.065	0.0162138
939.143	0.0161893
939.221	0.0162199
939.299	0.0162254
939.378	0.0161765
939.456	0.0161694
939.534	0.0163185
939.612	0.0162466
939.690	0.0161329
939.768	0.0162418
939.846	0.0162360
939.924	0.0162549
940.003	0.0161861
940.081	0.0162759
940.159	0.0164085
940.237	0.0162096
940.315	0.0161958
940.393	0.0162096
940.471	0.0161793
940.549	0.0161616
940.628	0.0161160
940.706	0.0161762
940.784	0.0161583
940.862	0.0161481
940.940	0.0162649
941.018	0.0163199
941.096	0.0162359
941.174	0.0162494
941.253	0.0162327
941.331	0.0162979
941.409	0.0163739
941.487	0.0163371
941.565	0.0162594
941.643	0.0163005
941.721	0.0162019
941.799	0.0162836
941.878	0.0162189
941.956	0.0163131
942.034	0.0163091
942.112	0.0163822
942.190	0.0164404
942.268	0.0161684
942.346	0.0162939
942.424	0.0162380
942.503	0.0162396
942.581	0.0162595
942.659	0.0162828
942.737	0.0162389
942.815	0.0161951
942.893	0.0161344
942.971	0.0163153
943.049	0.0162923
943.128	0.0161698
943.206	0.0162526
943.284	0.0162471
943.362	0.0162709
943.440	0.0163187
943.518	0.0162133
943.596	0.0163680
943.674	0.0164091
943.753	0.0163325
943.831	0.0162656
943.909	0.0162685
943.987	0.0164013
944.065	0.0163378
944.143	0.0163067
944.221	0.0163307
944.299	0.0164390
944.378	0.0163127
944.456	0.0164169
944.534	0.0163264
944.612	0.0163289
944.690	0.0164250
944.768	0.0164387
944.846	0.0164223
944.924	0.0161823
945.003	0.0163326
945.081	0.0164191
945.159	0.0163364
945.237	0.0162624
945.315	0.0162343
945.393	0.0164290
945.471	0.0164035
945.549	0.0162473
945.628	0.0164225
945.706	0.0163539
945.784	0.0163270
945.862	0.0162984
945.940	0.0163534
946.018	0.0165353
946.096	0.0163699
946.174	0.0163921
946.253	0.0165060
946.331	0.0163557
946.409	0.0164526
946.487	0.0163757
946.565	0.0164752
946.643	0.0163680
946.721	0.0163800
946.799	0.0163378
946.878	0.0164503
946.956	0.0164423
947.034	0.0162995
947.112	0.0163399
947.190	0.0164976
947.268	0.0162885
947.346	0.0161546
947.424	0.0162902
947.503	0.0164604
947.581	0.0163059
947.659	0.0161713
947.737	0.0162782
947.815	0.0162678
947.893	0.0163976
947.971	0.0161573
948.049	0.0162673
948.128	0.0163269
948.206	0.0163437
948.284	0.0163194
948.362	0.0162713
948.440	0.0163164
948.518	0.0163151
948.596	0.0163868
948.674	0.0162772
948.753	0.0163114
948.831	0.0163415
948.909	0.0163025
948.987	0.0163273
949.065	0.0163474
949.143	0.0164146
949.221	0.0163950
949.299	0.0163899
949.378	0.0163890
949.456	0.0162840
949.534	0.0163142
949.612	0.0164012
949.690	0.0163105
949.768	0.0164176
949.846	0.0163726
949.924	0.0164236
