05/19/2022	00:34:38	Ver.	4.1	UNKNOWN
Optical Delay	630.009178	Delta X		0.078125	Sweeps	1	Scan Rate	0/0
Coordinates	Axis 1	NaN	Axis 2	NaN	Axis 3	NaN	Axis 4	NaN	Axis 5	NaN	Axis 6	0.000000
TX Power	0.000000	RX Power	0.000000

630.009	0.0151672
630.087	0.0152645
630.165	0.0151573
630.244	0.0150314
630.322	0.0152399
630.400	0.0150854
630.478	0.0151787
630.556	0.0152177
630.634	0.0150769
630.712	0.0151254
630.790	0.0151565
630.869	0.0152665
630.947	0.0151278
631.025	0.0151926
631.103	0.0152947
631.181	0.0150976
631.259	0.0151215
631.337	0.0152132
631.415	0.0152667
631.494	0.0152606
631.572	0.0150926
631.650	0.0152207
631.728	0.0152303
631.806	0.0151511
631.884	0.0151407
631.962	0.0151222
632.040	0.0151070
632.119	0.0152416
632.197	0.0151724
632.275	0.0152063
632.353	0.0151147
632.431	0.0152295
632.509	0.0150461
632.587	0.0151952
632.665	0.0151492
632.744	0.0151353
632.822	0.0151067
632.900	0.0151817
632.978	0.0152413
633.056	0.0149957
633.134	0.0151185
633.212	0.0153378
633.290	0.0151531
633.369	0.0151495
633.447	0.0152577
633.525	0.0150722
633.603	0.0151071
633.681	0.0151990
633.759	0.0151602
633.837	0.0151172
633.915	0.0152733
633.994	0.0150951
634.072	0.0150748
634.150	0.0152502
634.228	0.0151089
634.306	0.0152007
634.384	0.0152307
634.462	0.0150677
634.540	0.0151433
634.619	0.0151418
634.697	0.0151043
634.775	0.0152125
634.853	0.0151066
634.931	0.0153762
635.009	0.0152057
635.087	0.0151195
635.165	0.0150471
635.244	0.0151240
635.322	0.0152548
635.400	0.0151816
635.478	0.0151025
635.556	0.0150925
635.634	0.0151669
635.712	0.0151461
635.790	0.0150882
635.869	0.0151229
635.947	0.0151745
636.025	0.0151156
636.103	0.0151060
636.181	0.0151975
636.259	0.0152077
636.337	0.0150494
636.415	0.0149986
636.494	0.0151025
636.572	0.0151020
636.650	0.0151817
636.728	0.0151923
636.806	0.0151517
636.884	0.0150947
636.962	0.0151685
637.040	0.0151364
637.119	0.0151098
637.197	0.0152821
637.275	0.0152773
637.353	0.0151498
637.431	0.0151255
637.509	0.0150764
637.587	0.0150661
637.665	0.0149590
637.744	0.0151059
637.822	0.0151766
637.900	0.0152231
637.978	0.0151872
638.056	0.0151994
638.134	0.0151910
638.212	0.0152128
638.290	0.0150589
638.369	0.0150875
638.447	0.0151035
638.525	0.0149772
638.603	0.0151003
638.681	0.0150398
638.759	0.0151171
638.837	0.0151668
638.915	0.0151330
638.994	0.0150808
639.072	0.0151697
639.150	0.0152394
639.228	0.0151631
639.306	0.0152039
639.384	0.0150735
639.462	0.0150394
639.540	0.0151734
639.619	0.0151461
639.697	0.0151338
639.775	0.0150368
639.853	0.0151416
639.931	0.0152212
640.009	0.0151427
640.087	0.0152552
640.165	0.0151198
640.244	0.0151788
640.322	0.0151848
640.400	0.0152914
640.478	0.0151510
640.556	0.0150946
640.634	0.0152571
640.712	0.0152303
640.790	0.0151701
640.869	0.0152627
640.947	0.0151279
641.025	0.0151340
641.103	0.0151260
641.181	0.0152664
641.259	0.0151230
641.337	0.0150899
641.415	0.0152058
641.494	0.0151679
641.572	0.0151787
641.650	0.0151116
641.728	0.0149871
641.806	0.0150400
641.884	0.0152238
641.962	0.0152771
642.040	0.0150289
642.119	0.0150915
642.197	0.0152679
642.275	0.0150714
642.353	0.0150644
642.431	0.0150889
642.509	0.0152245
642.587	0.0152496
642.665	0.0150905
642.744	0.0152756
642.822	0.0151124
642.900	0.0151949
642.978	0.0151655
643.056	0.0150558
643.134	0.0149475
643.212	0.0151902
643.290	0.0151824
643.369	0.0150851
643.447	0.0152317
643.525	0.0150336
643.603	0.0151342
643.681	0.0151740
643.759	0.0152306
643.837	0.0151556
643.915	0.0151206
643.994	0.0151813
644.072	0.0152599
644.150	0.0151530
644.228	0.0151138
644.306	0.0152615
644.384	0.0150645
644.462	0.0150150
644.540	0.0151972
644.619	0.0151433
644.697	0.0150378
644.775	0.0151572
644.853	0.0151595
644.931	0.0149994
645.009	0.0151277
645.087	0.0153178
645.165	0.0152033
645.244	0.0152308
645.322	0.0152526
645.400	0.0152422
645.478	0.0150533
645.556	0.0151167
645.634	0.0152348
645.712	0.0151702
645.790	0.0152130
645.869	0.0150899
645.947	0.0151353
646.025	0.0150756
646.103	0.0151818
646.181	0.0152499
646.259	0.0151218
646.337	0.0150316
646.415	0.0151447
646.494	0.0152777
646.572	0.0152678
646.650	0.0152608
646.728	0.0150940
646.806	0.0150444
646.884	0.0152064
646.962	0.0150774
647.040	0.0150655
647.119	0.0151421
647.197	0.0151088
647.275	0.0151281
647.353	0.0150646
647.431	0.0151202
647.509	0.0151780
647.587	0.0151801
647.665	0.0151247
647.744	0.0151001
647.822	0.0151241
647.900	0.0151768
647.978	0.0151575
648.056	0.0150816
648.134	0.0152010
648.212	0.0152599
648.290	0.0151303
648.369	0.0150954
648.447	0.0151598
648.525	0.0150399
648.603	0.0151582
648.681	0.0150948
648.759	0.0151397
648.837	0.0151947
648.915	0.0150146
648.994	0.0150581
649.072	0.0152549
649.150	0.0150779
649.228	0.0152559
649.306	0.0153023
649.384	0.0151270
649.462	0.0150431
649.540	0.0150782
649.619	0.0151253
649.697	0.0150895
649.775	0.0151443
649.853	0.0150928
649.931	0.0150594
650.009	0.0150804
650.087	0.0151442
650.165	0.0150450
650.244	0.0151060
650.322	0.0151051
650.400	0.0150675
650.478	0.0150973
650.556	0.0152202
650.634	0.0151958
650.712	0.0151732
650.790	0.0152098
650.869	0.0151123
650.947	0.0151219
651.025	0.0150364
651.103	0.0151382
651.181	0.0151607
651.259	0.0151764
651.337	0.0151447
651.415	0.0152212
651.494	0.0151621
651.572	0.0151059
651.650	0.0151208
651.728	0.0151694
651.806	0.0151559
651.884	0.0150881
651.962	0.0151527
652.040	0.0151100
652.119	0.0153307
652.197	0.0151127
652.275	0.0151860
652.353	0.0150056
652.431	0.0150720
652.509	0.0152238
652.587	0.0152694
652.665	0.0151478
652.744	0.0150723
652.822	0.0152254
652.900	0.0150536
652.978	0.0150017
653.056	0.0150892
653.134	0.0150716
653.212	0.0150964
653.290	0.0150872
653.369	0.0150620
653.447	0.0151787
653.525	0.0151931
653.603	0.0150632
653.681	0.0150645
653.759	0.0152032
653.837	0.0151991
653.915	0.0150693
653.994	0.0151965
654.072	0.0151689
654.150	0.0152848
654.228	0.0151479
654.306	0.0151718
654.384	0.0151916
654.462	0.0151120
654.540	0.0152242
654.619	0.0151558
654.697	0.0150967
654.775	0.0152085
654.853	0.0151347
654.931	0.0151299
655.009	0.0150677
655.087	0.0152809
655.165	0.0151960
655.244	0.0152274
655.322	0.0151415
655.400	0.0152093
655.478	0.0151240
655.556	0.0152049
655.634	0.0152480
655.712	0.0150962
655.790	0.0150870
655.869	0.0152128
655.947	0.0151083
656.025	0.0151903
656.103	0.0152174
656.181	0.0151205
656.259	0.0151978
656.337	0.0151278
656.415	0.0151299
656.494	0.0151997
656.572	0.0152033
656.650	0.0151165
656.728	0.0150716
656.806	0.0151302
656.884	0.0151633
656.962	0.0151512
657.040	0.0150223
657.119	0.0151085
657.197	0.0150986
657.275	0.0152123
657.353	0.0151859
657.431	0.0151082
657.509	0.0151215
657.587	0.0152527
657.665	0.0152473
657.744	0.0152247
657.822	0.0151276
657.900	0.0150258
657.978	0.0152659
658.056	0.0151379
658.134	0.0149985
658.212	0.0149924
658.290	0.0151450
658.369	0.0153031
658.447	0.0152779
658.525	0.0151039
658.603	0.0151271
658.681	0.0152277
658.759	0.0150620
658.837	0.0152512
658.915	0.0152280
658.994	0.0152507
659.072	0.0151054
659.150	0.0151310
659.228	0.0150101
659.306	0.0151430
659.384	0.0152008
659.462	0.0152003
659.540	0.0149766
659.619	0.0152080
659.697	0.0151277
659.775	0.0151464
659.853	0.0151178
659.931	0.0152415
660.009	0.0151003
660.087	0.0151289
660.165	0.0150655
660.244	0.0152161
660.322	0.0150371
660.400	0.0151768
660.478	0.0151473
660.556	0.0151711
660.634	0.0151202
660.712	0.0151057
660.790	0.0150996
660.869	0.0150742
660.947	0.0151733
661.025	0.0151982
661.103	0.0151228
661.181	0.0151196
661.259	0.0150208
661.337	0.0151756
661.415	0.0151057
661.494	0.0150436
661.572	0.0152632
661.650	0.0152128
661.728	0.0150558
661.806	0.0151445
661.884	0.0150271
661.962	0.0151574
662.040	0.0152678
662.119	0.0151642
662.197	0.0150847
662.275	0.0151807
662.353	0.0150724
662.431	0.0151455
662.509	0.0150841
662.587	0.0152320
662.665	0.0153003
662.744	0.0152683
662.822	0.0151772
662.900	0.0150895
662.978	0.0152280
663.056	0.0151598
663.134	0.0151387
663.212	0.0153874
663.290	0.0152099
663.369	0.0151824
663.447	0.0150735
663.525	0.0151324
663.603	0.0151772
663.681	0.0153069
663.759	0.0151947
663.837	0.0152728
663.915	0.0151647
663.994	0.0150887
664.072	0.0150491
664.150	0.0151435
664.228	0.0152767
664.306	0.0153008
664.384	0.0150602
664.462	0.0151525
664.540	0.0152549
664.619	0.0151625
664.697	0.0151126
664.775	0.0152619
664.853	0.0152480
664.931	0.0151806
665.009	0.0150902
665.087	0.0150196
665.165	0.0152609
665.244	0.0152485
665.322	0.0151022
665.400	0.0150513
665.478	0.0152065
665.556	0.0152554
665.634	0.0151743
665.712	0.0151463
665.790	0.0152511
665.869	0.0151620
665.947	0.0151625
666.025	0.0151457
666.103	0.0151969
666.181	0.0149940
666.259	0.0150393
666.337	0.0152200
666.415	0.0151136
666.494	0.0151945
666.572	0.0151527
666.650	0.0149960
666.728	0.0150230
666.806	0.0152050
666.884	0.0151198
666.962	0.0152110
667.040	0.0150944
667.119	0.0151210
667.197	0.0152013
667.275	0.0151496
667.353	0.0149890
667.431	0.0150999
667.509	0.0150835
667.587	0.0151116
667.665	0.0151091
667.744	0.0151616
667.822	0.0152609
667.900	0.0149789
667.978	0.0150102
668.056	0.0150904
668.134	0.0150753
668.212	0.0150307
668.290	0.0151188
668.369	0.0150018
668.447	0.0150061
668.525	0.0149317
668.603	0.0149891
668.681	0.0150025
668.759	0.0151476
668.837	0.0149261
668.915	0.0151015
668.994	0.0149647
669.072	0.0149284
669.150	0.0150833
669.228	0.0149309
669.306	0.0149976
669.384	0.0151531
669.462	0.0151228
669.540	0.0150146
669.619	0.0149638
669.697	0.0150223
669.775	0.0149451
669.853	0.0151324
669.931	0.0150031
670.009	0.0150524
670.087	0.0150702
670.165	0.0150131
670.244	0.0150777
670.322	0.0151146
670.400	0.0150417
670.478	0.0151168
670.556	0.0148325
670.634	0.0149827
670.712	0.0149854
670.790	0.0148763
670.869	0.0150889
670.947	0.0150788
671.025	0.0149036
671.103	0.0150064
671.181	0.0149848
671.259	0.0151114
671.337	0.0149218
671.415	0.0151091
671.494	0.0151283
671.572	0.0150526
671.650	0.0150638
671.728	0.0150015
671.806	0.0151134
671.884	0.0151624
671.962	0.0150671
672.040	0.0150884
672.119	0.0150033
672.197	0.0150729
672.275	0.0152035
672.353	0.0152064
672.431	0.0150787
672.509	0.0151751
672.587	0.0150568
672.665	0.0151313
672.744	0.0151628
672.822	0.0152120
672.900	0.0152186
672.978	0.0151213
673.056	0.0151617
673.134	0.0153986
673.212	0.0151916
673.290	0.0151428
673.369	0.0151272
673.447	0.0152561
673.525	0.0153020
673.603	0.0152128
673.681	0.0150925
673.759	0.0153751
673.837	0.0153149
673.915	0.0152612
673.994	0.0152621
674.072	0.0152352
674.150	0.0153287
674.228	0.0152345
674.306	0.0152512
674.384	0.0152905
674.462	0.0152837
674.540	0.0152245
674.619	0.0152412
674.697	0.0152979
674.775	0.0153381
674.853	0.0153278
674.931	0.0151436
675.009	0.0152743
675.087	0.0153536
675.165	0.0152347
675.244	0.0152543
675.322	0.0152650
675.400	0.0152763
675.478	0.0152661
675.556	0.0151833
675.634	0.0151816
675.712	0.0153110
675.790	0.0151997
675.869	0.0152216
675.947	0.0153119
676.025	0.0153063
676.103	0.0151501
676.181	0.0150916
676.259	0.0152435
676.337	0.0152972
676.415	0.0152100
676.494	0.0153804
676.572	0.0154227
676.650	0.0152480
676.728	0.0152505
676.806	0.0152573
676.884	0.0153131
676.962	0.0152549
677.040	0.0151713
677.119	0.0152045
677.197	0.0150883
677.275	0.0152950
677.353	0.0151894
677.431	0.0152846
677.509	0.0151591
677.587	0.0151370
677.665	0.0152499
677.744	0.0153651
677.822	0.0152168
677.900	0.0151497
677.978	0.0150948
678.056	0.0151552
678.134	0.0151922
678.212	0.0151418
678.290	0.0151151
678.369	0.0151117
678.447	0.0152274
678.525	0.0151067
678.603	0.0150967
678.681	0.0150097
678.759	0.0150384
678.837	0.0151849
678.915	0.0151530
678.994	0.0151765
679.072	0.0151035
679.150	0.0151099
679.228	0.0150814
679.306	0.0150232
679.384	0.0151050
679.462	0.0149914
679.540	0.0149731
679.619	0.0150851
679.697	0.0150159
679.775	0.0150846
679.853	0.0150859
679.931	0.0151610
680.009	0.0150786
680.087	0.0150317
680.165	0.0150292
680.244	0.0149807
680.322	0.0148878
680.400	0.0150510
680.478	0.0150839
680.556	0.0151385
680.634	0.0150361
680.712	0.0150960
680.790	0.0152160
680.869	0.0151791
680.947	0.0150975
681.025	0.0151623
681.103	0.0151389
681.181	0.0149966
681.259	0.0150719
681.337	0.0151393
681.415	0.0150902
681.494	0.0149823
681.572	0.0150302
681.650	0.0152155
681.728	0.0149432
681.806	0.0150542
681.884	0.0151122
681.962	0.0149297
682.040	0.0151418
682.119	0.0150458
682.197	0.0151659
682.275	0.0152135
682.353	0.0150962
682.431	0.0149820
682.509	0.0151916
682.587	0.0150938
682.665	0.0151041
682.744	0.0151149
682.822	0.0150584
682.900	0.0151199
682.978	0.0149609
683.056	0.0151530
683.134	0.0151280
683.212	0.0151156
683.290	0.0150043
683.369	0.0150662
683.447	0.0150790
683.525	0.0151785
683.603	0.0151306
683.681	0.0151033
683.759	0.0151181
683.837	0.0151254
683.915	0.0150462
683.994	0.0151410
684.072	0.0151793
684.150	0.0152187
684.228	0.0152407
684.306	0.0152254
684.384	0.0151796
684.462	0.0152213
684.540	0.0152235
684.619	0.0151649
684.697	0.0152833
684.775	0.0150780
684.853	0.0151031
684.931	0.0151551
685.009	0.0152281
685.087	0.0152480
685.165	0.0152149
685.244	0.0151882
685.322	0.0150720
685.400	0.0151697
685.478	0.0151241
685.556	0.0152312
685.634	0.0150385
685.712	0.0150443
685.790	0.0149606
685.869	0.0150356
685.947	0.0150857
686.025	0.0150370
686.103	0.0149280
686.181	0.0148699
686.259	0.0149523
686.337	0.0150388
686.415	0.0150360
686.494	0.0151974
686.572	0.0152119
686.650	0.0151970
686.728	0.0151897
686.806	0.0152946
686.884	0.0153886
686.962	0.0153053
687.040	0.0153563
687.119	0.0154411
687.197	0.0154802
687.275	0.0154745
687.353	0.0154088
687.431	0.0155635
687.509	0.0153943
687.587	0.0154172
687.665	0.0152639
687.744	0.0152142
687.822	0.0151609
687.900	0.0152464
687.978	0.0151871
688.056	0.0152158
688.134	0.0149973
688.212	0.0151434
688.290	0.0150996
688.369	0.0150578
688.447	0.0152757
688.525	0.0152806
688.603	0.0151129
688.681	0.0150702
688.759	0.0151595
688.837	0.0152231
688.915	0.0151605
688.994	0.0151219
689.072	0.0150282
689.150	0.0152204
689.228	0.0152940
689.306	0.0149768
689.384	0.0150404
689.462	0.0150645
689.540	0.0150970
689.619	0.0150778
689.697	0.0150691
689.775	0.0152349
689.853	0.0150751
689.931	0.0152003
690.009	0.0150644
690.087	0.0151148
690.165	0.0151081
690.244	0.0150726
690.322	0.0150018
690.400	0.0149949
690.478	0.0149298
690.556	0.0148151
690.634	0.0151240
690.712	0.0150714
690.790	0.0149989
690.869	0.0148708
690.947	0.0149497
691.025	0.0150731
691.103	0.0150020
691.181	0.0148359
691.259	0.0149905
691.337	0.0149263
691.415	0.0149715
691.494	0.0149408
691.572	0.0149112
691.650	0.0150641
691.728	0.0149396
691.806	0.0150240
691.884	0.0151730
691.962	0.0149381
692.040	0.0150138
692.119	0.0149287
692.197	0.0149209
692.275	0.0150956
692.353	0.0151208
692.431	0.0151386
692.509	0.0150888
692.587	0.0150204
692.665	0.0151154
692.744	0.0151179
692.822	0.0151203
692.900	0.0152628
692.978	0.0152177
693.056	0.0152882
693.134	0.0152753
693.212	0.0153598
693.290	0.0154023
693.369	0.0153400
693.447	0.0153889
693.525	0.0152154
693.603	0.0153904
693.681	0.0152544
693.759	0.0151812
693.837	0.0152668
693.915	0.0152289
693.994	0.0152903
694.072	0.0151867
694.150	0.0151589
694.228	0.0152557
694.306	0.0150246
694.384	0.0150342
694.462	0.0151598
694.540	0.0149979
694.619	0.0149655
694.697	0.0151020
694.775	0.0149739
694.853	0.0148619
694.931	0.0149160
695.009	0.0148553
695.087	0.0148197
695.165	0.0149015
695.244	0.0150027
695.322	0.0149745
695.400	0.0149213
695.478	0.0148969
695.556	0.0150585
695.634	0.0150129
695.712	0.0150479
695.790	0.0150582
695.869	0.0149834
695.947	0.0151712
696.025	0.0151553
696.103	0.0150736
696.181	0.0151727
696.259	0.0153159
696.337	0.0151641
696.415	0.0152506
696.494	0.0151305
696.572	0.0152446
696.650	0.0150626
696.728	0.0150455
696.806	0.0151380
696.884	0.0151379
696.962	0.0150739
697.040	0.0151558
697.119	0.0149821
697.197	0.0151455
697.275	0.0151492
697.353	0.0151218
697.431	0.0150889
697.509	0.0151945
697.587	0.0153753
697.665	0.0153773
697.744	0.0152013
697.822	0.0152921
697.900	0.0154099
697.978	0.0153223
698.056	0.0152489
698.134	0.0151688
698.212	0.0153474
698.290	0.0152644
698.369	0.0152243
698.447	0.0151650
698.525	0.0151052
698.603	0.0152235
698.681	0.0151064
698.759	0.0150555
698.837	0.0151582
698.915	0.0150238
698.994	0.0150617
699.072	0.0151679
699.150	0.0150378
699.228	0.0151182
699.306	0.0151933
699.384	0.0151209
699.462	0.0150780
699.540	0.0150540
699.619	0.0151052
699.697	0.0153300
699.775	0.0150855
699.853	0.0152395
699.931	0.0151347
700.009	0.0152217
700.087	0.0152643
700.165	0.0152290
700.244	0.0152962
700.322	0.0151347
700.400	0.0150565
700.478	0.0151678
700.556	0.0151964
700.634	0.0150288
700.712	0.0151811
700.790	0.0151852
700.869	0.0151752
700.947	0.0151187
701.025	0.0152032
701.103	0.0154031
701.181	0.0152568
701.259	0.0152034
701.337	0.0152280
701.415	0.0153081
701.494	0.0153207
701.572	0.0154073
701.650	0.0152245
701.728	0.0151492
701.806	0.0152818
701.884	0.0151810
701.962	0.0151442
702.040	0.0151418
702.119	0.0150562
702.197	0.0151682
702.275	0.0151592
702.353	0.0149757
702.431	0.0149945
702.509	0.0149358
702.587	0.0149585
702.665	0.0148347
702.744	0.0148799
702.822	0.0148795
702.900	0.0148511
702.978	0.0147027
703.056	0.0149133
703.134	0.0148505
703.212	0.0148820
703.290	0.0148923
703.369	0.0150216
703.447	0.0150972
703.525	0.0151922
703.603	0.0151362
703.681	0.0151343
703.759	0.0153499
703.837	0.0151850
703.915	0.0151938
703.994	0.0151044
704.072	0.0152161
704.150	0.0153460
704.228	0.0151807
704.306	0.0151137
704.384	0.0150845
704.462	0.0150330
704.540	0.0151819
704.619	0.0150504
704.697	0.0149521
704.775	0.0149716
704.853	0.0149069
704.931	0.0149947
705.009	0.0150883
705.087	0.0151350
705.165	0.0149798
705.244	0.0152074
705.322	0.0151721
705.400	0.0152280
705.478	0.0153325
705.556	0.0154166
705.634	0.0153481
705.712	0.0152323
705.790	0.0153881
705.869	0.0154079
705.947	0.0152752
706.025	0.0153748
706.103	0.0154066
706.181	0.0152889
706.259	0.0153796
706.337	0.0153069
706.415	0.0152039
706.494	0.0151471
706.572	0.0149909
706.650	0.0150435
706.728	0.0150022
706.806	0.0148429
706.884	0.0149684
706.962	0.0149955
707.040	0.0149472
707.119	0.0150846
707.197	0.0150375
707.275	0.0150892
707.353	0.0151710
707.431	0.0150579
707.509	0.0151273
707.587	0.0151779
707.665	0.0152137
707.744	0.0150836
707.822	0.0151604
707.900	0.0153361
707.978	0.0153792
708.056	0.0152776
708.134	0.0152995
708.212	0.0153557
708.290	0.0153704
708.369	0.0153496
708.447	0.0151865
708.525	0.0153289
708.603	0.0151737
708.681	0.0151546
708.759	0.0152969
708.837	0.0151035
708.915	0.0149316
708.994	0.0148997
709.072	0.0148534
709.150	0.0150160
709.228	0.0148678
709.306	0.0148272
709.384	0.0148534
709.462	0.0148025
709.540	0.0147186
709.619	0.0148501
709.697	0.0148064
709.775	0.0148352
709.853	0.0149746
709.931	0.0149403
710.009	0.0149918
710.087	0.0150347
710.165	0.0150759
710.244	0.0151910
710.322	0.0151929
710.400	0.0151174
710.478	0.0152758
710.556	0.0152233
710.634	0.0151896
710.712	0.0152767
710.790	0.0152054
710.869	0.0151450
710.947	0.0152058
711.025	0.0150065
711.103	0.0149993
711.181	0.0149406
711.259	0.0150750
711.337	0.0148734
711.415	0.0148954
711.494	0.0149629
711.572	0.0150008
711.650	0.0150137
711.728	0.0150420
711.806	0.0149928
711.884	0.0150694
711.962	0.0151140
712.040	0.0150504
712.119	0.0151598
712.197	0.0153221
712.275	0.0152206
712.353	0.0152805
712.431	0.0153815
712.509	0.0152778
712.587	0.0152779
712.665	0.0154146
712.744	0.0153672
712.822	0.0153577
712.900	0.0153098
712.978	0.0151810
713.056	0.0152064
713.134	0.0151263
713.212	0.0151178
713.290	0.0150190
713.369	0.0150401
713.447	0.0149876
713.525	0.0149798
713.603	0.0150414
713.681	0.0150339
713.759	0.0150972
713.837	0.0149962
713.915	0.0149614
713.994	0.0150306
714.072	0.0150721
714.150	0.0151083
714.228	0.0151187
714.306	0.0152094
714.384	0.0150716
714.462	0.0151573
714.540	0.0152434
714.619	0.0151858
714.697	0.0151599
714.775	0.0150978
714.853	0.0152092
714.931	0.0152454
715.009	0.0151601
715.087	0.0150852
715.165	0.0152670
715.244	0.0150591
715.322	0.0151395
715.400	0.0152044
715.478	0.0151912
715.556	0.0152472
715.634	0.0151917
715.712	0.0149577
715.790	0.0151704
715.869	0.0150673
715.947	0.0149456
716.025	0.0151684
716.103	0.0151759
716.181	0.0150248
716.259	0.0151379
716.337	0.0152194
716.415	0.0150753
716.494	0.0151605
716.572	0.0153342
716.650	0.0151393
716.728	0.0152151
716.806	0.0153324
716.884	0.0152943
716.962	0.0153555
717.040	0.0152586
717.119	0.0153606
717.197	0.0152774
717.275	0.0152399
717.353	0.0153471
717.431	0.0153642
717.509	0.0153560
717.587	0.0154371
717.665	0.0152934
717.744	0.0152444
717.822	0.0153774
717.900	0.0153163
717.978	0.0152453
718.056	0.0152389
718.134	0.0151328
718.212	0.0150906
718.290	0.0149113
718.369	0.0150255
718.447	0.0150550
718.525	0.0150661
718.603	0.0150334
718.681	0.0151110
718.759	0.0151259
718.837	0.0151269
718.915	0.0150967
718.994	0.0151223
719.072	0.0151549
719.150	0.0151628
719.228	0.0150746
719.306	0.0151092
719.384	0.0151677
719.462	0.0151498
719.540	0.0151087
719.619	0.0151569
719.697	0.0151290
719.775	0.0150748
719.853	0.0150219
719.931	0.0150276
720.009	0.0150774
720.087	0.0150240
720.165	0.0150109
720.244	0.0149921
720.322	0.0149915
720.400	0.0152027
720.478	0.0150218
720.556	0.0150078
720.634	0.0150669
720.712	0.0150270
720.790	0.0149166
720.869	0.0149635
720.947	0.0148823
721.025	0.0150968
721.103	0.0149207
721.181	0.0150056
721.259	0.0149934
721.337	0.0149924
721.415	0.0151102
721.494	0.0150562
721.572	0.0150647
721.650	0.0150277
721.728	0.0150802
721.806	0.0149686
721.884	0.0150577
721.962	0.0152424
722.040	0.0152796
722.119	0.0152805
722.197	0.0152873
722.275	0.0151738
722.353	0.0152402
722.431	0.0154234
722.509	0.0152328
722.587	0.0153226
722.665	0.0151990
722.744	0.0151310
722.822	0.0153185
722.900	0.0151080
722.978	0.0151464
723.056	0.0150818
723.134	0.0150824
723.212	0.0149718
723.290	0.0152145
723.369	0.0151105
723.447	0.0150426
723.525	0.0151561
723.603	0.0150793
723.681	0.0149792
723.759	0.0151497
723.837	0.0151668
723.915	0.0151893
723.994	0.0150898
724.072	0.0153167
724.150	0.0152251
724.228	0.0151572
724.306	0.0152335
724.384	0.0152706
724.462	0.0152348
724.540	0.0153145
724.619	0.0153510
724.697	0.0152511
724.775	0.0153445
724.853	0.0154324
724.931	0.0152399
725.009	0.0153162
725.087	0.0153815
725.165	0.0153632
725.244	0.0153255
725.322	0.0152454
725.400	0.0152197
725.478	0.0152544
725.556	0.0153239
725.634	0.0151789
725.712	0.0150560
725.790	0.0150703
725.869	0.0152261
725.947	0.0151480
726.025	0.0153027
726.103	0.0151901
726.181	0.0152674
726.259	0.0153069
726.337	0.0151572
726.415	0.0152251
726.494	0.0152748
726.572	0.0153646
726.650	0.0151045
726.728	0.0152882
726.806	0.0152390
726.884	0.0152824
726.962	0.0152974
727.040	0.0151745
727.119	0.0152113
727.197	0.0152861
727.275	0.0153749
727.353	0.0153076
727.431	0.0151505
727.509	0.0152373
727.587	0.0152379
727.665	0.0151904
727.744	0.0150262
727.822	0.0150966
727.900	0.0149763
727.978	0.0150780
728.056	0.0149335
728.134	0.0150111
728.212	0.0150122
728.290	0.0149837
728.369	0.0149499
728.447	0.0149305
728.525	0.0149445
728.603	0.0150497
728.681	0.0150883
728.759	0.0151947
728.837	0.0151986
728.915	0.0152896
728.994	0.0152897
729.072	0.0152509
729.150	0.0152383
729.228	0.0153326
729.306	0.0151981
729.384	0.0153155
729.462	0.0152644
729.540	0.0152225
729.619	0.0152435
729.697	0.0152988
729.775	0.0152495
729.853	0.0153270
729.931	0.0152244
730.009	0.0150830
730.087	0.0150407
730.165	0.0151097
730.244	0.0150824
730.322	0.0151089
730.400	0.0151759
730.478	0.0149486
730.556	0.0148884
730.634	0.0149957
730.712	0.0149940
730.790	0.0149605
730.869	0.0149979
730.947	0.0151043
731.025	0.0150130
731.103	0.0150751
731.181	0.0149490
731.259	0.0150520
731.337	0.0151730
731.415	0.0150451
731.494	0.0150861
731.572	0.0151464
731.650	0.0151546
731.728	0.0150768
731.806	0.0151656
731.884	0.0152074
731.962	0.0151657
732.040	0.0151746
732.119	0.0151766
732.197	0.0152167
732.275	0.0150217
732.353	0.0152791
732.431	0.0151176
732.509	0.0150298
732.587	0.0149613
732.665	0.0150573
732.744	0.0151283
732.822	0.0151777
732.900	0.0150408
732.978	0.0150302
733.056	0.0151456
733.134	0.0149458
733.212	0.0151437
733.290	0.0151152
733.369	0.0152012
733.447	0.0152460
733.525	0.0151669
733.603	0.0152607
733.681	0.0151492
733.759	0.0152212
733.837	0.0153115
733.915	0.0152419
733.994	0.0151775
734.072	0.0151806
734.150	0.0151862
734.228	0.0152195
734.306	0.0152176
734.384	0.0152710
734.462	0.0151263
734.540	0.0151604
734.619	0.0151833
734.697	0.0152283
734.775	0.0151425
734.853	0.0151834
734.931	0.0151344
735.009	0.0151787
735.087	0.0151583
735.165	0.0151391
735.244	0.0152205
735.322	0.0151993
735.400	0.0151941
735.478	0.0152462
735.556	0.0151395
735.634	0.0150134
735.712	0.0150903
735.790	0.0151144
735.869	0.0151642
735.947	0.0150552
736.025	0.0150750
736.103	0.0151806
736.181	0.0151054
736.259	0.0151282
736.337	0.0151144
736.415	0.0152324
736.494	0.0151825
736.572	0.0151909
736.650	0.0152093
736.728	0.0151096
736.806	0.0153330
736.884	0.0151786
736.962	0.0151477
737.040	0.0151402
737.119	0.0153320
737.197	0.0151873
737.275	0.0150738
737.353	0.0150716
737.431	0.0151819
737.509	0.0150021
737.587	0.0150269
737.665	0.0150963
737.744	0.0150268
737.822	0.0151018
737.900	0.0149373
737.978	0.0150136
738.056	0.0150470
738.134	0.0150842
738.212	0.0151826
738.290	0.0151753
738.369	0.0151471
738.447	0.0151432
738.525	0.0152108
738.603	0.0152296
738.681	0.0151344
738.759	0.0151413
738.837	0.0152526
738.915	0.0153429
738.994	0.0153320
739.072	0.0152460
739.150	0.0150513
739.228	0.0152035
739.306	0.0151586
739.384	0.0151764
739.462	0.0151056
739.540	0.0150919
739.619	0.0150125
739.697	0.0150979
739.775	0.0150758
739.853	0.0150538
739.931	0.0151768
740.009	0.0151422
740.087	0.0151144
740.165	0.0150050
740.244	0.0150323
740.322	0.0150462
740.400	0.0150072
740.478	0.0150631
740.556	0.0150929
740.634	0.0151058
740.712	0.0150512
740.790	0.0151061
740.869	0.0151105
740.947	0.0151851
741.025	0.0150912
741.103	0.0151888
741.181	0.0152064
741.259	0.0152758
741.337	0.0151189
741.415	0.0151093
741.494	0.0151188
741.572	0.0151707
741.650	0.0151308
741.728	0.0153556
741.806	0.0151375
741.884	0.0150173
741.962	0.0151643
742.040	0.0151196
742.119	0.0149628
742.197	0.0151575
742.275	0.0152308
742.353	0.0150584
742.431	0.0150154
742.509	0.0152380
742.587	0.0152950
742.665	0.0150608
742.744	0.0149668
742.822	0.0152190
742.900	0.0151412
742.978	0.0150964
743.056	0.0152334
743.134	0.0152256
743.212	0.0151703
743.290	0.0152094
743.369	0.0152963
743.447	0.0152472
743.525	0.0152241
743.603	0.0151264
743.681	0.0150374
743.759	0.0151884
743.837	0.0151456
743.915	0.0150583
743.994	0.0151297
744.072	0.0151053
744.150	0.0151686
744.228	0.0151163
744.306	0.0152058
744.384	0.0149828
744.462	0.0151585
744.540	0.0150867
744.619	0.0152314
744.697	0.0151423
744.775	0.0151366
744.853	0.0150275
744.931	0.0151133
745.009	0.0152770
745.087	0.0151378
745.165	0.0151131
745.244	0.0150838
745.322	0.0151534
745.400	0.0152199
745.478	0.0150956
745.556	0.0151083
745.634	0.0150675
745.712	0.0150697
745.790	0.0149734
745.869	0.0150650
745.947	0.0150730
746.025	0.0150207
746.103	0.0150411
746.181	0.0151283
746.259	0.0151733
746.337	0.0151203
746.415	0.0151018
746.494	0.0151875
746.572	0.0150446
746.650	0.0151622
746.728	0.0151499
746.806	0.0151463
746.884	0.0151524
746.962	0.0151574
747.040	0.0151807
747.119	0.0151915
747.197	0.0151026
747.275	0.0151962
747.353	0.0152056
747.431	0.0152055
747.509	0.0151210
747.587	0.0151662
747.665	0.0151860
747.744	0.0150687
747.822	0.0151348
747.900	0.0152551
747.978	0.0151532
748.056	0.0150780
748.134	0.0151102
748.212	0.0151218
748.290	0.0151579
748.369	0.0151592
748.447	0.0151405
748.525	0.0150566
748.603	0.0152567
748.681	0.0150925
748.759	0.0152512
748.837	0.0152424
748.915	0.0152961
748.994	0.0152040
749.072	0.0151636
749.150	0.0152663
749.228	0.0152137
749.306	0.0151243
749.384	0.0152003
749.462	0.0152535
749.540	0.0152455
749.619	0.0152220
749.697	0.0154427
749.775	0.0152174
749.853	0.0150698
749.931	0.0151417
750.009	0.0151538
750.087	0.0153399
750.165	0.0151424
750.244	0.0151901
750.322	0.0151055
750.400	0.0151111
750.478	0.0152699
750.556	0.0152401
750.634	0.0150120
750.712	0.0149584
750.790	0.0151752
750.869	0.0152157
750.947	0.0152921
751.025	0.0151512
751.103	0.0151926
751.181	0.0152157
751.259	0.0152420
751.337	0.0152518
751.415	0.0151227
751.494	0.0152541
751.572	0.0151798
751.650	0.0152645
751.728	0.0151405
751.806	0.0152505
751.884	0.0151241
751.962	0.0151208
752.040	0.0151991
752.119	0.0151058
752.197	0.0151575
752.275	0.0151764
752.353	0.0149912
752.431	0.0151524
752.509	0.0151933
752.587	0.0151680
752.665	0.0152133
752.744	0.0151860
752.822	0.0151534
752.900	0.0151681
752.978	0.0151750
753.056	0.0151819
753.134	0.0151925
753.212	0.0150914
753.290	0.0151627
753.369	0.0151265
753.447	0.0150484
753.525	0.0152434
753.603	0.0150647
753.681	0.0151571
753.759	0.0152201
753.837	0.0152795
753.915	0.0151543
753.994	0.0151335
754.072	0.0151092
754.150	0.0152104
754.228	0.0152342
754.306	0.0150885
754.384	0.0150290
754.462	0.0151427
754.540	0.0150906
754.619	0.0151766
754.697	0.0150158
754.775	0.0149857
754.853	0.0151097
754.931	0.0150648
755.009	0.0147885
755.087	0.0149944
755.165	0.0151035
755.244	0.0150791
755.322	0.0151180
755.400	0.0150161
755.478	0.0150432
755.556	0.0151385
755.634	0.0149977
755.712	0.0150367
755.790	0.0150795
755.869	0.0148553
755.947	0.0150037
756.025	0.0150076
756.103	0.0149895
756.181	0.0151132
756.259	0.0151041
756.337	0.0151070
756.415	0.0149989
756.494	0.0151854
756.572	0.0151119
756.650	0.0150581
756.728	0.0148846
756.806	0.0152016
756.884	0.0149068
756.962	0.0149545
757.040	0.0150743
757.119	0.0152145
757.197	0.0150717
757.275	0.0150729
757.353	0.0151307
757.431	0.0150364
757.509	0.0152349
757.587	0.0150352
757.665	0.0151936
757.744	0.0151913
757.822	0.0151744
757.900	0.0150697
757.978	0.0150125
758.056	0.0150487
758.134	0.0150793
758.212	0.0150654
758.290	0.0150811
758.369	0.0150780
758.447	0.0150787
758.525	0.0151925
758.603	0.0152153
758.681	0.0151840
758.759	0.0151804
758.837	0.0151574
758.915	0.0151639
758.994	0.0152393
759.072	0.0151839
759.150	0.0151453
759.228	0.0151733
759.306	0.0151440
759.384	0.0152217
759.462	0.0152137
759.540	0.0150942
759.619	0.0151667
759.697	0.0150988
759.775	0.0151619
759.853	0.0151507
759.931	0.0151175
760.009	0.0150143
760.087	0.0149881
760.165	0.0150523
760.244	0.0150906
760.322	0.0150949
760.400	0.0151021
760.478	0.0151466
760.556	0.0152366
760.634	0.0152200
760.712	0.0151389
760.790	0.0151029
760.869	0.0152859
760.947	0.0152058
761.025	0.0154519
761.103	0.0151318
761.181	0.0150603
761.259	0.0152640
761.337	0.0152050
761.415	0.0152444
761.494	0.0150824
761.572	0.0151343
761.650	0.0152050
761.728	0.0151942
761.806	0.0151502
761.884	0.0151063
761.962	0.0150041
762.040	0.0150792
762.119	0.0151261
762.197	0.0149859
762.275	0.0150900
762.353	0.0150786
762.431	0.0149957
762.509	0.0151097
762.587	0.0150434
762.665	0.0151421
762.744	0.0150551
762.822	0.0151678
762.900	0.0150347
762.978	0.0151294
763.056	0.0151442
763.134	0.0151244
763.212	0.0151840
763.290	0.0152855
763.369	0.0151770
763.447	0.0151330
763.525	0.0151838
763.603	0.0152434
763.681	0.0152014
763.759	0.0151159
763.837	0.0152406
763.915	0.0151153
763.994	0.0151501
764.072	0.0151876
764.150	0.0151377
764.228	0.0151059
764.306	0.0151552
764.384	0.0151237
764.462	0.0150354
764.540	0.0151630
764.619	0.0150417
764.697	0.0151794
764.775	0.0151254
764.853	0.0150751
764.931	0.0151566
765.009	0.0151303
765.087	0.0150453
765.165	0.0152567
765.244	0.0151392
765.322	0.0150798
765.400	0.0151801
765.478	0.0152083
765.556	0.0152622
765.634	0.0152531
765.712	0.0152017
765.790	0.0151002
765.869	0.0151132
765.947	0.0152515
766.025	0.0151325
766.103	0.0152131
766.181	0.0151796
766.259	0.0150342
766.337	0.0151450
766.415	0.0151522
766.494	0.0150743
766.572	0.0151064
766.650	0.0151915
766.728	0.0151553
766.806	0.0150601
766.884	0.0150824
766.962	0.0150135
767.040	0.0150960
767.119	0.0151138
767.197	0.0151379
767.275	0.0151183
767.353	0.0149731
767.431	0.0150850
767.509	0.0151228
767.587	0.0151367
767.665	0.0151292
767.744	0.0150880
767.822	0.0151064
767.900	0.0151054
767.978	0.0152708
768.056	0.0152185
768.134	0.0152147
768.212	0.0152162
768.290	0.0150334
768.369	0.0151407
768.447	0.0153248
768.525	0.0152874
768.603	0.0151997
768.681	0.0150636
768.759	0.0150866
768.837	0.0150957
768.915	0.0151438
768.994	0.0151913
769.072	0.0151064
769.150	0.0151056
769.228	0.0151186
769.306	0.0152243
769.384	0.0150876
769.462	0.0150942
769.540	0.0151470
769.619	0.0151352
769.697	0.0152622
769.775	0.0151692
769.853	0.0150137
769.931	0.0151739
770.009	0.0149585
770.087	0.0151640
770.165	0.0150549
770.244	0.0150816
770.322	0.0151724
770.400	0.0150652
770.478	0.0152048
770.556	0.0151295
770.634	0.0152068
770.712	0.0152966
770.790	0.0151389
770.869	0.0150800
770.947	0.0150672
771.025	0.0151217
771.103	0.0152047
771.181	0.0150899
771.259	0.0152016
771.337	0.0152534
771.415	0.0151522
771.494	0.0151675
771.572	0.0152240
771.650	0.0152066
771.728	0.0151411
771.806	0.0152720
771.884	0.0153174
771.962	0.0152534
772.040	0.0151728
772.119	0.0151758
772.197	0.0151662
772.275	0.0152042
772.353	0.0151849
772.431	0.0151513
772.509	0.0152575
772.587	0.0152088
772.665	0.0151371
772.744	0.0152054
772.822	0.0152477
772.900	0.0153641
772.978	0.0153021
773.056	0.0151276
773.134	0.0152082
773.212	0.0152029
773.290	0.0152797
773.369	0.0152291
773.447	0.0151977
773.525	0.0153148
773.603	0.0151736
773.681	0.0152238
773.759	0.0152155
773.837	0.0151552
773.915	0.0152853
773.994	0.0152715
774.072	0.0151671
774.150	0.0151348
774.228	0.0152040
774.306	0.0151846
774.384	0.0152441
774.462	0.0151942
774.540	0.0152481
774.619	0.0152464
774.697	0.0151112
774.775	0.0150858
774.853	0.0152426
774.931	0.0151945
775.009	0.0152618
775.087	0.0152383
775.165	0.0152747
775.244	0.0152396
775.322	0.0152264
775.400	0.0151345
775.478	0.0152894
775.556	0.0152489
775.634	0.0154187
775.712	0.0151204
775.790	0.0151619
775.869	0.0151572
775.947	0.0150999
776.025	0.0152573
776.103	0.0152299
776.181	0.0152065
776.259	0.0152100
776.337	0.0151011
776.415	0.0152543
776.494	0.0152544
776.572	0.0152834
776.650	0.0152479
776.728	0.0151232
776.806	0.0151599
776.884	0.0151595
776.962	0.0151512
777.040	0.0150726
777.119	0.0151797
777.197	0.0151569
777.275	0.0150732
777.353	0.0150876
777.431	0.0152293
777.509	0.0151719
777.587	0.0151863
777.665	0.0151581
777.744	0.0149673
777.822	0.0151302
777.900	0.0152443
777.978	0.0149480
778.056	0.0150860
778.134	0.0152106
778.212	0.0152277
778.290	0.0152237
778.369	0.0149943
778.447	0.0150240
778.525	0.0152624
778.603	0.0151680
778.681	0.0151424
778.759	0.0151151
778.837	0.0151669
778.915	0.0152346
778.994	0.0150391
779.072	0.0150906
779.150	0.0150599
779.228	0.0152354
779.306	0.0151473
779.384	0.0151909
779.462	0.0150809
779.540	0.0151717
779.619	0.0151241
779.697	0.0151411
779.775	0.0150631
779.853	0.0150549
779.931	0.0151618
780.009	0.0151671
780.087	0.0152583
780.165	0.0151038
780.244	0.0153024
780.322	0.0151819
780.400	0.0151122
780.478	0.0150568
780.556	0.0151984
780.634	0.0152020
780.712	0.0151101
780.790	0.0150924
780.869	0.0152199
780.947	0.0151669
781.025	0.0152377
781.103	0.0151280
781.181	0.0151461
781.259	0.0152380
781.337	0.0151028
781.415	0.0153163
781.494	0.0152053
781.572	0.0151208
781.650	0.0151025
781.728	0.0151187
781.806	0.0151616
781.884	0.0151705
781.962	0.0151428
782.040	0.0151801
782.119	0.0151160
782.197	0.0150964
782.275	0.0151907
782.353	0.0151041
782.431	0.0151611
782.509	0.0150657
782.587	0.0151713
782.665	0.0151778
782.744	0.0151640
782.822	0.0150100
782.900	0.0152137
782.978	0.0150548
783.056	0.0151646
783.134	0.0152062
783.212	0.0151485
783.290	0.0151732
783.369	0.0151579
783.447	0.0151613
783.525	0.0151479
783.603	0.0153320
783.681	0.0152030
783.759	0.0152015
783.837	0.0152338
783.915	0.0152086
783.994	0.0152570
784.072	0.0151522
784.150	0.0151741
784.228	0.0151006
784.306	0.0151878
784.384	0.0150289
784.462	0.0150964
784.540	0.0152336
784.619	0.0150574
784.697	0.0152473
784.775	0.0152742
784.853	0.0152669
784.931	0.0152910
785.009	0.0152834
785.087	0.0153378
785.165	0.0152432
785.244	0.0151899
785.322	0.0153252
785.400	0.0151751
785.478	0.0151291
785.556	0.0152480
785.634	0.0151032
785.712	0.0150251
785.790	0.0150839
785.869	0.0149388
785.947	0.0149030
786.025	0.0151112
786.103	0.0151774
786.181	0.0150541
786.259	0.0151326
786.337	0.0150352
786.415	0.0151041
786.494	0.0150664
786.572	0.0150983
786.650	0.0150479
786.728	0.0151390
786.806	0.0149717
786.884	0.0151221
786.962	0.0151782
787.040	0.0150810
787.119	0.0151412
787.197	0.0151572
787.275	0.0151033
787.353	0.0151694
787.431	0.0151138
787.509	0.0151532
787.587	0.0151970
787.665	0.0149686
787.744	0.0152077
787.822	0.0153214
787.900	0.0151121
787.978	0.0151731
788.056	0.0151056
788.134	0.0150665
788.212	0.0151675
788.290	0.0150867
788.369	0.0150568
788.447	0.0151350
788.525	0.0151073
788.603	0.0149618
788.681	0.0150304
788.759	0.0150849
788.837	0.0150867
788.915	0.0151881
788.994	0.0151184
789.072	0.0152311
789.150	0.0150513
789.228	0.0151939
789.306	0.0150697
789.384	0.0151701
789.462	0.0151710
789.540	0.0153027
789.619	0.0151591
789.697	0.0152091
789.775	0.0152974
789.853	0.0151742
789.931	0.0152401
790.009	0.0152045
790.087	0.0151359
790.165	0.0151612
790.244	0.0151043
790.322	0.0150944
790.400	0.0150004
790.478	0.0151558
790.556	0.0152590
790.634	0.0151199
790.712	0.0150414
790.790	0.0151580
790.869	0.0150941
790.947	0.0151775
791.025	0.0152493
791.103	0.0152339
791.181	0.0150848
791.259	0.0150959
791.337	0.0152215
791.415	0.0151566
791.494	0.0151888
791.572	0.0150977
791.650	0.0151406
791.728	0.0149808
791.806	0.0150709
791.884	0.0151455
791.962	0.0150125
792.040	0.0149747
792.119	0.0149464
792.197	0.0151265
792.275	0.0151987
792.353	0.0151917
792.431	0.0150980
792.509	0.0150348
792.587	0.0151603
792.665	0.0151273
792.744	0.0151972
792.822	0.0151815
792.900	0.0152349
792.978	0.0150996
793.056	0.0151129
793.134	0.0151620
793.212	0.0152339
793.290	0.0153258
793.369	0.0151367
793.447	0.0151629
793.525	0.0152197
793.603	0.0151194
793.681	0.0149914
793.759	0.0152485
793.837	0.0152757
793.915	0.0150620
793.994	0.0152160
794.072	0.0151181
794.150	0.0151911
794.228	0.0152169
794.306	0.0150884
794.384	0.0152081
794.462	0.0150828
794.540	0.0152859
794.619	0.0151447
794.697	0.0152035
794.775	0.0152297
794.853	0.0152742
794.931	0.0151246
795.009	0.0150748
795.087	0.0151467
795.165	0.0152668
795.244	0.0151057
795.322	0.0151920
795.400	0.0151125
795.478	0.0151907
795.556	0.0152025
795.634	0.0151696
795.712	0.0152698
795.790	0.0152328
795.869	0.0150767
795.947	0.0151546
796.025	0.0151077
796.103	0.0152442
796.181	0.0151321
796.259	0.0151047
796.337	0.0150623
796.415	0.0152546
796.494	0.0151891
796.572	0.0150999
796.650	0.0150552
796.728	0.0150120
796.806	0.0152580
796.884	0.0150542
796.962	0.0150027
797.040	0.0150641
797.119	0.0151653
797.197	0.0150902
797.275	0.0150933
797.353	0.0152209
797.431	0.0152102
797.509	0.0150447
797.587	0.0150235
797.665	0.0152219
797.744	0.0153151
797.822	0.0151303
797.900	0.0151874
797.978	0.0151396
798.056	0.0151275
798.134	0.0152296
798.212	0.0150950
798.290	0.0152290
798.369	0.0152415
798.447	0.0150863
798.525	0.0151012
798.603	0.0151133
798.681	0.0151002
798.759	0.0151358
798.837	0.0151178
798.915	0.0149914
798.994	0.0153153
799.072	0.0151224
799.150	0.0151115
799.228	0.0150393
799.306	0.0151545
799.384	0.0152524
799.462	0.0152565
799.540	0.0152067
799.619	0.0151028
799.697	0.0150861
799.775	0.0150902
799.853	0.0152402
799.931	0.0151919
800.009	0.0151919
800.087	0.0150999
800.165	0.0150330
800.244	0.0152832
800.322	0.0152392
800.400	0.0152264
800.478	0.0152452
800.556	0.0152795
800.634	0.0151675
800.712	0.0150706
800.790	0.0151261
800.869	0.0152229
800.947	0.0151694
801.025	0.0152311
801.103	0.0152598
801.181	0.0151592
801.259	0.0151891
801.337	0.0152023
801.415	0.0152637
801.494	0.0152657
801.572	0.0151173
801.650	0.0152751
801.728	0.0151445
801.806	0.0151233
801.884	0.0151517
801.962	0.0150703
802.040	0.0151251
802.119	0.0152234
802.197	0.0151605
802.275	0.0151530
802.353	0.0150935
802.431	0.0151366
802.509	0.0152126
802.587	0.0151528
802.665	0.0151246
802.744	0.0151736
802.822	0.0152055
802.900	0.0151134
802.978	0.0151196
803.056	0.0150816
803.134	0.0150151
803.212	0.0152063
803.290	0.0151894
803.369	0.0150797
803.447	0.0150661
803.525	0.0151893
803.603	0.0150851
803.681	0.0150883
803.759	0.0151826
803.837	0.0151157
803.915	0.0152498
803.994	0.0151915
804.072	0.0151744
804.150	0.0150330
804.228	0.0151231
804.306	0.0151120
804.384	0.0150964
804.462	0.0150027
804.540	0.0151546
804.619	0.0151651
804.697	0.0151916
804.775	0.0150558
804.853	0.0151865
804.931	0.0151296
805.009	0.0151437
805.087	0.0150721
805.165	0.0151882
805.244	0.0151859
805.322	0.0150838
805.400	0.0152649
805.478	0.0151440
805.556	0.0150871
805.634	0.0150689
805.712	0.0150960
805.790	0.0150726
805.869	0.0151980
805.947	0.0151315
806.025	0.0151591
806.103	0.0149820
806.181	0.0149680
806.259	0.0152186
806.337	0.0151105
806.415	0.0150431
806.494	0.0150685
806.572	0.0151335
806.650	0.0151250
806.728	0.0151395
806.806	0.0149516
806.884	0.0151032
806.962	0.0152221
807.040	0.0151235
807.119	0.0150616
807.197	0.0152447
807.275	0.0150816
807.353	0.0150883
807.431	0.0152208
807.509	0.0153090
807.587	0.0151236
807.665	0.0151251
807.744	0.0151519
807.822	0.0150944
807.900	0.0152258
807.978	0.0152037
808.056	0.0152178
808.134	0.0151240
808.212	0.0150785
808.290	0.0151013
808.369	0.0151942
808.447	0.0152466
808.525	0.0151818
808.603	0.0151249
808.681	0.0151997
808.759	0.0151090
808.837	0.0151984
808.915	0.0152580
808.994	0.0150889
809.072	0.0150969
809.150	0.0151450
809.228	0.0150945
809.306	0.0150903
809.384	0.0151418
809.462	0.0152369
809.540	0.0151123
809.619	0.0152376
809.697	0.0151192
809.775	0.0151968
809.853	0.0152473
809.931	0.0151351
810.009	0.0151196
810.087	0.0151151
810.165	0.0151427
810.244	0.0151071
810.322	0.0151836
810.400	0.0151465
810.478	0.0152621
810.556	0.0150858
810.634	0.0150616
810.712	0.0150719
810.790	0.0151681
810.869	0.0150856
810.947	0.0151335
811.025	0.0152023
811.103	0.0150774
811.181	0.0150714
811.259	0.0150648
811.337	0.0151099
811.415	0.0151475
811.494	0.0150514
811.572	0.0151190
811.650	0.0152308
811.728	0.0152058
811.806	0.0151112
811.884	0.0150973
811.962	0.0150573
812.040	0.0150615
812.119	0.0152106
812.197	0.0149884
812.275	0.0151448
812.353	0.0151265
812.431	0.0149998
812.509	0.0150500
812.587	0.0150476
812.665	0.0151445
812.744	0.0149846
812.822	0.0150541
812.900	0.0150570
812.978	0.0150586
813.056	0.0150336
813.134	0.0151008
813.212	0.0150830
813.290	0.0151431
813.369	0.0151643
813.447	0.0151907
813.525	0.0151981
813.603	0.0150665
813.681	0.0150417
813.759	0.0151600
813.837	0.0150817
813.915	0.0152361
813.994	0.0151451
814.072	0.0151430
814.150	0.0150732
814.228	0.0150775
814.306	0.0150091
814.384	0.0151943
814.462	0.0150067
814.540	0.0151268
814.619	0.0150851
814.697	0.0151388
814.775	0.0151032
814.853	0.0149576
814.931	0.0151332
815.009	0.0151113
815.087	0.0151709
815.165	0.0150710
815.244	0.0150908
815.322	0.0151778
815.400	0.0150456
815.478	0.0151186
815.556	0.0151601
815.634	0.0150537
815.712	0.0151363
815.790	0.0150964
815.869	0.0151158
815.947	0.0150609
816.025	0.0151484
816.103	0.0151472
816.181	0.0152561
816.259	0.0151906
816.337	0.0151109
816.415	0.0151479
816.494	0.0150790
816.572	0.0150780
816.650	0.0150857
816.728	0.0151855
816.806	0.0150681
816.884	0.0151934
816.962	0.0150690
817.040	0.0151713
817.119	0.0151532
817.197	0.0151552
817.275	0.0151621
817.353	0.0151798
817.431	0.0151133
817.509	0.0151921
817.587	0.0151305
817.665	0.0150021
817.744	0.0151995
817.822	0.0150829
817.900	0.0152050
817.978	0.0149726
818.056	0.0149902
818.134	0.0151221
818.212	0.0151725
818.290	0.0151762
818.369	0.0152110
818.447	0.0151849
818.525	0.0150581
818.603	0.0150702
818.681	0.0151649
818.759	0.0150422
818.837	0.0151345
818.915	0.0151175
818.994	0.0152518
819.072	0.0152160
819.150	0.0152030
819.228	0.0151605
819.306	0.0151910
819.384	0.0151308
819.462	0.0151590
819.540	0.0151532
819.619	0.0150679
819.697	0.0150628
819.775	0.0151553
819.853	0.0152288
819.931	0.0151359
820.009	0.0151080
820.087	0.0150673
820.165	0.0151430
820.244	0.0152414
820.322	0.0152328
820.400	0.0150230
820.478	0.0152305
820.556	0.0153322
820.634	0.0152301
820.712	0.0152063
820.790	0.0151392
820.869	0.0152896
820.947	0.0151842
821.025	0.0151207
821.103	0.0151673
821.181	0.0151984
821.259	0.0152591
821.337	0.0152928
821.415	0.0151052
821.494	0.0152045
821.572	0.0150614
821.650	0.0151344
821.728	0.0151483
821.806	0.0150325
821.884	0.0151355
821.962	0.0151811
822.040	0.0151151
822.119	0.0151086
822.197	0.0150548
822.275	0.0151243
822.353	0.0152206
822.431	0.0151601
822.509	0.0150771
822.587	0.0151226
822.665	0.0150471
822.744	0.0150994
822.822	0.0151534
822.900	0.0151262
822.978	0.0151485
823.056	0.0150787
823.134	0.0150746
823.212	0.0151119
823.290	0.0151982
823.369	0.0152019
823.447	0.0152925
823.525	0.0149677
823.603	0.0151525
823.681	0.0151096
823.759	0.0151964
823.837	0.0151991
823.915	0.0151870
823.994	0.0151693
824.072	0.0150969
824.150	0.0150826
824.228	0.0152410
824.306	0.0151608
824.384	0.0151440
824.462	0.0151854
824.540	0.0150039
824.619	0.0150647
824.697	0.0151432
824.775	0.0150468
824.853	0.0152359
824.931	0.0151115
825.009	0.0151132
825.087	0.0151003
825.165	0.0151953
825.244	0.0151036
825.322	0.0151248
825.400	0.0151293
825.478	0.0150881
825.556	0.0151196
825.634	0.0150642
825.712	0.0150283
825.790	0.0150395
825.869	0.0150821
825.947	0.0150395
826.025	0.0151646
826.103	0.0150141
826.181	0.0151041
826.259	0.0151033
826.337	0.0151128
826.415	0.0150030
826.494	0.0151270
826.572	0.0149697
826.650	0.0151908
826.728	0.0150495
826.806	0.0150964
826.884	0.0151241
826.962	0.0150658
827.040	0.0150796
827.119	0.0150423
827.197	0.0151334
827.275	0.0149818
827.353	0.0150591
827.431	0.0150108
827.509	0.0150532
827.587	0.0151155
827.665	0.0151044
827.744	0.0151447
827.822	0.0151557
827.900	0.0150359
827.978	0.0151640
828.056	0.0151423
828.134	0.0151903
828.212	0.0151694
828.290	0.0152222
828.369	0.0152473
828.447	0.0150166
828.525	0.0151431
828.603	0.0152154
828.681	0.0151101
828.759	0.0151363
828.837	0.0150718
828.915	0.0151730
828.994	0.0152399
829.072	0.0152119
829.150	0.0150967
829.228	0.0150639
829.306	0.0152739
829.384	0.0152782
829.462	0.0152114
829.540	0.0150891
829.619	0.0151044
829.697	0.0151539
829.775	0.0151180
829.853	0.0151418
829.931	0.0149997
830.009	0.0150821
830.087	0.0151260
830.165	0.0150458
830.244	0.0150568
830.322	0.0152666
830.400	0.0150472
830.478	0.0151066
830.556	0.0151286
830.634	0.0151732
830.712	0.0152814
830.790	0.0150236
830.869	0.0151880
830.947	0.0151675
831.025	0.0151245
831.103	0.0150911
831.181	0.0151309
831.259	0.0152564
831.337	0.0152398
831.415	0.0150706
831.494	0.0150884
831.572	0.0151228
831.650	0.0150863
831.728	0.0151470
831.806	0.0150871
831.884	0.0151450
831.962	0.0150062
832.040	0.0151009
832.119	0.0151936
832.197	0.0150645
832.275	0.0150089
832.353	0.0150519
832.431	0.0151616
832.509	0.0151118
832.587	0.0151264
832.665	0.0151054
832.744	0.0151804
832.822	0.0151878
832.900	0.0151582
832.978	0.0153072
833.056	0.0152454
833.134	0.0150920
833.212	0.0152289
833.290	0.0152801
833.369	0.0152156
833.447	0.0151305
833.525	0.0152175
833.603	0.0152727
833.681	0.0152609
833.759	0.0152067
833.837	0.0152419
833.915	0.0152473
833.994	0.0151418
834.072	0.0151991
834.150	0.0151928
834.228	0.0151408
834.306	0.0152329
834.384	0.0152128
834.462	0.0150716
834.540	0.0152471
834.619	0.0152590
834.697	0.0151704
834.775	0.0151778
834.853	0.0153408
834.931	0.0151511
835.009	0.0150531
835.087	0.0150839
835.165	0.0152836
835.244	0.0151258
835.322	0.0152292
835.400	0.0151955
835.478	0.0151940
835.556	0.0150826
835.634	0.0151726
835.712	0.0151122
835.790	0.0151675
835.869	0.0151930
835.947	0.0150710
836.025	0.0150404
836.103	0.0150862
836.181	0.0150332
836.259	0.0149453
836.337	0.0151392
836.415	0.0152123
836.494	0.0151936
836.572	0.0150627
836.650	0.0150747
836.728	0.0151062
836.806	0.0152876
836.884	0.0152390
836.962	0.0151678
837.040	0.0151189
837.119	0.0151829
837.197	0.0152532
837.275	0.0152122
837.353	0.0152134
837.431	0.0152090
837.509	0.0151672
837.587	0.0151466
837.665	0.0152256
837.744	0.0152181
837.822	0.0151769
837.900	0.0152158
837.978	0.0150647
838.056	0.0152232
838.134	0.0152552
838.212	0.0152070
838.290	0.0150241
838.369	0.0150347
838.447	0.0150968
838.525	0.0152197
838.603	0.0151036
838.681	0.0152255
838.759	0.0150984
838.837	0.0151443
838.915	0.0150620
838.994	0.0152185
839.072	0.0150336
839.150	0.0150018
839.228	0.0150549
839.306	0.0151474
839.384	0.0151311
839.462	0.0150597
839.540	0.0150467
839.619	0.0150835
839.697	0.0150819
839.775	0.0152137
839.853	0.0151462
839.931	0.0151118
840.009	0.0151120
840.087	0.0150902
840.165	0.0151334
840.244	0.0150246
840.322	0.0152394
840.400	0.0151745
840.478	0.0149978
840.556	0.0150724
840.634	0.0150712
840.712	0.0150613
840.790	0.0149629
840.869	0.0150147
840.947	0.0150031
841.025	0.0151435
841.103	0.0150044
841.181	0.0150484
841.259	0.0151821
841.337	0.0149778
841.415	0.0150433
841.494	0.0151025
841.572	0.0150858
841.650	0.0151186
841.728	0.0150209
841.806	0.0153009
841.884	0.0152045
841.962	0.0150671
842.040	0.0149310
842.119	0.0150557
842.197	0.0151006
842.275	0.0151433
842.353	0.0151782
842.431	0.0150999
842.509	0.0151232
842.587	0.0151494
842.665	0.0151061
842.744	0.0152137
842.822	0.0151798
842.900	0.0152348
842.978	0.0151109
843.056	0.0150594
843.134	0.0151190
843.212	0.0151607
843.290	0.0152512
843.369	0.0151726
843.447	0.0151261
843.525	0.0151980
843.603	0.0150949
843.681	0.0151398
843.759	0.0151162
843.837	0.0152589
843.915	0.0151050
843.994	0.0152007
844.072	0.0150991
844.150	0.0151167
844.228	0.0151598
844.306	0.0152143
844.384	0.0152341
844.462	0.0152608
844.540	0.0151069
844.619	0.0151223
844.697	0.0151505
844.775	0.0151221
844.853	0.0151566
844.931	0.0152612
845.009	0.0151734
845.087	0.0150423
845.165	0.0150426
845.244	0.0152663
845.322	0.0153216
845.400	0.0151429
845.478	0.0150981
845.556	0.0149841
845.634	0.0150862
845.712	0.0151576
845.790	0.0151590
845.869	0.0151335
845.947	0.0151414
846.025	0.0150744
846.103	0.0150802
846.181	0.0152055
846.259	0.0151621
846.337	0.0151151
846.415	0.0152380
846.494	0.0150262
846.572	0.0149902
846.650	0.0150842
846.728	0.0150227
846.806	0.0150613
846.884	0.0150887
846.962	0.0152483
847.040	0.0150942
847.119	0.0151724
847.197	0.0152695
847.275	0.0151247
847.353	0.0151849
847.431	0.0151292
847.509	0.0151181
847.587	0.0151914
847.665	0.0151106
847.744	0.0152193
847.822	0.0151491
847.900	0.0152724
847.978	0.0151511
848.056	0.0150811
848.134	0.0151936
848.212	0.0151625
848.290	0.0151665
848.369	0.0150341
848.447	0.0150803
848.525	0.0151010
848.603	0.0151103
848.681	0.0151857
848.759	0.0151180
848.837	0.0151038
848.915	0.0151025
848.994	0.0150962
849.072	0.0152380
849.150	0.0151513
849.228	0.0152177
849.306	0.0151860
849.384	0.0151295
849.462	0.0151530
849.540	0.0151262
849.619	0.0151029
849.697	0.0152794
849.775	0.0151006
849.853	0.0150788
849.931	0.0150826
850.009	0.0151711
850.087	0.0151224
850.165	0.0150841
850.244	0.0150364
850.322	0.0152111
850.400	0.0152148
850.478	0.0150622
850.556	0.0150321
850.634	0.0151780
850.712	0.0151174
850.790	0.0151665
850.869	0.0150564
850.947	0.0149953
851.025	0.0151503
851.103	0.0151898
851.181	0.0151521
851.259	0.0152413
851.337	0.0152068
851.415	0.0151151
851.494	0.0151358
851.572	0.0151011
851.650	0.0152343
851.728	0.0151316
851.806	0.0151059
851.884	0.0151469
851.962	0.0149918
852.040	0.0152451
852.119	0.0151893
852.197	0.0151098
852.275	0.0150892
852.353	0.0151499
852.431	0.0151511
852.509	0.0150836
852.587	0.0151357
852.665	0.0150114
852.744	0.0151504
852.822	0.0151250
852.900	0.0150730
852.978	0.0150495
853.056	0.0151087
853.134	0.0150887
853.212	0.0150595
853.290	0.0151949
853.369	0.0151215
853.447	0.0152309
853.525	0.0150552
853.603	0.0150581
853.681	0.0151204
853.759	0.0151269
853.837	0.0151514
853.915	0.0150206
853.994	0.0150581
854.072	0.0151073
854.150	0.0150979
854.228	0.0151421
854.306	0.0150962
854.384	0.0150628
854.462	0.0151215
854.540	0.0152058
854.619	0.0151315
854.697	0.0152814
854.775	0.0151714
854.853	0.0151372
854.931	0.0152326
855.009	0.0151963
855.087	0.0151428
855.165	0.0150500
855.244	0.0152619
855.322	0.0152073
855.400	0.0152042
855.478	0.0152878
855.556	0.0151942
855.634	0.0152435
855.712	0.0151665
855.790	0.0151605
855.869	0.0152448
855.947	0.0151659
856.025	0.0152668
856.103	0.0150941
856.181	0.0151849
856.259	0.0151463
856.337	0.0151138
856.415	0.0153134
856.494	0.0153131
856.572	0.0152615
856.650	0.0151682
856.728	0.0152004
856.806	0.0151891
856.884	0.0151324
856.962	0.0151354
857.040	0.0153070
857.119	0.0151329
857.197	0.0153397
857.275	0.0152644
857.353	0.0151653
857.431	0.0152522
857.509	0.0151775
857.587	0.0153106
857.665	0.0151905
857.744	0.0151202
857.822	0.0152286
857.900	0.0152586
857.978	0.0151969
858.056	0.0150235
858.134	0.0151360
858.212	0.0151153
858.290	0.0151740
858.369	0.0151395
858.447	0.0151089
858.525	0.0150340
858.603	0.0150928
858.681	0.0152009
858.759	0.0150299
858.837	0.0150204
858.915	0.0150228
858.994	0.0150322
859.072	0.0149495
859.150	0.0151438
859.228	0.0150472
859.306	0.0150467
859.384	0.0150730
859.462	0.0150532
859.540	0.0150806
859.619	0.0151566
859.697	0.0152439
859.775	0.0151269
859.853	0.0151385
859.931	0.0151590
860.009	0.0151929
860.087	0.0149986
860.165	0.0151038
860.244	0.0151220
860.322	0.0150870
860.400	0.0149509
860.478	0.0150679
860.556	0.0150136
860.634	0.0151198
860.712	0.0152547
860.790	0.0150697
860.869	0.0150862
860.947	0.0151057
861.025	0.0151781
861.103	0.0151808
861.181	0.0150990
861.259	0.0151180
861.337	0.0151637
861.415	0.0151646
861.494	0.0151212
861.572	0.0150932
861.650	0.0151357
861.728	0.0152898
861.806	0.0151999
861.884	0.0152163
861.962	0.0151358
862.040	0.0152292
862.119	0.0152122
862.197	0.0152143
862.275	0.0150547
862.353	0.0150851
862.431	0.0151704
862.509	0.0151776
862.587	0.0150370
862.665	0.0149844
862.744	0.0150304
862.822	0.0151544
862.900	0.0149329
862.978	0.0150362
863.056	0.0149848
863.134	0.0151161
863.212	0.0150989
863.290	0.0150362
863.369	0.0149883
863.447	0.0150265
863.525	0.0150578
863.603	0.0150012
863.681	0.0149860
863.759	0.0150528
863.837	0.0149906
863.915	0.0150410
863.994	0.0151472
864.072	0.0151572
864.150	0.0150401
864.228	0.0151174
864.306	0.0151118
864.384	0.0150430
864.462	0.0151264
864.540	0.0150549
864.619	0.0150706
864.697	0.0152818
864.775	0.0150753
864.853	0.0150808
864.931	0.0151783
865.009	0.0151632
865.087	0.0151876
865.165	0.0150903
865.244	0.0151913
865.322	0.0151456
865.400	0.0151265
865.478	0.0152231
865.556	0.0152300
865.634	0.0150760
865.712	0.0150953
865.790	0.0151376
865.869	0.0151378
865.947	0.0151156
866.025	0.0151791
866.103	0.0150854
866.181	0.0150416
866.259	0.0151872
866.337	0.0151553
866.415	0.0150935
866.494	0.0150930
866.572	0.0151985
866.650	0.0150721
866.728	0.0151347
866.806	0.0152184
866.884	0.0150565
866.962	0.0150623
867.040	0.0151501
867.119	0.0151026
867.197	0.0151596
867.275	0.0151914
867.353	0.0152119
867.431	0.0151536
867.509	0.0152787
867.587	0.0151434
867.665	0.0151250
867.744	0.0152083
867.822	0.0151851
867.900	0.0150863
867.978	0.0151772
868.056	0.0151324
868.134	0.0151311
868.212	0.0152246
868.290	0.0151028
868.369	0.0151840
868.447	0.0152334
868.525	0.0151883
868.603	0.0152002
868.681	0.0151309
868.759	0.0153036
868.837	0.0150909
868.915	0.0151252
868.994	0.0151060
869.072	0.0152789
869.150	0.0151196
869.228	0.0151842
869.306	0.0151305
869.384	0.0150970
869.462	0.0153317
869.540	0.0152525
869.619	0.0151557
869.697	0.0152811
869.775	0.0150848
869.853	0.0152049
869.931	0.0152477
870.009	0.0153434
870.087	0.0153123
870.165	0.0151801
870.244	0.0150964
870.322	0.0150649
870.400	0.0152168
870.478	0.0151965
870.556	0.0153166
870.634	0.0152440
870.712	0.0152763
870.790	0.0152155
870.869	0.0151926
870.947	0.0153272
871.025	0.0152721
871.103	0.0150761
871.181	0.0152010
871.259	0.0151862
871.337	0.0151376
871.415	0.0152070
871.494	0.0151215
871.572	0.0151782
871.650	0.0151071
871.728	0.0152048
871.806	0.0151622
871.884	0.0151624
871.962	0.0152258
872.040	0.0152236
872.119	0.0151776
872.197	0.0151270
872.275	0.0151550
872.353	0.0151931
872.431	0.0150235
872.509	0.0151967
872.587	0.0152101
872.665	0.0151412
872.744	0.0151459
872.822	0.0153163
872.900	0.0151545
872.978	0.0152836
873.056	0.0151075
873.134	0.0150752
873.212	0.0152377
873.290	0.0152174
873.369	0.0151293
873.447	0.0150184
873.525	0.0151943
873.603	0.0150725
873.681	0.0150743
873.759	0.0150117
873.837	0.0150314
873.915	0.0150828
873.994	0.0150860
874.072	0.0151050
874.150	0.0151016
874.228	0.0151617
874.306	0.0151919
874.384	0.0151410
874.462	0.0151403
874.540	0.0152283
874.619	0.0152361
874.697	0.0152604
874.775	0.0152230
874.853	0.0151488
874.931	0.0152217
875.009	0.0151692
875.087	0.0151985
875.165	0.0152567
875.244	0.0152285
875.322	0.0151725
875.400	0.0153335
875.478	0.0152445
875.556	0.0151989
875.634	0.0151614
875.712	0.0151923
875.790	0.0150141
875.869	0.0151685
875.947	0.0152403
876.025	0.0152798
876.103	0.0151173
876.181	0.0151386
876.259	0.0151875
876.337	0.0151266
876.415	0.0152541
876.494	0.0150225
876.572	0.0152338
876.650	0.0153205
876.728	0.0151678
876.806	0.0152586
876.884	0.0152617
876.962	0.0152288
877.040	0.0151225
877.119	0.0152986
877.197	0.0153130
877.275	0.0152901
877.353	0.0150910
877.431	0.0151853
877.509	0.0152723
877.587	0.0152252
877.665	0.0151229
877.744	0.0151493
877.822	0.0153214
877.900	0.0152930
877.978	0.0152296
878.056	0.0151341
878.134	0.0152313
878.212	0.0151406
878.290	0.0150684
878.369	0.0152328
878.447	0.0151539
878.525	0.0151233
878.603	0.0152132
878.681	0.0152593
878.759	0.0151637
878.837	0.0152664
878.915	0.0154398
878.994	0.0151421
879.072	0.0149369
879.150	0.0152528
879.228	0.0152488
879.306	0.0151448
879.384	0.0150274
879.462	0.0152021
879.540	0.0151276
879.619	0.0152098
879.697	0.0152102
879.775	0.0150581
879.853	0.0150381
879.931	0.0151370
880.009	0.0150845
880.087	0.0150809
880.165	0.0150386
880.244	0.0151375
880.322	0.0149752
880.400	0.0151092
880.478	0.0151189
880.556	0.0150756
880.634	0.0151365
880.712	0.0150629
880.790	0.0151283
880.869	0.0149193
880.947	0.0150752
881.025	0.0150327
881.103	0.0149376
881.181	0.0151885
881.259	0.0149847
881.337	0.0151049
881.415	0.0149638
881.494	0.0150563
881.572	0.0149351
881.650	0.0151375
881.728	0.0152148
881.806	0.0150549
881.884	0.0151357
881.962	0.0150768
882.040	0.0151128
882.119	0.0150552
882.197	0.0149598
882.275	0.0151537
882.353	0.0152199
882.431	0.0150065
882.509	0.0151730
882.587	0.0150766
882.665	0.0151347
882.744	0.0150616
882.822	0.0151364
882.900	0.0151199
882.978	0.0151088
883.056	0.0150460
883.134	0.0150836
883.212	0.0151338
883.290	0.0151540
883.369	0.0152335
883.447	0.0153056
883.525	0.0151358
883.603	0.0150777
883.681	0.0149608
883.759	0.0149995
883.837	0.0152377
883.915	0.0151627
883.994	0.0150912
884.072	0.0151780
884.150	0.0151071
884.228	0.0151319
884.306	0.0151033
884.384	0.0150269
884.462	0.0150095
884.540	0.0151273
884.619	0.0150942
884.697	0.0152319
884.775	0.0150458
884.853	0.0151575
884.931	0.0151477
885.009	0.0151071
885.087	0.0150681
885.165	0.0150738
885.244	0.0150786
885.322	0.0151437
885.400	0.0150986
885.478	0.0150716
885.556	0.0151822
885.634	0.0152126
885.712	0.0151687
885.790	0.0150346
885.869	0.0151626
885.947	0.0149838
886.025	0.0150825
886.103	0.0150936
886.181	0.0151005
886.259	0.0150364
886.337	0.0150598
886.415	0.0152335
886.494	0.0150887
886.572	0.0151471
886.650	0.0150527
886.728	0.0150790
886.806	0.0151162
886.884	0.0152165
886.962	0.0151150
887.040	0.0151959
887.119	0.0151936
887.197	0.0152309
887.275	0.0151730
887.353	0.0153623
887.431	0.0151779
887.509	0.0150657
887.587	0.0150195
887.665	0.0151342
887.744	0.0152759
887.822	0.0150822
887.900	0.0152052
887.978	0.0150385
888.056	0.0151302
888.134	0.0152022
888.212	0.0151777
888.290	0.0151382
888.369	0.0150671
888.447	0.0151140
888.525	0.0151235
888.603	0.0150743
888.681	0.0150237
888.759	0.0151601
888.837	0.0151927
888.915	0.0151340
888.994	0.0151363
889.072	0.0152998
889.150	0.0153715
889.228	0.0152093
889.306	0.0152094
889.384	0.0151111
889.462	0.0151707
889.540	0.0152829
889.619	0.0150966
889.697	0.0152548
889.775	0.0151639
889.853	0.0151109
889.931	0.0151937
890.009	0.0151382
890.087	0.0151674
890.165	0.0152244
890.244	0.0152155
890.322	0.0150494
890.400	0.0150950
890.478	0.0153013
890.556	0.0151421
890.634	0.0150964
890.712	0.0150811
890.790	0.0151422
890.869	0.0151071
890.947	0.0151468
891.025	0.0151102
891.103	0.0151543
891.181	0.0150623
891.259	0.0151581
891.337	0.0151395
891.415	0.0151806
891.494	0.0151050
891.572	0.0150233
891.650	0.0149304
891.728	0.0150750
891.806	0.0150842
891.884	0.0150217
891.962	0.0150272
892.040	0.0150505
892.119	0.0151525
892.197	0.0150423
892.275	0.0149529
892.353	0.0151470
892.431	0.0150566
892.509	0.0151357
892.587	0.0151278
892.665	0.0150623
892.744	0.0151747
892.822	0.0151276
892.900	0.0151618
892.978	0.0150698
893.056	0.0149776
893.134	0.0151445
893.212	0.0151595
893.290	0.0151675
893.369	0.0151375
893.447	0.0151484
893.525	0.0152165
893.603	0.0153091
893.681	0.0152279
893.759	0.0151416
893.837	0.0153606
893.915	0.0152225
893.994	0.0153227
894.072	0.0153105
894.150	0.0151720
894.228	0.0152956
894.306	0.0153038
894.384	0.0153036
894.462	0.0151340
894.540	0.0152832
894.619	0.0152565
894.697	0.0152798
894.775	0.0153014
894.853	0.0153526
894.931	0.0151942
895.009	0.0151350
895.087	0.0152930
895.165	0.0151227
895.244	0.0151746
895.322	0.0151694
895.400	0.0152493
895.478	0.0152705
895.556	0.0152622
895.634	0.0151176
895.712	0.0152348
895.790	0.0151604
895.869	0.0151598
895.947	0.0152233
896.025	0.0152760
896.103	0.0151274
896.181	0.0150615
896.259	0.0151233
896.337	0.0151402
896.415	0.0150448
896.494	0.0150493
896.572	0.0151704
896.650	0.0151888
896.728	0.0151512
896.806	0.0151540
896.884	0.0153456
896.962	0.0152404
897.040	0.0152518
897.119	0.0151165
897.197	0.0152750
897.275	0.0151621
897.353	0.0152305
897.431	0.0152469
897.509	0.0151257
897.587	0.0151531
897.665	0.0152025
897.744	0.0152111
897.822	0.0151857
897.900	0.0150838
897.978	0.0150816
898.056	0.0151262
898.134	0.0151350
898.212	0.0151132
898.290	0.0151047
898.369	0.0150948
898.447	0.0150208
898.525	0.0151382
898.603	0.0151762
898.681	0.0151199
898.759	0.0151078
898.837	0.0151700
898.915	0.0150621
898.994	0.0151658
899.072	0.0151359
899.150	0.0152018
899.228	0.0151167
899.306	0.0151736
899.384	0.0150600
899.462	0.0151727
899.540	0.0153182
899.619	0.0152342
899.697	0.0150731
899.775	0.0150662
899.853	0.0151467
899.931	0.0151562
900.009	0.0150979
900.087	0.0150833
900.165	0.0150478
900.244	0.0151690
900.322	0.0151037
900.400	0.0150232
900.478	0.0150422
900.556	0.0151350
900.634	0.0151284
900.712	0.0151514
900.790	0.0150787
900.869	0.0151161
900.947	0.0151495
901.025	0.0150533
901.103	0.0151088
901.181	0.0150948
901.259	0.0150684
901.337	0.0150344
901.415	0.0151180
901.494	0.0152020
901.572	0.0152129
901.650	0.0150936
901.728	0.0150571
901.806	0.0151293
901.884	0.0152292
901.962	0.0150818
902.040	0.0150975
902.119	0.0151096
902.197	0.0151874
902.275	0.0151895
902.353	0.0150232
902.431	0.0151789
902.509	0.0151057
902.587	0.0152212
902.665	0.0151445
902.744	0.0151527
902.822	0.0151559
902.900	0.0150708
902.978	0.0151964
903.056	0.0151728
903.134	0.0149932
903.212	0.0150961
903.290	0.0150939
903.369	0.0151897
903.447	0.0150381
903.525	0.0151214
903.603	0.0151019
903.681	0.0152052
903.759	0.0151230
903.837	0.0150771
903.915	0.0151888
903.994	0.0150974
904.072	0.0150476
904.150	0.0152413
904.228	0.0150997
904.306	0.0150544
904.384	0.0149882
904.462	0.0151442
904.540	0.0151759
904.619	0.0151640
904.697	0.0151758
904.775	0.0150696
904.853	0.0151254
904.931	0.0152635
905.009	0.0150578
905.087	0.0149798
905.165	0.0151238
905.244	0.0151290
905.322	0.0151421
905.400	0.0150665
905.478	0.0150043
905.556	0.0150153
905.634	0.0150888
905.712	0.0149957
905.790	0.0151038
905.869	0.0150915
905.947	0.0149845
906.025	0.0152291
906.103	0.0150925
906.181	0.0149171
906.259	0.0149442
906.337	0.0151488
906.415	0.0150865
906.494	0.0150723
906.572	0.0150079
906.650	0.0149642
906.728	0.0151417
906.806	0.0150360
906.884	0.0150435
906.962	0.0149725
907.040	0.0151904
907.119	0.0150190
907.197	0.0150221
907.275	0.0150914
907.353	0.0152345
907.431	0.0151134
907.509	0.0151575
907.587	0.0150609
907.665	0.0151111
907.744	0.0150900
907.822	0.0151221
907.900	0.0152086
907.978	0.0149596
908.056	0.0150636
908.134	0.0151503
908.212	0.0152489
908.290	0.0151204
908.369	0.0151519
908.447	0.0151718
908.525	0.0151711
908.603	0.0153134
908.681	0.0151587
908.759	0.0152921
908.837	0.0153632
908.915	0.0151940
908.994	0.0150652
909.072	0.0152425
909.150	0.0151161
909.228	0.0151079
909.306	0.0151907
909.384	0.0150645
909.462	0.0152438
909.540	0.0150852
909.619	0.0150378
909.697	0.0151218
909.775	0.0150240
909.853	0.0149928
909.931	0.0151355
910.009	0.0149910
910.087	0.0151180
910.165	0.0151126
910.244	0.0151395
910.322	0.0151428
910.400	0.0151379
910.478	0.0150452
910.556	0.0152232
910.634	0.0152559
910.712	0.0151591
910.790	0.0149516
910.869	0.0150378
910.947	0.0151221
911.025	0.0149455
911.103	0.0151168
911.181	0.0151741
911.259	0.0149824
911.337	0.0150214
911.415	0.0150083
911.494	0.0150872
911.572	0.0150550
911.650	0.0151430
911.728	0.0150543
911.806	0.0149630
911.884	0.0150467
911.962	0.0152017
912.040	0.0150679
912.119	0.0150957
912.197	0.0152249
912.275	0.0150076
912.353	0.0153391
912.431	0.0151424
912.509	0.0150732
912.587	0.0151215
912.665	0.0151649
912.744	0.0152187
912.822	0.0150687
912.900	0.0151023
912.978	0.0150484
913.056	0.0150514
913.134	0.0151958
913.212	0.0151339
913.290	0.0150400
913.369	0.0151239
913.447	0.0150859
913.525	0.0152275
913.603	0.0151668
913.681	0.0149225
913.759	0.0151299
913.837	0.0151254
913.915	0.0151022
913.994	0.0152348
914.072	0.0151060
914.150	0.0152155
914.228	0.0151968
914.306	0.0150081
914.384	0.0150765
914.462	0.0152237
914.540	0.0152093
914.619	0.0151018
914.697	0.0152103
914.775	0.0150456
914.853	0.0151521
914.931	0.0150610
915.009	0.0150826
915.087	0.0149182
915.165	0.0149888
915.244	0.0150813
915.322	0.0151093
915.400	0.0150438
915.478	0.0150917
915.556	0.0151495
915.634	0.0151078
915.712	0.0152020
915.790	0.0150336
915.869	0.0149651
915.947	0.0151776
916.025	0.0151978
916.103	0.0151355
916.181	0.0150974
916.259	0.0151936
916.337	0.0151376
916.415	0.0151565
916.494	0.0151592
916.572	0.0151503
916.650	0.0151819
916.728	0.0150182
916.806	0.0152311
916.884	0.0152209
916.962	0.0150481
917.040	0.0152206
917.119	0.0151328
917.197	0.0151175
917.275	0.0153165
917.353	0.0152548
917.431	0.0151797
917.509	0.0152658
917.587	0.0150667
917.665	0.0151856
917.744	0.0151763
917.822	0.0151688
917.900	0.0152346
917.978	0.0151716
918.056	0.0151190
918.134	0.0151250
918.212	0.0151381
918.290	0.0151371
918.369	0.0152423
918.447	0.0152426
918.525	0.0151827
918.603	0.0151587
918.681	0.0152773
918.759	0.0152415
918.837	0.0152158
918.915	0.0151653
918.994	0.0152174
919.072	0.0151914
919.150	0.0152249
919.228	0.0152392
919.306	0.0151709
919.384	0.0152038
919.462	0.0152949
919.540	0.0152575
919.619	0.0151806
919.697	0.0150868
919.775	0.0152423
919.853	0.0152886
919.931	0.0152138
920.009	0.0151975
920.087	0.0152029
920.165	0.0150814
920.244	0.0152845
920.322	0.0151928
920.400	0.0151869
920.478	0.0152301
920.556	0.0151984
920.634	0.0151030
920.712	0.0153188
920.790	0.0153496
920.869	0.0151002
920.947	0.0150687
921.025	0.0152930
921.103	0.0151685
921.181	0.0151926
921.259	0.0151870
921.337	0.0150536
921.415	0.0152453
921.494	0.0152173
921.572	0.0150122
921.650	0.0151702
921.728	0.0150918
921.806	0.0151504
921.884	0.0150679
921.962	0.0151456
922.040	0.0150796
922.119	0.0151692
922.197	0.0151173
922.275	0.0152615
922.353	0.0149834
922.431	0.0152041
922.509	0.0151909
922.587	0.0150893
922.665	0.0151242
922.744	0.0151225
922.822	0.0152869
922.900	0.0150551
922.978	0.0150044
923.056	0.0150910
923.134	0.0150282
923.212	0.0151288
923.290	0.0150531
923.369	0.0151863
923.447	0.0151910
923.525	0.0151147
923.603	0.0148969
923.681	0.0150556
923.759	0.0151281
923.837	0.0150341
923.915	0.0150526
923.994	0.0150927
924.072	0.0151587
924.150	0.0151878
924.228	0.0149991
924.306	0.0150820
924.384	0.0151812
924.462	0.0151273
924.540	0.0151731
924.619	0.0152826
924.697	0.0150809
924.775	0.0150419
924.853	0.0152419
924.931	0.0150466
925.009	0.0151186
925.087	0.0152128
925.165	0.0152087
925.244	0.0150005
925.322	0.0150751
925.400	0.0151954
925.478	0.0151821
925.556	0.0151908
925.634	0.0151801
925.712	0.0152403
925.790	0.0150914
925.869	0.0151485
925.947	0.0151361
926.025	0.0150211
926.103	0.0150168
926.181	0.0151580
926.259	0.0151433
926.337	0.0151161
926.415	0.0152536
926.494	0.0151605
926.572	0.0151335
926.650	0.0150386
926.728	0.0151508
926.806	0.0150925
926.884	0.0151495
926.962	0.0150321
927.040	0.0151443
927.119	0.0151033
927.197	0.0151059
927.275	0.0151595
927.353	0.0150623
927.431	0.0150314
927.509	0.0150888
927.587	0.0150507
927.665	0.0150328
927.744	0.0152061
927.822	0.0150653
927.900	0.0151129
927.978	0.0150552
928.056	0.0151766
928.134	0.0151302
928.212	0.0151289
928.290	0.0150676
928.369	0.0149914
928.447	0.0151242
928.525	0.0150101
928.603	0.0150752
928.681	0.0152113
928.759	0.0150868
928.837	0.0151798
928.915	0.0151331
928.994	0.0149953
929.072	0.0149767
929.150	0.0150936
929.228	0.0152615
929.306	0.0150816
929.384	0.0149235
929.462	0.0150927
929.540	0.0152026
929.619	0.0151699
929.697	0.0148810
929.775	0.0150475
929.853	0.0151408
929.931	0.0150968
930.009	0.0150175
930.087	0.0150462
930.165	0.0150938
930.244	0.0151462
930.322	0.0151038
930.400	0.0152355
930.478	0.0150755
930.556	0.0149483
930.634	0.0151610
930.712	0.0152444
930.790	0.0149913
930.869	0.0151933
930.947	0.0150092
931.025	0.0149728
931.103	0.0151637
931.181	0.0151673
931.259	0.0150703
931.337	0.0151781
931.415	0.0150405
931.494	0.0151373
931.572	0.0151588
931.650	0.0150296
931.728	0.0151096
931.806	0.0152350
931.884	0.0151130
931.962	0.0150248
932.040	0.0151598
932.119	0.0151018
932.197	0.0151941
932.275	0.0150510
932.353	0.0151104
932.431	0.0151073
932.509	0.0152485
932.587	0.0150596
932.665	0.0150740
932.744	0.0150350
932.822	0.0150879
932.900	0.0151066
932.978	0.0151335
933.056	0.0151809
933.134	0.0150893
933.212	0.0151647
933.290	0.0151195
933.369	0.0150157
933.447	0.0152580
933.525	0.0151991
933.603	0.0149885
933.681	0.0150469
933.759	0.0151041
933.837	0.0152006
933.915	0.0150698
933.994	0.0150824
934.072	0.0151181
934.150	0.0152522
934.228	0.0152068
934.306	0.0151328
934.384	0.0151344
934.462	0.0149777
934.540	0.0151626
934.619	0.0151337
934.697	0.0152519
934.775	0.0152265
934.853	0.0151457
934.931	0.0150666
935.009	0.0152251
935.087	0.0151057
935.165	0.0151489
935.244	0.0152389
935.322	0.0150342
935.400	0.0152339
935.478	0.0152014
935.556	0.0149361
935.634	0.0151678
935.712	0.0151884
935.790	0.0151559
935.869	0.0151222
935.947	0.0150572
936.025	0.0150692
936.103	0.0152372
936.181	0.0151031
936.259	0.0150834
936.337	0.0151251
936.415	0.0153242
936.494	0.0152131
936.572	0.0151896
936.650	0.0151782
936.728	0.0152277
936.806	0.0151212
936.884	0.0151815
936.962	0.0150974
937.040	0.0150955
937.119	0.0151952
937.197	0.0152545
937.275	0.0152227
937.353	0.0150738
937.431	0.0152681
937.509	0.0151348
937.587	0.0151260
937.665	0.0151550
937.744	0.0152982
937.822	0.0152020
937.900	0.0151317
937.978	0.0151933
938.056	0.0151762
938.134	0.0152949
938.212	0.0153304
938.290	0.0153036
938.369	0.0150937
938.447	0.0150992
938.525	0.0150750
938.603	0.0151711
938.681	0.0152302
938.759	0.0151492
938.837	0.0152636
938.915	0.0151484
938.994	0.0150436
939.072	0.0151472
939.150	0.0151604
939.228	0.0151167
939.306	0.0152449
939.384	0.0150997
939.462	0.0150907
939.540	0.0151379
939.619	0.0150974
939.697	0.0151146
939.775	0.0151734
939.853	0.0151720
939.931	0.0151456
940.009	0.0150924
940.087	0.0152222
940.165	0.0151283
940.244	0.0151415
940.322	0.0152557
940.400	0.0151696
940.478	0.0150497
940.556	0.0151955
940.634	0.0150813
940.712	0.0152618
940.790	0.0152024
940.869	0.0152656
940.947	0.0151759
941.025	0.0150007
941.103	0.0151559
941.181	0.0151181
941.259	0.0151991
941.337	0.0151566
941.415	0.0151804
941.494	0.0151099
941.572	0.0151740
941.650	0.0150835
941.728	0.0152464
941.806	0.0151730
941.884	0.0150041
941.962	0.0150492
942.040	0.0150494
942.119	0.0151540
942.197	0.0150856
942.275	0.0150875
942.353	0.0151228
942.431	0.0150088
942.509	0.0151491
942.587	0.0151367
942.665	0.0151458
942.744	0.0150457
942.822	0.0151277
942.900	0.0149716
942.978	0.0151192
943.056	0.0151295
943.134	0.0151744
943.212	0.0151606
943.290	0.0150345
943.369	0.0150600
943.447	0.0149229
943.525	0.0150266
943.603	0.0151746
943.681	0.0151502
943.759	0.0150623
943.837	0.0152104
943.915	0.0151782
943.994	0.0151447
944.072	0.0150584
944.150	0.0150133
944.228	0.0149207
944.306	0.0150983
944.384	0.0152035
944.462	0.0150983
944.540	0.0150295
944.619	0.0151650
944.697	0.0151241
944.775	0.0151546
944.853	0.0151662
944.931	0.0152523
945.009	0.0151253
945.087	0.0150179
945.165	0.0150800
945.244	0.0151572
945.322	0.0150908
945.400	0.0150878
945.478	0.0150707
945.556	0.0152737
945.634	0.0151206
945.712	0.0150858
945.790	0.0151450
945.869	0.0151592
945.947	0.0151151
946.025	0.0151329
946.103	0.0150782
946.181	0.0152697
946.259	0.0151613
946.337	0.0151456
946.415	0.0151665
946.494	0.0152200
946.572	0.0152128
946.650	0.0153700
946.728	0.0152067
946.806	0.0151286
946.884	0.0150380
946.962	0.0151939
947.040	0.0151471
947.119	0.0151786
947.197	0.0150762
947.275	0.0152151
947.353	0.0151218
947.431	0.0151942
947.509	0.0153316
947.587	0.0151994
947.665	0.0151338
947.744	0.0150936
947.822	0.0152857
947.900	0.0152159
947.978	0.0151463
948.056	0.0150836
948.134	0.0152172
948.212	0.0152197
948.290	0.0152748
948.369	0.0153043
948.447	0.0151520
948.525	0.0152223
948.603	0.0152500
948.681	0.0151361
948.759	0.0151971
948.837	0.0151738
948.915	0.0151367
948.994	0.0150819
949.072	0.0151541
949.150	0.0150885
949.228	0.0150804
949.306	0.0151598
949.384	0.0151637
949.462	0.0152570
949.540	0.0150733
949.619	0.0152532
949.697	0.0150513
949.775	0.0150491
949.853	0.0152065
949.931	0.0151169
