05/19/2022	00:52:18	Ver.	4.1	UNKNOWN
Optical Delay	630.002507	Delta X		0.078125	Sweeps	1	Scan Rate	0/0
Coordinates	Axis 1	NaN	Axis 2	NaN	Axis 3	NaN	Axis 4	NaN	Axis 5	NaN	Axis 6	0.000000
TX Power	0.000000	RX Power	0.000000

630.003	0.0164873
630.081	0.0164910
630.159	0.0165648
630.237	0.0166624
630.315	0.0165946
630.393	0.0164980
630.471	0.0165715
630.549	0.0165266
630.628	0.0164309
630.706	0.0164725
630.784	0.0164662
630.862	0.0166594
630.940	0.0165839
631.018	0.0164344
631.096	0.0165390
631.174	0.0165441
631.253	0.0164810
631.331	0.0164236
631.409	0.0165694
631.487	0.0164978
631.565	0.0164435
631.643	0.0165196
631.721	0.0164635
631.799	0.0164896
631.878	0.0164882
631.956	0.0165568
632.034	0.0164716
632.112	0.0163864
632.190	0.0163886
632.268	0.0164014
632.346	0.0164494
632.424	0.0165254
632.503	0.0166562
632.581	0.0166216
632.659	0.0164085
632.737	0.0165049
632.815	0.0165993
632.893	0.0164391
632.971	0.0164879
633.049	0.0166802
633.128	0.0165451
633.206	0.0166464
633.284	0.0164009
633.362	0.0164870
633.440	0.0165742
633.518	0.0166096
633.596	0.0164767
633.674	0.0164714
633.753	0.0164936
633.831	0.0165327
633.909	0.0165240
633.987	0.0165788
634.065	0.0166775
634.143	0.0165359
634.221	0.0165147
634.299	0.0165422
634.378	0.0165450
634.456	0.0165258
634.534	0.0164921
634.612	0.0165789
634.690	0.0165932
634.768	0.0164884
634.846	0.0165084
634.924	0.0166639
635.003	0.0165651
635.081	0.0165959
635.159	0.0165219
635.237	0.0166879
635.315	0.0165859
635.393	0.0165139
635.471	0.0164922
635.549	0.0165778
635.628	0.0163797
635.706	0.0165393
635.784	0.0163396
635.862	0.0163544
635.940	0.0164354
636.018	0.0163472
636.096	0.0164507
636.174	0.0165049
636.253	0.0164463
636.331	0.0164456
636.409	0.0163446
636.487	0.0164991
636.565	0.0165416
636.643	0.0164010
636.721	0.0164780
636.799	0.0164888
636.878	0.0164077
636.956	0.0164324
637.034	0.0164291
637.112	0.0165459
637.190	0.0164684
637.268	0.0165186
637.346	0.0164709
637.424	0.0164812
637.503	0.0164135
637.581	0.0163325
637.659	0.0164890
637.737	0.0165656
637.815	0.0165917
637.893	0.0166264
637.971	0.0165663
638.049	0.0164874
638.128	0.0164968
638.206	0.0166591
638.284	0.0164130
638.362	0.0164592
638.440	0.0165116
638.518	0.0164672
638.596	0.0165598
638.674	0.0165975
638.753	0.0164221
638.831	0.0163468
638.909	0.0165932
638.987	0.0164806
639.065	0.0165419
639.143	0.0165319
639.221	0.0165388
639.299	0.0164294
639.378	0.0164653
639.456	0.0165649
639.534	0.0166499
639.612	0.0166460
639.690	0.0165839
639.768	0.0166134
639.846	0.0164996
639.924	0.0165443
640.003	0.0167303
640.081	0.0166835
640.159	0.0164278
640.237	0.0163762
640.315	0.0166316
640.393	0.0166751
640.471	0.0165724
640.549	0.0166013
640.628	0.0165420
640.706	0.0165942
640.784	0.0166389
640.862	0.0166739
640.940	0.0167368
641.018	0.0165929
641.096	0.0165226
641.174	0.0166244
641.253	0.0164942
641.331	0.0166494
641.409	0.0166361
641.487	0.0166532
641.565	0.0166169
641.643	0.0166837
641.721	0.0166196
641.799	0.0166151
641.878	0.0167820
641.956	0.0165357
642.034	0.0165283
642.112	0.0166708
642.190	0.0165810
642.268	0.0166312
642.346	0.0165682
642.424	0.0165722
642.503	0.0165723
642.581	0.0165937
642.659	0.0163192
642.737	0.0164734
642.815	0.0164905
642.893	0.0165338
642.971	0.0164817
643.049	0.0163283
643.128	0.0164392
643.206	0.0165406
643.284	0.0166016
643.362	0.0165199
643.440	0.0165182
643.518	0.0164901
643.596	0.0163943
643.674	0.0164170
643.753	0.0164732
643.831	0.0163409
643.909	0.0164589
643.987	0.0164364
644.065	0.0163209
644.143	0.0163918
644.221	0.0163886
644.299	0.0164360
644.378	0.0163345
644.456	0.0165057
644.534	0.0164192
644.612	0.0164631
644.690	0.0164833
644.768	0.0162882
644.846	0.0164413
644.924	0.0164760
645.003	0.0163624
645.081	0.0163018
645.159	0.0164291
645.237	0.0164726
645.315	0.0164075
645.393	0.0163232
645.471	0.0162798
645.549	0.0164288
645.628	0.0164209
645.706	0.0164501
645.784	0.0162952
645.862	0.0164009
645.940	0.0165665
646.018	0.0165160
646.096	0.0163753
646.174	0.0163947
646.253	0.0165520
646.331	0.0164140
646.409	0.0163331
646.487	0.0163797
646.565	0.0165536
646.643	0.0165179
646.721	0.0163805
646.799	0.0164882
646.878	0.0164693
646.956	0.0164459
647.034	0.0165858
647.112	0.0164824
647.190	0.0165305
647.268	0.0164970
647.346	0.0163538
647.424	0.0163957
647.503	0.0164085
647.581	0.0165614
647.659	0.0165358
647.737	0.0165774
647.815	0.0164929
647.893	0.0164613
647.971	0.0165014
648.049	0.0165185
648.128	0.0164781
648.206	0.0165391
648.284	0.0165922
648.362	0.0165012
648.440	0.0164493
648.518	0.0164832
648.596	0.0165548
648.674	0.0165559
648.753	0.0166484
648.831	0.0166172
648.909	0.0163980
648.987	0.0163610
649.065	0.0164709
649.143	0.0165875
649.221	0.0165089
649.299	0.0165195
649.378	0.0165884
649.456	0.0165497
649.534	0.0166041
649.612	0.0165469
649.690	0.0165013
649.768	0.0166191
649.846	0.0165787
649.924	0.0164993
650.003	0.0165240
650.081	0.0165887
650.159	0.0165121
650.237	0.0166767
650.315	0.0165513
650.393	0.0165215
650.471	0.0164631
650.549	0.0164558
650.628	0.0164159
650.706	0.0164203
650.784	0.0164473
650.862	0.0163483
650.940	0.0163895
651.018	0.0164173
651.096	0.0164402
651.174	0.0164359
651.253	0.0164783
651.331	0.0164514
651.409	0.0164684
651.487	0.0164635
651.565	0.0164672
651.643	0.0165467
651.721	0.0165794
651.799	0.0165363
651.878	0.0166459
651.956	0.0165238
652.034	0.0167702
652.112	0.0166466
652.190	0.0167043
652.268	0.0166229
652.346	0.0164928
652.424	0.0165529
652.503	0.0165285
652.581	0.0164983
652.659	0.0165207
652.737	0.0164646
652.815	0.0163997
652.893	0.0164042
652.971	0.0163922
653.049	0.0162941
653.128	0.0163731
653.206	0.0165662
653.284	0.0164171
653.362	0.0163751
653.440	0.0165285
653.518	0.0163614
653.596	0.0164494
653.674	0.0164510
653.753	0.0166045
653.831	0.0166299
653.909	0.0165559
653.987	0.0166661
654.065	0.0165711
654.143	0.0165911
654.221	0.0166768
654.299	0.0166627
654.378	0.0167481
654.456	0.0165704
654.534	0.0166595
654.612	0.0166479
654.690	0.0166947
654.768	0.0166325
654.846	0.0166946
654.924	0.0165810
655.003	0.0165726
655.081	0.0166273
655.159	0.0164212
655.237	0.0165505
655.315	0.0164281
655.393	0.0164136
655.471	0.0164339
655.549	0.0164262
655.628	0.0164674
655.706	0.0163393
655.784	0.0164793
655.862	0.0165705
655.940	0.0163769
656.018	0.0164262
656.096	0.0165081
656.174	0.0165552
656.253	0.0165141
656.331	0.0163788
656.409	0.0164811
656.487	0.0164912
656.565	0.0164399
656.643	0.0165993
656.721	0.0166672
656.799	0.0165854
656.878	0.0164606
656.956	0.0166066
657.034	0.0165929
657.112	0.0166210
657.190	0.0166086
657.268	0.0164018
657.346	0.0164861
657.424	0.0165102
657.503	0.0164694
657.581	0.0165343
657.659	0.0164288
657.737	0.0163966
657.815	0.0163613
657.893	0.0164338
657.971	0.0165138
658.049	0.0164350
658.128	0.0164581
658.206	0.0164653
658.284	0.0165867
658.362	0.0164699
658.440	0.0165285
658.518	0.0166171
658.596	0.0166643
658.674	0.0165749
658.753	0.0163899
658.831	0.0165705
658.909	0.0164510
658.987	0.0165128
659.065	0.0165366
659.143	0.0165231
659.221	0.0164506
659.299	0.0165936
659.378	0.0166029
659.456	0.0165141
659.534	0.0164654
659.612	0.0164137
659.690	0.0165113
659.768	0.0165053
659.846	0.0165175
659.924	0.0164587
660.003	0.0164969
660.081	0.0165418
660.159	0.0162665
660.237	0.0164602
660.315	0.0165841
660.393	0.0164628
660.471	0.0163552
660.549	0.0165702
660.628	0.0166347
660.706	0.0164231
660.784	0.0165318
660.862	0.0165019
660.940	0.0164243
661.018	0.0163779
661.096	0.0164537
661.174	0.0164039
661.253	0.0163365
661.331	0.0163841
661.409	0.0164126
661.487	0.0164591
661.565	0.0163221
661.643	0.0163640
661.721	0.0162964
661.799	0.0163781
661.878	0.0163684
661.956	0.0164776
662.034	0.0164014
662.112	0.0163720
662.190	0.0165269
662.268	0.0164079
662.346	0.0164028
662.424	0.0163773
662.503	0.0164242
662.581	0.0165232
662.659	0.0165424
662.737	0.0165488
662.815	0.0164834
662.893	0.0165381
662.971	0.0166493
663.049	0.0165057
663.128	0.0166739
663.206	0.0166196
663.284	0.0167347
663.362	0.0166217
663.440	0.0166829
663.518	0.0166712
663.596	0.0167404
663.674	0.0166472
663.753	0.0166500
663.831	0.0165321
663.909	0.0167138
663.987	0.0166452
664.065	0.0165977
664.143	0.0166047
664.221	0.0164370
664.299	0.0165396
664.378	0.0165486
664.456	0.0164509
664.534	0.0164245
664.612	0.0166078
664.690	0.0164013
664.768	0.0165316
664.846	0.0163496
664.924	0.0164981
665.003	0.0164598
665.081	0.0163605
665.159	0.0163732
665.237	0.0163651
665.315	0.0163252
665.393	0.0162807
665.471	0.0163988
665.549	0.0162630
665.628	0.0163398
665.706	0.0162266
665.784	0.0162738
665.862	0.0161993
665.940	0.0161948
666.018	0.0161316
666.096	0.0161662
666.174	0.0161732
666.253	0.0162033
666.331	0.0161723
666.409	0.0161250
666.487	0.0162373
666.565	0.0162943
666.643	0.0161958
666.721	0.0162840
666.799	0.0162497
666.878	0.0164455
666.956	0.0163877
667.034	0.0162534
667.112	0.0164465
667.190	0.0165414
667.268	0.0164407
667.346	0.0164802
667.424	0.0165614
667.503	0.0166838
667.581	0.0167467
667.659	0.0167106
667.737	0.0167410
667.815	0.0168216
667.893	0.0168779
667.971	0.0167143
668.049	0.0168095
668.128	0.0167719
668.206	0.0168430
668.284	0.0167754
668.362	0.0167892
668.440	0.0167664
668.518	0.0165488
668.596	0.0165504
668.674	0.0165384
668.753	0.0164703
668.831	0.0164852
668.909	0.0163456
668.987	0.0163355
669.065	0.0163229
669.143	0.0162573
669.221	0.0162054
669.299	0.0161275
669.378	0.0162089
669.456	0.0162518
669.534	0.0162163
669.612	0.0163454
669.690	0.0162654
669.768	0.0160900
669.846	0.0162486
669.924	0.0163203
670.003	0.0162906
670.081	0.0162978
670.159	0.0162806
670.237	0.0162978
670.315	0.0162955
670.393	0.0164460
670.471	0.0165510
670.549	0.0163821
670.628	0.0165762
670.706	0.0166470
670.784	0.0165610
670.862	0.0165629
670.940	0.0167189
671.018	0.0166508
671.096	0.0166811
671.174	0.0165991
671.253	0.0167335
671.331	0.0166676
671.409	0.0165958
671.487	0.0164514
671.565	0.0165612
671.643	0.0165606
671.721	0.0165900
671.799	0.0164965
671.878	0.0164268
671.956	0.0166489
672.034	0.0164411
672.112	0.0164851
672.190	0.0163358
672.268	0.0164557
672.346	0.0164772
672.424	0.0163429
672.503	0.0164252
672.581	0.0164020
672.659	0.0164529
672.737	0.0163857
672.815	0.0163349
672.893	0.0164795
672.971	0.0164442
673.049	0.0164446
673.128	0.0165070
673.206	0.0165230
673.284	0.0164512
673.362	0.0166177
673.440	0.0165489
673.518	0.0164861
673.596	0.0166055
673.674	0.0164883
673.753	0.0166164
673.831	0.0165292
673.909	0.0163499
673.987	0.0164641
674.065	0.0164195
674.143	0.0164489
674.221	0.0164598
674.299	0.0164943
674.378	0.0165569
674.456	0.0165502
674.534	0.0165629
674.612	0.0163790
674.690	0.0164915
674.768	0.0163493
674.846	0.0165453
674.924	0.0165546
675.003	0.0164941
675.081	0.0165829
675.159	0.0165015
675.237	0.0165503
675.315	0.0166196
675.393	0.0167431
675.471	0.0166932
675.549	0.0166386
675.628	0.0166782
675.706	0.0166891
675.784	0.0167214
675.862	0.0167367
675.940	0.0168689
676.018	0.0167387
676.096	0.0167168
676.174	0.0167154
676.253	0.0165505
676.331	0.0164779
676.409	0.0165553
676.487	0.0166224
676.565	0.0164907
676.643	0.0164265
676.721	0.0163024
676.799	0.0163716
676.878	0.0163535
676.956	0.0162587
677.034	0.0162288
677.112	0.0161729
677.190	0.0162743
677.268	0.0163795
677.346	0.0163575
677.424	0.0163603
677.503	0.0163885
677.581	0.0164152
677.659	0.0164129
677.737	0.0164686
677.815	0.0164309
677.893	0.0163683
677.971	0.0164185
678.049	0.0166486
678.128	0.0165395
678.206	0.0165427
678.284	0.0165916
678.362	0.0166177
678.440	0.0165824
678.518	0.0166970
678.596	0.0165195
678.674	0.0166090
678.753	0.0165834
678.831	0.0165054
678.909	0.0164664
678.987	0.0165597
679.065	0.0165635
679.143	0.0165503
679.221	0.0166405
679.299	0.0165273
679.378	0.0165464
679.456	0.0166320
679.534	0.0166459
679.612	0.0165503
679.690	0.0164881
679.768	0.0166141
679.846	0.0166093
679.924	0.0164709
680.003	0.0165566
680.081	0.0165354
680.159	0.0164588
680.237	0.0166187
680.315	0.0165793
680.393	0.0165232
680.471	0.0164906
680.549	0.0166999
680.628	0.0164410
680.706	0.0164374
680.784	0.0163799
680.862	0.0164817
680.940	0.0164720
681.018	0.0164605
681.096	0.0165224
681.174	0.0164825
681.253	0.0164835
681.331	0.0164644
681.409	0.0164565
681.487	0.0167075
681.565	0.0165800
681.643	0.0165701
681.721	0.0166720
681.799	0.0167265
681.878	0.0164425
681.956	0.0164990
682.034	0.0166642
682.112	0.0166671
682.190	0.0164297
682.268	0.0165430
682.346	0.0164651
682.424	0.0164745
682.503	0.0164352
682.581	0.0162846
682.659	0.0162598
682.737	0.0164146
682.815	0.0163350
682.893	0.0163275
682.971	0.0162405
683.049	0.0161884
683.128	0.0163036
683.206	0.0162531
683.284	0.0162128
683.362	0.0162560
683.440	0.0164674
683.518	0.0164048
683.596	0.0163426
683.674	0.0164768
683.753	0.0163442
683.831	0.0166329
683.909	0.0166338
683.987	0.0165311
684.065	0.0166473
684.143	0.0165347
684.221	0.0166303
684.299	0.0167876
684.378	0.0165324
684.456	0.0166183
684.534	0.0166666
684.612	0.0167995
684.690	0.0166005
684.768	0.0166138
684.846	0.0166537
684.924	0.0164958
685.003	0.0166152
685.081	0.0165557
685.159	0.0165279
685.237	0.0164012
685.315	0.0165433
685.393	0.0164531
685.471	0.0164215
685.549	0.0162616
685.628	0.0162380
685.706	0.0163663
685.784	0.0161679
685.862	0.0161349
685.940	0.0161222
686.018	0.0161777
686.096	0.0161790
686.174	0.0162669
686.253	0.0163566
686.331	0.0163940
686.409	0.0165917
686.487	0.0165148
686.565	0.0163875
686.643	0.0163520
686.721	0.0163913
686.799	0.0164768
686.878	0.0165903
686.956	0.0165345
687.034	0.0163888
687.112	0.0165134
687.190	0.0163659
687.268	0.0164515
687.346	0.0164909
687.424	0.0164690
687.503	0.0164383
687.581	0.0163033
687.659	0.0163477
687.737	0.0164409
687.815	0.0164211
687.893	0.0164414
687.971	0.0163782
688.049	0.0163988
688.128	0.0164508
688.206	0.0164573
688.284	0.0164701
688.362	0.0164648
688.440	0.0163489
688.518	0.0165271
688.596	0.0164430
688.674	0.0163651
688.753	0.0163824
688.831	0.0164492
688.909	0.0165529
688.987	0.0164411
689.065	0.0163381
689.143	0.0162302
689.221	0.0163103
689.299	0.0162036
689.378	0.0160508
689.456	0.0163088
689.534	0.0162933
689.612	0.0162791
689.690	0.0161452
689.768	0.0161441
689.846	0.0162334
689.924	0.0161767
690.003	0.0162508
690.081	0.0164075
690.159	0.0163571
690.237	0.0163303
690.315	0.0163445
690.393	0.0165215
690.471	0.0166068
690.549	0.0166928
690.628	0.0166186
690.706	0.0165637
690.784	0.0167505
690.862	0.0167867
690.940	0.0167351
691.018	0.0167015
691.096	0.0166363
691.174	0.0167516
691.253	0.0168007
691.331	0.0167084
691.409	0.0165587
691.487	0.0167195
691.565	0.0167368
691.643	0.0167239
691.721	0.0167564
691.799	0.0166451
691.878	0.0168378
691.956	0.0168666
692.034	0.0167547
692.112	0.0167088
692.190	0.0165832
692.268	0.0166011
692.346	0.0164635
692.424	0.0165720
692.503	0.0164030
692.581	0.0164201
692.659	0.0163132
692.737	0.0162313
692.815	0.0162249
692.893	0.0160949
692.971	0.0161510
693.049	0.0161101
693.128	0.0162417
693.206	0.0161134
693.284	0.0160981
693.362	0.0162955
693.440	0.0162189
693.518	0.0160278
693.596	0.0162238
693.674	0.0162245
693.753	0.0163574
693.831	0.0165278
693.909	0.0164022
693.987	0.0164503
694.065	0.0165414
694.143	0.0165742
694.221	0.0164451
694.299	0.0165112
694.378	0.0165450
694.456	0.0164873
694.534	0.0165834
694.612	0.0165460
694.690	0.0164536
694.768	0.0165110
694.846	0.0164552
694.924	0.0163994
695.003	0.0163718
695.081	0.0164614
695.159	0.0162824
695.237	0.0163906
695.315	0.0164515
695.393	0.0163058
695.471	0.0163616
695.549	0.0164855
695.628	0.0163610
695.706	0.0162510
695.784	0.0164569
695.862	0.0166259
695.940	0.0166860
696.018	0.0166169
696.096	0.0166499
696.174	0.0166840
696.253	0.0166663
696.331	0.0168282
696.409	0.0167126
696.487	0.0169328
696.565	0.0169527
696.643	0.0169552
696.721	0.0167059
696.799	0.0167484
696.878	0.0166219
696.956	0.0168087
697.034	0.0167471
697.112	0.0166023
697.190	0.0166959
697.268	0.0165920
697.346	0.0165353
697.424	0.0166297
697.503	0.0166339
697.581	0.0161765
697.659	0.0164596
697.737	0.0165340
697.815	0.0163487
697.893	0.0164102
697.971	0.0163239
698.049	0.0164301
698.128	0.0165408
698.206	0.0165378
698.284	0.0163776
698.362	0.0165017
698.440	0.0165068
698.518	0.0163833
698.596	0.0163090
698.674	0.0164142
698.753	0.0162329
698.831	0.0162847
698.909	0.0162702
698.987	0.0160835
699.065	0.0161987
699.143	0.0163215
699.221	0.0162622
699.299	0.0161721
699.378	0.0162617
699.456	0.0162840
699.534	0.0163429
699.612	0.0163375
699.690	0.0163861
699.768	0.0163396
699.846	0.0163385
699.924	0.0163655
700.003	0.0164654
700.081	0.0164433
700.159	0.0163288
700.237	0.0164696
700.315	0.0165108
700.393	0.0165708
700.471	0.0164993
700.549	0.0166087
700.628	0.0164858
700.706	0.0165405
700.784	0.0166318
700.862	0.0166756
700.940	0.0165774
701.018	0.0166154
701.096	0.0166393
701.174	0.0166097
701.253	0.0166615
701.331	0.0166683
701.409	0.0166764
701.487	0.0166803
701.565	0.0166315
701.643	0.0164818
701.721	0.0166616
701.799	0.0166181
701.878	0.0164668
701.956	0.0166737
702.034	0.0165453
702.112	0.0166509
702.190	0.0165286
702.268	0.0165706
702.346	0.0165359
702.424	0.0164492
702.503	0.0163369
702.581	0.0164591
702.659	0.0163295
702.737	0.0165601
702.815	0.0165767
702.893	0.0163445
702.971	0.0165289
703.049	0.0163806
703.128	0.0164053
703.206	0.0165187
703.284	0.0163348
703.362	0.0163043
703.440	0.0166030
703.518	0.0165118
703.596	0.0164661
703.674	0.0164686
703.753	0.0164841
703.831	0.0163342
703.909	0.0163590
703.987	0.0162764
704.065	0.0163074
704.143	0.0163379
704.221	0.0162398
704.299	0.0162347
704.378	0.0162856
704.456	0.0163408
704.534	0.0164099
704.612	0.0163044
704.690	0.0163651
704.768	0.0163463
704.846	0.0165507
704.924	0.0164886
705.003	0.0164724
705.081	0.0166219
705.159	0.0165820
705.237	0.0166193
705.315	0.0167991
705.393	0.0167416
705.471	0.0167225
705.549	0.0166759
705.628	0.0168063
705.706	0.0166640
705.784	0.0166325
705.862	0.0165826
705.940	0.0163961
706.018	0.0165828
706.096	0.0165385
706.174	0.0163605
706.253	0.0164137
706.331	0.0164272
706.409	0.0163544
706.487	0.0162101
706.565	0.0161289
706.643	0.0162135
706.721	0.0163399
706.799	0.0162822
706.878	0.0161166
706.956	0.0163004
707.034	0.0161488
707.112	0.0162373
707.190	0.0162605
707.268	0.0162360
707.346	0.0163097
707.424	0.0164252
707.503	0.0164336
707.581	0.0163693
707.659	0.0163820
707.737	0.0164706
707.815	0.0164943
707.893	0.0165941
707.971	0.0165434
708.049	0.0165350
708.128	0.0165727
708.206	0.0165011
708.284	0.0166013
708.362	0.0164698
708.440	0.0164738
708.518	0.0166270
708.596	0.0166495
708.674	0.0166445
708.753	0.0165184
708.831	0.0166451
708.909	0.0165974
708.987	0.0166109
709.065	0.0167554
709.143	0.0167029
709.221	0.0167010
709.299	0.0168217
709.378	0.0168935
709.456	0.0168434
709.534	0.0167907
709.612	0.0168714
709.690	0.0166960
709.768	0.0167461
709.846	0.0166624
709.924	0.0166544
710.003	0.0167275
710.081	0.0166830
710.159	0.0164544
710.237	0.0165871
710.315	0.0165114
710.393	0.0163683
710.471	0.0164635
710.549	0.0163303
710.628	0.0163063
710.706	0.0163292
710.784	0.0164303
710.862	0.0163740
710.940	0.0163837
711.018	0.0165163
711.096	0.0163314
711.174	0.0163060
711.253	0.0165564
711.331	0.0165155
711.409	0.0165186
711.487	0.0164761
711.565	0.0163400
711.643	0.0166741
711.721	0.0164850
711.799	0.0166796
711.878	0.0164470
711.956	0.0165363
712.034	0.0165643
712.112	0.0164516
712.190	0.0166188
712.268	0.0165289
712.346	0.0162714
712.424	0.0163585
712.503	0.0166470
712.581	0.0164087
712.659	0.0163721
712.737	0.0164472
712.815	0.0165896
712.893	0.0165255
712.971	0.0166557
713.049	0.0164368
713.128	0.0165025
713.206	0.0165728
713.284	0.0165415
713.362	0.0165688
713.440	0.0166836
713.518	0.0166334
713.596	0.0167104
713.674	0.0168307
713.753	0.0166445
713.831	0.0166656
713.909	0.0167516
713.987	0.0166380
714.065	0.0166826
714.143	0.0166233
714.221	0.0166625
714.299	0.0166879
714.378	0.0165302
714.456	0.0165059
714.534	0.0166785
714.612	0.0164871
714.690	0.0164198
714.768	0.0166283
714.846	0.0165417
714.924	0.0164678
715.003	0.0165974
715.081	0.0166175
715.159	0.0164198
715.237	0.0165001
715.315	0.0164803
715.393	0.0165025
715.471	0.0165017
715.549	0.0163948
715.628	0.0165952
715.706	0.0165292
715.784	0.0164616
715.862	0.0164604
715.940	0.0164880
716.018	0.0164717
716.096	0.0164380
716.174	0.0164320
716.253	0.0162836
716.331	0.0165179
716.409	0.0164944
716.487	0.0164268
716.565	0.0163838
716.643	0.0162863
716.721	0.0163776
716.799	0.0164188
716.878	0.0165006
716.956	0.0164888
717.034	0.0162663
717.112	0.0163232
717.190	0.0162728
717.268	0.0163577
717.346	0.0164097
717.424	0.0165154
717.503	0.0163641
717.581	0.0164749
717.659	0.0165204
717.737	0.0164810
717.815	0.0163827
717.893	0.0164100
717.971	0.0166013
718.049	0.0164072
718.128	0.0164341
718.206	0.0165940
718.284	0.0166071
718.362	0.0167737
718.440	0.0165729
718.518	0.0164309
718.596	0.0165259
718.674	0.0166527
718.753	0.0165516
718.831	0.0166071
718.909	0.0164792
718.987	0.0165016
719.065	0.0165067
719.143	0.0165529
719.221	0.0165198
719.299	0.0165784
719.378	0.0166508
719.456	0.0167014
719.534	0.0165779
719.612	0.0165730
719.690	0.0165401
719.768	0.0165857
719.846	0.0167101
719.924	0.0165460
720.003	0.0165400
720.081	0.0166349
720.159	0.0164667
720.237	0.0164748
720.315	0.0165141
720.393	0.0165119
720.471	0.0165759
720.549	0.0166244
720.628	0.0164679
720.706	0.0166470
720.784	0.0165997
720.862	0.0164577
720.940	0.0165462
721.018	0.0165302
721.096	0.0165273
721.174	0.0164891
721.253	0.0163593
721.331	0.0164140
721.409	0.0164248
721.487	0.0164799
721.565	0.0164595
721.643	0.0163261
721.721	0.0164264
721.799	0.0165422
721.878	0.0165382
721.956	0.0164639
722.034	0.0163580
722.112	0.0163199
722.190	0.0163388
722.268	0.0163019
722.346	0.0162196
722.424	0.0163995
722.503	0.0162749
722.581	0.0163464
722.659	0.0163362
722.737	0.0162500
722.815	0.0162952
722.893	0.0162845
722.971	0.0163706
723.049	0.0163216
723.128	0.0163280
723.206	0.0164502
723.284	0.0163914
723.362	0.0164460
723.440	0.0165263
723.518	0.0164420
723.596	0.0162949
723.674	0.0164419
723.753	0.0164804
723.831	0.0164066
723.909	0.0164270
723.987	0.0164379
724.065	0.0164528
724.143	0.0163462
724.221	0.0163656
724.299	0.0164339
724.378	0.0163408
724.456	0.0164166
724.534	0.0162969
724.612	0.0163503
724.690	0.0164580
724.768	0.0164124
724.846	0.0163413
724.924	0.0163721
725.003	0.0164278
725.081	0.0164960
725.159	0.0164054
725.237	0.0165465
725.315	0.0166180
725.393	0.0166427
725.471	0.0164771
725.549	0.0166433
725.628	0.0164516
725.706	0.0165824
725.784	0.0165881
725.862	0.0165539
725.940	0.0165823
726.018	0.0166839
726.096	0.0166368
726.174	0.0164442
726.253	0.0165762
726.331	0.0165177
726.409	0.0165524
726.487	0.0166195
726.565	0.0164984
726.643	0.0166747
726.721	0.0165530
726.799	0.0166450
726.878	0.0164654
726.956	0.0164768
727.034	0.0165320
727.112	0.0165321
727.190	0.0165371
727.268	0.0165674
727.346	0.0165272
727.424	0.0164287
727.503	0.0165146
727.581	0.0164729
727.659	0.0164831
727.737	0.0164773
727.815	0.0164790
727.893	0.0164565
727.971	0.0164250
728.049	0.0165935
728.128	0.0165866
728.206	0.0164085
728.284	0.0163895
728.362	0.0165606
728.440	0.0163755
728.518	0.0164616
728.596	0.0163406
728.674	0.0163840
728.753	0.0164511
728.831	0.0163369
728.909	0.0162937
728.987	0.0163750
729.065	0.0164070
729.143	0.0165179
729.221	0.0164844
729.299	0.0163722
729.378	0.0164143
729.456	0.0165527
729.534	0.0166570
729.612	0.0164630
729.690	0.0164736
729.768	0.0163831
729.846	0.0164867
729.924	0.0165504
730.003	0.0164852
730.081	0.0165775
730.159	0.0164287
730.237	0.0163513
730.315	0.0163174
730.393	0.0163831
730.471	0.0163466
730.549	0.0163970
730.628	0.0164147
730.706	0.0163863
730.784	0.0162798
730.862	0.0162046
730.940	0.0164485
731.018	0.0163924
731.096	0.0164663
731.174	0.0164481
731.253	0.0165774
731.331	0.0164270
731.409	0.0162965
731.487	0.0162762
731.565	0.0163871
731.643	0.0163084
731.721	0.0165885
731.799	0.0164272
731.878	0.0164268
731.956	0.0165231
732.034	0.0164154
732.112	0.0164877
732.190	0.0164782
732.268	0.0164481
732.346	0.0164624
732.424	0.0165238
732.503	0.0167115
732.581	0.0165583
732.659	0.0165914
732.737	0.0166432
732.815	0.0165231
732.893	0.0164902
732.971	0.0166171
733.049	0.0165642
733.128	0.0167153
733.206	0.0167376
733.284	0.0166298
733.362	0.0167134
733.440	0.0167980
733.518	0.0167751
733.596	0.0167368
733.674	0.0167066
733.753	0.0167008
733.831	0.0167536
733.909	0.0164729
733.987	0.0166671
734.065	0.0166882
734.143	0.0167577
734.221	0.0165414
734.299	0.0164436
734.378	0.0164785
734.456	0.0166110
734.534	0.0164318
734.612	0.0163632
734.690	0.0162325
734.768	0.0164085
734.846	0.0164510
734.924	0.0165086
735.003	0.0164210
735.081	0.0164067
735.159	0.0165862
735.237	0.0164880
735.315	0.0163002
735.393	0.0163242
735.471	0.0164751
735.549	0.0165830
735.628	0.0162460
735.706	0.0165307
735.784	0.0164546
735.862	0.0164754
735.940	0.0165530
736.018	0.0165997
736.096	0.0164426
736.174	0.0163776
736.253	0.0164432
736.331	0.0162725
736.409	0.0162939
736.487	0.0165195
736.565	0.0164499
736.643	0.0164572
736.721	0.0164969
736.799	0.0164207
736.878	0.0164442
736.956	0.0165287
737.034	0.0164255
737.112	0.0163582
737.190	0.0164417
737.268	0.0166166
737.346	0.0164429
737.424	0.0163879
737.503	0.0164050
737.581	0.0163933
737.659	0.0164856
737.737	0.0164169
737.815	0.0163239
737.893	0.0162787
737.971	0.0164159
738.049	0.0163010
738.128	0.0162158
738.206	0.0163818
738.284	0.0165102
738.362	0.0163667
738.440	0.0165015
738.518	0.0164977
738.596	0.0163097
738.674	0.0164316
738.753	0.0165322
738.831	0.0164829
738.909	0.0165449
738.987	0.0164874
739.065	0.0164071
739.143	0.0165742
739.221	0.0165111
739.299	0.0164616
739.378	0.0164722
739.456	0.0164722
739.534	0.0163207
739.612	0.0163475
739.690	0.0166020
739.768	0.0164523
739.846	0.0165987
739.924	0.0164623
740.003	0.0167210
740.081	0.0167618
740.159	0.0166539
740.237	0.0166951
740.315	0.0167516
740.393	0.0167719
740.471	0.0166280
740.549	0.0166054
740.628	0.0165914
740.706	0.0167123
740.784	0.0166407
740.862	0.0166778
740.940	0.0167505
741.018	0.0165985
741.096	0.0165650
741.174	0.0167358
741.253	0.0167483
741.331	0.0166946
741.409	0.0166963
741.487	0.0167559
741.565	0.0167362
741.643	0.0165304
741.721	0.0166801
741.799	0.0166433
741.878	0.0167090
741.956	0.0167042
742.034	0.0167444
742.112	0.0166174
742.190	0.0165738
742.268	0.0166064
742.346	0.0166284
742.424	0.0166272
742.503	0.0165547
742.581	0.0166466
742.659	0.0164629
742.737	0.0165426
742.815	0.0164311
742.893	0.0164370
742.971	0.0165496
743.049	0.0164999
743.128	0.0162945
743.206	0.0163874
743.284	0.0166735
743.362	0.0163784
743.440	0.0164276
743.518	0.0162784
743.596	0.0164833
743.674	0.0164491
743.753	0.0163669
743.831	0.0164631
743.909	0.0165181
743.987	0.0163752
744.065	0.0163536
744.143	0.0162799
744.221	0.0163439
744.299	0.0163551
744.378	0.0163129
744.456	0.0163068
744.534	0.0163335
744.612	0.0162746
744.690	0.0162738
744.768	0.0164303
744.846	0.0163574
744.924	0.0163036
745.003	0.0162754
745.081	0.0163472
745.159	0.0162656
745.237	0.0163427
745.315	0.0163161
745.393	0.0162991
745.471	0.0163760
745.549	0.0164339
745.628	0.0163456
745.706	0.0163746
745.784	0.0164225
745.862	0.0164447
745.940	0.0164934
746.018	0.0164162
746.096	0.0165355
746.174	0.0163583
746.253	0.0163265
746.331	0.0163821
746.409	0.0164380
746.487	0.0164120
746.565	0.0164017
746.643	0.0165650
746.721	0.0165883
746.799	0.0164449
746.878	0.0165759
746.956	0.0166621
747.034	0.0165815
747.112	0.0166048
747.190	0.0165012
747.268	0.0164530
747.346	0.0165948
747.424	0.0165978
747.503	0.0167278
747.581	0.0164512
747.659	0.0162986
747.737	0.0163831
747.815	0.0165600
747.893	0.0166874
747.971	0.0165226
748.049	0.0164774
748.128	0.0164509
748.206	0.0165185
748.284	0.0166484
748.362	0.0165936
748.440	0.0164365
748.518	0.0165767
748.596	0.0166101
748.674	0.0164777
748.753	0.0165511
748.831	0.0165701
748.909	0.0166151
748.987	0.0165205
749.065	0.0164084
749.143	0.0164597
749.221	0.0165797
749.299	0.0167094
749.378	0.0164442
749.456	0.0166235
749.534	0.0165370
749.612	0.0166438
749.690	0.0166456
749.768	0.0166444
749.846	0.0165624
749.924	0.0165839
750.003	0.0165952
750.081	0.0166069
750.159	0.0165891
750.237	0.0165905
750.315	0.0165480
750.393	0.0165749
750.471	0.0166112
750.549	0.0166550
750.628	0.0165654
750.706	0.0165438
750.784	0.0165612
750.862	0.0165702
750.940	0.0165071
751.018	0.0166136
751.096	0.0165038
751.174	0.0165057
751.253	0.0166335
751.331	0.0166795
751.409	0.0164951
751.487	0.0164747
751.565	0.0164995
751.643	0.0164680
751.721	0.0165140
751.799	0.0164648
751.878	0.0164035
751.956	0.0164573
752.034	0.0164735
752.112	0.0163000
752.190	0.0164298
752.268	0.0163631
752.346	0.0163165
752.424	0.0164323
752.503	0.0164642
752.581	0.0163554
752.659	0.0164217
752.737	0.0165324
752.815	0.0165393
752.893	0.0163311
752.971	0.0164507
753.049	0.0163883
753.128	0.0163454
753.206	0.0164108
753.284	0.0165012
753.362	0.0162904
753.440	0.0163763
753.518	0.0163206
753.596	0.0162903
753.674	0.0163405
753.753	0.0163879
753.831	0.0163188
753.909	0.0162463
753.987	0.0165463
754.065	0.0163711
754.143	0.0164249
754.221	0.0165099
754.299	0.0164251
754.378	0.0164472
754.456	0.0164780
754.534	0.0165632
754.612	0.0165112
754.690	0.0164979
754.768	0.0165537
754.846	0.0163850
754.924	0.0164046
755.003	0.0165759
755.081	0.0165517
755.159	0.0165842
755.237	0.0164579
755.315	0.0165171
755.393	0.0164444
755.471	0.0164925
755.549	0.0165376
755.628	0.0165154
755.706	0.0164420
755.784	0.0165944
755.862	0.0164703
755.940	0.0164076
756.018	0.0164928
756.096	0.0164261
756.174	0.0166459
756.253	0.0164323
756.331	0.0165975
756.409	0.0165476
756.487	0.0163972
756.565	0.0165807
756.643	0.0165201
756.721	0.0165498
756.799	0.0165712
756.878	0.0165360
756.956	0.0164713
757.034	0.0165975
757.112	0.0165423
757.190	0.0164836
757.268	0.0165837
757.346	0.0166020
757.424	0.0166856
757.503	0.0164919
757.581	0.0165642
757.659	0.0166412
757.737	0.0165520
757.815	0.0166151
757.893	0.0165927
757.971	0.0166109
758.049	0.0164478
758.128	0.0166148
758.206	0.0165994
758.284	0.0164804
758.362	0.0164687
758.440	0.0163239
758.518	0.0166553
758.596	0.0165115
758.674	0.0164453
758.753	0.0164352
758.831	0.0164949
758.909	0.0164416
758.987	0.0163369
759.065	0.0164672
759.143	0.0164898
759.221	0.0164351
759.299	0.0164761
759.378	0.0163765
759.456	0.0164436
759.534	0.0164877
759.612	0.0164149
759.690	0.0161625
759.768	0.0160995
759.846	0.0164089
759.924	0.0162747
760.003	0.0163806
760.081	0.0162648
760.159	0.0163078
760.237	0.0163187
760.315	0.0161710
760.393	0.0162802
760.471	0.0162127
760.549	0.0162766
760.628	0.0162251
760.706	0.0163242
760.784	0.0161953
760.862	0.0163707
760.940	0.0163451
761.018	0.0163389
761.096	0.0163357
761.174	0.0164230
761.253	0.0164300
761.331	0.0165278
761.409	0.0164169
761.487	0.0163236
761.565	0.0164722
761.643	0.0162912
761.721	0.0163807
761.799	0.0163849
761.878	0.0164808
761.956	0.0163544
762.034	0.0164663
762.112	0.0165304
762.190	0.0165061
762.268	0.0164882
762.346	0.0164081
762.424	0.0163581
762.503	0.0165217
762.581	0.0165739
762.659	0.0163885
762.737	0.0163630
762.815	0.0164099
762.893	0.0164177
762.971	0.0163936
763.049	0.0164560
763.128	0.0165508
763.206	0.0164926
763.284	0.0163963
763.362	0.0165487
763.440	0.0163903
763.518	0.0164622
763.596	0.0165116
763.674	0.0164911
763.753	0.0166221
763.831	0.0165008
763.909	0.0163794
763.987	0.0166138
764.065	0.0164599
764.143	0.0164513
764.221	0.0166756
764.299	0.0165945
764.378	0.0163902
764.456	0.0165945
764.534	0.0166644
764.612	0.0164735
764.690	0.0165913
764.768	0.0166524
764.846	0.0165112
764.924	0.0165141
765.003	0.0163812
765.081	0.0164874
765.159	0.0165829
765.237	0.0165855
765.315	0.0165044
765.393	0.0165943
765.471	0.0166106
765.549	0.0165240
765.628	0.0164941
765.706	0.0165939
765.784	0.0165340
765.862	0.0164228
765.940	0.0165231
766.018	0.0165863
766.096	0.0165499
766.174	0.0164069
766.253	0.0164631
766.331	0.0164841
766.409	0.0164948
766.487	0.0164909
766.565	0.0163647
766.643	0.0164594
766.721	0.0164841
766.799	0.0163386
766.878	0.0162655
766.956	0.0163109
767.034	0.0164820
767.112	0.0163926
767.190	0.0163514
767.268	0.0166114
767.346	0.0164281
767.424	0.0163031
767.503	0.0164661
767.581	0.0164778
767.659	0.0163783
767.737	0.0164431
767.815	0.0164151
767.893	0.0165026
767.971	0.0162313
768.049	0.0164813
768.128	0.0165100
768.206	0.0164787
768.284	0.0164581
768.362	0.0164568
768.440	0.0164730
768.518	0.0165377
768.596	0.0164579
768.674	0.0162477
768.753	0.0164376
768.831	0.0165195
768.909	0.0164072
768.987	0.0163764
769.065	0.0164906
769.143	0.0164066
769.221	0.0163955
769.299	0.0163921
769.378	0.0164149
769.456	0.0163765
769.534	0.0163252
769.612	0.0164548
769.690	0.0164842
769.768	0.0164324
769.846	0.0164151
769.924	0.0163909
770.003	0.0163996
770.081	0.0164127
770.159	0.0164816
770.237	0.0166064
770.315	0.0165160
770.393	0.0163302
770.471	0.0163455
770.549	0.0164425
770.628	0.0164181
770.706	0.0164375
770.784	0.0165807
770.862	0.0165179
770.940	0.0166235
771.018	0.0166390
771.096	0.0165910
771.174	0.0164803
771.253	0.0166714
771.331	0.0165574
771.409	0.0167000
771.487	0.0167350
771.565	0.0166351
771.643	0.0166011
771.721	0.0166460
771.799	0.0165886
771.878	0.0166019
771.956	0.0166466
772.034	0.0166375
772.112	0.0165185
772.190	0.0165392
772.268	0.0166118
772.346	0.0167013
772.424	0.0167040
772.503	0.0167451
772.581	0.0166728
772.659	0.0165894
772.737	0.0165006
772.815	0.0166103
772.893	0.0166759
772.971	0.0166363
773.049	0.0165115
773.128	0.0164770
773.206	0.0166671
773.284	0.0167364
773.362	0.0167067
773.440	0.0166680
773.518	0.0166164
773.596	0.0166134
773.674	0.0166415
773.753	0.0164882
773.831	0.0167286
773.909	0.0166249
773.987	0.0164137
774.065	0.0165123
774.143	0.0165250
774.221	0.0164641
774.299	0.0164999
774.378	0.0164214
774.456	0.0164638
774.534	0.0163783
774.612	0.0164016
774.690	0.0164636
774.768	0.0162486
774.846	0.0164124
774.924	0.0163593
775.003	0.0163961
775.081	0.0163087
775.159	0.0163391
775.237	0.0163921
775.315	0.0164197
775.393	0.0163493
775.471	0.0163880
775.549	0.0163737
775.628	0.0163000
775.706	0.0163744
775.784	0.0165389
775.862	0.0164173
775.940	0.0164400
776.018	0.0163725
776.096	0.0163744
776.174	0.0164296
776.253	0.0163723
776.331	0.0163406
776.409	0.0163735
776.487	0.0163398
776.565	0.0163380
776.643	0.0163830
776.721	0.0165814
776.799	0.0163745
776.878	0.0164738
776.956	0.0164594
777.034	0.0164808
777.112	0.0163783
777.190	0.0164524
777.268	0.0164729
777.346	0.0165697
777.424	0.0165082
777.503	0.0167180
777.581	0.0165736
777.659	0.0164575
777.737	0.0165527
777.815	0.0164414
777.893	0.0164046
777.971	0.0164461
778.049	0.0164706
778.128	0.0164494
778.206	0.0164622
778.284	0.0164417
778.362	0.0164438
778.440	0.0164416
778.518	0.0166196
778.596	0.0164256
778.674	0.0166458
778.753	0.0166016
778.831	0.0165417
778.909	0.0163933
778.987	0.0166177
779.065	0.0164661
779.143	0.0164494
779.221	0.0165410
779.299	0.0164875
779.378	0.0165513
779.456	0.0165575
779.534	0.0164903
779.612	0.0164734
779.690	0.0164967
779.768	0.0165806
779.846	0.0166067
779.924	0.0165081
780.003	0.0165475
780.081	0.0164424
780.159	0.0164939
780.237	0.0165149
780.315	0.0164412
780.393	0.0165436
780.471	0.0165845
780.549	0.0164946
780.628	0.0166007
780.706	0.0164526
780.784	0.0162547
780.862	0.0164370
780.940	0.0165261
781.018	0.0163737
781.096	0.0162737
781.174	0.0163577
781.253	0.0163741
781.331	0.0164192
781.409	0.0164652
781.487	0.0164078
781.565	0.0163960
781.643	0.0164596
781.721	0.0163704
781.799	0.0163410
781.878	0.0164085
781.956	0.0164095
782.034	0.0162027
782.112	0.0163681
782.190	0.0162634
782.268	0.0162352
782.346	0.0162114
782.424	0.0163006
782.503	0.0162311
782.581	0.0162700
782.659	0.0163443
782.737	0.0164068
782.815	0.0163155
782.893	0.0163107
782.971	0.0164644
783.049	0.0163441
783.128	0.0163798
783.206	0.0164615
783.284	0.0163371
783.362	0.0164197
783.440	0.0163704
783.518	0.0164129
783.596	0.0163667
783.674	0.0163596
783.753	0.0164584
783.831	0.0163887
783.909	0.0165065
783.987	0.0164736
784.065	0.0164639
784.143	0.0163749
784.221	0.0163206
784.299	0.0164750
784.378	0.0165473
784.456	0.0165000
784.534	0.0164189
784.612	0.0163349
784.690	0.0164033
784.768	0.0164064
784.846	0.0164134
784.924	0.0164055
785.003	0.0163599
785.081	0.0164850
785.159	0.0165248
785.237	0.0164394
785.315	0.0164120
785.393	0.0165235
785.471	0.0165163
785.549	0.0165612
785.628	0.0163522
785.706	0.0165314
785.784	0.0164882
785.862	0.0164391
785.940	0.0162550
786.018	0.0164287
786.096	0.0164903
786.174	0.0165504
786.253	0.0164332
786.331	0.0164864
786.409	0.0163669
786.487	0.0164294
786.565	0.0165809
786.643	0.0163694
786.721	0.0163229
786.799	0.0164289
786.878	0.0165951
786.956	0.0164796
787.034	0.0163502
787.112	0.0163066
787.190	0.0164173
787.268	0.0163696
787.346	0.0164299
787.424	0.0163563
787.503	0.0163180
787.581	0.0164587
787.659	0.0164612
787.737	0.0164395
787.815	0.0164283
787.893	0.0163254
787.971	0.0162761
788.049	0.0164381
788.128	0.0163779
788.206	0.0164570
788.284	0.0164470
788.362	0.0164613
788.440	0.0164535
788.518	0.0162639
788.596	0.0163750
788.674	0.0165218
788.753	0.0164667
788.831	0.0165498
788.909	0.0164549
788.987	0.0165182
789.065	0.0165212
789.143	0.0163876
789.221	0.0163902
789.299	0.0163631
789.378	0.0163952
789.456	0.0164095
789.534	0.0165282
789.612	0.0164822
789.690	0.0163934
789.768	0.0163655
789.846	0.0164133
789.924	0.0164070
790.003	0.0164148
790.081	0.0164471
790.159	0.0164458
790.237	0.0164450
790.315	0.0163432
790.393	0.0163911
790.471	0.0166372
790.549	0.0164666
790.628	0.0165352
790.706	0.0165318
790.784	0.0164751
790.862	0.0164856
790.940	0.0166077
791.018	0.0166741
791.096	0.0166582
791.174	0.0165240
791.253	0.0165814
791.331	0.0166052
791.409	0.0166796
791.487	0.0167236
791.565	0.0165522
791.643	0.0167838
791.721	0.0167356
791.799	0.0166715
791.878	0.0166192
791.956	0.0166025
792.034	0.0166348
792.112	0.0166557
792.190	0.0167078
792.268	0.0167134
792.346	0.0166158
792.424	0.0167452
792.503	0.0166995
792.581	0.0167698
792.659	0.0167165
792.737	0.0166270
792.815	0.0166320
792.893	0.0165794
792.971	0.0166238
793.049	0.0165665
793.128	0.0164552
793.206	0.0166412
793.284	0.0166259
793.362	0.0165674
793.440	0.0165874
793.518	0.0165652
793.596	0.0165394
793.674	0.0163295
793.753	0.0165951
793.831	0.0164576
793.909	0.0165871
793.987	0.0164727
794.065	0.0165101
794.143	0.0164688
794.221	0.0163039
794.299	0.0163162
794.378	0.0165130
794.456	0.0164063
794.534	0.0163845
794.612	0.0164298
794.690	0.0165444
794.768	0.0164665
794.846	0.0163931
794.924	0.0165069
795.003	0.0164080
795.081	0.0162543
795.159	0.0165046
795.237	0.0165161
795.315	0.0164001
795.393	0.0163419
795.471	0.0164017
795.549	0.0164958
795.628	0.0164398
795.706	0.0164659
795.784	0.0165109
795.862	0.0164542
795.940	0.0164252
796.018	0.0163341
796.096	0.0164759
796.174	0.0165215
796.253	0.0165852
796.331	0.0165923
796.409	0.0164813
796.487	0.0165208
796.565	0.0165084
796.643	0.0165974
796.721	0.0166467
796.799	0.0165944
796.878	0.0166187
796.956	0.0164661
797.034	0.0165633
797.112	0.0167233
797.190	0.0166518
797.268	0.0167061
797.346	0.0165677
797.424	0.0166374
797.503	0.0164460
797.581	0.0165740
797.659	0.0166048
797.737	0.0166322
797.815	0.0166959
797.893	0.0167523
797.971	0.0166559
798.049	0.0166713
798.128	0.0167361
798.206	0.0166203
798.284	0.0165094
798.362	0.0166141
798.440	0.0165788
798.518	0.0166354
798.596	0.0165339
798.674	0.0166043
798.753	0.0165865
798.831	0.0165714
798.909	0.0165849
798.987	0.0165609
799.065	0.0165504
799.143	0.0165635
799.221	0.0165725
799.299	0.0165355
799.378	0.0165623
799.456	0.0164137
799.534	0.0164886
799.612	0.0164591
799.690	0.0164229
799.768	0.0165802
799.846	0.0163598
799.924	0.0164152
800.003	0.0163322
800.081	0.0164243
800.159	0.0164973
800.237	0.0165041
800.315	0.0163493
800.393	0.0163895
800.471	0.0164351
800.549	0.0163387
800.628	0.0162704
800.706	0.0163557
800.784	0.0163364
800.862	0.0164391
800.940	0.0162444
801.018	0.0162706
801.096	0.0163020
801.174	0.0163430
801.253	0.0163677
801.331	0.0162933
801.409	0.0162303
801.487	0.0164417
801.565	0.0164439
801.643	0.0164050
801.721	0.0163125
801.799	0.0164392
801.878	0.0164120
801.956	0.0164395
802.034	0.0163569
802.112	0.0163330
802.190	0.0164439
802.268	0.0162400
802.346	0.0163837
802.424	0.0164213
802.503	0.0163994
802.581	0.0164974
802.659	0.0164368
802.737	0.0163982
802.815	0.0164729
802.893	0.0165390
802.971	0.0164273
803.049	0.0165125
803.128	0.0165636
803.206	0.0165815
803.284	0.0165263
803.362	0.0165816
803.440	0.0164269
803.518	0.0163802
803.596	0.0164024
803.674	0.0165579
803.753	0.0165253
803.831	0.0164354
803.909	0.0163797
803.987	0.0164394
804.065	0.0165926
804.143	0.0164565
804.221	0.0164111
804.299	0.0164684
804.378	0.0165101
804.456	0.0164455
804.534	0.0165014
804.612	0.0165501
804.690	0.0165421
804.768	0.0166304
804.846	0.0164864
804.924	0.0163747
805.003	0.0166171
805.081	0.0165915
805.159	0.0165672
805.237	0.0165256
805.315	0.0165248
805.393	0.0166144
805.471	0.0165454
805.549	0.0166129
805.628	0.0164768
805.706	0.0165633
805.784	0.0165792
805.862	0.0165765
805.940	0.0165804
806.018	0.0165202
806.096	0.0165503
806.174	0.0165782
806.253	0.0165086
806.331	0.0165407
806.409	0.0164898
806.487	0.0164924
806.565	0.0164808
806.643	0.0164027
806.721	0.0163648
806.799	0.0164371
806.878	0.0164082
806.956	0.0164552
807.034	0.0164284
807.112	0.0163417
807.190	0.0164792
807.268	0.0165434
807.346	0.0166074
807.424	0.0165243
807.503	0.0162665
807.581	0.0165090
807.659	0.0164637
807.737	0.0164045
807.815	0.0165547
807.893	0.0163809
807.971	0.0165121
808.049	0.0165054
808.128	0.0164526
808.206	0.0164311
808.284	0.0163921
808.362	0.0162906
808.440	0.0164116
808.518	0.0164601
808.596	0.0164400
808.674	0.0163382
808.753	0.0164067
808.831	0.0164369
808.909	0.0163933
808.987	0.0163116
809.065	0.0163814
809.143	0.0165298
809.221	0.0163099
809.299	0.0163779
809.378	0.0162943
809.456	0.0164480
809.534	0.0163786
809.612	0.0163705
809.690	0.0162580
809.768	0.0163667
809.846	0.0164343
809.924	0.0164503
810.003	0.0164011
810.081	0.0163643
810.159	0.0163924
810.237	0.0165361
810.315	0.0164004
810.393	0.0165640
810.471	0.0164572
810.549	0.0163988
810.628	0.0164108
810.706	0.0164702
810.784	0.0164397
810.862	0.0164829
810.940	0.0166072
811.018	0.0165742
811.096	0.0165858
811.174	0.0166208
811.253	0.0164597
811.331	0.0165334
811.409	0.0165366
811.487	0.0166078
811.565	0.0165802
811.643	0.0164631
811.721	0.0164472
811.799	0.0164626
811.878	0.0166248
811.956	0.0166103
812.034	0.0165277
812.112	0.0165934
812.190	0.0165275
812.268	0.0166611
812.346	0.0166611
812.424	0.0166200
812.503	0.0166446
812.581	0.0165613
812.659	0.0166241
812.737	0.0168065
812.815	0.0166489
812.893	0.0166759
812.971	0.0166633
813.049	0.0165708
813.128	0.0166579
813.206	0.0167519
813.284	0.0165662
813.362	0.0165481
813.440	0.0167931
813.518	0.0165050
813.596	0.0166238
813.674	0.0165879
813.753	0.0167240
813.831	0.0166926
813.909	0.0164732
813.987	0.0165166
814.065	0.0165839
814.143	0.0165672
814.221	0.0165227
814.299	0.0165432
814.378	0.0164472
814.456	0.0166174
814.534	0.0165868
814.612	0.0166033
814.690	0.0165987
814.768	0.0164390
814.846	0.0167867
814.924	0.0166207
815.003	0.0166031
815.081	0.0165707
815.159	0.0167182
815.237	0.0166183
815.315	0.0165701
815.393	0.0166370
815.471	0.0166725
815.549	0.0166357
815.628	0.0165234
815.706	0.0167197
815.784	0.0166669
815.862	0.0165054
815.940	0.0165546
816.018	0.0163896
816.096	0.0165300
816.174	0.0166176
816.253	0.0164684
816.331	0.0166402
816.409	0.0164291
816.487	0.0164838
816.565	0.0165032
816.643	0.0165308
816.721	0.0163818
816.799	0.0164696
816.878	0.0165128
816.956	0.0165755
817.034	0.0164219
817.112	0.0165026
817.190	0.0164626
817.268	0.0165182
817.346	0.0165678
817.424	0.0165411
817.503	0.0164683
817.581	0.0164532
817.659	0.0163591
817.737	0.0164561
817.815	0.0164542
817.893	0.0164708
817.971	0.0164198
818.049	0.0164110
818.128	0.0163787
818.206	0.0164520
818.284	0.0164228
818.362	0.0165377
818.440	0.0164642
818.518	0.0165341
818.596	0.0163431
818.674	0.0164707
818.753	0.0165389
818.831	0.0164456
818.909	0.0164175
818.987	0.0164465
819.065	0.0166169
819.143	0.0164230
819.221	0.0164475
819.299	0.0165987
819.378	0.0164212
819.456	0.0165108
819.534	0.0165057
819.612	0.0165797
819.690	0.0164729
819.768	0.0165279
819.846	0.0165210
819.924	0.0166086
820.003	0.0166056
820.081	0.0166329
820.159	0.0164281
820.237	0.0165733
820.315	0.0166964
820.393	0.0166000
820.471	0.0165602
820.549	0.0164359
820.628	0.0166380
820.706	0.0165975
820.784	0.0166298
820.862	0.0165737
820.940	0.0165431
821.018	0.0165158
821.096	0.0166360
821.174	0.0165733
821.253	0.0165150
821.331	0.0167017
821.409	0.0166128
821.487	0.0166811
821.565	0.0165086
821.643	0.0166331
821.721	0.0165607
821.799	0.0166740
821.878	0.0164153
821.956	0.0166366
822.034	0.0167860
822.112	0.0165794
822.190	0.0165627
822.268	0.0165254
822.346	0.0166688
822.424	0.0166167
822.503	0.0163914
822.581	0.0164933
822.659	0.0165401
822.737	0.0166172
822.815	0.0164803
822.893	0.0163858
822.971	0.0164047
823.049	0.0164206
823.128	0.0163876
823.206	0.0165662
823.284	0.0164216
823.362	0.0164007
823.440	0.0164951
823.518	0.0163992
823.596	0.0164061
823.674	0.0163762
823.753	0.0163673
823.831	0.0163801
823.909	0.0164458
823.987	0.0163845
824.065	0.0164217
824.143	0.0164165
824.221	0.0163684
824.299	0.0163811
824.378	0.0162233
824.456	0.0163312
824.534	0.0162324
824.612	0.0163069
824.690	0.0163697
824.768	0.0163878
824.846	0.0162624
824.924	0.0163799
825.003	0.0163204
825.081	0.0162543
825.159	0.0165293
825.237	0.0163983
825.315	0.0162825
825.393	0.0163395
825.471	0.0162434
825.549	0.0162421
825.628	0.0163518
825.706	0.0163004
825.784	0.0162157
825.862	0.0162648
825.940	0.0163265
826.018	0.0163031
826.096	0.0163023
826.174	0.0163486
826.253	0.0162187
826.331	0.0163272
826.409	0.0163925
826.487	0.0164016
826.565	0.0164178
826.643	0.0164093
826.721	0.0164203
826.799	0.0164950
826.878	0.0163739
826.956	0.0163532
827.034	0.0164513
827.112	0.0164106
827.190	0.0165082
827.268	0.0164597
827.346	0.0163563
827.424	0.0165304
827.503	0.0166389
827.581	0.0163977
827.659	0.0164813
827.737	0.0165823
827.815	0.0164727
827.893	0.0164521
827.971	0.0165595
828.049	0.0165576
828.128	0.0165186
828.206	0.0165904
828.284	0.0165727
828.362	0.0164836
828.440	0.0165867
828.518	0.0164851
828.596	0.0164616
828.674	0.0166628
828.753	0.0165762
828.831	0.0165263
828.909	0.0165977
828.987	0.0165919
829.065	0.0166053
829.143	0.0164990
829.221	0.0166059
829.299	0.0166542
829.378	0.0165598
829.456	0.0166470
829.534	0.0164971
829.612	0.0166167
829.690	0.0165922
829.768	0.0166515
829.846	0.0163940
829.924	0.0164919
830.003	0.0164397
830.081	0.0165947
830.159	0.0166514
830.237	0.0165247
830.315	0.0166136
830.393	0.0165441
830.471	0.0165535
830.549	0.0164850
830.628	0.0165929
830.706	0.0164983
830.784	0.0164005
830.862	0.0164629
830.940	0.0164491
831.018	0.0164226
831.096	0.0163650
831.174	0.0162724
831.253	0.0164467
831.331	0.0163377
831.409	0.0163172
831.487	0.0164145
831.565	0.0163921
831.643	0.0164249
831.721	0.0163960
831.799	0.0162611
831.878	0.0163465
831.956	0.0163127
832.034	0.0163261
832.112	0.0162994
832.190	0.0161238
832.268	0.0161358
832.346	0.0163483
832.424	0.0162727
832.503	0.0162894
832.581	0.0163132
832.659	0.0163689
832.737	0.0162945
832.815	0.0162562
832.893	0.0162953
832.971	0.0163113
833.049	0.0162437
833.128	0.0164915
833.206	0.0162916
833.284	0.0165459
833.362	0.0164645
833.440	0.0164085
833.518	0.0164330
833.596	0.0163905
833.674	0.0162947
833.753	0.0163585
833.831	0.0163912
833.909	0.0164789
833.987	0.0164035
834.065	0.0163636
834.143	0.0164552
834.221	0.0165032
834.299	0.0164921
834.378	0.0163511
834.456	0.0164648
834.534	0.0165694
834.612	0.0165431
834.690	0.0165088
834.768	0.0164320
834.846	0.0165102
834.924	0.0166475
835.003	0.0166047
835.081	0.0167769
835.159	0.0166299
835.237	0.0165794
835.315	0.0166754
835.393	0.0166801
835.471	0.0166433
835.549	0.0166916
835.628	0.0166662
835.706	0.0167137
835.784	0.0166309
835.862	0.0167938
835.940	0.0168040
836.018	0.0167568
836.096	0.0166515
836.174	0.0167632
836.253	0.0168245
836.331	0.0168347
836.409	0.0167987
836.487	0.0168271
836.565	0.0166181
836.643	0.0166682
836.721	0.0166532
836.799	0.0166741
836.878	0.0167767
836.956	0.0168410
837.034	0.0166580
837.112	0.0166335
837.190	0.0167422
837.268	0.0166288
837.346	0.0165522
837.424	0.0165996
837.503	0.0167036
837.581	0.0167262
837.659	0.0165456
837.737	0.0167162
837.815	0.0166913
837.893	0.0166537
837.971	0.0167572
838.049	0.0165551
838.128	0.0166593
838.206	0.0165511
838.284	0.0167345
838.362	0.0166295
838.440	0.0166262
838.518	0.0166628
838.596	0.0165530
838.674	0.0166432
838.753	0.0163819
838.831	0.0164214
838.909	0.0164462
838.987	0.0163973
839.065	0.0163941
839.143	0.0164439
839.221	0.0164252
839.299	0.0162891
839.378	0.0163435
839.456	0.0164240
839.534	0.0163542
839.612	0.0163607
839.690	0.0164568
839.768	0.0163213
839.846	0.0162749
839.924	0.0162521
840.003	0.0163528
840.081	0.0165156
840.159	0.0166516
840.237	0.0164681
840.315	0.0163396
840.393	0.0165663
840.471	0.0165434
840.549	0.0163363
840.628	0.0164816
840.706	0.0164143
840.784	0.0165916
840.862	0.0163013
840.940	0.0164251
841.018	0.0165041
841.096	0.0165490
841.174	0.0166393
841.253	0.0164373
841.331	0.0163916
841.409	0.0165009
841.487	0.0163963
841.565	0.0163911
841.643	0.0164207
841.721	0.0166084
841.799	0.0164783
841.878	0.0164785
841.956	0.0163728
842.034	0.0165287
842.112	0.0165046
842.190	0.0163976
842.268	0.0165530
842.346	0.0164851
842.424	0.0164099
842.503	0.0164067
842.581	0.0164292
842.659	0.0165097
842.737	0.0164733
842.815	0.0163126
842.893	0.0164407
842.971	0.0163130
843.049	0.0164715
843.128	0.0164947
843.206	0.0166612
843.284	0.0164315
843.362	0.0165085
843.440	0.0165715
843.518	0.0165737
843.596	0.0166162
843.674	0.0166422
843.753	0.0166238
843.831	0.0166296
843.909	0.0164733
843.987	0.0165288
844.065	0.0165226
844.143	0.0166040
844.221	0.0165868
844.299	0.0165405
844.378	0.0165493
844.456	0.0166354
844.534	0.0167552
844.612	0.0165302
844.690	0.0166200
844.768	0.0165513
844.846	0.0165103
844.924	0.0166994
845.003	0.0164796
845.081	0.0165727
845.159	0.0166412
845.237	0.0164664
845.315	0.0165516
845.393	0.0164847
845.471	0.0166280
845.549	0.0164484
845.628	0.0164180
845.706	0.0162989
845.784	0.0163728
845.862	0.0164188
845.940	0.0164502
846.018	0.0164054
846.096	0.0163187
846.174	0.0163822
846.253	0.0163628
846.331	0.0163622
846.409	0.0163837
846.487	0.0163851
846.565	0.0163898
846.643	0.0163927
846.721	0.0164264
846.799	0.0163314
846.878	0.0163601
846.956	0.0163670
847.034	0.0163266
847.112	0.0161755
847.190	0.0162402
847.268	0.0162679
847.346	0.0163856
847.424	0.0162510
847.503	0.0162189
847.581	0.0162994
847.659	0.0162334
847.737	0.0160327
847.815	0.0161433
847.893	0.0163438
847.971	0.0161353
848.049	0.0161928
848.128	0.0162191
848.206	0.0161893
848.284	0.0161579
848.362	0.0161054
848.440	0.0161438
848.518	0.0161118
848.596	0.0163494
848.674	0.0162890
848.753	0.0162994
848.831	0.0162738
848.909	0.0163176
848.987	0.0162625
849.065	0.0162784
849.143	0.0163145
849.221	0.0164091
849.299	0.0162018
849.378	0.0163446
849.456	0.0163042
849.534	0.0164191
849.612	0.0163333
849.690	0.0163280
849.768	0.0163460
849.846	0.0164814
849.924	0.0163840
850.003	0.0164555
850.081	0.0163231
850.159	0.0164516
850.237	0.0164857
850.315	0.0165241
850.393	0.0164807
850.471	0.0164713
850.549	0.0166199
850.628	0.0166118
850.706	0.0165643
850.784	0.0164970
850.862	0.0164719
850.940	0.0165774
851.018	0.0164877
851.096	0.0164730
851.174	0.0165155
851.253	0.0165671
851.331	0.0165385
851.409	0.0167680
851.487	0.0166786
851.565	0.0164960
851.643	0.0165324
851.721	0.0165511
851.799	0.0167719
851.878	0.0165628
851.956	0.0165406
852.034	0.0166472
852.112	0.0167833
852.190	0.0166190
852.268	0.0166634
852.346	0.0166978
852.424	0.0166029
852.503	0.0165419
852.581	0.0165257
852.659	0.0166901
852.737	0.0164786
852.815	0.0163235
852.893	0.0165094
852.971	0.0164835
853.049	0.0164622
853.128	0.0165044
853.206	0.0165633
853.284	0.0165551
853.362	0.0164127
853.440	0.0164943
853.518	0.0164629
853.596	0.0164289
853.674	0.0164603
853.753	0.0163737
853.831	0.0163374
853.909	0.0162854
853.987	0.0162096
854.065	0.0163828
854.143	0.0164153
854.221	0.0162782
854.299	0.0162736
854.378	0.0163346
854.456	0.0163224
854.534	0.0162972
854.612	0.0163908
854.690	0.0161613
854.768	0.0163499
854.846	0.0163353
854.924	0.0163564
855.003	0.0162844
855.081	0.0162543
855.159	0.0163854
855.237	0.0164050
855.315	0.0162569
855.393	0.0161570
855.471	0.0163033
855.549	0.0162959
855.628	0.0162780
855.706	0.0162727
855.784	0.0162418
855.862	0.0162755
855.940	0.0163120
856.018	0.0164133
856.096	0.0163234
856.174	0.0163995
856.253	0.0163845
856.331	0.0163840
856.409	0.0164336
856.487	0.0163936
856.565	0.0163364
856.643	0.0164549
856.721	0.0164462
856.799	0.0163959
856.878	0.0163572
856.956	0.0162141
857.034	0.0162711
857.112	0.0163226
857.190	0.0164570
857.268	0.0164085
857.346	0.0163875
857.424	0.0164176
857.503	0.0164441
857.581	0.0164499
857.659	0.0163527
857.737	0.0163932
857.815	0.0164870
857.893	0.0162078
857.971	0.0164624
858.049	0.0165989
858.128	0.0165099
858.206	0.0165642
858.284	0.0165221
858.362	0.0165031
858.440	0.0164522
858.518	0.0165006
858.596	0.0164349
858.674	0.0164965
858.753	0.0163497
858.831	0.0165639
858.909	0.0165129
858.987	0.0165522
859.065	0.0166037
859.143	0.0166080
859.221	0.0165604
859.299	0.0166567
859.378	0.0165747
859.456	0.0165877
859.534	0.0165466
859.612	0.0167407
859.690	0.0167413
859.768	0.0166587
859.846	0.0166182
859.924	0.0165711
860.003	0.0165659
860.081	0.0166759
860.159	0.0167911
860.237	0.0167486
860.315	0.0166271
860.393	0.0165974
860.471	0.0166272
860.549	0.0164236
860.628	0.0164429
860.706	0.0165875
860.784	0.0165090
860.862	0.0165079
860.940	0.0162861
861.018	0.0163960
861.096	0.0164193
861.174	0.0163662
861.253	0.0163660
861.331	0.0164231
861.409	0.0163663
861.487	0.0163796
861.565	0.0162012
861.643	0.0163402
861.721	0.0163618
861.799	0.0163584
861.878	0.0163912
861.956	0.0163100
862.034	0.0162617
862.112	0.0161530
862.190	0.0163628
862.268	0.0164440
862.346	0.0164229
862.424	0.0163791
862.503	0.0163852
862.581	0.0163065
862.659	0.0164812
862.737	0.0163682
862.815	0.0162975
862.893	0.0165461
862.971	0.0164711
863.049	0.0164558
863.128	0.0164990
863.206	0.0163264
863.284	0.0164170
863.362	0.0164043
863.440	0.0164568
863.518	0.0165503
863.596	0.0164502
863.674	0.0164677
863.753	0.0164787
863.831	0.0165125
863.909	0.0164159
863.987	0.0164547
864.065	0.0164376
864.143	0.0163694
864.221	0.0164030
864.299	0.0163937
864.378	0.0164859
864.456	0.0166838
864.534	0.0164126
864.612	0.0165527
864.690	0.0163748
864.768	0.0165880
864.846	0.0165433
864.924	0.0163877
865.003	0.0165804
865.081	0.0164333
865.159	0.0163998
865.237	0.0164337
865.315	0.0163911
865.393	0.0165366
865.471	0.0165051
865.549	0.0165277
865.628	0.0165404
865.706	0.0165625
865.784	0.0164657
865.862	0.0165730
865.940	0.0165456
866.018	0.0166556
866.096	0.0166805
866.174	0.0163905
866.253	0.0166791
866.331	0.0167083
866.409	0.0166398
866.487	0.0166019
866.565	0.0165578
866.643	0.0165061
866.721	0.0166628
866.799	0.0165865
866.878	0.0165871
866.956	0.0165657
867.034	0.0166074
867.112	0.0166612
867.190	0.0165965
867.268	0.0164674
867.346	0.0165396
867.424	0.0165309
867.503	0.0164994
867.581	0.0164687
867.659	0.0166312
867.737	0.0165599
867.815	0.0165193
867.893	0.0164812
867.971	0.0164517
868.049	0.0165417
868.128	0.0165825
868.206	0.0165726
868.284	0.0164304
868.362	0.0165786
868.440	0.0164639
868.518	0.0166329
868.596	0.0166241
868.674	0.0166261
868.753	0.0165104
868.831	0.0166300
868.909	0.0165373
868.987	0.0165797
869.065	0.0165216
869.143	0.0165172
869.221	0.0165674
869.299	0.0164027
869.378	0.0165826
869.456	0.0165363
869.534	0.0164030
869.612	0.0165427
869.690	0.0165323
869.768	0.0164972
869.846	0.0164962
869.924	0.0164751
870.003	0.0165071
870.081	0.0164468
870.159	0.0165222
870.237	0.0165597
870.315	0.0165195
870.393	0.0165285
870.471	0.0164725
870.549	0.0164357
870.628	0.0164662
870.706	0.0164941
870.784	0.0166167
870.862	0.0165493
870.940	0.0165137
871.018	0.0164165
871.096	0.0165807
871.174	0.0165721
871.253	0.0165498
871.331	0.0166013
871.409	0.0164024
871.487	0.0165623
871.565	0.0166319
871.643	0.0164665
871.721	0.0165572
871.799	0.0164063
871.878	0.0164879
871.956	0.0164841
872.034	0.0164592
872.112	0.0164516
872.190	0.0165903
872.268	0.0164515
872.346	0.0163890
872.424	0.0165514
872.503	0.0164108
872.581	0.0166128
872.659	0.0166440
872.737	0.0164572
872.815	0.0165857
872.893	0.0164676
872.971	0.0164534
873.049	0.0165539
873.128	0.0164641
873.206	0.0165298
873.284	0.0164819
873.362	0.0164537
873.440	0.0164337
873.518	0.0165459
873.596	0.0165411
873.674	0.0164715
873.753	0.0163609
873.831	0.0164548
873.909	0.0165242
873.987	0.0165066
874.065	0.0164890
874.143	0.0163835
874.221	0.0166202
874.299	0.0165419
874.378	0.0163410
874.456	0.0164909
874.534	0.0165204
874.612	0.0164384
874.690	0.0164363
874.768	0.0165089
874.846	0.0165007
874.924	0.0164103
875.003	0.0164918
875.081	0.0163786
875.159	0.0164768
875.237	0.0164857
875.315	0.0164175
875.393	0.0165186
875.471	0.0165526
875.549	0.0164629
875.628	0.0165059
875.706	0.0166289
875.784	0.0165875
875.862	0.0166093
875.940	0.0166702
876.018	0.0166111
876.096	0.0165364
876.174	0.0164568
876.253	0.0165228
876.331	0.0165994
876.409	0.0165285
876.487	0.0164635
876.565	0.0164882
876.643	0.0164862
876.721	0.0164231
876.799	0.0164360
876.878	0.0164368
876.956	0.0163739
877.034	0.0165400
877.112	0.0165878
877.190	0.0163560
877.268	0.0165816
877.346	0.0164983
877.424	0.0164249
877.503	0.0164065
877.581	0.0165088
877.659	0.0164129
877.737	0.0165154
877.815	0.0164397
877.893	0.0164880
877.971	0.0165142
878.049	0.0163857
878.128	0.0163713
878.206	0.0163840
878.284	0.0165569
878.362	0.0165247
878.440	0.0165295
878.518	0.0163239
878.596	0.0164538
878.674	0.0165063
878.753	0.0162526
878.831	0.0164368
878.909	0.0163284
878.987	0.0163076
879.065	0.0162477
879.143	0.0163894
879.221	0.0162513
879.299	0.0164772
879.378	0.0163826
879.456	0.0162563
879.534	0.0162697
879.612	0.0163269
879.690	0.0163484
879.768	0.0163115
879.846	0.0162843
879.924	0.0163581
880.003	0.0161822
880.081	0.0163528
880.159	0.0163454
880.237	0.0163361
880.315	0.0163953
880.393	0.0163139
880.471	0.0163084
880.549	0.0163664
880.628	0.0164134
880.706	0.0163103
880.784	0.0162536
880.862	0.0163927
880.940	0.0162421
881.018	0.0161189
881.096	0.0163039
881.174	0.0163362
881.253	0.0162715
881.331	0.0163396
881.409	0.0164333
881.487	0.0164433
881.565	0.0163699
881.643	0.0163395
881.721	0.0163959
881.799	0.0164463
881.878	0.0164534
881.956	0.0165849
882.034	0.0163378
882.112	0.0164091
882.190	0.0164705
882.268	0.0164592
882.346	0.0165547
882.424	0.0165372
882.503	0.0163087
882.581	0.0163301
882.659	0.0164421
882.737	0.0163757
882.815	0.0164046
882.893	0.0164219
882.971	0.0163903
883.049	0.0164367
883.128	0.0165064
883.206	0.0164859
883.284	0.0164120
883.362	0.0164806
883.440	0.0164535
883.518	0.0165507
883.596	0.0165250
883.674	0.0165617
883.753	0.0164664
883.831	0.0165820
883.909	0.0166576
883.987	0.0164813
884.065	0.0163763
884.143	0.0164787
884.221	0.0165184
884.299	0.0165668
884.378	0.0165199
884.456	0.0165585
884.534	0.0165461
884.612	0.0165893
884.690	0.0165746
884.768	0.0164663
884.846	0.0163247
884.924	0.0164539
885.003	0.0163515
885.081	0.0164697
885.159	0.0164798
885.237	0.0162784
885.315	0.0164071
885.393	0.0164914
885.471	0.0164629
885.549	0.0163473
885.628	0.0163834
885.706	0.0165059
885.784	0.0163755
885.862	0.0164339
885.940	0.0164960
886.018	0.0164735
886.096	0.0163541
886.174	0.0165440
886.253	0.0165409
886.331	0.0164269
886.409	0.0165186
886.487	0.0164951
886.565	0.0164612
886.643	0.0163660
886.721	0.0165029
886.799	0.0165723
886.878	0.0165912
886.956	0.0164132
887.034	0.0164690
887.112	0.0165583
887.190	0.0165047
887.268	0.0165345
887.346	0.0164867
887.424	0.0165479
887.503	0.0163622
887.581	0.0164439
887.659	0.0165589
887.737	0.0165948
887.815	0.0164130
887.893	0.0165194
887.971	0.0166997
888.049	0.0165432
888.128	0.0165901
888.206	0.0165424
888.284	0.0166540
888.362	0.0166799
888.440	0.0166062
888.518	0.0166498
888.596	0.0166467
888.674	0.0166979
888.753	0.0166387
888.831	0.0166460
888.909	0.0166779
888.987	0.0167500
889.065	0.0167331
889.143	0.0167059
889.221	0.0164796
889.299	0.0166343
889.378	0.0167281
889.456	0.0165923
889.534	0.0165037
889.612	0.0164989
889.690	0.0166761
889.768	0.0166012
889.846	0.0165918
889.924	0.0166263
890.003	0.0165823
890.081	0.0165244
890.159	0.0164213
890.237	0.0165957
890.315	0.0164743
890.393	0.0165515
890.471	0.0164394
890.549	0.0165195
890.628	0.0166145
890.706	0.0163524
890.784	0.0164051
890.862	0.0164496
890.940	0.0165342
891.018	0.0165698
891.096	0.0165393
891.174	0.0166037
891.253	0.0164975
891.331	0.0165575
891.409	0.0164574
891.487	0.0164784
891.565	0.0165215
891.643	0.0164461
891.721	0.0165117
891.799	0.0164666
891.878	0.0164545
891.956	0.0165887
892.034	0.0164696
892.112	0.0165178
892.190	0.0164735
892.268	0.0166848
892.346	0.0165247
892.424	0.0165580
892.503	0.0166209
892.581	0.0166351
892.659	0.0165782
892.737	0.0166129
892.815	0.0166859
892.893	0.0166298
892.971	0.0165838
893.049	0.0166383
893.128	0.0166406
893.206	0.0167220
893.284	0.0165179
893.362	0.0166398
893.440	0.0166087
893.518	0.0164796
893.596	0.0165294
893.674	0.0165023
893.753	0.0166067
893.831	0.0166164
893.909	0.0164052
893.987	0.0164857
894.065	0.0165603
894.143	0.0165284
894.221	0.0165299
894.299	0.0164988
894.378	0.0163737
894.456	0.0164751
894.534	0.0164968
894.612	0.0163741
894.690	0.0163573
894.768	0.0165554
894.846	0.0165717
894.924	0.0165398
895.003	0.0164930
895.081	0.0163046
895.159	0.0165826
895.237	0.0165834
895.315	0.0165382
895.393	0.0165929
895.471	0.0166392
895.549	0.0165586
895.628	0.0165060
895.706	0.0163735
895.784	0.0166280
895.862	0.0166971
895.940	0.0165281
896.018	0.0166201
896.096	0.0164989
896.174	0.0165127
896.253	0.0164993
896.331	0.0164319
896.409	0.0164474
896.487	0.0166267
896.565	0.0165990
896.643	0.0164817
896.721	0.0165019
896.799	0.0164948
896.878	0.0165598
896.956	0.0164673
897.034	0.0164239
897.112	0.0163859
897.190	0.0164747
897.268	0.0164478
897.346	0.0165388
897.424	0.0166111
897.503	0.0164630
897.581	0.0164642
897.659	0.0166065
897.737	0.0165089
897.815	0.0164136
897.893	0.0164639
897.971	0.0163137
898.049	0.0164637
898.128	0.0163654
898.206	0.0164552
898.284	0.0163940
898.362	0.0164686
898.440	0.0163355
898.518	0.0165158
898.596	0.0164059
898.674	0.0164814
898.753	0.0165647
898.831	0.0163911
898.909	0.0165234
898.987	0.0164392
899.065	0.0164799
899.143	0.0166887
899.221	0.0165916
899.299	0.0164436
899.378	0.0165598
899.456	0.0165544
899.534	0.0165341
899.612	0.0165811
899.690	0.0166269
899.768	0.0166908
899.846	0.0167237
899.924	0.0165791
900.003	0.0164229
900.081	0.0165462
900.159	0.0166471
900.237	0.0166112
900.315	0.0165482
900.393	0.0165257
900.471	0.0164810
900.549	0.0164115
900.628	0.0163422
900.706	0.0165644
900.784	0.0164240
900.862	0.0165630
900.940	0.0165280
901.018	0.0165904
901.096	0.0164995
901.174	0.0163210
901.253	0.0164108
901.331	0.0164391
901.409	0.0164923
901.487	0.0164715
901.565	0.0164393
901.643	0.0164832
901.721	0.0164144
901.799	0.0164140
901.878	0.0163590
901.956	0.0165403
902.034	0.0163950
902.112	0.0163933
902.190	0.0163825
902.268	0.0163892
902.346	0.0163646
902.424	0.0164181
902.503	0.0163823
902.581	0.0163183
902.659	0.0164901
902.737	0.0164081
902.815	0.0163570
902.893	0.0165424
902.971	0.0164755
903.049	0.0165566
903.128	0.0165231
903.206	0.0164480
903.284	0.0165530
903.362	0.0165565
903.440	0.0165012
903.518	0.0164207
903.596	0.0165581
903.674	0.0165762
903.753	0.0164983
903.831	0.0164697
903.909	0.0164687
903.987	0.0164951
904.065	0.0164447
904.143	0.0164230
904.221	0.0163902
904.299	0.0165118
904.378	0.0166053
904.456	0.0165076
904.534	0.0164161
904.612	0.0165139
904.690	0.0165095
904.768	0.0164097
904.846	0.0164201
904.924	0.0165068
905.003	0.0164953
905.081	0.0162878
905.159	0.0163723
905.237	0.0164594
905.315	0.0165405
905.393	0.0164564
905.471	0.0163808
905.549	0.0162492
905.628	0.0163355
905.706	0.0163938
905.784	0.0164819
905.862	0.0164971
905.940	0.0162705
906.018	0.0162988
906.096	0.0164852
906.174	0.0163454
906.253	0.0163983
906.331	0.0162950
906.409	0.0162669
906.487	0.0163656
906.565	0.0162937
906.643	0.0162668
906.721	0.0163508
906.799	0.0164041
906.878	0.0163248
906.956	0.0164143
907.034	0.0163245
907.112	0.0164506
907.190	0.0164526
907.268	0.0163130
907.346	0.0164089
907.424	0.0165434
907.503	0.0165067
907.581	0.0164746
907.659	0.0164505
907.737	0.0165454
907.815	0.0164770
907.893	0.0163811
907.971	0.0164311
908.049	0.0164493
908.128	0.0164085
908.206	0.0163980
908.284	0.0164214
908.362	0.0165121
908.440	0.0164403
908.518	0.0163943
908.596	0.0164059
908.674	0.0163952
908.753	0.0165305
908.831	0.0164668
908.909	0.0165867
908.987	0.0165370
909.065	0.0165191
909.143	0.0164914
909.221	0.0164545
909.299	0.0166436
909.378	0.0164644
909.456	0.0164445
909.534	0.0164426
909.612	0.0164621
909.690	0.0165083
909.768	0.0164129
909.846	0.0162437
909.924	0.0164325
910.003	0.0165993
910.081	0.0164341
910.159	0.0164615
910.237	0.0163759
910.315	0.0164271
910.393	0.0164571
910.471	0.0164895
910.549	0.0163306
910.628	0.0163524
910.706	0.0163631
910.784	0.0164182
910.862	0.0163552
910.940	0.0163573
911.018	0.0163940
911.096	0.0164358
911.174	0.0165942
911.253	0.0165349
911.331	0.0164599
911.409	0.0164774
911.487	0.0164252
911.565	0.0164803
911.643	0.0165178
911.721	0.0164343
911.799	0.0164735
911.878	0.0165331
911.956	0.0164732
912.034	0.0163822
912.112	0.0163285
912.190	0.0164789
912.268	0.0163966
912.346	0.0163425
912.424	0.0165248
912.503	0.0164301
912.581	0.0164517
912.659	0.0166610
912.737	0.0165023
912.815	0.0164441
912.893	0.0164619
912.971	0.0165543
913.049	0.0164500
913.128	0.0165131
913.206	0.0165042
913.284	0.0165661
913.362	0.0165874
913.440	0.0166154
913.518	0.0164595
913.596	0.0164286
913.674	0.0165083
913.753	0.0165685
913.831	0.0165408
913.909	0.0164655
913.987	0.0165177
914.065	0.0164381
914.143	0.0163863
914.221	0.0164473
914.299	0.0165115
914.378	0.0164923
914.456	0.0164140
914.534	0.0164958
914.612	0.0164905
914.690	0.0163813
914.768	0.0165118
914.846	0.0165665
914.924	0.0166030
915.003	0.0164138
915.081	0.0163622
915.159	0.0166779
915.237	0.0166553
915.315	0.0164198
915.393	0.0164307
915.471	0.0164481
915.549	0.0164844
915.628	0.0165210
915.706	0.0164983
915.784	0.0164412
915.862	0.0164278
915.940	0.0164577
916.018	0.0164663
916.096	0.0163950
916.174	0.0164422
916.253	0.0165704
916.331	0.0164881
916.409	0.0164168
916.487	0.0164333
916.565	0.0164541
916.643	0.0166101
916.721	0.0164809
916.799	0.0164783
916.878	0.0165145
916.956	0.0164939
917.034	0.0164313
917.112	0.0165966
917.190	0.0164339
917.268	0.0164460
917.346	0.0165754
917.424	0.0164336
917.503	0.0165337
917.581	0.0165709
917.659	0.0164252
917.737	0.0163503
917.815	0.0166081
917.893	0.0164819
917.971	0.0164238
918.049	0.0165037
918.128	0.0165451
918.206	0.0165224
918.284	0.0166284
918.362	0.0166195
918.440	0.0163960
918.518	0.0165987
918.596	0.0166492
918.674	0.0166874
918.753	0.0165543
918.831	0.0165916
918.909	0.0166180
918.987	0.0165348
919.065	0.0164870
919.143	0.0165411
919.221	0.0166663
919.299	0.0165537
919.378	0.0165655
919.456	0.0165018
919.534	0.0165620
919.612	0.0165562
919.690	0.0166557
919.768	0.0165424
919.846	0.0164404
919.924	0.0165170
920.003	0.0165395
920.081	0.0165807
920.159	0.0166090
920.237	0.0165655
920.315	0.0165581
920.393	0.0164611
920.471	0.0164262
920.549	0.0164165
920.628	0.0167173
920.706	0.0165424
920.784	0.0165782
920.862	0.0165182
920.940	0.0166248
921.018	0.0166779
921.096	0.0165217
921.174	0.0164236
921.253	0.0163170
921.331	0.0165305
921.409	0.0165912
921.487	0.0163496
921.565	0.0164658
921.643	0.0164923
921.721	0.0164506
921.799	0.0164380
921.878	0.0165289
921.956	0.0163899
922.034	0.0165187
922.112	0.0165154
922.190	0.0164516
922.268	0.0164307
922.346	0.0163722
922.424	0.0164421
922.503	0.0163049
922.581	0.0165068
922.659	0.0163422
922.737	0.0164194
922.815	0.0165437
922.893	0.0165980
922.971	0.0164062
923.049	0.0164456
923.128	0.0165349
923.206	0.0166667
923.284	0.0165261
923.362	0.0164808
923.440	0.0165734
923.518	0.0164083
923.596	0.0164919
923.674	0.0164205
923.753	0.0165849
923.831	0.0165546
923.909	0.0164096
923.987	0.0163581
924.065	0.0166196
924.143	0.0164844
924.221	0.0164492
924.299	0.0164216
924.378	0.0163540
924.456	0.0163956
924.534	0.0162910
924.612	0.0162937
924.690	0.0163586
924.768	0.0163223
924.846	0.0164230
924.924	0.0165337
925.003	0.0163408
925.081	0.0163812
925.159	0.0163736
925.237	0.0164027
925.315	0.0164457
925.393	0.0164108
925.471	0.0165365
925.549	0.0164043
925.628	0.0164539
925.706	0.0164059
925.784	0.0165446
925.862	0.0165116
925.940	0.0164474
926.018	0.0164075
926.096	0.0165361
926.174	0.0166073
926.253	0.0164011
926.331	0.0164959
926.409	0.0164777
926.487	0.0164225
926.565	0.0163709
926.643	0.0163206
926.721	0.0165103
926.799	0.0164201
926.878	0.0164099
926.956	0.0165336
927.034	0.0164667
927.112	0.0163647
927.190	0.0163557
927.268	0.0165318
927.346	0.0164573
927.424	0.0163814
927.503	0.0164542
927.581	0.0164177
927.659	0.0162743
927.737	0.0164672
927.815	0.0163600
927.893	0.0163969
927.971	0.0164188
928.049	0.0163823
928.128	0.0163695
928.206	0.0163622
928.284	0.0165028
928.362	0.0163726
928.440	0.0163779
928.518	0.0165021
928.596	0.0162812
928.674	0.0164381
928.753	0.0164091
928.831	0.0163226
928.909	0.0163555
928.987	0.0164645
929.065	0.0164526
929.143	0.0163599
929.221	0.0164481
929.299	0.0164645
929.378	0.0164025
929.456	0.0162803
929.534	0.0164110
929.612	0.0164220
929.690	0.0163190
929.768	0.0163983
929.846	0.0164657
929.924	0.0164422
930.003	0.0163452
930.081	0.0165179
930.159	0.0163454
930.237	0.0164436
930.315	0.0164333
930.393	0.0164762
930.471	0.0164491
930.549	0.0165141
930.628	0.0165304
930.706	0.0165441
930.784	0.0165305
930.862	0.0164787
930.940	0.0164172
931.018	0.0165643
931.096	0.0164436
931.174	0.0165596
931.253	0.0164393
931.331	0.0165678
931.409	0.0164669
931.487	0.0164314
931.565	0.0164869
931.643	0.0165232
931.721	0.0164789
931.799	0.0164546
931.878	0.0164400
931.956	0.0165070
932.034	0.0164737
932.112	0.0164780
932.190	0.0164245
932.268	0.0165002
932.346	0.0164535
932.424	0.0164464
932.503	0.0164690
932.581	0.0165653
932.659	0.0164059
932.737	0.0165005
932.815	0.0163345
932.893	0.0163135
932.971	0.0163860
933.049	0.0164076
933.128	0.0163674
933.206	0.0163469
933.284	0.0163885
933.362	0.0164623
933.440	0.0164886
933.518	0.0164600
933.596	0.0164626
933.674	0.0165433
933.753	0.0164349
933.831	0.0162645
933.909	0.0164227
933.987	0.0166557
934.065	0.0163950
934.143	0.0165018
934.221	0.0164503
934.299	0.0165297
934.378	0.0165739
934.456	0.0164219
934.534	0.0166590
934.612	0.0165083
934.690	0.0165620
934.768	0.0165639
934.846	0.0166005
934.924	0.0164930
935.003	0.0164833
935.081	0.0165931
935.159	0.0163138
935.237	0.0164680
935.315	0.0164266
935.393	0.0165128
935.471	0.0166142
935.549	0.0166815
935.628	0.0166829
935.706	0.0165695
935.784	0.0165255
935.862	0.0166333
935.940	0.0166071
936.018	0.0164404
936.096	0.0164796
936.174	0.0164943
936.253	0.0166319
936.331	0.0163669
936.409	0.0164534
936.487	0.0164980
936.565	0.0165508
936.643	0.0165578
936.721	0.0164185
936.799	0.0165891
936.878	0.0164392
936.956	0.0164902
937.034	0.0164987
937.112	0.0165313
937.190	0.0164725
937.268	0.0163783
937.346	0.0166423
937.424	0.0165310
937.503	0.0163406
937.581	0.0164748
937.659	0.0165455
937.737	0.0163890
937.815	0.0163158
937.893	0.0164183
937.971	0.0165102
938.049	0.0163782
938.128	0.0163536
938.206	0.0165372
938.284	0.0165114
938.362	0.0164256
938.440	0.0165661
938.518	0.0164083
938.596	0.0163628
938.674	0.0165509
938.753	0.0163643
938.831	0.0164365
938.909	0.0164655
938.987	0.0164147
939.065	0.0165636
939.143	0.0164877
939.221	0.0163818
939.299	0.0165887
939.378	0.0165266
939.456	0.0164041
939.534	0.0165677
939.612	0.0164573
939.690	0.0164129
939.768	0.0165282
939.846	0.0163458
939.924	0.0164027
940.003	0.0166605
940.081	0.0165277
940.159	0.0163942
940.237	0.0165263
940.315	0.0166092
940.393	0.0165205
940.471	0.0163929
940.549	0.0165349
940.628	0.0165199
940.706	0.0165366
940.784	0.0164065
940.862	0.0164142
940.940	0.0164916
941.018	0.0165518
941.096	0.0166008
941.174	0.0163974
941.253	0.0165031
941.331	0.0165060
941.409	0.0164026
941.487	0.0163332
941.565	0.0164056
941.643	0.0164842
941.721	0.0165079
941.799	0.0165029
941.878	0.0165795
941.956	0.0165182
942.034	0.0165304
942.112	0.0163896
942.190	0.0163560
942.268	0.0165135
942.346	0.0165596
942.424	0.0163798
942.503	0.0164056
942.581	0.0165435
942.659	0.0164781
942.737	0.0165576
942.815	0.0164706
942.893	0.0164509
942.971	0.0164401
943.049	0.0164403
943.128	0.0164845
943.206	0.0164950
943.284	0.0165203
943.362	0.0164386
943.440	0.0164955
943.518	0.0165501
943.596	0.0165596
943.674	0.0165942
943.753	0.0164494
943.831	0.0165556
943.909	0.0164753
943.987	0.0165668
944.065	0.0165391
944.143	0.0166554
944.221	0.0166390
944.299	0.0164531
944.378	0.0164736
944.456	0.0164942
944.534	0.0164340
944.612	0.0163962
944.690	0.0165238
944.768	0.0164825
944.846	0.0165684
944.924	0.0165722
945.003	0.0164006
945.081	0.0164603
945.159	0.0163683
945.237	0.0164014
945.315	0.0165090
945.393	0.0164965
945.471	0.0163101
945.549	0.0165150
945.628	0.0163965
945.706	0.0164191
945.784	0.0164568
945.862	0.0164972
945.940	0.0165675
946.018	0.0164729
946.096	0.0164948
946.174	0.0165711
946.253	0.0166338
946.331	0.0165475
946.409	0.0164297
946.487	0.0165481
946.565	0.0165423
946.643	0.0164684
946.721	0.0164848
946.799	0.0164601
946.878	0.0166316
946.956	0.0165255
947.034	0.0164943
947.112	0.0165092
947.190	0.0166241
947.268	0.0165332
947.346	0.0165768
947.424	0.0164214
947.503	0.0165621
947.581	0.0165611
947.659	0.0165761
947.737	0.0163654
947.815	0.0164632
947.893	0.0165862
947.971	0.0164318
948.049	0.0164198
948.128	0.0166537
948.206	0.0166022
948.284	0.0165768
948.362	0.0165012
948.440	0.0164281
948.518	0.0165335
948.596	0.0164989
948.674	0.0164992
948.753	0.0164691
948.831	0.0165423
948.909	0.0165388
948.987	0.0164579
949.065	0.0164957
949.143	0.0164761
949.221	0.0164893
949.299	0.0164924
949.378	0.0164089
949.456	0.0165967
949.534	0.0164227
949.612	0.0164684
949.690	0.0165559
949.768	0.0166593
949.846	0.0164741
949.924	0.0164590
