05/19/2022	00:53:03	Ver.	4.1	UNKNOWN
Optical Delay	630.002507	Delta X		0.078125	Sweeps	1	Scan Rate	0/0
Coordinates	Axis 1	NaN	Axis 2	NaN	Axis 3	NaN	Axis 4	NaN	Axis 5	NaN	Axis 6	0.000000
TX Power	0.000000	RX Power	0.000000

630.003	0.0159731
630.081	0.0158212
630.159	0.0159646
630.237	0.0158564
630.315	0.0158615
630.393	0.0157864
630.471	0.0159837
630.549	0.0159222
630.628	0.0159880
630.706	0.0158070
630.784	0.0157218
630.862	0.0159139
630.940	0.0159847
631.018	0.0159357
631.096	0.0158270
631.174	0.0158445
631.253	0.0158820
631.331	0.0158492
631.409	0.0158228
631.487	0.0158161
631.565	0.0158434
631.643	0.0159499
631.721	0.0157883
631.799	0.0157835
631.878	0.0158711
631.956	0.0157471
632.034	0.0157623
632.112	0.0159262
632.190	0.0158391
632.268	0.0157774
632.346	0.0159238
632.424	0.0158643
632.503	0.0157897
632.581	0.0158197
632.659	0.0158250
632.737	0.0159190
632.815	0.0158106
632.893	0.0157603
632.971	0.0158887
633.049	0.0158525
633.128	0.0158728
633.206	0.0158499
633.284	0.0160326
633.362	0.0158862
633.440	0.0158759
633.518	0.0159306
633.596	0.0158403
633.674	0.0159635
633.753	0.0158584
633.831	0.0158279
633.909	0.0159866
633.987	0.0158518
634.065	0.0159576
634.143	0.0159425
634.221	0.0159023
634.299	0.0158179
634.378	0.0158086
634.456	0.0158646
634.534	0.0158209
634.612	0.0159595
634.690	0.0158671
634.768	0.0158504
634.846	0.0159774
634.924	0.0159047
635.003	0.0159370
635.081	0.0159100
635.159	0.0160168
635.237	0.0160143
635.315	0.0159146
635.393	0.0160605
635.471	0.0159643
635.549	0.0159010
635.628	0.0159771
635.706	0.0159567
635.784	0.0160218
635.862	0.0159132
635.940	0.0160507
636.018	0.0159846
636.096	0.0160836
636.174	0.0159975
636.253	0.0159721
636.331	0.0160321
636.409	0.0159516
636.487	0.0161253
636.565	0.0160204
636.643	0.0160136
636.721	0.0160471
636.799	0.0159351
636.878	0.0159097
636.956	0.0159798
637.034	0.0159882
637.112	0.0160689
637.190	0.0160307
637.268	0.0161340
637.346	0.0161953
637.424	0.0160787
637.503	0.0161277
637.581	0.0160848
637.659	0.0160887
637.737	0.0160589
637.815	0.0159948
637.893	0.0159737
637.971	0.0159832
638.049	0.0160554
638.128	0.0159912
638.206	0.0159481
638.284	0.0159351
638.362	0.0160027
638.440	0.0158875
638.518	0.0158617
638.596	0.0159586
638.674	0.0159138
638.753	0.0158856
638.831	0.0159850
638.909	0.0158611
638.987	0.0160271
639.065	0.0158780
639.143	0.0157978
639.221	0.0159108
639.299	0.0158252
639.378	0.0158019
639.456	0.0159851
639.534	0.0160953
639.612	0.0159286
639.690	0.0158724
639.768	0.0158719
639.846	0.0159929
639.924	0.0159832
640.003	0.0158660
640.081	0.0158872
640.159	0.0159219
640.237	0.0158891
640.315	0.0160390
640.393	0.0159886
640.471	0.0159859
640.549	0.0159742
640.628	0.0157781
640.706	0.0159573
640.784	0.0160370
640.862	0.0160245
640.940	0.0158157
641.018	0.0159090
641.096	0.0158708
641.174	0.0159801
641.253	0.0159850
641.331	0.0158581
641.409	0.0158604
641.487	0.0158838
641.565	0.0158825
641.643	0.0159028
641.721	0.0158482
641.799	0.0160187
641.878	0.0159391
641.956	0.0159399
642.034	0.0158644
642.112	0.0160982
642.190	0.0160588
642.268	0.0160237
642.346	0.0161383
642.424	0.0160381
642.503	0.0159852
642.581	0.0160872
642.659	0.0160237
642.737	0.0160254
642.815	0.0159865
642.893	0.0161091
642.971	0.0159457
643.049	0.0158469
643.128	0.0159569
643.206	0.0157873
643.284	0.0158316
643.362	0.0158475
643.440	0.0158757
643.518	0.0160906
643.596	0.0158938
643.674	0.0158840
643.753	0.0159669
643.831	0.0160088
643.909	0.0159311
643.987	0.0160609
644.065	0.0159390
644.143	0.0160723
644.221	0.0160972
644.299	0.0160865
644.378	0.0160107
644.456	0.0159742
644.534	0.0160046
644.612	0.0159925
644.690	0.0160732
644.768	0.0160160
644.846	0.0160170
644.924	0.0159595
645.003	0.0158996
645.081	0.0158054
645.159	0.0157685
645.237	0.0157915
645.315	0.0158482
645.393	0.0158560
645.471	0.0158939
645.549	0.0159645
645.628	0.0160166
645.706	0.0160467
645.784	0.0159190
645.862	0.0159528
645.940	0.0159806
646.018	0.0160686
646.096	0.0160648
646.174	0.0158660
646.253	0.0158449
646.331	0.0159430
646.409	0.0157635
646.487	0.0159008
646.565	0.0157883
646.643	0.0157816
646.721	0.0156679
646.799	0.0157623
646.878	0.0158132
646.956	0.0157292
647.034	0.0158691
647.112	0.0158877
647.190	0.0159975
647.268	0.0159374
647.346	0.0158978
647.424	0.0160589
647.503	0.0159657
647.581	0.0160167
647.659	0.0161540
647.737	0.0160303
647.815	0.0160413
647.893	0.0160766
647.971	0.0161412
648.049	0.0159511
648.128	0.0160034
648.206	0.0160224
648.284	0.0158913
648.362	0.0158096
648.440	0.0158606
648.518	0.0158749
648.596	0.0159082
648.674	0.0159686
648.753	0.0159290
648.831	0.0158098
648.909	0.0157750
648.987	0.0159427
649.065	0.0160092
649.143	0.0159421
649.221	0.0159383
649.299	0.0160319
649.378	0.0160433
649.456	0.0159970
649.534	0.0160252
649.612	0.0159055
649.690	0.0160918
649.768	0.0160565
649.846	0.0160703
649.924	0.0160812
650.003	0.0160204
650.081	0.0159336
650.159	0.0161243
650.237	0.0160797
650.315	0.0159987
650.393	0.0162271
650.471	0.0160689
650.549	0.0159763
650.628	0.0160213
650.706	0.0161390
650.784	0.0158557
650.862	0.0160139
650.940	0.0160292
651.018	0.0159953
651.096	0.0158403
651.174	0.0159138
651.253	0.0158585
651.331	0.0159715
651.409	0.0157808
651.487	0.0157273
651.565	0.0158589
651.643	0.0158241
651.721	0.0159053
651.799	0.0159198
651.878	0.0159184
651.956	0.0160221
652.034	0.0159637
652.112	0.0159579
652.190	0.0159901
652.268	0.0159993
652.346	0.0161654
652.424	0.0162936
652.503	0.0162514
652.581	0.0160210
652.659	0.0161186
652.737	0.0160163
652.815	0.0160303
652.893	0.0160770
652.971	0.0161250
653.049	0.0159571
653.128	0.0158028
653.206	0.0158039
653.284	0.0158157
653.362	0.0156054
653.440	0.0155235
653.518	0.0155934
653.596	0.0156979
653.674	0.0156658
653.753	0.0155798
653.831	0.0155325
653.909	0.0156149
653.987	0.0157325
654.065	0.0156702
654.143	0.0156616
654.221	0.0158211
654.299	0.0158918
654.378	0.0159978
654.456	0.0159637
654.534	0.0159142
654.612	0.0159742
654.690	0.0159718
654.768	0.0159275
654.846	0.0160258
654.924	0.0159634
655.003	0.0158394
655.081	0.0159286
655.159	0.0159748
655.237	0.0158383
655.315	0.0158810
655.393	0.0159399
655.471	0.0158884
655.549	0.0159458
655.628	0.0158467
655.706	0.0159066
655.784	0.0159312
655.862	0.0159126
655.940	0.0159100
656.018	0.0158602
656.096	0.0159895
656.174	0.0159840
656.253	0.0159468
656.331	0.0159952
656.409	0.0159909
656.487	0.0159465
656.565	0.0160678
656.643	0.0158911
656.721	0.0159728
656.799	0.0160526
656.878	0.0159347
656.956	0.0158355
657.034	0.0159343
657.112	0.0156763
657.190	0.0157597
657.268	0.0158685
657.346	0.0159259
657.424	0.0158257
657.503	0.0158658
657.581	0.0158985
657.659	0.0159184
657.737	0.0159029
657.815	0.0159499
657.893	0.0157909
657.971	0.0159325
658.049	0.0159464
658.128	0.0158324
658.206	0.0158948
658.284	0.0159181
658.362	0.0159170
658.440	0.0158571
658.518	0.0159907
658.596	0.0159855
658.674	0.0158399
658.753	0.0158927
658.831	0.0160218
658.909	0.0159858
658.987	0.0160786
659.065	0.0160658
659.143	0.0160332
659.221	0.0159333
659.299	0.0160777
659.378	0.0160490
659.456	0.0159826
659.534	0.0161281
659.612	0.0159556
659.690	0.0159617
659.768	0.0159864
659.846	0.0160818
659.924	0.0158778
660.003	0.0159065
660.081	0.0159512
660.159	0.0159059
660.237	0.0157182
660.315	0.0157421
660.393	0.0158443
660.471	0.0158527
660.549	0.0157919
660.628	0.0158203
660.706	0.0157883
660.784	0.0159159
660.862	0.0158108
660.940	0.0158311
661.018	0.0159429
661.096	0.0158740
661.174	0.0159114
661.253	0.0160481
661.331	0.0159649
661.409	0.0160419
661.487	0.0160874
661.565	0.0160966
661.643	0.0162072
661.721	0.0162486
661.799	0.0160806
661.878	0.0160880
661.956	0.0161794
662.034	0.0160400
662.112	0.0160038
662.190	0.0160208
662.268	0.0161464
662.346	0.0160847
662.424	0.0158736
662.503	0.0158130
662.581	0.0159533
662.659	0.0159552
662.737	0.0158915
662.815	0.0157979
662.893	0.0158233
662.971	0.0158105
663.049	0.0158131
663.128	0.0157932
663.206	0.0159205
663.284	0.0158858
663.362	0.0158809
663.440	0.0158725
663.518	0.0158365
663.596	0.0158888
663.674	0.0158674
663.753	0.0158366
663.831	0.0158012
663.909	0.0159843
663.987	0.0157233
664.065	0.0157101
664.143	0.0157369
664.221	0.0157080
664.299	0.0158168
664.378	0.0156740
664.456	0.0157674
664.534	0.0157855
664.612	0.0156559
664.690	0.0157901
664.768	0.0156644
664.846	0.0158204
664.924	0.0158349
665.003	0.0157848
665.081	0.0158855
665.159	0.0158993
665.237	0.0159652
665.315	0.0159524
665.393	0.0160331
665.471	0.0161472
665.549	0.0161351
665.628	0.0161111
665.706	0.0161728
665.784	0.0162577
665.862	0.0162632
665.940	0.0162955
666.018	0.0160397
666.096	0.0161652
666.174	0.0163731
666.253	0.0162714
666.331	0.0162115
666.409	0.0163745
666.487	0.0163567
666.565	0.0162046
666.643	0.0161881
666.721	0.0162021
666.799	0.0161722
666.878	0.0161359
666.956	0.0161441
667.034	0.0159898
667.112	0.0159344
667.190	0.0159904
667.268	0.0159639
667.346	0.0158547
667.424	0.0158105
667.503	0.0157680
667.581	0.0157854
667.659	0.0156289
667.737	0.0157046
667.815	0.0156259
667.893	0.0155556
667.971	0.0155762
668.049	0.0155217
668.128	0.0156281
668.206	0.0155643
668.284	0.0156935
668.362	0.0157746
668.440	0.0157132
668.518	0.0157085
668.596	0.0156168
668.674	0.0157934
668.753	0.0159468
668.831	0.0158265
668.909	0.0158285
668.987	0.0158499
669.065	0.0160088
669.143	0.0160287
669.221	0.0160355
669.299	0.0160815
669.378	0.0161481
669.456	0.0161492
669.534	0.0161661
669.612	0.0161191
669.690	0.0161002
669.768	0.0161393
669.846	0.0162473
669.924	0.0162761
670.003	0.0161172
670.081	0.0159706
670.159	0.0159893
670.237	0.0160671
670.315	0.0161864
670.393	0.0159371
670.471	0.0160042
670.549	0.0158884
670.628	0.0158599
670.706	0.0159946
670.784	0.0158860
670.862	0.0157890
670.940	0.0157457
671.018	0.0157468
671.096	0.0156977
671.174	0.0158067
671.253	0.0159058
671.331	0.0157813
671.409	0.0159386
671.487	0.0159352
671.565	0.0158071
671.643	0.0158290
671.721	0.0158657
671.799	0.0158105
671.878	0.0158178
671.956	0.0157504
672.034	0.0159549
672.112	0.0158070
672.190	0.0156419
672.268	0.0157478
672.346	0.0158038
672.424	0.0157331
672.503	0.0158581
672.581	0.0158977
672.659	0.0158744
672.737	0.0159610
672.815	0.0160001
672.893	0.0160546
672.971	0.0159698
673.049	0.0160399
673.128	0.0161600
673.206	0.0160485
673.284	0.0160820
673.362	0.0161610
673.440	0.0160663
673.518	0.0160010
673.596	0.0159801
673.674	0.0159697
673.753	0.0160426
673.831	0.0160265
673.909	0.0157644
673.987	0.0157639
674.065	0.0159083
674.143	0.0159161
674.221	0.0157847
674.299	0.0157889
674.378	0.0158437
674.456	0.0157032
674.534	0.0157293
674.612	0.0159528
674.690	0.0158180
674.768	0.0157190
674.846	0.0159496
674.924	0.0160557
675.003	0.0159660
675.081	0.0159604
675.159	0.0159283
675.237	0.0160588
675.315	0.0160372
675.393	0.0159562
675.471	0.0158521
675.549	0.0158132
675.628	0.0158521
675.706	0.0160417
675.784	0.0159198
675.862	0.0156856
675.940	0.0158157
676.018	0.0157303
676.096	0.0158207
676.174	0.0157459
676.253	0.0157171
676.331	0.0157410
676.409	0.0158650
676.487	0.0158363
676.565	0.0158762
676.643	0.0158131
676.721	0.0159974
676.799	0.0159660
676.878	0.0158305
676.956	0.0158765
677.034	0.0160661
677.112	0.0161225
677.190	0.0160622
677.268	0.0161420
677.346	0.0159676
677.424	0.0162379
677.503	0.0161195
677.581	0.0162325
677.659	0.0161633
677.737	0.0163058
677.815	0.0161306
677.893	0.0161894
677.971	0.0160554
678.049	0.0162540
678.128	0.0160216
678.206	0.0160610
678.284	0.0159802
678.362	0.0159584
678.440	0.0159122
678.518	0.0159953
678.596	0.0159559
678.674	0.0158560
678.753	0.0159304
678.831	0.0159282
678.909	0.0159309
678.987	0.0160225
679.065	0.0158663
679.143	0.0158989
679.221	0.0160537
679.299	0.0159555
679.378	0.0159304
679.456	0.0159880
679.534	0.0161562
679.612	0.0158994
679.690	0.0158607
679.768	0.0160059
679.846	0.0160460
679.924	0.0158782
680.003	0.0158546
680.081	0.0158617
680.159	0.0159321
680.237	0.0160265
680.315	0.0161069
680.393	0.0159860
680.471	0.0160954
680.549	0.0160738
680.628	0.0160885
680.706	0.0162331
680.784	0.0161410
680.862	0.0162364
680.940	0.0163062
681.018	0.0163290
681.096	0.0164384
681.174	0.0162003
681.253	0.0162669
681.331	0.0161870
681.409	0.0161731
681.487	0.0161305
681.565	0.0160117
681.643	0.0159866
681.721	0.0159869
681.799	0.0160035
681.878	0.0160325
681.956	0.0158709
682.034	0.0157684
682.112	0.0157321
682.190	0.0157423
682.268	0.0157172
682.346	0.0156988
682.424	0.0156251
682.503	0.0159195
682.581	0.0158443
682.659	0.0156629
682.737	0.0159355
682.815	0.0159566
682.893	0.0158693
682.971	0.0160210
683.049	0.0159554
683.128	0.0159360
683.206	0.0159143
683.284	0.0159258
683.362	0.0160872
683.440	0.0160758
683.518	0.0159987
683.596	0.0160426
683.674	0.0160839
683.753	0.0160825
683.831	0.0161600
683.909	0.0159782
683.987	0.0159550
684.065	0.0161228
684.143	0.0161746
684.221	0.0160703
684.299	0.0162720
684.378	0.0159195
684.456	0.0161271
684.534	0.0161065
684.612	0.0160527
684.690	0.0160952
684.768	0.0160834
684.846	0.0159818
684.924	0.0161642
685.003	0.0160201
685.081	0.0160066
685.159	0.0161105
685.237	0.0158865
685.315	0.0159384
685.393	0.0159307
685.471	0.0159059
685.549	0.0158309
685.628	0.0158010
685.706	0.0159733
685.784	0.0159801
685.862	0.0160478
685.940	0.0158774
686.018	0.0159644
686.096	0.0159486
686.174	0.0160015
686.253	0.0160390
686.331	0.0160562
686.409	0.0159722
686.487	0.0159204
686.565	0.0159845
686.643	0.0160587
686.721	0.0160668
686.799	0.0160045
686.878	0.0159768
686.956	0.0160166
687.034	0.0159883
687.112	0.0158111
687.190	0.0159435
687.268	0.0159542
687.346	0.0158918
687.424	0.0158614
687.503	0.0159027
687.581	0.0159235
687.659	0.0157764
687.737	0.0158595
687.815	0.0158852
687.893	0.0158691
687.971	0.0159247
688.049	0.0158899
688.128	0.0157969
688.206	0.0156419
688.284	0.0156872
688.362	0.0157809
688.440	0.0157246
688.518	0.0157477
688.596	0.0156999
688.674	0.0156996
688.753	0.0158765
688.831	0.0157886
688.909	0.0158714
688.987	0.0157469
689.065	0.0157519
689.143	0.0158539
689.221	0.0157848
689.299	0.0156987
689.378	0.0158190
689.456	0.0159252
689.534	0.0158063
689.612	0.0157909
689.690	0.0158021
689.768	0.0158147
689.846	0.0158641
689.924	0.0158479
690.003	0.0158053
690.081	0.0159058
690.159	0.0160924
690.237	0.0160859
690.315	0.0160684
690.393	0.0161433
690.471	0.0161307
690.549	0.0161980
690.628	0.0162618
690.706	0.0161197
690.784	0.0160940
690.862	0.0162419
690.940	0.0161888
691.018	0.0161623
691.096	0.0161737
691.174	0.0160138
691.253	0.0160030
691.331	0.0160020
691.409	0.0161219
691.487	0.0160172
691.565	0.0158380
691.643	0.0157733
691.721	0.0159029
691.799	0.0158094
691.878	0.0156042
691.956	0.0158057
692.034	0.0155487
692.112	0.0156098
692.190	0.0157277
692.268	0.0155655
692.346	0.0156475
692.424	0.0156277
692.503	0.0155622
692.581	0.0156793
692.659	0.0156814
692.737	0.0156808
692.815	0.0156300
692.893	0.0157597
692.971	0.0158069
693.049	0.0159031
693.128	0.0158411
693.206	0.0157589
693.284	0.0157814
693.362	0.0157607
693.440	0.0158890
693.518	0.0158219
693.596	0.0158990
693.674	0.0158087
693.753	0.0158995
693.831	0.0158066
693.909	0.0158481
693.987	0.0157951
694.065	0.0157902
694.143	0.0158716
694.221	0.0160843
694.299	0.0161252
694.378	0.0160173
694.456	0.0161670
694.534	0.0162393
694.612	0.0162086
694.690	0.0162073
694.768	0.0163877
694.846	0.0163577
694.924	0.0163573
695.003	0.0163157
695.081	0.0162359
695.159	0.0164030
695.237	0.0162950
695.315	0.0161813
695.393	0.0162229
695.471	0.0162019
695.549	0.0160896
695.628	0.0162124
695.706	0.0159457
695.784	0.0159789
695.862	0.0159359
695.940	0.0160326
696.018	0.0159596
696.096	0.0159997
696.174	0.0158746
696.253	0.0158617
696.331	0.0159126
696.409	0.0158752
696.487	0.0159821
696.565	0.0158649
696.643	0.0158453
696.721	0.0160565
696.799	0.0161461
696.878	0.0158772
696.956	0.0160042
697.034	0.0161980
697.112	0.0160155
697.190	0.0159606
697.268	0.0160076
697.346	0.0160146
697.424	0.0159952
697.503	0.0160348
697.581	0.0160675
697.659	0.0159898
697.737	0.0159379
697.815	0.0161292
697.893	0.0157841
697.971	0.0159081
698.049	0.0159995
698.128	0.0159663
698.206	0.0159837
698.284	0.0160008
698.362	0.0160065
698.440	0.0158784
698.518	0.0159680
698.596	0.0160207
698.674	0.0160577
698.753	0.0160147
698.831	0.0161044
698.909	0.0161065
698.987	0.0160946
699.065	0.0161602
699.143	0.0161520
699.221	0.0162015
699.299	0.0161000
699.378	0.0162561
699.456	0.0159581
699.534	0.0160165
699.612	0.0161277
699.690	0.0161192
699.768	0.0160873
699.846	0.0160693
699.924	0.0159632
700.003	0.0160178
700.081	0.0161639
700.159	0.0161654
700.237	0.0159564
700.315	0.0159702
700.393	0.0160028
700.471	0.0159944
700.549	0.0159630
700.628	0.0162502
700.706	0.0161393
700.784	0.0161260
700.862	0.0158834
700.940	0.0159827
701.018	0.0159768
701.096	0.0160868
701.174	0.0160201
701.253	0.0158994
701.331	0.0158929
701.409	0.0160452
701.487	0.0160216
701.565	0.0160835
701.643	0.0160946
701.721	0.0161112
701.799	0.0160000
701.878	0.0160146
701.956	0.0160426
702.034	0.0161180
702.112	0.0160809
702.190	0.0161068
702.268	0.0160834
702.346	0.0160372
702.424	0.0161267
702.503	0.0160001
702.581	0.0160750
702.659	0.0159795
702.737	0.0157595
702.815	0.0159505
702.893	0.0158580
702.971	0.0158297
703.049	0.0157547
703.128	0.0158673
703.206	0.0158702
703.284	0.0158508
703.362	0.0157439
703.440	0.0157172
703.518	0.0155489
703.596	0.0156224
703.674	0.0156837
703.753	0.0156543
703.831	0.0158190
703.909	0.0158097
703.987	0.0157489
704.065	0.0156978
704.143	0.0158021
704.221	0.0159065
704.299	0.0159039
704.378	0.0159917
704.456	0.0160220
704.534	0.0160312
704.612	0.0160556
704.690	0.0160548
704.768	0.0160368
704.846	0.0161355
704.924	0.0161350
705.003	0.0158847
705.081	0.0160181
705.159	0.0160605
705.237	0.0161829
705.315	0.0160529
705.393	0.0160381
705.471	0.0160390
705.549	0.0160312
705.628	0.0160113
705.706	0.0160822
705.784	0.0160519
705.862	0.0161815
705.940	0.0161724
706.018	0.0161325
706.096	0.0160890
706.174	0.0161291
706.253	0.0161015
706.331	0.0160400
706.409	0.0161307
706.487	0.0161418
706.565	0.0160573
706.643	0.0160886
706.721	0.0159708
706.799	0.0159859
706.878	0.0159414
706.956	0.0158358
707.034	0.0158590
707.112	0.0157799
707.190	0.0159799
707.268	0.0159280
707.346	0.0159519
707.424	0.0158474
707.503	0.0158772
707.581	0.0160538
707.659	0.0158202
707.737	0.0159454
707.815	0.0159798
707.893	0.0161459
707.971	0.0162405
708.049	0.0160851
708.128	0.0160775
708.206	0.0161323
708.284	0.0161311
708.362	0.0160193
708.440	0.0159661
708.518	0.0160183
708.596	0.0160456
708.674	0.0160857
708.753	0.0159471
708.831	0.0160411
708.909	0.0158775
708.987	0.0159312
709.065	0.0159149
709.143	0.0158620
709.221	0.0159378
709.299	0.0159256
709.378	0.0158506
709.456	0.0157213
709.534	0.0157829
709.612	0.0159272
709.690	0.0157990
709.768	0.0158556
709.846	0.0157118
709.924	0.0158260
710.003	0.0157498
710.081	0.0158489
710.159	0.0158870
710.237	0.0156953
710.315	0.0158240
710.393	0.0158434
710.471	0.0157382
710.549	0.0156597
710.628	0.0157819
710.706	0.0157623
710.784	0.0158064
710.862	0.0158083
710.940	0.0157922
711.018	0.0160171
711.096	0.0159695
711.174	0.0158726
711.253	0.0159523
711.331	0.0157811
711.409	0.0158842
711.487	0.0157670
711.565	0.0158298
711.643	0.0157201
711.721	0.0158066
711.799	0.0160014
711.878	0.0161280
711.956	0.0159439
712.034	0.0158459
712.112	0.0160500
712.190	0.0161011
712.268	0.0158168
712.346	0.0160485
712.424	0.0160526
712.503	0.0160878
712.581	0.0161140
712.659	0.0160664
712.737	0.0159324
712.815	0.0159045
712.893	0.0160629
712.971	0.0160767
713.049	0.0160842
713.128	0.0159663
713.206	0.0159888
713.284	0.0160667
713.362	0.0160429
713.440	0.0160223
713.518	0.0157862
713.596	0.0158924
713.674	0.0159957
713.753	0.0160731
713.831	0.0159723
713.909	0.0160132
713.987	0.0162366
714.065	0.0161488
714.143	0.0161702
714.221	0.0160448
714.299	0.0159871
714.378	0.0161265
714.456	0.0160778
714.534	0.0159464
714.612	0.0160347
714.690	0.0160783
714.768	0.0160352
714.846	0.0160725
714.924	0.0159766
715.003	0.0159032
715.081	0.0161214
715.159	0.0160092
715.237	0.0159531
715.315	0.0160184
715.393	0.0159838
715.471	0.0159538
715.549	0.0161158
715.628	0.0159891
715.706	0.0159573
715.784	0.0159966
715.862	0.0159594
715.940	0.0159596
716.018	0.0159903
716.096	0.0160150
716.174	0.0159348
716.253	0.0159322
716.331	0.0158839
716.409	0.0157974
716.487	0.0158956
716.565	0.0159517
716.643	0.0160378
716.721	0.0160242
716.799	0.0159647
716.878	0.0157670
716.956	0.0158457
717.034	0.0158981
717.112	0.0158553
717.190	0.0159013
717.268	0.0160561
717.346	0.0158376
717.424	0.0158248
717.503	0.0157018
717.581	0.0158575
717.659	0.0158329
717.737	0.0157755
717.815	0.0159315
717.893	0.0158125
717.971	0.0157788
718.049	0.0158335
718.128	0.0157962
718.206	0.0156683
718.284	0.0159071
718.362	0.0158801
718.440	0.0159095
718.518	0.0160183
718.596	0.0158788
718.674	0.0159446
718.753	0.0159706
718.831	0.0161201
718.909	0.0160760
718.987	0.0160167
719.065	0.0160781
719.143	0.0159641
719.221	0.0160925
719.299	0.0161353
719.378	0.0161439
719.456	0.0161046
719.534	0.0160873
719.612	0.0162545
719.690	0.0160889
719.768	0.0160112
719.846	0.0161386
719.924	0.0160356
720.003	0.0160365
720.081	0.0159576
720.159	0.0161517
720.237	0.0161269
720.315	0.0160874
720.393	0.0160294
720.471	0.0160983
720.549	0.0160780
720.628	0.0159949
720.706	0.0161200
720.784	0.0159924
720.862	0.0159642
720.940	0.0159967
721.018	0.0162019
721.096	0.0159008
721.174	0.0160533
721.253	0.0159838
721.331	0.0159327
721.409	0.0159760
721.487	0.0159039
721.565	0.0159123
721.643	0.0159014
721.721	0.0159969
721.799	0.0159243
721.878	0.0158023
721.956	0.0159264
722.034	0.0159390
722.112	0.0159904
722.190	0.0157912
722.268	0.0159013
722.346	0.0160555
722.424	0.0160077
722.503	0.0160072
722.581	0.0160404
722.659	0.0161105
722.737	0.0159974
722.815	0.0159214
722.893	0.0158757
722.971	0.0159664
723.049	0.0158847
723.128	0.0157908
723.206	0.0159816
723.284	0.0159199
723.362	0.0159728
723.440	0.0159343
723.518	0.0159264
723.596	0.0159830
723.674	0.0159883
723.753	0.0160172
723.831	0.0160500
723.909	0.0159084
723.987	0.0159322
724.065	0.0160286
724.143	0.0160777
724.221	0.0159987
724.299	0.0159881
724.378	0.0159431
724.456	0.0160207
724.534	0.0159576
724.612	0.0159507
724.690	0.0159882
724.768	0.0160549
724.846	0.0159840
724.924	0.0159097
725.003	0.0159811
725.081	0.0159614
725.159	0.0160366
725.237	0.0160294
725.315	0.0159438
725.393	0.0160262
725.471	0.0158909
725.549	0.0159441
725.628	0.0160047
725.706	0.0160169
725.784	0.0159588
725.862	0.0159202
725.940	0.0160168
726.018	0.0160776
726.096	0.0160302
726.174	0.0159557
726.253	0.0161386
726.331	0.0161544
726.409	0.0161496
726.487	0.0160462
726.565	0.0162096
726.643	0.0161105
726.721	0.0161108
726.799	0.0162428
726.878	0.0161167
726.956	0.0161281
727.034	0.0161636
727.112	0.0161827
727.190	0.0161443
727.268	0.0160445
727.346	0.0162608
727.424	0.0160755
727.503	0.0160673
727.581	0.0159470
727.659	0.0161050
727.737	0.0160973
727.815	0.0159943
727.893	0.0160313
727.971	0.0158976
728.049	0.0160210
728.128	0.0160461
728.206	0.0159973
728.284	0.0159696
728.362	0.0161722
728.440	0.0160503
728.518	0.0160925
728.596	0.0161341
728.674	0.0159791
728.753	0.0161338
728.831	0.0158922
728.909	0.0158865
728.987	0.0160880
729.065	0.0158787
729.143	0.0158299
729.221	0.0158671
729.299	0.0159587
729.378	0.0161068
729.456	0.0159248
729.534	0.0157003
729.612	0.0158173
729.690	0.0158841
729.768	0.0157638
729.846	0.0157910
729.924	0.0158519
730.003	0.0158296
730.081	0.0158401
730.159	0.0158049
730.237	0.0158341
730.315	0.0158261
730.393	0.0159089
730.471	0.0158283
730.549	0.0158545
730.628	0.0157957
730.706	0.0158121
730.784	0.0159514
730.862	0.0158977
730.940	0.0159085
731.018	0.0159908
731.096	0.0159478
731.174	0.0158851
731.253	0.0160230
731.331	0.0158261
731.409	0.0158291
731.487	0.0158407
731.565	0.0159980
731.643	0.0159740
731.721	0.0160128
731.799	0.0159283
731.878	0.0159560
731.956	0.0161255
732.034	0.0159988
732.112	0.0159759
732.190	0.0158630
732.268	0.0160752
732.346	0.0161084
732.424	0.0160937
732.503	0.0160142
732.581	0.0158987
732.659	0.0160099
732.737	0.0161604
732.815	0.0160987
732.893	0.0158929
732.971	0.0160150
733.049	0.0158931
733.128	0.0159097
733.206	0.0159239
733.284	0.0160590
733.362	0.0160113
733.440	0.0158672
733.518	0.0161535
733.596	0.0159961
733.674	0.0159943
733.753	0.0159488
733.831	0.0160767
733.909	0.0160048
733.987	0.0159570
734.065	0.0160533
734.143	0.0159068
734.221	0.0160253
734.299	0.0160416
734.378	0.0159764
734.456	0.0158737
734.534	0.0159451
734.612	0.0158936
734.690	0.0159034
734.768	0.0158214
734.846	0.0160254
734.924	0.0157821
735.003	0.0158922
735.081	0.0159016
735.159	0.0157363
735.237	0.0158547
735.315	0.0159377
735.393	0.0159081
735.471	0.0160051
735.549	0.0158125
735.628	0.0158357
735.706	0.0160089
735.784	0.0160226
735.862	0.0161750
735.940	0.0159694
736.018	0.0161587
736.096	0.0161052
736.174	0.0160438
736.253	0.0160379
736.331	0.0162259
736.409	0.0160564
736.487	0.0160583
736.565	0.0161004
736.643	0.0159519
736.721	0.0159853
736.799	0.0161856
736.878	0.0161608
736.956	0.0160505
737.034	0.0160647
737.112	0.0160646
737.190	0.0160233
737.268	0.0159984
737.346	0.0159166
737.424	0.0159517
737.503	0.0160350
737.581	0.0161422
737.659	0.0160767
737.737	0.0161882
737.815	0.0161018
737.893	0.0159940
737.971	0.0160542
738.049	0.0161072
738.128	0.0159731
738.206	0.0161076
738.284	0.0160503
738.362	0.0159632
738.440	0.0160123
738.518	0.0161033
738.596	0.0159636
738.674	0.0159783
738.753	0.0160266
738.831	0.0160198
738.909	0.0159386
738.987	0.0158926
739.065	0.0160885
739.143	0.0162457
739.221	0.0160101
739.299	0.0160021
739.378	0.0160372
739.456	0.0160358
739.534	0.0160239
739.612	0.0161302
739.690	0.0160518
739.768	0.0159106
739.846	0.0159172
739.924	0.0159438
740.003	0.0158858
740.081	0.0158544
740.159	0.0158110
740.237	0.0158383
740.315	0.0159131
740.393	0.0158501
740.471	0.0159833
740.549	0.0158444
740.628	0.0158933
740.706	0.0159095
740.784	0.0158128
740.862	0.0159610
740.940	0.0158888
741.018	0.0158613
741.096	0.0159483
741.174	0.0160358
741.253	0.0160848
741.331	0.0161172
741.409	0.0159599
741.487	0.0160210
741.565	0.0160475
741.643	0.0159771
741.721	0.0159723
741.799	0.0159948
741.878	0.0160359
741.956	0.0161053
742.034	0.0158874
742.112	0.0159740
742.190	0.0158590
742.268	0.0159284
742.346	0.0159322
742.424	0.0160777
742.503	0.0159161
742.581	0.0159624
742.659	0.0158985
742.737	0.0158852
742.815	0.0159919
742.893	0.0159933
742.971	0.0160278
743.049	0.0158664
743.128	0.0158932
743.206	0.0160120
743.284	0.0159763
743.362	0.0159465
743.440	0.0160004
743.518	0.0159433
743.596	0.0157772
743.674	0.0159055
743.753	0.0158874
743.831	0.0159312
743.909	0.0159455
743.987	0.0158975
744.065	0.0159692
744.143	0.0158571
744.221	0.0157190
744.299	0.0157415
744.378	0.0158729
744.456	0.0161071
744.534	0.0160409
744.612	0.0159503
744.690	0.0159907
744.768	0.0160003
744.846	0.0159729
744.924	0.0160091
745.003	0.0159846
745.081	0.0159677
745.159	0.0161345
745.237	0.0159772
745.315	0.0159919
745.393	0.0159272
745.471	0.0158552
745.549	0.0159961
745.628	0.0159156
745.706	0.0160245
745.784	0.0159542
745.862	0.0159323
745.940	0.0158260
746.018	0.0159328
746.096	0.0158934
746.174	0.0158298
746.253	0.0160802
746.331	0.0159747
746.409	0.0158254
746.487	0.0159124
746.565	0.0160915
746.643	0.0161230
746.721	0.0160526
746.799	0.0159678
746.878	0.0159499
746.956	0.0158320
747.034	0.0159838
747.112	0.0160120
747.190	0.0159117
747.268	0.0159354
747.346	0.0159399
747.424	0.0158976
747.503	0.0158821
747.581	0.0158959
747.659	0.0158027
747.737	0.0158875
747.815	0.0159912
747.893	0.0159261
747.971	0.0157932
748.049	0.0160094
748.128	0.0160204
748.206	0.0159235
748.284	0.0159483
748.362	0.0159898
748.440	0.0160474
748.518	0.0159687
748.596	0.0159378
748.674	0.0160560
748.753	0.0160510
748.831	0.0159529
748.909	0.0160248
748.987	0.0158411
749.065	0.0159875
749.143	0.0157594
749.221	0.0158122
749.299	0.0157801
749.378	0.0159505
749.456	0.0158820
749.534	0.0159376
749.612	0.0159570
749.690	0.0159202
749.768	0.0156765
749.846	0.0158362
749.924	0.0159203
750.003	0.0158026
750.081	0.0157360
750.159	0.0158681
750.237	0.0159164
750.315	0.0158039
750.393	0.0159869
750.471	0.0158722
750.549	0.0158692
750.628	0.0159904
750.706	0.0159494
750.784	0.0159015
750.862	0.0158340
750.940	0.0158894
751.018	0.0159135
751.096	0.0158711
751.174	0.0158895
751.253	0.0160488
751.331	0.0158462
751.409	0.0161618
751.487	0.0160519
751.565	0.0159632
751.643	0.0159549
751.721	0.0159495
751.799	0.0159685
751.878	0.0160094
751.956	0.0159653
752.034	0.0159863
752.112	0.0159247
752.190	0.0159003
752.268	0.0159900
752.346	0.0160108
752.424	0.0159055
752.503	0.0157899
752.581	0.0159972
752.659	0.0160126
752.737	0.0160503
752.815	0.0159189
752.893	0.0159630
752.971	0.0159106
753.049	0.0159459
753.128	0.0159128
753.206	0.0160487
753.284	0.0161040
753.362	0.0159187
753.440	0.0159113
753.518	0.0160197
753.596	0.0160030
753.674	0.0159403
753.753	0.0160181
753.831	0.0160502
753.909	0.0159183
753.987	0.0159665
754.065	0.0158077
754.143	0.0160591
754.221	0.0160397
754.299	0.0160609
754.378	0.0159503
754.456	0.0160372
754.534	0.0161091
754.612	0.0161133
754.690	0.0161040
754.768	0.0160275
754.846	0.0159738
754.924	0.0159913
755.003	0.0158712
755.081	0.0159840
755.159	0.0160506
755.237	0.0158802
755.315	0.0159823
755.393	0.0158739
755.471	0.0158994
755.549	0.0159515
755.628	0.0160334
755.706	0.0160413
755.784	0.0160139
755.862	0.0159156
755.940	0.0158806
756.018	0.0160540
756.096	0.0159708
756.174	0.0159206
756.253	0.0160773
756.331	0.0160675
756.409	0.0160030
756.487	0.0160139
756.565	0.0159145
756.643	0.0159386
756.721	0.0159372
756.799	0.0159153
756.878	0.0159828
756.956	0.0159950
757.034	0.0161478
757.112	0.0159446
757.190	0.0158891
757.268	0.0160944
757.346	0.0159432
757.424	0.0161562
757.503	0.0160490
757.581	0.0160026
757.659	0.0161203
757.737	0.0160552
757.815	0.0159806
757.893	0.0161146
757.971	0.0160497
758.049	0.0159247
758.128	0.0159423
758.206	0.0159408
758.284	0.0160099
758.362	0.0159999
758.440	0.0158407
758.518	0.0159334
758.596	0.0159176
758.674	0.0159837
758.753	0.0158904
758.831	0.0160053
758.909	0.0160204
758.987	0.0160437
759.065	0.0159446
759.143	0.0160410
759.221	0.0160249
759.299	0.0161555
759.378	0.0160473
759.456	0.0160944
759.534	0.0161818
759.612	0.0159966
759.690	0.0161060
759.768	0.0161419
759.846	0.0161743
759.924	0.0159759
760.003	0.0159959
760.081	0.0160234
760.159	0.0160963
760.237	0.0159864
760.315	0.0160232
760.393	0.0160596
760.471	0.0159350
760.549	0.0160094
760.628	0.0161006
760.706	0.0160780
760.784	0.0159887
760.862	0.0160583
760.940	0.0160893
761.018	0.0160381
761.096	0.0159233
761.174	0.0160519
761.253	0.0159204
761.331	0.0160859
761.409	0.0161728
761.487	0.0162043
761.565	0.0161579
761.643	0.0160686
761.721	0.0161901
761.799	0.0160747
761.878	0.0161634
761.956	0.0161620
762.034	0.0161653
762.112	0.0160838
762.190	0.0160220
762.268	0.0163139
762.346	0.0161238
762.424	0.0161446
762.503	0.0160867
762.581	0.0159557
762.659	0.0160339
762.737	0.0159896
762.815	0.0160612
762.893	0.0161475
762.971	0.0158858
763.049	0.0159669
763.128	0.0160040
763.206	0.0160244
763.284	0.0158928
763.362	0.0160793
763.440	0.0161158
763.518	0.0159891
763.596	0.0159254
763.674	0.0160176
763.753	0.0159673
763.831	0.0159866
763.909	0.0159509
763.987	0.0160055
764.065	0.0159531
764.143	0.0159866
764.221	0.0160201
764.299	0.0160120
764.378	0.0159029
764.456	0.0159629
764.534	0.0158591
764.612	0.0158210
764.690	0.0157858
764.768	0.0159087
764.846	0.0158942
764.924	0.0157034
765.003	0.0156487
765.081	0.0157460
765.159	0.0158311
765.237	0.0157671
765.315	0.0157460
765.393	0.0158730
765.471	0.0157811
765.549	0.0158226
765.628	0.0157200
765.706	0.0157429
765.784	0.0157908
765.862	0.0157302
765.940	0.0157021
766.018	0.0157182
766.096	0.0157258
766.174	0.0158333
766.253	0.0156460
766.331	0.0158975
766.409	0.0157175
766.487	0.0157571
766.565	0.0157999
766.643	0.0156480
766.721	0.0156667
766.799	0.0157736
766.878	0.0158080
766.956	0.0158247
767.034	0.0157803
767.112	0.0157757
767.190	0.0159038
767.268	0.0158013
767.346	0.0159146
767.424	0.0159492
767.503	0.0159421
767.581	0.0159112
767.659	0.0158692
767.737	0.0159200
767.815	0.0160678
767.893	0.0159034
767.971	0.0159624
768.049	0.0159560
768.128	0.0158425
768.206	0.0159241
768.284	0.0160240
768.362	0.0158666
768.440	0.0159430
768.518	0.0159962
768.596	0.0160490
768.674	0.0161040
768.753	0.0160209
768.831	0.0160310
768.909	0.0158949
768.987	0.0159898
769.065	0.0160964
769.143	0.0161111
769.221	0.0159796
769.299	0.0160254
769.378	0.0160408
769.456	0.0159328
769.534	0.0160351
769.612	0.0160528
769.690	0.0159376
769.768	0.0160190
769.846	0.0160633
769.924	0.0159255
770.003	0.0159660
770.081	0.0159663
770.159	0.0160766
770.237	0.0160317
770.315	0.0159872
770.393	0.0159973
770.471	0.0160876
770.549	0.0161027
770.628	0.0159681
770.706	0.0160984
770.784	0.0160468
770.862	0.0158724
770.940	0.0160421
771.018	0.0159781
771.096	0.0159878
771.174	0.0159810
771.253	0.0159429
771.331	0.0158150
771.409	0.0160091
771.487	0.0160101
771.565	0.0159035
771.643	0.0158191
771.721	0.0158494
771.799	0.0158553
771.878	0.0158508
771.956	0.0157863
772.034	0.0159191
772.112	0.0158513
772.190	0.0158342
772.268	0.0158605
772.346	0.0158409
772.424	0.0158356
772.503	0.0157130
772.581	0.0159055
772.659	0.0158800
772.737	0.0157582
772.815	0.0157892
772.893	0.0158927
772.971	0.0157874
773.049	0.0159335
773.128	0.0158321
773.206	0.0158107
773.284	0.0159050
773.362	0.0160079
773.440	0.0159252
773.518	0.0159869
773.596	0.0158507
773.674	0.0158796
773.753	0.0158721
773.831	0.0158875
773.909	0.0158444
773.987	0.0159552
774.065	0.0158766
774.143	0.0159521
774.221	0.0158346
774.299	0.0158358
774.378	0.0159523
774.456	0.0158110
774.534	0.0159045
774.612	0.0159045
774.690	0.0159275
774.768	0.0157655
774.846	0.0159160
774.924	0.0159431
775.003	0.0160485
775.081	0.0159945
775.159	0.0159440
775.237	0.0160345
775.315	0.0160191
775.393	0.0158941
775.471	0.0159452
775.549	0.0159995
775.628	0.0158305
775.706	0.0159031
775.784	0.0160339
775.862	0.0158893
775.940	0.0158817
776.018	0.0159874
776.096	0.0160143
776.174	0.0160194
776.253	0.0160738
776.331	0.0159135
776.409	0.0159538
776.487	0.0159531
776.565	0.0159872
776.643	0.0161082
776.721	0.0161425
776.799	0.0160863
776.878	0.0161222
776.956	0.0160004
777.034	0.0160482
777.112	0.0161021
777.190	0.0161744
777.268	0.0161173
777.346	0.0159426
777.424	0.0161368
777.503	0.0159867
777.581	0.0159498
777.659	0.0160423
777.737	0.0161492
777.815	0.0160619
777.893	0.0161011
777.971	0.0161356
778.049	0.0161067
778.128	0.0162068
778.206	0.0160995
778.284	0.0160706
778.362	0.0162094
778.440	0.0160768
778.518	0.0161829
778.596	0.0161311
778.674	0.0161488
778.753	0.0160205
778.831	0.0160742
778.909	0.0160954
778.987	0.0161866
779.065	0.0162045
779.143	0.0160781
779.221	0.0159814
779.299	0.0160386
779.378	0.0161559
779.456	0.0160592
779.534	0.0159768
779.612	0.0161755
779.690	0.0158962
779.768	0.0159644
779.846	0.0159401
779.924	0.0160794
780.003	0.0160413
780.081	0.0159681
780.159	0.0159062
780.237	0.0159676
780.315	0.0160385
780.393	0.0160693
780.471	0.0159807
780.549	0.0159369
780.628	0.0159476
780.706	0.0161794
780.784	0.0158977
780.862	0.0158967
780.940	0.0159238
781.018	0.0158509
781.096	0.0159009
781.174	0.0157726
781.253	0.0158971
781.331	0.0158134
781.409	0.0157564
781.487	0.0156900
781.565	0.0159789
781.643	0.0158202
781.721	0.0158366
781.799	0.0159645
781.878	0.0160094
781.956	0.0156577
782.034	0.0159783
782.112	0.0159083
782.190	0.0160112
782.268	0.0158640
782.346	0.0159853
782.424	0.0158203
782.503	0.0157605
782.581	0.0159099
782.659	0.0158447
782.737	0.0159193
782.815	0.0158823
782.893	0.0159628
782.971	0.0159274
783.049	0.0160614
783.128	0.0160097
783.206	0.0159694
783.284	0.0159099
783.362	0.0159812
783.440	0.0159150
783.518	0.0159967
783.596	0.0160267
783.674	0.0160603
783.753	0.0159041
783.831	0.0159332
783.909	0.0158455
783.987	0.0160232
784.065	0.0160619
784.143	0.0158854
784.221	0.0159783
784.299	0.0160276
784.378	0.0159682
784.456	0.0158578
784.534	0.0161105
784.612	0.0160254
784.690	0.0160368
784.768	0.0159847
784.846	0.0159185
784.924	0.0160068
785.003	0.0159850
785.081	0.0159588
785.159	0.0159870
785.237	0.0158958
785.315	0.0160929
785.393	0.0159775
785.471	0.0160335
785.549	0.0159122
785.628	0.0159411
785.706	0.0158617
785.784	0.0161059
785.862	0.0160101
785.940	0.0159861
786.018	0.0158935
786.096	0.0160572
786.174	0.0159944
786.253	0.0160564
786.331	0.0159946
786.409	0.0159673
786.487	0.0160855
786.565	0.0161598
786.643	0.0159931
786.721	0.0159805
786.799	0.0160895
786.878	0.0160376
786.956	0.0162083
787.034	0.0159293
787.112	0.0158537
787.190	0.0160507
787.268	0.0159473
787.346	0.0158450
787.424	0.0159023
787.503	0.0159861
787.581	0.0159029
787.659	0.0160041
787.737	0.0157185
787.815	0.0158701
787.893	0.0160023
787.971	0.0158755
788.049	0.0159338
788.128	0.0157439
788.206	0.0158556
788.284	0.0158514
788.362	0.0159023
788.440	0.0158282
788.518	0.0157810
788.596	0.0158255
788.674	0.0158153
788.753	0.0157890
788.831	0.0157220
788.909	0.0157018
788.987	0.0157288
789.065	0.0158245
789.143	0.0157634
789.221	0.0157749
789.299	0.0157748
789.378	0.0156534
789.456	0.0156676
789.534	0.0158273
789.612	0.0156905
789.690	0.0158115
789.768	0.0157487
789.846	0.0158150
789.924	0.0158014
790.003	0.0157019
790.081	0.0159158
790.159	0.0158273
790.237	0.0159203
790.315	0.0158447
790.393	0.0158347
790.471	0.0158823
790.549	0.0159734
790.628	0.0159466
790.706	0.0158867
790.784	0.0158098
790.862	0.0160410
790.940	0.0160104
791.018	0.0158829
791.096	0.0161662
791.174	0.0159721
791.253	0.0160741
791.331	0.0159752
791.409	0.0159821
791.487	0.0158540
791.565	0.0159106
791.643	0.0161351
791.721	0.0159843
791.799	0.0158517
791.878	0.0158516
791.956	0.0160815
792.034	0.0161166
792.112	0.0161269
792.190	0.0160703
792.268	0.0159373
792.346	0.0160268
792.424	0.0158751
792.503	0.0159950
792.581	0.0159451
792.659	0.0158805
792.737	0.0160279
792.815	0.0159513
792.893	0.0158723
792.971	0.0161617
793.049	0.0159595
793.128	0.0158910
793.206	0.0159113
793.284	0.0158968
793.362	0.0158829
793.440	0.0159636
793.518	0.0159429
793.596	0.0159904
793.674	0.0159107
793.753	0.0159050
793.831	0.0159449
793.909	0.0158585
793.987	0.0159274
794.065	0.0159302
794.143	0.0158981
794.221	0.0158599
794.299	0.0159537
794.378	0.0159403
794.456	0.0159850
794.534	0.0159237
794.612	0.0159098
794.690	0.0159003
794.768	0.0159530
794.846	0.0160455
794.924	0.0160535
795.003	0.0159224
795.081	0.0159184
795.159	0.0159109
795.237	0.0159934
795.315	0.0159084
795.393	0.0159061
795.471	0.0159161
795.549	0.0158934
795.628	0.0159026
795.706	0.0158958
795.784	0.0158260
795.862	0.0157738
795.940	0.0158704
796.018	0.0160288
796.096	0.0159666
796.174	0.0158143
796.253	0.0158564
796.331	0.0159709
796.409	0.0159800
796.487	0.0159866
796.565	0.0160448
796.643	0.0160825
796.721	0.0159277
796.799	0.0159008
796.878	0.0159717
796.956	0.0160889
797.034	0.0159244
797.112	0.0159319
797.190	0.0161643
797.268	0.0160370
797.346	0.0159903
797.424	0.0159570
797.503	0.0160992
797.581	0.0158833
797.659	0.0160506
797.737	0.0160106
797.815	0.0160244
797.893	0.0160399
797.971	0.0159141
798.049	0.0160444
798.128	0.0161101
798.206	0.0159928
798.284	0.0160483
798.362	0.0158366
798.440	0.0159536
798.518	0.0161197
798.596	0.0160644
798.674	0.0160463
798.753	0.0159592
798.831	0.0160413
798.909	0.0160918
798.987	0.0159637
799.065	0.0160545
799.143	0.0161373
799.221	0.0161253
799.299	0.0162139
799.378	0.0160297
799.456	0.0160484
799.534	0.0159499
799.612	0.0159072
799.690	0.0158916
799.768	0.0159129
799.846	0.0159392
799.924	0.0160923
800.003	0.0160460
800.081	0.0160674
800.159	0.0159212
800.237	0.0159856
800.315	0.0160219
800.393	0.0159011
800.471	0.0160886
800.549	0.0159675
800.628	0.0159699
800.706	0.0158882
800.784	0.0160410
800.862	0.0160342
800.940	0.0160678
801.018	0.0159911
801.096	0.0159538
801.174	0.0160208
801.253	0.0161237
801.331	0.0160402
801.409	0.0160768
801.487	0.0160114
801.565	0.0161047
801.643	0.0162228
801.721	0.0159781
801.799	0.0160830
801.878	0.0160211
801.956	0.0161922
802.034	0.0160589
802.112	0.0160474
802.190	0.0160603
802.268	0.0160622
802.346	0.0162107
802.424	0.0160658
802.503	0.0159463
802.581	0.0161752
802.659	0.0161831
802.737	0.0161645
802.815	0.0160238
802.893	0.0161098
802.971	0.0160145
803.049	0.0160658
803.128	0.0161078
803.206	0.0159707
803.284	0.0160138
803.362	0.0160452
803.440	0.0161598
803.518	0.0161063
803.596	0.0161304
803.674	0.0161090
803.753	0.0159930
803.831	0.0161272
803.909	0.0159969
803.987	0.0160014
804.065	0.0159556
804.143	0.0160219
804.221	0.0159274
804.299	0.0159589
804.378	0.0161045
804.456	0.0160532
804.534	0.0159361
804.612	0.0159422
804.690	0.0161860
804.768	0.0160489
804.846	0.0161298
804.924	0.0160910
805.003	0.0159466
805.081	0.0161085
805.159	0.0161283
805.237	0.0161303
805.315	0.0158886
805.393	0.0160577
805.471	0.0161083
805.549	0.0158998
805.628	0.0159506
805.706	0.0160400
805.784	0.0160413
805.862	0.0160738
805.940	0.0159386
806.018	0.0160374
806.096	0.0160603
806.174	0.0160632
806.253	0.0158446
806.331	0.0159219
806.409	0.0157803
806.487	0.0158527
806.565	0.0158591
806.643	0.0160102
806.721	0.0158698
806.799	0.0158218
806.878	0.0157542
806.956	0.0157777
807.034	0.0158727
807.112	0.0158078
807.190	0.0157655
807.268	0.0158992
807.346	0.0157783
807.424	0.0158585
807.503	0.0157558
807.581	0.0157731
807.659	0.0158059
807.737	0.0158312
807.815	0.0157841
807.893	0.0158146
807.971	0.0158746
808.049	0.0157941
808.128	0.0157540
808.206	0.0157024
808.284	0.0158549
808.362	0.0157504
808.440	0.0158627
808.518	0.0158515
808.596	0.0158518
808.674	0.0156861
808.753	0.0158703
808.831	0.0157914
808.909	0.0157632
808.987	0.0159145
809.065	0.0158476
809.143	0.0158238
809.221	0.0157573
809.299	0.0158236
809.378	0.0158633
809.456	0.0158115
809.534	0.0157098
809.612	0.0158583
809.690	0.0159110
809.768	0.0161125
809.846	0.0159375
809.924	0.0158994
810.003	0.0160325
810.081	0.0160617
810.159	0.0160110
810.237	0.0160814
810.315	0.0159739
810.393	0.0159288
810.471	0.0159579
810.549	0.0161170
810.628	0.0160278
810.706	0.0160825
810.784	0.0161497
810.862	0.0160192
810.940	0.0160636
811.018	0.0160055
811.096	0.0159384
811.174	0.0160035
811.253	0.0161278
811.331	0.0160918
811.409	0.0161000
811.487	0.0159650
811.565	0.0159722
811.643	0.0159667
811.721	0.0160713
811.799	0.0160020
811.878	0.0158116
811.956	0.0160404
812.034	0.0159491
812.112	0.0160281
812.190	0.0159299
812.268	0.0160639
812.346	0.0158625
812.424	0.0158527
812.503	0.0159473
812.581	0.0160661
812.659	0.0158504
812.737	0.0157773
812.815	0.0161221
812.893	0.0157974
812.971	0.0158153
813.049	0.0159626
813.128	0.0158273
813.206	0.0158006
813.284	0.0158055
813.362	0.0158069
813.440	0.0157254
813.518	0.0156809
813.596	0.0156556
813.674	0.0157614
813.753	0.0156761
813.831	0.0157269
813.909	0.0157125
813.987	0.0157914
814.065	0.0156809
814.143	0.0156157
814.221	0.0157375
814.299	0.0156932
814.378	0.0155686
814.456	0.0156577
814.534	0.0158111
814.612	0.0157167
814.690	0.0156901
814.768	0.0157063
814.846	0.0158418
814.924	0.0158652
815.003	0.0158732
815.081	0.0156521
815.159	0.0157630
815.237	0.0159747
815.315	0.0158865
815.393	0.0159081
815.471	0.0158865
815.549	0.0158826
815.628	0.0158836
815.706	0.0157957
815.784	0.0158173
815.862	0.0158627
815.940	0.0159177
816.018	0.0159347
816.096	0.0158303
816.174	0.0157865
816.253	0.0160265
816.331	0.0159621
816.409	0.0158692
816.487	0.0159156
816.565	0.0158427
816.643	0.0159434
816.721	0.0159430
816.799	0.0160165
816.878	0.0160487
816.956	0.0160892
817.034	0.0159354
817.112	0.0157985
817.190	0.0158337
817.268	0.0159781
817.346	0.0159675
817.424	0.0159629
817.503	0.0158395
817.581	0.0158643
817.659	0.0159668
817.737	0.0160690
817.815	0.0160049
817.893	0.0159606
817.971	0.0159361
818.049	0.0159962
818.128	0.0159351
818.206	0.0160098
818.284	0.0160703
818.362	0.0160039
818.440	0.0158462
818.518	0.0160142
818.596	0.0160546
818.674	0.0160046
818.753	0.0159920
818.831	0.0160778
818.909	0.0160325
818.987	0.0160677
819.065	0.0160416
819.143	0.0159190
819.221	0.0160333
819.299	0.0160468
819.378	0.0159635
819.456	0.0160385
819.534	0.0161084
819.612	0.0160210
819.690	0.0160841
819.768	0.0159016
819.846	0.0161664
819.924	0.0162818
820.003	0.0160672
820.081	0.0160555
820.159	0.0161884
820.237	0.0161665
820.315	0.0160636
820.393	0.0161249
820.471	0.0161320
820.549	0.0162303
820.628	0.0162095
820.706	0.0160983
820.784	0.0160464
820.862	0.0160551
820.940	0.0161156
821.018	0.0161465
821.096	0.0160941
821.174	0.0160499
821.253	0.0160172
821.331	0.0160505
821.409	0.0160918
821.487	0.0160782
821.565	0.0160500
821.643	0.0160172
821.721	0.0160720
821.799	0.0161280
821.878	0.0160966
821.956	0.0160240
822.034	0.0160275
822.112	0.0160488
822.190	0.0160358
822.268	0.0160412
822.346	0.0160915
822.424	0.0160294
822.503	0.0159980
822.581	0.0158864
822.659	0.0160567
822.737	0.0159387
822.815	0.0159826
822.893	0.0158968
822.971	0.0159837
823.049	0.0158910
823.128	0.0159983
823.206	0.0159931
823.284	0.0158504
823.362	0.0159367
823.440	0.0158722
823.518	0.0157602
823.596	0.0158139
823.674	0.0158648
823.753	0.0158952
823.831	0.0157829
823.909	0.0158823
823.987	0.0159849
824.065	0.0160276
824.143	0.0158793
824.221	0.0159116
824.299	0.0158894
824.378	0.0158507
824.456	0.0158885
824.534	0.0161041
824.612	0.0159595
824.690	0.0160419
824.768	0.0159669
824.846	0.0160246
824.924	0.0160326
825.003	0.0159988
825.081	0.0159344
825.159	0.0160545
825.237	0.0160403
825.315	0.0161476
825.393	0.0160526
825.471	0.0160581
825.549	0.0161642
825.628	0.0161224
825.706	0.0162205
825.784	0.0162479
825.862	0.0162202
825.940	0.0162222
826.018	0.0163070
826.096	0.0161424
826.174	0.0162132
826.253	0.0161998
826.331	0.0164171
826.409	0.0163081
826.487	0.0163570
826.565	0.0161666
826.643	0.0162193
826.721	0.0162073
826.799	0.0162919
826.878	0.0161748
826.956	0.0160559
827.034	0.0163561
827.112	0.0163040
827.190	0.0162826
827.268	0.0162121
827.346	0.0160933
827.424	0.0161073
827.503	0.0162047
827.581	0.0162844
827.659	0.0162156
827.737	0.0162015
827.815	0.0162001
827.893	0.0160845
827.971	0.0160630
828.049	0.0160104
828.128	0.0158698
828.206	0.0160656
828.284	0.0159899
828.362	0.0160514
828.440	0.0160271
828.518	0.0159602
828.596	0.0159933
828.674	0.0160082
828.753	0.0159798
828.831	0.0158486
828.909	0.0159670
828.987	0.0158241
829.065	0.0159564
829.143	0.0160512
829.221	0.0159067
829.299	0.0156725
829.378	0.0157201
829.456	0.0158001
829.534	0.0157497
829.612	0.0157155
829.690	0.0157948
829.768	0.0156553
829.846	0.0158022
829.924	0.0155853
830.003	0.0154220
830.081	0.0156063
830.159	0.0155516
830.237	0.0157431
830.315	0.0156846
830.393	0.0156476
830.471	0.0155656
830.549	0.0156091
830.628	0.0157523
830.706	0.0156554
830.784	0.0157228
830.862	0.0158456
830.940	0.0157662
831.018	0.0157431
831.096	0.0156644
831.174	0.0156245
831.253	0.0157373
831.331	0.0157073
831.409	0.0157438
831.487	0.0158385
831.565	0.0159216
831.643	0.0159301
831.721	0.0159209
831.799	0.0158700
831.878	0.0160173
831.956	0.0159018
832.034	0.0157754
832.112	0.0159572
832.190	0.0160098
832.268	0.0158758
832.346	0.0158945
832.424	0.0159448
832.503	0.0158913
832.581	0.0159439
832.659	0.0158633
832.737	0.0159038
832.815	0.0159914
832.893	0.0159035
832.971	0.0159277
833.049	0.0158677
833.128	0.0159533
833.206	0.0159356
833.284	0.0158437
833.362	0.0159289
833.440	0.0160555
833.518	0.0159837
833.596	0.0160975
833.674	0.0161104
833.753	0.0160727
833.831	0.0162183
833.909	0.0161231
833.987	0.0159957
834.065	0.0160621
834.143	0.0161825
834.221	0.0161025
834.299	0.0160566
834.378	0.0161512
834.456	0.0161301
834.534	0.0160269
834.612	0.0160075
834.690	0.0160959
834.768	0.0161002
834.846	0.0160619
834.924	0.0159305
835.003	0.0159565
835.081	0.0160898
835.159	0.0161372
835.237	0.0160649
835.315	0.0159908
835.393	0.0160453
835.471	0.0160558
835.549	0.0160718
835.628	0.0158700
835.706	0.0160928
835.784	0.0161106
835.862	0.0161048
835.940	0.0160278
836.018	0.0160217
836.096	0.0159435
836.174	0.0157758
836.253	0.0159094
836.331	0.0159936
836.409	0.0159781
836.487	0.0158222
836.565	0.0158988
836.643	0.0158462
836.721	0.0158574
836.799	0.0157476
836.878	0.0158414
836.956	0.0157990
837.034	0.0158267
837.112	0.0158663
837.190	0.0158186
837.268	0.0157011
837.346	0.0158658
837.424	0.0159592
837.503	0.0159000
837.581	0.0157326
837.659	0.0158945
837.737	0.0158437
837.815	0.0157774
837.893	0.0159374
837.971	0.0157640
838.049	0.0157701
838.128	0.0157768
838.206	0.0157915
838.284	0.0157101
838.362	0.0157030
838.440	0.0158302
838.518	0.0157845
838.596	0.0158129
838.674	0.0157607
838.753	0.0157496
838.831	0.0157457
838.909	0.0157194
838.987	0.0157974
839.065	0.0158469
839.143	0.0159032
839.221	0.0159085
839.299	0.0158903
839.378	0.0157904
839.456	0.0158421
839.534	0.0158770
839.612	0.0158786
839.690	0.0158061
839.768	0.0158519
839.846	0.0160057
839.924	0.0159628
840.003	0.0159466
840.081	0.0157656
840.159	0.0158946
840.237	0.0159064
840.315	0.0159489
840.393	0.0160807
840.471	0.0159650
840.549	0.0159525
840.628	0.0160288
840.706	0.0160052
840.784	0.0159590
840.862	0.0160353
840.940	0.0160068
841.018	0.0159800
841.096	0.0160461
841.174	0.0160736
841.253	0.0160008
841.331	0.0160444
841.409	0.0162317
841.487	0.0160347
841.565	0.0160007
841.643	0.0160477
841.721	0.0160292
841.799	0.0160088
841.878	0.0160426
841.956	0.0161560
842.034	0.0160279
842.112	0.0159517
842.190	0.0162289
842.268	0.0161517
842.346	0.0162974
842.424	0.0160966
842.503	0.0160456
842.581	0.0161355
842.659	0.0160658
842.737	0.0160709
842.815	0.0160564
842.893	0.0160983
842.971	0.0159995
843.049	0.0159644
843.128	0.0159476
843.206	0.0160558
843.284	0.0158477
843.362	0.0159587
843.440	0.0159821
843.518	0.0159013
843.596	0.0159399
843.674	0.0158853
843.753	0.0160120
843.831	0.0159447
843.909	0.0160384
843.987	0.0160334
844.065	0.0158660
844.143	0.0159436
844.221	0.0159084
844.299	0.0159177
844.378	0.0158675
844.456	0.0158700
844.534	0.0159896
844.612	0.0159706
844.690	0.0160252
844.768	0.0161212
844.846	0.0159074
844.924	0.0159785
845.003	0.0160178
845.081	0.0158854
845.159	0.0158221
845.237	0.0158635
845.315	0.0158730
845.393	0.0160094
845.471	0.0157969
845.549	0.0158493
845.628	0.0157870
845.706	0.0158302
845.784	0.0158180
845.862	0.0159565
845.940	0.0158754
846.018	0.0157748
846.096	0.0158540
846.174	0.0159045
846.253	0.0159005
846.331	0.0159227
846.409	0.0158436
846.487	0.0159703
846.565	0.0159168
846.643	0.0159100
846.721	0.0157796
846.799	0.0157311
846.878	0.0158119
846.956	0.0158119
847.034	0.0158559
847.112	0.0160183
847.190	0.0158737
847.268	0.0159143
847.346	0.0159222
847.424	0.0159252
847.503	0.0159608
847.581	0.0158146
847.659	0.0158662
847.737	0.0159235
847.815	0.0158043
847.893	0.0158846
847.971	0.0159156
848.049	0.0159800
848.128	0.0159510
848.206	0.0160574
848.284	0.0160532
848.362	0.0158377
848.440	0.0158788
848.518	0.0159878
848.596	0.0159166
848.674	0.0160047
848.753	0.0160276
848.831	0.0158701
848.909	0.0160703
848.987	0.0160500
849.065	0.0161042
849.143	0.0160799
849.221	0.0159298
849.299	0.0159213
849.378	0.0160055
849.456	0.0160611
849.534	0.0160458
849.612	0.0160352
849.690	0.0160780
849.768	0.0160341
849.846	0.0161057
849.924	0.0160828
850.003	0.0159803
850.081	0.0161082
850.159	0.0161185
850.237	0.0161462
850.315	0.0159679
850.393	0.0160327
850.471	0.0161253
850.549	0.0161426
850.628	0.0160626
850.706	0.0160268
850.784	0.0161640
850.862	0.0161407
850.940	0.0161317
851.018	0.0161598
851.096	0.0160252
851.174	0.0158811
851.253	0.0160771
851.331	0.0160365
851.409	0.0159312
851.487	0.0158530
851.565	0.0159812
851.643	0.0159166
851.721	0.0159005
851.799	0.0159687
851.878	0.0158753
851.956	0.0158131
852.034	0.0158051
852.112	0.0159402
852.190	0.0160156
852.268	0.0159857
852.346	0.0159411
852.424	0.0158252
852.503	0.0159577
852.581	0.0158529
852.659	0.0158006
852.737	0.0159135
852.815	0.0158009
852.893	0.0157984
852.971	0.0158099
853.049	0.0159457
853.128	0.0158586
853.206	0.0157610
853.284	0.0158958
853.362	0.0158744
853.440	0.0159721
853.518	0.0158594
853.596	0.0158881
853.674	0.0158383
853.753	0.0158743
853.831	0.0160095
853.909	0.0160045
853.987	0.0158037
854.065	0.0158887
854.143	0.0159359
854.221	0.0157413
854.299	0.0158662
854.378	0.0158440
854.456	0.0158057
854.534	0.0158586
854.612	0.0158018
854.690	0.0158657
854.768	0.0157380
854.846	0.0158146
854.924	0.0161162
855.003	0.0159457
855.081	0.0159505
855.159	0.0159258
855.237	0.0158401
855.315	0.0159276
855.393	0.0159408
855.471	0.0160597
855.549	0.0158780
855.628	0.0159522
855.706	0.0160514
855.784	0.0159429
855.862	0.0160232
855.940	0.0160828
856.018	0.0160680
856.096	0.0161387
856.174	0.0159033
856.253	0.0159869
856.331	0.0160443
856.409	0.0160722
856.487	0.0160492
856.565	0.0158809
856.643	0.0161375
856.721	0.0161330
856.799	0.0160538
856.878	0.0161382
856.956	0.0159517
857.034	0.0162303
857.112	0.0162204
857.190	0.0161333
857.268	0.0160435
857.346	0.0161060
857.424	0.0161401
857.503	0.0161704
857.581	0.0161900
857.659	0.0162897
857.737	0.0162345
857.815	0.0161498
857.893	0.0161091
857.971	0.0161662
858.049	0.0162550
858.128	0.0161585
858.206	0.0160990
858.284	0.0162350
858.362	0.0162245
858.440	0.0160839
858.518	0.0161172
858.596	0.0160925
858.674	0.0161742
858.753	0.0160169
858.831	0.0161948
858.909	0.0160119
858.987	0.0161253
859.065	0.0162416
859.143	0.0160066
859.221	0.0160063
859.299	0.0160407
859.378	0.0160680
859.456	0.0159906
859.534	0.0159184
859.612	0.0159682
859.690	0.0159394
859.768	0.0159425
859.846	0.0159049
859.924	0.0159670
860.003	0.0159566
860.081	0.0159425
860.159	0.0158873
860.237	0.0159035
860.315	0.0158599
860.393	0.0158883
860.471	0.0158532
860.549	0.0157144
860.628	0.0158096
860.706	0.0158216
860.784	0.0157935
860.862	0.0157733
860.940	0.0157764
861.018	0.0157569
861.096	0.0158167
861.174	0.0157597
861.253	0.0159088
861.331	0.0157271
861.409	0.0157958
861.487	0.0159509
861.565	0.0158748
861.643	0.0156541
861.721	0.0159044
861.799	0.0158043
861.878	0.0159113
861.956	0.0159100
862.034	0.0158986
862.112	0.0159401
862.190	0.0159013
862.268	0.0159370
862.346	0.0159013
862.424	0.0159711
862.503	0.0159299
862.581	0.0159606
862.659	0.0159584
862.737	0.0158845
862.815	0.0158608
862.893	0.0158959
862.971	0.0160519
863.049	0.0158295
863.128	0.0158750
863.206	0.0158141
863.284	0.0158290
863.362	0.0157480
863.440	0.0159692
863.518	0.0158321
863.596	0.0158182
863.674	0.0158694
863.753	0.0160331
863.831	0.0159216
863.909	0.0159353
863.987	0.0159632
864.065	0.0159054
864.143	0.0158061
864.221	0.0161095
864.299	0.0160458
864.378	0.0159424
864.456	0.0161453
864.534	0.0160045
864.612	0.0160340
864.690	0.0159948
864.768	0.0160527
864.846	0.0160560
864.924	0.0159781
865.003	0.0160520
865.081	0.0160854
865.159	0.0160637
865.237	0.0161002
865.315	0.0160040
865.393	0.0161026
865.471	0.0159655
865.549	0.0160016
865.628	0.0158882
865.706	0.0160600
865.784	0.0160466
865.862	0.0158067
865.940	0.0158253
866.018	0.0159559
866.096	0.0159010
866.174	0.0157458
866.253	0.0158851
866.331	0.0159933
866.409	0.0158208
866.487	0.0159406
866.565	0.0159511
866.643	0.0157141
866.721	0.0158396
866.799	0.0158575
866.878	0.0158107
866.956	0.0157129
867.034	0.0159678
867.112	0.0159466
867.190	0.0157773
867.268	0.0158032
867.346	0.0157684
867.424	0.0159203
867.503	0.0159057
867.581	0.0158203
867.659	0.0159171
867.737	0.0158178
867.815	0.0158108
867.893	0.0158202
867.971	0.0159116
868.049	0.0158852
868.128	0.0157178
868.206	0.0157069
868.284	0.0158823
868.362	0.0158587
868.440	0.0157195
868.518	0.0158485
868.596	0.0157793
868.674	0.0158333
868.753	0.0158157
868.831	0.0156535
868.909	0.0156791
868.987	0.0156815
869.065	0.0156232
869.143	0.0159299
869.221	0.0157129
869.299	0.0159184
869.378	0.0157773
869.456	0.0159036
869.534	0.0158340
869.612	0.0158309
869.690	0.0158167
869.768	0.0158060
869.846	0.0158543
869.924	0.0158491
870.003	0.0157693
870.081	0.0157177
870.159	0.0159075
870.237	0.0158755
870.315	0.0157877
870.393	0.0158266
870.471	0.0158829
870.549	0.0158340
870.628	0.0159055
870.706	0.0160158
870.784	0.0158715
870.862	0.0160014
870.940	0.0158233
871.018	0.0159290
871.096	0.0159859
871.174	0.0158398
871.253	0.0160863
871.331	0.0159311
871.409	0.0159218
871.487	0.0159966
871.565	0.0159515
871.643	0.0157533
871.721	0.0159274
871.799	0.0159628
871.878	0.0158668
871.956	0.0159033
872.034	0.0159585
872.112	0.0158109
872.190	0.0159939
872.268	0.0159411
872.346	0.0157698
872.424	0.0160693
872.503	0.0160915
872.581	0.0159398
872.659	0.0159582
872.737	0.0159341
872.815	0.0159872
872.893	0.0160372
872.971	0.0159370
873.049	0.0160175
873.128	0.0162501
873.206	0.0160896
873.284	0.0159498
873.362	0.0158707
873.440	0.0159432
873.518	0.0160471
873.596	0.0160172
873.674	0.0159651
873.753	0.0160103
873.831	0.0159607
873.909	0.0162076
873.987	0.0160843
874.065	0.0160426
874.143	0.0161250
874.221	0.0160791
874.299	0.0160090
874.378	0.0161277
874.456	0.0163314
874.534	0.0162423
874.612	0.0161623
874.690	0.0162608
874.768	0.0161452
874.846	0.0162695
874.924	0.0161295
875.003	0.0161484
875.081	0.0162393
875.159	0.0161279
875.237	0.0160959
875.315	0.0160600
875.393	0.0162387
875.471	0.0161877
875.549	0.0160434
875.628	0.0159514
875.706	0.0160504
875.784	0.0161224
875.862	0.0160886
875.940	0.0160123
876.018	0.0159839
876.096	0.0160307
876.174	0.0158731
876.253	0.0159299
876.331	0.0159225
876.409	0.0159544
876.487	0.0160265
876.565	0.0156961
876.643	0.0159843
876.721	0.0158800
876.799	0.0159338
876.878	0.0158000
876.956	0.0158221
877.034	0.0157485
877.112	0.0157429
877.190	0.0158725
877.268	0.0159204
877.346	0.0158742
877.424	0.0158683
877.503	0.0159142
877.581	0.0158881
877.659	0.0159412
877.737	0.0159289
877.815	0.0159467
877.893	0.0157973
877.971	0.0160081
878.049	0.0160341
878.128	0.0160483
878.206	0.0158839
878.284	0.0161375
878.362	0.0161864
878.440	0.0159858
878.518	0.0160733
878.596	0.0161711
878.674	0.0161569
878.753	0.0160158
878.831	0.0160525
878.909	0.0161008
878.987	0.0160087
879.065	0.0161109
879.143	0.0161675
879.221	0.0161526
879.299	0.0159933
879.378	0.0161113
879.456	0.0161516
879.534	0.0161024
879.612	0.0161012
879.690	0.0160381
879.768	0.0160989
879.846	0.0161875
879.924	0.0160609
880.003	0.0161742
880.081	0.0160296
880.159	0.0161771
880.237	0.0159500
880.315	0.0161348
880.393	0.0160872
880.471	0.0160349
880.549	0.0160706
880.628	0.0160672
880.706	0.0160352
880.784	0.0161844
880.862	0.0161828
880.940	0.0160177
881.018	0.0159657
881.096	0.0160213
881.174	0.0161340
881.253	0.0160152
881.331	0.0159939
881.409	0.0160836
881.487	0.0161610
881.565	0.0161371
881.643	0.0161843
881.721	0.0160294
881.799	0.0160661
881.878	0.0159904
881.956	0.0161899
882.034	0.0160532
882.112	0.0161017
882.190	0.0161109
882.268	0.0160238
882.346	0.0160953
882.424	0.0161568
882.503	0.0160964
882.581	0.0160775
882.659	0.0160383
882.737	0.0160370
882.815	0.0161146
882.893	0.0159998
882.971	0.0160902
883.049	0.0160387
883.128	0.0160308
883.206	0.0160143
883.284	0.0159816
883.362	0.0160667
883.440	0.0159209
883.518	0.0159804
883.596	0.0160545
883.674	0.0159561
883.753	0.0159714
883.831	0.0161144
883.909	0.0158026
883.987	0.0158669
884.065	0.0159881
884.143	0.0159800
884.221	0.0158997
884.299	0.0158239
884.378	0.0159028
884.456	0.0158828
884.534	0.0158149
884.612	0.0159459
884.690	0.0159627
884.768	0.0158190
884.846	0.0158380
884.924	0.0158459
885.003	0.0159129
885.081	0.0159022
885.159	0.0158836
885.237	0.0160149
885.315	0.0158691
885.393	0.0159225
885.471	0.0159519
885.549	0.0159857
885.628	0.0158437
885.706	0.0159433
885.784	0.0159662
885.862	0.0160134
885.940	0.0160886
886.018	0.0158275
886.096	0.0159653
886.174	0.0161464
886.253	0.0160329
886.331	0.0160110
886.409	0.0160522
886.487	0.0160327
886.565	0.0160173
886.643	0.0159315
886.721	0.0160904
886.799	0.0160265
886.878	0.0160479
886.956	0.0160169
887.034	0.0160139
887.112	0.0159480
887.190	0.0157947
887.268	0.0158849
887.346	0.0157929
887.424	0.0158656
887.503	0.0158796
887.581	0.0160506
887.659	0.0159254
887.737	0.0158209
887.815	0.0158491
887.893	0.0158183
887.971	0.0157993
888.049	0.0158358
888.128	0.0160493
888.206	0.0159303
888.284	0.0159345
888.362	0.0160083
888.440	0.0159134
888.518	0.0160033
888.596	0.0159049
888.674	0.0158884
888.753	0.0160706
888.831	0.0159447
888.909	0.0159837
888.987	0.0160649
889.065	0.0160551
889.143	0.0159338
889.221	0.0159198
889.299	0.0160608
889.378	0.0160528
889.456	0.0159017
889.534	0.0159142
889.612	0.0158414
889.690	0.0160058
889.768	0.0160661
889.846	0.0159296
889.924	0.0159070
890.003	0.0160078
890.081	0.0158942
890.159	0.0159303
890.237	0.0159258
890.315	0.0159569
890.393	0.0157785
890.471	0.0159048
890.549	0.0158245
890.628	0.0157297
890.706	0.0157845
890.784	0.0158037
890.862	0.0157716
890.940	0.0158483
891.018	0.0158014
891.096	0.0158489
891.174	0.0158167
891.253	0.0158513
891.331	0.0159435
891.409	0.0158662
891.487	0.0157997
891.565	0.0158171
891.643	0.0156771
891.721	0.0157445
891.799	0.0157732
891.878	0.0157592
891.956	0.0157945
892.034	0.0158826
892.112	0.0156441
892.190	0.0156435
892.268	0.0157336
892.346	0.0155931
892.424	0.0156940
892.503	0.0157324
892.581	0.0156495
892.659	0.0157427
892.737	0.0156573
892.815	0.0157023
892.893	0.0157365
892.971	0.0157494
893.049	0.0156304
893.128	0.0155883
893.206	0.0157308
893.284	0.0157736
893.362	0.0158241
893.440	0.0158395
893.518	0.0157849
893.596	0.0157734
893.674	0.0159155
893.753	0.0157778
893.831	0.0158462
893.909	0.0159955
893.987	0.0158980
894.065	0.0157288
894.143	0.0157688
894.221	0.0158173
894.299	0.0158559
894.378	0.0157175
894.456	0.0157935
894.534	0.0157806
894.612	0.0157523
894.690	0.0157195
894.768	0.0157513
894.846	0.0159089
894.924	0.0158640
895.003	0.0159805
895.081	0.0158050
895.159	0.0159054
895.237	0.0157564
895.315	0.0158786
895.393	0.0158689
895.471	0.0158206
895.549	0.0158083
895.628	0.0158888
895.706	0.0158906
895.784	0.0157653
895.862	0.0158829
895.940	0.0159184
896.018	0.0159624
896.096	0.0159740
896.174	0.0158858
896.253	0.0158154
896.331	0.0159434
896.409	0.0159053
896.487	0.0158697
896.565	0.0159590
896.643	0.0159174
896.721	0.0159217
896.799	0.0159207
896.878	0.0159074
896.956	0.0158647
897.034	0.0158593
897.112	0.0157986
897.190	0.0158101
897.268	0.0158770
897.346	0.0158465
897.424	0.0159644
897.503	0.0159588
897.581	0.0158587
897.659	0.0159396
897.737	0.0160368
897.815	0.0159890
897.893	0.0159351
897.971	0.0159570
898.049	0.0159424
898.128	0.0159389
898.206	0.0159754
898.284	0.0158719
898.362	0.0158170
898.440	0.0159700
898.518	0.0159917
898.596	0.0158614
898.674	0.0157980
898.753	0.0157690
898.831	0.0159553
898.909	0.0159494
898.987	0.0159215
899.065	0.0160068
899.143	0.0159974
899.221	0.0159566
899.299	0.0160358
899.378	0.0159383
899.456	0.0159303
899.534	0.0159513
899.612	0.0159827
899.690	0.0160907
899.768	0.0158604
899.846	0.0161327
899.924	0.0160376
900.003	0.0159800
900.081	0.0160152
900.159	0.0159676
900.237	0.0159560
900.315	0.0160216
900.393	0.0160398
900.471	0.0159917
900.549	0.0159196
900.628	0.0161177
900.706	0.0160273
900.784	0.0159962
900.862	0.0159896
900.940	0.0159750
901.018	0.0160767
901.096	0.0160793
901.174	0.0160316
901.253	0.0160231
901.331	0.0160183
901.409	0.0160528
901.487	0.0162032
901.565	0.0159488
901.643	0.0161484
901.721	0.0161231
901.799	0.0160542
901.878	0.0161595
901.956	0.0160261
902.034	0.0160472
902.112	0.0161371
902.190	0.0159817
902.268	0.0160302
902.346	0.0161045
902.424	0.0161162
902.503	0.0160616
902.581	0.0161317
902.659	0.0162079
902.737	0.0160979
902.815	0.0160252
902.893	0.0160688
902.971	0.0160298
903.049	0.0161159
903.128	0.0161250
903.206	0.0159239
903.284	0.0159624
903.362	0.0159968
903.440	0.0160284
903.518	0.0159333
903.596	0.0159038
903.674	0.0160246
903.753	0.0160543
903.831	0.0160590
903.909	0.0159849
903.987	0.0159166
904.065	0.0159527
904.143	0.0159619
904.221	0.0160800
904.299	0.0159846
904.378	0.0159618
904.456	0.0160954
904.534	0.0158283
904.612	0.0159780
904.690	0.0159057
904.768	0.0160938
904.846	0.0161170
904.924	0.0159338
905.003	0.0159155
905.081	0.0159174
905.159	0.0160223
905.237	0.0160581
905.315	0.0159750
905.393	0.0160311
905.471	0.0161736
905.549	0.0161977
905.628	0.0160578
905.706	0.0160556
905.784	0.0161057
905.862	0.0162034
905.940	0.0161227
906.018	0.0160964
906.096	0.0160076
906.174	0.0161228
906.253	0.0161492
906.331	0.0160038
906.409	0.0160648
906.487	0.0161346
906.565	0.0160478
906.643	0.0160004
906.721	0.0160645
906.799	0.0161095
906.878	0.0162361
906.956	0.0159486
907.034	0.0159440
907.112	0.0160044
907.190	0.0161621
907.268	0.0161033
907.346	0.0159521
907.424	0.0160614
907.503	0.0160427
907.581	0.0158975
907.659	0.0159063
907.737	0.0157883
907.815	0.0158699
907.893	0.0158852
907.971	0.0158442
908.049	0.0159518
908.128	0.0158843
908.206	0.0159133
908.284	0.0158042
908.362	0.0158370
908.440	0.0159138
908.518	0.0157785
908.596	0.0157022
908.674	0.0158662
908.753	0.0157604
908.831	0.0158211
908.909	0.0159277
908.987	0.0158493
909.065	0.0158426
909.143	0.0158902
909.221	0.0157433
909.299	0.0158807
909.378	0.0158194
909.456	0.0158582
909.534	0.0158859
909.612	0.0156895
909.690	0.0159122
909.768	0.0158218
909.846	0.0158587
909.924	0.0158010
910.003	0.0158784
910.081	0.0159221
910.159	0.0159636
910.237	0.0159110
910.315	0.0158704
910.393	0.0159058
910.471	0.0159768
910.549	0.0158342
910.628	0.0158968
910.706	0.0159491
910.784	0.0159526
910.862	0.0159209
910.940	0.0159072
911.018	0.0159680
911.096	0.0159418
911.174	0.0159315
911.253	0.0159137
911.331	0.0159148
911.409	0.0159389
911.487	0.0159072
911.565	0.0159035
911.643	0.0158447
911.721	0.0158731
911.799	0.0158349
911.878	0.0158801
911.956	0.0157845
912.034	0.0160723
912.112	0.0157777
912.190	0.0159032
912.268	0.0158206
912.346	0.0157118
912.424	0.0157357
912.503	0.0159562
912.581	0.0158270
912.659	0.0158339
912.737	0.0158658
912.815	0.0157349
912.893	0.0158064
912.971	0.0157870
913.049	0.0159737
913.128	0.0157937
913.206	0.0157300
913.284	0.0158704
913.362	0.0158620
913.440	0.0158685
913.518	0.0159888
913.596	0.0159098
913.674	0.0158408
913.753	0.0158393
913.831	0.0158872
913.909	0.0157433
913.987	0.0158637
914.065	0.0157392
914.143	0.0157317
914.221	0.0158521
914.299	0.0158153
914.378	0.0158623
914.456	0.0157309
914.534	0.0157587
914.612	0.0157980
914.690	0.0157961
914.768	0.0157916
914.846	0.0158208
914.924	0.0157027
915.003	0.0156627
915.081	0.0159161
915.159	0.0159705
915.237	0.0158247
915.315	0.0158821
915.393	0.0158091
915.471	0.0156769
915.549	0.0159554
915.628	0.0158602
915.706	0.0156868
915.784	0.0158514
915.862	0.0157311
915.940	0.0158025
916.018	0.0158251
916.096	0.0159086
916.174	0.0158183
916.253	0.0158302
916.331	0.0158302
916.409	0.0158752
916.487	0.0158957
916.565	0.0159052
916.643	0.0159141
916.721	0.0158493
916.799	0.0158702
916.878	0.0159235
916.956	0.0159312
917.034	0.0158204
917.112	0.0159547
917.190	0.0159872
917.268	0.0160537
917.346	0.0158751
917.424	0.0159962
917.503	0.0158495
917.581	0.0159850
917.659	0.0158643
917.737	0.0158978
917.815	0.0159599
917.893	0.0159196
917.971	0.0160986
918.049	0.0158955
918.128	0.0158629
918.206	0.0159158
918.284	0.0160353
918.362	0.0159561
918.440	0.0159433
918.518	0.0160069
918.596	0.0157972
918.674	0.0159415
918.753	0.0158961
918.831	0.0159022
918.909	0.0157781
918.987	0.0157426
919.065	0.0158102
919.143	0.0158823
919.221	0.0158178
919.299	0.0158205
919.378	0.0159978
919.456	0.0158245
919.534	0.0157165
919.612	0.0158097
919.690	0.0159655
919.768	0.0158723
919.846	0.0158585
919.924	0.0158770
920.003	0.0158555
920.081	0.0158073
920.159	0.0157872
920.237	0.0158430
920.315	0.0158137
920.393	0.0158535
920.471	0.0157904
920.549	0.0159095
920.628	0.0159826
920.706	0.0158625
920.784	0.0159528
920.862	0.0158868
920.940	0.0159590
921.018	0.0160292
921.096	0.0158854
921.174	0.0158124
921.253	0.0159203
921.331	0.0160444
921.409	0.0159644
921.487	0.0160394
921.565	0.0159823
921.643	0.0158767
921.721	0.0159977
921.799	0.0160457
921.878	0.0158379
921.956	0.0159538
922.034	0.0159695
922.112	0.0158624
922.190	0.0159716
922.268	0.0159647
922.346	0.0160812
922.424	0.0159441
922.503	0.0159251
922.581	0.0159158
922.659	0.0160547
922.737	0.0158379
922.815	0.0159161
922.893	0.0160133
922.971	0.0160448
923.049	0.0158996
923.128	0.0159315
923.206	0.0159017
923.284	0.0159726
923.362	0.0158873
923.440	0.0157991
923.518	0.0158952
923.596	0.0157945
923.674	0.0158963
923.753	0.0159035
923.831	0.0158204
923.909	0.0158897
923.987	0.0159324
924.065	0.0158082
924.143	0.0159385
924.221	0.0158543
924.299	0.0158309
924.378	0.0158885
924.456	0.0157440
924.534	0.0160397
924.612	0.0160333
924.690	0.0159142
924.768	0.0159217
924.846	0.0159773
924.924	0.0159204
925.003	0.0158524
925.081	0.0159100
925.159	0.0159276
925.237	0.0158060
925.315	0.0159632
925.393	0.0158440
925.471	0.0159280
925.549	0.0159804
925.628	0.0158948
925.706	0.0159313
925.784	0.0159182
925.862	0.0159614
925.940	0.0159727
926.018	0.0159233
926.096	0.0158277
926.174	0.0158600
926.253	0.0160236
926.331	0.0159681
926.409	0.0158216
926.487	0.0159372
926.565	0.0158671
926.643	0.0157784
926.721	0.0159428
926.799	0.0159946
926.878	0.0159869
926.956	0.0159510
927.034	0.0160054
927.112	0.0159357
927.190	0.0159212
927.268	0.0159802
927.346	0.0160136
927.424	0.0160280
927.503	0.0160754
927.581	0.0160297
927.659	0.0160461
927.737	0.0161709
927.815	0.0160844
927.893	0.0160632
927.971	0.0159845
928.049	0.0159286
928.128	0.0159248
928.206	0.0160260
928.284	0.0159486
928.362	0.0159433
928.440	0.0159484
928.518	0.0160392
928.596	0.0159367
928.674	0.0159999
928.753	0.0160138
928.831	0.0159253
928.909	0.0158732
928.987	0.0159580
929.065	0.0159762
929.143	0.0160140
929.221	0.0161225
929.299	0.0158611
929.378	0.0159241
929.456	0.0160134
929.534	0.0159138
929.612	0.0159679
929.690	0.0160571
929.768	0.0159677
929.846	0.0158887
929.924	0.0160046
930.003	0.0159375
930.081	0.0159487
930.159	0.0159624
930.237	0.0158643
930.315	0.0159322
930.393	0.0158164
930.471	0.0159939
930.549	0.0158749
930.628	0.0158986
930.706	0.0159787
930.784	0.0160222
930.862	0.0158465
930.940	0.0158432
931.018	0.0158415
931.096	0.0159567
931.174	0.0158760
931.253	0.0159123
931.331	0.0160641
931.409	0.0159407
931.487	0.0160027
931.565	0.0159106
931.643	0.0159760
931.721	0.0159763
931.799	0.0157430
931.878	0.0159077
931.956	0.0159653
932.034	0.0159478
932.112	0.0160374
932.190	0.0159313
932.268	0.0158488
932.346	0.0159022
932.424	0.0157687
932.503	0.0157729
932.581	0.0159628
932.659	0.0159740
932.737	0.0157941
932.815	0.0158776
932.893	0.0160298
932.971	0.0159996
933.049	0.0160128
933.128	0.0160408
933.206	0.0160638
933.284	0.0158117
933.362	0.0158793
933.440	0.0160062
933.518	0.0160202
933.596	0.0159993
933.674	0.0159610
933.753	0.0160246
933.831	0.0156711
933.909	0.0158829
933.987	0.0159962
934.065	0.0159490
934.143	0.0159575
934.221	0.0158200
934.299	0.0159834
934.378	0.0158463
934.456	0.0159100
934.534	0.0159620
934.612	0.0158763
934.690	0.0158119
934.768	0.0160435
934.846	0.0159414
934.924	0.0159937
935.003	0.0160224
935.081	0.0160091
935.159	0.0159243
935.237	0.0159178
935.315	0.0160076
935.393	0.0161583
935.471	0.0159451
935.549	0.0159498
935.628	0.0159429
935.706	0.0159045
935.784	0.0160223
935.862	0.0158688
935.940	0.0160353
936.018	0.0159942
936.096	0.0159097
936.174	0.0159311
936.253	0.0159130
936.331	0.0157688
936.409	0.0158329
936.487	0.0158341
936.565	0.0159395
936.643	0.0157776
936.721	0.0158490
936.799	0.0157618
936.878	0.0158867
936.956	0.0158494
937.034	0.0159315
937.112	0.0158997
937.190	0.0158218
937.268	0.0159697
937.346	0.0158983
937.424	0.0159224
937.503	0.0158716
937.581	0.0159461
937.659	0.0160801
937.737	0.0159122
937.815	0.0159760
937.893	0.0159959
937.971	0.0159863
938.049	0.0159401
938.128	0.0158595
938.206	0.0158752
938.284	0.0159369
938.362	0.0157376
938.440	0.0157033
938.518	0.0159701
938.596	0.0157558
938.674	0.0158025
938.753	0.0158445
938.831	0.0159483
938.909	0.0158208
938.987	0.0158440
939.065	0.0158584
939.143	0.0157828
939.221	0.0159646
939.299	0.0158957
939.378	0.0158488
939.456	0.0158353
939.534	0.0160470
939.612	0.0160819
939.690	0.0158158
939.768	0.0158892
939.846	0.0159951
939.924	0.0160941
940.003	0.0158382
940.081	0.0159422
940.159	0.0159197
940.237	0.0158665
940.315	0.0160258
940.393	0.0158514
940.471	0.0159692
940.549	0.0159185
940.628	0.0158030
940.706	0.0159629
940.784	0.0159467
940.862	0.0159037
940.940	0.0159393
941.018	0.0159568
941.096	0.0159609
941.174	0.0160737
941.253	0.0161249
941.331	0.0160087
941.409	0.0159476
941.487	0.0159849
941.565	0.0159151
941.643	0.0161379
941.721	0.0160822
941.799	0.0160823
941.878	0.0159854
941.956	0.0159724
942.034	0.0161308
942.112	0.0159679
942.190	0.0158857
942.268	0.0160241
942.346	0.0157868
942.424	0.0159872
942.503	0.0159999
942.581	0.0158961
942.659	0.0159630
942.737	0.0158337
942.815	0.0158859
942.893	0.0158194
942.971	0.0160409
943.049	0.0161054
943.128	0.0159795
943.206	0.0158237
943.284	0.0159206
943.362	0.0158947
943.440	0.0158344
943.518	0.0159316
943.596	0.0159387
943.674	0.0160249
943.753	0.0160327
943.831	0.0161861
943.909	0.0159616
943.987	0.0159789
944.065	0.0159673
944.143	0.0159286
944.221	0.0159823
944.299	0.0159979
944.378	0.0160623
944.456	0.0159140
944.534	0.0159399
944.612	0.0158144
944.690	0.0157769
944.768	0.0158813
944.846	0.0158830
944.924	0.0159427
945.003	0.0159890
945.081	0.0159023
945.159	0.0159166
945.237	0.0160242
945.315	0.0159076
945.393	0.0158632
945.471	0.0157829
945.549	0.0159843
945.628	0.0159512
945.706	0.0158977
945.784	0.0160130
945.862	0.0159321
945.940	0.0159289
946.018	0.0158455
946.096	0.0159655
946.174	0.0158345
946.253	0.0157908
946.331	0.0159094
946.409	0.0159991
946.487	0.0158989
946.565	0.0158052
946.643	0.0157523
946.721	0.0157807
946.799	0.0158477
946.878	0.0157211
946.956	0.0158331
947.034	0.0160108
947.112	0.0157857
947.190	0.0159662
947.268	0.0157685
947.346	0.0158971
947.424	0.0159126
947.503	0.0159928
947.581	0.0159486
947.659	0.0158833
947.737	0.0159216
947.815	0.0159935
947.893	0.0159045
947.971	0.0159365
948.049	0.0158411
948.128	0.0158572
948.206	0.0159019
948.284	0.0159672
948.362	0.0159623
948.440	0.0158600
948.518	0.0159166
948.596	0.0161062
948.674	0.0158845
948.753	0.0159426
948.831	0.0159449
948.909	0.0158476
948.987	0.0160661
949.065	0.0160032
949.143	0.0159986
949.221	0.0160201
949.299	0.0159663
949.378	0.0161149
949.456	0.0158496
949.534	0.0160621
949.612	0.0159713
949.690	0.0158895
949.768	0.0160228
949.846	0.0159875
949.924	0.0159729
