05/19/2022	00:53:33	Ver.	4.1	UNKNOWN
Optical Delay	630.002507	Delta X		0.078125	Sweeps	1	Scan Rate	0/0
Coordinates	Axis 1	NaN	Axis 2	NaN	Axis 3	NaN	Axis 4	NaN	Axis 5	NaN	Axis 6	0.000000
TX Power	0.000000	RX Power	0.000000

630.003	0.0156065
630.081	0.0155182
630.159	0.0156303
630.237	0.0156304
630.315	0.0155066
630.393	0.0155159
630.471	0.0156709
630.549	0.0155723
630.628	0.0155779
630.706	0.0155511
630.784	0.0154880
630.862	0.0156082
630.940	0.0157491
631.018	0.0155766
631.096	0.0156101
631.174	0.0155836
631.253	0.0156835
631.331	0.0156287
631.409	0.0156376
631.487	0.0157223
631.565	0.0156950
631.643	0.0155956
631.721	0.0155956
631.799	0.0157524
631.878	0.0156503
631.956	0.0156035
632.034	0.0155198
632.112	0.0157010
632.190	0.0157452
632.268	0.0155472
632.346	0.0156314
632.424	0.0155782
632.503	0.0157060
632.581	0.0156405
632.659	0.0155342
632.737	0.0156728
632.815	0.0157144
632.893	0.0155566
632.971	0.0156353
633.049	0.0154954
633.128	0.0157240
633.206	0.0157962
633.284	0.0156698
633.362	0.0155807
633.440	0.0156176
633.518	0.0157248
633.596	0.0157449
633.674	0.0158160
633.753	0.0157193
633.831	0.0155860
633.909	0.0156820
633.987	0.0157741
634.065	0.0158685
634.143	0.0155933
634.221	0.0155279
634.299	0.0157581
634.378	0.0157258
634.456	0.0156584
634.534	0.0154855
634.612	0.0155597
634.690	0.0156614
634.768	0.0156496
634.846	0.0156326
634.924	0.0157217
635.003	0.0157227
635.081	0.0156418
635.159	0.0156151
635.237	0.0157455
635.315	0.0158043
635.393	0.0157471
635.471	0.0157038
635.549	0.0158179
635.628	0.0157561
635.706	0.0157253
635.784	0.0158596
635.862	0.0157214
635.940	0.0157440
636.018	0.0156632
636.096	0.0157182
636.174	0.0156113
636.253	0.0156940
636.331	0.0155512
636.409	0.0155521
636.487	0.0155484
636.565	0.0156938
636.643	0.0156719
636.721	0.0154317
636.799	0.0154627
636.878	0.0155409
636.956	0.0156319
637.034	0.0156177
637.112	0.0154678
637.190	0.0156403
637.268	0.0155082
637.346	0.0156156
637.424	0.0155053
637.503	0.0155862
637.581	0.0155833
637.659	0.0156747
637.737	0.0155738
637.815	0.0155613
637.893	0.0155508
637.971	0.0155990
638.049	0.0157347
638.128	0.0155305
638.206	0.0155362
638.284	0.0154854
638.362	0.0156026
638.440	0.0156773
638.518	0.0156258
638.596	0.0155213
638.674	0.0156725
638.753	0.0155247
638.831	0.0156164
638.909	0.0156628
638.987	0.0157101
639.065	0.0155172
639.143	0.0156113
639.221	0.0155683
639.299	0.0156095
639.378	0.0155972
639.456	0.0155346
639.534	0.0156278
639.612	0.0156285
639.690	0.0155975
639.768	0.0154285
639.846	0.0155491
639.924	0.0156101
640.003	0.0155092
640.081	0.0157338
640.159	0.0156933
640.237	0.0156862
640.315	0.0157082
640.393	0.0157343
640.471	0.0157304
640.549	0.0156824
640.628	0.0157349
640.706	0.0156428
640.784	0.0156279
640.862	0.0155855
640.940	0.0156058
641.018	0.0156260
641.096	0.0156057
641.174	0.0155344
641.253	0.0155180
641.331	0.0155455
641.409	0.0155127
641.487	0.0155164
641.565	0.0155331
641.643	0.0155961
641.721	0.0156140
641.799	0.0156113
641.878	0.0156492
641.956	0.0156078
642.034	0.0155844
642.112	0.0156895
642.190	0.0156136
642.268	0.0157069
642.346	0.0155329
642.424	0.0156104
642.503	0.0156497
642.581	0.0156137
642.659	0.0158035
642.737	0.0157079
642.815	0.0156052
642.893	0.0155480
642.971	0.0155746
643.049	0.0155960
643.128	0.0156234
643.206	0.0155708
643.284	0.0153976
643.362	0.0154810
643.440	0.0155808
643.518	0.0158131
643.596	0.0156573
643.674	0.0156116
643.753	0.0155880
643.831	0.0156084
643.909	0.0156434
643.987	0.0156539
644.065	0.0156128
644.143	0.0156850
644.221	0.0157389
644.299	0.0155487
644.378	0.0156718
644.456	0.0155795
644.534	0.0155711
644.612	0.0156107
644.690	0.0155891
644.768	0.0154501
644.846	0.0154139
644.924	0.0155681
645.003	0.0154897
645.081	0.0155479
645.159	0.0155397
645.237	0.0156090
645.315	0.0155341
645.393	0.0156367
645.471	0.0158132
645.549	0.0155847
645.628	0.0156888
645.706	0.0156689
645.784	0.0156870
645.862	0.0155695
645.940	0.0156199
646.018	0.0157475
646.096	0.0155769
646.174	0.0156978
646.253	0.0156631
646.331	0.0155108
646.409	0.0155684
646.487	0.0155772
646.565	0.0155358
646.643	0.0156557
646.721	0.0156124
646.799	0.0156668
646.878	0.0155541
646.956	0.0155489
647.034	0.0156760
647.112	0.0157022
647.190	0.0155642
647.268	0.0156055
647.346	0.0155870
647.424	0.0156361
647.503	0.0156557
647.581	0.0155543
647.659	0.0156368
647.737	0.0155741
647.815	0.0155214
647.893	0.0156048
647.971	0.0155954
648.049	0.0154585
648.128	0.0154491
648.206	0.0155849
648.284	0.0155264
648.362	0.0154729
648.440	0.0155365
648.518	0.0156684
648.596	0.0156152
648.674	0.0156026
648.753	0.0155705
648.831	0.0156190
648.909	0.0156141
648.987	0.0156543
649.065	0.0157127
649.143	0.0156581
649.221	0.0157873
649.299	0.0155647
649.378	0.0157027
649.456	0.0157466
649.534	0.0156204
649.612	0.0155131
649.690	0.0155415
649.768	0.0154909
649.846	0.0156050
649.924	0.0155861
650.003	0.0155401
650.081	0.0156107
650.159	0.0157476
650.237	0.0156203
650.315	0.0156655
650.393	0.0156715
650.471	0.0156129
650.549	0.0156871
650.628	0.0157109
650.706	0.0157026
650.784	0.0158436
650.862	0.0156982
650.940	0.0156826
651.018	0.0156427
651.096	0.0155972
651.174	0.0156325
651.253	0.0154760
651.331	0.0155527
651.409	0.0154115
651.487	0.0153234
651.565	0.0154816
651.643	0.0155209
651.721	0.0155153
651.799	0.0155174
651.878	0.0156423
651.956	0.0155654
652.034	0.0154453
652.112	0.0155238
652.190	0.0156300
652.268	0.0155184
652.346	0.0156928
652.424	0.0155714
652.503	0.0156911
652.581	0.0155901
652.659	0.0156511
652.737	0.0156474
652.815	0.0155170
652.893	0.0155357
652.971	0.0155757
653.049	0.0156453
653.128	0.0156403
653.206	0.0156328
653.284	0.0155195
653.362	0.0154807
653.440	0.0154566
653.518	0.0155082
653.596	0.0155209
653.674	0.0154811
653.753	0.0156065
653.831	0.0156093
653.909	0.0157122
653.987	0.0156841
654.065	0.0157391
654.143	0.0157032
654.221	0.0157839
654.299	0.0158247
654.378	0.0158554
654.456	0.0158643
654.534	0.0157586
654.612	0.0158260
654.690	0.0157705
654.768	0.0156458
654.846	0.0157198
654.924	0.0156351
655.003	0.0156173
655.081	0.0155869
655.159	0.0155122
655.237	0.0156590
655.315	0.0154968
655.393	0.0155071
655.471	0.0154884
655.549	0.0155751
655.628	0.0155738
655.706	0.0156061
655.784	0.0155748
655.862	0.0155841
655.940	0.0156131
656.018	0.0156877
656.096	0.0156615
656.174	0.0155611
656.253	0.0155225
656.331	0.0155722
656.409	0.0157453
656.487	0.0157201
656.565	0.0156718
656.643	0.0156850
656.721	0.0157268
656.799	0.0156500
656.878	0.0157858
656.956	0.0157899
657.034	0.0157027
657.112	0.0157559
657.190	0.0157098
657.268	0.0157156
657.346	0.0155625
657.424	0.0156828
657.503	0.0157871
657.581	0.0157591
657.659	0.0156615
657.737	0.0157410
657.815	0.0155878
657.893	0.0156501
657.971	0.0158675
658.049	0.0155830
658.128	0.0156271
658.206	0.0157081
658.284	0.0155242
658.362	0.0156224
658.440	0.0155537
658.518	0.0156940
658.596	0.0155975
658.674	0.0155040
658.753	0.0154089
658.831	0.0153484
658.909	0.0155956
658.987	0.0153782
659.065	0.0154112
659.143	0.0154529
659.221	0.0153810
659.299	0.0154433
659.378	0.0154466
659.456	0.0154677
659.534	0.0155141
659.612	0.0154549
659.690	0.0155371
659.768	0.0156464
659.846	0.0154501
659.924	0.0155154
660.003	0.0157587
660.081	0.0157684
660.159	0.0155119
660.237	0.0157880
660.315	0.0158153
660.393	0.0156471
660.471	0.0157622
660.549	0.0157336
660.628	0.0158018
660.706	0.0156735
660.784	0.0157032
660.862	0.0156860
660.940	0.0157021
661.018	0.0156760
661.096	0.0157378
661.174	0.0156030
661.253	0.0156821
661.331	0.0157508
661.409	0.0157841
661.487	0.0156915
661.565	0.0157182
661.643	0.0156711
661.721	0.0156824
661.799	0.0156340
661.878	0.0157188
661.956	0.0156900
662.034	0.0155970
662.112	0.0156224
662.190	0.0155040
662.268	0.0155058
662.346	0.0154519
662.424	0.0155978
662.503	0.0154111
662.581	0.0153722
662.659	0.0155346
662.737	0.0154120
662.815	0.0152898
662.893	0.0151802
662.971	0.0153011
663.049	0.0153622
663.128	0.0153333
663.206	0.0153163
663.284	0.0152708
663.362	0.0153629
663.440	0.0155126
663.518	0.0153391
663.596	0.0153460
663.674	0.0153001
663.753	0.0153908
663.831	0.0155267
663.909	0.0155585
663.987	0.0154832
664.065	0.0155553
664.143	0.0155927
664.221	0.0156475
664.299	0.0157307
664.378	0.0157578
664.456	0.0157918
664.534	0.0157024
664.612	0.0157846
664.690	0.0157381
664.768	0.0157646
664.846	0.0157538
664.924	0.0158784
665.003	0.0159286
665.081	0.0157974
665.159	0.0157594
665.237	0.0159425
665.315	0.0159058
665.393	0.0156623
665.471	0.0159476
665.549	0.0158356
665.628	0.0157954
665.706	0.0157266
665.784	0.0156871
665.862	0.0158345
665.940	0.0157850
666.018	0.0157581
666.096	0.0159026
666.174	0.0157776
666.253	0.0156361
666.331	0.0154115
666.409	0.0156275
666.487	0.0156253
666.565	0.0156027
666.643	0.0154395
666.721	0.0154653
666.799	0.0153793
666.878	0.0153274
666.956	0.0153118
667.034	0.0152582
667.112	0.0152267
667.190	0.0151355
667.268	0.0153580
667.346	0.0152686
667.424	0.0153192
667.503	0.0153091
667.581	0.0153155
667.659	0.0154401
667.737	0.0153531
667.815	0.0153745
667.893	0.0154903
667.971	0.0155106
668.049	0.0154876
668.128	0.0154971
668.206	0.0155038
668.284	0.0157150
668.362	0.0157715
668.440	0.0156338
668.518	0.0156332
668.596	0.0155475
668.674	0.0157349
668.753	0.0157466
668.831	0.0158119
668.909	0.0157517
668.987	0.0158688
669.065	0.0158300
669.143	0.0158056
669.221	0.0159512
669.299	0.0158942
669.378	0.0159380
669.456	0.0158553
669.534	0.0158765
669.612	0.0158652
669.690	0.0159084
669.768	0.0157466
669.846	0.0158794
669.924	0.0156028
670.003	0.0157377
670.081	0.0157839
670.159	0.0157365
670.237	0.0156606
670.315	0.0155222
670.393	0.0153550
670.471	0.0156118
670.549	0.0155457
670.628	0.0154806
670.706	0.0156019
670.784	0.0154620
670.862	0.0154531
670.940	0.0155106
671.018	0.0153986
671.096	0.0154320
671.174	0.0154652
671.253	0.0154895
671.331	0.0154887
671.409	0.0155171
671.487	0.0156006
671.565	0.0155650
671.643	0.0156406
671.721	0.0156372
671.799	0.0156364
671.878	0.0156927
671.956	0.0158828
672.034	0.0158460
672.112	0.0159371
672.190	0.0158632
672.268	0.0157832
672.346	0.0158949
672.424	0.0158015
672.503	0.0159535
672.581	0.0159093
672.659	0.0158968
672.737	0.0158423
672.815	0.0157344
672.893	0.0157283
672.971	0.0158443
673.049	0.0155928
673.128	0.0158218
673.206	0.0156697
673.284	0.0157265
673.362	0.0157278
673.440	0.0156153
673.518	0.0155267
673.596	0.0156019
673.674	0.0157061
673.753	0.0155315
673.831	0.0155819
673.909	0.0153936
673.987	0.0156548
674.065	0.0157059
674.143	0.0156345
674.221	0.0157734
674.299	0.0157051
674.378	0.0157316
674.456	0.0158211
674.534	0.0158107
674.612	0.0159255
674.690	0.0157921
674.768	0.0157570
674.846	0.0157610
674.924	0.0157973
675.003	0.0158865
675.081	0.0157959
675.159	0.0157506
675.237	0.0156784
675.315	0.0157536
675.393	0.0157106
675.471	0.0156133
675.549	0.0156083
675.628	0.0156068
675.706	0.0155868
675.784	0.0155614
675.862	0.0155207
675.940	0.0155793
676.018	0.0156404
676.096	0.0155684
676.174	0.0155505
676.253	0.0156159
676.331	0.0154854
676.409	0.0156923
676.487	0.0157401
676.565	0.0157031
676.643	0.0156611
676.721	0.0157976
676.799	0.0158762
676.878	0.0158231
676.956	0.0156573
677.034	0.0157249
677.112	0.0158057
677.190	0.0158169
677.268	0.0158212
677.346	0.0158982
677.424	0.0156761
677.503	0.0156143
677.581	0.0157487
677.659	0.0156263
677.737	0.0156601
677.815	0.0155456
677.893	0.0157575
677.971	0.0156505
678.049	0.0157160
678.128	0.0157066
678.206	0.0156033
678.284	0.0156499
678.362	0.0156516
678.440	0.0155883
678.518	0.0156134
678.596	0.0158049
678.674	0.0157082
678.753	0.0155710
678.831	0.0157270
678.909	0.0156918
678.987	0.0156924
679.065	0.0155579
679.143	0.0156864
679.221	0.0156877
679.299	0.0156311
679.378	0.0155689
679.456	0.0155103
679.534	0.0157722
679.612	0.0157379
679.690	0.0156483
679.768	0.0157167
679.846	0.0157305
679.924	0.0155920
680.003	0.0155598
680.081	0.0156983
680.159	0.0156180
680.237	0.0155771
680.315	0.0157535
680.393	0.0157626
680.471	0.0157935
680.549	0.0157732
680.628	0.0158050
680.706	0.0157700
680.784	0.0156744
680.862	0.0156807
680.940	0.0156786
681.018	0.0155647
681.096	0.0155550
681.174	0.0155298
681.253	0.0154935
681.331	0.0153204
681.409	0.0153012
681.487	0.0154189
681.565	0.0154435
681.643	0.0153832
681.721	0.0153000
681.799	0.0153574
681.878	0.0151298
681.956	0.0152570
682.034	0.0154188
682.112	0.0153764
682.190	0.0152837
682.268	0.0153687
682.346	0.0155727
682.424	0.0154524
682.503	0.0152782
682.581	0.0153726
682.659	0.0154712
682.737	0.0155069
682.815	0.0154130
682.893	0.0155094
682.971	0.0155767
683.049	0.0156592
683.128	0.0155686
683.206	0.0155581
683.284	0.0155978
683.362	0.0157067
683.440	0.0157208
683.518	0.0158380
683.596	0.0158488
683.674	0.0156554
683.753	0.0156894
683.831	0.0157369
683.909	0.0157982
683.987	0.0159115
684.065	0.0157920
684.143	0.0159412
684.221	0.0159480
684.299	0.0158398
684.378	0.0157187
684.456	0.0157802
684.534	0.0157984
684.612	0.0157491
684.690	0.0158202
684.768	0.0156749
684.846	0.0157706
684.924	0.0157048
685.003	0.0155017
685.081	0.0155992
685.159	0.0156004
685.237	0.0156575
685.315	0.0155294
685.393	0.0155037
685.471	0.0155373
685.549	0.0154838
685.628	0.0155622
685.706	0.0154502
685.784	0.0155028
685.862	0.0153677
685.940	0.0154818
686.018	0.0154831
686.096	0.0154562
686.174	0.0155468
686.253	0.0155173
686.331	0.0155767
686.409	0.0156728
686.487	0.0155897
686.565	0.0155918
686.643	0.0156847
686.721	0.0157903
686.799	0.0156826
686.878	0.0156854
686.956	0.0156538
687.034	0.0155757
687.112	0.0156210
687.190	0.0155772
687.268	0.0155019
687.346	0.0155641
687.424	0.0156013
687.503	0.0154673
687.581	0.0154888
687.659	0.0153957
687.737	0.0153954
687.815	0.0154700
687.893	0.0154858
687.971	0.0154586
688.049	0.0156390
688.128	0.0154245
688.206	0.0153756
688.284	0.0155425
688.362	0.0156137
688.440	0.0156087
688.518	0.0155777
688.596	0.0155379
688.674	0.0157079
688.753	0.0157930
688.831	0.0158173
688.909	0.0158738
688.987	0.0158428
689.065	0.0156657
689.143	0.0156731
689.221	0.0158893
689.299	0.0158438
689.378	0.0157008
689.456	0.0156371
689.534	0.0156121
689.612	0.0156706
689.690	0.0155686
689.768	0.0156489
689.846	0.0157375
689.924	0.0156257
690.003	0.0156732
690.081	0.0156834
690.159	0.0157922
690.237	0.0158440
690.315	0.0156407
690.393	0.0158833
690.471	0.0160267
690.549	0.0159274
690.628	0.0159496
690.706	0.0159665
690.784	0.0157538
690.862	0.0159295
690.940	0.0158977
691.018	0.0157249
691.096	0.0157614
691.174	0.0156882
691.253	0.0157193
691.331	0.0157609
691.409	0.0156269
691.487	0.0156414
691.565	0.0155675
691.643	0.0156524
691.721	0.0156808
691.799	0.0154605
691.878	0.0155387
691.956	0.0155289
692.034	0.0155669
692.112	0.0156439
692.190	0.0155814
692.268	0.0154916
692.346	0.0155090
692.424	0.0155489
692.503	0.0156561
692.581	0.0156188
692.659	0.0156823
692.737	0.0155444
692.815	0.0155951
692.893	0.0155353
692.971	0.0156001
693.049	0.0155807
693.128	0.0156090
693.206	0.0156934
693.284	0.0157652
693.362	0.0157040
693.440	0.0155404
693.518	0.0156762
693.596	0.0156323
693.674	0.0156014
693.753	0.0156884
693.831	0.0156553
693.909	0.0156807
693.987	0.0156867
694.065	0.0155851
694.143	0.0155533
694.221	0.0156388
694.299	0.0157671
694.378	0.0156572
694.456	0.0157578
694.534	0.0158030
694.612	0.0158834
694.690	0.0159006
694.768	0.0159489
694.846	0.0161351
694.924	0.0160831
695.003	0.0161372
695.081	0.0160036
695.159	0.0160918
695.237	0.0158620
695.315	0.0159120
695.393	0.0158099
695.471	0.0158620
695.549	0.0157579
695.628	0.0157184
695.706	0.0156432
695.784	0.0155598
695.862	0.0153753
695.940	0.0153304
696.018	0.0152478
696.096	0.0153393
696.174	0.0153506
696.253	0.0153201
696.331	0.0153423
696.409	0.0152669
696.487	0.0152798
696.565	0.0153345
696.643	0.0152747
696.721	0.0152809
696.799	0.0154504
696.878	0.0154182
696.956	0.0154957
697.034	0.0155312
697.112	0.0155744
697.190	0.0154446
697.268	0.0156020
697.346	0.0155638
697.424	0.0157525
697.503	0.0156821
697.581	0.0155455
697.659	0.0156181
697.737	0.0155739
697.815	0.0157580
697.893	0.0156299
697.971	0.0157156
698.049	0.0157570
698.128	0.0156219
698.206	0.0157185
698.284	0.0156248
698.362	0.0157470
698.440	0.0156443
698.518	0.0157992
698.596	0.0158018
698.674	0.0158289
698.753	0.0157816
698.831	0.0158776
698.909	0.0158828
698.987	0.0157500
699.065	0.0157434
699.143	0.0159236
699.221	0.0159087
699.299	0.0158353
699.378	0.0157751
699.456	0.0158472
699.534	0.0156694
699.612	0.0157256
699.690	0.0158181
699.768	0.0157263
699.846	0.0156547
699.924	0.0156807
700.003	0.0156323
700.081	0.0155344
700.159	0.0154926
700.237	0.0156713
700.315	0.0155009
700.393	0.0155805
700.471	0.0156310
700.549	0.0155276
700.628	0.0156525
700.706	0.0156001
700.784	0.0154775
700.862	0.0156211
700.940	0.0156490
701.018	0.0156172
701.096	0.0155402
701.174	0.0157287
701.253	0.0156736
701.331	0.0156349
701.409	0.0156645
701.487	0.0157114
701.565	0.0155412
701.643	0.0156425
701.721	0.0154687
701.799	0.0156683
701.878	0.0157209
701.956	0.0157355
702.034	0.0156546
702.112	0.0157235
702.190	0.0157197
702.268	0.0158372
702.346	0.0156911
702.424	0.0157308
702.503	0.0157465
702.581	0.0156862
702.659	0.0156163
702.737	0.0155716
702.815	0.0156696
702.893	0.0155170
702.971	0.0154644
703.049	0.0153933
703.128	0.0153370
703.206	0.0153657
703.284	0.0153455
703.362	0.0152335
703.440	0.0151859
703.518	0.0151460
703.596	0.0152589
703.674	0.0152522
703.753	0.0152612
703.831	0.0154608
703.909	0.0153512
703.987	0.0153333
704.065	0.0154588
704.143	0.0156015
704.221	0.0155145
704.299	0.0153724
704.378	0.0154835
704.456	0.0156218
704.534	0.0155896
704.612	0.0153940
704.690	0.0154965
704.768	0.0157575
704.846	0.0155423
704.924	0.0155219
705.003	0.0155335
705.081	0.0154929
705.159	0.0155840
705.237	0.0157180
705.315	0.0155597
705.393	0.0156291
705.471	0.0156406
705.549	0.0157494
705.628	0.0156436
705.706	0.0156985
705.784	0.0157923
705.862	0.0157996
705.940	0.0158492
706.018	0.0158521
706.096	0.0157435
706.174	0.0157635
706.253	0.0158714
706.331	0.0157579
706.409	0.0157330
706.487	0.0157828
706.565	0.0156434
706.643	0.0156725
706.721	0.0156257
706.799	0.0157498
706.878	0.0156706
706.956	0.0155893
707.034	0.0156750
707.112	0.0155601
707.190	0.0155924
707.268	0.0155804
707.346	0.0154485
707.424	0.0155270
707.503	0.0155617
707.581	0.0155235
707.659	0.0155038
707.737	0.0153642
707.815	0.0156206
707.893	0.0156784
707.971	0.0155646
708.049	0.0155694
708.128	0.0156628
708.206	0.0157938
708.284	0.0156264
708.362	0.0155045
708.440	0.0156493
708.518	0.0156682
708.596	0.0156919
708.674	0.0158068
708.753	0.0158005
708.831	0.0157138
708.909	0.0157069
708.987	0.0155730
709.065	0.0157123
709.143	0.0157352
709.221	0.0158247
709.299	0.0156325
709.378	0.0157589
709.456	0.0156411
709.534	0.0156306
709.612	0.0155373
709.690	0.0155663
709.768	0.0156928
709.846	0.0155764
709.924	0.0154673
710.003	0.0156621
710.081	0.0155805
710.159	0.0154966
710.237	0.0155261
710.315	0.0154873
710.393	0.0155344
710.471	0.0155268
710.549	0.0155599
710.628	0.0155647
710.706	0.0155886
710.784	0.0155088
710.862	0.0156343
710.940	0.0155818
711.018	0.0156112
711.096	0.0155298
711.174	0.0155396
711.253	0.0155872
711.331	0.0154749
711.409	0.0156050
711.487	0.0157092
711.565	0.0155863
711.643	0.0154927
711.721	0.0155447
711.799	0.0157088
711.878	0.0155236
711.956	0.0154704
712.034	0.0157161
712.112	0.0156206
712.190	0.0156415
712.268	0.0156368
712.346	0.0156026
712.424	0.0158101
712.503	0.0157106
712.581	0.0156686
712.659	0.0155805
712.737	0.0157172
712.815	0.0157827
712.893	0.0157308
712.971	0.0156761
713.049	0.0157153
713.128	0.0158475
713.206	0.0158102
713.284	0.0157633
713.362	0.0157438
713.440	0.0156674
713.518	0.0157212
713.596	0.0156868
713.674	0.0157195
713.753	0.0157417
713.831	0.0157835
713.909	0.0155372
713.987	0.0156456
714.065	0.0155489
714.143	0.0155726
714.221	0.0156825
714.299	0.0155933
714.378	0.0155527
714.456	0.0155830
714.534	0.0157027
714.612	0.0156115
714.690	0.0155760
714.768	0.0157180
714.846	0.0157499
714.924	0.0156958
715.003	0.0156486
715.081	0.0156796
715.159	0.0157713
715.237	0.0157050
715.315	0.0155486
715.393	0.0157373
715.471	0.0157925
715.549	0.0157184
715.628	0.0156873
715.706	0.0157249
715.784	0.0157099
715.862	0.0155968
715.940	0.0156956
716.018	0.0157697
716.096	0.0156538
716.174	0.0156213
716.253	0.0156174
716.331	0.0157082
716.409	0.0156293
716.487	0.0158090
716.565	0.0156355
716.643	0.0155431
716.721	0.0155502
716.799	0.0155112
716.878	0.0156403
716.956	0.0154446
717.034	0.0154874
717.112	0.0156614
717.190	0.0154188
717.268	0.0156592
717.346	0.0155415
717.424	0.0154341
717.503	0.0156082
717.581	0.0155381
717.659	0.0154961
717.737	0.0154565
717.815	0.0154859
717.893	0.0155608
717.971	0.0156006
718.049	0.0155145
718.128	0.0155515
718.206	0.0155010
718.284	0.0155318
718.362	0.0154761
718.440	0.0154305
718.518	0.0157169
718.596	0.0157296
718.674	0.0157311
718.753	0.0156361
718.831	0.0158160
718.909	0.0159308
718.987	0.0157918
719.065	0.0158041
719.143	0.0158327
719.221	0.0157630
719.299	0.0158071
719.378	0.0159447
719.456	0.0157575
719.534	0.0156905
719.612	0.0157706
719.690	0.0158269
719.768	0.0159633
719.846	0.0159492
719.924	0.0158828
720.003	0.0157605
720.081	0.0158804
720.159	0.0159773
720.237	0.0158025
720.315	0.0157833
720.393	0.0158484
720.471	0.0159034
720.549	0.0158327
720.628	0.0158581
720.706	0.0158673
720.784	0.0157240
720.862	0.0158224
720.940	0.0158194
721.018	0.0157658
721.096	0.0156802
721.174	0.0156270
721.253	0.0158087
721.331	0.0155768
721.409	0.0155180
721.487	0.0157565
721.565	0.0155820
721.643	0.0156499
721.721	0.0155595
721.799	0.0155946
721.878	0.0154470
721.956	0.0156136
722.034	0.0156104
722.112	0.0155611
722.190	0.0154705
722.268	0.0156129
722.346	0.0155603
722.424	0.0156485
722.503	0.0156617
722.581	0.0157498
722.659	0.0158257
722.737	0.0156869
722.815	0.0158565
722.893	0.0157474
722.971	0.0156505
723.049	0.0156288
723.128	0.0157433
723.206	0.0156950
723.284	0.0155455
723.362	0.0155710
723.440	0.0155357
723.518	0.0155987
723.596	0.0155230
723.674	0.0155395
723.753	0.0156651
723.831	0.0156374
723.909	0.0155744
723.987	0.0155679
724.065	0.0154974
724.143	0.0154471
724.221	0.0155891
724.299	0.0156462
724.378	0.0155586
724.456	0.0156039
724.534	0.0156644
724.612	0.0156055
724.690	0.0156540
724.768	0.0157296
724.846	0.0155953
724.924	0.0155688
725.003	0.0155899
725.081	0.0156718
725.159	0.0155824
725.237	0.0155353
725.315	0.0156301
725.393	0.0156744
725.471	0.0155639
725.549	0.0154726
725.628	0.0154700
725.706	0.0155614
725.784	0.0156361
725.862	0.0156171
725.940	0.0154291
726.018	0.0155809
726.096	0.0155573
726.174	0.0152931
726.253	0.0155293
726.331	0.0157104
726.409	0.0155112
726.487	0.0157357
726.565	0.0156398
726.643	0.0155251
726.721	0.0157457
726.799	0.0155942
726.878	0.0155686
726.956	0.0156314
727.034	0.0156725
727.112	0.0156452
727.190	0.0156319
727.268	0.0156292
727.346	0.0157740
727.424	0.0157922
727.503	0.0156318
727.581	0.0155641
727.659	0.0154977
727.737	0.0154927
727.815	0.0156488
727.893	0.0157676
727.971	0.0155199
728.049	0.0156138
728.128	0.0156398
728.206	0.0155326
728.284	0.0154910
728.362	0.0156528
728.440	0.0156025
728.518	0.0156417
728.596	0.0156396
728.674	0.0155697
728.753	0.0156557
728.831	0.0156641
728.909	0.0157294
728.987	0.0156866
729.065	0.0157752
729.143	0.0154619
729.221	0.0154896
729.299	0.0155694
729.378	0.0154764
729.456	0.0155476
729.534	0.0154208
729.612	0.0154663
729.690	0.0155320
729.768	0.0155833
729.846	0.0155250
729.924	0.0155708
730.003	0.0155867
730.081	0.0157768
730.159	0.0156294
730.237	0.0156566
730.315	0.0156439
730.393	0.0156766
730.471	0.0155184
730.549	0.0156142
730.628	0.0157167
730.706	0.0157001
730.784	0.0156892
730.862	0.0157796
730.940	0.0156014
731.018	0.0157401
731.096	0.0157893
731.174	0.0157850
731.253	0.0157787
731.331	0.0157044
731.409	0.0158405
731.487	0.0157827
731.565	0.0157663
731.643	0.0157315
731.721	0.0156962
731.799	0.0157723
731.878	0.0157582
731.956	0.0156248
732.034	0.0156702
732.112	0.0157063
732.190	0.0156877
732.268	0.0156613
732.346	0.0155734
732.424	0.0156728
732.503	0.0157158
732.581	0.0156084
732.659	0.0155700
732.737	0.0156529
732.815	0.0157800
732.893	0.0155963
732.971	0.0155754
733.049	0.0156169
733.128	0.0154939
733.206	0.0155524
733.284	0.0155624
733.362	0.0156043
733.440	0.0157985
733.518	0.0155574
733.596	0.0156412
733.674	0.0156567
733.753	0.0154893
733.831	0.0154913
733.909	0.0156059
733.987	0.0156757
734.065	0.0156902
734.143	0.0154957
734.221	0.0155492
734.299	0.0154443
734.378	0.0154246
734.456	0.0155725
734.534	0.0155907
734.612	0.0154267
734.690	0.0155284
734.768	0.0154998
734.846	0.0154847
734.924	0.0156800
735.003	0.0155088
735.081	0.0156210
735.159	0.0155576
735.237	0.0154686
735.315	0.0155489
735.393	0.0155154
735.471	0.0156419
735.549	0.0156436
735.628	0.0155234
735.706	0.0156579
735.784	0.0156756
735.862	0.0155238
735.940	0.0157159
736.018	0.0157485
736.096	0.0156686
736.174	0.0157484
736.253	0.0157572
736.331	0.0157598
736.409	0.0156313
736.487	0.0156565
736.565	0.0157774
736.643	0.0158073
736.721	0.0158572
736.799	0.0157352
736.878	0.0158185
736.956	0.0156968
737.034	0.0157796
737.112	0.0156561
737.190	0.0156983
737.268	0.0157400
737.346	0.0156084
737.424	0.0157925
737.503	0.0158494
737.581	0.0157661
737.659	0.0157615
737.737	0.0157704
737.815	0.0156877
737.893	0.0157012
737.971	0.0158183
738.049	0.0156843
738.128	0.0157453
738.206	0.0158804
738.284	0.0156329
738.362	0.0155402
738.440	0.0156597
738.518	0.0157119
738.596	0.0155819
738.674	0.0155186
738.753	0.0155737
738.831	0.0155659
738.909	0.0157434
738.987	0.0155569
739.065	0.0156878
739.143	0.0156775
739.221	0.0156268
739.299	0.0156126
739.378	0.0156310
739.456	0.0156092
739.534	0.0156310
739.612	0.0156792
739.690	0.0155271
739.768	0.0155761
739.846	0.0155873
739.924	0.0156616
740.003	0.0155897
740.081	0.0155762
740.159	0.0155517
740.237	0.0155811
740.315	0.0154756
740.393	0.0155202
740.471	0.0153669
740.549	0.0155424
740.628	0.0155452
740.706	0.0156076
740.784	0.0155798
740.862	0.0156379
740.940	0.0156153
741.018	0.0156825
741.096	0.0155139
741.174	0.0155716
741.253	0.0154938
741.331	0.0154996
741.409	0.0155077
741.487	0.0155029
741.565	0.0156926
741.643	0.0155355
741.721	0.0154898
741.799	0.0155672
741.878	0.0155187
741.956	0.0156596
742.034	0.0156824
742.112	0.0157061
742.190	0.0155478
742.268	0.0157124
742.346	0.0156719
742.424	0.0156423
742.503	0.0156598
742.581	0.0156552
742.659	0.0158153
742.737	0.0157483
742.815	0.0156956
742.893	0.0155843
742.971	0.0154340
743.049	0.0155505
743.128	0.0156167
743.206	0.0156052
743.284	0.0155071
743.362	0.0155845
743.440	0.0157722
743.518	0.0155604
743.596	0.0155684
743.674	0.0155640
743.753	0.0154903
743.831	0.0155847
743.909	0.0155283
743.987	0.0156170
744.065	0.0155611
744.143	0.0156495
744.221	0.0156438
744.299	0.0157198
744.378	0.0156229
744.456	0.0156216
744.534	0.0157169
744.612	0.0157227
744.690	0.0156355
744.768	0.0155715
744.846	0.0157346
744.924	0.0156725
745.003	0.0156610
745.081	0.0156745
745.159	0.0155426
745.237	0.0155111
745.315	0.0156773
745.393	0.0155527
745.471	0.0157114
745.549	0.0157133
745.628	0.0157527
745.706	0.0155817
745.784	0.0156945
745.862	0.0156738
745.940	0.0156547
746.018	0.0157449
746.096	0.0157074
746.174	0.0155606
746.253	0.0157701
746.331	0.0156496
746.409	0.0155035
746.487	0.0158115
746.565	0.0157887
746.643	0.0156268
746.721	0.0156221
746.799	0.0157001
746.878	0.0156538
746.956	0.0157182
747.034	0.0156784
747.112	0.0156853
747.190	0.0156417
747.268	0.0156644
747.346	0.0157068
747.424	0.0157882
747.503	0.0157186
747.581	0.0156111
747.659	0.0156109
747.737	0.0158062
747.815	0.0158307
747.893	0.0157405
747.971	0.0158885
748.049	0.0158231
748.128	0.0156371
748.206	0.0157616
748.284	0.0158681
748.362	0.0156754
748.440	0.0156306
748.518	0.0156416
748.596	0.0157553
748.674	0.0158465
748.753	0.0156523
748.831	0.0155267
748.909	0.0156778
748.987	0.0156710
749.065	0.0157877
749.143	0.0155642
749.221	0.0156036
749.299	0.0155614
749.378	0.0157138
749.456	0.0154465
749.534	0.0154853
749.612	0.0156564
749.690	0.0155431
749.768	0.0155706
749.846	0.0157629
749.924	0.0155853
750.003	0.0156062
750.081	0.0155691
750.159	0.0157706
750.237	0.0156720
750.315	0.0156359
750.393	0.0156991
750.471	0.0155835
750.549	0.0157511
750.628	0.0157139
750.706	0.0157981
750.784	0.0156358
750.862	0.0155669
750.940	0.0155373
751.018	0.0155334
751.096	0.0157502
751.174	0.0155917
751.253	0.0155194
751.331	0.0157196
751.409	0.0157109
751.487	0.0157120
751.565	0.0155624
751.643	0.0157623
751.721	0.0158092
751.799	0.0158069
751.878	0.0158695
751.956	0.0157417
752.034	0.0158845
752.112	0.0158948
752.190	0.0158475
752.268	0.0158369
752.346	0.0157360
752.424	0.0159432
752.503	0.0158904
752.581	0.0157968
752.659	0.0156743
752.737	0.0156437
752.815	0.0158168
752.893	0.0158144
752.971	0.0157785
753.049	0.0157726
753.128	0.0157264
753.206	0.0155756
753.284	0.0156951
753.362	0.0156520
753.440	0.0156940
753.518	0.0156954
753.596	0.0157713
753.674	0.0158097
753.753	0.0157113
753.831	0.0156001
753.909	0.0156591
753.987	0.0157735
754.065	0.0157204
754.143	0.0156835
754.221	0.0156970
754.299	0.0156196
754.378	0.0155908
754.456	0.0157207
754.534	0.0155889
754.612	0.0157195
754.690	0.0155490
754.768	0.0157135
754.846	0.0157632
754.924	0.0156951
755.003	0.0155778
755.081	0.0155975
755.159	0.0156593
755.237	0.0157792
755.315	0.0156181
755.393	0.0155598
755.471	0.0155019
755.549	0.0157259
755.628	0.0156744
755.706	0.0156204
755.784	0.0156214
755.862	0.0157488
755.940	0.0157012
756.018	0.0155648
756.096	0.0156249
756.174	0.0156181
756.253	0.0155260
756.331	0.0156229
756.409	0.0156437
756.487	0.0156864
756.565	0.0156464
756.643	0.0156676
756.721	0.0156303
756.799	0.0156640
756.878	0.0156476
756.956	0.0157355
757.034	0.0156955
757.112	0.0157252
757.190	0.0156290
757.268	0.0155246
757.346	0.0156685
757.424	0.0156550
757.503	0.0156701
757.581	0.0155169
757.659	0.0156620
757.737	0.0155535
757.815	0.0156448
757.893	0.0155854
757.971	0.0156178
758.049	0.0156756
758.128	0.0154678
758.206	0.0153985
758.284	0.0154452
758.362	0.0153976
758.440	0.0155231
758.518	0.0155786
758.596	0.0155586
758.674	0.0154949
758.753	0.0153627
758.831	0.0154792
758.909	0.0155294
758.987	0.0154887
759.065	0.0155551
759.143	0.0156097
759.221	0.0154884
759.299	0.0154987
759.378	0.0155566
759.456	0.0154837
759.534	0.0156432
759.612	0.0155233
759.690	0.0155306
759.768	0.0155517
759.846	0.0156160
759.924	0.0154208
760.003	0.0154591
760.081	0.0154107
760.159	0.0154921
760.237	0.0156087
760.315	0.0154905
760.393	0.0153892
760.471	0.0154273
760.549	0.0154938
760.628	0.0155853
760.706	0.0155003
760.784	0.0155798
760.862	0.0155431
760.940	0.0154566
761.018	0.0153901
761.096	0.0153998
761.174	0.0156502
761.253	0.0156924
761.331	0.0154270
761.409	0.0155207
761.487	0.0154780
761.565	0.0156686
761.643	0.0158069
761.721	0.0157388
761.799	0.0157116
761.878	0.0157079
761.956	0.0157100
762.034	0.0157304
762.112	0.0156923
762.190	0.0156847
762.268	0.0156164
762.346	0.0157210
762.424	0.0158029
762.503	0.0157327
762.581	0.0157460
762.659	0.0156736
762.737	0.0156573
762.815	0.0156735
762.893	0.0156332
762.971	0.0156141
763.049	0.0156578
763.128	0.0156721
763.206	0.0157388
763.284	0.0155316
763.362	0.0157040
763.440	0.0157014
763.518	0.0156213
763.596	0.0156812
763.674	0.0157162
763.753	0.0155849
763.831	0.0156409
763.909	0.0154372
763.987	0.0155628
764.065	0.0155618
764.143	0.0157516
764.221	0.0155146
764.299	0.0157420
764.378	0.0156728
764.456	0.0157204
764.534	0.0157740
764.612	0.0155846
764.690	0.0155938
764.768	0.0155705
764.846	0.0156124
764.924	0.0156512
765.003	0.0155064
765.081	0.0155531
765.159	0.0153884
765.237	0.0155127
765.315	0.0156684
765.393	0.0156598
765.471	0.0155380
765.549	0.0154489
765.628	0.0154999
765.706	0.0156374
765.784	0.0156252
765.862	0.0154415
765.940	0.0155410
766.018	0.0154969
766.096	0.0156382
766.174	0.0155719
766.253	0.0155704
766.331	0.0156105
766.409	0.0157125
766.487	0.0156040
766.565	0.0155466
766.643	0.0156707
766.721	0.0157281
766.799	0.0157175
766.878	0.0154990
766.956	0.0155350
767.034	0.0155278
767.112	0.0154243
767.190	0.0155963
767.268	0.0156139
767.346	0.0155751
767.424	0.0154133
767.503	0.0156037
767.581	0.0155052
767.659	0.0154815
767.737	0.0155553
767.815	0.0155431
767.893	0.0154811
767.971	0.0155292
768.049	0.0156055
768.128	0.0156967
768.206	0.0156185
768.284	0.0156337
768.362	0.0155607
768.440	0.0156207
768.518	0.0156153
768.596	0.0156518
768.674	0.0157745
768.753	0.0156633
768.831	0.0156158
768.909	0.0156947
768.987	0.0156516
769.065	0.0156432
769.143	0.0156911
769.221	0.0156870
769.299	0.0158282
769.378	0.0156992
769.456	0.0157413
769.534	0.0157017
769.612	0.0157069
769.690	0.0156364
769.768	0.0157137
769.846	0.0157372
769.924	0.0156614
770.003	0.0158384
770.081	0.0157751
770.159	0.0157913
770.237	0.0157551
770.315	0.0157266
770.393	0.0156799
770.471	0.0156754
770.549	0.0157274
770.628	0.0156815
770.706	0.0157075
770.784	0.0156240
770.862	0.0158148
770.940	0.0157581
771.018	0.0156078
771.096	0.0157821
771.174	0.0158583
771.253	0.0157159
771.331	0.0155877
771.409	0.0157906
771.487	0.0158008
771.565	0.0158003
771.643	0.0159074
771.721	0.0158891
771.799	0.0157674
771.878	0.0156957
771.956	0.0157289
772.034	0.0157584
772.112	0.0157169
772.190	0.0158581
772.268	0.0156943
772.346	0.0156417
772.424	0.0157662
772.503	0.0157235
772.581	0.0157354
772.659	0.0157938
772.737	0.0158106
772.815	0.0158558
772.893	0.0157824
772.971	0.0158065
773.049	0.0158850
773.128	0.0157779
773.206	0.0157253
773.284	0.0156799
773.362	0.0158745
773.440	0.0158544
773.518	0.0157956
773.596	0.0156013
773.674	0.0156676
773.753	0.0157076
773.831	0.0157382
773.909	0.0157236
773.987	0.0157747
774.065	0.0157329
774.143	0.0155884
774.221	0.0157590
774.299	0.0155969
774.378	0.0154722
774.456	0.0156862
774.534	0.0155198
774.612	0.0155503
774.690	0.0155941
774.768	0.0156046
774.846	0.0155814
774.924	0.0156312
775.003	0.0157253
775.081	0.0155323
775.159	0.0155688
775.237	0.0156371
775.315	0.0154787
775.393	0.0156673
775.471	0.0156335
775.549	0.0154955
775.628	0.0156206
775.706	0.0157217
775.784	0.0156326
775.862	0.0156337
775.940	0.0156768
776.018	0.0157131
776.096	0.0157886
776.174	0.0158031
776.253	0.0157593
776.331	0.0157018
776.409	0.0157236
776.487	0.0157480
776.565	0.0157801
776.643	0.0158472
776.721	0.0158231
776.799	0.0157171
776.878	0.0157249
776.956	0.0158997
777.034	0.0157094
777.112	0.0156248
777.190	0.0158594
777.268	0.0157179
777.346	0.0156663
777.424	0.0157354
777.503	0.0157431
777.581	0.0157850
777.659	0.0157496
777.737	0.0157708
777.815	0.0156007
777.893	0.0157198
777.971	0.0157993
778.049	0.0156831
778.128	0.0157611
778.206	0.0156921
778.284	0.0157219
778.362	0.0156733
778.440	0.0156639
778.518	0.0158199
778.596	0.0155428
778.674	0.0156396
778.753	0.0156679
778.831	0.0155619
778.909	0.0157416
778.987	0.0156631
779.065	0.0157170
779.143	0.0155101
779.221	0.0155135
779.299	0.0157399
779.378	0.0155745
779.456	0.0156384
779.534	0.0155342
779.612	0.0156527
779.690	0.0156921
779.768	0.0155439
779.846	0.0156327
779.924	0.0155695
780.003	0.0156685
780.081	0.0155946
780.159	0.0155828
780.237	0.0156116
780.315	0.0154980
780.393	0.0155402
780.471	0.0155260
780.549	0.0154700
780.628	0.0155815
780.706	0.0155165
780.784	0.0154771
780.862	0.0155010
780.940	0.0154429
781.018	0.0155694
781.096	0.0155363
781.174	0.0153428
781.253	0.0155002
781.331	0.0155577
781.409	0.0154655
781.487	0.0156072
781.565	0.0155668
781.643	0.0156609
781.721	0.0154961
781.799	0.0155968
781.878	0.0154419
781.956	0.0153836
782.034	0.0154093
782.112	0.0154540
782.190	0.0155717
782.268	0.0154761
782.346	0.0154664
782.424	0.0153911
782.503	0.0154265
782.581	0.0155115
782.659	0.0155331
782.737	0.0154546
782.815	0.0155495
782.893	0.0155652
782.971	0.0155901
783.049	0.0156408
783.128	0.0156177
783.206	0.0154395
783.284	0.0158053
783.362	0.0156278
783.440	0.0156225
783.518	0.0155598
783.596	0.0155751
783.674	0.0156413
783.753	0.0156792
783.831	0.0156547
783.909	0.0156704
783.987	0.0156088
784.065	0.0158220
784.143	0.0155837
784.221	0.0156236
784.299	0.0156319
784.378	0.0156013
784.456	0.0156495
784.534	0.0156697
784.612	0.0157790
784.690	0.0157837
784.768	0.0157038
784.846	0.0156750
784.924	0.0156452
785.003	0.0157282
785.081	0.0156889
785.159	0.0157421
785.237	0.0157439
785.315	0.0156808
785.393	0.0157397
785.471	0.0156427
785.549	0.0157437
785.628	0.0156222
785.706	0.0156415
785.784	0.0156726
785.862	0.0156458
785.940	0.0157044
786.018	0.0155793
786.096	0.0157153
786.174	0.0155773
786.253	0.0156610
786.331	0.0157227
786.409	0.0156309
786.487	0.0155128
786.565	0.0156515
786.643	0.0156089
786.721	0.0156387
786.799	0.0156614
786.878	0.0155338
786.956	0.0155321
787.034	0.0155872
787.112	0.0155875
787.190	0.0155567
787.268	0.0154987
787.346	0.0155618
787.424	0.0156527
787.503	0.0155583
787.581	0.0156131
787.659	0.0155574
787.737	0.0156064
787.815	0.0155708
787.893	0.0154647
787.971	0.0154890
788.049	0.0153460
788.128	0.0155220
788.206	0.0155061
788.284	0.0155605
788.362	0.0154236
788.440	0.0155247
788.518	0.0154417
788.596	0.0154060
788.674	0.0153952
788.753	0.0154729
788.831	0.0153790
788.909	0.0154104
788.987	0.0154724
789.065	0.0155589
789.143	0.0155637
789.221	0.0154792
789.299	0.0155191
789.378	0.0154610
789.456	0.0155602
789.534	0.0155066
789.612	0.0155988
789.690	0.0158031
789.768	0.0156767
789.846	0.0155110
789.924	0.0156023
790.003	0.0155934
790.081	0.0156145
790.159	0.0156983
790.237	0.0155444
790.315	0.0157181
790.393	0.0156002
790.471	0.0157294
790.549	0.0158097
790.628	0.0157623
790.706	0.0156906
790.784	0.0158672
790.862	0.0158145
790.940	0.0157862
791.018	0.0157034
791.096	0.0157620
791.174	0.0156829
791.253	0.0158278
791.331	0.0157424
791.409	0.0158646
791.487	0.0157696
791.565	0.0157088
791.643	0.0159458
791.721	0.0158221
791.799	0.0157629
791.878	0.0158126
791.956	0.0157076
792.034	0.0158096
792.112	0.0156931
792.190	0.0159332
792.268	0.0157254
792.346	0.0157626
792.424	0.0158500
792.503	0.0156063
792.581	0.0156852
792.659	0.0157898
792.737	0.0157571
792.815	0.0156171
792.893	0.0155463
792.971	0.0156819
793.049	0.0157525
793.128	0.0155206
793.206	0.0155936
793.284	0.0156966
793.362	0.0157080
793.440	0.0156566
793.518	0.0155913
793.596	0.0156361
793.674	0.0156836
793.753	0.0157330
793.831	0.0156763
793.909	0.0155911
793.987	0.0157239
794.065	0.0156538
794.143	0.0156556
794.221	0.0157357
794.299	0.0157369
794.378	0.0156718
794.456	0.0156297
794.534	0.0156981
794.612	0.0156417
794.690	0.0155886
794.768	0.0155721
794.846	0.0155784
794.924	0.0156892
795.003	0.0156146
795.081	0.0155990
795.159	0.0157198
795.237	0.0156539
795.315	0.0157475
795.393	0.0156496
795.471	0.0157986
795.549	0.0157350
795.628	0.0156818
795.706	0.0157605
795.784	0.0157998
795.862	0.0155879
795.940	0.0156622
796.018	0.0158131
796.096	0.0157116
796.174	0.0155692
796.253	0.0157516
796.331	0.0157453
796.409	0.0157543
796.487	0.0158674
796.565	0.0157369
796.643	0.0158175
796.721	0.0157194
796.799	0.0157805
796.878	0.0158372
796.956	0.0156193
797.034	0.0155500
797.112	0.0158241
797.190	0.0157772
797.268	0.0157858
797.346	0.0157599
797.424	0.0157031
797.503	0.0158147
797.581	0.0156551
797.659	0.0155513
797.737	0.0157668
797.815	0.0157232
797.893	0.0156560
797.971	0.0156876
798.049	0.0156511
798.128	0.0156066
798.206	0.0156905
798.284	0.0156091
798.362	0.0156325
798.440	0.0157076
798.518	0.0158276
798.596	0.0156266
798.674	0.0157587
798.753	0.0158029
798.831	0.0157636
798.909	0.0156928
798.987	0.0157182
799.065	0.0157422
799.143	0.0157816
799.221	0.0157703
799.299	0.0157729
799.378	0.0156791
799.456	0.0157201
799.534	0.0157872
799.612	0.0156461
799.690	0.0155664
799.768	0.0156670
799.846	0.0157308
799.924	0.0157039
800.003	0.0156541
800.081	0.0154598
800.159	0.0156300
800.237	0.0154987
800.315	0.0155514
800.393	0.0156323
800.471	0.0155897
800.549	0.0153864
800.628	0.0155745
800.706	0.0156631
800.784	0.0154121
800.862	0.0154674
800.940	0.0155810
801.018	0.0155821
801.096	0.0156832
801.174	0.0155651
801.253	0.0155221
801.331	0.0155238
801.409	0.0156548
801.487	0.0156425
801.565	0.0156242
801.643	0.0154440
801.721	0.0155797
801.799	0.0155898
801.878	0.0156004
801.956	0.0155586
802.034	0.0154849
802.112	0.0155637
802.190	0.0155541
802.268	0.0156815
802.346	0.0155307
802.424	0.0157021
802.503	0.0156799
802.581	0.0156429
802.659	0.0158151
802.737	0.0155764
802.815	0.0156944
802.893	0.0157073
802.971	0.0156232
803.049	0.0155744
803.128	0.0155477
803.206	0.0156817
803.284	0.0155843
803.362	0.0157046
803.440	0.0155555
803.518	0.0155663
803.596	0.0154514
803.674	0.0156094
803.753	0.0156300
803.831	0.0155334
803.909	0.0156315
803.987	0.0154801
804.065	0.0155540
804.143	0.0154710
804.221	0.0157368
804.299	0.0156371
804.378	0.0156144
804.456	0.0156709
804.534	0.0155898
804.612	0.0156524
804.690	0.0156502
804.768	0.0155758
804.846	0.0156590
804.924	0.0155979
805.003	0.0155237
805.081	0.0154865
805.159	0.0156926
805.237	0.0157373
805.315	0.0156082
805.393	0.0156886
805.471	0.0156391
805.549	0.0155719
805.628	0.0156011
805.706	0.0155722
805.784	0.0155776
805.862	0.0156572
805.940	0.0156137
806.018	0.0154520
806.096	0.0154684
806.174	0.0155840
806.253	0.0157807
806.331	0.0156307
806.409	0.0155503
806.487	0.0155231
806.565	0.0155598
806.643	0.0155162
806.721	0.0155785
806.799	0.0154884
806.878	0.0154600
806.956	0.0154280
807.034	0.0154936
807.112	0.0154388
807.190	0.0154440
807.268	0.0155080
807.346	0.0154173
807.424	0.0153910
807.503	0.0154224
807.581	0.0154203
807.659	0.0153703
807.737	0.0153838
807.815	0.0155072
807.893	0.0154540
807.971	0.0153282
808.049	0.0154938
808.128	0.0155199
808.206	0.0155380
808.284	0.0154052
808.362	0.0154000
808.440	0.0154333
808.518	0.0154211
808.596	0.0153661
808.674	0.0152667
808.753	0.0155676
808.831	0.0155795
808.909	0.0153281
808.987	0.0154974
809.065	0.0154031
809.143	0.0154294
809.221	0.0154931
809.299	0.0155123
809.378	0.0155976
809.456	0.0155270
809.534	0.0154292
809.612	0.0156602
809.690	0.0155725
809.768	0.0156475
809.846	0.0156071
809.924	0.0156388
810.003	0.0156531
810.081	0.0156046
810.159	0.0157147
810.237	0.0158413
810.315	0.0157524
810.393	0.0157155
810.471	0.0156393
810.549	0.0156821
810.628	0.0159748
810.706	0.0159026
810.784	0.0158436
810.862	0.0159071
810.940	0.0158225
811.018	0.0157199
811.096	0.0159064
811.174	0.0157572
811.253	0.0157800
811.331	0.0158121
811.409	0.0158107
811.487	0.0157072
811.565	0.0156108
811.643	0.0156706
811.721	0.0156584
811.799	0.0158569
811.878	0.0157306
811.956	0.0158584
812.034	0.0157321
812.112	0.0157275
812.190	0.0156682
812.268	0.0156612
812.346	0.0156918
812.424	0.0157557
812.503	0.0156894
812.581	0.0154951
812.659	0.0156635
812.737	0.0157559
812.815	0.0158173
812.893	0.0156765
812.971	0.0156487
813.049	0.0155900
813.128	0.0156013
813.206	0.0154823
813.284	0.0155460
813.362	0.0155923
813.440	0.0154585
813.518	0.0155659
813.596	0.0155366
813.674	0.0156844
813.753	0.0155348
813.831	0.0155900
813.909	0.0156255
813.987	0.0154829
814.065	0.0155685
814.143	0.0156586
814.221	0.0155057
814.299	0.0156685
814.378	0.0157799
814.456	0.0156200
814.534	0.0156870
814.612	0.0156200
814.690	0.0158361
814.768	0.0157086
814.846	0.0155214
814.924	0.0155856
815.003	0.0157599
815.081	0.0156905
815.159	0.0156524
815.237	0.0156893
815.315	0.0155022
815.393	0.0156525
815.471	0.0157090
815.549	0.0157378
815.628	0.0156967
815.706	0.0156910
815.784	0.0156911
815.862	0.0158085
815.940	0.0157155
816.018	0.0157174
816.096	0.0157766
816.174	0.0156276
816.253	0.0156732
816.331	0.0158334
816.409	0.0157648
816.487	0.0156582
816.565	0.0157130
816.643	0.0156996
816.721	0.0158170
816.799	0.0158229
816.878	0.0156178
816.956	0.0157467
817.034	0.0156690
817.112	0.0156428
817.190	0.0156527
817.268	0.0156049
817.346	0.0156126
817.424	0.0156713
817.503	0.0156240
817.581	0.0158085
817.659	0.0156881
817.737	0.0157616
817.815	0.0156502
817.893	0.0157089
817.971	0.0158459
818.049	0.0157130
818.128	0.0158124
818.206	0.0157350
818.284	0.0157388
818.362	0.0158047
818.440	0.0157201
818.518	0.0157558
818.596	0.0158088
818.674	0.0158276
818.753	0.0157263
818.831	0.0158789
818.909	0.0157237
818.987	0.0157596
819.065	0.0157575
819.143	0.0157523
819.221	0.0156579
819.299	0.0157845
819.378	0.0156902
819.456	0.0156902
819.534	0.0157193
819.612	0.0156477
819.690	0.0158086
819.768	0.0157069
819.846	0.0158167
819.924	0.0157912
820.003	0.0158143
820.081	0.0159737
820.159	0.0158353
820.237	0.0158116
820.315	0.0157562
820.393	0.0158829
820.471	0.0159438
820.549	0.0159106
820.628	0.0158672
820.706	0.0158696
820.784	0.0157838
820.862	0.0158309
820.940	0.0159019
821.018	0.0158549
821.096	0.0159602
821.174	0.0158027
821.253	0.0156744
821.331	0.0156387
821.409	0.0157198
821.487	0.0156531
821.565	0.0158789
821.643	0.0157739
821.721	0.0157004
821.799	0.0157016
821.878	0.0158128
821.956	0.0155807
822.034	0.0155962
822.112	0.0156067
822.190	0.0156731
822.268	0.0155721
822.346	0.0155593
822.424	0.0157133
822.503	0.0155540
822.581	0.0155631
822.659	0.0156834
822.737	0.0156926
822.815	0.0155416
822.893	0.0155238
822.971	0.0156268
823.049	0.0155407
823.128	0.0153766
823.206	0.0156493
823.284	0.0154749
823.362	0.0154247
823.440	0.0154791
823.518	0.0153516
823.596	0.0153317
823.674	0.0154253
823.753	0.0155152
823.831	0.0153237
823.909	0.0154421
823.987	0.0153111
824.065	0.0154119
824.143	0.0153137
824.221	0.0153016
824.299	0.0154390
824.378	0.0154510
824.456	0.0154356
824.534	0.0154933
824.612	0.0154158
824.690	0.0155133
824.768	0.0153744
824.846	0.0155073
824.924	0.0155419
825.003	0.0156660
825.081	0.0156055
825.159	0.0155397
825.237	0.0156384
825.315	0.0155743
825.393	0.0155614
825.471	0.0155846
825.549	0.0156007
825.628	0.0156792
825.706	0.0156704
825.784	0.0154716
825.862	0.0156546
825.940	0.0157829
826.018	0.0156393
826.096	0.0156546
826.174	0.0156745
826.253	0.0157410
826.331	0.0156405
826.409	0.0156543
826.487	0.0157774
826.565	0.0157041
826.643	0.0159098
826.721	0.0157445
826.799	0.0155598
826.878	0.0157170
826.956	0.0156663
827.034	0.0155755
827.112	0.0155288
827.190	0.0157339
827.268	0.0155403
827.346	0.0156721
827.424	0.0156872
827.503	0.0156528
827.581	0.0156579
827.659	0.0156651
827.737	0.0157355
827.815	0.0157587
827.893	0.0156824
827.971	0.0155319
828.049	0.0155791
828.128	0.0156086
828.206	0.0155136
828.284	0.0154100
828.362	0.0156497
828.440	0.0155997
828.518	0.0155472
828.596	0.0155750
828.674	0.0155035
828.753	0.0155750
828.831	0.0154252
828.909	0.0155486
828.987	0.0155080
829.065	0.0155271
829.143	0.0154800
829.221	0.0155427
829.299	0.0154128
829.378	0.0156077
829.456	0.0154895
829.534	0.0153069
829.612	0.0155034
829.690	0.0154505
829.768	0.0155528
829.846	0.0154733
829.924	0.0154422
830.003	0.0154522
830.081	0.0154813
830.159	0.0151868
830.237	0.0154234
830.315	0.0154385
830.393	0.0153934
830.471	0.0154614
830.549	0.0153681
830.628	0.0155461
830.706	0.0155628
830.784	0.0154216
830.862	0.0154609
830.940	0.0153762
831.018	0.0154491
831.096	0.0155229
831.174	0.0154823
831.253	0.0154423
831.331	0.0155434
831.409	0.0155816
831.487	0.0154750
831.565	0.0154799
831.643	0.0154778
831.721	0.0155226
831.799	0.0156280
831.878	0.0156674
831.956	0.0155770
832.034	0.0154956
832.112	0.0156364
832.190	0.0158407
832.268	0.0156783
832.346	0.0156447
832.424	0.0156724
832.503	0.0156055
832.581	0.0156843
832.659	0.0155618
832.737	0.0156040
832.815	0.0156199
832.893	0.0156514
832.971	0.0156269
833.049	0.0157055
833.128	0.0156161
833.206	0.0156425
833.284	0.0157303
833.362	0.0157191
833.440	0.0156841
833.518	0.0156836
833.596	0.0155895
833.674	0.0157766
833.753	0.0159023
833.831	0.0157544
833.909	0.0157704
833.987	0.0158422
834.065	0.0158164
834.143	0.0157416
834.221	0.0157220
834.299	0.0157771
834.378	0.0158585
834.456	0.0157416
834.534	0.0157380
834.612	0.0156228
834.690	0.0155927
834.768	0.0157072
834.846	0.0156479
834.924	0.0155653
835.003	0.0155753
835.081	0.0156427
835.159	0.0157224
835.237	0.0156921
835.315	0.0155533
835.393	0.0156509
835.471	0.0158154
835.549	0.0157355
835.628	0.0157862
835.706	0.0158432
835.784	0.0156612
835.862	0.0156893
835.940	0.0156710
836.018	0.0155884
836.096	0.0156672
836.174	0.0156807
836.253	0.0155693
836.331	0.0156461
836.409	0.0156671
836.487	0.0155773
836.565	0.0155032
836.643	0.0154453
836.721	0.0155023
836.799	0.0154824
836.878	0.0156876
836.956	0.0156041
837.034	0.0155565
837.112	0.0154681
837.190	0.0154592
837.268	0.0154745
837.346	0.0155750
837.424	0.0156024
837.503	0.0155718
837.581	0.0154623
837.659	0.0154739
837.737	0.0155882
837.815	0.0153856
837.893	0.0154898
837.971	0.0155041
838.049	0.0155854
838.128	0.0155301
838.206	0.0155782
838.284	0.0155604
838.362	0.0155298
838.440	0.0155889
838.518	0.0157098
838.596	0.0154285
838.674	0.0155885
838.753	0.0155499
838.831	0.0155681
838.909	0.0155249
838.987	0.0155712
839.065	0.0154733
839.143	0.0155033
839.221	0.0155611
839.299	0.0155759
839.378	0.0155325
839.456	0.0154745
839.534	0.0155363
839.612	0.0154161
839.690	0.0154541
839.768	0.0155341
839.846	0.0155592
839.924	0.0155265
840.003	0.0154579
840.081	0.0155856
840.159	0.0157037
840.237	0.0156213
840.315	0.0157706
840.393	0.0155556
840.471	0.0157510
840.549	0.0157561
840.628	0.0154825
840.706	0.0157595
840.784	0.0157517
840.862	0.0156526
840.940	0.0157368
841.018	0.0157236
841.096	0.0157975
841.174	0.0156303
841.253	0.0156628
841.331	0.0158421
841.409	0.0157096
841.487	0.0156689
841.565	0.0155212
841.643	0.0156841
841.721	0.0156432
841.799	0.0156936
841.878	0.0157687
841.956	0.0156653
842.034	0.0157556
842.112	0.0157898
842.190	0.0157443
842.268	0.0157795
842.346	0.0157050
842.424	0.0156889
842.503	0.0156207
842.581	0.0156784
842.659	0.0156570
842.737	0.0157265
842.815	0.0156783
842.893	0.0157967
842.971	0.0156450
843.049	0.0155517
843.128	0.0158195
843.206	0.0157195
843.284	0.0157008
843.362	0.0157242
843.440	0.0156922
843.518	0.0155752
843.596	0.0155668
843.674	0.0156419
843.753	0.0156117
843.831	0.0156162
843.909	0.0155777
843.987	0.0155880
844.065	0.0156495
844.143	0.0154747
844.221	0.0154806
844.299	0.0156075
844.378	0.0156659
844.456	0.0156139
844.534	0.0154924
844.612	0.0154908
844.690	0.0155476
844.768	0.0156284
844.846	0.0156227
844.924	0.0155305
845.003	0.0156171
845.081	0.0154426
845.159	0.0155883
845.237	0.0155179
845.315	0.0155247
845.393	0.0154658
845.471	0.0155201
845.549	0.0156045
845.628	0.0155893
845.706	0.0154565
845.784	0.0154753
845.862	0.0155613
845.940	0.0155229
846.018	0.0156003
846.096	0.0155280
846.174	0.0155601
846.253	0.0155264
846.331	0.0154160
846.409	0.0156441
846.487	0.0154980
846.565	0.0155478
846.643	0.0154520
846.721	0.0156186
846.799	0.0155232
846.878	0.0156079
846.956	0.0154988
847.034	0.0154573
847.112	0.0157232
847.190	0.0155706
847.268	0.0155408
847.346	0.0156396
847.424	0.0155036
847.503	0.0155000
847.581	0.0156084
847.659	0.0155703
847.737	0.0157418
847.815	0.0157109
847.893	0.0155844
847.971	0.0156993
848.049	0.0156440
848.128	0.0156379
848.206	0.0156347
848.284	0.0155666
848.362	0.0156965
848.440	0.0156576
848.518	0.0157418
848.596	0.0157921
848.674	0.0157713
848.753	0.0157336
848.831	0.0157214
848.909	0.0155938
848.987	0.0156774
849.065	0.0157435
849.143	0.0156019
849.221	0.0157860
849.299	0.0157625
849.378	0.0158391
849.456	0.0157643
849.534	0.0157842
849.612	0.0157249
849.690	0.0157580
849.768	0.0158511
849.846	0.0158126
849.924	0.0157037
850.003	0.0157142
850.081	0.0157780
850.159	0.0157237
850.237	0.0158128
850.315	0.0158253
850.393	0.0158241
850.471	0.0156863
850.549	0.0156169
850.628	0.0158056
850.706	0.0158283
850.784	0.0157262
850.862	0.0156541
850.940	0.0155978
851.018	0.0156370
851.096	0.0156011
851.174	0.0155098
851.253	0.0155920
851.331	0.0155453
851.409	0.0155931
851.487	0.0155478
851.565	0.0158077
851.643	0.0155763
851.721	0.0156680
851.799	0.0155424
851.878	0.0156438
851.956	0.0157066
852.034	0.0157085
852.112	0.0155882
852.190	0.0156852
852.268	0.0157131
852.346	0.0156747
852.424	0.0156795
852.503	0.0156789
852.581	0.0155698
852.659	0.0155054
852.737	0.0157159
852.815	0.0156266
852.893	0.0156257
852.971	0.0156096
853.049	0.0156029
853.128	0.0156367
853.206	0.0157082
853.284	0.0157095
853.362	0.0156070
853.440	0.0156049
853.518	0.0156399
853.596	0.0155286
853.674	0.0155856
853.753	0.0155845
853.831	0.0155759
853.909	0.0154008
853.987	0.0155138
854.065	0.0154974
854.143	0.0154446
854.221	0.0155807
854.299	0.0155177
854.378	0.0153738
854.456	0.0155237
854.534	0.0154578
854.612	0.0156033
854.690	0.0155364
854.768	0.0154977
854.846	0.0155773
854.924	0.0155508
855.003	0.0153809
855.081	0.0155851
855.159	0.0157497
855.237	0.0156364
855.315	0.0156334
855.393	0.0156483
855.471	0.0156476
855.549	0.0156520
855.628	0.0157065
855.706	0.0157236
855.784	0.0157345
855.862	0.0157417
855.940	0.0156781
856.018	0.0156651
856.096	0.0157267
856.174	0.0156623
856.253	0.0158231
856.331	0.0156728
856.409	0.0156920
856.487	0.0157835
856.565	0.0157790
856.643	0.0157749
856.721	0.0157613
856.799	0.0158025
856.878	0.0157627
856.956	0.0156934
857.034	0.0158290
857.112	0.0157634
857.190	0.0157166
857.268	0.0157178
857.346	0.0158175
857.424	0.0156483
857.503	0.0157664
857.581	0.0156825
857.659	0.0157727
857.737	0.0157204
857.815	0.0157198
857.893	0.0156001
857.971	0.0156314
858.049	0.0156820
858.128	0.0155771
858.206	0.0156027
858.284	0.0156711
858.362	0.0155968
858.440	0.0156256
858.518	0.0156606
858.596	0.0155970
858.674	0.0156691
858.753	0.0155799
858.831	0.0155264
858.909	0.0153635
858.987	0.0154440
859.065	0.0154419
859.143	0.0155251
859.221	0.0154099
859.299	0.0154254
859.378	0.0154468
859.456	0.0154366
859.534	0.0154689
859.612	0.0155406
859.690	0.0153744
859.768	0.0154443
859.846	0.0154092
859.924	0.0155233
860.003	0.0154440
860.081	0.0154848
860.159	0.0154375
860.237	0.0153712
860.315	0.0153811
860.393	0.0155692
860.471	0.0154902
860.549	0.0153273
860.628	0.0155200
860.706	0.0154270
860.784	0.0154589
860.862	0.0156151
860.940	0.0154779
861.018	0.0155376
861.096	0.0154275
861.174	0.0154073
861.253	0.0154424
861.331	0.0154858
861.409	0.0154012
861.487	0.0155551
861.565	0.0155357
861.643	0.0155702
861.721	0.0154065
861.799	0.0154010
861.878	0.0155343
861.956	0.0155056
862.034	0.0154165
862.112	0.0154816
862.190	0.0154344
862.268	0.0155810
862.346	0.0155081
862.424	0.0154836
862.503	0.0155497
862.581	0.0154234
862.659	0.0154443
862.737	0.0154374
862.815	0.0154514
862.893	0.0154417
862.971	0.0154727
863.049	0.0154710
863.128	0.0155055
863.206	0.0156337
863.284	0.0155186
863.362	0.0155447
863.440	0.0154398
863.518	0.0156023
863.596	0.0155771
863.674	0.0155489
863.753	0.0157337
863.831	0.0155383
863.909	0.0155259
863.987	0.0156002
864.065	0.0157050
864.143	0.0156946
864.221	0.0157632
864.299	0.0157048
864.378	0.0156036
864.456	0.0156009
864.534	0.0157867
864.612	0.0156235
864.690	0.0157238
864.768	0.0156274
864.846	0.0157310
864.924	0.0157388
865.003	0.0155823
865.081	0.0155647
865.159	0.0157118
865.237	0.0156590
865.315	0.0156671
865.393	0.0156007
865.471	0.0155460
865.549	0.0157688
865.628	0.0155258
865.706	0.0155560
865.784	0.0155247
865.862	0.0156013
865.940	0.0157109
866.018	0.0156439
866.096	0.0154929
866.174	0.0155720
866.253	0.0156427
866.331	0.0154797
866.409	0.0156700
866.487	0.0156121
866.565	0.0156447
866.643	0.0156065
866.721	0.0156077
866.799	0.0156227
866.878	0.0156343
866.956	0.0156485
867.034	0.0155199
867.112	0.0156631
867.190	0.0156664
867.268	0.0156936
867.346	0.0156319
867.424	0.0156612
867.503	0.0156799
867.581	0.0155583
867.659	0.0155874
867.737	0.0156654
867.815	0.0155196
867.893	0.0157019
867.971	0.0156812
868.049	0.0156663
868.128	0.0155572
868.206	0.0155683
868.284	0.0156350
868.362	0.0155286
868.440	0.0154618
868.518	0.0155644
868.596	0.0155633
868.674	0.0156831
868.753	0.0157506
868.831	0.0157939
868.909	0.0157083
868.987	0.0157400
869.065	0.0156853
869.143	0.0156025
869.221	0.0157075
869.299	0.0157014
869.378	0.0156953
869.456	0.0158080
869.534	0.0156732
869.612	0.0156131
869.690	0.0155738
869.768	0.0155167
869.846	0.0157355
869.924	0.0157467
870.003	0.0156239
870.081	0.0155807
870.159	0.0154811
870.237	0.0156322
870.315	0.0155470
870.393	0.0154778
870.471	0.0155299
870.549	0.0156288
870.628	0.0156734
870.706	0.0154626
870.784	0.0154784
870.862	0.0156557
870.940	0.0156762
871.018	0.0155277
871.096	0.0156494
871.174	0.0155897
871.253	0.0156590
871.331	0.0155969
871.409	0.0157317
871.487	0.0156863
871.565	0.0155460
871.643	0.0156319
871.721	0.0155601
871.799	0.0156575
871.878	0.0157082
871.956	0.0158857
872.034	0.0156982
872.112	0.0157170
872.190	0.0157309
872.268	0.0157883
872.346	0.0157913
872.424	0.0156533
872.503	0.0158282
872.581	0.0158205
872.659	0.0157344
872.737	0.0155535
872.815	0.0157107
872.893	0.0157095
872.971	0.0159106
873.049	0.0158835
873.128	0.0157632
873.206	0.0157682
873.284	0.0157645
873.362	0.0156953
873.440	0.0157951
873.518	0.0158559
873.596	0.0157716
873.674	0.0158362
873.753	0.0157855
873.831	0.0158276
873.909	0.0156824
873.987	0.0157569
874.065	0.0157445
874.143	0.0157513
874.221	0.0158594
874.299	0.0158842
874.378	0.0157549
874.456	0.0157268
874.534	0.0156659
874.612	0.0157549
874.690	0.0155846
874.768	0.0156336
874.846	0.0157755
874.924	0.0156500
875.003	0.0155212
875.081	0.0156747
875.159	0.0155538
875.237	0.0155986
875.315	0.0156892
875.393	0.0156872
875.471	0.0155242
875.549	0.0155186
875.628	0.0156440
875.706	0.0157065
875.784	0.0156548
875.862	0.0155959
875.940	0.0156996
876.018	0.0155850
876.096	0.0156013
876.174	0.0156768
876.253	0.0156940
876.331	0.0156810
876.409	0.0156237
876.487	0.0155427
876.565	0.0156343
876.643	0.0156622
876.721	0.0155652
876.799	0.0153613
876.878	0.0156253
876.956	0.0156536
877.034	0.0156032
877.112	0.0155531
877.190	0.0156781
877.268	0.0157129
877.346	0.0155705
877.424	0.0157475
877.503	0.0155267
877.581	0.0156690
877.659	0.0157266
877.737	0.0157230
877.815	0.0158897
877.893	0.0157040
877.971	0.0157162
878.049	0.0156922
878.128	0.0157748
878.206	0.0158664
878.284	0.0157461
878.362	0.0158961
878.440	0.0158388
878.518	0.0156683
878.596	0.0157732
878.674	0.0157514
878.753	0.0156677
878.831	0.0157998
878.909	0.0156722
878.987	0.0158923
879.065	0.0156422
879.143	0.0156658
879.221	0.0157452
879.299	0.0157150
879.378	0.0155943
879.456	0.0155383
879.534	0.0156232
879.612	0.0156453
879.690	0.0156567
879.768	0.0157178
879.846	0.0157146
879.924	0.0157599
880.003	0.0157236
880.081	0.0156412
880.159	0.0156875
880.237	0.0156953
880.315	0.0157624
880.393	0.0156106
880.471	0.0155687
880.549	0.0157143
880.628	0.0157378
880.706	0.0155876
880.784	0.0155044
880.862	0.0158019
880.940	0.0156892
881.018	0.0155328
881.096	0.0156725
881.174	0.0157319
881.253	0.0156651
881.331	0.0158964
881.409	0.0155890
881.487	0.0156597
881.565	0.0157889
881.643	0.0157184
881.721	0.0156891
881.799	0.0157535
881.878	0.0157497
881.956	0.0156694
882.034	0.0157068
882.112	0.0157575
882.190	0.0156461
882.268	0.0157449
882.346	0.0156705
882.424	0.0158228
882.503	0.0156668
882.581	0.0157076
882.659	0.0157294
882.737	0.0156889
882.815	0.0156356
882.893	0.0156284
882.971	0.0156076
883.049	0.0156319
883.128	0.0155481
883.206	0.0155805
883.284	0.0154286
883.362	0.0155011
883.440	0.0155756
883.518	0.0153762
883.596	0.0154301
883.674	0.0155390
883.753	0.0156181
883.831	0.0154453
883.909	0.0156043
883.987	0.0154465
884.065	0.0154655
884.143	0.0154496
884.221	0.0154573
884.299	0.0154778
884.378	0.0156310
884.456	0.0154328
884.534	0.0154792
884.612	0.0155195
884.690	0.0155875
884.768	0.0155898
884.846	0.0154994
884.924	0.0154988
885.003	0.0154981
885.081	0.0154424
885.159	0.0154853
885.237	0.0154684
885.315	0.0154548
885.393	0.0154938
885.471	0.0154333
885.549	0.0155149
885.628	0.0154524
885.706	0.0154393
885.784	0.0154477
885.862	0.0153127
885.940	0.0154792
886.018	0.0155974
886.096	0.0155447
886.174	0.0156503
886.253	0.0154139
886.331	0.0152702
886.409	0.0154728
886.487	0.0156226
886.565	0.0153943
886.643	0.0153888
886.721	0.0155512
886.799	0.0154298
886.878	0.0153955
886.956	0.0154857
887.034	0.0154926
887.112	0.0155094
887.190	0.0152659
887.268	0.0154536
887.346	0.0155964
887.424	0.0153662
887.503	0.0155109
887.581	0.0154629
887.659	0.0153934
887.737	0.0155471
887.815	0.0154634
887.893	0.0155592
887.971	0.0155908
888.049	0.0155383
888.128	0.0155428
888.206	0.0154963
888.284	0.0154820
888.362	0.0156461
888.440	0.0154971
888.518	0.0155824
888.596	0.0156071
888.674	0.0155485
888.753	0.0155884
888.831	0.0157536
888.909	0.0156530
888.987	0.0157900
889.065	0.0156287
889.143	0.0155317
889.221	0.0155904
889.299	0.0155019
889.378	0.0156401
889.456	0.0155020
889.534	0.0157330
889.612	0.0155402
889.690	0.0155758
889.768	0.0157044
889.846	0.0155507
889.924	0.0154140
890.003	0.0155043
890.081	0.0155556
890.159	0.0155709
890.237	0.0154605
890.315	0.0155753
890.393	0.0155511
890.471	0.0155670
890.549	0.0154675
890.628	0.0154257
890.706	0.0155372
890.784	0.0156458
890.862	0.0154692
890.940	0.0153732
891.018	0.0154136
891.096	0.0153844
891.174	0.0155334
891.253	0.0154991
891.331	0.0155704
891.409	0.0155226
891.487	0.0156001
891.565	0.0155360
891.643	0.0154771
891.721	0.0155756
891.799	0.0154298
891.878	0.0155930
891.956	0.0156200
892.034	0.0156113
892.112	0.0155279
892.190	0.0155215
892.268	0.0154415
892.346	0.0156640
892.424	0.0157280
892.503	0.0156120
892.581	0.0155820
892.659	0.0156902
892.737	0.0156987
892.815	0.0155144
892.893	0.0155434
892.971	0.0156688
893.049	0.0156688
893.128	0.0156052
893.206	0.0156897
893.284	0.0155540
893.362	0.0157202
893.440	0.0156691
893.518	0.0156659
893.596	0.0155917
893.674	0.0155934
893.753	0.0156275
893.831	0.0155227
893.909	0.0157444
893.987	0.0155392
894.065	0.0155986
894.143	0.0155088
894.221	0.0155116
894.299	0.0156184
894.378	0.0156556
894.456	0.0156768
894.534	0.0156683
894.612	0.0156039
894.690	0.0155420
894.768	0.0156641
894.846	0.0156069
894.924	0.0157350
895.003	0.0157615
895.081	0.0157190
895.159	0.0155782
895.237	0.0156028
895.315	0.0157703
895.393	0.0157524
895.471	0.0158446
895.549	0.0157325
895.628	0.0157679
895.706	0.0157336
895.784	0.0157545
895.862	0.0156511
895.940	0.0157898
896.018	0.0156900
896.096	0.0158229
896.174	0.0157480
896.253	0.0157878
896.331	0.0158329
896.409	0.0157568
896.487	0.0158150
896.565	0.0156424
896.643	0.0156277
896.721	0.0158331
896.799	0.0156686
896.878	0.0158170
896.956	0.0156645
897.034	0.0156878
897.112	0.0157059
897.190	0.0157039
897.268	0.0158341
897.346	0.0157408
897.424	0.0156518
897.503	0.0157803
897.581	0.0156878
897.659	0.0156680
897.737	0.0157279
897.815	0.0155650
897.893	0.0157023
897.971	0.0157804
898.049	0.0157178
898.128	0.0156998
898.206	0.0156427
898.284	0.0156937
898.362	0.0157008
898.440	0.0158339
898.518	0.0156381
898.596	0.0156461
898.674	0.0156598
898.753	0.0156315
898.831	0.0156005
898.909	0.0156706
898.987	0.0157306
899.065	0.0157028
899.143	0.0156614
899.221	0.0155742
899.299	0.0156750
899.378	0.0156285
899.456	0.0156433
899.534	0.0157032
899.612	0.0157522
899.690	0.0157249
899.768	0.0157870
899.846	0.0157761
899.924	0.0157658
900.003	0.0157986
900.081	0.0157867
900.159	0.0157509
900.237	0.0156709
900.315	0.0158173
900.393	0.0157989
900.471	0.0155859
900.549	0.0155554
900.628	0.0157159
900.706	0.0157722
900.784	0.0156451
900.862	0.0156585
900.940	0.0155495
901.018	0.0155467
901.096	0.0156366
901.174	0.0155962
901.253	0.0156499
901.331	0.0155927
901.409	0.0155820
901.487	0.0154675
901.565	0.0156679
901.643	0.0154935
901.721	0.0155138
901.799	0.0155335
901.878	0.0154893
901.956	0.0154029
902.034	0.0155150
902.112	0.0156741
902.190	0.0154753
902.268	0.0154488
902.346	0.0155743
902.424	0.0155893
902.503	0.0154384
902.581	0.0155473
902.659	0.0155963
902.737	0.0155954
902.815	0.0154687
902.893	0.0154069
902.971	0.0156311
903.049	0.0155643
903.128	0.0155514
903.206	0.0155830
903.284	0.0155703
903.362	0.0157112
903.440	0.0156364
903.518	0.0156075
903.596	0.0155457
903.674	0.0156379
903.753	0.0156012
903.831	0.0155644
903.909	0.0156132
903.987	0.0157751
904.065	0.0156425
904.143	0.0156987
904.221	0.0156868
904.299	0.0156405
904.378	0.0157919
904.456	0.0155258
904.534	0.0156065
904.612	0.0158033
904.690	0.0157719
904.768	0.0156825
904.846	0.0156744
904.924	0.0157087
905.003	0.0157228
905.081	0.0155513
905.159	0.0155653
905.237	0.0156810
905.315	0.0156066
905.393	0.0155206
905.471	0.0155585
905.549	0.0153911
905.628	0.0155350
905.706	0.0156907
905.784	0.0156795
905.862	0.0157599
905.940	0.0156175
906.018	0.0156964
906.096	0.0156087
906.174	0.0155363
906.253	0.0155335
906.331	0.0153729
906.409	0.0155654
906.487	0.0156729
906.565	0.0154942
906.643	0.0156402
906.721	0.0155717
906.799	0.0155857
906.878	0.0156007
906.956	0.0155881
907.034	0.0155971
907.112	0.0155820
907.190	0.0154934
907.268	0.0154982
907.346	0.0155298
907.424	0.0155951
907.503	0.0156245
907.581	0.0155281
907.659	0.0154647
907.737	0.0155288
907.815	0.0156046
907.893	0.0154124
907.971	0.0153482
908.049	0.0154374
908.128	0.0154433
908.206	0.0154151
908.284	0.0155050
908.362	0.0154103
908.440	0.0155015
908.518	0.0154926
908.596	0.0155144
908.674	0.0155048
908.753	0.0154882
908.831	0.0154228
908.909	0.0155330
908.987	0.0153946
909.065	0.0155656
909.143	0.0153447
909.221	0.0155927
909.299	0.0155372
909.378	0.0153144
909.456	0.0154125
909.534	0.0155962
909.612	0.0156065
909.690	0.0155892
909.768	0.0155752
909.846	0.0156438
909.924	0.0156699
910.003	0.0155500
910.081	0.0154515
910.159	0.0155334
910.237	0.0156064
910.315	0.0155943
910.393	0.0156616
910.471	0.0157239
910.549	0.0155644
910.628	0.0155654
910.706	0.0154211
910.784	0.0155049
910.862	0.0156452
910.940	0.0157333
911.018	0.0155424
911.096	0.0155872
911.174	0.0157050
911.253	0.0156163
911.331	0.0155244
911.409	0.0154726
911.487	0.0154942
911.565	0.0155931
911.643	0.0155748
911.721	0.0155051
911.799	0.0155192
911.878	0.0156733
911.956	0.0154749
912.034	0.0155328
912.112	0.0155454
912.190	0.0154649
912.268	0.0155238
912.346	0.0155846
912.424	0.0156630
912.503	0.0155757
912.581	0.0155868
912.659	0.0156859
912.737	0.0155915
912.815	0.0155707
912.893	0.0155395
912.971	0.0156223
913.049	0.0155480
913.128	0.0156735
913.206	0.0156136
913.284	0.0154416
913.362	0.0156208
913.440	0.0154893
913.518	0.0155650
913.596	0.0154517
913.674	0.0155704
913.753	0.0156306
913.831	0.0155991
913.909	0.0155643
913.987	0.0156068
914.065	0.0155108
914.143	0.0155822
914.221	0.0156854
914.299	0.0157255
914.378	0.0156502
914.456	0.0155573
914.534	0.0156484
914.612	0.0157104
914.690	0.0157470
914.768	0.0156755
914.846	0.0155707
914.924	0.0155749
915.003	0.0157852
915.081	0.0156546
915.159	0.0157282
915.237	0.0157093
915.315	0.0157485
915.393	0.0158038
915.471	0.0156337
915.549	0.0156140
915.628	0.0156567
915.706	0.0156166
915.784	0.0156776
915.862	0.0155830
915.940	0.0157248
916.018	0.0157212
916.096	0.0155749
916.174	0.0156246
916.253	0.0157809
916.331	0.0155978
916.409	0.0156545
916.487	0.0157555
916.565	0.0157314
916.643	0.0158066
916.721	0.0156846
916.799	0.0156901
916.878	0.0156576
916.956	0.0157081
917.034	0.0156992
917.112	0.0156718
917.190	0.0155547
917.268	0.0155143
917.346	0.0157176
917.424	0.0155986
917.503	0.0156085
917.581	0.0157260
917.659	0.0157587
917.737	0.0156966
917.815	0.0156409
917.893	0.0155994
917.971	0.0156552
918.049	0.0154589
918.128	0.0155117
918.206	0.0156785
918.284	0.0154787
918.362	0.0156438
918.440	0.0156854
918.518	0.0156561
918.596	0.0155460
918.674	0.0154171
918.753	0.0154904
918.831	0.0157684
918.909	0.0156463
918.987	0.0156097
919.065	0.0156022
919.143	0.0157332
919.221	0.0155229
919.299	0.0156442
919.378	0.0157757
919.456	0.0156152
919.534	0.0155766
919.612	0.0157398
919.690	0.0157948
919.768	0.0155441
919.846	0.0156490
919.924	0.0155761
920.003	0.0156142
920.081	0.0154997
920.159	0.0157066
920.237	0.0156467
920.315	0.0155692
920.393	0.0155988
920.471	0.0156831
920.549	0.0155750
920.628	0.0156780
920.706	0.0155608
920.784	0.0154569
920.862	0.0156570
920.940	0.0155398
921.018	0.0156129
921.096	0.0157590
921.174	0.0156348
921.253	0.0156826
921.331	0.0156282
921.409	0.0156473
921.487	0.0156912
921.565	0.0156443
921.643	0.0155194
921.721	0.0157173
921.799	0.0155638
921.878	0.0155331
921.956	0.0156096
922.034	0.0155293
922.112	0.0154874
922.190	0.0155929
922.268	0.0157911
922.346	0.0156882
922.424	0.0155222
922.503	0.0156688
922.581	0.0157125
922.659	0.0155782
922.737	0.0156927
922.815	0.0156365
922.893	0.0156846
922.971	0.0156895
923.049	0.0157143
923.128	0.0157873
923.206	0.0156458
923.284	0.0157906
923.362	0.0157293
923.440	0.0156299
923.518	0.0156444
923.596	0.0156261
923.674	0.0157745
923.753	0.0157169
923.831	0.0156239
923.909	0.0157578
923.987	0.0157583
924.065	0.0156347
924.143	0.0157362
924.221	0.0156193
924.299	0.0155836
924.378	0.0157119
924.456	0.0156728
924.534	0.0157745
924.612	0.0155278
924.690	0.0156421
924.768	0.0155569
924.846	0.0156287
924.924	0.0157581
925.003	0.0156139
925.081	0.0156519
925.159	0.0156625
925.237	0.0156802
925.315	0.0157132
925.393	0.0156725
925.471	0.0156342
925.549	0.0155331
925.628	0.0157646
925.706	0.0157529
925.784	0.0155242
925.862	0.0157097
925.940	0.0156027
926.018	0.0155845
926.096	0.0157674
926.174	0.0155970
926.253	0.0157122
926.331	0.0155252
926.409	0.0156350
926.487	0.0155727
926.565	0.0155614
926.643	0.0156516
926.721	0.0157177
926.799	0.0156358
926.878	0.0154968
926.956	0.0156989
927.034	0.0157343
927.112	0.0157898
927.190	0.0156237
927.268	0.0156632
927.346	0.0155899
927.424	0.0157645
927.503	0.0157034
927.581	0.0156741
927.659	0.0157198
927.737	0.0156847
927.815	0.0157532
927.893	0.0157435
927.971	0.0156454
928.049	0.0156313
928.128	0.0156733
928.206	0.0156942
928.284	0.0155646
928.362	0.0157304
928.440	0.0157760
928.518	0.0157053
928.596	0.0155984
928.674	0.0156224
928.753	0.0157288
928.831	0.0156130
928.909	0.0156441
928.987	0.0155792
929.065	0.0155820
929.143	0.0157040
929.221	0.0156528
929.299	0.0157475
929.378	0.0157003
929.456	0.0155883
929.534	0.0156863
929.612	0.0156698
929.690	0.0157304
929.768	0.0155951
929.846	0.0156266
929.924	0.0155464
930.003	0.0154639
930.081	0.0155263
930.159	0.0154990
930.237	0.0155732
930.315	0.0156044
930.393	0.0155678
930.471	0.0154489
930.549	0.0155518
930.628	0.0154499
930.706	0.0155353
930.784	0.0156239
930.862	0.0155418
930.940	0.0155752
931.018	0.0157687
931.096	0.0155395
931.174	0.0155739
931.253	0.0157012
931.331	0.0155674
931.409	0.0156355
931.487	0.0158025
931.565	0.0158394
931.643	0.0157108
931.721	0.0156385
931.799	0.0157103
931.878	0.0156721
931.956	0.0156189
932.034	0.0155795
932.112	0.0155703
932.190	0.0155941
932.268	0.0156816
932.346	0.0155787
932.424	0.0156844
932.503	0.0156591
932.581	0.0155869
932.659	0.0156425
932.737	0.0155089
932.815	0.0155708
932.893	0.0156762
932.971	0.0157078
933.049	0.0156657
933.128	0.0156400
933.206	0.0158049
933.284	0.0157626
933.362	0.0156974
933.440	0.0156798
933.518	0.0157268
933.596	0.0156992
933.674	0.0156730
933.753	0.0156245
933.831	0.0156516
933.909	0.0156319
933.987	0.0156354
934.065	0.0156197
934.143	0.0158176
934.221	0.0156801
934.299	0.0155727
934.378	0.0156157
934.456	0.0157146
934.534	0.0156794
934.612	0.0155309
934.690	0.0155651
934.768	0.0155766
934.846	0.0155511
934.924	0.0157372
935.003	0.0156291
935.081	0.0157161
935.159	0.0156686
935.237	0.0158397
935.315	0.0156773
935.393	0.0156350
935.471	0.0156011
935.549	0.0157028
935.628	0.0158256
935.706	0.0157822
935.784	0.0156830
935.862	0.0156707
935.940	0.0157437
936.018	0.0157391
936.096	0.0158482
936.174	0.0157491
936.253	0.0156413
936.331	0.0155624
936.409	0.0156364
936.487	0.0156160
936.565	0.0156867
936.643	0.0155386
936.721	0.0155707
936.799	0.0156388
936.878	0.0156380
936.956	0.0155605
937.034	0.0156183
937.112	0.0156285
937.190	0.0156195
937.268	0.0157289
937.346	0.0156767
937.424	0.0156065
937.503	0.0156330
937.581	0.0156902
937.659	0.0157236
937.737	0.0156480
937.815	0.0156059
937.893	0.0156765
937.971	0.0156424
938.049	0.0155341
938.128	0.0155904
938.206	0.0155918
938.284	0.0155008
938.362	0.0155224
938.440	0.0155609
938.518	0.0155183
938.596	0.0154932
938.674	0.0155086
938.753	0.0154868
938.831	0.0156289
938.909	0.0155949
938.987	0.0155750
939.065	0.0155419
939.143	0.0156116
939.221	0.0156161
939.299	0.0156824
939.378	0.0159118
939.456	0.0156873
939.534	0.0157005
939.612	0.0157796
939.690	0.0155698
939.768	0.0156973
939.846	0.0157110
939.924	0.0156910
940.003	0.0156922
940.081	0.0158922
940.159	0.0157827
940.237	0.0156214
940.315	0.0156767
940.393	0.0155868
940.471	0.0156712
940.549	0.0156319
940.628	0.0154842
940.706	0.0156202
940.784	0.0156879
940.862	0.0155676
940.940	0.0155809
941.018	0.0156222
941.096	0.0155752
941.174	0.0157059
941.253	0.0156683
941.331	0.0156915
941.409	0.0155349
941.487	0.0156393
941.565	0.0155486
941.643	0.0156271
941.721	0.0158221
941.799	0.0157649
941.878	0.0156994
941.956	0.0158512
942.034	0.0157571
942.112	0.0157047
942.190	0.0156805
942.268	0.0157442
942.346	0.0156618
942.424	0.0156405
942.503	0.0155860
942.581	0.0154922
942.659	0.0155995
942.737	0.0155701
942.815	0.0156435
942.893	0.0156129
942.971	0.0156351
943.049	0.0155439
943.128	0.0155320
943.206	0.0156512
943.284	0.0156538
943.362	0.0158065
943.440	0.0156204
943.518	0.0158464
943.596	0.0157159
943.674	0.0156558
943.753	0.0157491
943.831	0.0158377
943.909	0.0155706
943.987	0.0156731
944.065	0.0155325
944.143	0.0155541
944.221	0.0155883
944.299	0.0157632
944.378	0.0155193
944.456	0.0156110
944.534	0.0155359
944.612	0.0155138
944.690	0.0157087
944.768	0.0154865
944.846	0.0153972
944.924	0.0156935
945.003	0.0155713
945.081	0.0155821
945.159	0.0155244
945.237	0.0154971
945.315	0.0156705
945.393	0.0157434
945.471	0.0156174
945.549	0.0156470
945.628	0.0157345
945.706	0.0155219
945.784	0.0155889
945.862	0.0154866
945.940	0.0155506
946.018	0.0154494
946.096	0.0156776
946.174	0.0155874
946.253	0.0155454
946.331	0.0154727
946.409	0.0155273
946.487	0.0155227
946.565	0.0155650
946.643	0.0155098
946.721	0.0156403
946.799	0.0157716
946.878	0.0154783
946.956	0.0154790
947.034	0.0157095
947.112	0.0155443
947.190	0.0156324
947.268	0.0156761
947.346	0.0155903
947.424	0.0156425
947.503	0.0156104
947.581	0.0155381
947.659	0.0155553
947.737	0.0155313
947.815	0.0156517
947.893	0.0155501
947.971	0.0155013
948.049	0.0156558
948.128	0.0156334
948.206	0.0155289
948.284	0.0157114
948.362	0.0157379
948.440	0.0156438
948.518	0.0156871
948.596	0.0157497
948.674	0.0155807
948.753	0.0156934
948.831	0.0156693
948.909	0.0157384
948.987	0.0157857
949.065	0.0157067
949.143	0.0157182
949.221	0.0157174
949.299	0.0157191
949.378	0.0157684
949.456	0.0157481
949.534	0.0157604
949.612	0.0156682
949.690	0.0156405
949.768	0.0157240
949.846	0.0157532
949.924	0.0157671
