05/19/2022	00:54:04	Ver.	4.1	UNKNOWN
Optical Delay	630.002507	Delta X		0.078125	Sweeps	1	Scan Rate	0/0
Coordinates	Axis 1	NaN	Axis 2	NaN	Axis 3	NaN	Axis 4	NaN	Axis 5	NaN	Axis 6	0.000000
TX Power	0.000000	RX Power	0.000000

630.003	0.0158279
630.081	0.0158472
630.159	0.0159613
630.237	0.0158750
630.315	0.0158579
630.393	0.0158968
630.471	0.0160500
630.549	0.0158437
630.628	0.0157871
630.706	0.0159262
630.784	0.0159711
630.862	0.0159232
630.940	0.0157338
631.018	0.0158927
631.096	0.0159518
631.174	0.0158996
631.253	0.0158615
631.331	0.0158926
631.409	0.0158353
631.487	0.0159315
631.565	0.0158795
631.643	0.0158433
631.721	0.0158115
631.799	0.0158411
631.878	0.0159020
631.956	0.0160444
632.034	0.0160279
632.112	0.0159002
632.190	0.0158921
632.268	0.0159102
632.346	0.0160133
632.424	0.0158899
632.503	0.0157336
632.581	0.0158991
632.659	0.0159982
632.737	0.0160094
632.815	0.0158115
632.893	0.0158588
632.971	0.0158936
633.049	0.0157845
633.128	0.0158854
633.206	0.0159569
633.284	0.0158651
633.362	0.0157854
633.440	0.0157836
633.518	0.0158131
633.596	0.0158225
633.674	0.0157696
633.753	0.0157286
633.831	0.0158390
633.909	0.0159192
633.987	0.0158314
634.065	0.0157986
634.143	0.0157375
634.221	0.0156230
634.299	0.0158570
634.378	0.0156348
634.456	0.0158685
634.534	0.0158292
634.612	0.0157994
634.690	0.0157236
634.768	0.0158742
634.846	0.0157741
634.924	0.0157696
635.003	0.0158210
635.081	0.0157687
635.159	0.0157190
635.237	0.0157752
635.315	0.0157988
635.393	0.0157897
635.471	0.0157677
635.549	0.0158829
635.628	0.0157919
635.706	0.0158800
635.784	0.0159711
635.862	0.0159012
635.940	0.0159054
636.018	0.0159254
636.096	0.0157761
636.174	0.0157624
636.253	0.0158161
636.331	0.0158627
636.409	0.0157657
636.487	0.0158194
636.565	0.0158101
636.643	0.0159097
636.721	0.0158321
636.799	0.0158521
636.878	0.0158804
636.956	0.0159888
637.034	0.0159407
637.112	0.0157649
637.190	0.0157958
637.268	0.0158086
637.346	0.0158852
637.424	0.0159779
637.503	0.0159196
637.581	0.0159634
637.659	0.0158678
637.737	0.0158600
637.815	0.0158254
637.893	0.0157188
637.971	0.0157800
638.049	0.0157182
638.128	0.0157371
638.206	0.0156799
638.284	0.0156771
638.362	0.0158802
638.440	0.0156908
638.518	0.0158053
638.596	0.0157949
638.674	0.0157242
638.753	0.0159295
638.831	0.0159300
638.909	0.0157705
638.987	0.0160226
639.065	0.0159741
639.143	0.0158444
639.221	0.0160308
639.299	0.0159620
639.378	0.0159566
639.456	0.0158678
639.534	0.0160065
639.612	0.0160101
639.690	0.0158224
639.768	0.0158982
639.846	0.0158255
639.924	0.0158086
640.003	0.0158951
640.081	0.0158443
640.159	0.0157427
640.237	0.0157214
640.315	0.0159047
640.393	0.0158532
640.471	0.0157581
640.549	0.0159084
640.628	0.0160824
640.706	0.0158733
640.784	0.0159985
640.862	0.0159167
640.940	0.0159882
641.018	0.0160613
641.096	0.0159026
641.174	0.0159364
641.253	0.0159577
641.331	0.0158074
641.409	0.0157916
641.487	0.0158461
641.565	0.0157492
641.643	0.0156746
641.721	0.0157118
641.799	0.0157522
641.878	0.0156638
641.956	0.0157649
642.034	0.0157501
642.112	0.0158290
642.190	0.0158410
642.268	0.0158221
642.346	0.0159148
642.424	0.0159457
642.503	0.0159174
642.581	0.0160477
642.659	0.0160055
642.737	0.0159193
642.815	0.0159478
642.893	0.0159122
642.971	0.0158373
643.049	0.0159045
643.128	0.0159171
643.206	0.0158291
643.284	0.0158341
643.362	0.0159098
643.440	0.0158872
643.518	0.0158374
643.596	0.0158552
643.674	0.0158929
643.753	0.0158824
643.831	0.0158945
643.909	0.0159084
643.987	0.0159223
644.065	0.0159693
644.143	0.0159209
644.221	0.0159571
644.299	0.0160040
644.378	0.0158199
644.456	0.0158749
644.534	0.0158853
644.612	0.0159687
644.690	0.0158949
644.768	0.0159377
644.846	0.0158889
644.924	0.0158506
645.003	0.0159261
645.081	0.0158947
645.159	0.0159856
645.237	0.0159927
645.315	0.0158862
645.393	0.0158862
645.471	0.0158321
645.549	0.0160091
645.628	0.0160925
645.706	0.0159502
645.784	0.0159801
645.862	0.0160780
645.940	0.0158800
646.018	0.0159602
646.096	0.0159331
646.174	0.0159397
646.253	0.0158557
646.331	0.0158499
646.409	0.0158026
646.487	0.0159223
646.565	0.0158795
646.643	0.0159322
646.721	0.0159157
646.799	0.0158846
646.878	0.0159121
646.956	0.0160934
647.034	0.0159878
647.112	0.0159532
647.190	0.0161332
647.268	0.0160735
647.346	0.0160842
647.424	0.0159013
647.503	0.0162236
647.581	0.0160474
647.659	0.0159971
647.737	0.0160213
647.815	0.0161395
647.893	0.0160817
647.971	0.0159362
648.049	0.0158465
648.128	0.0159191
648.206	0.0157224
648.284	0.0156139
648.362	0.0156321
648.440	0.0157278
648.518	0.0157394
648.596	0.0157383
648.674	0.0157076
648.753	0.0157169
648.831	0.0158852
648.909	0.0157999
648.987	0.0157067
649.065	0.0157819
649.143	0.0158360
649.221	0.0159226
649.299	0.0158126
649.378	0.0159103
649.456	0.0159614
649.534	0.0159209
649.612	0.0160576
649.690	0.0160312
649.768	0.0158380
649.846	0.0157063
649.924	0.0158963
650.003	0.0159023
650.081	0.0158799
650.159	0.0158669
650.237	0.0158463
650.315	0.0157282
650.393	0.0158342
650.471	0.0159462
650.549	0.0159405
650.628	0.0157972
650.706	0.0158701
650.784	0.0158175
650.862	0.0158765
650.940	0.0159057
651.018	0.0158405
651.096	0.0158757
651.174	0.0158856
651.253	0.0158363
651.331	0.0158524
651.409	0.0158974
651.487	0.0159436
651.565	0.0158816
651.643	0.0159338
651.721	0.0156385
651.799	0.0157108
651.878	0.0157202
651.956	0.0156940
652.034	0.0157819
652.112	0.0158006
652.190	0.0158629
652.268	0.0159603
652.346	0.0158791
652.424	0.0158259
652.503	0.0158957
652.581	0.0160067
652.659	0.0159307
652.737	0.0159033
652.815	0.0158415
652.893	0.0159115
652.971	0.0160072
653.049	0.0159079
653.128	0.0159631
653.206	0.0159904
653.284	0.0159384
653.362	0.0159074
653.440	0.0160896
653.518	0.0159167
653.596	0.0159584
653.674	0.0159120
653.753	0.0157672
653.831	0.0158360
653.909	0.0160069
653.987	0.0158913
654.065	0.0157523
654.143	0.0159369
654.221	0.0159123
654.299	0.0158382
654.378	0.0159232
654.456	0.0158637
654.534	0.0158814
654.612	0.0158134
654.690	0.0159939
654.768	0.0159074
654.846	0.0157130
654.924	0.0157243
655.003	0.0157857
655.081	0.0158467
655.159	0.0158426
655.237	0.0158115
655.315	0.0157672
655.393	0.0157527
655.471	0.0158179
655.549	0.0156648
655.628	0.0156175
655.706	0.0156624
655.784	0.0156339
655.862	0.0157346
655.940	0.0158295
656.018	0.0156943
656.096	0.0156895
656.174	0.0158246
656.253	0.0158228
656.331	0.0158408
656.409	0.0157623
656.487	0.0157986
656.565	0.0159148
656.643	0.0158675
656.721	0.0160260
656.799	0.0158178
656.878	0.0160471
656.956	0.0160855
657.034	0.0158099
657.112	0.0158219
657.190	0.0159340
657.268	0.0157723
657.346	0.0158273
657.424	0.0158696
657.503	0.0157662
657.581	0.0157442
657.659	0.0157756
657.737	0.0157234
657.815	0.0157702
657.893	0.0156953
657.971	0.0156510
658.049	0.0158035
658.128	0.0157342
658.206	0.0156300
658.284	0.0157581
658.362	0.0158003
658.440	0.0159693
658.518	0.0158036
658.596	0.0157030
658.674	0.0156599
658.753	0.0158620
658.831	0.0158585
658.909	0.0159567
658.987	0.0158701
659.065	0.0158356
659.143	0.0158281
659.221	0.0157680
659.299	0.0157999
659.378	0.0159520
659.456	0.0158678
659.534	0.0160449
659.612	0.0159004
659.690	0.0159225
659.768	0.0158602
659.846	0.0160452
659.924	0.0158044
660.003	0.0159443
660.081	0.0159705
660.159	0.0159901
660.237	0.0159309
660.315	0.0160513
660.393	0.0159466
660.471	0.0158783
660.549	0.0158459
660.628	0.0158976
660.706	0.0159712
660.784	0.0159248
660.862	0.0158133
660.940	0.0158111
661.018	0.0158368
661.096	0.0159077
661.174	0.0157895
661.253	0.0157876
661.331	0.0157867
661.409	0.0156738
661.487	0.0158340
661.565	0.0158611
661.643	0.0157505
661.721	0.0157588
661.799	0.0157462
661.878	0.0155975
661.956	0.0157998
662.034	0.0157988
662.112	0.0157833
662.190	0.0157608
662.268	0.0157417
662.346	0.0157145
662.424	0.0158272
662.503	0.0157788
662.581	0.0158082
662.659	0.0158548
662.737	0.0158760
662.815	0.0158092
662.893	0.0160271
662.971	0.0160556
663.049	0.0160522
663.128	0.0161845
663.206	0.0160043
663.284	0.0159907
663.362	0.0160910
663.440	0.0160815
663.518	0.0161999
663.596	0.0161012
663.674	0.0160419
663.753	0.0162186
663.831	0.0162307
663.909	0.0161118
663.987	0.0162813
664.065	0.0162041
664.143	0.0161918
664.221	0.0161880
664.299	0.0161757
664.378	0.0163466
664.456	0.0161217
664.534	0.0163106
664.612	0.0160439
664.690	0.0162246
664.768	0.0160596
664.846	0.0161559
664.924	0.0161021
665.003	0.0160866
665.081	0.0161190
665.159	0.0160890
665.237	0.0159087
665.315	0.0159435
665.393	0.0158491
665.471	0.0157166
665.549	0.0157426
665.628	0.0157292
665.706	0.0155470
665.784	0.0156425
665.862	0.0155721
665.940	0.0154973
666.018	0.0154816
666.096	0.0155222
666.174	0.0155238
666.253	0.0155096
666.331	0.0156250
666.409	0.0155570
666.487	0.0156751
666.565	0.0157246
666.643	0.0155173
666.721	0.0154933
666.799	0.0156664
666.878	0.0156796
666.956	0.0156496
667.034	0.0157045
667.112	0.0156725
667.190	0.0157835
667.268	0.0158666
667.346	0.0159904
667.424	0.0161156
667.503	0.0160802
667.581	0.0160671
667.659	0.0160960
667.737	0.0161163
667.815	0.0161314
667.893	0.0161628
667.971	0.0163319
668.049	0.0163113
668.128	0.0162372
668.206	0.0163811
668.284	0.0162905
668.362	0.0162520
668.440	0.0163670
668.518	0.0162070
668.596	0.0161644
668.674	0.0161752
668.753	0.0162157
668.831	0.0160130
668.909	0.0160609
668.987	0.0161241
669.065	0.0159883
669.143	0.0161373
669.221	0.0160276
669.299	0.0160258
669.378	0.0159634
669.456	0.0160409
669.534	0.0159071
669.612	0.0157989
669.690	0.0158843
669.768	0.0157500
669.846	0.0157648
669.924	0.0156634
670.003	0.0156512
670.081	0.0155047
670.159	0.0156689
670.237	0.0156177
670.315	0.0155724
670.393	0.0154316
670.471	0.0154971
670.549	0.0154226
670.628	0.0155257
670.706	0.0155311
670.784	0.0154745
670.862	0.0155597
670.940	0.0156571
671.018	0.0157394
671.096	0.0158424
671.174	0.0158340
671.253	0.0158425
671.331	0.0158524
671.409	0.0159881
671.487	0.0160440
671.565	0.0158928
671.643	0.0159608
671.721	0.0159061
671.799	0.0159645
671.878	0.0159792
671.956	0.0159515
672.034	0.0157907
672.112	0.0159206
672.190	0.0159415
672.268	0.0158455
672.346	0.0158865
672.424	0.0159421
672.503	0.0157838
672.581	0.0157603
672.659	0.0158437
672.737	0.0158395
672.815	0.0158199
672.893	0.0157884
672.971	0.0157185
673.049	0.0155933
673.128	0.0158418
673.206	0.0156536
673.284	0.0157462
673.362	0.0157089
673.440	0.0157798
673.518	0.0157624
673.596	0.0158379
673.674	0.0160033
673.753	0.0158265
673.831	0.0159143
673.909	0.0160774
673.987	0.0159993
674.065	0.0161056
674.143	0.0161024
674.221	0.0161588
674.299	0.0160980
674.378	0.0160240
674.456	0.0158978
674.534	0.0161002
674.612	0.0160571
674.690	0.0161541
674.768	0.0160101
674.846	0.0160490
674.924	0.0158900
675.003	0.0159055
675.081	0.0157537
675.159	0.0157990
675.237	0.0157945
675.315	0.0158008
675.393	0.0157683
675.471	0.0157578
675.549	0.0156462
675.628	0.0156741
675.706	0.0158187
675.784	0.0158758
675.862	0.0157562
675.940	0.0157529
676.018	0.0159261
676.096	0.0157005
676.174	0.0158652
676.253	0.0158641
676.331	0.0158956
676.409	0.0158462
676.487	0.0158138
676.565	0.0160043
676.643	0.0160939
676.721	0.0159345
676.799	0.0158872
676.878	0.0158018
676.956	0.0159273
677.034	0.0158685
677.112	0.0157877
677.190	0.0156320
677.268	0.0158267
677.346	0.0158755
677.424	0.0157576
677.503	0.0157803
677.581	0.0157856
677.659	0.0157983
677.737	0.0159251
677.815	0.0158452
677.893	0.0159299
677.971	0.0157825
678.049	0.0158237
678.128	0.0159523
678.206	0.0159341
678.284	0.0158096
678.362	0.0159038
678.440	0.0159866
678.518	0.0158192
678.596	0.0158309
678.674	0.0159910
678.753	0.0159112
678.831	0.0158012
678.909	0.0158722
678.987	0.0158946
679.065	0.0157887
679.143	0.0159394
679.221	0.0158805
679.299	0.0158346
679.378	0.0158605
679.456	0.0159688
679.534	0.0158647
679.612	0.0160143
679.690	0.0160848
679.768	0.0161821
679.846	0.0161633
679.924	0.0161374
680.003	0.0159911
680.081	0.0160193
680.159	0.0159229
680.237	0.0160194
680.315	0.0160757
680.393	0.0160480
680.471	0.0161488
680.549	0.0160053
680.628	0.0161071
680.706	0.0161172
680.784	0.0160563
680.862	0.0160253
680.940	0.0161248
681.018	0.0160049
681.096	0.0159895
681.174	0.0159772
681.253	0.0159418
681.331	0.0159485
681.409	0.0159748
681.487	0.0158749
681.565	0.0158727
681.643	0.0158950
681.721	0.0159393
681.799	0.0159220
681.878	0.0157286
681.956	0.0157760
682.034	0.0158526
682.112	0.0160132
682.190	0.0159394
682.268	0.0159138
682.346	0.0157706
682.424	0.0159044
682.503	0.0159898
682.581	0.0160542
682.659	0.0158882
682.737	0.0159016
682.815	0.0159827
682.893	0.0159446
682.971	0.0158727
683.049	0.0157969
683.128	0.0160371
683.206	0.0158392
683.284	0.0156734
683.362	0.0158823
683.440	0.0158716
683.518	0.0158206
683.596	0.0158621
683.674	0.0159616
683.753	0.0159517
683.831	0.0159209
683.909	0.0161180
683.987	0.0159750
684.065	0.0158620
684.143	0.0160523
684.221	0.0161295
684.299	0.0159953
684.378	0.0160814
684.456	0.0160309
684.534	0.0161085
684.612	0.0161147
684.690	0.0160714
684.768	0.0160428
684.846	0.0159418
684.924	0.0159643
685.003	0.0159175
685.081	0.0158798
685.159	0.0157572
685.237	0.0155845
685.315	0.0156271
685.393	0.0155975
685.471	0.0156191
685.549	0.0154993
685.628	0.0155685
685.706	0.0155989
685.784	0.0154720
685.862	0.0155936
685.940	0.0156956
686.018	0.0157051
686.096	0.0156173
686.174	0.0157562
686.253	0.0157126
686.331	0.0157324
686.409	0.0157757
686.487	0.0159014
686.565	0.0158915
686.643	0.0158006
686.721	0.0158828
686.799	0.0159155
686.878	0.0159763
686.956	0.0158755
687.034	0.0159864
687.112	0.0161015
687.190	0.0158878
687.268	0.0159162
687.346	0.0159209
687.424	0.0159602
687.503	0.0158820
687.581	0.0159911
687.659	0.0159653
687.737	0.0159891
687.815	0.0159882
687.893	0.0160764
687.971	0.0160905
688.049	0.0158134
688.128	0.0160921
688.206	0.0161348
688.284	0.0161694
688.362	0.0160131
688.440	0.0161522
688.518	0.0160284
688.596	0.0161147
688.674	0.0160332
688.753	0.0161353
688.831	0.0160928
688.909	0.0160825
688.987	0.0161049
689.065	0.0160500
689.143	0.0160799
689.221	0.0161410
689.299	0.0160730
689.378	0.0160730
689.456	0.0160593
689.534	0.0160111
689.612	0.0159528
689.690	0.0159278
689.768	0.0159279
689.846	0.0157903
689.924	0.0158507
690.003	0.0158803
690.081	0.0158961
690.159	0.0158672
690.237	0.0156778
690.315	0.0156805
690.393	0.0157806
690.471	0.0156500
690.549	0.0156197
690.628	0.0157642
690.706	0.0158546
690.784	0.0157716
690.862	0.0157894
690.940	0.0158455
691.018	0.0157548
691.096	0.0158666
691.174	0.0158143
691.253	0.0159565
691.331	0.0160142
691.409	0.0158851
691.487	0.0160027
691.565	0.0160053
691.643	0.0160811
691.721	0.0160365
691.799	0.0161084
691.878	0.0160536
691.956	0.0160600
692.034	0.0160365
692.112	0.0160368
692.190	0.0159451
692.268	0.0159209
692.346	0.0160225
692.424	0.0159622
692.503	0.0157935
692.581	0.0158448
692.659	0.0159418
692.737	0.0157668
692.815	0.0158428
692.893	0.0157594
692.971	0.0158523
693.049	0.0157460
693.128	0.0157097
693.206	0.0158379
693.284	0.0158338
693.362	0.0157426
693.440	0.0157874
693.518	0.0158641
693.596	0.0158466
693.674	0.0157855
693.753	0.0156988
693.831	0.0158207
693.909	0.0158900
693.987	0.0159035
694.065	0.0157990
694.143	0.0157316
694.221	0.0158453
694.299	0.0157913
694.378	0.0158102
694.456	0.0158127
694.534	0.0159098
694.612	0.0158500
694.690	0.0158831
694.768	0.0159245
694.846	0.0159010
694.924	0.0159502
695.003	0.0161258
695.081	0.0158675
695.159	0.0160225
695.237	0.0162135
695.315	0.0160744
695.393	0.0159150
695.471	0.0160503
695.549	0.0161446
695.628	0.0160828
695.706	0.0159050
695.784	0.0159583
695.862	0.0159162
695.940	0.0160357
696.018	0.0158910
696.096	0.0158382
696.174	0.0156869
696.253	0.0156102
696.331	0.0155647
696.409	0.0156536
696.487	0.0155167
696.565	0.0155051
696.643	0.0154752
696.721	0.0153768
696.799	0.0155235
696.878	0.0155518
696.956	0.0154630
697.034	0.0155259
697.112	0.0155724
697.190	0.0156380
697.268	0.0157632
697.346	0.0157187
697.424	0.0159061
697.503	0.0159999
697.581	0.0160500
697.659	0.0160555
697.737	0.0160503
697.815	0.0161124
697.893	0.0161668
697.971	0.0162009
698.049	0.0162486
698.128	0.0162941
698.206	0.0161299
698.284	0.0161154
698.362	0.0160367
698.440	0.0161674
698.518	0.0159267
698.596	0.0158478
698.674	0.0159543
698.753	0.0160355
698.831	0.0160216
698.909	0.0159557
698.987	0.0159946
699.065	0.0159277
699.143	0.0159738
699.221	0.0159750
699.299	0.0159335
699.378	0.0159926
699.456	0.0160255
699.534	0.0160094
699.612	0.0161498
699.690	0.0159251
699.768	0.0158922
699.846	0.0159448
699.924	0.0159501
700.003	0.0158211
700.081	0.0158508
700.159	0.0157754
700.237	0.0157908
700.315	0.0156911
700.393	0.0157452
700.471	0.0157336
700.549	0.0156451
700.628	0.0156829
700.706	0.0157188
700.784	0.0157185
700.862	0.0157419
700.940	0.0156094
701.018	0.0156523
701.096	0.0155135
701.174	0.0156809
701.253	0.0155059
701.331	0.0156425
701.409	0.0158518
701.487	0.0157757
701.565	0.0158358
701.643	0.0158593
701.721	0.0158823
701.799	0.0157765
701.878	0.0158896
701.956	0.0158546
702.034	0.0159721
702.112	0.0158755
702.190	0.0161609
702.268	0.0160822
702.346	0.0159070
702.424	0.0161371
702.503	0.0160185
702.581	0.0160812
702.659	0.0161973
702.737	0.0160286
702.815	0.0159834
702.893	0.0160709
702.971	0.0159702
703.049	0.0160977
703.128	0.0161340
703.206	0.0160357
703.284	0.0160788
703.362	0.0159490
703.440	0.0158362
703.518	0.0158451
703.596	0.0159711
703.674	0.0157638
703.753	0.0158222
703.831	0.0156288
703.909	0.0156120
703.987	0.0154878
704.065	0.0155869
704.143	0.0156705
704.221	0.0156336
704.299	0.0156966
704.378	0.0157231
704.456	0.0156721
704.534	0.0157534
704.612	0.0159119
704.690	0.0157636
704.768	0.0158896
704.846	0.0159383
704.924	0.0159789
705.003	0.0159587
705.081	0.0160466
705.159	0.0160028
705.237	0.0161377
705.315	0.0159524
705.393	0.0160783
705.471	0.0160551
705.549	0.0159250
705.628	0.0160280
705.706	0.0160846
705.784	0.0160864
705.862	0.0160292
705.940	0.0160392
706.018	0.0159071
706.096	0.0158770
706.174	0.0159026
706.253	0.0158884
706.331	0.0159435
706.409	0.0158665
706.487	0.0159701
706.565	0.0158433
706.643	0.0158006
706.721	0.0159859
706.799	0.0158538
706.878	0.0158553
706.956	0.0159113
707.034	0.0159740
707.112	0.0159295
707.190	0.0158399
707.268	0.0160612
707.346	0.0159677
707.424	0.0159075
707.503	0.0159048
707.581	0.0158746
707.659	0.0157639
707.737	0.0157043
707.815	0.0157066
707.893	0.0155296
707.971	0.0157774
708.049	0.0156418
708.128	0.0156176
708.206	0.0156454
708.284	0.0154791
708.362	0.0154605
708.440	0.0155653
708.518	0.0158167
708.596	0.0157377
708.674	0.0156827
708.753	0.0156384
708.831	0.0157356
708.909	0.0157505
708.987	0.0157571
709.065	0.0159041
709.143	0.0159968
709.221	0.0160200
709.299	0.0160551
709.378	0.0160213
709.456	0.0161217
709.534	0.0159391
709.612	0.0160045
709.690	0.0160107
709.768	0.0160011
709.846	0.0160274
709.924	0.0159125
710.003	0.0160239
710.081	0.0159410
710.159	0.0159434
710.237	0.0159919
710.315	0.0159193
710.393	0.0159809
710.471	0.0159616
710.549	0.0158664
710.628	0.0159003
710.706	0.0160712
710.784	0.0160256
710.862	0.0160275
710.940	0.0159411
711.018	0.0161198
711.096	0.0159960
711.174	0.0159853
711.253	0.0161199
711.331	0.0160441
711.409	0.0159917
711.487	0.0159332
711.565	0.0159187
711.643	0.0159411
711.721	0.0159319
711.799	0.0159333
711.878	0.0159077
711.956	0.0160493
712.034	0.0160781
712.112	0.0158163
712.190	0.0159280
712.268	0.0158265
712.346	0.0157617
712.424	0.0159291
712.503	0.0158183
712.581	0.0160030
712.659	0.0159413
712.737	0.0159137
712.815	0.0158770
712.893	0.0160000
712.971	0.0160388
713.049	0.0160027
713.128	0.0159677
713.206	0.0159462
713.284	0.0160628
713.362	0.0159978
713.440	0.0159058
713.518	0.0157402
713.596	0.0158656
713.674	0.0157350
713.753	0.0158286
713.831	0.0157448
713.909	0.0157345
713.987	0.0156602
714.065	0.0157204
714.143	0.0156987
714.221	0.0156190
714.299	0.0156658
714.378	0.0155731
714.456	0.0157825
714.534	0.0158847
714.612	0.0156520
714.690	0.0155572
714.768	0.0158266
714.846	0.0157885
714.924	0.0157690
715.003	0.0156342
715.081	0.0158693
715.159	0.0158765
715.237	0.0157308
715.315	0.0158145
715.393	0.0159351
715.471	0.0159221
715.549	0.0157824
715.628	0.0158350
715.706	0.0158447
715.784	0.0158739
715.862	0.0157138
715.940	0.0158139
716.018	0.0157817
716.096	0.0158292
716.174	0.0159995
716.253	0.0158887
716.331	0.0158653
716.409	0.0159074
716.487	0.0157957
716.565	0.0158218
716.643	0.0160002
716.721	0.0159151
716.799	0.0159642
716.878	0.0160021
716.956	0.0160052
717.034	0.0161253
717.112	0.0159799
717.190	0.0160252
717.268	0.0159324
717.346	0.0158585
717.424	0.0159987
717.503	0.0161910
717.581	0.0159189
717.659	0.0159016
717.737	0.0159707
717.815	0.0161238
717.893	0.0160572
717.971	0.0159615
718.049	0.0159275
718.128	0.0159503
718.206	0.0158473
718.284	0.0157964
718.362	0.0158916
718.440	0.0157864
718.518	0.0158646
718.596	0.0160093
718.674	0.0159241
718.753	0.0158303
718.831	0.0158442
718.909	0.0158324
718.987	0.0157901
719.065	0.0159379
719.143	0.0159456
719.221	0.0159550
719.299	0.0160150
719.378	0.0158923
719.456	0.0161329
719.534	0.0160309
719.612	0.0160565
719.690	0.0159441
719.768	0.0158862
719.846	0.0159532
719.924	0.0160950
720.003	0.0161544
720.081	0.0159657
720.159	0.0159272
720.237	0.0158768
720.315	0.0159262
720.393	0.0159640
720.471	0.0159425
720.549	0.0158045
720.628	0.0157953
720.706	0.0158204
720.784	0.0158319
720.862	0.0156073
720.940	0.0156380
721.018	0.0157334
721.096	0.0157413
721.174	0.0158427
721.253	0.0158069
721.331	0.0157922
721.409	0.0156718
721.487	0.0158556
721.565	0.0157967
721.643	0.0157898
721.721	0.0157626
721.799	0.0158604
721.878	0.0158104
721.956	0.0157059
722.034	0.0156606
722.112	0.0157521
722.190	0.0157722
722.268	0.0157280
722.346	0.0156606
722.424	0.0156989
722.503	0.0158051
722.581	0.0157335
722.659	0.0157633
722.737	0.0157851
722.815	0.0158447
722.893	0.0159284
722.971	0.0159444
723.049	0.0159888
723.128	0.0159521
723.206	0.0158150
723.284	0.0160062
723.362	0.0158717
723.440	0.0158533
723.518	0.0159932
723.596	0.0159331
723.674	0.0158376
723.753	0.0158346
723.831	0.0159068
723.909	0.0157951
723.987	0.0158953
724.065	0.0158360
724.143	0.0160733
724.221	0.0159068
724.299	0.0158366
724.378	0.0158559
724.456	0.0158448
724.534	0.0158981
724.612	0.0159905
724.690	0.0159583
724.768	0.0158934
724.846	0.0158466
724.924	0.0159933
725.003	0.0159373
725.081	0.0159000
725.159	0.0158224
725.237	0.0159708
725.315	0.0158948
725.393	0.0158539
725.471	0.0159026
725.549	0.0158892
725.628	0.0158649
725.706	0.0159482
725.784	0.0159017
725.862	0.0158468
725.940	0.0158293
726.018	0.0158601
726.096	0.0157864
726.174	0.0157439
726.253	0.0158499
726.331	0.0158935
726.409	0.0157763
726.487	0.0156667
726.565	0.0157053
726.643	0.0158100
726.721	0.0157899
726.799	0.0158781
726.878	0.0158010
726.956	0.0158073
727.034	0.0158893
727.112	0.0159786
727.190	0.0158221
727.268	0.0158621
727.346	0.0159408
727.424	0.0158765
727.503	0.0158711
727.581	0.0159123
727.659	0.0159732
727.737	0.0158454
727.815	0.0157485
727.893	0.0157588
727.971	0.0158132
728.049	0.0158977
728.128	0.0159151
728.206	0.0157422
728.284	0.0157740
728.362	0.0158205
728.440	0.0156562
728.518	0.0156697
728.596	0.0157866
728.674	0.0157896
728.753	0.0157730
728.831	0.0158056
728.909	0.0156345
728.987	0.0159041
729.065	0.0159134
729.143	0.0157972
729.221	0.0158302
729.299	0.0158494
729.378	0.0157682
729.456	0.0158385
729.534	0.0157568
729.612	0.0158584
729.690	0.0158108
729.768	0.0157881
729.846	0.0156490
729.924	0.0157969
730.003	0.0157277
730.081	0.0156478
730.159	0.0156400
730.237	0.0158255
730.315	0.0158891
730.393	0.0157603
730.471	0.0158073
730.549	0.0157549
730.628	0.0158780
730.706	0.0157436
730.784	0.0159119
730.862	0.0158368
730.940	0.0157987
731.018	0.0160331
731.096	0.0160392
731.174	0.0160079
731.253	0.0158821
731.331	0.0158879
731.409	0.0159337
731.487	0.0158692
731.565	0.0158009
731.643	0.0157859
731.721	0.0157469
731.799	0.0159818
731.878	0.0160811
731.956	0.0159560
732.034	0.0159299
732.112	0.0160127
732.190	0.0159194
732.268	0.0159725
732.346	0.0158949
732.424	0.0160442
732.503	0.0159389
732.581	0.0159148
732.659	0.0158884
732.737	0.0157436
732.815	0.0157698
732.893	0.0157473
732.971	0.0157963
733.049	0.0158114
733.128	0.0157430
733.206	0.0158247
733.284	0.0157836
733.362	0.0157030
733.440	0.0156296
733.518	0.0156569
733.596	0.0158698
733.674	0.0159058
733.753	0.0157405
733.831	0.0157169
733.909	0.0156895
733.987	0.0157294
734.065	0.0158855
734.143	0.0158829
734.221	0.0158116
734.299	0.0159338
734.378	0.0157868
734.456	0.0158024
734.534	0.0157810
734.612	0.0158685
734.690	0.0158299
734.768	0.0160016
734.846	0.0158256
734.924	0.0160406
735.003	0.0158742
735.081	0.0160048
735.159	0.0159005
735.237	0.0159080
735.315	0.0158345
735.393	0.0159698
735.471	0.0158841
735.549	0.0159446
735.628	0.0158548
735.706	0.0158883
735.784	0.0158572
735.862	0.0157487
735.940	0.0159515
736.018	0.0158275
736.096	0.0158422
736.174	0.0158836
736.253	0.0157625
736.331	0.0158688
736.409	0.0158066
736.487	0.0159106
736.565	0.0158775
736.643	0.0159085
736.721	0.0159305
736.799	0.0159695
736.878	0.0158459
736.956	0.0159535
737.034	0.0159299
737.112	0.0159554
737.190	0.0159145
737.268	0.0158812
737.346	0.0158363
737.424	0.0159829
737.503	0.0160338
737.581	0.0160271
737.659	0.0159214
737.737	0.0160069
737.815	0.0159921
737.893	0.0158437
737.971	0.0158297
738.049	0.0160419
738.128	0.0158766
738.206	0.0159153
738.284	0.0159712
738.362	0.0159197
738.440	0.0158775
738.518	0.0160381
738.596	0.0159464
738.674	0.0159462
738.753	0.0159258
738.831	0.0158807
738.909	0.0159397
738.987	0.0157957
739.065	0.0159722
739.143	0.0159825
739.221	0.0159454
739.299	0.0158807
739.378	0.0159007
739.456	0.0159970
739.534	0.0158314
739.612	0.0158392
739.690	0.0158408
739.768	0.0159279
739.846	0.0159680
739.924	0.0159570
740.003	0.0158965
740.081	0.0159190
740.159	0.0158561
740.237	0.0159190
740.315	0.0158849
740.393	0.0158530
740.471	0.0157844
740.549	0.0158496
740.628	0.0158669
740.706	0.0158569
740.784	0.0158667
740.862	0.0158601
740.940	0.0157395
741.018	0.0158673
741.096	0.0158428
741.174	0.0158914
741.253	0.0158724
741.331	0.0159803
741.409	0.0159533
741.487	0.0159640
741.565	0.0158576
741.643	0.0158504
741.721	0.0160733
741.799	0.0158116
741.878	0.0159233
741.956	0.0158492
742.034	0.0158112
742.112	0.0160394
742.190	0.0158454
742.268	0.0158701
742.346	0.0159727
742.424	0.0159097
742.503	0.0160979
742.581	0.0159141
742.659	0.0160139
742.737	0.0160834
742.815	0.0160300
742.893	0.0160194
742.971	0.0160623
743.049	0.0160422
743.128	0.0160199
743.206	0.0160150
743.284	0.0159676
743.362	0.0159270
743.440	0.0161378
743.518	0.0159772
743.596	0.0158886
743.674	0.0159731
743.753	0.0160461
743.831	0.0159814
743.909	0.0160757
743.987	0.0158246
744.065	0.0158941
744.143	0.0160863
744.221	0.0161221
744.299	0.0160226
744.378	0.0161149
744.456	0.0160005
744.534	0.0160571
744.612	0.0161273
744.690	0.0159091
744.768	0.0160780
744.846	0.0160810
744.924	0.0160014
745.003	0.0159573
745.081	0.0159634
745.159	0.0160421
745.237	0.0160825
745.315	0.0159619
745.393	0.0158665
745.471	0.0158573
745.549	0.0159258
745.628	0.0159207
745.706	0.0158810
745.784	0.0158152
745.862	0.0159911
745.940	0.0158755
746.018	0.0157856
746.096	0.0158320
746.174	0.0159893
746.253	0.0158734
746.331	0.0158298
746.409	0.0158303
746.487	0.0158595
746.565	0.0157581
746.643	0.0157790
746.721	0.0157660
746.799	0.0157997
746.878	0.0157917
746.956	0.0160745
747.034	0.0159129
747.112	0.0158869
747.190	0.0158604
747.268	0.0158759
747.346	0.0158984
747.424	0.0160447
747.503	0.0158858
747.581	0.0159077
747.659	0.0159405
747.737	0.0158289
747.815	0.0158397
747.893	0.0159373
747.971	0.0158264
748.049	0.0157837
748.128	0.0158429
748.206	0.0157395
748.284	0.0157764
748.362	0.0159198
748.440	0.0157292
748.518	0.0157075
748.596	0.0157156
748.674	0.0155549
748.753	0.0156348
748.831	0.0156534
748.909	0.0155420
748.987	0.0157649
749.065	0.0158098
749.143	0.0157362
749.221	0.0156494
749.299	0.0156639
749.378	0.0157336
749.456	0.0156978
749.534	0.0157475
749.612	0.0158303
749.690	0.0158022
749.768	0.0157864
749.846	0.0157942
749.924	0.0157888
750.003	0.0157585
750.081	0.0158363
750.159	0.0157750
750.237	0.0158469
750.315	0.0158134
750.393	0.0157738
750.471	0.0158218
750.549	0.0157595
750.628	0.0158916
750.706	0.0160065
750.784	0.0158435
750.862	0.0159081
750.940	0.0157897
751.018	0.0157500
751.096	0.0158928
751.174	0.0159924
751.253	0.0158275
751.331	0.0159970
751.409	0.0159291
751.487	0.0158631
751.565	0.0158862
751.643	0.0158913
751.721	0.0159536
751.799	0.0159456
751.878	0.0160040
751.956	0.0159158
752.034	0.0158724
752.112	0.0158086
752.190	0.0159822
752.268	0.0160238
752.346	0.0160684
752.424	0.0159737
752.503	0.0161403
752.581	0.0160036
752.659	0.0159106
752.737	0.0158101
752.815	0.0158923
752.893	0.0159763
752.971	0.0159154
753.049	0.0158240
753.128	0.0157652
753.206	0.0157896
753.284	0.0157479
753.362	0.0159801
753.440	0.0158353
753.518	0.0158988
753.596	0.0159844
753.674	0.0158285
753.753	0.0158365
753.831	0.0159153
753.909	0.0158350
753.987	0.0157924
754.065	0.0158057
754.143	0.0158223
754.221	0.0158537
754.299	0.0159334
754.378	0.0159390
754.456	0.0159088
754.534	0.0158002
754.612	0.0157225
754.690	0.0157961
754.768	0.0158479
754.846	0.0157634
754.924	0.0157554
755.003	0.0158556
755.081	0.0158415
755.159	0.0157292
755.237	0.0158510
755.315	0.0157203
755.393	0.0157492
755.471	0.0158382
755.549	0.0158447
755.628	0.0158093
755.706	0.0158486
755.784	0.0158124
755.862	0.0159962
755.940	0.0159417
756.018	0.0158076
756.096	0.0157008
756.174	0.0158123
756.253	0.0158006
756.331	0.0158258
756.409	0.0157500
756.487	0.0159618
756.565	0.0159879
756.643	0.0160223
756.721	0.0159021
756.799	0.0159023
756.878	0.0159225
756.956	0.0158944
757.034	0.0158100
757.112	0.0159424
757.190	0.0158406
757.268	0.0159010
757.346	0.0158635
757.424	0.0159451
757.503	0.0159372
757.581	0.0159653
757.659	0.0158265
757.737	0.0158839
757.815	0.0157083
757.893	0.0158993
757.971	0.0159599
758.049	0.0156556
758.128	0.0157561
758.206	0.0159331
758.284	0.0158797
758.362	0.0159159
758.440	0.0157841
758.518	0.0157811
758.596	0.0158793
758.674	0.0158635
758.753	0.0159391
758.831	0.0159750
758.909	0.0158138
758.987	0.0160104
759.065	0.0158763
759.143	0.0159189
759.221	0.0159754
759.299	0.0159082
759.378	0.0160034
759.456	0.0160506
759.534	0.0162085
759.612	0.0160500
759.690	0.0159921
759.768	0.0159360
759.846	0.0160462
759.924	0.0159970
760.003	0.0160004
760.081	0.0159892
760.159	0.0160140
760.237	0.0161925
760.315	0.0160582
760.393	0.0159839
760.471	0.0160469
760.549	0.0160830
760.628	0.0161823
760.706	0.0160200
760.784	0.0160625
760.862	0.0161939
760.940	0.0160805
761.018	0.0161098
761.096	0.0159354
761.174	0.0160171
761.253	0.0160936
761.331	0.0160277
761.409	0.0158620
761.487	0.0160412
761.565	0.0159190
761.643	0.0160146
761.721	0.0159907
761.799	0.0158421
761.878	0.0159133
761.956	0.0160492
762.034	0.0159932
762.112	0.0159839
762.190	0.0159335
762.268	0.0159158
762.346	0.0158810
762.424	0.0158585
762.503	0.0158973
762.581	0.0161292
762.659	0.0159625
762.737	0.0159825
762.815	0.0158839
762.893	0.0159060
762.971	0.0160696
763.049	0.0159960
763.128	0.0158034
763.206	0.0159904
763.284	0.0159869
763.362	0.0160539
763.440	0.0160019
763.518	0.0159154
763.596	0.0158924
763.674	0.0158898
763.753	0.0159531
763.831	0.0159046
763.909	0.0158497
763.987	0.0157809
764.065	0.0158631
764.143	0.0160430
764.221	0.0159135
764.299	0.0158829
764.378	0.0158898
764.456	0.0158768
764.534	0.0157973
764.612	0.0159628
764.690	0.0159116
764.768	0.0157575
764.846	0.0157975
764.924	0.0160488
765.003	0.0158806
765.081	0.0158190
765.159	0.0158078
765.237	0.0160414
765.315	0.0160419
765.393	0.0159071
765.471	0.0160121
765.549	0.0160788
765.628	0.0159752
765.706	0.0160378
765.784	0.0160129
765.862	0.0160870
765.940	0.0159993
766.018	0.0160001
766.096	0.0161236
766.174	0.0161478
766.253	0.0159703
766.331	0.0160429
766.409	0.0159090
766.487	0.0161575
766.565	0.0159985
766.643	0.0159155
766.721	0.0159229
766.799	0.0160147
766.878	0.0160004
766.956	0.0159478
767.034	0.0159515
767.112	0.0159900
767.190	0.0158950
767.268	0.0159556
767.346	0.0158921
767.424	0.0159434
767.503	0.0159924
767.581	0.0160860
767.659	0.0160063
767.737	0.0160249
767.815	0.0159353
767.893	0.0159488
767.971	0.0159147
768.049	0.0160406
768.128	0.0159164
768.206	0.0157854
768.284	0.0159211
768.362	0.0159252
768.440	0.0160166
768.518	0.0158710
768.596	0.0158315
768.674	0.0158110
768.753	0.0158414
768.831	0.0160006
768.909	0.0158238
768.987	0.0157956
769.065	0.0159059
769.143	0.0159705
769.221	0.0159641
769.299	0.0159045
769.378	0.0158067
769.456	0.0157869
769.534	0.0158703
769.612	0.0158358
769.690	0.0158363
769.768	0.0157688
769.846	0.0157171
769.924	0.0159016
770.003	0.0159595
770.081	0.0158696
770.159	0.0158340
770.237	0.0157693
770.315	0.0158792
770.393	0.0158678
770.471	0.0157528
770.549	0.0157166
770.628	0.0157562
770.706	0.0157037
770.784	0.0157479
770.862	0.0158942
770.940	0.0159838
771.018	0.0158041
771.096	0.0158237
771.174	0.0156984
771.253	0.0158895
771.331	0.0159320
771.409	0.0157866
771.487	0.0157361
771.565	0.0158620
771.643	0.0157941
771.721	0.0157807
771.799	0.0158955
771.878	0.0158927
771.956	0.0159361
772.034	0.0160171
772.112	0.0157593
772.190	0.0156901
772.268	0.0158131
772.346	0.0158291
772.424	0.0158022
772.503	0.0157552
772.581	0.0157545
772.659	0.0158331
772.737	0.0158521
772.815	0.0157887
772.893	0.0157407
772.971	0.0157053
773.049	0.0158997
773.128	0.0158372
773.206	0.0158187
773.284	0.0156071
773.362	0.0156951
773.440	0.0158434
773.518	0.0158335
773.596	0.0158031
773.674	0.0158321
773.753	0.0158740
773.831	0.0158875
773.909	0.0158488
773.987	0.0158863
774.065	0.0159963
774.143	0.0159087
774.221	0.0159196
774.299	0.0158632
774.378	0.0159012
774.456	0.0159058
774.534	0.0160718
774.612	0.0157928
774.690	0.0158683
774.768	0.0158857
774.846	0.0158531
774.924	0.0157423
775.003	0.0158847
775.081	0.0158881
775.159	0.0157466
775.237	0.0157947
775.315	0.0158389
775.393	0.0158181
775.471	0.0158011
775.549	0.0157410
775.628	0.0157912
775.706	0.0159972
775.784	0.0157841
775.862	0.0158233
775.940	0.0158208
776.018	0.0158699
776.096	0.0158576
776.174	0.0158289
776.253	0.0158324
776.331	0.0159021
776.409	0.0158421
776.487	0.0159585
776.565	0.0158974
776.643	0.0159330
776.721	0.0160445
776.799	0.0160731
776.878	0.0159838
776.956	0.0157172
777.034	0.0159301
777.112	0.0159891
777.190	0.0159988
777.268	0.0159661
777.346	0.0159804
777.424	0.0159545
777.503	0.0158626
777.581	0.0157996
777.659	0.0159222
777.737	0.0159393
777.815	0.0158685
777.893	0.0157964
777.971	0.0158337
778.049	0.0159043
778.128	0.0159684
778.206	0.0158803
778.284	0.0157642
778.362	0.0159075
778.440	0.0159140
778.518	0.0159406
778.596	0.0159061
778.674	0.0159447
778.753	0.0159335
778.831	0.0159929
778.909	0.0158179
778.987	0.0158472
779.065	0.0158820
779.143	0.0158418
779.221	0.0157849
779.299	0.0157175
779.378	0.0158535
779.456	0.0158075
779.534	0.0158537
779.612	0.0157125
779.690	0.0158496
779.768	0.0157557
779.846	0.0158144
779.924	0.0158524
780.003	0.0158813
780.081	0.0158070
780.159	0.0158608
780.237	0.0158102
780.315	0.0158865
780.393	0.0156690
780.471	0.0158089
780.549	0.0159607
780.628	0.0158485
780.706	0.0157598
780.784	0.0157903
780.862	0.0158812
780.940	0.0158047
781.018	0.0157471
781.096	0.0158181
781.174	0.0157911
781.253	0.0158663
781.331	0.0158689
781.409	0.0159711
781.487	0.0158510
781.565	0.0157288
781.643	0.0157439
781.721	0.0157738
781.799	0.0158431
781.878	0.0158350
781.956	0.0157928
782.034	0.0158195
782.112	0.0159610
782.190	0.0158820
782.268	0.0158221
782.346	0.0157550
782.424	0.0158557
782.503	0.0159784
782.581	0.0159668
782.659	0.0158987
782.737	0.0159399
782.815	0.0160021
782.893	0.0159339
782.971	0.0158295
783.049	0.0160007
783.128	0.0159606
783.206	0.0158633
783.284	0.0158414
783.362	0.0160490
783.440	0.0160648
783.518	0.0160180
783.596	0.0160599
783.674	0.0161568
783.753	0.0161579
783.831	0.0160269
783.909	0.0159980
783.987	0.0160856
784.065	0.0161758
784.143	0.0159613
784.221	0.0160591
784.299	0.0160892
784.378	0.0160748
784.456	0.0160729
784.534	0.0158919
784.612	0.0159149
784.690	0.0160104
784.768	0.0160249
784.846	0.0160820
784.924	0.0159812
785.003	0.0160098
785.081	0.0158962
785.159	0.0159315
785.237	0.0160799
785.315	0.0160612
785.393	0.0160205
785.471	0.0159595
785.549	0.0160665
785.628	0.0158863
785.706	0.0158699
785.784	0.0159613
785.862	0.0159772
785.940	0.0159489
786.018	0.0158604
786.096	0.0159474
786.174	0.0160586
786.253	0.0159138
786.331	0.0158881
786.409	0.0158940
786.487	0.0158324
786.565	0.0158870
786.643	0.0157983
786.721	0.0158188
786.799	0.0158160
786.878	0.0157672
786.956	0.0157602
787.034	0.0159425
787.112	0.0159273
787.190	0.0159299
787.268	0.0158688
787.346	0.0158838
787.424	0.0158765
787.503	0.0159615
787.581	0.0158543
787.659	0.0158830
787.737	0.0159476
787.815	0.0158032
787.893	0.0158900
787.971	0.0157844
788.049	0.0158563
788.128	0.0159276
788.206	0.0158448
788.284	0.0159207
788.362	0.0158534
788.440	0.0158974
788.518	0.0158278
788.596	0.0156844
788.674	0.0157947
788.753	0.0157859
788.831	0.0158426
788.909	0.0158213
788.987	0.0157308
789.065	0.0159049
789.143	0.0159071
789.221	0.0157249
789.299	0.0158430
789.378	0.0157899
789.456	0.0159888
789.534	0.0157728
789.612	0.0158273
789.690	0.0158794
789.768	0.0157304
789.846	0.0158297
789.924	0.0159705
790.003	0.0159267
790.081	0.0159306
790.159	0.0159061
790.237	0.0160736
790.315	0.0160385
790.393	0.0158939
790.471	0.0159608
790.549	0.0159960
790.628	0.0159291
790.706	0.0159258
790.784	0.0158836
790.862	0.0160571
790.940	0.0159240
791.018	0.0159898
791.096	0.0157895
791.174	0.0160323
791.253	0.0159242
791.331	0.0160168
791.409	0.0160064
791.487	0.0158746
791.565	0.0160436
791.643	0.0158447
791.721	0.0159507
791.799	0.0160094
791.878	0.0160038
791.956	0.0159481
792.034	0.0159941
792.112	0.0158795
792.190	0.0159441
792.268	0.0158678
792.346	0.0158848
792.424	0.0158914
792.503	0.0160435
792.581	0.0158325
792.659	0.0158165
792.737	0.0159062
792.815	0.0158310
792.893	0.0158988
792.971	0.0156715
793.049	0.0158186
793.128	0.0157066
793.206	0.0156954
793.284	0.0156918
793.362	0.0157692
793.440	0.0157013
793.518	0.0158885
793.596	0.0158905
793.674	0.0158568
793.753	0.0158509
793.831	0.0158910
793.909	0.0158519
793.987	0.0158829
794.065	0.0158305
794.143	0.0159399
794.221	0.0157617
794.299	0.0157680
794.378	0.0157856
794.456	0.0157391
794.534	0.0158385
794.612	0.0158952
794.690	0.0157194
794.768	0.0157505
794.846	0.0158527
794.924	0.0158241
795.003	0.0156899
795.081	0.0155798
795.159	0.0157419
795.237	0.0157970
795.315	0.0157858
795.393	0.0158404
795.471	0.0158430
795.549	0.0157218
795.628	0.0156591
795.706	0.0158446
795.784	0.0156973
795.862	0.0157689
795.940	0.0158968
796.018	0.0155748
796.096	0.0157073
796.174	0.0158710
796.253	0.0157490
796.331	0.0157440
796.409	0.0157658
796.487	0.0158240
796.565	0.0158501
796.643	0.0157109
796.721	0.0157092
796.799	0.0158024
796.878	0.0158096
796.956	0.0157896
797.034	0.0157773
797.112	0.0158726
797.190	0.0156444
797.268	0.0156465
797.346	0.0158087
797.424	0.0158028
797.503	0.0157803
797.581	0.0156956
797.659	0.0157528
797.737	0.0158635
797.815	0.0160301
797.893	0.0158520
797.971	0.0157980
798.049	0.0159142
798.128	0.0157865
798.206	0.0157221
798.284	0.0158703
798.362	0.0158624
798.440	0.0158391
798.518	0.0159525
798.596	0.0158678
798.674	0.0159818
798.753	0.0159229
798.831	0.0158753
798.909	0.0159454
798.987	0.0159557
799.065	0.0158070
799.143	0.0158970
799.221	0.0158501
799.299	0.0158807
799.378	0.0160235
799.456	0.0158963
799.534	0.0158812
799.612	0.0159519
799.690	0.0159023
799.768	0.0159017
799.846	0.0159064
799.924	0.0158325
800.003	0.0159288
800.081	0.0158772
800.159	0.0158823
800.237	0.0160425
800.315	0.0158646
800.393	0.0159171
800.471	0.0159035
800.549	0.0157422
800.628	0.0157729
800.706	0.0159835
800.784	0.0157333
800.862	0.0159106
800.940	0.0158954
801.018	0.0158585
801.096	0.0158620
801.174	0.0159583
801.253	0.0159354
801.331	0.0157872
801.409	0.0158078
801.487	0.0159054
801.565	0.0157935
801.643	0.0158620
801.721	0.0158646
801.799	0.0159161
801.878	0.0159570
801.956	0.0158742
802.034	0.0159286
802.112	0.0158872
802.190	0.0159219
802.268	0.0158614
802.346	0.0158186
802.424	0.0159340
802.503	0.0159090
802.581	0.0157117
802.659	0.0158732
802.737	0.0159180
802.815	0.0159327
802.893	0.0157819
802.971	0.0157031
803.049	0.0157330
803.128	0.0158502
803.206	0.0159730
803.284	0.0157466
803.362	0.0159878
803.440	0.0159504
803.518	0.0158556
803.596	0.0159634
803.674	0.0160697
803.753	0.0158221
803.831	0.0158870
803.909	0.0159879
803.987	0.0159064
804.065	0.0159554
804.143	0.0157505
804.221	0.0158323
804.299	0.0158670
804.378	0.0158276
804.456	0.0159267
804.534	0.0160355
804.612	0.0158926
804.690	0.0159098
804.768	0.0159029
804.846	0.0159531
804.924	0.0159088
805.003	0.0159546
805.081	0.0158696
805.159	0.0158688
805.237	0.0159669
805.315	0.0159856
805.393	0.0160162
805.471	0.0160379
805.549	0.0159752
805.628	0.0159666
805.706	0.0160199
805.784	0.0159418
805.862	0.0159149
805.940	0.0159605
806.018	0.0159940
806.096	0.0160148
806.174	0.0158692
806.253	0.0159319
806.331	0.0160844
806.409	0.0160554
806.487	0.0158585
806.565	0.0160107
806.643	0.0159787
806.721	0.0159962
806.799	0.0160213
806.878	0.0160319
806.956	0.0160036
807.034	0.0160373
807.112	0.0160644
807.190	0.0159220
807.268	0.0160471
807.346	0.0159180
807.424	0.0159525
807.503	0.0159531
807.581	0.0160153
807.659	0.0158939
807.737	0.0158952
807.815	0.0161233
807.893	0.0158616
807.971	0.0158958
808.049	0.0159936
808.128	0.0158801
808.206	0.0158779
808.284	0.0159980
808.362	0.0158183
808.440	0.0157825
808.518	0.0160429
808.596	0.0160748
808.674	0.0159124
808.753	0.0159825
808.831	0.0159026
808.909	0.0158659
808.987	0.0159747
809.065	0.0161035
809.143	0.0159423
809.221	0.0159396
809.299	0.0160263
809.378	0.0160174
809.456	0.0161066
809.534	0.0160004
809.612	0.0158822
809.690	0.0160186
809.768	0.0161236
809.846	0.0159351
809.924	0.0159978
810.003	0.0159672
810.081	0.0160897
810.159	0.0160226
810.237	0.0161063
810.315	0.0159827
810.393	0.0160053
810.471	0.0160844
810.549	0.0159638
810.628	0.0161173
810.706	0.0160378
810.784	0.0159713
810.862	0.0160636
810.940	0.0161234
811.018	0.0159201
811.096	0.0160422
811.174	0.0159314
811.253	0.0160176
811.331	0.0158725
811.409	0.0159898
811.487	0.0159815
811.565	0.0159418
811.643	0.0158917
811.721	0.0158986
811.799	0.0158250
811.878	0.0158536
811.956	0.0159113
812.034	0.0158463
812.112	0.0159927
812.190	0.0158961
812.268	0.0158859
812.346	0.0157381
812.424	0.0157337
812.503	0.0157825
812.581	0.0157477
812.659	0.0158437
812.737	0.0158394
812.815	0.0158036
812.893	0.0156788
812.971	0.0157124
813.049	0.0157603
813.128	0.0156472
813.206	0.0156834
813.284	0.0157129
813.362	0.0157848
813.440	0.0156109
813.518	0.0157140
813.596	0.0157359
813.674	0.0157272
813.753	0.0157626
813.831	0.0157664
813.909	0.0156876
813.987	0.0157810
814.065	0.0156622
814.143	0.0157973
814.221	0.0157515
814.299	0.0156303
814.378	0.0157010
814.456	0.0158617
814.534	0.0157433
814.612	0.0157133
814.690	0.0157394
814.768	0.0158414
814.846	0.0158140
814.924	0.0157584
815.003	0.0157585
815.081	0.0157607
815.159	0.0159100
815.237	0.0159647
815.315	0.0157896
815.393	0.0157912
815.471	0.0159076
815.549	0.0160214
815.628	0.0158057
815.706	0.0158737
815.784	0.0159927
815.862	0.0160456
815.940	0.0159312
816.018	0.0159470
816.096	0.0158187
816.174	0.0159201
816.253	0.0159501
816.331	0.0159121
816.409	0.0158365
816.487	0.0159023
816.565	0.0156844
816.643	0.0157651
816.721	0.0158270
816.799	0.0159000
816.878	0.0157376
816.956	0.0157972
817.034	0.0157712
817.112	0.0159352
817.190	0.0158595
817.268	0.0157054
817.346	0.0157894
817.424	0.0158338
817.503	0.0158899
817.581	0.0156683
817.659	0.0157871
817.737	0.0157509
817.815	0.0158996
817.893	0.0157761
817.971	0.0156612
818.049	0.0160448
818.128	0.0159143
818.206	0.0157903
818.284	0.0159006
818.362	0.0158496
818.440	0.0157972
818.518	0.0158484
818.596	0.0158429
818.674	0.0156759
818.753	0.0158235
818.831	0.0157883
818.909	0.0158692
818.987	0.0157175
819.065	0.0157551
819.143	0.0158778
819.221	0.0157338
819.299	0.0157354
819.378	0.0158957
819.456	0.0159084
819.534	0.0157437
819.612	0.0156131
819.690	0.0157948
819.768	0.0158044
819.846	0.0158879
819.924	0.0159558
820.003	0.0158663
820.081	0.0157485
820.159	0.0158042
820.237	0.0157247
820.315	0.0156991
820.393	0.0158400
820.471	0.0157812
820.549	0.0158631
820.628	0.0158363
820.706	0.0158347
820.784	0.0158209
820.862	0.0159286
820.940	0.0158439
821.018	0.0158035
821.096	0.0158927
821.174	0.0158714
821.253	0.0158645
821.331	0.0158681
821.409	0.0157697
821.487	0.0158331
821.565	0.0157046
821.643	0.0159496
821.721	0.0158781
821.799	0.0158509
821.878	0.0157803
821.956	0.0157626
822.034	0.0157439
822.112	0.0158742
822.190	0.0157712
822.268	0.0158980
822.346	0.0158135
822.424	0.0158788
822.503	0.0158467
822.581	0.0158934
822.659	0.0157443
822.737	0.0158582
822.815	0.0157473
822.893	0.0157872
822.971	0.0157420
823.049	0.0158232
823.128	0.0158728
823.206	0.0157449
823.284	0.0156454
823.362	0.0158932
823.440	0.0159179
823.518	0.0157707
823.596	0.0158871
823.674	0.0159138
823.753	0.0159064
823.831	0.0159205
823.909	0.0158730
823.987	0.0158856
824.065	0.0160184
824.143	0.0159196
824.221	0.0158522
824.299	0.0159667
824.378	0.0159486
824.456	0.0159600
824.534	0.0159588
824.612	0.0157772
824.690	0.0158269
824.768	0.0159628
824.846	0.0159704
824.924	0.0159023
825.003	0.0158813
825.081	0.0158593
825.159	0.0159795
825.237	0.0160379
825.315	0.0160293
825.393	0.0159184
825.471	0.0158112
825.549	0.0158745
825.628	0.0159206
825.706	0.0160130
825.784	0.0158130
825.862	0.0157361
825.940	0.0158984
826.018	0.0159692
826.096	0.0161114
826.174	0.0159698
826.253	0.0159410
826.331	0.0157690
826.409	0.0159422
826.487	0.0159975
826.565	0.0159637
826.643	0.0159872
826.721	0.0159040
826.799	0.0159570
826.878	0.0159911
826.956	0.0158884
827.034	0.0159485
827.112	0.0159985
827.190	0.0159418
827.268	0.0159158
827.346	0.0159642
827.424	0.0159889
827.503	0.0158987
827.581	0.0158170
827.659	0.0159310
827.737	0.0158466
827.815	0.0158498
827.893	0.0157051
827.971	0.0159541
828.049	0.0159518
828.128	0.0159010
828.206	0.0158384
828.284	0.0157867
828.362	0.0159667
828.440	0.0159219
828.518	0.0157362
828.596	0.0158701
828.674	0.0158939
828.753	0.0158085
828.831	0.0159113
828.909	0.0158495
828.987	0.0158385
829.065	0.0157762
829.143	0.0158881
829.221	0.0158791
829.299	0.0158058
829.378	0.0156891
829.456	0.0157494
829.534	0.0157635
829.612	0.0158073
829.690	0.0157691
829.768	0.0157072
829.846	0.0157677
829.924	0.0156716
830.003	0.0157903
830.081	0.0156813
830.159	0.0158234
830.237	0.0158220
830.315	0.0157671
830.393	0.0159093
830.471	0.0159058
830.549	0.0158808
830.628	0.0158483
830.706	0.0158456
830.784	0.0159367
830.862	0.0159743
830.940	0.0159168
831.018	0.0160570
831.096	0.0159840
831.174	0.0159823
831.253	0.0159858
831.331	0.0159716
831.409	0.0159169
831.487	0.0158904
831.565	0.0158341
831.643	0.0159235
831.721	0.0160030
831.799	0.0159879
831.878	0.0159219
831.956	0.0159315
832.034	0.0161073
832.112	0.0160537
832.190	0.0161165
832.268	0.0159212
832.346	0.0159177
832.424	0.0159737
832.503	0.0158747
832.581	0.0159850
832.659	0.0160320
832.737	0.0159659
832.815	0.0160173
832.893	0.0160207
832.971	0.0160825
833.049	0.0161222
833.128	0.0158906
833.206	0.0158655
833.284	0.0157797
833.362	0.0160838
833.440	0.0160941
833.518	0.0159838
833.596	0.0160454
833.674	0.0159451
833.753	0.0160068
833.831	0.0160046
833.909	0.0159732
833.987	0.0159650
834.065	0.0158782
834.143	0.0159915
834.221	0.0161141
834.299	0.0159646
834.378	0.0158287
834.456	0.0158724
834.534	0.0158453
834.612	0.0158632
834.690	0.0160067
834.768	0.0159373
834.846	0.0160925
834.924	0.0158112
835.003	0.0159965
835.081	0.0159166
835.159	0.0158907
835.237	0.0159174
835.315	0.0159865
835.393	0.0160468
835.471	0.0158862
835.549	0.0159408
835.628	0.0160177
835.706	0.0159288
835.784	0.0158694
835.862	0.0159517
835.940	0.0159035
836.018	0.0159342
836.096	0.0158213
836.174	0.0156767
836.253	0.0157732
836.331	0.0158685
836.409	0.0158801
836.487	0.0159299
836.565	0.0157906
836.643	0.0159084
836.721	0.0158305
836.799	0.0159161
836.878	0.0158259
836.956	0.0158991
837.034	0.0157681
837.112	0.0159133
837.190	0.0159102
837.268	0.0158561
837.346	0.0158289
837.424	0.0159243
837.503	0.0158440
837.581	0.0159097
837.659	0.0159611
837.737	0.0158984
837.815	0.0158764
837.893	0.0158186
837.971	0.0158939
838.049	0.0158769
838.128	0.0158636
838.206	0.0158957
838.284	0.0157616
838.362	0.0157642
838.440	0.0158776
838.518	0.0159997
838.596	0.0159892
838.674	0.0157986
838.753	0.0159567
838.831	0.0159830
838.909	0.0159321
838.987	0.0158144
839.065	0.0158968
839.143	0.0159319
839.221	0.0159929
839.299	0.0158292
839.378	0.0158618
839.456	0.0158916
839.534	0.0158612
839.612	0.0157601
839.690	0.0159023
839.768	0.0160146
839.846	0.0158630
839.924	0.0158833
840.003	0.0159119
840.081	0.0160152
840.159	0.0159686
840.237	0.0160056
840.315	0.0159693
840.393	0.0159290
840.471	0.0159983
840.549	0.0159446
840.628	0.0160786
840.706	0.0158180
840.784	0.0159167
840.862	0.0159845
840.940	0.0158794
841.018	0.0158449
841.096	0.0159179
841.174	0.0159236
841.253	0.0160336
841.331	0.0159465
841.409	0.0159900
841.487	0.0159145
841.565	0.0160325
841.643	0.0159786
841.721	0.0160290
841.799	0.0160056
841.878	0.0160547
841.956	0.0159483
842.034	0.0160966
842.112	0.0160651
842.190	0.0159679
842.268	0.0158810
842.346	0.0160436
842.424	0.0161168
842.503	0.0159654
842.581	0.0160040
842.659	0.0161581
842.737	0.0158839
842.815	0.0159307
842.893	0.0160233
842.971	0.0158975
843.049	0.0158938
843.128	0.0157549
843.206	0.0157188
843.284	0.0158665
843.362	0.0159334
843.440	0.0159875
843.518	0.0158716
843.596	0.0157756
843.674	0.0158833
843.753	0.0159375
843.831	0.0157238
843.909	0.0157996
843.987	0.0157814
844.065	0.0157523
844.143	0.0158525
844.221	0.0158813
844.299	0.0159117
844.378	0.0158909
844.456	0.0157643
844.534	0.0157449
844.612	0.0156873
844.690	0.0158307
844.768	0.0158478
844.846	0.0159323
844.924	0.0158216
845.003	0.0157483
845.081	0.0157509
845.159	0.0157919
845.237	0.0157575
845.315	0.0157665
845.393	0.0157902
845.471	0.0159225
845.549	0.0157598
845.628	0.0158663
845.706	0.0158377
845.784	0.0158016
845.862	0.0157325
845.940	0.0156528
846.018	0.0157557
846.096	0.0158943
846.174	0.0158833
846.253	0.0158378
846.331	0.0157559
846.409	0.0158582
846.487	0.0158681
846.565	0.0159588
846.643	0.0157966
846.721	0.0157903
846.799	0.0158335
846.878	0.0158638
846.956	0.0159245
847.034	0.0158039
847.112	0.0159508
847.190	0.0159611
847.268	0.0158770
847.346	0.0159243
847.424	0.0157902
847.503	0.0158401
847.581	0.0157701
847.659	0.0158327
847.737	0.0157455
847.815	0.0158884
847.893	0.0158129
847.971	0.0156749
848.049	0.0157391
848.128	0.0158987
848.206	0.0159441
848.284	0.0157304
848.362	0.0158004
848.440	0.0157326
848.518	0.0158122
848.596	0.0159451
848.674	0.0159142
848.753	0.0160281
848.831	0.0159252
848.909	0.0156851
848.987	0.0157796
849.065	0.0158403
849.143	0.0157190
849.221	0.0157361
849.299	0.0158265
849.378	0.0159309
849.456	0.0159070
849.534	0.0158330
849.612	0.0158967
849.690	0.0156381
849.768	0.0158344
849.846	0.0158527
849.924	0.0158119
850.003	0.0158530
850.081	0.0158179
850.159	0.0158694
850.237	0.0158932
850.315	0.0158974
850.393	0.0158553
850.471	0.0157829
850.549	0.0158757
850.628	0.0158381
850.706	0.0157540
850.784	0.0159708
850.862	0.0158240
850.940	0.0158284
851.018	0.0157510
851.096	0.0158244
851.174	0.0157541
851.253	0.0157966
851.331	0.0159281
851.409	0.0158252
851.487	0.0157839
851.565	0.0158060
851.643	0.0158821
851.721	0.0158183
851.799	0.0156822
851.878	0.0157738
851.956	0.0159859
852.034	0.0157935
852.112	0.0159498
852.190	0.0159081
852.268	0.0159359
852.346	0.0158659
852.424	0.0157070
852.503	0.0158788
852.581	0.0158971
852.659	0.0156652
852.737	0.0156929
852.815	0.0157993
852.893	0.0157849
852.971	0.0159510
853.049	0.0157671
853.128	0.0157652
853.206	0.0159195
853.284	0.0158543
853.362	0.0157419
853.440	0.0157304
853.518	0.0157724
853.596	0.0158689
853.674	0.0158639
853.753	0.0158305
853.831	0.0158517
853.909	0.0158221
853.987	0.0159801
854.065	0.0158438
854.143	0.0158315
854.221	0.0159029
854.299	0.0160104
854.378	0.0158620
854.456	0.0159091
854.534	0.0159790
854.612	0.0159760
854.690	0.0160196
854.768	0.0159651
854.846	0.0158972
854.924	0.0159303
855.003	0.0159170
855.081	0.0160509
855.159	0.0159906
855.237	0.0160664
855.315	0.0159025
855.393	0.0160326
855.471	0.0159578
855.549	0.0160016
855.628	0.0158379
855.706	0.0160094
855.784	0.0159296
855.862	0.0159766
855.940	0.0157953
856.018	0.0160552
856.096	0.0161356
856.174	0.0159084
856.253	0.0159806
856.331	0.0159370
856.409	0.0159122
856.487	0.0160067
856.565	0.0159766
856.643	0.0160775
856.721	0.0159602
856.799	0.0160064
856.878	0.0158751
856.956	0.0158691
857.034	0.0160405
857.112	0.0159544
857.190	0.0160653
857.268	0.0160571
857.346	0.0159039
857.424	0.0159075
857.503	0.0159653
857.581	0.0159404
857.659	0.0159690
857.737	0.0160546
857.815	0.0160659
857.893	0.0160396
857.971	0.0159670
858.049	0.0159326
858.128	0.0159736
858.206	0.0159764
858.284	0.0160299
858.362	0.0160184
858.440	0.0159522
858.518	0.0159478
858.596	0.0159689
858.674	0.0159535
858.753	0.0161006
858.831	0.0159824
858.909	0.0159636
858.987	0.0159953
859.065	0.0160442
859.143	0.0159512
859.221	0.0159824
859.299	0.0159486
859.378	0.0159501
859.456	0.0158910
859.534	0.0159195
859.612	0.0159168
859.690	0.0159249
859.768	0.0157939
859.846	0.0159290
859.924	0.0157605
860.003	0.0157529
860.081	0.0157994
860.159	0.0157796
860.237	0.0159342
860.315	0.0157646
860.393	0.0157493
860.471	0.0157245
860.549	0.0158008
860.628	0.0159566
860.706	0.0157632
860.784	0.0158376
860.862	0.0159076
860.940	0.0160069
861.018	0.0159299
861.096	0.0158740
861.174	0.0159279
861.253	0.0158299
861.331	0.0158749
861.409	0.0159225
861.487	0.0158066
861.565	0.0159679
861.643	0.0159186
861.721	0.0158867
861.799	0.0159043
861.878	0.0158875
861.956	0.0159617
862.034	0.0157650
862.112	0.0157752
862.190	0.0158313
862.268	0.0159045
862.346	0.0158687
862.424	0.0158319
862.503	0.0158809
862.581	0.0159814
862.659	0.0161021
862.737	0.0159559
862.815	0.0158955
862.893	0.0159021
862.971	0.0159047
863.049	0.0159435
863.128	0.0158285
863.206	0.0160097
863.284	0.0160107
863.362	0.0159848
863.440	0.0161242
863.518	0.0160278
863.596	0.0160361
863.674	0.0160284
863.753	0.0160216
863.831	0.0159319
863.909	0.0159566
863.987	0.0160258
864.065	0.0159056
864.143	0.0160538
864.221	0.0160595
864.299	0.0159647
864.378	0.0159109
864.456	0.0161430
864.534	0.0159232
864.612	0.0158695
864.690	0.0157754
864.768	0.0159292
864.846	0.0159198
864.924	0.0160015
865.003	0.0159229
865.081	0.0158489
865.159	0.0159032
865.237	0.0160223
865.315	0.0159491
865.393	0.0159245
865.471	0.0159468
865.549	0.0159039
865.628	0.0158253
865.706	0.0159489
865.784	0.0159097
865.862	0.0159576
865.940	0.0159538
866.018	0.0158330
866.096	0.0158900
866.174	0.0159361
866.253	0.0158682
866.331	0.0158840
866.409	0.0161179
866.487	0.0159409
866.565	0.0159669
866.643	0.0158353
866.721	0.0159097
866.799	0.0159779
866.878	0.0158855
866.956	0.0159974
867.034	0.0158691
867.112	0.0159098
867.190	0.0159798
867.268	0.0158760
867.346	0.0158688
867.424	0.0157536
867.503	0.0157777
867.581	0.0158699
867.659	0.0159789
867.737	0.0158700
867.815	0.0158351
867.893	0.0158521
867.971	0.0160270
868.049	0.0159097
868.128	0.0158659
868.206	0.0158518
868.284	0.0158114
868.362	0.0158040
868.440	0.0158008
868.518	0.0158456
868.596	0.0157928
868.674	0.0157420
868.753	0.0159475
868.831	0.0157021
868.909	0.0159272
868.987	0.0159757
869.065	0.0158047
869.143	0.0157394
869.221	0.0159047
869.299	0.0158572
869.378	0.0157960
869.456	0.0158577
869.534	0.0159171
869.612	0.0158610
869.690	0.0159056
869.768	0.0159765
869.846	0.0159367
869.924	0.0158067
870.003	0.0158456
870.081	0.0159699
870.159	0.0159157
870.237	0.0157783
870.315	0.0158618
870.393	0.0160142
870.471	0.0159106
870.549	0.0158316
870.628	0.0160220
870.706	0.0158617
870.784	0.0159016
870.862	0.0159759
870.940	0.0160367
871.018	0.0159249
871.096	0.0158633
871.174	0.0160170
871.253	0.0159866
871.331	0.0160059
871.409	0.0158374
871.487	0.0158538
871.565	0.0158667
871.643	0.0158972
871.721	0.0159696
871.799	0.0159351
871.878	0.0159479
871.956	0.0157904
872.034	0.0158602
872.112	0.0159882
872.190	0.0159151
872.268	0.0158940
872.346	0.0159178
872.424	0.0159458
872.503	0.0158589
872.581	0.0158410
872.659	0.0158546
872.737	0.0157430
872.815	0.0158880
872.893	0.0158981
872.971	0.0157912
873.049	0.0158634
873.128	0.0157847
873.206	0.0158572
873.284	0.0158488
873.362	0.0158654
873.440	0.0157923
873.518	0.0157224
873.596	0.0157874
873.674	0.0156644
873.753	0.0155562
873.831	0.0156727
873.909	0.0158723
873.987	0.0158167
874.065	0.0156422
874.143	0.0157466
874.221	0.0156676
874.299	0.0156813
874.378	0.0156947
874.456	0.0157156
874.534	0.0157231
874.612	0.0157722
874.690	0.0157395
874.768	0.0156202
874.846	0.0157345
874.924	0.0156803
875.003	0.0157224
875.081	0.0157110
875.159	0.0157751
875.237	0.0157219
875.315	0.0157083
875.393	0.0157324
875.471	0.0158049
875.549	0.0158540
875.628	0.0158069
875.706	0.0158099
875.784	0.0157860
875.862	0.0158505
875.940	0.0157996
876.018	0.0156973
876.096	0.0158099
876.174	0.0157085
876.253	0.0156671
876.331	0.0157395
876.409	0.0157025
876.487	0.0158414
876.565	0.0156300
876.643	0.0156205
876.721	0.0156392
876.799	0.0158710
876.878	0.0156258
876.956	0.0156840
877.034	0.0156926
877.112	0.0157578
877.190	0.0157370
877.268	0.0157580
877.346	0.0157880
877.424	0.0157384
877.503	0.0157590
877.581	0.0156978
877.659	0.0157401
877.737	0.0157838
877.815	0.0158276
877.893	0.0157050
877.971	0.0157944
878.049	0.0159864
878.128	0.0158459
878.206	0.0157706
878.284	0.0158067
878.362	0.0159136
878.440	0.0157787
878.518	0.0156918
878.596	0.0157926
878.674	0.0158097
878.753	0.0158934
878.831	0.0159100
878.909	0.0157259
878.987	0.0156587
879.065	0.0158450
879.143	0.0156895
879.221	0.0158260
879.299	0.0158756
879.378	0.0157733
879.456	0.0158092
879.534	0.0160204
879.612	0.0158376
879.690	0.0158311
879.768	0.0158797
879.846	0.0158907
879.924	0.0159225
880.003	0.0158875
880.081	0.0158508
880.159	0.0157470
880.237	0.0158105
880.315	0.0158603
880.393	0.0159046
880.471	0.0161024
880.549	0.0158687
880.628	0.0159084
880.706	0.0158248
880.784	0.0156837
880.862	0.0159988
880.940	0.0160462
881.018	0.0159109
881.096	0.0159095
881.174	0.0159473
881.253	0.0159563
881.331	0.0159984
881.409	0.0159847
881.487	0.0159077
881.565	0.0158961
881.643	0.0159480
881.721	0.0159705
881.799	0.0158020
881.878	0.0157430
881.956	0.0158425
882.034	0.0157622
882.112	0.0158377
882.190	0.0157517
882.268	0.0160316
882.346	0.0158189
882.424	0.0156960
882.503	0.0158571
882.581	0.0158838
882.659	0.0159236
882.737	0.0157044
882.815	0.0159540
882.893	0.0157099
882.971	0.0158055
883.049	0.0159171
883.128	0.0159180
883.206	0.0158753
883.284	0.0157999
883.362	0.0159425
883.440	0.0159441
883.518	0.0159455
883.596	0.0158766
883.674	0.0158407
883.753	0.0158426
883.831	0.0158897
883.909	0.0159116
883.987	0.0157913
884.065	0.0158143
884.143	0.0158128
884.221	0.0157726
884.299	0.0156654
884.378	0.0157919
884.456	0.0157848
884.534	0.0158401
884.612	0.0158144
884.690	0.0158847
884.768	0.0159247
884.846	0.0158595
884.924	0.0159840
885.003	0.0159869
885.081	0.0159399
885.159	0.0159766
885.237	0.0159322
885.315	0.0159114
885.393	0.0160172
885.471	0.0160728
885.549	0.0159056
885.628	0.0160897
885.706	0.0159678
885.784	0.0160452
885.862	0.0159135
885.940	0.0160622
886.018	0.0159779
886.096	0.0160668
886.174	0.0160718
886.253	0.0158703
886.331	0.0160335
886.409	0.0160864
886.487	0.0159946
886.565	0.0160636
886.643	0.0160612
886.721	0.0160403
886.799	0.0159450
886.878	0.0159982
886.956	0.0159337
887.034	0.0159881
887.112	0.0159209
887.190	0.0160486
887.268	0.0160141
887.346	0.0159322
887.424	0.0159550
887.503	0.0159996
887.581	0.0161102
887.659	0.0159466
887.737	0.0160957
887.815	0.0160047
887.893	0.0161739
887.971	0.0160050
888.049	0.0157608
888.128	0.0158631
888.206	0.0159575
888.284	0.0157928
888.362	0.0158652
888.440	0.0158583
888.518	0.0158347
888.596	0.0158285
888.674	0.0157677
888.753	0.0158913
888.831	0.0159727
888.909	0.0158878
888.987	0.0158282
889.065	0.0157913
889.143	0.0158264
889.221	0.0159042
889.299	0.0159660
889.378	0.0159708
889.456	0.0158421
889.534	0.0158501
889.612	0.0159533
889.690	0.0158761
889.768	0.0158327
889.846	0.0158506
889.924	0.0158819
890.003	0.0156975
890.081	0.0159122
890.159	0.0159734
890.237	0.0158250
890.315	0.0157896
890.393	0.0157796
890.471	0.0158267
890.549	0.0158492
890.628	0.0157998
890.706	0.0157393
890.784	0.0157554
890.862	0.0156840
890.940	0.0156424
891.018	0.0156089
891.096	0.0158346
891.174	0.0156775
891.253	0.0156633
891.331	0.0156258
891.409	0.0157928
891.487	0.0156777
891.565	0.0157643
891.643	0.0157071
891.721	0.0156996
891.799	0.0157212
891.878	0.0156242
891.956	0.0158217
892.034	0.0158378
892.112	0.0157159
892.190	0.0156760
892.268	0.0157272
892.346	0.0157522
892.424	0.0157546
892.503	0.0157148
892.581	0.0158263
892.659	0.0157524
892.737	0.0157700
892.815	0.0157334
892.893	0.0158953
892.971	0.0157856
893.049	0.0158411
893.128	0.0159358
893.206	0.0158295
893.284	0.0156863
893.362	0.0157695
893.440	0.0159016
893.518	0.0159479
893.596	0.0158265
893.674	0.0157989
893.753	0.0157988
893.831	0.0159422
893.909	0.0159396
893.987	0.0160015
894.065	0.0158018
894.143	0.0158499
894.221	0.0158926
894.299	0.0159503
894.378	0.0159492
894.456	0.0157879
894.534	0.0157909
894.612	0.0158958
894.690	0.0157969
894.768	0.0157934
894.846	0.0158537
894.924	0.0159638
895.003	0.0159588
895.081	0.0157980
895.159	0.0158259
895.237	0.0158688
895.315	0.0158653
895.393	0.0157583
895.471	0.0157148
895.549	0.0157096
895.628	0.0158313
895.706	0.0157604
895.784	0.0158256
895.862	0.0157673
895.940	0.0157275
896.018	0.0156340
896.096	0.0157644
896.174	0.0158766
896.253	0.0158335
896.331	0.0157809
896.409	0.0157488
896.487	0.0155506
896.565	0.0158194
896.643	0.0158033
896.721	0.0157731
896.799	0.0157124
896.878	0.0158566
896.956	0.0158810
897.034	0.0158112
897.112	0.0157918
897.190	0.0157447
897.268	0.0157545
897.346	0.0158881
897.424	0.0158128
897.503	0.0159918
897.581	0.0158067
897.659	0.0158334
897.737	0.0157023
897.815	0.0158290
897.893	0.0158817
897.971	0.0158750
898.049	0.0157377
898.128	0.0157551
898.206	0.0156776
898.284	0.0159399
898.362	0.0158524
898.440	0.0157881
898.518	0.0158164
898.596	0.0157065
898.674	0.0157915
898.753	0.0157909
898.831	0.0157879
898.909	0.0157716
898.987	0.0159193
899.065	0.0157607
899.143	0.0157256
899.221	0.0157748
899.299	0.0157439
899.378	0.0159261
899.456	0.0159470
899.534	0.0158133
899.612	0.0157354
899.690	0.0157085
899.768	0.0159882
899.846	0.0158215
899.924	0.0156953
900.003	0.0157475
900.081	0.0157057
900.159	0.0158648
900.237	0.0158055
900.315	0.0157268
900.393	0.0157902
900.471	0.0157872
900.549	0.0157942
900.628	0.0158253
900.706	0.0158371
900.784	0.0159820
900.862	0.0159049
900.940	0.0158888
901.018	0.0158895
901.096	0.0159343
901.174	0.0159905
901.253	0.0159272
901.331	0.0160036
901.409	0.0159767
901.487	0.0159585
901.565	0.0158089
901.643	0.0160567
901.721	0.0159441
901.799	0.0159961
901.878	0.0158479
901.956	0.0158123
902.034	0.0159770
902.112	0.0160239
902.190	0.0159720
902.268	0.0159495
902.346	0.0158389
902.424	0.0158469
902.503	0.0159402
902.581	0.0159895
902.659	0.0158515
902.737	0.0158121
902.815	0.0158902
902.893	0.0159069
902.971	0.0157942
903.049	0.0159304
903.128	0.0159534
903.206	0.0158759
903.284	0.0158290
903.362	0.0157645
903.440	0.0158727
903.518	0.0158296
903.596	0.0158589
903.674	0.0158208
903.753	0.0159144
903.831	0.0159010
903.909	0.0159194
903.987	0.0157944
904.065	0.0158134
904.143	0.0157391
904.221	0.0156885
904.299	0.0158092
904.378	0.0158555
904.456	0.0158042
904.534	0.0158887
904.612	0.0157518
904.690	0.0159358
904.768	0.0160312
904.846	0.0158646
904.924	0.0158076
905.003	0.0158375
905.081	0.0159460
905.159	0.0158575
905.237	0.0158985
905.315	0.0158373
905.393	0.0159419
905.471	0.0158485
905.549	0.0158067
905.628	0.0159057
905.706	0.0158730
905.784	0.0159051
905.862	0.0158473
905.940	0.0159651
906.018	0.0158720
906.096	0.0159251
906.174	0.0158784
906.253	0.0158217
906.331	0.0158908
906.409	0.0158073
906.487	0.0158854
906.565	0.0158777
906.643	0.0159006
906.721	0.0159335
906.799	0.0158876
906.878	0.0159177
906.956	0.0158609
907.034	0.0159364
907.112	0.0158044
907.190	0.0159726
907.268	0.0160255
907.346	0.0158833
907.424	0.0158925
907.503	0.0158988
907.581	0.0159914
907.659	0.0159212
907.737	0.0160343
907.815	0.0158990
907.893	0.0159792
907.971	0.0159051
908.049	0.0159885
908.128	0.0159293
908.206	0.0158604
908.284	0.0158160
908.362	0.0158512
908.440	0.0159764
908.518	0.0158813
908.596	0.0158546
908.674	0.0158507
908.753	0.0157689
908.831	0.0157910
908.909	0.0158599
908.987	0.0157619
909.065	0.0158774
909.143	0.0158398
909.221	0.0158125
909.299	0.0159023
909.378	0.0160030
909.456	0.0157821
909.534	0.0158270
909.612	0.0159007
909.690	0.0160210
909.768	0.0158721
909.846	0.0158814
909.924	0.0158034
910.003	0.0157890
910.081	0.0158376
910.159	0.0158466
910.237	0.0158845
910.315	0.0158598
910.393	0.0158914
910.471	0.0157552
910.549	0.0159329
910.628	0.0158723
910.706	0.0157826
910.784	0.0158780
910.862	0.0159006
910.940	0.0159597
911.018	0.0159234
911.096	0.0158971
911.174	0.0159078
911.253	0.0160053
911.331	0.0159583
911.409	0.0158480
911.487	0.0158620
911.565	0.0157893
911.643	0.0159956
911.721	0.0159467
911.799	0.0158588
911.878	0.0159323
911.956	0.0157945
912.034	0.0158659
912.112	0.0158028
912.190	0.0159393
912.268	0.0158620
912.346	0.0158942
912.424	0.0157023
912.503	0.0158493
912.581	0.0157991
912.659	0.0158333
912.737	0.0157920
912.815	0.0158263
912.893	0.0159472
912.971	0.0158063
913.049	0.0158476
913.128	0.0158788
913.206	0.0159315
913.284	0.0158649
913.362	0.0159487
913.440	0.0158452
913.518	0.0159165
913.596	0.0158675
913.674	0.0159275
913.753	0.0159739
913.831	0.0159298
913.909	0.0159077
913.987	0.0159670
914.065	0.0158340
914.143	0.0158376
914.221	0.0158458
914.299	0.0158920
914.378	0.0158905
914.456	0.0158799
914.534	0.0158394
914.612	0.0156406
914.690	0.0158099
914.768	0.0158308
914.846	0.0158733
914.924	0.0158229
915.003	0.0159148
915.081	0.0158114
915.159	0.0157717
915.237	0.0158009
915.315	0.0157445
915.393	0.0158688
915.471	0.0157879
915.549	0.0157613
915.628	0.0158877
915.706	0.0158679
915.784	0.0157816
915.862	0.0157989
915.940	0.0158959
916.018	0.0157246
916.096	0.0157595
916.174	0.0158463
916.253	0.0157987
916.331	0.0157307
916.409	0.0157742
916.487	0.0157104
916.565	0.0157405
916.643	0.0156370
916.721	0.0157336
916.799	0.0157631
916.878	0.0157512
916.956	0.0156853
917.034	0.0155907
917.112	0.0156767
917.190	0.0158093
917.268	0.0156132
917.346	0.0157030
917.424	0.0158543
917.503	0.0157841
917.581	0.0157866
917.659	0.0156656
917.737	0.0157822
917.815	0.0158511
917.893	0.0158969
917.971	0.0157593
918.049	0.0156969
918.128	0.0157180
918.206	0.0159272
918.284	0.0159384
918.362	0.0158992
918.440	0.0158819
918.518	0.0157579
918.596	0.0157536
918.674	0.0158707
918.753	0.0159089
918.831	0.0158839
918.909	0.0158989
918.987	0.0159278
919.065	0.0158513
919.143	0.0159149
919.221	0.0160110
919.299	0.0158744
919.378	0.0158408
919.456	0.0158981
919.534	0.0157500
919.612	0.0159201
919.690	0.0158607
919.768	0.0158941
919.846	0.0158978
919.924	0.0159178
920.003	0.0158659
920.081	0.0158005
920.159	0.0158665
920.237	0.0159431
920.315	0.0158960
920.393	0.0158374
920.471	0.0158516
920.549	0.0159275
920.628	0.0158677
920.706	0.0157302
920.784	0.0158259
920.862	0.0159222
920.940	0.0158809
921.018	0.0158517
921.096	0.0159482
921.174	0.0159836
921.253	0.0159444
921.331	0.0159026
921.409	0.0159039
921.487	0.0157987
921.565	0.0158092
921.643	0.0158142
921.721	0.0158942
921.799	0.0157640
921.878	0.0159406
921.956	0.0157990
922.034	0.0159047
922.112	0.0158024
922.190	0.0158479
922.268	0.0159882
922.346	0.0159097
922.424	0.0158106
922.503	0.0158514
922.581	0.0159875
922.659	0.0159344
922.737	0.0159529
922.815	0.0159077
922.893	0.0159664
922.971	0.0159671
923.049	0.0158598
923.128	0.0158633
923.206	0.0158005
923.284	0.0159079
923.362	0.0159712
923.440	0.0158945
923.518	0.0159335
923.596	0.0157806
923.674	0.0158455
923.753	0.0160411
923.831	0.0159435
923.909	0.0158991
923.987	0.0158659
924.065	0.0158356
924.143	0.0160464
924.221	0.0159250
924.299	0.0158089
924.378	0.0158897
924.456	0.0158331
924.534	0.0160098
924.612	0.0158884
924.690	0.0159244
924.768	0.0158855
924.846	0.0159452
924.924	0.0158494
925.003	0.0158649
925.081	0.0157732
925.159	0.0159073
925.237	0.0158493
925.315	0.0158831
925.393	0.0159479
925.471	0.0159119
925.549	0.0158969
925.628	0.0158923
925.706	0.0159541
925.784	0.0158212
925.862	0.0157164
925.940	0.0160371
926.018	0.0160191
926.096	0.0158686
926.174	0.0158530
926.253	0.0158266
926.331	0.0158132
926.409	0.0158518
926.487	0.0158272
926.565	0.0159421
926.643	0.0158441
926.721	0.0157849
926.799	0.0159090
926.878	0.0158129
926.956	0.0159166
927.034	0.0159657
927.112	0.0159206
927.190	0.0158324
927.268	0.0158608
927.346	0.0159395
927.424	0.0157676
927.503	0.0159145
927.581	0.0159198
927.659	0.0158784
927.737	0.0159039
927.815	0.0159908
927.893	0.0159431
927.971	0.0160258
928.049	0.0159338
928.128	0.0159515
928.206	0.0159214
928.284	0.0158307
928.362	0.0159812
928.440	0.0158495
928.518	0.0158549
928.596	0.0159134
928.674	0.0158285
928.753	0.0158897
928.831	0.0158295
928.909	0.0158997
928.987	0.0158779
929.065	0.0157033
929.143	0.0158088
929.221	0.0157027
929.299	0.0158877
929.378	0.0159162
929.456	0.0157447
929.534	0.0158076
929.612	0.0157635
929.690	0.0156388
929.768	0.0158881
929.846	0.0157527
929.924	0.0156866
930.003	0.0157275
930.081	0.0158647
930.159	0.0159734
930.237	0.0158985
930.315	0.0158923
930.393	0.0158035
930.471	0.0157916
930.549	0.0159130
930.628	0.0158785
930.706	0.0158401
930.784	0.0158290
930.862	0.0157235
930.940	0.0158266
931.018	0.0158968
931.096	0.0158987
931.174	0.0157493
931.253	0.0157799
931.331	0.0157774
931.409	0.0158347
931.487	0.0159260
931.565	0.0158174
931.643	0.0157341
931.721	0.0157636
931.799	0.0157396
931.878	0.0158141
931.956	0.0158912
932.034	0.0158949
932.112	0.0159790
932.190	0.0158223
932.268	0.0158073
932.346	0.0158643
932.424	0.0158241
932.503	0.0159394
932.581	0.0159515
932.659	0.0158405
932.737	0.0158688
932.815	0.0159708
932.893	0.0158341
932.971	0.0159625
933.049	0.0159846
933.128	0.0158665
933.206	0.0159624
933.284	0.0158268
933.362	0.0157863
933.440	0.0157757
933.518	0.0160209
933.596	0.0158955
933.674	0.0158500
933.753	0.0157737
933.831	0.0157667
933.909	0.0158829
933.987	0.0159569
934.065	0.0159628
934.143	0.0158972
934.221	0.0159549
934.299	0.0159560
934.378	0.0158124
934.456	0.0158800
934.534	0.0159892
934.612	0.0159747
934.690	0.0157906
934.768	0.0158964
934.846	0.0157858
934.924	0.0157001
935.003	0.0157257
935.081	0.0157864
935.159	0.0158238
935.237	0.0157755
935.315	0.0157120
935.393	0.0157728
935.471	0.0157369
935.549	0.0157093
935.628	0.0157138
935.706	0.0157208
935.784	0.0159061
935.862	0.0159213
935.940	0.0158808
936.018	0.0158723
936.096	0.0157629
936.174	0.0158447
936.253	0.0157494
936.331	0.0159097
936.409	0.0159704
936.487	0.0159207
936.565	0.0160699
936.643	0.0158617
936.721	0.0158875
936.799	0.0158849
936.878	0.0158559
936.956	0.0159271
937.034	0.0159021
937.112	0.0158503
937.190	0.0159443
937.268	0.0159460
937.346	0.0159460
937.424	0.0159059
937.503	0.0159312
937.581	0.0160337
937.659	0.0158630
937.737	0.0158063
937.815	0.0160022
937.893	0.0159651
937.971	0.0159110
938.049	0.0159441
938.128	0.0159119
938.206	0.0159125
938.284	0.0159390
938.362	0.0159063
938.440	0.0159086
938.518	0.0161334
938.596	0.0160299
938.674	0.0160098
938.753	0.0158071
938.831	0.0160405
938.909	0.0161623
938.987	0.0160763
939.065	0.0161388
939.143	0.0160654
939.221	0.0159528
939.299	0.0158993
939.378	0.0159233
939.456	0.0159308
939.534	0.0158794
939.612	0.0160213
939.690	0.0158979
939.768	0.0159700
939.846	0.0159590
939.924	0.0156892
940.003	0.0159143
940.081	0.0159370
940.159	0.0158972
940.237	0.0158357
940.315	0.0158461
940.393	0.0159795
940.471	0.0159225
940.549	0.0158250
940.628	0.0158498
940.706	0.0158690
940.784	0.0160432
940.862	0.0160110
940.940	0.0158824
941.018	0.0159616
941.096	0.0159154
941.174	0.0160274
941.253	0.0158958
941.331	0.0158743
941.409	0.0160157
941.487	0.0158641
941.565	0.0157838
941.643	0.0158153
941.721	0.0158875
941.799	0.0159267
941.878	0.0159306
941.956	0.0158469
942.034	0.0158600
942.112	0.0158920
942.190	0.0160117
942.268	0.0160575
942.346	0.0159074
942.424	0.0159348
942.503	0.0159575
942.581	0.0159959
942.659	0.0158356
942.737	0.0159701
942.815	0.0160013
942.893	0.0158929
942.971	0.0158335
943.049	0.0158793
943.128	0.0159293
943.206	0.0159516
943.284	0.0159129
943.362	0.0157685
943.440	0.0158426
943.518	0.0159409
943.596	0.0158600
943.674	0.0158613
943.753	0.0160025
943.831	0.0159703
943.909	0.0159462
943.987	0.0159347
944.065	0.0159942
944.143	0.0160694
944.221	0.0158465
944.299	0.0159022
944.378	0.0158331
944.456	0.0159115
944.534	0.0158532
944.612	0.0159276
944.690	0.0158593
944.768	0.0158363
944.846	0.0159512
944.924	0.0158573
945.003	0.0157607
945.081	0.0158952
945.159	0.0159629
945.237	0.0159727
945.315	0.0159929
945.393	0.0159164
945.471	0.0159533
945.549	0.0158170
945.628	0.0158146
945.706	0.0158485
945.784	0.0158961
945.862	0.0159944
945.940	0.0158894
946.018	0.0157777
946.096	0.0158738
946.174	0.0160120
946.253	0.0159596
946.331	0.0158714
946.409	0.0159806
946.487	0.0157957
946.565	0.0160074
946.643	0.0158722
946.721	0.0159084
946.799	0.0158360
946.878	0.0158402
946.956	0.0158757
947.034	0.0159204
947.112	0.0158529
947.190	0.0159783
947.268	0.0160755
947.346	0.0159525
947.424	0.0160565
947.503	0.0159361
947.581	0.0159347
947.659	0.0161045
947.737	0.0159229
947.815	0.0159543
947.893	0.0160378
947.971	0.0159403
948.049	0.0159051
948.128	0.0161053
948.206	0.0158779
948.284	0.0157751
948.362	0.0158466
948.440	0.0159046
948.518	0.0160159
948.596	0.0159911
948.674	0.0159230
948.753	0.0159971
948.831	0.0160471
948.909	0.0160100
948.987	0.0159770
949.065	0.0159668
949.143	0.0159173
949.221	0.0159867
949.299	0.0159660
949.378	0.0159164
949.456	0.0160282
949.534	0.0159113
949.612	0.0159521
949.690	0.0158952
949.768	0.0158663
949.846	0.0159449
949.924	0.0158612
