05/17/2022	16:31:32	Ver.	4.1	UNKNOWN
Optical Delay	639.989416	Delta X		0.078125	Sweeps	1	Scan Rate	0/0
Coordinates	Axis 1	NaN	Axis 2	NaN	Axis 3	NaN	Axis 4	NaN	Axis 5	NaN	Axis 6	0.000000
TX Power	0.000000	RX Power	0.000000

639.989	0.0150468
640.068	0.0150044
640.146	0.0150375
640.224	0.0149093
640.302	0.0149443
640.380	0.0150762
640.458	0.0151395
640.536	0.0150723
640.614	0.0150655
640.693	0.0150520
640.771	0.0150413
640.849	0.0149783
640.927	0.0150682
641.005	0.0150427
641.083	0.0149040
641.161	0.0150423
641.239	0.0151003
641.318	0.0149833
641.396	0.0150130
641.474	0.0151527
641.552	0.0151284
641.630	0.0150766
641.708	0.0151112
641.786	0.0150263
641.864	0.0149429
641.943	0.0151330
642.021	0.0150823
642.099	0.0150596
642.177	0.0150879
642.255	0.0150827
642.333	0.0150970
642.411	0.0150732
642.489	0.0150922
642.568	0.0151824
642.646	0.0150666
642.724	0.0150520
642.802	0.0150952
642.880	0.0150766
642.958	0.0149573
643.036	0.0151221
643.114	0.0150660
643.193	0.0150642
643.271	0.0151266
643.349	0.0150233
643.427	0.0150574
643.505	0.0149988
643.583	0.0151694
643.661	0.0151088
643.739	0.0151402
643.818	0.0150080
643.896	0.0151237
643.974	0.0150774
644.052	0.0151144
644.130	0.0149802
644.208	0.0150140
644.286	0.0149629
644.364	0.0151488
644.443	0.0150401
644.521	0.0150762
644.599	0.0151191
644.677	0.0150932
644.755	0.0150623
644.833	0.0150891
644.911	0.0150961
644.989	0.0151176
645.068	0.0151278
645.146	0.0151570
645.224	0.0151601
645.302	0.0151097
645.380	0.0149242
645.458	0.0150566
645.536	0.0151683
645.614	0.0151511
645.693	0.0150373
645.771	0.0151006
645.849	0.0150623
645.927	0.0150805
646.005	0.0149332
646.083	0.0149898
646.161	0.0150301
646.239	0.0150598
646.318	0.0151000
646.396	0.0151672
646.474	0.0151012
646.552	0.0150002
646.630	0.0150144
646.708	0.0151132
646.786	0.0150026
646.864	0.0151106
646.943	0.0150802
647.021	0.0150613
647.099	0.0149174
647.177	0.0149914
647.255	0.0151358
647.333	0.0149928
647.411	0.0150356
647.489	0.0150792
647.568	0.0150352
647.646	0.0150518
647.724	0.0151398
647.802	0.0150033
647.880	0.0150430
647.958	0.0149834
648.036	0.0150661
648.114	0.0150958
648.193	0.0150173
648.271	0.0151252
648.349	0.0151381
648.427	0.0150506
648.505	0.0149832
648.583	0.0150768
648.661	0.0151737
648.739	0.0151798
648.818	0.0151996
648.896	0.0151215
648.974	0.0150811
649.052	0.0150693
649.130	0.0150250
649.208	0.0149519
649.286	0.0149911
649.364	0.0151292
649.443	0.0150593
649.521	0.0150444
649.599	0.0150194
649.677	0.0149894
649.755	0.0150803
649.833	0.0149785
649.911	0.0151302
649.989	0.0150493
650.068	0.0149809
650.146	0.0150462
650.224	0.0150716
650.302	0.0150848
650.380	0.0150026
650.458	0.0150586
650.536	0.0150035
650.614	0.0150962
650.693	0.0148906
650.771	0.0151328
650.849	0.0151996
650.927	0.0150491
651.005	0.0149607
651.083	0.0150941
651.161	0.0151360
651.239	0.0151050
651.318	0.0150847
651.396	0.0151060
651.474	0.0149232
651.552	0.0150259
651.630	0.0151176
651.708	0.0150706
651.786	0.0151482
651.864	0.0150508
651.943	0.0151423
652.021	0.0151775
652.099	0.0150233
652.177	0.0151199
652.255	0.0150040
652.333	0.0149332
652.411	0.0151377
652.489	0.0149927
652.568	0.0150663
652.646	0.0149504
652.724	0.0149286
652.802	0.0151212
652.880	0.0150968
652.958	0.0151233
653.036	0.0151598
653.114	0.0150714
653.193	0.0151353
653.271	0.0149626
653.349	0.0151380
653.427	0.0150208
653.505	0.0149863
653.583	0.0150861
653.661	0.0150359
653.739	0.0150459
653.818	0.0149846
653.896	0.0150304
653.974	0.0150766
654.052	0.0149596
654.130	0.0151115
654.208	0.0148992
654.286	0.0149195
654.364	0.0150672
654.443	0.0150619
654.521	0.0150212
654.599	0.0149175
654.677	0.0152512
654.755	0.0151167
654.833	0.0150958
654.911	0.0150674
654.989	0.0150501
655.068	0.0150098
655.146	0.0149566
655.224	0.0151496
655.302	0.0150977
655.380	0.0149762
655.458	0.0150374
655.536	0.0150497
655.614	0.0150687
655.693	0.0150894
655.771	0.0149408
655.849	0.0149225
655.927	0.0150718
656.005	0.0150150
656.083	0.0151364
656.161	0.0151078
656.239	0.0150980
656.318	0.0150429
656.396	0.0149532
656.474	0.0150359
656.552	0.0151218
656.630	0.0150677
656.708	0.0150266
656.786	0.0149635
656.864	0.0150704
656.943	0.0151300
657.021	0.0150173
657.099	0.0149499
657.177	0.0150374
657.255	0.0150485
657.333	0.0149745
657.411	0.0150047
657.489	0.0151358
657.568	0.0151021
657.646	0.0151083
657.724	0.0150774
657.802	0.0151216
657.880	0.0150539
657.958	0.0150913
658.036	0.0151781
658.114	0.0151256
658.193	0.0150559
658.271	0.0151456
658.349	0.0150311
658.427	0.0150256
658.505	0.0152135
658.583	0.0151391
658.661	0.0149372
658.739	0.0150793
658.818	0.0150276
658.896	0.0150207
658.974	0.0152735
659.052	0.0150783
659.130	0.0149712
659.208	0.0151032
659.286	0.0150354
659.364	0.0152823
659.443	0.0151250
659.521	0.0150245
659.599	0.0150729
659.677	0.0150945
659.755	0.0152555
659.833	0.0150278
659.911	0.0150778
659.989	0.0151207
660.068	0.0152030
660.146	0.0151115
660.224	0.0150656
660.302	0.0151945
660.380	0.0150864
660.458	0.0149192
660.536	0.0151445
660.614	0.0149893
660.693	0.0150713
660.771	0.0150543
660.849	0.0150159
660.927	0.0152404
661.005	0.0152031
661.083	0.0149817
661.161	0.0150734
661.239	0.0151550
661.318	0.0149278
661.396	0.0150276
661.474	0.0151618
661.552	0.0150602
661.630	0.0151613
661.708	0.0150546
661.786	0.0151593
661.864	0.0150725
661.943	0.0149656
662.021	0.0149778
662.099	0.0150304
662.177	0.0149164
662.255	0.0151427
662.333	0.0151736
662.411	0.0149818
662.489	0.0148968
662.568	0.0151132
662.646	0.0150697
662.724	0.0150282
662.802	0.0149960
662.880	0.0151430
662.958	0.0150102
663.036	0.0149903
663.114	0.0150484
663.193	0.0150587
663.271	0.0149979
663.349	0.0150922
663.427	0.0151712
663.505	0.0150173
663.583	0.0151167
663.661	0.0152094
663.739	0.0150188
663.818	0.0150023
663.896	0.0149808
663.974	0.0150171
664.052	0.0151254
664.130	0.0150918
664.208	0.0150033
664.286	0.0150200
664.364	0.0150196
664.443	0.0151502
664.521	0.0149733
664.599	0.0150512
664.677	0.0151437
664.755	0.0149290
664.833	0.0151456
664.911	0.0150978
664.989	0.0151689
665.068	0.0150812
665.146	0.0149105
665.224	0.0150695
665.302	0.0152083
665.380	0.0151049
665.458	0.0150887
665.536	0.0150419
665.614	0.0149022
665.693	0.0150331
665.771	0.0150761
665.849	0.0151230
665.927	0.0150361
666.005	0.0151783
666.083	0.0149598
666.161	0.0149908
666.239	0.0150308
666.318	0.0151236
666.396	0.0150590
666.474	0.0151656
666.552	0.0150741
666.630	0.0150795
666.708	0.0149784
666.786	0.0150108
666.864	0.0150654
666.943	0.0149862
667.021	0.0150877
667.099	0.0149554
667.177	0.0150078
667.255	0.0150123
667.333	0.0149595
667.411	0.0150755
667.489	0.0150940
667.568	0.0150533
667.646	0.0150737
667.724	0.0151323
667.802	0.0149033
667.880	0.0151163
667.958	0.0149791
668.036	0.0149898
668.114	0.0149232
668.193	0.0149213
668.271	0.0149063
668.349	0.0151573
668.427	0.0149776
668.505	0.0149696
668.583	0.0149847
668.661	0.0149989
668.739	0.0150306
668.818	0.0149105
668.896	0.0150746
668.974	0.0150426
669.052	0.0149107
669.130	0.0150574
669.208	0.0150281
669.286	0.0150294
669.364	0.0149952
669.443	0.0148384
669.521	0.0148982
669.599	0.0150597
669.677	0.0150603
669.755	0.0148685
669.833	0.0150780
669.911	0.0150147
669.989	0.0150064
670.068	0.0149421
670.146	0.0148820
670.224	0.0149326
670.302	0.0149314
670.380	0.0150418
670.458	0.0148997
670.536	0.0148794
670.614	0.0149129
670.693	0.0150926
670.771	0.0150388
670.849	0.0149841
670.927	0.0149821
671.005	0.0149921
671.083	0.0149574
671.161	0.0150448
671.239	0.0148380
671.318	0.0149495
671.396	0.0149321
671.474	0.0149472
671.552	0.0150794
671.630	0.0150735
671.708	0.0149693
671.786	0.0150317
671.864	0.0148293
671.943	0.0149474
672.021	0.0149435
672.099	0.0150468
672.177	0.0150536
672.255	0.0149073
672.333	0.0149048
672.411	0.0149938
672.489	0.0149466
672.568	0.0148379
672.646	0.0149761
672.724	0.0151082
672.802	0.0150655
672.880	0.0149227
672.958	0.0149387
673.036	0.0150489
673.114	0.0149972
673.193	0.0150198
673.271	0.0150884
673.349	0.0150948
673.427	0.0151077
673.505	0.0150816
673.583	0.0149142
673.661	0.0150688
673.739	0.0152017
673.818	0.0151064
673.896	0.0149763
673.974	0.0150430
674.052	0.0151163
674.130	0.0150214
674.208	0.0150482
674.286	0.0151463
674.364	0.0151904
674.443	0.0150476
674.521	0.0151746
674.599	0.0151275
674.677	0.0152303
674.755	0.0151386
674.833	0.0151745
674.911	0.0151266
674.989	0.0150895
675.068	0.0151089
675.146	0.0152090
675.224	0.0150901
675.302	0.0151968
675.380	0.0152359
675.458	0.0151594
675.536	0.0150964
675.614	0.0152245
675.693	0.0152607
675.771	0.0151537
675.849	0.0153065
675.927	0.0151287
676.005	0.0151210
676.083	0.0151811
676.161	0.0152971
676.239	0.0151094
676.318	0.0150629
676.396	0.0150629
676.474	0.0150753
676.552	0.0150807
676.630	0.0151588
676.708	0.0151839
676.786	0.0150842
676.864	0.0151077
676.943	0.0151957
677.021	0.0151015
677.099	0.0151117
677.177	0.0152325
677.255	0.0151963
677.333	0.0151918
677.411	0.0151829
677.489	0.0152454
677.568	0.0150688
677.646	0.0152006
677.724	0.0150636
677.802	0.0151867
677.880	0.0151806
677.958	0.0151264
678.036	0.0151688
678.114	0.0150827
678.193	0.0151187
678.271	0.0150919
678.349	0.0152396
678.427	0.0151448
678.505	0.0152122
678.583	0.0150323
678.661	0.0150358
678.739	0.0150834
678.818	0.0150655
678.896	0.0151111
678.974	0.0151120
679.052	0.0150121
679.130	0.0152579
679.208	0.0151457
679.286	0.0150200
679.364	0.0151032
679.443	0.0151269
679.521	0.0151219
679.599	0.0150214
679.677	0.0150765
679.755	0.0150955
679.833	0.0150878
679.911	0.0150888
679.989	0.0150101
680.068	0.0149464
680.146	0.0151042
680.224	0.0150144
680.302	0.0149519
680.380	0.0151405
680.458	0.0150642
680.536	0.0150393
680.614	0.0150214
680.693	0.0150180
680.771	0.0149398
680.849	0.0150240
680.927	0.0150728
681.005	0.0149815
681.083	0.0150833
681.161	0.0150450
681.239	0.0150596
681.318	0.0149782
681.396	0.0150248
681.474	0.0150204
681.552	0.0150712
681.630	0.0152160
681.708	0.0150719
681.786	0.0150536
681.864	0.0151019
681.943	0.0149719
682.021	0.0149617
682.099	0.0150951
682.177	0.0149139
682.255	0.0150745
682.333	0.0150763
682.411	0.0150067
682.489	0.0150740
682.568	0.0149256
682.646	0.0150886
682.724	0.0150024
682.802	0.0149751
682.880	0.0150444
682.958	0.0150702
683.036	0.0150021
683.114	0.0149886
683.193	0.0151184
683.271	0.0149484
683.349	0.0150005
683.427	0.0149136
683.505	0.0149870
683.583	0.0150881
683.661	0.0149042
683.739	0.0149324
683.818	0.0151524
683.896	0.0150352
683.974	0.0150880
684.052	0.0150832
684.130	0.0150673
684.208	0.0151179
684.286	0.0151000
684.364	0.0151406
684.443	0.0151125
684.521	0.0150619
684.599	0.0149947
684.677	0.0149899
684.755	0.0151173
684.833	0.0150871
684.911	0.0151443
684.989	0.0151093
685.068	0.0151958
685.146	0.0151414
685.224	0.0150152
685.302	0.0151675
685.380	0.0149383
685.458	0.0150514
685.536	0.0151760
685.614	0.0150076
685.693	0.0151900
685.771	0.0150058
685.849	0.0150813
685.927	0.0150789
686.005	0.0151522
686.083	0.0150792
686.161	0.0150343
686.239	0.0150296
686.318	0.0151430
686.396	0.0150775
686.474	0.0150369
686.552	0.0150982
686.630	0.0150251
686.708	0.0150534
686.786	0.0150962
686.864	0.0152552
686.943	0.0151288
687.021	0.0150260
687.099	0.0150516
687.177	0.0150676
687.255	0.0151470
687.333	0.0151157
687.411	0.0149489
687.489	0.0149629
687.568	0.0150947
687.646	0.0149703
687.724	0.0149603
687.802	0.0151054
687.880	0.0150117
687.958	0.0153046
688.036	0.0150900
688.114	0.0151257
688.193	0.0152073
688.271	0.0152382
688.349	0.0151635
688.427	0.0153026
688.505	0.0152670
688.583	0.0152235
688.661	0.0150711
688.739	0.0150132
688.818	0.0150436
688.896	0.0149792
688.974	0.0148431
689.052	0.0148522
689.130	0.0147543
689.208	0.0147867
689.286	0.0147008
689.364	0.0149174
689.443	0.0149147
689.521	0.0150241
689.599	0.0152598
689.677	0.0151414
689.755	0.0153461
689.833	0.0155892
689.911	0.0155286
689.989	0.0156676
690.068	0.0158458
690.146	0.0157737
690.224	0.0157319
690.302	0.0156265
690.380	0.0153440
690.458	0.0154147
690.536	0.0151124
690.614	0.0148549
690.693	0.0147752
690.771	0.0145653
690.849	0.0143483
690.927	0.0142007
691.005	0.0141647
691.083	0.0140987
691.161	0.0141032
691.239	0.0141939
691.318	0.0141517
691.396	0.0141970
691.474	0.0144279
691.552	0.0146035
691.630	0.0147751
691.708	0.0151086
691.786	0.0152917
691.864	0.0153377
691.943	0.0155606
692.021	0.0157420
692.099	0.0158096
692.177	0.0158818
692.255	0.0159290
692.333	0.0159913
692.411	0.0159175
692.489	0.0158764
692.568	0.0157343
692.646	0.0157340
692.724	0.0155808
692.802	0.0154195
692.880	0.0152221
692.958	0.0150521
693.036	0.0149380
693.114	0.0148064
693.193	0.0145600
693.271	0.0145589
693.349	0.0143882
693.427	0.0142288
693.505	0.0141434
693.583	0.0141578
693.661	0.0142224
693.739	0.0143114
693.818	0.0143864
693.896	0.0144406
693.974	0.0145003
694.052	0.0147914
694.130	0.0146236
694.208	0.0147639
694.286	0.0149146
694.364	0.0150546
694.443	0.0151888
694.521	0.0153152
694.599	0.0154343
694.677	0.0154617
694.755	0.0156610
694.833	0.0156419
694.911	0.0154739
694.989	0.0155952
695.068	0.0155709
695.146	0.0155546
695.224	0.0154245
695.302	0.0152123
695.380	0.0151820
695.458	0.0151672
695.536	0.0150017
695.614	0.0151128
695.693	0.0151138
695.771	0.0150561
695.849	0.0149526
695.927	0.0149041
696.005	0.0150472
696.083	0.0148669
696.161	0.0149078
696.239	0.0148530
696.318	0.0148724
696.396	0.0150566
696.474	0.0149577
696.552	0.0150283
696.630	0.0149323
696.708	0.0150376
696.786	0.0150987
696.864	0.0151107
696.943	0.0151452
697.021	0.0151332
697.099	0.0150910
697.177	0.0150761
697.255	0.0150160
697.333	0.0148081
697.411	0.0147176
697.489	0.0146043
697.568	0.0147505
697.646	0.0146260
697.724	0.0144213
697.802	0.0142944
697.880	0.0143734
697.958	0.0144176
698.036	0.0144729
698.114	0.0144235
698.193	0.0146119
698.271	0.0148117
698.349	0.0149157
698.427	0.0150095
698.505	0.0150928
698.583	0.0152295
698.661	0.0153993
698.739	0.0154269
698.818	0.0156094
698.896	0.0155963
698.974	0.0156493
699.052	0.0156533
699.130	0.0156467
699.208	0.0157108
699.286	0.0157441
699.364	0.0155897
699.443	0.0155255
699.521	0.0153965
699.599	0.0153677
699.677	0.0152689
699.755	0.0152060
699.833	0.0150742
699.911	0.0150225
699.989	0.0148391
700.068	0.0147991
700.146	0.0147713
700.224	0.0147073
700.302	0.0146053
700.380	0.0145800
700.458	0.0147206
700.536	0.0147406
700.614	0.0147905
700.693	0.0146474
700.771	0.0148271
700.849	0.0149449
700.927	0.0150170
701.005	0.0151351
701.083	0.0152125
701.161	0.0151746
701.239	0.0152771
701.318	0.0154279
701.396	0.0152209
701.474	0.0153244
701.552	0.0151630
701.630	0.0151182
701.708	0.0151392
701.786	0.0149902
701.864	0.0149004
701.943	0.0149625
702.021	0.0148756
702.099	0.0147311
702.177	0.0148508
702.255	0.0146753
702.333	0.0147308
702.411	0.0147826
702.489	0.0148664
702.568	0.0150483
702.646	0.0152457
702.724	0.0151983
702.802	0.0154044
702.880	0.0154788
702.958	0.0155132
703.036	0.0156580
703.114	0.0155774
703.193	0.0156440
703.271	0.0156631
703.349	0.0157281
703.427	0.0156050
703.505	0.0155060
703.583	0.0152921
703.661	0.0153339
703.739	0.0151852
703.818	0.0150597
703.896	0.0148888
703.974	0.0148895
704.052	0.0147993
704.130	0.0146700
704.208	0.0147092
704.286	0.0147613
704.364	0.0146484
704.443	0.0145908
704.521	0.0146066
704.599	0.0146943
704.677	0.0147382
704.755	0.0148322
704.833	0.0149606
704.911	0.0151950
704.989	0.0151167
705.068	0.0154264
705.146	0.0155834
705.224	0.0155639
705.302	0.0156327
705.380	0.0157114
705.458	0.0156142
705.536	0.0155277
705.614	0.0155293
705.693	0.0154574
705.771	0.0153770
705.849	0.0151701
705.927	0.0152081
706.005	0.0150697
706.083	0.0149482
706.161	0.0149928
706.239	0.0149110
706.318	0.0149007
706.396	0.0149686
706.474	0.0149202
706.552	0.0150269
706.630	0.0149131
706.708	0.0148318
706.786	0.0148286
706.864	0.0148029
706.943	0.0147018
707.021	0.0146138
707.099	0.0144820
707.177	0.0144150
707.255	0.0145457
707.333	0.0144280
707.411	0.0142239
707.489	0.0144030
707.568	0.0144801
707.646	0.0146480
707.724	0.0146315
707.802	0.0147305
707.880	0.0148167
707.958	0.0150034
708.036	0.0148976
708.114	0.0149426
708.193	0.0152811
708.271	0.0151703
708.349	0.0153255
708.427	0.0153441
708.505	0.0155595
708.583	0.0157242
708.661	0.0156155
708.739	0.0158144
708.818	0.0158105
708.896	0.0157841
708.974	0.0157211
709.052	0.0157041
709.130	0.0153763
709.208	0.0151875
709.286	0.0152048
709.364	0.0151228
709.443	0.0148786
709.521	0.0147323
709.599	0.0146147
709.677	0.0145096
709.755	0.0143793
709.833	0.0144523
709.911	0.0143905
709.989	0.0141679
710.068	0.0143467
710.146	0.0143758
710.224	0.0145077
710.302	0.0147049
710.380	0.0149919
710.458	0.0150269
710.536	0.0154987
710.614	0.0156824
710.693	0.0158405
710.771	0.0158960
710.849	0.0160088
710.927	0.0160323
711.005	0.0161605
711.083	0.0161710
711.161	0.0158907
711.239	0.0158350
711.318	0.0159010
711.396	0.0155737
711.474	0.0152032
711.552	0.0150601
711.630	0.0149763
711.708	0.0148818
711.786	0.0147172
711.864	0.0145621
711.943	0.0147176
712.021	0.0147073
712.099	0.0146964
712.177	0.0148286
712.255	0.0149996
712.333	0.0148417
712.411	0.0150594
712.489	0.0152112
712.568	0.0151987
712.646	0.0151707
712.724	0.0151365
712.802	0.0151905
712.880	0.0150517
712.958	0.0150913
713.036	0.0151276
713.114	0.0149755
713.193	0.0149872
713.271	0.0150434
713.349	0.0150152
713.427	0.0150465
713.505	0.0150781
713.583	0.0149710
713.661	0.0150239
713.739	0.0151498
713.818	0.0148998
713.896	0.0150030
713.974	0.0150461
714.052	0.0149796
714.130	0.0150466
714.208	0.0149697
714.286	0.0148478
714.364	0.0149295
714.443	0.0149844
714.521	0.0151341
714.599	0.0150587
714.677	0.0149815
714.755	0.0150152
714.833	0.0148558
714.911	0.0149521
714.989	0.0149763
715.068	0.0148764
715.146	0.0147563
715.224	0.0148672
715.302	0.0148226
715.380	0.0148588
715.458	0.0148209
715.536	0.0149419
715.614	0.0150153
715.693	0.0147479
715.771	0.0149386
715.849	0.0149274
715.927	0.0149647
716.005	0.0151021
716.083	0.0150803
716.161	0.0150687
716.239	0.0152630
716.318	0.0152229
716.396	0.0153191
716.474	0.0153391
716.552	0.0155000
716.630	0.0155080
716.708	0.0156055
716.786	0.0153656
716.864	0.0153533
716.943	0.0150955
717.021	0.0151212
717.099	0.0147857
717.177	0.0147108
717.255	0.0146600
717.333	0.0144517
717.411	0.0144613
717.489	0.0144385
717.568	0.0144368
717.646	0.0144338
717.724	0.0144278
717.802	0.0147042
717.880	0.0148705
717.958	0.0149323
718.036	0.0151183
718.114	0.0153158
718.193	0.0156673
718.271	0.0156072
718.349	0.0155707
718.427	0.0154827
718.505	0.0154829
718.583	0.0155011
718.661	0.0154325
718.739	0.0153827
718.818	0.0153589
718.896	0.0152290
718.974	0.0150626
719.052	0.0149592
719.130	0.0151274
719.208	0.0150018
719.286	0.0149345
719.364	0.0150523
719.443	0.0150106
719.521	0.0152467
719.599	0.0151480
719.677	0.0152475
719.755	0.0152053
719.833	0.0151372
719.911	0.0153527
719.989	0.0154264
720.068	0.0154112
720.146	0.0152914
720.224	0.0154053
720.302	0.0155391
720.380	0.0152068
720.458	0.0152148
720.536	0.0152487
720.614	0.0150850
720.693	0.0149381
720.771	0.0150199
720.849	0.0150021
720.927	0.0148649
721.005	0.0148908
721.083	0.0148270
721.161	0.0147167
721.239	0.0149133
721.318	0.0148739
721.396	0.0146497
721.474	0.0147662
721.552	0.0148631
721.630	0.0148122
721.708	0.0147724
721.786	0.0148779
721.864	0.0148933
721.943	0.0149438
722.021	0.0150839
722.099	0.0149986
722.177	0.0149785
722.255	0.0150788
722.333	0.0150643
722.411	0.0150767
722.489	0.0149806
722.568	0.0150455
722.646	0.0149859
722.724	0.0149760
722.802	0.0149133
722.880	0.0148158
722.958	0.0148321
723.036	0.0148447
723.114	0.0146064
723.193	0.0146329
723.271	0.0146761
723.349	0.0145910
723.427	0.0146756
723.505	0.0147519
723.583	0.0147946
723.661	0.0148410
723.739	0.0149700
723.818	0.0150079
723.896	0.0150009
723.974	0.0151672
724.052	0.0152267
724.130	0.0153120
724.208	0.0151358
724.286	0.0152055
724.364	0.0154238
724.443	0.0153266
724.521	0.0153045
724.599	0.0152318
724.677	0.0152165
724.755	0.0152923
724.833	0.0151646
724.911	0.0151471
724.989	0.0152724
725.068	0.0151836
725.146	0.0152938
725.224	0.0151717
725.302	0.0152684
725.380	0.0153321
725.458	0.0152783
725.536	0.0151828
725.614	0.0154256
725.693	0.0153839
725.771	0.0153591
725.849	0.0153319
725.927	0.0151164
726.005	0.0151465
726.083	0.0149497
726.161	0.0150851
726.239	0.0150696
726.318	0.0150352
726.396	0.0149866
726.474	0.0149154
726.552	0.0150022
726.630	0.0149800
726.708	0.0149348
726.786	0.0148807
726.864	0.0149393
726.943	0.0148602
727.021	0.0149217
727.099	0.0148492
727.177	0.0149716
727.255	0.0150264
727.333	0.0152617
727.411	0.0151888
727.489	0.0151562
727.568	0.0150920
727.646	0.0152436
727.724	0.0151642
727.802	0.0152003
727.880	0.0152862
727.958	0.0150349
728.036	0.0150627
728.114	0.0151231
728.193	0.0149702
728.271	0.0150150
728.349	0.0149779
728.427	0.0149049
728.505	0.0148267
728.583	0.0148419
728.661	0.0146457
728.739	0.0148705
728.818	0.0148414
728.896	0.0148524
728.974	0.0147840
729.052	0.0149453
729.130	0.0151231
729.208	0.0150771
729.286	0.0152413
729.364	0.0150507
729.443	0.0151318
729.521	0.0150787
729.599	0.0151862
729.677	0.0152061
729.755	0.0151171
729.833	0.0152091
729.911	0.0152001
729.989	0.0152427
730.068	0.0150916
730.146	0.0152319
730.224	0.0150768
730.302	0.0149389
730.380	0.0149823
730.458	0.0150727
730.536	0.0151261
730.614	0.0151093
730.693	0.0151890
730.771	0.0151408
730.849	0.0152538
730.927	0.0151686
731.005	0.0151858
731.083	0.0152357
731.161	0.0152953
731.239	0.0151406
731.318	0.0152235
731.396	0.0153255
731.474	0.0152044
731.552	0.0150357
731.630	0.0150978
731.708	0.0150398
731.786	0.0150909
731.864	0.0150574
731.943	0.0150647
732.021	0.0150444
732.099	0.0151044
732.177	0.0149673
732.255	0.0150298
732.333	0.0150037
732.411	0.0149403
732.489	0.0149298
732.568	0.0149474
732.646	0.0151752
732.724	0.0151347
732.802	0.0150050
732.880	0.0151073
732.958	0.0152136
733.036	0.0151508
733.114	0.0152380
733.193	0.0152013
733.271	0.0151464
733.349	0.0152634
733.427	0.0152426
733.505	0.0150898
733.583	0.0151898
733.661	0.0150261
733.739	0.0150013
733.818	0.0149036
733.896	0.0149326
733.974	0.0148626
734.052	0.0148402
734.130	0.0148192
734.208	0.0148055
734.286	0.0147086
734.364	0.0146531
734.443	0.0148340
734.521	0.0148590
734.599	0.0148303
734.677	0.0147971
734.755	0.0148146
734.833	0.0148528
734.911	0.0151060
734.989	0.0150118
735.068	0.0150501
735.146	0.0151590
735.224	0.0153792
735.302	0.0153577
735.380	0.0153307
735.458	0.0153265
735.536	0.0153489
735.614	0.0153823
735.693	0.0152899
735.771	0.0153167
735.849	0.0152679
735.927	0.0152218
736.005	0.0151685
736.083	0.0152694
736.161	0.0152592
736.239	0.0152658
736.318	0.0151699
736.396	0.0149836
736.474	0.0151051
736.552	0.0151048
736.630	0.0151166
736.708	0.0150627
736.786	0.0150576
736.864	0.0150372
736.943	0.0152047
737.021	0.0150793
737.099	0.0151304
737.177	0.0149288
737.255	0.0150250
737.333	0.0148630
737.411	0.0150751
737.489	0.0151291
737.568	0.0150037
737.646	0.0150562
737.724	0.0149394
737.802	0.0149922
737.880	0.0149651
737.958	0.0149940
738.036	0.0149566
738.114	0.0150703
738.193	0.0150686
738.271	0.0150689
738.349	0.0150887
738.427	0.0151653
738.505	0.0152377
738.583	0.0152515
738.661	0.0153426
738.739	0.0152311
738.818	0.0152527
738.896	0.0152296
738.974	0.0153420
739.052	0.0151977
739.130	0.0151732
739.208	0.0151273
739.286	0.0149582
739.364	0.0148151
739.443	0.0147984
739.521	0.0147543
739.599	0.0147789
739.677	0.0147143
739.755	0.0146742
739.833	0.0147871
739.911	0.0147784
739.989	0.0148275
740.068	0.0148486
740.146	0.0149123
740.224	0.0149597
740.302	0.0150645
740.380	0.0151666
740.458	0.0152988
740.536	0.0153191
740.614	0.0153684
740.693	0.0154151
740.771	0.0152859
740.849	0.0155085
740.927	0.0155032
741.005	0.0155166
741.083	0.0154097
741.161	0.0153574
741.239	0.0153421
741.318	0.0153159
741.396	0.0152168
741.474	0.0151569
741.552	0.0150037
741.630	0.0148884
741.708	0.0149857
741.786	0.0147688
741.864	0.0147869
741.943	0.0146520
742.021	0.0149266
742.099	0.0149281
742.177	0.0148560
742.255	0.0147906
742.333	0.0147964
742.411	0.0149601
742.489	0.0151381
742.568	0.0151310
742.646	0.0151015
742.724	0.0151936
742.802	0.0151437
742.880	0.0152840
742.958	0.0152549
743.036	0.0153256
743.114	0.0152470
743.193	0.0153456
743.271	0.0153358
743.349	0.0151713
743.427	0.0152354
743.505	0.0150860
743.583	0.0151432
743.661	0.0150491
743.739	0.0150394
743.818	0.0150821
743.896	0.0149973
743.974	0.0148631
744.052	0.0148840
744.130	0.0149253
744.208	0.0149113
744.286	0.0149342
744.364	0.0148914
744.443	0.0149038
744.521	0.0148862
744.599	0.0149870
744.677	0.0149837
744.755	0.0150056
744.833	0.0150947
744.911	0.0151412
744.989	0.0149988
745.068	0.0149335
745.146	0.0150909
745.224	0.0151397
745.302	0.0150392
745.380	0.0150428
745.458	0.0150385
745.536	0.0150307
745.614	0.0151417
745.693	0.0150229
745.771	0.0150101
745.849	0.0151724
745.927	0.0149813
746.005	0.0150519
746.083	0.0151708
746.161	0.0151142
746.239	0.0152388
746.318	0.0150864
746.396	0.0152674
746.474	0.0152482
746.552	0.0152486
746.630	0.0151982
746.708	0.0151879
746.786	0.0152026
746.864	0.0151311
746.943	0.0149320
747.021	0.0150321
747.099	0.0149477
747.177	0.0148499
747.255	0.0147604
747.333	0.0147735
747.411	0.0148042
747.489	0.0146587
747.568	0.0146511
747.646	0.0147837
747.724	0.0147231
747.802	0.0147916
747.880	0.0148749
747.958	0.0147870
748.036	0.0149591
748.114	0.0149628
748.193	0.0152879
748.271	0.0153085
748.349	0.0153329
748.427	0.0153187
748.505	0.0153170
748.583	0.0153620
748.661	0.0154405
748.739	0.0153931
748.818	0.0152813
748.896	0.0153883
748.974	0.0152206
749.052	0.0153838
749.130	0.0150319
749.208	0.0149364
749.286	0.0149104
749.364	0.0149014
749.443	0.0148231
749.521	0.0148701
749.599	0.0147462
749.677	0.0147337
749.755	0.0148540
749.833	0.0148634
749.911	0.0148071
749.989	0.0148443
750.068	0.0149200
750.146	0.0150020
750.224	0.0150755
750.302	0.0152448
750.380	0.0153295
750.458	0.0152730
750.536	0.0152513
750.614	0.0153630
750.693	0.0152417
750.771	0.0152311
750.849	0.0152186
750.927	0.0153452
751.005	0.0152985
751.083	0.0152539
751.161	0.0152821
751.239	0.0152490
751.318	0.0152055
751.396	0.0152863
751.474	0.0152105
751.552	0.0151588
751.630	0.0153490
751.708	0.0152112
751.786	0.0152943
751.864	0.0151839
751.943	0.0149983
752.021	0.0148803
752.099	0.0149580
752.177	0.0151044
752.255	0.0150648
752.333	0.0149523
752.411	0.0150423
752.489	0.0148895
752.568	0.0149902
752.646	0.0149148
752.724	0.0148988
752.802	0.0150358
752.880	0.0149954
752.958	0.0149329
753.036	0.0149849
753.114	0.0150551
753.193	0.0148943
753.271	0.0149003
753.349	0.0150032
753.427	0.0150390
753.505	0.0149872
753.583	0.0148179
753.661	0.0151287
753.739	0.0149992
753.818	0.0150609
753.896	0.0150780
753.974	0.0152005
754.052	0.0151786
754.130	0.0152499
754.208	0.0152993
754.286	0.0152615
754.364	0.0152393
754.443	0.0151996
754.521	0.0151321
754.599	0.0152106
754.677	0.0151154
754.755	0.0149526
754.833	0.0149358
754.911	0.0149183
754.989	0.0149388
755.068	0.0146505
755.146	0.0147932
755.224	0.0148468
755.302	0.0148044
755.380	0.0145748
755.458	0.0147444
755.536	0.0148944
755.614	0.0147451
755.693	0.0148534
755.771	0.0149326
755.849	0.0149208
755.927	0.0149281
756.005	0.0151527
756.083	0.0150967
756.161	0.0151862
756.239	0.0152312
756.318	0.0151865
756.396	0.0152527
756.474	0.0153799
756.552	0.0152712
756.630	0.0152761
756.708	0.0152684
756.786	0.0152560
756.864	0.0151684
756.943	0.0149421
757.021	0.0149281
757.099	0.0151048
757.177	0.0150489
757.255	0.0149339
757.333	0.0147358
757.411	0.0146082
757.489	0.0148068
757.568	0.0147423
757.646	0.0148624
757.724	0.0148559
757.802	0.0148704
757.880	0.0149346
757.958	0.0148949
758.036	0.0150111
758.114	0.0150507
758.193	0.0151627
758.271	0.0150637
758.349	0.0149250
758.427	0.0151511
758.505	0.0151306
758.583	0.0152212
758.661	0.0152863
758.739	0.0150999
758.818	0.0153275
758.896	0.0153474
758.974	0.0150317
759.052	0.0149771
759.130	0.0150681
759.208	0.0151965
759.286	0.0150893
759.364	0.0150494
759.443	0.0150228
759.521	0.0148940
759.599	0.0151134
759.677	0.0149370
759.755	0.0150134
759.833	0.0150871
759.911	0.0150224
759.989	0.0149177
760.068	0.0150104
760.146	0.0150085
760.224	0.0150375
760.302	0.0151963
760.380	0.0150463
760.458	0.0151097
760.536	0.0151408
760.614	0.0151319
760.693	0.0152470
760.771	0.0151774
760.849	0.0151614
760.927	0.0152419
761.005	0.0154060
761.083	0.0152850
761.161	0.0152406
761.239	0.0151862
761.318	0.0152100
761.396	0.0153185
761.474	0.0152636
761.552	0.0151756
761.630	0.0152640
761.708	0.0152735
761.786	0.0152673
761.864	0.0152132
761.943	0.0153455
762.021	0.0151486
762.099	0.0151328
762.177	0.0151260
762.255	0.0150202
762.333	0.0149268
762.411	0.0149772
762.489	0.0150658
762.568	0.0149291
762.646	0.0149631
762.724	0.0149396
762.802	0.0147665
762.880	0.0148084
762.958	0.0148504
763.036	0.0148503
763.114	0.0148001
763.193	0.0147825
763.271	0.0147588
763.349	0.0149654
763.427	0.0149083
763.505	0.0148476
763.583	0.0148669
763.661	0.0149905
763.739	0.0149969
763.818	0.0150337
763.896	0.0148478
763.974	0.0149514
764.052	0.0149596
764.130	0.0151856
764.208	0.0150568
764.286	0.0150880
764.364	0.0152499
764.443	0.0151506
764.521	0.0151305
764.599	0.0150548
764.677	0.0152251
764.755	0.0152959
764.833	0.0151183
764.911	0.0151591
764.989	0.0151213
765.068	0.0150813
765.146	0.0152239
765.224	0.0150761
765.302	0.0151601
765.380	0.0149448
765.458	0.0150398
765.536	0.0149537
765.614	0.0149346
765.693	0.0150210
765.771	0.0150922
765.849	0.0151003
765.927	0.0150430
766.005	0.0151224
766.083	0.0151263
766.161	0.0151060
766.239	0.0152396
766.318	0.0151797
766.396	0.0152409
766.474	0.0153984
766.552	0.0152257
766.630	0.0152877
766.708	0.0152802
766.786	0.0152767
766.864	0.0154976
766.943	0.0152606
767.021	0.0151543
767.099	0.0152671
767.177	0.0150481
767.255	0.0150297
767.333	0.0151950
767.411	0.0151095
767.489	0.0149597
767.568	0.0150291
767.646	0.0149076
767.724	0.0148268
767.802	0.0147743
767.880	0.0148279
767.958	0.0148518
768.036	0.0147910
768.114	0.0147159
768.193	0.0149062
768.271	0.0148827
768.349	0.0149449
768.427	0.0149418
768.505	0.0150116
768.583	0.0149842
768.661	0.0149845
768.739	0.0150500
768.818	0.0150527
768.896	0.0150582
768.974	0.0150440
769.052	0.0150186
769.130	0.0151453
769.208	0.0151398
769.286	0.0150453
769.364	0.0151068
769.443	0.0151173
769.521	0.0151228
769.599	0.0150644
769.677	0.0149569
769.755	0.0149702
769.833	0.0151494
769.911	0.0152301
769.989	0.0152200
770.068	0.0151214
770.146	0.0150205
770.224	0.0151083
770.302	0.0150778
770.380	0.0150829
770.458	0.0150509
770.536	0.0151599
770.614	0.0150871
770.693	0.0151086
770.771	0.0149938
770.849	0.0150706
770.927	0.0151172
771.005	0.0150483
771.083	0.0150710
771.161	0.0150807
771.239	0.0151110
771.318	0.0150794
771.396	0.0150808
771.474	0.0151296
771.552	0.0151242
771.630	0.0152091
771.708	0.0151582
771.786	0.0152125
771.864	0.0152371
771.943	0.0151985
772.021	0.0152291
772.099	0.0152206
772.177	0.0152010
772.255	0.0152783
772.333	0.0152924
772.411	0.0153034
772.489	0.0152187
772.568	0.0152678
772.646	0.0151949
772.724	0.0151791
772.802	0.0151733
772.880	0.0151929
772.958	0.0150804
773.036	0.0150542
773.114	0.0150802
773.193	0.0150603
773.271	0.0148988
773.349	0.0148071
773.427	0.0148645
773.505	0.0149689
773.583	0.0149644
773.661	0.0150427
773.739	0.0149880
773.818	0.0149472
773.896	0.0149664
773.974	0.0151700
774.052	0.0150916
774.130	0.0150312
774.208	0.0150526
774.286	0.0150562
774.364	0.0151553
774.443	0.0151968
774.521	0.0150808
774.599	0.0150343
774.677	0.0151141
774.755	0.0152325
774.833	0.0152836
774.911	0.0151869
774.989	0.0149776
775.068	0.0151400
775.146	0.0151031
775.224	0.0150800
775.302	0.0150497
775.380	0.0150895
775.458	0.0149702
775.536	0.0148441
775.614	0.0149158
775.693	0.0149603
775.771	0.0148766
775.849	0.0148145
775.927	0.0149693
776.005	0.0149541
776.083	0.0149384
776.161	0.0148667
776.239	0.0150359
776.318	0.0150074
776.396	0.0151196
776.474	0.0151408
776.552	0.0151929
776.630	0.0151209
776.708	0.0151888
776.786	0.0151710
776.864	0.0150320
776.943	0.0151292
777.021	0.0151974
777.099	0.0152628
777.177	0.0152759
777.255	0.0150957
777.333	0.0151321
777.411	0.0152845
777.489	0.0151946
777.568	0.0151463
777.646	0.0152921
777.724	0.0152163
777.802	0.0151806
777.880	0.0153666
777.958	0.0151598
778.036	0.0152847
778.114	0.0152396
778.193	0.0151598
778.271	0.0149854
778.349	0.0152082
778.427	0.0151270
778.505	0.0149657
778.583	0.0149999
778.661	0.0150485
778.739	0.0148866
778.818	0.0149384
778.896	0.0150168
778.974	0.0149144
779.052	0.0149796
779.130	0.0149316
779.208	0.0148373
779.286	0.0149287
779.364	0.0148865
779.443	0.0149514
779.521	0.0149305
779.599	0.0149318
779.677	0.0149213
779.755	0.0149264
779.833	0.0151672
779.911	0.0149969
779.989	0.0150862
780.068	0.0151286
780.146	0.0151250
780.224	0.0151667
780.302	0.0153313
780.380	0.0152759
780.458	0.0152637
780.536	0.0151107
780.614	0.0151697
780.693	0.0151598
780.771	0.0150761
780.849	0.0151268
780.927	0.0150766
781.005	0.0150182
781.083	0.0150434
781.161	0.0149770
781.239	0.0149975
781.318	0.0148584
781.396	0.0150200
781.474	0.0150179
781.552	0.0149250
781.630	0.0148137
781.708	0.0150344
781.786	0.0149020
781.864	0.0150401
781.943	0.0151367
782.021	0.0150121
782.099	0.0150709
782.177	0.0151733
782.255	0.0152330
782.333	0.0150935
782.411	0.0152077
782.489	0.0153202
782.568	0.0152060
782.646	0.0151999
782.724	0.0150323
782.802	0.0150912
782.880	0.0151810
782.958	0.0150232
783.036	0.0151778
783.114	0.0149290
783.193	0.0150337
783.271	0.0149906
783.349	0.0151279
783.427	0.0149344
783.505	0.0149277
783.583	0.0149957
783.661	0.0149454
783.739	0.0150093
783.818	0.0149912
783.896	0.0150815
783.974	0.0149162
784.052	0.0149663
784.130	0.0150016
784.208	0.0150285
784.286	0.0151607
784.364	0.0151078
784.443	0.0150535
784.521	0.0151374
784.599	0.0150485
784.677	0.0151476
784.755	0.0152567
784.833	0.0150127
784.911	0.0149812
784.989	0.0152316
785.068	0.0149875
785.146	0.0150924
785.224	0.0150923
785.302	0.0150060
785.380	0.0149889
785.458	0.0149387
785.536	0.0149641
785.614	0.0148219
785.693	0.0149474
785.771	0.0152047
785.849	0.0149599
785.927	0.0150646
786.005	0.0149109
786.083	0.0150250
786.161	0.0150233
786.239	0.0151957
786.318	0.0152425
786.396	0.0152133
786.474	0.0150887
786.552	0.0150930
786.630	0.0150985
786.708	0.0151392
786.786	0.0150962
786.864	0.0150520
786.943	0.0151002
787.021	0.0150816
787.099	0.0151093
787.177	0.0151917
787.255	0.0151569
787.333	0.0150150
787.411	0.0150255
787.489	0.0151202
787.568	0.0150092
787.646	0.0149947
787.724	0.0149688
787.802	0.0149285
787.880	0.0150256
787.958	0.0148594
788.036	0.0148714
788.114	0.0148712
788.193	0.0148648
788.271	0.0149095
788.349	0.0149006
788.427	0.0150105
788.505	0.0148936
788.583	0.0149949
788.661	0.0151581
788.739	0.0151439
788.818	0.0151630
788.896	0.0151080
788.974	0.0151879
789.052	0.0150376
789.130	0.0151216
789.208	0.0151601
789.286	0.0150856
789.364	0.0150150
789.443	0.0150921
789.521	0.0151234
789.599	0.0148759
789.677	0.0149096
789.755	0.0150941
789.833	0.0149892
789.911	0.0150278
789.989	0.0149997
790.068	0.0149416
790.146	0.0149114
790.224	0.0147939
790.302	0.0150042
790.380	0.0149170
790.458	0.0149880
790.536	0.0150229
790.614	0.0149744
790.693	0.0149415
790.771	0.0149287
790.849	0.0151301
790.927	0.0149863
791.005	0.0150883
791.083	0.0151238
791.161	0.0149682
791.239	0.0150940
791.318	0.0150648
791.396	0.0149841
791.474	0.0150835
791.552	0.0149926
791.630	0.0149800
791.708	0.0153502
791.786	0.0151453
791.864	0.0150284
791.943	0.0151032
792.021	0.0151669
792.099	0.0151648
792.177	0.0151218
792.255	0.0152663
792.333	0.0152518
792.411	0.0150973
792.489	0.0151683
792.568	0.0152431
792.646	0.0153313
792.724	0.0151849
792.802	0.0150523
792.880	0.0151765
792.958	0.0150455
793.036	0.0149263
793.114	0.0151315
793.193	0.0151038
793.271	0.0150697
793.349	0.0150180
793.427	0.0148398
793.505	0.0148832
793.583	0.0151040
793.661	0.0150003
793.739	0.0150273
793.818	0.0150291
793.896	0.0149438
793.974	0.0151202
794.052	0.0150583
794.130	0.0149920
794.208	0.0149545
794.286	0.0150350
794.364	0.0150989
794.443	0.0149708
794.521	0.0150897
794.599	0.0150349
794.677	0.0150389
794.755	0.0149339
794.833	0.0149148
794.911	0.0150584
794.989	0.0151597
795.068	0.0151090
795.146	0.0150633
795.224	0.0150175
795.302	0.0151315
795.380	0.0151311
795.458	0.0151476
795.536	0.0151205
795.614	0.0150014
795.693	0.0151014
795.771	0.0153371
795.849	0.0150867
795.927	0.0150748
796.005	0.0152684
796.083	0.0151984
796.161	0.0150233
796.239	0.0151008
796.318	0.0150771
796.396	0.0150900
796.474	0.0152249
796.552	0.0151701
796.630	0.0150153
796.708	0.0152063
796.786	0.0150758
796.864	0.0151751
796.943	0.0151484
797.021	0.0149508
797.099	0.0149156
797.177	0.0150722
797.255	0.0151327
797.333	0.0150370
797.411	0.0150375
797.489	0.0151979
797.568	0.0148584
797.646	0.0149619
797.724	0.0151198
797.802	0.0149970
797.880	0.0150381
797.958	0.0151035
798.036	0.0151877
798.114	0.0150815
798.193	0.0151288
798.271	0.0151546
798.349	0.0150620
798.427	0.0151588
798.505	0.0150491
798.583	0.0151377
798.661	0.0150716
798.739	0.0151236
798.818	0.0151743
798.896	0.0150366
798.974	0.0150172
799.052	0.0151060
799.130	0.0152216
799.208	0.0151124
799.286	0.0152737
799.364	0.0151784
799.443	0.0150465
799.521	0.0151749
799.599	0.0152979
799.677	0.0151331
799.755	0.0151277
799.833	0.0150208
799.911	0.0150953
799.989	0.0151668
800.068	0.0150622
800.146	0.0150037
800.224	0.0150459
800.302	0.0151118
800.380	0.0150612
800.458	0.0149183
800.536	0.0150835
800.614	0.0150076
800.693	0.0150700
800.771	0.0148620
800.849	0.0150569
800.927	0.0151569
801.005	0.0151065
801.083	0.0148249
801.161	0.0149988
801.239	0.0149158
801.318	0.0150437
801.396	0.0151395
801.474	0.0150793
801.552	0.0150575
801.630	0.0151810
801.708	0.0151778
801.786	0.0152560
801.864	0.0151794
801.943	0.0152144
802.021	0.0152552
802.099	0.0151586
802.177	0.0151360
802.255	0.0152659
802.333	0.0152230
802.411	0.0152180
802.489	0.0153120
802.568	0.0151767
802.646	0.0152953
802.724	0.0151911
802.802	0.0150204
802.880	0.0150640
802.958	0.0151167
803.036	0.0150491
803.114	0.0150677
803.193	0.0149860
803.271	0.0149857
803.349	0.0150008
803.427	0.0150716
803.505	0.0150344
803.583	0.0149763
803.661	0.0150264
803.739	0.0150589
803.818	0.0149955
803.896	0.0151579
803.974	0.0150435
804.052	0.0150705
804.130	0.0150513
804.208	0.0150652
804.286	0.0152119
804.364	0.0151276
804.443	0.0150066
804.521	0.0151520
804.599	0.0150588
804.677	0.0153050
804.755	0.0150640
804.833	0.0150770
804.911	0.0151820
804.989	0.0150737
805.068	0.0151265
805.146	0.0150768
805.224	0.0151087
805.302	0.0151988
805.380	0.0150340
805.458	0.0150709
805.536	0.0150111
805.614	0.0150590
805.693	0.0150283
805.771	0.0150031
805.849	0.0149852
805.927	0.0149689
806.005	0.0148894
806.083	0.0148827
806.161	0.0149509
806.239	0.0149969
806.318	0.0149176
806.396	0.0149839
806.474	0.0149522
806.552	0.0150652
806.630	0.0149129
806.708	0.0151968
806.786	0.0151768
806.864	0.0151782
806.943	0.0149863
807.021	0.0150181
807.099	0.0152024
807.177	0.0151662
807.255	0.0151198
807.333	0.0151299
807.411	0.0151687
807.489	0.0150552
807.568	0.0150191
807.646	0.0150270
807.724	0.0151460
807.802	0.0150844
807.880	0.0151622
807.958	0.0150719
808.036	0.0150793
808.114	0.0150793
808.193	0.0150755
808.271	0.0150282
808.349	0.0152018
808.427	0.0152191
808.505	0.0152473
808.583	0.0151319
808.661	0.0152268
808.739	0.0151189
808.818	0.0153000
808.896	0.0151785
808.974	0.0151379
809.052	0.0151948
809.130	0.0153912
809.208	0.0152808
809.286	0.0152177
809.364	0.0152200
809.443	0.0151651
809.521	0.0151109
809.599	0.0152934
809.677	0.0151547
809.755	0.0151936
809.833	0.0150957
809.911	0.0151849
809.989	0.0151630
810.068	0.0152594
810.146	0.0152480
810.224	0.0151511
810.302	0.0151447
810.380	0.0150126
810.458	0.0151962
810.536	0.0150543
810.614	0.0149659
810.693	0.0150845
810.771	0.0149697
810.849	0.0151039
810.927	0.0150005
811.005	0.0149390
811.083	0.0148827
811.161	0.0149530
811.239	0.0149250
811.318	0.0149064
811.396	0.0149559
811.474	0.0150552
811.552	0.0149417
811.630	0.0148409
811.708	0.0148769
811.786	0.0150336
811.864	0.0150356
811.943	0.0150289
812.021	0.0150484
812.099	0.0149673
812.177	0.0150426
812.255	0.0150921
812.333	0.0151346
812.411	0.0152388
812.489	0.0152794
812.568	0.0150063
812.646	0.0151808
812.724	0.0152399
812.802	0.0152839
812.880	0.0151251
812.958	0.0150628
813.036	0.0151585
813.114	0.0151882
813.193	0.0150515
813.271	0.0150921
813.349	0.0150448
813.427	0.0148927
813.505	0.0149814
813.583	0.0150183
813.661	0.0150159
813.739	0.0149157
813.818	0.0148981
813.896	0.0149744
813.974	0.0149894
814.052	0.0149722
814.130	0.0149555
814.208	0.0150095
814.286	0.0149152
814.364	0.0150659
814.443	0.0150509
814.521	0.0150478
814.599	0.0152374
814.677	0.0150294
814.755	0.0150408
814.833	0.0151315
814.911	0.0151431
814.989	0.0151422
815.068	0.0151308
815.146	0.0151724
815.224	0.0150711
815.302	0.0152110
815.380	0.0152486
815.458	0.0150938
815.536	0.0150439
815.614	0.0150234
815.693	0.0150429
815.771	0.0149951
815.849	0.0149393
815.927	0.0151662
816.005	0.0151035
816.083	0.0150294
816.161	0.0150711
816.239	0.0150387
816.318	0.0150449
816.396	0.0151816
816.474	0.0151770
816.552	0.0150689
816.630	0.0151302
816.708	0.0152103
816.786	0.0150290
816.864	0.0151437
816.943	0.0152113
817.021	0.0152895
817.099	0.0150633
817.177	0.0152135
817.255	0.0150749
817.333	0.0150665
817.411	0.0151498
817.489	0.0148833
817.568	0.0149478
817.646	0.0149298
817.724	0.0149268
817.802	0.0148927
817.880	0.0148049
817.958	0.0148392
818.036	0.0148983
818.114	0.0150139
818.193	0.0149430
818.271	0.0149470
818.349	0.0148815
818.427	0.0148730
818.505	0.0150928
818.583	0.0149632
818.661	0.0149467
818.739	0.0149523
818.818	0.0150301
818.896	0.0149973
818.974	0.0150017
819.052	0.0151801
819.130	0.0151643
819.208	0.0150605
819.286	0.0150698
819.364	0.0150300
819.443	0.0150181
819.521	0.0150393
819.599	0.0151183
819.677	0.0150745
819.755	0.0150259
819.833	0.0150513
819.911	0.0150937
819.989	0.0149719
820.068	0.0149532
820.146	0.0151656
820.224	0.0150902
820.302	0.0150797
820.380	0.0150931
820.458	0.0151814
820.536	0.0152119
820.614	0.0150769
820.693	0.0151636
820.771	0.0151511
820.849	0.0150697
820.927	0.0151721
821.005	0.0151233
821.083	0.0151228
821.161	0.0152029
821.239	0.0151040
821.318	0.0151402
821.396	0.0150349
821.474	0.0151137
821.552	0.0150230
821.630	0.0150909
821.708	0.0150655
821.786	0.0149884
821.864	0.0150755
821.943	0.0149236
822.021	0.0149455
822.099	0.0149702
822.177	0.0150782
822.255	0.0151782
822.333	0.0150797
822.411	0.0148936
822.489	0.0150765
822.568	0.0151978
822.646	0.0151698
822.724	0.0151106
822.802	0.0151016
822.880	0.0150724
822.958	0.0151096
823.036	0.0151360
823.114	0.0149995
823.193	0.0150526
823.271	0.0150965
823.349	0.0151463
823.427	0.0151143
823.505	0.0149661
823.583	0.0150027
823.661	0.0148326
823.739	0.0149268
823.818	0.0150221
823.896	0.0150376
823.974	0.0147789
824.052	0.0148454
824.130	0.0150409
824.208	0.0150241
824.286	0.0148745
824.364	0.0149602
824.443	0.0149491
824.521	0.0149371
824.599	0.0148495
824.677	0.0149111
824.755	0.0149526
824.833	0.0148775
824.911	0.0149287
824.989	0.0149902
825.068	0.0151047
825.146	0.0150827
825.224	0.0152148
825.302	0.0150461
825.380	0.0150499
825.458	0.0151562
825.536	0.0149575
825.614	0.0150081
825.693	0.0149525
825.771	0.0151041
825.849	0.0152714
825.927	0.0152408
826.005	0.0151714
826.083	0.0152003
826.161	0.0151440
826.239	0.0150492
826.318	0.0150283
826.396	0.0151855
826.474	0.0151765
826.552	0.0151041
826.630	0.0150800
826.708	0.0152943
826.786	0.0152347
826.864	0.0150908
826.943	0.0150076
827.021	0.0150623
827.099	0.0152747
827.177	0.0151714
827.255	0.0152051
827.333	0.0151308
827.411	0.0151508
827.489	0.0149567
827.568	0.0151366
827.646	0.0151389
827.724	0.0152000
827.802	0.0150701
827.880	0.0150702
827.958	0.0150617
828.036	0.0150043
828.114	0.0151413
828.193	0.0149213
828.271	0.0149743
828.349	0.0150690
828.427	0.0150376
828.505	0.0149559
828.583	0.0150163
828.661	0.0150092
828.739	0.0148302
828.818	0.0148808
828.896	0.0150561
828.974	0.0148318
829.052	0.0149323
829.130	0.0149938
829.208	0.0149572
829.286	0.0148683
829.364	0.0149870
829.443	0.0149433
829.521	0.0150661
829.599	0.0149638
829.677	0.0149223
829.755	0.0151233
829.833	0.0151697
829.911	0.0150420
829.989	0.0150053
830.068	0.0150169
830.146	0.0151508
830.224	0.0150680
830.302	0.0150921
830.380	0.0150691
830.458	0.0151774
830.536	0.0150690
830.614	0.0151452
830.693	0.0151512
830.771	0.0151359
830.849	0.0151241
830.927	0.0152081
831.005	0.0151437
831.083	0.0151530
831.161	0.0150896
831.239	0.0150808
831.318	0.0151214
831.396	0.0151511
831.474	0.0152982
831.552	0.0151543
831.630	0.0151938
831.708	0.0151447
831.786	0.0149669
831.864	0.0150527
831.943	0.0151491
832.021	0.0150263
832.099	0.0150305
832.177	0.0152532
832.255	0.0151862
832.333	0.0150704
832.411	0.0151646
832.489	0.0150629
832.568	0.0149908
832.646	0.0149678
832.724	0.0150800
832.802	0.0151324
832.880	0.0149976
832.958	0.0150263
833.036	0.0151060
833.114	0.0151923
833.193	0.0150717
833.271	0.0150896
833.349	0.0151500
833.427	0.0150085
833.505	0.0150488
833.583	0.0150300
833.661	0.0150706
833.739	0.0150318
833.818	0.0149191
833.896	0.0150671
833.974	0.0151150
834.052	0.0148740
834.130	0.0150107
834.208	0.0148105
834.286	0.0149911
834.364	0.0149533
834.443	0.0149623
834.521	0.0149693
834.599	0.0150031
834.677	0.0149726
834.755	0.0151512
834.833	0.0149414
834.911	0.0151687
834.989	0.0151223
835.068	0.0151106
835.146	0.0151572
835.224	0.0153049
835.302	0.0151716
835.380	0.0151736
835.458	0.0151407
835.536	0.0152656
835.614	0.0152058
835.693	0.0151977
835.771	0.0153288
835.849	0.0152411
835.927	0.0151431
836.005	0.0151624
836.083	0.0150571
836.161	0.0151588
836.239	0.0151524
836.318	0.0149950
836.396	0.0150753
836.474	0.0149770
836.552	0.0150662
836.630	0.0151604
836.708	0.0152041
836.786	0.0150141
836.864	0.0150476
836.943	0.0152386
837.021	0.0152305
837.099	0.0150726
837.177	0.0151430
837.255	0.0151591
837.333	0.0150869
837.411	0.0152892
837.489	0.0150484
837.568	0.0150613
837.646	0.0151953
837.724	0.0151939
837.802	0.0151969
837.880	0.0152324
837.958	0.0151369
838.036	0.0151752
838.114	0.0151694
838.193	0.0151673
838.271	0.0150549
838.349	0.0151962
838.427	0.0150698
838.505	0.0150813
838.583	0.0150828
838.661	0.0149632
838.739	0.0149862
838.818	0.0151799
838.896	0.0151161
838.974	0.0149795
839.052	0.0150485
839.130	0.0152038
839.208	0.0150317
839.286	0.0150821
839.364	0.0152108
839.443	0.0150322
839.521	0.0150916
839.599	0.0152567
839.677	0.0151947
839.755	0.0151288
839.833	0.0151527
839.911	0.0152675
839.989	0.0152033
840.068	0.0152512
840.146	0.0152573
840.224	0.0149203
840.302	0.0150787
840.380	0.0151472
840.458	0.0151076
840.536	0.0150556
840.614	0.0149582
840.693	0.0149987
840.771	0.0151518
840.849	0.0149313
840.927	0.0150777
841.005	0.0151366
841.083	0.0150131
841.161	0.0150310
841.239	0.0150845
841.318	0.0149834
841.396	0.0150143
841.474	0.0151210
841.552	0.0151054
841.630	0.0150191
841.708	0.0150684
841.786	0.0150665
841.864	0.0150392
841.943	0.0149326
842.021	0.0149228
842.099	0.0149923
842.177	0.0150606
842.255	0.0150597
842.333	0.0149703
842.411	0.0149907
842.489	0.0150433
842.568	0.0150800
842.646	0.0149964
842.724	0.0150360
842.802	0.0150033
842.880	0.0150220
842.958	0.0150720
843.036	0.0149976
843.114	0.0150767
843.193	0.0150705
843.271	0.0149506
843.349	0.0150514
843.427	0.0150062
843.505	0.0150726
843.583	0.0151382
843.661	0.0150945
843.739	0.0151567
843.818	0.0151329
843.896	0.0150726
843.974	0.0151192
844.052	0.0150074
844.130	0.0151440
844.208	0.0150915
844.286	0.0149355
844.364	0.0150877
844.443	0.0151909
844.521	0.0152074
844.599	0.0149728
844.677	0.0150076
844.755	0.0152076
844.833	0.0151072
844.911	0.0152455
844.989	0.0151176
845.068	0.0151989
845.146	0.0150729
845.224	0.0151485
845.302	0.0152384
845.380	0.0151521
845.458	0.0152809
845.536	0.0151022
845.614	0.0150957
845.693	0.0151703
845.771	0.0151920
845.849	0.0151122
845.927	0.0150666
846.005	0.0152971
846.083	0.0151308
846.161	0.0152164
846.239	0.0151106
846.318	0.0150379
846.396	0.0150806
846.474	0.0152077
846.552	0.0152039
846.630	0.0150503
846.708	0.0151535
846.786	0.0152164
846.864	0.0151503
846.943	0.0151356
847.021	0.0151375
847.099	0.0151049
847.177	0.0150718
847.255	0.0151231
847.333	0.0150999
847.411	0.0152254
847.489	0.0150984
847.568	0.0152544
847.646	0.0150165
847.724	0.0151600
847.802	0.0152025
847.880	0.0151233
847.958	0.0152095
848.036	0.0151326
848.114	0.0149746
848.193	0.0151347
848.271	0.0150361
848.349	0.0150628
848.427	0.0149699
848.505	0.0151654
848.583	0.0150214
848.661	0.0148180
848.739	0.0148952
848.818	0.0150170
848.896	0.0148930
848.974	0.0149063
849.052	0.0150006
849.130	0.0149064
849.208	0.0150231
849.286	0.0150215
849.364	0.0149636
849.443	0.0148858
849.521	0.0150463
849.599	0.0149240
849.677	0.0151061
849.755	0.0149964
849.833	0.0150764
849.911	0.0150339
849.989	0.0148856
850.068	0.0150526
850.146	0.0151254
850.224	0.0151100
850.302	0.0150578
850.380	0.0150296
850.458	0.0151192
850.536	0.0151623
850.614	0.0151154
850.693	0.0149532
850.771	0.0150025
850.849	0.0151450
850.927	0.0150365
851.005	0.0151330
851.083	0.0151143
851.161	0.0151797
851.239	0.0151098
851.318	0.0151002
851.396	0.0151440
851.474	0.0152703
851.552	0.0152706
851.630	0.0152045
851.708	0.0152452
851.786	0.0152354
851.864	0.0153226
851.943	0.0153146
852.021	0.0152594
852.099	0.0152395
852.177	0.0152747
852.255	0.0153922
852.333	0.0152574
852.411	0.0153211
852.489	0.0152419
852.568	0.0151345
852.646	0.0152396
852.724	0.0151086
852.802	0.0151637
852.880	0.0151939
852.958	0.0150925
853.036	0.0151500
853.114	0.0152463
853.193	0.0151593
853.271	0.0150966
853.349	0.0150097
853.427	0.0152316
853.505	0.0151031
853.583	0.0149671
853.661	0.0150789
853.739	0.0151089
853.818	0.0150114
853.896	0.0150752
853.974	0.0150421
854.052	0.0149852
854.130	0.0149423
854.208	0.0150227
854.286	0.0150682
854.364	0.0150620
854.443	0.0150225
854.521	0.0150503
854.599	0.0151425
854.677	0.0150763
854.755	0.0151067
854.833	0.0150964
854.911	0.0150286
854.989	0.0151907
855.068	0.0151384
855.146	0.0150930
855.224	0.0150919
855.302	0.0150346
855.380	0.0150753
855.458	0.0150068
855.536	0.0149606
855.614	0.0149466
855.693	0.0149582
855.771	0.0151325
855.849	0.0150826
855.927	0.0150951
856.005	0.0150823
856.083	0.0149790
856.161	0.0149673
856.239	0.0150633
856.318	0.0151608
856.396	0.0151383
856.474	0.0149484
856.552	0.0150737
856.630	0.0151201
856.708	0.0151376
856.786	0.0149970
856.864	0.0151132
856.943	0.0151797
857.021	0.0152229
857.099	0.0151101
857.177	0.0151325
857.255	0.0151151
857.333	0.0150729
857.411	0.0151714
857.489	0.0150381
857.568	0.0151920
857.646	0.0152148
857.724	0.0151223
857.802	0.0150750
857.880	0.0153007
857.958	0.0153135
858.036	0.0152443
858.114	0.0152312
858.193	0.0152021
858.271	0.0152376
858.349	0.0151994
858.427	0.0152395
858.505	0.0152775
858.583	0.0152438
858.661	0.0150832
858.739	0.0152114
858.818	0.0151382
858.896	0.0150764
858.974	0.0149900
859.052	0.0150088
859.130	0.0151652
859.208	0.0151260
859.286	0.0150527
859.364	0.0150172
859.443	0.0149743
859.521	0.0148929
859.599	0.0149393
859.677	0.0151369
859.755	0.0151505
859.833	0.0150540
859.911	0.0151915
859.989	0.0150323
860.068	0.0150261
860.146	0.0150471
860.224	0.0151205
860.302	0.0151850
860.380	0.0150437
860.458	0.0151731
860.536	0.0152383
860.614	0.0152030
860.693	0.0151858
860.771	0.0152003
860.849	0.0150068
860.927	0.0150105
861.005	0.0150842
861.083	0.0150851
861.161	0.0150430
861.239	0.0150139
861.318	0.0148096
861.396	0.0150365
861.474	0.0149925
861.552	0.0151083
861.630	0.0150816
861.708	0.0149223
861.786	0.0150007
861.864	0.0150078
861.943	0.0150193
862.021	0.0151000
862.099	0.0150821
862.177	0.0149857
862.255	0.0150636
862.333	0.0150832
862.411	0.0151081
862.489	0.0151383
862.568	0.0151321
862.646	0.0151704
862.724	0.0152432
862.802	0.0152023
862.880	0.0151559
862.958	0.0152298
863.036	0.0152737
863.114	0.0151450
863.193	0.0152650
863.271	0.0152628
863.349	0.0151769
863.427	0.0150682
863.505	0.0152142
863.583	0.0152573
863.661	0.0153189
863.739	0.0152311
863.818	0.0151611
863.896	0.0151123
863.974	0.0150078
864.052	0.0151762
864.130	0.0151820
864.208	0.0150447
864.286	0.0151489
864.364	0.0150986
864.443	0.0151237
864.521	0.0151978
864.599	0.0153317
864.677	0.0153000
864.755	0.0150635
864.833	0.0150658
864.911	0.0150755
864.989	0.0149427
865.068	0.0151538
865.146	0.0151550
865.224	0.0150220
865.302	0.0150011
865.380	0.0149471
865.458	0.0150682
865.536	0.0149788
865.614	0.0150075
865.693	0.0149321
865.771	0.0151897
865.849	0.0150697
865.927	0.0150977
866.005	0.0150601
866.083	0.0150938
866.161	0.0150552
866.239	0.0151146
866.318	0.0150085
866.396	0.0150560
866.474	0.0151448
866.552	0.0150773
866.630	0.0150944
866.708	0.0152131
866.786	0.0153002
866.864	0.0150761
866.943	0.0151878
867.021	0.0151429
867.099	0.0152779
867.177	0.0152161
867.255	0.0151851
867.333	0.0151583
867.411	0.0150616
867.489	0.0151170
867.568	0.0151154
867.646	0.0150730
867.724	0.0149958
867.802	0.0149763
867.880	0.0151515
867.958	0.0150268
868.036	0.0150124
868.114	0.0151169
868.193	0.0151245
868.271	0.0150735
868.349	0.0151499
868.427	0.0151874
868.505	0.0150234
868.583	0.0151328
868.661	0.0151176
868.739	0.0150864
868.818	0.0151553
868.896	0.0152139
868.974	0.0151093
869.052	0.0152779
869.130	0.0151433
869.208	0.0151136
869.286	0.0150220
869.364	0.0150787
869.443	0.0151392
869.521	0.0150748
869.599	0.0151465
869.677	0.0150392
869.755	0.0150999
869.833	0.0150492
869.911	0.0149703
869.989	0.0150484
870.068	0.0150105
870.146	0.0150429
870.224	0.0151680
870.302	0.0149448
870.380	0.0149750
870.458	0.0149870
870.536	0.0150769
870.614	0.0151308
870.693	0.0151218
870.771	0.0151694
870.849	0.0151694
870.927	0.0152148
871.005	0.0153703
871.083	0.0152083
871.161	0.0150458
871.239	0.0151302
871.318	0.0152402
871.396	0.0152252
871.474	0.0151256
871.552	0.0152533
871.630	0.0152054
871.708	0.0153022
871.786	0.0151914
871.864	0.0150486
871.943	0.0152223
872.021	0.0151699
872.099	0.0150636
872.177	0.0150530
872.255	0.0151721
872.333	0.0151749
872.411	0.0151297
872.489	0.0149576
872.568	0.0150188
872.646	0.0150818
872.724	0.0151903
872.802	0.0152023
872.880	0.0149907
872.958	0.0149863
873.036	0.0151810
873.114	0.0151757
873.193	0.0152283
873.271	0.0152215
873.349	0.0151537
873.427	0.0151681
873.505	0.0151426
873.583	0.0152141
873.661	0.0152531
873.739	0.0151474
873.818	0.0152651
873.896	0.0152778
873.974	0.0151733
874.052	0.0151752
874.130	0.0152975
874.208	0.0152225
874.286	0.0152334
874.364	0.0152751
874.443	0.0151453
874.521	0.0151023
874.599	0.0150237
874.677	0.0151105
874.755	0.0149430
874.833	0.0150401
874.911	0.0149824
874.989	0.0150047
875.068	0.0149478
875.146	0.0149238
875.224	0.0149515
875.302	0.0150147
875.380	0.0148788
875.458	0.0149935
875.536	0.0150205
875.614	0.0150658
875.693	0.0149438
875.771	0.0148654
875.849	0.0149177
875.927	0.0151479
876.005	0.0149400
876.083	0.0150361
876.161	0.0150002
876.239	0.0150327
876.318	0.0150869
876.396	0.0150620
876.474	0.0150051
876.552	0.0150546
876.630	0.0151243
876.708	0.0150427
876.786	0.0151616
876.864	0.0151014
876.943	0.0151827
877.021	0.0149472
877.099	0.0150182
877.177	0.0150881
877.255	0.0150989
877.333	0.0150905
877.411	0.0151093
877.489	0.0150037
877.568	0.0149429
877.646	0.0151398
877.724	0.0151630
877.802	0.0151113
877.880	0.0150226
877.958	0.0150879
878.036	0.0151168
878.114	0.0149454
878.193	0.0151019
878.271	0.0149337
878.349	0.0151685
878.427	0.0150356
878.505	0.0152028
878.583	0.0151186
878.661	0.0150528
878.739	0.0150748
878.818	0.0151328
878.896	0.0150026
878.974	0.0150009
879.052	0.0151372
879.130	0.0150089
879.208	0.0149431
879.286	0.0150893
879.364	0.0149883
879.443	0.0149069
879.521	0.0148538
879.599	0.0150062
879.677	0.0150987
879.755	0.0151117
879.833	0.0151430
879.911	0.0150752
879.989	0.0150340
880.068	0.0150988
880.146	0.0151762
880.224	0.0151016
880.302	0.0151063
880.380	0.0151469
880.458	0.0151995
880.536	0.0151185
880.614	0.0150257
880.693	0.0151309
880.771	0.0150653
880.849	0.0150375
880.927	0.0150160
881.005	0.0150706
881.083	0.0152573
881.161	0.0150211
881.239	0.0151255
881.318	0.0151261
881.396	0.0150320
881.474	0.0151276
881.552	0.0151431
881.630	0.0150801
881.708	0.0152113
881.786	0.0153349
881.864	0.0152442
881.943	0.0151643
882.021	0.0152158
882.099	0.0152049
882.177	0.0151264
882.255	0.0149905
882.333	0.0149804
882.411	0.0149644
882.489	0.0149599
882.568	0.0150341
882.646	0.0149500
882.724	0.0149411
882.802	0.0151315
882.880	0.0151226
882.958	0.0150018
883.036	0.0149742
883.114	0.0152207
883.193	0.0149512
883.271	0.0149992
883.349	0.0151163
883.427	0.0151344
883.505	0.0152993
883.583	0.0151807
883.661	0.0151478
883.739	0.0152233
883.818	0.0153009
883.896	0.0152908
883.974	0.0150201
884.052	0.0150875
884.130	0.0151099
884.208	0.0151278
884.286	0.0150957
884.364	0.0150698
884.443	0.0149755
884.521	0.0148679
884.599	0.0149908
884.677	0.0150488
884.755	0.0148452
884.833	0.0148961
884.911	0.0149030
884.989	0.0151044
885.068	0.0148164
885.146	0.0148996
885.224	0.0148185
885.302	0.0149535
885.380	0.0149677
885.458	0.0150139
885.536	0.0149375
885.614	0.0151022
885.693	0.0149310
885.771	0.0148931
885.849	0.0148676
885.927	0.0148698
886.005	0.0149698
886.083	0.0149784
886.161	0.0149634
886.239	0.0148407
886.318	0.0150669
886.396	0.0149352
886.474	0.0148988
886.552	0.0149516
886.630	0.0148330
886.708	0.0147337
886.786	0.0148832
886.864	0.0149582
886.943	0.0150154
887.021	0.0149097
887.099	0.0149850
887.177	0.0151122
887.255	0.0150459
887.333	0.0150683
887.411	0.0150699
887.489	0.0150383
887.568	0.0150730
887.646	0.0150327
887.724	0.0151323
887.802	0.0150327
887.880	0.0150465
887.958	0.0150289
888.036	0.0151665
888.114	0.0152357
888.193	0.0150908
888.271	0.0149680
888.349	0.0150569
888.427	0.0151158
888.505	0.0151468
888.583	0.0150452
888.661	0.0149941
888.739	0.0150652
888.818	0.0149491
888.896	0.0151169
888.974	0.0151077
889.052	0.0150507
889.130	0.0149940
889.208	0.0149168
889.286	0.0149265
889.364	0.0149797
889.443	0.0150720
889.521	0.0150334
889.599	0.0150201
889.677	0.0149062
889.755	0.0149752
889.833	0.0149111
889.911	0.0148804
889.989	0.0148492
890.068	0.0150356
890.146	0.0150802
890.224	0.0152172
890.302	0.0150580
890.380	0.0151521
890.458	0.0150798
890.536	0.0148788
890.614	0.0150240
890.693	0.0149605
890.771	0.0149658
890.849	0.0150578
890.927	0.0149319
891.005	0.0149036
891.083	0.0150749
891.161	0.0149236
891.239	0.0150324
891.318	0.0150288
891.396	0.0148324
891.474	0.0148669
891.552	0.0149000
891.630	0.0147776
891.708	0.0149573
891.786	0.0148890
891.864	0.0146801
891.943	0.0149004
892.021	0.0148639
892.099	0.0147290
892.177	0.0149160
892.255	0.0148724
892.333	0.0151744
892.411	0.0151653
892.489	0.0150054
892.568	0.0151778
892.646	0.0151975
892.724	0.0151395
892.802	0.0152376
892.880	0.0152821
892.958	0.0152725
893.036	0.0153437
893.114	0.0152554
893.193	0.0152538
893.271	0.0151696
893.349	0.0150130
893.427	0.0151241
893.505	0.0152232
893.583	0.0150000
893.661	0.0150804
893.739	0.0150769
893.818	0.0150881
893.896	0.0150059
893.974	0.0149796
894.052	0.0149614
894.130	0.0149372
894.208	0.0149922
894.286	0.0150646
894.364	0.0150076
894.443	0.0149667
894.521	0.0149179
894.599	0.0149314
894.677	0.0150665
894.755	0.0149550
894.833	0.0150277
894.911	0.0151022
894.989	0.0150081
895.068	0.0150104
895.146	0.0149451
895.224	0.0148220
895.302	0.0151212
895.380	0.0150056
895.458	0.0150955
895.536	0.0149417
895.614	0.0150404
895.693	0.0149699
895.771	0.0149977
895.849	0.0149890
895.927	0.0150343
896.005	0.0149685
896.083	0.0148890
896.161	0.0149993
896.239	0.0150521
896.318	0.0149915
896.396	0.0149140
896.474	0.0151437
896.552	0.0150468
896.630	0.0150551
896.708	0.0150939
896.786	0.0150622
896.864	0.0150796
896.943	0.0150908
897.021	0.0150697
897.099	0.0151295
897.177	0.0151318
897.255	0.0149866
897.333	0.0149782
897.411	0.0150729
897.489	0.0149815
897.568	0.0148126
897.646	0.0149916
897.724	0.0150226
897.802	0.0150498
897.880	0.0149640
897.958	0.0149277
898.036	0.0148918
898.114	0.0148904
898.193	0.0148431
898.271	0.0148891
898.349	0.0150788
898.427	0.0149097
898.505	0.0147900
898.583	0.0149054
898.661	0.0149967
898.739	0.0149223
898.818	0.0149463
898.896	0.0148242
898.974	0.0150224
899.052	0.0149979
899.130	0.0150191
899.208	0.0148614
899.286	0.0150576
899.364	0.0150131
899.443	0.0151024
899.521	0.0151443
899.599	0.0150722
899.677	0.0150837
899.755	0.0152012
899.833	0.0151799
899.911	0.0151930
899.989	0.0151711
900.068	0.0151696
900.146	0.0150855
900.224	0.0151340
900.302	0.0150193
900.380	0.0150398
900.458	0.0151659
900.536	0.0149998
900.614	0.0150359
900.693	0.0149986
900.771	0.0148671
900.849	0.0149509
900.927	0.0149454
901.005	0.0148763
901.083	0.0147568
901.161	0.0147790
901.239	0.0147590
901.318	0.0148373
901.396	0.0147976
901.474	0.0149613
901.552	0.0150836
901.630	0.0148795
901.708	0.0149209
901.786	0.0149107
901.864	0.0150847
901.943	0.0150584
902.021	0.0151450
902.099	0.0151102
902.177	0.0151434
902.255	0.0151031
902.333	0.0152108
902.411	0.0151350
902.489	0.0151520
902.568	0.0150887
902.646	0.0151083
902.724	0.0151210
902.802	0.0150418
902.880	0.0149832
902.958	0.0148731
903.036	0.0149111
903.114	0.0150117
903.193	0.0148647
903.271	0.0148018
903.349	0.0150090
903.427	0.0148045
903.505	0.0147063
903.583	0.0150573
903.661	0.0149300
903.739	0.0149873
903.818	0.0149680
903.896	0.0149482
903.974	0.0151024
904.052	0.0151120
904.130	0.0150935
904.208	0.0150853
904.286	0.0152332
904.364	0.0151254
904.443	0.0151143
904.521	0.0150928
904.599	0.0151452
904.677	0.0151087
904.755	0.0149580
904.833	0.0149232
904.911	0.0150883
904.989	0.0149780
905.068	0.0148724
905.146	0.0147729
905.224	0.0149157
905.302	0.0148920
905.380	0.0149419
905.458	0.0148831
905.536	0.0149722
905.614	0.0148862
905.693	0.0148652
905.771	0.0149176
905.849	0.0148684
905.927	0.0149805
906.005	0.0150513
906.083	0.0150528
906.161	0.0150842
906.239	0.0151635
906.318	0.0152149
906.396	0.0151235
906.474	0.0153011
906.552	0.0152675
906.630	0.0152110
906.708	0.0152771
906.786	0.0150993
906.864	0.0151630
906.943	0.0150571
907.021	0.0150394
907.099	0.0151167
907.177	0.0150880
907.255	0.0150681
907.333	0.0151521
907.411	0.0148604
907.489	0.0149132
907.568	0.0148397
907.646	0.0147639
907.724	0.0148547
907.802	0.0149606
907.880	0.0148219
907.958	0.0148724
908.036	0.0149516
908.114	0.0148908
908.193	0.0147717
908.271	0.0149681
908.349	0.0148380
908.427	0.0148314
908.505	0.0149760
908.583	0.0150602
908.661	0.0148146
908.739	0.0149802
908.818	0.0150272
908.896	0.0148087
908.974	0.0149860
909.052	0.0150238
909.130	0.0149275
909.208	0.0149369
909.286	0.0150138
909.364	0.0149281
909.443	0.0151051
909.521	0.0149625
909.599	0.0150278
909.677	0.0149535
909.755	0.0150430
909.833	0.0150432
909.911	0.0151192
909.989	0.0150419
910.068	0.0149352
910.146	0.0149937
910.224	0.0150047
910.302	0.0150166
910.380	0.0150529
910.458	0.0149687
910.536	0.0149613
910.614	0.0148907
910.693	0.0150291
910.771	0.0150262
910.849	0.0149731
910.927	0.0150691
911.005	0.0148954
911.083	0.0149010
911.161	0.0150848
911.239	0.0149693
911.318	0.0149934
911.396	0.0149959
911.474	0.0150016
911.552	0.0148997
911.630	0.0149697
911.708	0.0150458
911.786	0.0149991
911.864	0.0150101
911.943	0.0150600
912.021	0.0149706
912.099	0.0150251
912.177	0.0149716
912.255	0.0150274
912.333	0.0150560
912.411	0.0148583
912.489	0.0149314
912.568	0.0149500
912.646	0.0150426
912.724	0.0150639
912.802	0.0149098
912.880	0.0149506
912.958	0.0148986
913.036	0.0150758
913.114	0.0150482
913.193	0.0150766
913.271	0.0151307
913.349	0.0150165
913.427	0.0151448
913.505	0.0151327
913.583	0.0149821
913.661	0.0150130
913.739	0.0151368
913.818	0.0150758
913.896	0.0150385
913.974	0.0150872
914.052	0.0150391
914.130	0.0150982
914.208	0.0150458
914.286	0.0151012
914.364	0.0150800
914.443	0.0151006
914.521	0.0150302
914.599	0.0150799
914.677	0.0149276
914.755	0.0150374
914.833	0.0149790
914.911	0.0149883
914.989	0.0149654
915.068	0.0150435
915.146	0.0150561
915.224	0.0151527
915.302	0.0150397
915.380	0.0149747
915.458	0.0150089
915.536	0.0151606
915.614	0.0149603
915.693	0.0149517
915.771	0.0149377
915.849	0.0150325
915.927	0.0150360
916.005	0.0150665
916.083	0.0151234
916.161	0.0151378
916.239	0.0151662
916.318	0.0150774
916.396	0.0150700
916.474	0.0151337
916.552	0.0149768
916.630	0.0151226
916.708	0.0150493
916.786	0.0150999
916.864	0.0150266
916.943	0.0149970
917.021	0.0149992
917.099	0.0149838
917.177	0.0150307
917.255	0.0150658
917.333	0.0150900
917.411	0.0150165
917.489	0.0149605
917.568	0.0149394
917.646	0.0150042
917.724	0.0149705
917.802	0.0150060
917.880	0.0149062
917.958	0.0150409
918.036	0.0150712
918.114	0.0149072
918.193	0.0149468
918.271	0.0149821
918.349	0.0149567
918.427	0.0151112
918.505	0.0151374
918.583	0.0152324
918.661	0.0151080
918.739	0.0149725
918.818	0.0150927
918.896	0.0151115
918.974	0.0151639
919.052	0.0151895
919.130	0.0149629
919.208	0.0152261
919.286	0.0151529
919.364	0.0151524
919.443	0.0150912
919.521	0.0150245
919.599	0.0150443
919.677	0.0151417
919.755	0.0151619
919.833	0.0150437
919.911	0.0150374
919.989	0.0150770
920.068	0.0149901
920.146	0.0152014
920.224	0.0151018
920.302	0.0151196
920.380	0.0151287
920.458	0.0150220
920.536	0.0150639
920.614	0.0151419
920.693	0.0150870
920.771	0.0152019
920.849	0.0152018
920.927	0.0151562
921.005	0.0151264
921.083	0.0151427
921.161	0.0151859
921.239	0.0150079
921.318	0.0152777
921.396	0.0152670
921.474	0.0150537
921.552	0.0150233
921.630	0.0151373
921.708	0.0152023
921.786	0.0151278
921.864	0.0151423
921.943	0.0151314
922.021	0.0150570
922.099	0.0149216
922.177	0.0150632
922.255	0.0152390
922.333	0.0151171
922.411	0.0151176
922.489	0.0150565
922.568	0.0151165
922.646	0.0150820
922.724	0.0151589
922.802	0.0150403
922.880	0.0150832
922.958	0.0151109
923.036	0.0151716
923.114	0.0151186
923.193	0.0150990
923.271	0.0152028
923.349	0.0151902
923.427	0.0151560
923.505	0.0151025
923.583	0.0151120
923.661	0.0151239
923.739	0.0151995
923.818	0.0151123
923.896	0.0150694
923.974	0.0152071
924.052	0.0151889
924.130	0.0151353
924.208	0.0150693
924.286	0.0150593
924.364	0.0150293
924.443	0.0150813
924.521	0.0151100
924.599	0.0150941
924.677	0.0150343
924.755	0.0150694
924.833	0.0150694
924.911	0.0150988
924.989	0.0150395
925.068	0.0151518
925.146	0.0151095
925.224	0.0149290
925.302	0.0149845
925.380	0.0151467
925.458	0.0149668
925.536	0.0151646
925.614	0.0149673
925.693	0.0150171
925.771	0.0150328
925.849	0.0150446
925.927	0.0149749
926.005	0.0151193
926.083	0.0150262
926.161	0.0150507
926.239	0.0151385
926.318	0.0150365
926.396	0.0149343
926.474	0.0149454
926.552	0.0151352
926.630	0.0151199
926.708	0.0150145
926.786	0.0149181
926.864	0.0149261
926.943	0.0149797
927.021	0.0151012
927.099	0.0151010
927.177	0.0148878
927.255	0.0149542
927.333	0.0149516
927.411	0.0150048
927.489	0.0149823
927.568	0.0149924
927.646	0.0151254
927.724	0.0149831
927.802	0.0151453
927.880	0.0151391
927.958	0.0150155
928.036	0.0150017
928.114	0.0152251
928.193	0.0150537
928.271	0.0150159
928.349	0.0150390
928.427	0.0151461
928.505	0.0151982
928.583	0.0150309
928.661	0.0150006
928.739	0.0151218
928.818	0.0151205
928.896	0.0151595
928.974	0.0150352
929.052	0.0150809
929.130	0.0149489
929.208	0.0150108
929.286	0.0149636
929.364	0.0149980
929.443	0.0149591
929.521	0.0149776
929.599	0.0150327
929.677	0.0150318
929.755	0.0150686
929.833	0.0148641
929.911	0.0149154
929.989	0.0150585
930.068	0.0150309
930.146	0.0150134
930.224	0.0150153
930.302	0.0150816
930.380	0.0150724
930.458	0.0150289
930.536	0.0150374
930.614	0.0151051
930.693	0.0151452
930.771	0.0149729
930.849	0.0151424
930.927	0.0151901
931.005	0.0149284
931.083	0.0150356
931.161	0.0151304
931.239	0.0151205
931.318	0.0151456
931.396	0.0152049
931.474	0.0151247
931.552	0.0151990
931.630	0.0152506
931.708	0.0154048
931.786	0.0150671
931.864	0.0150356
931.943	0.0152301
932.021	0.0151138
932.099	0.0150710
932.177	0.0151848
932.255	0.0151005
932.333	0.0151402
932.411	0.0151191
932.489	0.0150809
932.568	0.0151399
932.646	0.0150450
932.724	0.0151188
932.802	0.0151048
932.880	0.0149143
932.958	0.0151290
933.036	0.0151507
933.114	0.0152467
933.193	0.0151449
933.271	0.0150381
933.349	0.0150713
933.427	0.0151054
933.505	0.0150854
933.583	0.0151109
933.661	0.0152296
933.739	0.0150716
933.818	0.0150082
933.896	0.0151599
933.974	0.0150602
934.052	0.0149562
934.130	0.0150274
934.208	0.0149842
934.286	0.0149091
934.364	0.0150259
934.443	0.0150668
934.521	0.0148901
934.599	0.0150189
934.677	0.0150659
934.755	0.0150896
934.833	0.0150397
934.911	0.0149669
934.989	0.0149685
935.068	0.0149802
935.146	0.0151833
935.224	0.0151098
935.302	0.0150491
935.380	0.0150623
935.458	0.0151083
935.536	0.0150318
935.614	0.0150125
935.693	0.0149857
935.771	0.0151333
935.849	0.0151379
935.927	0.0150642
936.005	0.0152092
936.083	0.0151839
936.161	0.0152332
936.239	0.0151077
936.318	0.0151010
936.396	0.0151602
936.474	0.0151993
936.552	0.0150586
936.630	0.0151985
936.708	0.0152075
936.786	0.0150652
936.864	0.0151675
936.943	0.0150863
937.021	0.0151607
937.099	0.0150565
937.177	0.0150531
937.255	0.0150132
937.333	0.0152238
937.411	0.0150659
937.489	0.0151257
937.568	0.0150548
937.646	0.0151459
937.724	0.0149817
937.802	0.0150019
937.880	0.0150691
937.958	0.0150642
938.036	0.0151295
938.114	0.0151039
938.193	0.0150517
938.271	0.0149227
938.349	0.0150229
938.427	0.0151317
938.505	0.0150933
938.583	0.0149711
938.661	0.0150185
938.739	0.0150263
938.818	0.0149795
938.896	0.0148882
938.974	0.0150393
939.052	0.0148875
939.130	0.0150307
939.208	0.0148881
939.286	0.0149574
939.364	0.0150742
939.443	0.0149216
939.521	0.0150443
939.599	0.0150201
939.677	0.0150420
939.755	0.0150056
939.833	0.0152077
939.911	0.0150950
939.989	0.0151768
940.068	0.0151400
940.146	0.0150143
940.224	0.0150864
940.302	0.0150178
940.380	0.0151299
940.458	0.0151440
940.536	0.0151848
940.614	0.0151723
940.693	0.0150630
940.771	0.0150671
940.849	0.0151027
940.927	0.0150653
941.005	0.0150414
941.083	0.0149513
941.161	0.0149541
941.239	0.0150059
941.318	0.0149386
941.396	0.0151097
941.474	0.0150632
941.552	0.0150387
941.630	0.0150404
941.708	0.0150691
941.786	0.0150891
941.864	0.0150449
941.943	0.0150581
942.021	0.0151324
942.099	0.0150689
942.177	0.0150019
942.255	0.0151527
942.333	0.0150279
942.411	0.0152180
942.489	0.0152193
942.568	0.0151903
942.646	0.0150458
942.724	0.0151884
942.802	0.0151890
942.880	0.0153537
942.958	0.0152671
943.036	0.0151006
943.114	0.0151849
943.193	0.0151524
943.271	0.0152357
943.349	0.0151958
943.427	0.0150728
943.505	0.0152223
943.583	0.0152013
943.661	0.0150053
943.739	0.0149412
943.818	0.0152052
943.896	0.0151119
943.974	0.0150270
944.052	0.0151298
944.130	0.0150219
944.208	0.0150354
944.286	0.0149712
944.364	0.0151512
944.443	0.0151730
944.521	0.0150697
944.599	0.0152964
944.677	0.0150095
944.755	0.0151466
944.833	0.0151915
944.911	0.0151393
944.989	0.0151564
945.068	0.0152505
945.146	0.0151690
945.224	0.0151667
945.302	0.0151871
945.380	0.0152278
945.458	0.0151099
945.536	0.0151646
945.614	0.0150922
945.693	0.0151700
945.771	0.0149797
945.849	0.0149690
945.927	0.0150688
946.005	0.0149364
946.083	0.0151659
946.161	0.0150697
946.239	0.0151099
946.318	0.0151980
946.396	0.0149659
946.474	0.0150761
946.552	0.0151318
946.630	0.0149813
946.708	0.0150805
946.786	0.0151398
946.864	0.0151400
946.943	0.0152209
947.021	0.0151808
947.099	0.0151137
947.177	0.0152278
947.255	0.0151737
947.333	0.0151156
947.411	0.0152171
947.489	0.0150665
947.568	0.0152738
947.646	0.0152785
947.724	0.0151667
947.802	0.0151302
947.880	0.0151457
947.958	0.0151057
948.036	0.0152010
948.114	0.0151300
948.193	0.0150801
948.271	0.0151454
948.349	0.0151114
948.427	0.0151556
948.505	0.0151366
948.583	0.0152076
948.661	0.0151257
948.739	0.0152022
948.818	0.0152332
948.896	0.0152796
948.974	0.0151597
949.052	0.0151450
949.130	0.0152498
949.208	0.0151289
949.286	0.0150550
949.364	0.0151456
949.443	0.0151247
949.521	0.0151341
949.599	0.0151212
949.677	0.0149442
949.755	0.0150858
949.833	0.0151318
949.911	0.0151237
949.989	0.0152307
950.068	0.0149962
950.146	0.0150862
950.224	0.0152985
950.302	0.0150123
950.380	0.0150486
950.458	0.0151782
950.536	0.0150786
950.614	0.0149834
950.693	0.0150809
950.771	0.0150624
950.849	0.0150202
950.927	0.0149770
951.005	0.0149842
951.083	0.0151810
951.161	0.0149769
951.239	0.0150299
951.318	0.0149998
951.396	0.0150558
951.474	0.0151640
951.552	0.0150166
951.630	0.0151276
951.708	0.0151065
951.786	0.0150433
951.864	0.0148660
951.943	0.0150377
952.021	0.0150822
952.099	0.0151154
952.177	0.0150532
952.255	0.0150238
952.333	0.0150721
952.411	0.0151478
952.489	0.0150838
952.568	0.0150967
952.646	0.0151648
952.724	0.0150437
952.802	0.0151073
952.880	0.0150959
952.958	0.0152681
953.036	0.0151526
953.114	0.0151641
953.193	0.0150522
953.271	0.0150540
953.349	0.0151785
953.427	0.0152025
953.505	0.0152840
953.583	0.0151937
953.661	0.0152213
953.739	0.0151322
953.818	0.0151040
953.896	0.0150272
953.974	0.0150940
954.052	0.0151579
954.130	0.0151437
954.208	0.0151348
954.286	0.0150385
954.364	0.0150566
954.443	0.0150755
954.521	0.0151461
954.599	0.0150534
954.677	0.0151891
954.755	0.0151672
954.833	0.0151782
954.911	0.0151289
954.989	0.0151595
955.068	0.0151766
955.146	0.0151801
955.224	0.0150875
955.302	0.0151586
955.380	0.0151275
955.458	0.0151311
955.536	0.0152510
955.614	0.0150839
955.693	0.0152296
955.771	0.0150956
955.849	0.0152009
955.927	0.0151421
956.005	0.0151934
956.083	0.0151283
956.161	0.0150409
956.239	0.0149878
956.318	0.0150080
956.396	0.0151555
956.474	0.0151740
956.552	0.0150723
956.630	0.0150637
956.708	0.0151405
956.786	0.0150867
956.864	0.0150574
956.943	0.0150276
957.021	0.0150977
957.099	0.0150548
957.177	0.0150804
957.255	0.0151169
957.333	0.0151968
957.411	0.0150293
957.489	0.0151206
957.568	0.0150702
957.646	0.0151477
957.724	0.0150703
957.802	0.0151495
957.880	0.0152138
957.958	0.0150043
958.036	0.0150759
958.114	0.0150937
958.193	0.0151438
958.271	0.0151248
958.349	0.0151327
958.427	0.0151312
958.505	0.0149839
958.583	0.0150177
958.661	0.0150551
958.739	0.0150259
958.818	0.0150146
958.896	0.0151720
958.974	0.0150356
959.052	0.0148803
959.130	0.0148466
959.208	0.0148719
959.286	0.0150604
959.364	0.0150208
959.443	0.0150654
959.521	0.0150611
959.599	0.0150002
959.677	0.0151110
959.755	0.0151886
959.833	0.0151991
959.911	0.0150523
