05/17/2022	17:06:59	Ver.	4.1	UNKNOWN
Optical Delay	639.982744	Delta X		0.078125	Sweeps	1	Scan Rate	0/0
Coordinates	Axis 1	NaN	Axis 2	NaN	Axis 3	NaN	Axis 4	NaN	Axis 5	NaN	Axis 6	0.000000
TX Power	0.000000	RX Power	0.000000

639.983	0.0160349
640.061	0.0160387
640.139	0.0159432
640.217	0.0159694
640.295	0.0160152
640.373	0.0159620
640.451	0.0161902
640.530	0.0159969
640.608	0.0160612
640.686	0.0160418
640.764	0.0160785
640.842	0.0161214
640.920	0.0162225
640.998	0.0160835
641.076	0.0161293
641.155	0.0161176
641.233	0.0160027
641.311	0.0160007
641.389	0.0162042
641.467	0.0161050
641.545	0.0161645
641.623	0.0161604
641.701	0.0161199
641.780	0.0160732
641.858	0.0159713
641.936	0.0159074
642.014	0.0160235
642.092	0.0159359
642.170	0.0160004
642.248	0.0160176
642.326	0.0161186
642.405	0.0161122
642.483	0.0160503
642.561	0.0159009
642.639	0.0161414
642.717	0.0160528
642.795	0.0157589
642.873	0.0160889
642.951	0.0160551
643.030	0.0161606
643.108	0.0160429
643.186	0.0160745
643.264	0.0160398
643.342	0.0160307
643.420	0.0159693
643.498	0.0160503
643.576	0.0159348
643.655	0.0158641
643.733	0.0160327
643.811	0.0160391
643.889	0.0159615
643.967	0.0158686
644.045	0.0159058
644.123	0.0160740
644.201	0.0159421
644.280	0.0159072
644.358	0.0158749
644.436	0.0160184
644.514	0.0160675
644.592	0.0159422
644.670	0.0159885
644.748	0.0158822
644.826	0.0158868
644.905	0.0160037
644.983	0.0158271
645.061	0.0160308
645.139	0.0159293
645.217	0.0157946
645.295	0.0159225
645.373	0.0157833
645.451	0.0158543
645.530	0.0158056
645.608	0.0159057
645.686	0.0158408
645.764	0.0158049
645.842	0.0158201
645.920	0.0159048
645.998	0.0157336
646.076	0.0157033
646.155	0.0157348
646.233	0.0159060
646.311	0.0156879
646.389	0.0157443
646.467	0.0157880
646.545	0.0158596
646.623	0.0157964
646.701	0.0158677
646.780	0.0158624
646.858	0.0158572
646.936	0.0159023
647.014	0.0157121
647.092	0.0158031
647.170	0.0157917
647.248	0.0157603
647.326	0.0158611
647.405	0.0159292
647.483	0.0157640
647.561	0.0158649
647.639	0.0159952
647.717	0.0158796
647.795	0.0158926
647.873	0.0159029
647.951	0.0158684
648.030	0.0159321
648.108	0.0159661
648.186	0.0160986
648.264	0.0160795
648.342	0.0160098
648.420	0.0160128
648.498	0.0159390
648.576	0.0159367
648.655	0.0161293
648.733	0.0161259
648.811	0.0160580
648.889	0.0159712
648.967	0.0160722
649.045	0.0160472
649.123	0.0160001
649.201	0.0161361
649.280	0.0160096
649.358	0.0158249
649.436	0.0159572
649.514	0.0159196
649.592	0.0158699
649.670	0.0159261
649.748	0.0158842
649.826	0.0157703
649.905	0.0158105
649.983	0.0159195
650.061	0.0157355
650.139	0.0158850
650.217	0.0158532
650.295	0.0157103
650.373	0.0156483
650.451	0.0157946
650.530	0.0157718
650.608	0.0157069
650.686	0.0158397
650.764	0.0158897
650.842	0.0158055
650.920	0.0158723
650.998	0.0158310
651.076	0.0158680
651.155	0.0158735
651.233	0.0159338
651.311	0.0158012
651.389	0.0158761
651.467	0.0160179
651.545	0.0157829
651.623	0.0158717
651.701	0.0159042
651.780	0.0159303
651.858	0.0160484
651.936	0.0160247
652.014	0.0160777
652.092	0.0159341
652.170	0.0160246
652.248	0.0160964
652.326	0.0159962
652.405	0.0160075
652.483	0.0162071
652.561	0.0160014
652.639	0.0160594
652.717	0.0161301
652.795	0.0161752
652.873	0.0160270
652.951	0.0158982
653.030	0.0161581
653.108	0.0161304
653.186	0.0160760
653.264	0.0161760
653.342	0.0161696
653.420	0.0162849
653.498	0.0163951
653.576	0.0162381
653.655	0.0162948
653.733	0.0162881
653.811	0.0163873
653.889	0.0164230
653.967	0.0166475
654.045	0.0166225
654.123	0.0164278
654.201	0.0164251
654.280	0.0163993
654.358	0.0164123
654.436	0.0164071
654.514	0.0164509
654.592	0.0163531
654.670	0.0161906
654.748	0.0164869
654.826	0.0163106
654.905	0.0161121
654.983	0.0161198
655.061	0.0161733
655.139	0.0161603
655.217	0.0161215
655.295	0.0160973
655.373	0.0160286
655.451	0.0160192
655.530	0.0160152
655.608	0.0159618
655.686	0.0160699
655.764	0.0160377
655.842	0.0160640
655.920	0.0160733
655.998	0.0160843
656.076	0.0160282
656.155	0.0159470
656.233	0.0159151
656.311	0.0159442
656.389	0.0158961
656.467	0.0159079
656.545	0.0158590
656.623	0.0158618
656.701	0.0159149
656.780	0.0158997
656.858	0.0158986
656.936	0.0159020
657.014	0.0158752
657.092	0.0157545
657.170	0.0157559
657.248	0.0158626
657.326	0.0158331
657.405	0.0158250
657.483	0.0159464
657.561	0.0159538
657.639	0.0158769
657.717	0.0156744
657.795	0.0157549
657.873	0.0157429
657.951	0.0157814
658.030	0.0159216
658.108	0.0157519
658.186	0.0158830
658.264	0.0157449
658.342	0.0157612
658.420	0.0158481
658.498	0.0157617
658.576	0.0157300
658.655	0.0158376
658.733	0.0158707
658.811	0.0159200
658.889	0.0158412
658.967	0.0158791
659.045	0.0158482
659.123	0.0158599
659.201	0.0160000
659.280	0.0160555
659.358	0.0159064
659.436	0.0160658
659.514	0.0159978
659.592	0.0159899
659.670	0.0158568
659.748	0.0161594
659.826	0.0160249
659.905	0.0160647
659.983	0.0160574
660.061	0.0159895
660.139	0.0161362
660.217	0.0160978
660.295	0.0160529
660.373	0.0161291
660.451	0.0160231
660.530	0.0159709
660.608	0.0160007
660.686	0.0158363
660.764	0.0158592
660.842	0.0158134
660.920	0.0156755
660.998	0.0157784
661.076	0.0156409
661.155	0.0157708
661.233	0.0157175
661.311	0.0156222
661.389	0.0157108
661.467	0.0157513
661.545	0.0155859
661.623	0.0155727
661.701	0.0155471
661.780	0.0156190
661.858	0.0156383
661.936	0.0156508
662.014	0.0157647
662.092	0.0155581
662.170	0.0157385
662.248	0.0158556
662.326	0.0157166
662.405	0.0156928
662.483	0.0156552
662.561	0.0158126
662.639	0.0158340
662.717	0.0157761
662.795	0.0158037
662.873	0.0159985
662.951	0.0160221
663.030	0.0159742
663.108	0.0160068
663.186	0.0160796
663.264	0.0161214
663.342	0.0161396
663.420	0.0161846
663.498	0.0162317
663.576	0.0162544
663.655	0.0164100
663.733	0.0164052
663.811	0.0164787
663.889	0.0163797
663.967	0.0163631
664.045	0.0164123
664.123	0.0161948
664.201	0.0164169
664.280	0.0164026
664.358	0.0163516
664.436	0.0162914
664.514	0.0163484
664.592	0.0162271
664.670	0.0161802
664.748	0.0162989
664.826	0.0162457
664.905	0.0161965
664.983	0.0160135
665.061	0.0160023
665.139	0.0158160
665.217	0.0158334
665.295	0.0157302
665.373	0.0157233
665.451	0.0157059
665.530	0.0155421
665.608	0.0157146
665.686	0.0157124
665.764	0.0156976
665.842	0.0156207
665.920	0.0156715
665.998	0.0156087
666.076	0.0157616
666.155	0.0158452
666.233	0.0157051
666.311	0.0158038
666.389	0.0158707
666.467	0.0159967
666.545	0.0160967
666.623	0.0162678
666.701	0.0162227
666.780	0.0163880
666.858	0.0165853
666.936	0.0165906
667.014	0.0167793
667.092	0.0167457
667.170	0.0167141
667.248	0.0167753
667.326	0.0168038
667.405	0.0169827
667.483	0.0170180
667.561	0.0170363
667.639	0.0169073
667.717	0.0167970
667.795	0.0169203
667.873	0.0168298
667.951	0.0167434
668.030	0.0165022
668.108	0.0165591
668.186	0.0164503
668.264	0.0162453
668.342	0.0160345
668.420	0.0159535
668.498	0.0157294
668.576	0.0155604
668.655	0.0156252
668.733	0.0153238
668.811	0.0153457
668.889	0.0152874
668.967	0.0151111
669.045	0.0149607
669.123	0.0149387
669.201	0.0151040
669.280	0.0150684
669.358	0.0150761
669.436	0.0150278
669.514	0.0151071
669.592	0.0153030
669.670	0.0152595
669.748	0.0153497
669.826	0.0154993
669.905	0.0155909
669.983	0.0157681
670.061	0.0159461
670.139	0.0161784
670.217	0.0162251
670.295	0.0164223
670.373	0.0165341
670.451	0.0167207
670.530	0.0168629
670.608	0.0170081
670.686	0.0170874
670.764	0.0171889
670.842	0.0172089
670.920	0.0172617
670.998	0.0173508
671.076	0.0172933
671.155	0.0172118
671.233	0.0171482
671.311	0.0172433
671.389	0.0169595
671.467	0.0169993
671.545	0.0169924
671.623	0.0167989
671.701	0.0165826
671.780	0.0163367
671.858	0.0162823
671.936	0.0160339
672.014	0.0159862
672.092	0.0158765
672.170	0.0156621
672.248	0.0156005
672.326	0.0155153
672.405	0.0153625
672.483	0.0151983
672.561	0.0153040
672.639	0.0151718
672.717	0.0149986
672.795	0.0150552
672.873	0.0152348
672.951	0.0152936
673.030	0.0151638
673.108	0.0152771
673.186	0.0152056
673.264	0.0153708
673.342	0.0154759
673.420	0.0156249
673.498	0.0158308
673.576	0.0159267
673.655	0.0160174
673.733	0.0162212
673.811	0.0161685
673.889	0.0165600
673.967	0.0166522
674.045	0.0167017
674.123	0.0167194
674.201	0.0169051
674.280	0.0170190
674.358	0.0168910
674.436	0.0169067
674.514	0.0169542
674.592	0.0168140
674.670	0.0168213
674.748	0.0167433
674.826	0.0167843
674.905	0.0166776
674.983	0.0165557
675.061	0.0165042
675.139	0.0165046
675.217	0.0163574
675.295	0.0161657
675.373	0.0160668
675.451	0.0161191
675.530	0.0160418
675.608	0.0158912
675.686	0.0158661
675.764	0.0158910
675.842	0.0159645
675.920	0.0159651
675.998	0.0157679
676.076	0.0158488
676.155	0.0159341
676.233	0.0158190
676.311	0.0160248
676.389	0.0159388
676.467	0.0160210
676.545	0.0161227
676.623	0.0160079
676.701	0.0159399
676.780	0.0159998
676.858	0.0158462
676.936	0.0159369
677.014	0.0158414
677.092	0.0159354
677.170	0.0158175
677.248	0.0157452
677.326	0.0157185
677.405	0.0156666
677.483	0.0156255
677.561	0.0156270
677.639	0.0155771
677.717	0.0154390
677.795	0.0154241
677.873	0.0153394
677.951	0.0154420
678.030	0.0153207
678.108	0.0153491
678.186	0.0153921
678.264	0.0154721
678.342	0.0154006
678.420	0.0155171
678.498	0.0155669
678.576	0.0156622
678.655	0.0157451
678.733	0.0156943
678.811	0.0159821
678.889	0.0159312
678.967	0.0162804
679.045	0.0162825
679.123	0.0162580
679.201	0.0165415
679.280	0.0165504
679.358	0.0165428
679.436	0.0165681
679.514	0.0168349
679.592	0.0167432
679.670	0.0167751
679.748	0.0167537
679.826	0.0168012
679.905	0.0166130
679.983	0.0165430
680.061	0.0166418
680.139	0.0164877
680.217	0.0165263
680.295	0.0164413
680.373	0.0164776
680.451	0.0163485
680.530	0.0161142
680.608	0.0160648
680.686	0.0160381
680.764	0.0158656
680.842	0.0157340
680.920	0.0157846
680.998	0.0156265
681.076	0.0157208
681.155	0.0154908
681.233	0.0155014
681.311	0.0154846
681.389	0.0153895
681.467	0.0156979
681.545	0.0156387
681.623	0.0154547
681.701	0.0156113
681.780	0.0157043
681.858	0.0157921
681.936	0.0158550
682.014	0.0158282
682.092	0.0159199
682.170	0.0160349
682.248	0.0161130
682.326	0.0159717
682.405	0.0161104
682.483	0.0163161
682.561	0.0165067
682.639	0.0162906
682.717	0.0163127
682.795	0.0163625
682.873	0.0163969
682.951	0.0161314
683.030	0.0162691
683.108	0.0162211
683.186	0.0162277
683.264	0.0161384
683.342	0.0160130
683.420	0.0160162
683.498	0.0160254
683.576	0.0159849
683.655	0.0159792
683.733	0.0159633
683.811	0.0160032
683.889	0.0160311
683.967	0.0160772
684.045	0.0160271
684.123	0.0160720
684.201	0.0160902
684.280	0.0161218
684.358	0.0161155
684.436	0.0161140
684.514	0.0162237
684.592	0.0163249
684.670	0.0164747
684.748	0.0162222
684.826	0.0162766
684.905	0.0162354
684.983	0.0162633
685.061	0.0163316
685.139	0.0162531
685.217	0.0162661
685.295	0.0162870
685.373	0.0160937
685.451	0.0160473
685.530	0.0159795
685.608	0.0160049
685.686	0.0159271
685.764	0.0159382
685.842	0.0157995
685.920	0.0158876
685.998	0.0158760
686.076	0.0157269
686.155	0.0155867
686.233	0.0159143
686.311	0.0159057
686.389	0.0158772
686.467	0.0157393
686.545	0.0158523
686.623	0.0160509
686.701	0.0161636
686.780	0.0161102
686.858	0.0161912
686.936	0.0163447
687.014	0.0164979
687.092	0.0166419
687.170	0.0166033
687.248	0.0167359
687.326	0.0168278
687.405	0.0168235
687.483	0.0168268
687.561	0.0168858
687.639	0.0168150
687.717	0.0167635
687.795	0.0168343
687.873	0.0166626
687.951	0.0165660
688.030	0.0165407
688.108	0.0165063
688.186	0.0162433
688.264	0.0160249
688.342	0.0158926
688.420	0.0157436
688.498	0.0157189
688.576	0.0155000
688.655	0.0153127
688.733	0.0151214
688.811	0.0150570
688.889	0.0149403
688.967	0.0147154
689.045	0.0147141
689.123	0.0147338
689.201	0.0147981
689.280	0.0146332
689.358	0.0148128
689.436	0.0148946
689.514	0.0149776
689.592	0.0150739
689.670	0.0151299
689.748	0.0153001
689.826	0.0154799
689.905	0.0154754
689.983	0.0157648
690.061	0.0160198
690.139	0.0161314
690.217	0.0162682
690.295	0.0163311
690.373	0.0166045
690.451	0.0166866
690.530	0.0168449
690.608	0.0168553
690.686	0.0169380
690.764	0.0169466
690.842	0.0172486
690.920	0.0169590
690.998	0.0170661
691.076	0.0171539
691.155	0.0168993
691.233	0.0168723
691.311	0.0169502
691.389	0.0167369
691.467	0.0166792
691.545	0.0164325
691.623	0.0164906
691.701	0.0162417
691.780	0.0160640
691.858	0.0159927
691.936	0.0159373
692.014	0.0157403
692.092	0.0157150
692.170	0.0154063
692.248	0.0154226
692.326	0.0152478
692.405	0.0153837
692.483	0.0152858
692.561	0.0152869
692.639	0.0151872
692.717	0.0152601
692.795	0.0154241
692.873	0.0154626
692.951	0.0153867
693.030	0.0154077
693.108	0.0153967
693.186	0.0155065
693.264	0.0156709
693.342	0.0156184
693.420	0.0158090
693.498	0.0158822
693.576	0.0159469
693.655	0.0159912
693.733	0.0160374
693.811	0.0161394
693.889	0.0160623
693.967	0.0161922
694.045	0.0162399
694.123	0.0164484
694.201	0.0163469
694.280	0.0164214
694.358	0.0164876
694.436	0.0165314
694.514	0.0165426
694.592	0.0165657
694.670	0.0166767
694.748	0.0166801
694.826	0.0166736
694.905	0.0165853
694.983	0.0166464
695.061	0.0165504
695.139	0.0166597
695.217	0.0166608
695.295	0.0165823
695.373	0.0165517
695.451	0.0167106
695.530	0.0167461
695.608	0.0164697
695.686	0.0164700
695.764	0.0164966
695.842	0.0165067
695.920	0.0165396
695.998	0.0165162
696.076	0.0162302
696.155	0.0163260
696.233	0.0163201
696.311	0.0160016
696.389	0.0160922
696.467	0.0160020
696.545	0.0157599
696.623	0.0156593
696.701	0.0154924
696.780	0.0153712
696.858	0.0150828
696.936	0.0150049
697.014	0.0149521
697.092	0.0147831
697.170	0.0146433
697.248	0.0146336
697.326	0.0144968
697.405	0.0144353
697.483	0.0144231
697.561	0.0145643
697.639	0.0144571
697.717	0.0145450
697.795	0.0147127
697.873	0.0148093
697.951	0.0148860
698.030	0.0150760
698.108	0.0152393
698.186	0.0156031
698.264	0.0157346
698.342	0.0160276
698.420	0.0161493
698.498	0.0166534
698.576	0.0167775
698.655	0.0169666
698.733	0.0172852
698.811	0.0174419
698.889	0.0175632
698.967	0.0176513
699.045	0.0180394
699.123	0.0180491
699.201	0.0180869
699.280	0.0181114
699.358	0.0180361
699.436	0.0180630
699.514	0.0179545
699.592	0.0179691
699.670	0.0178482
699.748	0.0176704
699.826	0.0173082
699.905	0.0172325
699.983	0.0170670
700.061	0.0169222
700.139	0.0167210
700.217	0.0164684
700.295	0.0161644
700.373	0.0160081
700.451	0.0158922
700.530	0.0157100
700.608	0.0154691
700.686	0.0152114
700.764	0.0151350
700.842	0.0151392
700.920	0.0148895
700.998	0.0149302
701.076	0.0149011
701.155	0.0148049
701.233	0.0147770
701.311	0.0147762
701.389	0.0147967
701.467	0.0147948
701.545	0.0147688
701.623	0.0148701
701.701	0.0150416
701.780	0.0151405
701.858	0.0150732
701.936	0.0150854
702.014	0.0153403
702.092	0.0155437
702.170	0.0153456
702.248	0.0153923
702.326	0.0155727
702.405	0.0156507
702.483	0.0156957
702.561	0.0155746
702.639	0.0157635
702.717	0.0157665
702.795	0.0157966
702.873	0.0157827
702.951	0.0158530
703.030	0.0159081
703.108	0.0159336
703.186	0.0156797
703.264	0.0158057
703.342	0.0158358
703.420	0.0158304
703.498	0.0157095
703.576	0.0157513
703.655	0.0158189
703.733	0.0158116
703.811	0.0158241
703.889	0.0158728
703.967	0.0159282
704.045	0.0158561
704.123	0.0160281
704.201	0.0160567
704.280	0.0162135
704.358	0.0162769
704.436	0.0162796
704.514	0.0164684
704.592	0.0165014
704.670	0.0165147
704.748	0.0166801
704.826	0.0167065
704.905	0.0168839
704.983	0.0168375
705.061	0.0169501
705.139	0.0168869
705.217	0.0169337
705.295	0.0168789
705.373	0.0170175
705.451	0.0168738
705.530	0.0170097
705.608	0.0169251
705.686	0.0168037
705.764	0.0166998
705.842	0.0167438
705.920	0.0166554
705.998	0.0165514
706.076	0.0165334
706.155	0.0164651
706.233	0.0162582
706.311	0.0162676
706.389	0.0160934
706.467	0.0161616
706.545	0.0161207
706.623	0.0160860
706.701	0.0159802
706.780	0.0159068
706.858	0.0157840
706.936	0.0157610
707.014	0.0157021
707.092	0.0157458
707.170	0.0157620
707.248	0.0157372
707.326	0.0158075
707.405	0.0158947
707.483	0.0158281
707.561	0.0156623
707.639	0.0157940
707.717	0.0158670
707.795	0.0158614
707.873	0.0157119
707.951	0.0159129
708.030	0.0157967
708.108	0.0158216
708.186	0.0155610
708.264	0.0156603
708.342	0.0156427
708.420	0.0156271
708.498	0.0153809
708.576	0.0153616
708.655	0.0152094
708.733	0.0152428
708.811	0.0150931
708.889	0.0150735
708.967	0.0150722
709.045	0.0148956
709.123	0.0149062
709.201	0.0150900
709.280	0.0151006
709.358	0.0149659
709.436	0.0153089
709.514	0.0152006
709.592	0.0152423
709.670	0.0156216
709.748	0.0156684
709.826	0.0157559
709.905	0.0158797
709.983	0.0159519
710.061	0.0161428
710.139	0.0163708
710.217	0.0164996
710.295	0.0166702
710.373	0.0166013
710.451	0.0168111
710.530	0.0169266
710.608	0.0170160
710.686	0.0171377
710.764	0.0171265
710.842	0.0171104
710.920	0.0170892
710.998	0.0170308
711.076	0.0171726
711.155	0.0172723
711.233	0.0171759
711.311	0.0168710
711.389	0.0169598
711.467	0.0171175
711.545	0.0168866
711.623	0.0167646
711.701	0.0169080
711.780	0.0168295
711.858	0.0167246
711.936	0.0166277
712.014	0.0165333
712.092	0.0165155
712.170	0.0165469
712.248	0.0164211
712.326	0.0163369
712.405	0.0163752
712.483	0.0162649
712.561	0.0163200
712.639	0.0161790
712.717	0.0160052
712.795	0.0161320
712.873	0.0160109
712.951	0.0160526
713.030	0.0160499
713.108	0.0158831
713.186	0.0157980
713.264	0.0158248
713.342	0.0158070
713.420	0.0156748
713.498	0.0156863
713.576	0.0156779
713.655	0.0155247
713.733	0.0155394
713.811	0.0154404
713.889	0.0154322
713.967	0.0154726
714.045	0.0153725
714.123	0.0152340
714.201	0.0153613
714.280	0.0153406
714.358	0.0152927
714.436	0.0153667
714.514	0.0151701
714.592	0.0152714
714.670	0.0151969
714.748	0.0153905
714.826	0.0154885
714.905	0.0153806
714.983	0.0153654
715.061	0.0152306
715.139	0.0153828
715.217	0.0154351
715.295	0.0154839
715.373	0.0154878
715.451	0.0155737
715.530	0.0157744
715.608	0.0157461
715.686	0.0159910
715.764	0.0160291
715.842	0.0161079
715.920	0.0160752
715.998	0.0162154
716.076	0.0163579
716.155	0.0165063
716.233	0.0164467
716.311	0.0165215
716.389	0.0166066
716.467	0.0164716
716.545	0.0167543
716.623	0.0166012
716.701	0.0166120
716.780	0.0166788
716.858	0.0166359
716.936	0.0166336
717.014	0.0165150
717.092	0.0164621
717.170	0.0164218
717.248	0.0164200
717.326	0.0163116
717.405	0.0162313
717.483	0.0161682
717.561	0.0160296
717.639	0.0159702
717.717	0.0161037
717.795	0.0159737
717.873	0.0158499
717.951	0.0158121
718.030	0.0158124
718.108	0.0158125
718.186	0.0156733
718.264	0.0157877
718.342	0.0157265
718.420	0.0158070
718.498	0.0157194
718.576	0.0158715
718.655	0.0157397
718.733	0.0158870
718.811	0.0159056
718.889	0.0159023
718.967	0.0159664
719.045	0.0159052
719.123	0.0159453
719.201	0.0159696
719.280	0.0161285
719.358	0.0161958
719.436	0.0160659
719.514	0.0163318
719.592	0.0161711
719.670	0.0161393
719.748	0.0161996
719.826	0.0163179
719.905	0.0163223
719.983	0.0161215
720.061	0.0161489
720.139	0.0162614
720.217	0.0161476
720.295	0.0160559
720.373	0.0161123
720.451	0.0160040
720.530	0.0159457
720.608	0.0159261
720.686	0.0157612
720.764	0.0158412
720.842	0.0157265
720.920	0.0155533
720.998	0.0155976
721.076	0.0156398
721.155	0.0155821
721.233	0.0153573
721.311	0.0154266
721.389	0.0153228
721.467	0.0154341
721.545	0.0155046
721.623	0.0154514
721.701	0.0153009
721.780	0.0156030
721.858	0.0154733
721.936	0.0157205
722.014	0.0157770
722.092	0.0156340
722.170	0.0156244
722.248	0.0156924
722.326	0.0158139
722.405	0.0158224
722.483	0.0157535
722.561	0.0158594
722.639	0.0158825
722.717	0.0157399
722.795	0.0157677
722.873	0.0158814
722.951	0.0159467
723.030	0.0158897
723.108	0.0160616
723.186	0.0160663
723.264	0.0160043
723.342	0.0159010
723.420	0.0160587
723.498	0.0161948
723.576	0.0161180
723.655	0.0160249
723.733	0.0161434
723.811	0.0162125
723.889	0.0163057
723.967	0.0163254
724.045	0.0162732
724.123	0.0163971
724.201	0.0163291
724.280	0.0164299
724.358	0.0165278
724.436	0.0165460
724.514	0.0165981
724.592	0.0165856
724.670	0.0165232
724.748	0.0165277
724.826	0.0164122
724.905	0.0164330
724.983	0.0164084
725.061	0.0163926
725.139	0.0162989
725.217	0.0161411
725.295	0.0161616
725.373	0.0161954
725.451	0.0159397
725.530	0.0160430
725.608	0.0157619
725.686	0.0157005
725.764	0.0156863
725.842	0.0157394
725.920	0.0156731
725.998	0.0155759
726.076	0.0156439
726.155	0.0155802
726.233	0.0154746
726.311	0.0154890
726.389	0.0154836
726.467	0.0155169
726.545	0.0156203
726.623	0.0155765
726.701	0.0154057
726.780	0.0157294
726.858	0.0157398
726.936	0.0156499
727.014	0.0156666
727.092	0.0157792
727.170	0.0159278
727.248	0.0158768
727.326	0.0159392
727.405	0.0160359
727.483	0.0160368
727.561	0.0160995
727.639	0.0161187
727.717	0.0160850
727.795	0.0159695
727.873	0.0161704
727.951	0.0162517
728.030	0.0162130
728.108	0.0161355
728.186	0.0162080
728.264	0.0163570
728.342	0.0163226
728.420	0.0162318
728.498	0.0161314
728.576	0.0163383
728.655	0.0163176
728.733	0.0161478
728.811	0.0162861
728.889	0.0163516
728.967	0.0163164
729.045	0.0161655
729.123	0.0161478
729.201	0.0162692
729.280	0.0162331
729.358	0.0161810
729.436	0.0164021
729.514	0.0162375
729.592	0.0163189
729.670	0.0163055
729.748	0.0162231
729.826	0.0162540
729.905	0.0162101
729.983	0.0162959
730.061	0.0161899
730.139	0.0162531
730.217	0.0162775
730.295	0.0163779
730.373	0.0161516
730.451	0.0160966
730.530	0.0162976
730.608	0.0162523
730.686	0.0162011
730.764	0.0162030
730.842	0.0161769
730.920	0.0161047
730.998	0.0159592
731.076	0.0160381
731.155	0.0161208
731.233	0.0160423
731.311	0.0160942
731.389	0.0160349
731.467	0.0159007
731.545	0.0158919
731.623	0.0159612
731.701	0.0157908
731.780	0.0159814
731.858	0.0158599
731.936	0.0159045
732.014	0.0158266
732.092	0.0157050
732.170	0.0157280
732.248	0.0156656
732.326	0.0157335
732.405	0.0157527
732.483	0.0156820
732.561	0.0156988
732.639	0.0157468
732.717	0.0158642
732.795	0.0159035
732.873	0.0157693
732.951	0.0160081
733.030	0.0162029
733.108	0.0160119
733.186	0.0160669
733.264	0.0161145
733.342	0.0162432
733.420	0.0162373
733.498	0.0162842
733.576	0.0163326
733.655	0.0163253
733.733	0.0162795
733.811	0.0162682
733.889	0.0162630
733.967	0.0164059
734.045	0.0163109
734.123	0.0163063
734.201	0.0161075
734.280	0.0161798
734.358	0.0162360
734.436	0.0160535
734.514	0.0159835
734.592	0.0160000
734.670	0.0160013
734.748	0.0161089
734.826	0.0160783
734.905	0.0159750
734.983	0.0159325
735.061	0.0159002
735.139	0.0159945
735.217	0.0160800
735.295	0.0159483
735.373	0.0161717
735.451	0.0161129
735.530	0.0161260
735.608	0.0161714
735.686	0.0160040
735.764	0.0161037
735.842	0.0158765
735.920	0.0160897
735.998	0.0160553
736.076	0.0160156
736.155	0.0160317
736.233	0.0159138
736.311	0.0158858
736.389	0.0158682
736.467	0.0159539
736.545	0.0157970
736.623	0.0157174
736.701	0.0157632
736.780	0.0156607
736.858	0.0156098
736.936	0.0156294
737.014	0.0157403
737.092	0.0156382
737.170	0.0156570
737.248	0.0156480
737.326	0.0156326
737.405	0.0157324
737.483	0.0158627
737.561	0.0158784
737.639	0.0159416
737.717	0.0159903
737.795	0.0159547
737.873	0.0159222
737.951	0.0160491
738.030	0.0161024
738.108	0.0160940
738.186	0.0161540
738.264	0.0161568
738.342	0.0161921
738.420	0.0161373
738.498	0.0162786
738.576	0.0161812
738.655	0.0162089
738.733	0.0162056
738.811	0.0160732
738.889	0.0161304
738.967	0.0160730
739.045	0.0160816
739.123	0.0160808
739.201	0.0160256
739.280	0.0160000
739.358	0.0159216
739.436	0.0159547
739.514	0.0159484
739.592	0.0159136
739.670	0.0159153
739.748	0.0160237
739.826	0.0158848
739.905	0.0158287
739.983	0.0158978
740.061	0.0158727
740.139	0.0160508
740.217	0.0160253
740.295	0.0160236
740.373	0.0159588
740.451	0.0161031
740.530	0.0160374
740.608	0.0159691
740.686	0.0161795
740.764	0.0161613
740.842	0.0161514
740.920	0.0161167
740.998	0.0161037
741.076	0.0160970
741.155	0.0162003
741.233	0.0162572
741.311	0.0162021
741.389	0.0162457
741.467	0.0161650
741.545	0.0160750
741.623	0.0161614
741.701	0.0161271
741.780	0.0160017
741.858	0.0161131
741.936	0.0159379
742.014	0.0159623
742.092	0.0160393
742.170	0.0158226
742.248	0.0158897
742.326	0.0160751
742.405	0.0159598
742.483	0.0158708
742.561	0.0159181
742.639	0.0159928
742.717	0.0160432
742.795	0.0161279
742.873	0.0159534
742.951	0.0160246
743.030	0.0160548
743.108	0.0162255
743.186	0.0163452
743.264	0.0162406
743.342	0.0161913
743.420	0.0161992
743.498	0.0161263
743.576	0.0162768
743.655	0.0161418
743.733	0.0161245
743.811	0.0160001
743.889	0.0160628
743.967	0.0160123
744.045	0.0159052
744.123	0.0158518
744.201	0.0157642
744.280	0.0158536
744.358	0.0156277
744.436	0.0156000
744.514	0.0155634
744.592	0.0155527
744.670	0.0154150
744.748	0.0154669
744.826	0.0154697
744.905	0.0155894
744.983	0.0155902
745.061	0.0155875
745.139	0.0155341
745.217	0.0156827
745.295	0.0158469
745.373	0.0158755
745.451	0.0159874
745.530	0.0159747
745.608	0.0160963
745.686	0.0161066
745.764	0.0161812
745.842	0.0162667
745.920	0.0162386
745.998	0.0163808
746.076	0.0162628
746.155	0.0161817
746.233	0.0162379
746.311	0.0162797
746.389	0.0160395
746.467	0.0160391
746.545	0.0161420
746.623	0.0159808
746.701	0.0160115
746.780	0.0160341
746.858	0.0158691
746.936	0.0158474
747.014	0.0158305
747.092	0.0158619
747.170	0.0157928
747.248	0.0158705
747.326	0.0158294
747.405	0.0159330
747.483	0.0158099
747.561	0.0157498
747.639	0.0158039
747.717	0.0157968
747.795	0.0159756
747.873	0.0158332
747.951	0.0158844
748.030	0.0159566
748.108	0.0160890
748.186	0.0160717
748.264	0.0159117
748.342	0.0161233
748.420	0.0160680
748.498	0.0161854
748.576	0.0161046
748.655	0.0161466
748.733	0.0162891
748.811	0.0162505
748.889	0.0162206
748.967	0.0163654
749.045	0.0163409
749.123	0.0162817
749.201	0.0163935
749.280	0.0164291
749.358	0.0163931
749.436	0.0163556
749.514	0.0164790
749.592	0.0162627
749.670	0.0163913
749.748	0.0163760
749.826	0.0162973
749.905	0.0163326
749.983	0.0160786
750.061	0.0161954
750.139	0.0161170
750.217	0.0160448
750.295	0.0162072
750.373	0.0161086
750.451	0.0160824
750.530	0.0161426
750.608	0.0161429
750.686	0.0161369
750.764	0.0161250
750.842	0.0161190
750.920	0.0160638
750.998	0.0162600
751.076	0.0162266
751.155	0.0162831
751.233	0.0162982
751.311	0.0162804
751.389	0.0163461
751.467	0.0162507
751.545	0.0163307
751.623	0.0161866
751.701	0.0161279
751.780	0.0161255
751.858	0.0161506
751.936	0.0160634
752.014	0.0160078
752.092	0.0160721
752.170	0.0158553
752.248	0.0157979
752.326	0.0158624
752.405	0.0157189
752.483	0.0157854
752.561	0.0158638
752.639	0.0157483
752.717	0.0155606
752.795	0.0158255
752.873	0.0159747
752.951	0.0159689
753.030	0.0158797
753.108	0.0159061
753.186	0.0158920
753.264	0.0159567
753.342	0.0160586
753.420	0.0163060
753.498	0.0162056
753.576	0.0161760
753.655	0.0162991
753.733	0.0162848
753.811	0.0162030
753.889	0.0161713
753.967	0.0161666
754.045	0.0161631
754.123	0.0160703
754.201	0.0161193
754.280	0.0160242
754.358	0.0157254
754.436	0.0158924
754.514	0.0158309
754.592	0.0158374
754.670	0.0157103
754.748	0.0155871
754.826	0.0156316
754.905	0.0155724
754.983	0.0156806
755.061	0.0156619
755.139	0.0155794
755.217	0.0154732
755.295	0.0155412
755.373	0.0155579
755.451	0.0155891
755.530	0.0156333
755.608	0.0156041
755.686	0.0155296
755.764	0.0156960
755.842	0.0157397
755.920	0.0157051
755.998	0.0157755
756.076	0.0158028
756.155	0.0157673
756.233	0.0157661
756.311	0.0158454
756.389	0.0159092
756.467	0.0158360
756.545	0.0158330
756.623	0.0160362
756.701	0.0160142
756.780	0.0159527
756.858	0.0159033
756.936	0.0160392
757.014	0.0160663
757.092	0.0160175
757.170	0.0160484
757.248	0.0159931
757.326	0.0160277
757.405	0.0159901
757.483	0.0161871
757.561	0.0160435
757.639	0.0159284
757.717	0.0159723
757.795	0.0160215
757.873	0.0159932
757.951	0.0158496
758.030	0.0158826
758.108	0.0158302
758.186	0.0158014
758.264	0.0157997
758.342	0.0157480
758.420	0.0158387
758.498	0.0157980
758.576	0.0157361
758.655	0.0157912
758.733	0.0158485
758.811	0.0157520
758.889	0.0159184
758.967	0.0158775
759.045	0.0157751
759.123	0.0159538
759.201	0.0159936
759.280	0.0160592
759.358	0.0160622
759.436	0.0159853
759.514	0.0160356
759.592	0.0159457
759.670	0.0160494
759.748	0.0159856
759.826	0.0158941
759.905	0.0159142
759.983	0.0158666
760.061	0.0159103
760.139	0.0158228
760.217	0.0158162
760.295	0.0156210
760.373	0.0156682
760.451	0.0157741
760.530	0.0156800
760.608	0.0158008
760.686	0.0157732
760.764	0.0156409
760.842	0.0158504
760.920	0.0158905
760.998	0.0159903
761.076	0.0161411
761.155	0.0161744
761.233	0.0161237
761.311	0.0162056
761.389	0.0162459
761.467	0.0162353
761.545	0.0162122
761.623	0.0162096
761.701	0.0162944
761.780	0.0163015
761.858	0.0161755
761.936	0.0161636
762.014	0.0161340
762.092	0.0159878
762.170	0.0158938
762.248	0.0158931
762.326	0.0159013
762.405	0.0156475
762.483	0.0157817
762.561	0.0156966
762.639	0.0157431
762.717	0.0156592
762.795	0.0156870
762.873	0.0157601
762.951	0.0156788
763.030	0.0159319
763.108	0.0159108
763.186	0.0159412
763.264	0.0160500
763.342	0.0160876
763.420	0.0162325
763.498	0.0163006
763.576	0.0161871
763.655	0.0164114
763.733	0.0163491
763.811	0.0165563
763.889	0.0166409
763.967	0.0166154
764.045	0.0165743
764.123	0.0166267
764.201	0.0165617
764.280	0.0164412
764.358	0.0165215
764.436	0.0166130
764.514	0.0166334
764.592	0.0164945
764.670	0.0163969
764.748	0.0164876
764.826	0.0162850
764.905	0.0163152
764.983	0.0163103
765.061	0.0161372
765.139	0.0161839
765.217	0.0159508
765.295	0.0160439
765.373	0.0160125
765.451	0.0160035
765.530	0.0158952
765.608	0.0158257
765.686	0.0158181
765.764	0.0157861
765.842	0.0157336
765.920	0.0156458
765.998	0.0157610
766.076	0.0156752
766.155	0.0156174
766.233	0.0157400
766.311	0.0156400
766.389	0.0155157
766.467	0.0158504
766.545	0.0158360
766.623	0.0157673
766.701	0.0159362
766.780	0.0158929
766.858	0.0158648
766.936	0.0161919
767.014	0.0160568
767.092	0.0162032
767.170	0.0161827
767.248	0.0162103
767.326	0.0163087
767.405	0.0162977
767.483	0.0160890
767.561	0.0163454
767.639	0.0162691
767.717	0.0162684
767.795	0.0163902
767.873	0.0162569
767.951	0.0161456
768.030	0.0160609
768.108	0.0160461
768.186	0.0161411
768.264	0.0160303
768.342	0.0159242
768.420	0.0159735
768.498	0.0158808
768.576	0.0156782
768.655	0.0159239
768.733	0.0158387
768.811	0.0158308
768.889	0.0156942
768.967	0.0157741
769.045	0.0158129
769.123	0.0159628
769.201	0.0157846
769.280	0.0158389
769.358	0.0158334
769.436	0.0159328
769.514	0.0159225
769.592	0.0159193
769.670	0.0159287
769.748	0.0157885
769.826	0.0158452
769.905	0.0159564
769.983	0.0158844
770.061	0.0158191
770.139	0.0158057
770.217	0.0157767
770.295	0.0156280
770.373	0.0159033
770.451	0.0157980
770.530	0.0157114
770.608	0.0158433
770.686	0.0159169
770.764	0.0158907
770.842	0.0159222
770.920	0.0158330
770.998	0.0160463
771.076	0.0160421
771.155	0.0160287
771.233	0.0160810
771.311	0.0161719
771.389	0.0162319
771.467	0.0162822
771.545	0.0162240
771.623	0.0162173
771.701	0.0163431
771.780	0.0163467
771.858	0.0161422
771.936	0.0162568
772.014	0.0162718
772.092	0.0162505
772.170	0.0161971
772.248	0.0162587
772.326	0.0160573
772.405	0.0161989
772.483	0.0162247
772.561	0.0160056
772.639	0.0160544
772.717	0.0161289
772.795	0.0161388
772.873	0.0161123
772.951	0.0161308
773.030	0.0161884
773.108	0.0161662
773.186	0.0162575
773.264	0.0161827
773.342	0.0161504
773.420	0.0162933
773.498	0.0163310
773.576	0.0162542
773.655	0.0162669
773.733	0.0162288
773.811	0.0161738
773.889	0.0160967
773.967	0.0162638
774.045	0.0159989
774.123	0.0158537
774.201	0.0159686
774.280	0.0159692
774.358	0.0158839
774.436	0.0159351
774.514	0.0159367
774.592	0.0159474
774.670	0.0158016
774.748	0.0159683
774.826	0.0160947
774.905	0.0159229
774.983	0.0159071
775.061	0.0160118
775.139	0.0160665
775.217	0.0161225
775.295	0.0160997
775.373	0.0160493
775.451	0.0162251
775.530	0.0160783
775.608	0.0158316
775.686	0.0159676
775.764	0.0160497
775.842	0.0160570
775.920	0.0159503
775.998	0.0159724
776.076	0.0159769
776.155	0.0158466
776.233	0.0158276
776.311	0.0158150
776.389	0.0159674
776.467	0.0157473
776.545	0.0158407
776.623	0.0158578
776.701	0.0159029
776.780	0.0159852
776.858	0.0159480
776.936	0.0158567
777.014	0.0159519
777.092	0.0161567
777.170	0.0158920
777.248	0.0159307
777.326	0.0160889
777.405	0.0160829
777.483	0.0160091
777.561	0.0160171
777.639	0.0161720
777.717	0.0158791
777.795	0.0160213
777.873	0.0159996
777.951	0.0160152
778.030	0.0158782
778.108	0.0160007
778.186	0.0160197
778.264	0.0159767
778.342	0.0159632
778.420	0.0159309
778.498	0.0160773
778.576	0.0160674
778.655	0.0158812
778.733	0.0158633
778.811	0.0160131
778.889	0.0159814
778.967	0.0158854
779.045	0.0158843
779.123	0.0158527
779.201	0.0161169
779.280	0.0159022
779.358	0.0160156
779.436	0.0159999
779.514	0.0158382
779.592	0.0159646
779.670	0.0158907
779.748	0.0158577
779.826	0.0158252
779.905	0.0159490
779.983	0.0159077
780.061	0.0157880
780.139	0.0158183
780.217	0.0159192
780.295	0.0159071
780.373	0.0158848
780.451	0.0158981
780.530	0.0159777
780.608	0.0157861
780.686	0.0158213
780.764	0.0159666
780.842	0.0159289
780.920	0.0159351
780.998	0.0158021
781.076	0.0159365
781.155	0.0159582
781.233	0.0160036
781.311	0.0159289
781.389	0.0158805
781.467	0.0159109
781.545	0.0159338
781.623	0.0159093
781.701	0.0158861
781.780	0.0159813
781.858	0.0159354
781.936	0.0159015
782.014	0.0160070
782.092	0.0159616
782.170	0.0160179
782.248	0.0159521
782.326	0.0159993
782.405	0.0159917
782.483	0.0161130
782.561	0.0160707
782.639	0.0159574
782.717	0.0160728
782.795	0.0158819
782.873	0.0159705
782.951	0.0160205
783.030	0.0160754
783.108	0.0161588
783.186	0.0161546
783.264	0.0160220
783.342	0.0160345
783.420	0.0159869
783.498	0.0160463
783.576	0.0160152
783.655	0.0162091
783.733	0.0160543
783.811	0.0159760
783.889	0.0160738
783.967	0.0160188
784.045	0.0160006
784.123	0.0161335
784.201	0.0160047
784.280	0.0159932
784.358	0.0160320
784.436	0.0158819
784.514	0.0160394
784.592	0.0160340
784.670	0.0159339
784.748	0.0161147
784.826	0.0160526
784.905	0.0160260
784.983	0.0159949
785.061	0.0159125
785.139	0.0160007
785.217	0.0158734
785.295	0.0158755
785.373	0.0158940
785.451	0.0157551
785.530	0.0159296
785.608	0.0158553
785.686	0.0158954
785.764	0.0158424
785.842	0.0156714
785.920	0.0158265
785.998	0.0157718
786.076	0.0158423
786.155	0.0157756
786.233	0.0157674
786.311	0.0158390
786.389	0.0159296
786.467	0.0159237
786.545	0.0160083
786.623	0.0158761
786.701	0.0159741
786.780	0.0159629
786.858	0.0161813
786.936	0.0160512
787.014	0.0160870
787.092	0.0161272
787.170	0.0160495
787.248	0.0160499
787.326	0.0161063
787.405	0.0161648
787.483	0.0161362
787.561	0.0160677
787.639	0.0160606
787.717	0.0162475
787.795	0.0160763
787.873	0.0160019
787.951	0.0160813
788.030	0.0159795
788.108	0.0161074
788.186	0.0161040
788.264	0.0159214
788.342	0.0161084
788.420	0.0162533
788.498	0.0160352
788.576	0.0161002
788.655	0.0161902
788.733	0.0161391
788.811	0.0161973
788.889	0.0160945
788.967	0.0161088
789.045	0.0161570
789.123	0.0159468
789.201	0.0160296
789.280	0.0160228
789.358	0.0161107
789.436	0.0158904
789.514	0.0158334
789.592	0.0159890
789.670	0.0159794
789.748	0.0160748
789.826	0.0161744
789.905	0.0160928
789.983	0.0160775
790.061	0.0160410
790.139	0.0161671
790.217	0.0161455
790.295	0.0160556
790.373	0.0163098
790.451	0.0163373
790.530	0.0162608
790.608	0.0164613
790.686	0.0164114
790.764	0.0162160
790.842	0.0163160
790.920	0.0164487
790.998	0.0163823
791.076	0.0161739
791.155	0.0161559
791.233	0.0162213
791.311	0.0162661
791.389	0.0161430
791.467	0.0162250
791.545	0.0160556
791.623	0.0160849
791.701	0.0160655
791.780	0.0158990
791.858	0.0159312
791.936	0.0162287
792.014	0.0159806
792.092	0.0158541
792.170	0.0159947
792.248	0.0159961
792.326	0.0159321
792.405	0.0158184
792.483	0.0160539
792.561	0.0161057
792.639	0.0160757
792.717	0.0159225
792.795	0.0159794
792.873	0.0158749
792.951	0.0159038
793.030	0.0158390
793.108	0.0158021
793.186	0.0158511
793.264	0.0157628
793.342	0.0157462
793.420	0.0156357
793.498	0.0156617
793.576	0.0157013
793.655	0.0156419
793.733	0.0156686
793.811	0.0156898
793.889	0.0157584
793.967	0.0157861
794.045	0.0157301
794.123	0.0157359
794.201	0.0158527
794.280	0.0158882
794.358	0.0158432
794.436	0.0159698
794.514	0.0160550
794.592	0.0160382
794.670	0.0161043
794.748	0.0160928
794.826	0.0161670
794.905	0.0162687
794.983	0.0162873
795.061	0.0163583
795.139	0.0161626
795.217	0.0162874
795.295	0.0164330
795.373	0.0164525
795.451	0.0162983
795.530	0.0162934
795.608	0.0163109
795.686	0.0162661
795.764	0.0162740
795.842	0.0163268
795.920	0.0164461
795.998	0.0163717
796.076	0.0164188
796.155	0.0164639
796.233	0.0163679
796.311	0.0164419
796.389	0.0163890
796.467	0.0164561
796.545	0.0164928
796.623	0.0163297
796.701	0.0164405
796.780	0.0163585
796.858	0.0162591
796.936	0.0162062
797.014	0.0162296
797.092	0.0163623
797.170	0.0162025
797.248	0.0160847
797.326	0.0161073
797.405	0.0161339
797.483	0.0159592
797.561	0.0160477
797.639	0.0159525
797.717	0.0158649
797.795	0.0159354
797.873	0.0158595
797.951	0.0158429
798.030	0.0161104
798.108	0.0160497
798.186	0.0159055
798.264	0.0160590
798.342	0.0159596
798.420	0.0160764
798.498	0.0160762
798.576	0.0160089
798.655	0.0160648
798.733	0.0159327
798.811	0.0159011
798.889	0.0160522
798.967	0.0159325
799.045	0.0158906
799.123	0.0158440
799.201	0.0159787
799.280	0.0158140
799.358	0.0158538
799.436	0.0157450
799.514	0.0156773
799.592	0.0157333
799.670	0.0156045
799.748	0.0158061
799.826	0.0155991
799.905	0.0156026
799.983	0.0157557
800.061	0.0157486
800.139	0.0155745
800.217	0.0157458
800.295	0.0157829
800.373	0.0156908
800.451	0.0158265
800.530	0.0159072
800.608	0.0157238
800.686	0.0158938
800.764	0.0159418
800.842	0.0159196
800.920	0.0159279
800.998	0.0159698
801.076	0.0159559
801.155	0.0161298
801.233	0.0159962
801.311	0.0158836
801.389	0.0160674
801.467	0.0160732
801.545	0.0162287
801.623	0.0161900
801.701	0.0162243
801.780	0.0160906
801.858	0.0161331
801.936	0.0162178
802.014	0.0161710
802.092	0.0161708
802.170	0.0161279
802.248	0.0162399
802.326	0.0162110
802.405	0.0161439
802.483	0.0162940
802.561	0.0162783
802.639	0.0163071
802.717	0.0161573
802.795	0.0162525
802.873	0.0162555
802.951	0.0162808
803.030	0.0161658
803.108	0.0161731
803.186	0.0161417
803.264	0.0162099
803.342	0.0161745
803.420	0.0160576
803.498	0.0161128
803.576	0.0161196
803.655	0.0160778
803.733	0.0161032
803.811	0.0160604
803.889	0.0161246
803.967	0.0160774
804.045	0.0160664
804.123	0.0160412
804.201	0.0159624
804.280	0.0160600
804.358	0.0160562
804.436	0.0159570
804.514	0.0159525
804.592	0.0160188
804.670	0.0158968
804.748	0.0160864
804.826	0.0158081
804.905	0.0159367
804.983	0.0159307
805.061	0.0160267
805.139	0.0159090
805.217	0.0159441
805.295	0.0159430
805.373	0.0159361
805.451	0.0159511
805.530	0.0159023
805.608	0.0158382
805.686	0.0157684
805.764	0.0159863
805.842	0.0159677
805.920	0.0159373
805.998	0.0158309
806.076	0.0160491
806.155	0.0160732
806.233	0.0159296
806.311	0.0160776
806.389	0.0160899
806.467	0.0162832
806.545	0.0161880
806.623	0.0161887
806.701	0.0163068
806.780	0.0163606
806.858	0.0163102
806.936	0.0165165
807.014	0.0163335
807.092	0.0163995
807.170	0.0164783
807.248	0.0163625
807.326	0.0163550
807.405	0.0163548
807.483	0.0164545
807.561	0.0163183
807.639	0.0162433
807.717	0.0162310
807.795	0.0161321
807.873	0.0161436
807.951	0.0162718
808.030	0.0162286
808.108	0.0162746
808.186	0.0162939
808.264	0.0164349
808.342	0.0163391
808.420	0.0161600
808.498	0.0162126
808.576	0.0163625
808.655	0.0163184
808.733	0.0162948
808.811	0.0161915
808.889	0.0162096
808.967	0.0163194
809.045	0.0163808
809.123	0.0160941
809.201	0.0160797
809.280	0.0159624
809.358	0.0160278
809.436	0.0160719
809.514	0.0160902
809.592	0.0160717
809.670	0.0160682
809.748	0.0159142
809.826	0.0160359
809.905	0.0160190
809.983	0.0160230
810.061	0.0159501
810.139	0.0159165
810.217	0.0159236
810.295	0.0158683
810.373	0.0159895
810.451	0.0160345
810.530	0.0160283
810.608	0.0161113
810.686	0.0160535
810.764	0.0158466
810.842	0.0160639
810.920	0.0160187
810.998	0.0159634
811.076	0.0160130
811.155	0.0160809
811.233	0.0161253
811.311	0.0160848
811.389	0.0159995
811.467	0.0159422
811.545	0.0158773
811.623	0.0160241
811.701	0.0160536
811.780	0.0158631
811.858	0.0160676
811.936	0.0159740
812.014	0.0159011
812.092	0.0159818
812.170	0.0160181
812.248	0.0160101
812.326	0.0159664
812.405	0.0160922
812.483	0.0161808
812.561	0.0160488
812.639	0.0161167
812.717	0.0160411
812.795	0.0160444
812.873	0.0161506
812.951	0.0160338
813.030	0.0161846
813.108	0.0161015
813.186	0.0161636
813.264	0.0160510
813.342	0.0161379
813.420	0.0161633
813.498	0.0160878
813.576	0.0161411
813.655	0.0159358
813.733	0.0159600
813.811	0.0160838
813.889	0.0159402
813.967	0.0159935
814.045	0.0159229
814.123	0.0160552
814.201	0.0160227
814.280	0.0160329
814.358	0.0159315
814.436	0.0159569
814.514	0.0159356
814.592	0.0159545
814.670	0.0159723
814.748	0.0158642
814.826	0.0160164
814.905	0.0159254
814.983	0.0158855
815.061	0.0159783
815.139	0.0157572
815.217	0.0157037
815.295	0.0158590
815.373	0.0158291
815.451	0.0158115
815.530	0.0157793
815.608	0.0156341
815.686	0.0157153
815.764	0.0157765
815.842	0.0157074
815.920	0.0155393
815.998	0.0156190
816.076	0.0156462
816.155	0.0157231
816.233	0.0157425
816.311	0.0158171
816.389	0.0157194
816.467	0.0156668
816.545	0.0157232
816.623	0.0158134
816.701	0.0159341
816.780	0.0157812
816.858	0.0158865
816.936	0.0159031
817.014	0.0158759
817.092	0.0159547
817.170	0.0159481
817.248	0.0159156
817.326	0.0159151
817.405	0.0158200
817.483	0.0159299
817.561	0.0159761
817.639	0.0159109
817.717	0.0158678
817.795	0.0159007
817.873	0.0160066
817.951	0.0160186
818.030	0.0160638
818.108	0.0158443
818.186	0.0159875
818.264	0.0159747
818.342	0.0160068
818.420	0.0160295
818.498	0.0160117
818.576	0.0161015
818.655	0.0160500
818.733	0.0159561
818.811	0.0162798
818.889	0.0161968
818.967	0.0161661
819.045	0.0160175
819.123	0.0161292
819.201	0.0162051
819.280	0.0161806
819.358	0.0161578
819.436	0.0161956
819.514	0.0161658
819.592	0.0161765
819.670	0.0160847
819.748	0.0161111
819.826	0.0161177
819.905	0.0161021
819.983	0.0159983
820.061	0.0159781
820.139	0.0160507
820.217	0.0160146
820.295	0.0160207
820.373	0.0159241
820.451	0.0159934
820.530	0.0160382
820.608	0.0158999
820.686	0.0158703
820.764	0.0159369
820.842	0.0159359
820.920	0.0158430
820.998	0.0157772
821.076	0.0158935
821.155	0.0160375
821.233	0.0159475
821.311	0.0159042
821.389	0.0160106
821.467	0.0159444
821.545	0.0160131
821.623	0.0159782
821.701	0.0160567
821.780	0.0161493
821.858	0.0159716
821.936	0.0161531
822.014	0.0160608
822.092	0.0159847
822.170	0.0159137
822.248	0.0159426
822.326	0.0161078
822.405	0.0160106
822.483	0.0160530
822.561	0.0160544
822.639	0.0159903
822.717	0.0158543
822.795	0.0160332
822.873	0.0161298
822.951	0.0159953
823.030	0.0159778
823.108	0.0160891
823.186	0.0159628
823.264	0.0160227
823.342	0.0160538
823.420	0.0160168
823.498	0.0160345
823.576	0.0158822
823.655	0.0159867
823.733	0.0160808
823.811	0.0159687
823.889	0.0159942
823.967	0.0160423
824.045	0.0160267
824.123	0.0159003
824.201	0.0159279
824.280	0.0158567
824.358	0.0159043
824.436	0.0160354
824.514	0.0159096
824.592	0.0159613
824.670	0.0159502
824.748	0.0158658
824.826	0.0159402
824.905	0.0159996
824.983	0.0160442
825.061	0.0158904
825.139	0.0158968
825.217	0.0159978
825.295	0.0159429
825.373	0.0159224
825.451	0.0159647
825.530	0.0159861
825.608	0.0160374
825.686	0.0161345
825.764	0.0159872
825.842	0.0160770
825.920	0.0162206
825.998	0.0163792
826.076	0.0162166
826.155	0.0163041
826.233	0.0163503
826.311	0.0162930
826.389	0.0162019
826.467	0.0164055
826.545	0.0164503
826.623	0.0164807
826.701	0.0165956
826.780	0.0164772
826.858	0.0163853
826.936	0.0163692
827.014	0.0165763
827.092	0.0163592
827.170	0.0162485
827.248	0.0163699
827.326	0.0163049
827.405	0.0162932
827.483	0.0163129
827.561	0.0163239
827.639	0.0162469
827.717	0.0161814
827.795	0.0161108
827.873	0.0162292
827.951	0.0161324
828.030	0.0161314
828.108	0.0162035
828.186	0.0160365
828.264	0.0160584
828.342	0.0162148
828.420	0.0162013
828.498	0.0160459
828.576	0.0161375
828.655	0.0161084
828.733	0.0160428
828.811	0.0161404
828.889	0.0159769
828.967	0.0161407
829.045	0.0160294
829.123	0.0161868
829.201	0.0160471
829.280	0.0160267
829.358	0.0160014
829.436	0.0160253
829.514	0.0160548
829.592	0.0160770
829.670	0.0160936
829.748	0.0160844
829.826	0.0161154
829.905	0.0160879
829.983	0.0161129
830.061	0.0161185
830.139	0.0162145
830.217	0.0162367
830.295	0.0161689
830.373	0.0162231
830.451	0.0159988
830.530	0.0162303
830.608	0.0163021
830.686	0.0161543
830.764	0.0162476
830.842	0.0162608
830.920	0.0162239
830.998	0.0163792
831.076	0.0162993
831.155	0.0163331
831.233	0.0163233
831.311	0.0161752
831.389	0.0162858
831.467	0.0162207
831.545	0.0161674
831.623	0.0161393
831.701	0.0160285
831.780	0.0161484
831.858	0.0160023
831.936	0.0159213
832.014	0.0160012
832.092	0.0159796
832.170	0.0159245
832.248	0.0160790
832.326	0.0160641
832.405	0.0158537
832.483	0.0158857
832.561	0.0160140
832.639	0.0159872
832.717	0.0160077
832.795	0.0159050
832.873	0.0161782
832.951	0.0160076
833.030	0.0159351
833.108	0.0161025
833.186	0.0161295
833.264	0.0160230
833.342	0.0161945
833.420	0.0159454
833.498	0.0159030
833.576	0.0159492
833.655	0.0159840
833.733	0.0160186
833.811	0.0159274
833.889	0.0158995
833.967	0.0158626
834.045	0.0159888
834.123	0.0160022
834.201	0.0160613
834.280	0.0158852
834.358	0.0159624
834.436	0.0159209
834.514	0.0159912
834.592	0.0158837
834.670	0.0158328
834.748	0.0159772
834.826	0.0160813
834.905	0.0160494
834.983	0.0160419
835.061	0.0159299
835.139	0.0159206
835.217	0.0160106
835.295	0.0158689
835.373	0.0158761
835.451	0.0158369
835.530	0.0158558
835.608	0.0159308
835.686	0.0157464
835.764	0.0158516
835.842	0.0158599
835.920	0.0157448
835.998	0.0157274
836.076	0.0157745
836.155	0.0157806
836.233	0.0157533
836.311	0.0159245
836.389	0.0157439
836.467	0.0156141
836.545	0.0156254
836.623	0.0158200
836.701	0.0158579
836.780	0.0157196
836.858	0.0158342
836.936	0.0157473
837.014	0.0157103
837.092	0.0156474
837.170	0.0158002
837.248	0.0159427
837.326	0.0157830
837.405	0.0158664
837.483	0.0159347
837.561	0.0159096
837.639	0.0158957
837.717	0.0158804
837.795	0.0158345
837.873	0.0158344
837.951	0.0158327
838.030	0.0159024
838.108	0.0159338
838.186	0.0160561
838.264	0.0160860
838.342	0.0160789
838.420	0.0160979
838.498	0.0160291
838.576	0.0160448
838.655	0.0159921
838.733	0.0159125
838.811	0.0158234
838.889	0.0159201
838.967	0.0158156
839.045	0.0157967
839.123	0.0157523
839.201	0.0158991
839.280	0.0158105
839.358	0.0158091
839.436	0.0157114
839.514	0.0157248
839.592	0.0157211
839.670	0.0158143
839.748	0.0157224
839.826	0.0158189
839.905	0.0157749
839.983	0.0158674
840.061	0.0158412
840.139	0.0157413
840.217	0.0156680
840.295	0.0158218
840.373	0.0157966
840.451	0.0157815
840.530	0.0157011
840.608	0.0158353
840.686	0.0158602
840.764	0.0157932
840.842	0.0157861
840.920	0.0157484
840.998	0.0158426
841.076	0.0158318
841.155	0.0158487
841.233	0.0159130
841.311	0.0156602
841.389	0.0156370
841.467	0.0158279
841.545	0.0158848
841.623	0.0160064
841.701	0.0160523
841.780	0.0159628
841.858	0.0158736
841.936	0.0160345
842.014	0.0161990
842.092	0.0160973
842.170	0.0160819
842.248	0.0160242
842.326	0.0162206
842.405	0.0162128
842.483	0.0162716
842.561	0.0162533
842.639	0.0163242
842.717	0.0164066
842.795	0.0164213
842.873	0.0163267
842.951	0.0163228
843.030	0.0162938
843.108	0.0164536
843.186	0.0164840
843.264	0.0163960
843.342	0.0162356
843.420	0.0162357
843.498	0.0163419
843.576	0.0164449
843.655	0.0161994
843.733	0.0163215
843.811	0.0163054
843.889	0.0162215
843.967	0.0160512
844.045	0.0159607
844.123	0.0160455
844.201	0.0159949
844.280	0.0160610
844.358	0.0159556
844.436	0.0159983
844.514	0.0159548
844.592	0.0159019
844.670	0.0158868
844.748	0.0160419
844.826	0.0159280
844.905	0.0159584
844.983	0.0159296
845.061	0.0159850
845.139	0.0159411
845.217	0.0158427
845.295	0.0160315
845.373	0.0159158
845.451	0.0160015
845.530	0.0159343
845.608	0.0159442
845.686	0.0159557
845.764	0.0158846
845.842	0.0158292
845.920	0.0158886
845.998	0.0158806
846.076	0.0158398
846.155	0.0158762
846.233	0.0158897
846.311	0.0159369
846.389	0.0158982
846.467	0.0158159
846.545	0.0157685
846.623	0.0159854
846.701	0.0159683
846.780	0.0159788
846.858	0.0160261
846.936	0.0159269
847.014	0.0158949
847.092	0.0160196
847.170	0.0159044
847.248	0.0159678
847.326	0.0159531
847.405	0.0159004
847.483	0.0160781
847.561	0.0158892
847.639	0.0159265
847.717	0.0159566
847.795	0.0159879
847.873	0.0158452
847.951	0.0159389
848.030	0.0161209
848.108	0.0159730
848.186	0.0158595
848.264	0.0159412
848.342	0.0161083
848.420	0.0160484
848.498	0.0159895
848.576	0.0161105
848.655	0.0158997
848.733	0.0158804
848.811	0.0161546
848.889	0.0161568
848.967	0.0161682
849.045	0.0161694
849.123	0.0161605
849.201	0.0160984
849.280	0.0161195
849.358	0.0160294
849.436	0.0162014
849.514	0.0161522
849.592	0.0160931
849.670	0.0160388
849.748	0.0160502
849.826	0.0161518
849.905	0.0161358
849.983	0.0160992
850.061	0.0162281
850.139	0.0161680
850.217	0.0162774
850.295	0.0162849
850.373	0.0162491
850.451	0.0162254
850.530	0.0162975
850.608	0.0162070
850.686	0.0162727
850.764	0.0163014
850.842	0.0163013
850.920	0.0163606
850.998	0.0163625
851.076	0.0161672
851.155	0.0160865
851.233	0.0161558
851.311	0.0161996
851.389	0.0161706
851.467	0.0161733
851.545	0.0160473
851.623	0.0160538
851.701	0.0158898
851.780	0.0159647
851.858	0.0160188
851.936	0.0160963
852.014	0.0160182
852.092	0.0160178
852.170	0.0160873
852.248	0.0158746
852.326	0.0160345
852.405	0.0159631
852.483	0.0159362
852.561	0.0159995
852.639	0.0158450
852.717	0.0159385
852.795	0.0158947
852.873	0.0158398
852.951	0.0159308
853.030	0.0160297
853.108	0.0159977
853.186	0.0161402
853.264	0.0160843
853.342	0.0161207
853.420	0.0160566
853.498	0.0161070
853.576	0.0161306
853.655	0.0160078
853.733	0.0160999
853.811	0.0162065
853.889	0.0160936
853.967	0.0160406
854.045	0.0160642
854.123	0.0161854
854.201	0.0162469
854.280	0.0160229
854.358	0.0160053
854.436	0.0161511
854.514	0.0160426
854.592	0.0161133
854.670	0.0161079
854.748	0.0161033
854.826	0.0161253
854.905	0.0160918
854.983	0.0161809
855.061	0.0162023
855.139	0.0160697
855.217	0.0161081
855.295	0.0161472
855.373	0.0161614
855.451	0.0159051
855.530	0.0159994
855.608	0.0160866
855.686	0.0160435
855.764	0.0161006
855.842	0.0159305
855.920	0.0159398
855.998	0.0158522
856.076	0.0160324
856.155	0.0159483
856.233	0.0158765
856.311	0.0157967
856.389	0.0157594
856.467	0.0159219
856.545	0.0157596
856.623	0.0156794
856.701	0.0158289
856.780	0.0158380
856.858	0.0157349
856.936	0.0157690
857.014	0.0157150
857.092	0.0156566
857.170	0.0158286
857.248	0.0156602
857.326	0.0155646
857.405	0.0157446
857.483	0.0157984
857.561	0.0155998
857.639	0.0155817
857.717	0.0156734
857.795	0.0156411
857.873	0.0157800
857.951	0.0156925
858.030	0.0156760
858.108	0.0159382
858.186	0.0158922
858.264	0.0158826
858.342	0.0159576
858.420	0.0158768
858.498	0.0159632
858.576	0.0160469
858.655	0.0159566
858.733	0.0160529
858.811	0.0159602
858.889	0.0159165
858.967	0.0159615
859.045	0.0159277
859.123	0.0160610
859.201	0.0159750
859.280	0.0158643
859.358	0.0158781
859.436	0.0158229
859.514	0.0158839
859.592	0.0157616
859.670	0.0158493
859.748	0.0157644
859.826	0.0158984
859.905	0.0156501
859.983	0.0156866
860.061	0.0158134
860.139	0.0158884
860.217	0.0157523
860.295	0.0158273
860.373	0.0158639
860.451	0.0158043
860.530	0.0157880
860.608	0.0158192
860.686	0.0159878
860.764	0.0160163
860.842	0.0157844
860.920	0.0161723
860.998	0.0160115
861.076	0.0159168
861.155	0.0160765
861.233	0.0160563
861.311	0.0160211
861.389	0.0160054
861.467	0.0160691
861.545	0.0160625
861.623	0.0161786
861.701	0.0161951
861.780	0.0161080
861.858	0.0162185
861.936	0.0162260
862.014	0.0162033
862.092	0.0162311
862.170	0.0161930
862.248	0.0163100
862.326	0.0162008
862.405	0.0160330
862.483	0.0161885
862.561	0.0162280
862.639	0.0161108
862.717	0.0161794
862.795	0.0161659
862.873	0.0161013
862.951	0.0161014
863.030	0.0160770
863.108	0.0159438
863.186	0.0158360
863.264	0.0159543
863.342	0.0158181
863.420	0.0158178
863.498	0.0157706
863.576	0.0159225
863.655	0.0160532
863.733	0.0158096
863.811	0.0158036
863.889	0.0158636
863.967	0.0158551
864.045	0.0159407
864.123	0.0159070
864.201	0.0158613
864.280	0.0158545
864.358	0.0158578
864.436	0.0159147
864.514	0.0158815
864.592	0.0160635
864.670	0.0159804
864.748	0.0159708
864.826	0.0159028
864.905	0.0160706
864.983	0.0160461
865.061	0.0160516
865.139	0.0161339
865.217	0.0161555
865.295	0.0161759
865.373	0.0162933
865.451	0.0161542
865.530	0.0163345
865.608	0.0162744
865.686	0.0161586
865.764	0.0162406
865.842	0.0162164
865.920	0.0162301
865.998	0.0163625
866.076	0.0162066
866.155	0.0162294
866.233	0.0160764
866.311	0.0161600
866.389	0.0161365
866.467	0.0161072
866.545	0.0161208
866.623	0.0160665
866.701	0.0162054
866.780	0.0159399
866.858	0.0160831
866.936	0.0161504
867.014	0.0160966
867.092	0.0160219
867.170	0.0160717
867.248	0.0157749
867.326	0.0159089
867.405	0.0161186
867.483	0.0160860
867.561	0.0161183
867.639	0.0159422
867.717	0.0159563
867.795	0.0160355
867.873	0.0159226
867.951	0.0159106
868.030	0.0160271
868.108	0.0159442
868.186	0.0159421
868.264	0.0160693
868.342	0.0160316
868.420	0.0159087
868.498	0.0160142
868.576	0.0160218
868.655	0.0158894
868.733	0.0160227
868.811	0.0159412
868.889	0.0159460
868.967	0.0159164
869.045	0.0158389
869.123	0.0159300
869.201	0.0159823
869.280	0.0159867
869.358	0.0160509
869.436	0.0160074
869.514	0.0159464
869.592	0.0158628
869.670	0.0161398
869.748	0.0159914
869.826	0.0157765
869.905	0.0159084
869.983	0.0160780
870.061	0.0159904
870.139	0.0159885
870.217	0.0160807
870.295	0.0159088
870.373	0.0160472
870.451	0.0160150
870.530	0.0159986
870.608	0.0158950
870.686	0.0160744
870.764	0.0160751
870.842	0.0160728
870.920	0.0161803
870.998	0.0160732
871.076	0.0161251
871.155	0.0162083
871.233	0.0160619
871.311	0.0160652
871.389	0.0160600
871.467	0.0159614
871.545	0.0160343
871.623	0.0161974
871.701	0.0160850
871.780	0.0161359
871.858	0.0161929
871.936	0.0161447
872.014	0.0160466
872.092	0.0161903
872.170	0.0159617
872.248	0.0161808
872.326	0.0161682
872.405	0.0160578
872.483	0.0160252
872.561	0.0160667
872.639	0.0161401
872.717	0.0158560
872.795	0.0159005
872.873	0.0158526
872.951	0.0159223
873.030	0.0161745
873.108	0.0159935
873.186	0.0159344
873.264	0.0159431
873.342	0.0160504
873.420	0.0159814
873.498	0.0161119
873.576	0.0160686
873.655	0.0161803
873.733	0.0159846
873.811	0.0159432
873.889	0.0160130
873.967	0.0160880
874.045	0.0161541
874.123	0.0161026
874.201	0.0159732
874.280	0.0159754
874.358	0.0160250
874.436	0.0161348
874.514	0.0160616
874.592	0.0159904
874.670	0.0161607
874.748	0.0159053
874.826	0.0158446
874.905	0.0158751
874.983	0.0161292
875.061	0.0159850
875.139	0.0157578
875.217	0.0159454
875.295	0.0160697
875.373	0.0159626
875.451	0.0158799
875.530	0.0158560
875.608	0.0158475
875.686	0.0159011
875.764	0.0157319
875.842	0.0158215
875.920	0.0158492
875.998	0.0157243
876.076	0.0159562
876.155	0.0157508
876.233	0.0157873
876.311	0.0158361
876.389	0.0156916
876.467	0.0156323
876.545	0.0156922
876.623	0.0155990
876.701	0.0157590
876.780	0.0157632
876.858	0.0157210
876.936	0.0158219
877.014	0.0158525
877.092	0.0158212
877.170	0.0157954
877.248	0.0158685
877.326	0.0159281
877.405	0.0158849
877.483	0.0158024
877.561	0.0158891
877.639	0.0160108
877.717	0.0158891
877.795	0.0158777
877.873	0.0159184
877.951	0.0160574
878.030	0.0159231
878.108	0.0158654
878.186	0.0159480
878.264	0.0160787
878.342	0.0161107
878.420	0.0160868
878.498	0.0161243
878.576	0.0162638
878.655	0.0160506
878.733	0.0161359
878.811	0.0161237
878.889	0.0161104
878.967	0.0161458
879.045	0.0160770
879.123	0.0160912
879.201	0.0160755
879.280	0.0160440
879.358	0.0160590
879.436	0.0159345
879.514	0.0161246
879.592	0.0162117
879.670	0.0159952
879.748	0.0159029
879.826	0.0158410
879.905	0.0158443
879.983	0.0160146
880.061	0.0159081
880.139	0.0159176
880.217	0.0158356
880.295	0.0158396
880.373	0.0159437
880.451	0.0158082
880.530	0.0157476
880.608	0.0158897
880.686	0.0158433
880.764	0.0158801
880.842	0.0159578
880.920	0.0159836
880.998	0.0160093
881.076	0.0161012
881.155	0.0158974
881.233	0.0160326
881.311	0.0160734
881.389	0.0159093
881.467	0.0160093
881.545	0.0161206
881.623	0.0159777
881.701	0.0160075
881.780	0.0160173
881.858	0.0160981
881.936	0.0160409
882.014	0.0160686
882.092	0.0160109
882.170	0.0158727
882.248	0.0158426
882.326	0.0160552
882.405	0.0160506
882.483	0.0159988
882.561	0.0158733
882.639	0.0158876
882.717	0.0160223
882.795	0.0159054
882.873	0.0158257
882.951	0.0159387
883.030	0.0158444
883.108	0.0159112
883.186	0.0159737
883.264	0.0159137
883.342	0.0158022
883.420	0.0159747
883.498	0.0158147
883.576	0.0159566
883.655	0.0160207
883.733	0.0159364
883.811	0.0159064
883.889	0.0159035
883.967	0.0159532
884.045	0.0159363
884.123	0.0158724
884.201	0.0158642
884.280	0.0158710
884.358	0.0158519
884.436	0.0160295
884.514	0.0160751
884.592	0.0160358
884.670	0.0161839
884.748	0.0159286
884.826	0.0159798
884.905	0.0161092
884.983	0.0161015
885.061	0.0160587
885.139	0.0160364
885.217	0.0161905
885.295	0.0161133
885.373	0.0159476
885.451	0.0159061
885.530	0.0160996
885.608	0.0162408
885.686	0.0161723
885.764	0.0162048
885.842	0.0161757
885.920	0.0160235
885.998	0.0161362
886.076	0.0161652
886.155	0.0162119
886.233	0.0161773
886.311	0.0161947
886.389	0.0163032
886.467	0.0162761
886.545	0.0162355
886.623	0.0161591
886.701	0.0161902
886.780	0.0163635
886.858	0.0163100
886.936	0.0161635
887.014	0.0162451
887.092	0.0163780
887.170	0.0161420
887.248	0.0162472
887.326	0.0162659
887.405	0.0160789
887.483	0.0162131
887.561	0.0161958
887.639	0.0160911
887.717	0.0160860
887.795	0.0160507
887.873	0.0160184
887.951	0.0159683
888.030	0.0161228
888.108	0.0159782
888.186	0.0159897
888.264	0.0159461
888.342	0.0158991
888.420	0.0158949
888.498	0.0158736
888.576	0.0159667
888.655	0.0158636
888.733	0.0158682
888.811	0.0157157
888.889	0.0158496
888.967	0.0158720
889.045	0.0157558
889.123	0.0157899
889.201	0.0158520
889.280	0.0158855
889.358	0.0156890
889.436	0.0157890
889.514	0.0158291
889.592	0.0158530
889.670	0.0160026
889.748	0.0157728
889.826	0.0158641
889.905	0.0160101
889.983	0.0159503
890.061	0.0158453
890.139	0.0160184
890.217	0.0161041
890.295	0.0161435
890.373	0.0160432
890.451	0.0161384
890.530	0.0160661
890.608	0.0160059
890.686	0.0161016
890.764	0.0160526
890.842	0.0159579
890.920	0.0159684
890.998	0.0160084
891.076	0.0160126
891.155	0.0160149
891.233	0.0160786
891.311	0.0160295
891.389	0.0158812
891.467	0.0159636
891.545	0.0159626
891.623	0.0160045
891.701	0.0159558
891.780	0.0158791
891.858	0.0160291
891.936	0.0159832
892.014	0.0159974
892.092	0.0159919
892.170	0.0160997
892.248	0.0160017
892.326	0.0158476
892.405	0.0159553
892.483	0.0159902
892.561	0.0159793
892.639	0.0160658
892.717	0.0160178
892.795	0.0160333
892.873	0.0158804
892.951	0.0159926
893.030	0.0158908
893.108	0.0160117
893.186	0.0160087
893.264	0.0161150
893.342	0.0160052
893.420	0.0159076
893.498	0.0160783
893.576	0.0160896
893.655	0.0161065
893.733	0.0159618
893.811	0.0159784
893.889	0.0160806
893.967	0.0159391
894.045	0.0161172
894.123	0.0159669
894.201	0.0159718
894.280	0.0159662
894.358	0.0159491
894.436	0.0159319
894.514	0.0159021
894.592	0.0159525
894.670	0.0161011
894.748	0.0159885
894.826	0.0158903
894.905	0.0158351
894.983	0.0160217
895.061	0.0159723
895.139	0.0158258
895.217	0.0159761
895.295	0.0158842
895.373	0.0159986
895.451	0.0158086
895.530	0.0159180
895.608	0.0158791
895.686	0.0158067
895.764	0.0159929
895.842	0.0157880
895.920	0.0158294
895.998	0.0159904
896.076	0.0159617
896.155	0.0158979
896.233	0.0157994
896.311	0.0160038
896.389	0.0159293
896.467	0.0158418
896.545	0.0160332
896.623	0.0158772
896.701	0.0160160
896.780	0.0159508
896.858	0.0160694
896.936	0.0159068
897.014	0.0159138
897.092	0.0160078
897.170	0.0160957
897.248	0.0160035
897.326	0.0159983
897.405	0.0158895
897.483	0.0159733
897.561	0.0161024
897.639	0.0161098
897.717	0.0160267
897.795	0.0160378
897.873	0.0161646
897.951	0.0160362
898.030	0.0161148
898.108	0.0160720
898.186	0.0161568
898.264	0.0160542
898.342	0.0160252
898.420	0.0161040
898.498	0.0162576
898.576	0.0160921
898.655	0.0161322
898.733	0.0162756
898.811	0.0160955
898.889	0.0161421
898.967	0.0161654
899.045	0.0161951
899.123	0.0162620
899.201	0.0162852
899.280	0.0161578
899.358	0.0162697
899.436	0.0162341
899.514	0.0161554
899.592	0.0161035
899.670	0.0161734
899.748	0.0160585
899.826	0.0160729
899.905	0.0160995
899.983	0.0162182
900.061	0.0159535
900.139	0.0159881
900.217	0.0160028
900.295	0.0159921
900.373	0.0160284
900.451	0.0159435
900.530	0.0159038
900.608	0.0160274
900.686	0.0158372
900.764	0.0158985
900.842	0.0159299
900.920	0.0158820
900.998	0.0160015
901.076	0.0158881
901.155	0.0158389
901.233	0.0157946
901.311	0.0160148
901.389	0.0159973
901.467	0.0159047
901.545	0.0159679
901.623	0.0160030
901.701	0.0160065
901.780	0.0159663
901.858	0.0160667
901.936	0.0159276
902.014	0.0159005
902.092	0.0158543
902.170	0.0158271
902.248	0.0160815
902.326	0.0159888
902.405	0.0158836
902.483	0.0159006
902.561	0.0160046
902.639	0.0160142
902.717	0.0159797
902.795	0.0158549
902.873	0.0159219
902.951	0.0157088
903.030	0.0158679
903.108	0.0158677
903.186	0.0158512
903.264	0.0157715
903.342	0.0158671
903.420	0.0157500
903.498	0.0158595
903.576	0.0157912
903.655	0.0158314
903.733	0.0158075
903.811	0.0159464
903.889	0.0158566
903.967	0.0158291
904.045	0.0158144
904.123	0.0157992
904.201	0.0158006
904.280	0.0157690
904.358	0.0158762
904.436	0.0159666
904.514	0.0157776
904.592	0.0158125
904.670	0.0157615
904.748	0.0157784
904.826	0.0158649
904.905	0.0158750
904.983	0.0159361
905.061	0.0159782
905.139	0.0159575
905.217	0.0159165
905.295	0.0159313
905.373	0.0159547
905.451	0.0160004
905.530	0.0160130
905.608	0.0160840
905.686	0.0160635
905.764	0.0160141
905.842	0.0160761
905.920	0.0159588
905.998	0.0160465
906.076	0.0161108
906.155	0.0160413
906.233	0.0159958
906.311	0.0160958
906.389	0.0161403
906.467	0.0162137
906.545	0.0160796
906.623	0.0159845
906.701	0.0160769
906.780	0.0161701
906.858	0.0159883
906.936	0.0160046
907.014	0.0161639
907.092	0.0159680
907.170	0.0160863
907.248	0.0161674
907.326	0.0160720
907.405	0.0160735
907.483	0.0161107
907.561	0.0162104
907.639	0.0160760
907.717	0.0161468
907.795	0.0160963
907.873	0.0159422
907.951	0.0160278
908.030	0.0160316
908.108	0.0160686
908.186	0.0159803
908.264	0.0160188
908.342	0.0160507
908.420	0.0159360
908.498	0.0159043
908.576	0.0159654
908.655	0.0160152
908.733	0.0158952
908.811	0.0158131
908.889	0.0159277
908.967	0.0158009
909.045	0.0159023
909.123	0.0159225
909.201	0.0159613
909.280	0.0158941
909.358	0.0159009
909.436	0.0159833
909.514	0.0160765
909.592	0.0159806
909.670	0.0160917
909.748	0.0162117
909.826	0.0160831
909.905	0.0161829
909.983	0.0161182
910.061	0.0161208
910.139	0.0161529
910.217	0.0161720
910.295	0.0161776
910.373	0.0162845
910.451	0.0162507
910.530	0.0162206
910.608	0.0162713
910.686	0.0160970
910.764	0.0162511
910.842	0.0162405
910.920	0.0162050
910.998	0.0162766
911.076	0.0161565
911.155	0.0161516
911.233	0.0160480
911.311	0.0161175
911.389	0.0162279
911.467	0.0162413
911.545	0.0163635
911.623	0.0162144
911.701	0.0162238
911.780	0.0162536
911.858	0.0160149
911.936	0.0160886
912.014	0.0162010
912.092	0.0161630
912.170	0.0160945
912.248	0.0161490
912.326	0.0162664
912.405	0.0161409
912.483	0.0161387
912.561	0.0159499
912.639	0.0160299
912.717	0.0159293
912.795	0.0160046
912.873	0.0159780
912.951	0.0160577
913.030	0.0160623
913.108	0.0158984
913.186	0.0158652
913.264	0.0159943
913.342	0.0160863
913.420	0.0160850
913.498	0.0159126
913.576	0.0159972
913.655	0.0161259
913.733	0.0161295
913.811	0.0158994
913.889	0.0159921
913.967	0.0160419
914.045	0.0161275
914.123	0.0162023
914.201	0.0161314
914.280	0.0161046
914.358	0.0159738
914.436	0.0162525
914.514	0.0162176
914.592	0.0162025
914.670	0.0161370
914.748	0.0161264
914.826	0.0160255
914.905	0.0161606
914.983	0.0161272
915.061	0.0162024
915.139	0.0161443
915.217	0.0160382
915.295	0.0159504
915.373	0.0160565
915.451	0.0160564
915.530	0.0160256
915.608	0.0160639
915.686	0.0160476
915.764	0.0159740
915.842	0.0160230
915.920	0.0158435
915.998	0.0159951
916.076	0.0160004
916.155	0.0160200
916.233	0.0159661
916.311	0.0161192
916.389	0.0159584
916.467	0.0159470
916.545	0.0159157
916.623	0.0160458
916.701	0.0159391
916.780	0.0158924
916.858	0.0158667
916.936	0.0158611
917.014	0.0158952
917.092	0.0158143
917.170	0.0158324
917.248	0.0157791
917.326	0.0158784
917.405	0.0158216
917.483	0.0158920
917.561	0.0158298
917.639	0.0159227
917.717	0.0158692
917.795	0.0157933
917.873	0.0159737
917.951	0.0158714
918.030	0.0159209
918.108	0.0159520
918.186	0.0160812
918.264	0.0160516
918.342	0.0161060
918.420	0.0160810
918.498	0.0160883
918.576	0.0160650
918.655	0.0160338
918.733	0.0160852
918.811	0.0161330
918.889	0.0160336
918.967	0.0161021
919.045	0.0161954
919.123	0.0160940
919.201	0.0162724
919.280	0.0162569
919.358	0.0161810
919.436	0.0161021
919.514	0.0160286
919.592	0.0161995
919.670	0.0161015
919.748	0.0161734
919.826	0.0160984
919.905	0.0161346
919.983	0.0161164
920.061	0.0161706
920.139	0.0161919
920.217	0.0161294
920.295	0.0160942
920.373	0.0160682
920.451	0.0161109
920.530	0.0159827
920.608	0.0161005
920.686	0.0160943
920.764	0.0162262
920.842	0.0160568
920.920	0.0161997
920.998	0.0159825
921.076	0.0161198
921.155	0.0160844
921.233	0.0160973
921.311	0.0160613
921.389	0.0162061
921.467	0.0162305
921.545	0.0160018
921.623	0.0161208
921.701	0.0160933
921.780	0.0159898
921.858	0.0160387
921.936	0.0161667
922.014	0.0159721
922.092	0.0161395
922.170	0.0160587
922.248	0.0161300
922.326	0.0162301
922.405	0.0160564
922.483	0.0161556
922.561	0.0160355
922.639	0.0160018
922.717	0.0161423
922.795	0.0161410
922.873	0.0161264
922.951	0.0159612
923.030	0.0160970
923.108	0.0160525
923.186	0.0160529
923.264	0.0161086
923.342	0.0160596
923.420	0.0160881
923.498	0.0160177
923.576	0.0159428
923.655	0.0160523
923.733	0.0160109
923.811	0.0159161
923.889	0.0160262
923.967	0.0159939
924.045	0.0160246
924.123	0.0160890
924.201	0.0161509
924.280	0.0160485
924.358	0.0159275
924.436	0.0160617
924.514	0.0160859
924.592	0.0160567
924.670	0.0160374
924.748	0.0158673
924.826	0.0160098
924.905	0.0161184
924.983	0.0159827
925.061	0.0160182
925.139	0.0160602
925.217	0.0160352
925.295	0.0161177
925.373	0.0159526
925.451	0.0160100
925.530	0.0160542
925.608	0.0160114
925.686	0.0161250
925.764	0.0159916
925.842	0.0161369
925.920	0.0160630
925.998	0.0159679
926.076	0.0161953
926.155	0.0160607
926.233	0.0161184
926.311	0.0160835
926.389	0.0162514
926.467	0.0161378
926.545	0.0161377
926.623	0.0161582
926.701	0.0161475
926.780	0.0159394
926.858	0.0161442
926.936	0.0161500
927.014	0.0159690
927.092	0.0159319
927.170	0.0162454
927.248	0.0163313
927.326	0.0160533
927.405	0.0161329
927.483	0.0161422
927.561	0.0158968
927.639	0.0160931
927.717	0.0159747
927.795	0.0159509
927.873	0.0162557
927.951	0.0160606
928.030	0.0160648
928.108	0.0159900
928.186	0.0161425
928.264	0.0159720
928.342	0.0161403
928.420	0.0160450
928.498	0.0160796
928.576	0.0159916
928.655	0.0159583
928.733	0.0162125
928.811	0.0160944
928.889	0.0160641
928.967	0.0159447
929.045	0.0161311
929.123	0.0161907
929.201	0.0160819
929.280	0.0161537
929.358	0.0159946
929.436	0.0159206
929.514	0.0160278
929.592	0.0160890
929.670	0.0160963
929.748	0.0159911
929.826	0.0160070
929.905	0.0161641
929.983	0.0160741
930.061	0.0159959
930.139	0.0160115
930.217	0.0161096
930.295	0.0162564
930.373	0.0161786
930.451	0.0159732
930.530	0.0160518
930.608	0.0160619
930.686	0.0160029
930.764	0.0160600
930.842	0.0158907
930.920	0.0160712
930.998	0.0160094
931.076	0.0160965
931.155	0.0160133
931.233	0.0160803
931.311	0.0161088
931.389	0.0160719
931.467	0.0159402
931.545	0.0160386
931.623	0.0160410
931.701	0.0158856
931.780	0.0160590
931.858	0.0159283
931.936	0.0160047
932.014	0.0159865
932.092	0.0159732
932.170	0.0159543
932.248	0.0160005
932.326	0.0160739
932.405	0.0160624
932.483	0.0162016
932.561	0.0160470
932.639	0.0159915
932.717	0.0160589
932.795	0.0160707
932.873	0.0159383
932.951	0.0160706
933.030	0.0161355
933.108	0.0160332
933.186	0.0160804
933.264	0.0160386
933.342	0.0161234
933.420	0.0159912
933.498	0.0160474
933.576	0.0160395
933.655	0.0159911
933.733	0.0160397
933.811	0.0159793
933.889	0.0159676
933.967	0.0160765
934.045	0.0161369
934.123	0.0160399
934.201	0.0159821
934.280	0.0160079
934.358	0.0159024
934.436	0.0160229
934.514	0.0159911
934.592	0.0158938
934.670	0.0158191
934.748	0.0158923
934.826	0.0159580
934.905	0.0160131
934.983	0.0160473
935.061	0.0159786
935.139	0.0158966
935.217	0.0160435
935.295	0.0160227
935.373	0.0160762
935.451	0.0159093
935.530	0.0158727
935.608	0.0160896
935.686	0.0160433
935.764	0.0160573
935.842	0.0160816
935.920	0.0159801
935.998	0.0159586
936.076	0.0159508
936.155	0.0158508
936.233	0.0158261
936.311	0.0158566
936.389	0.0158797
936.467	0.0158588
936.545	0.0157489
936.623	0.0158276
936.701	0.0160714
936.780	0.0158078
936.858	0.0158845
936.936	0.0159146
937.014	0.0158939
937.092	0.0158866
937.170	0.0160180
937.248	0.0160112
937.326	0.0160006
937.405	0.0159005
937.483	0.0160468
937.561	0.0160513
937.639	0.0160461
937.717	0.0161591
937.795	0.0161578
937.873	0.0160669
937.951	0.0161074
938.030	0.0161364
938.108	0.0161230
938.186	0.0159052
938.264	0.0161048
938.342	0.0161400
938.420	0.0160101
938.498	0.0161059
938.576	0.0160545
938.655	0.0160025
938.733	0.0160216
938.811	0.0158955
938.889	0.0159995
938.967	0.0160773
939.045	0.0160606
939.123	0.0160407
939.201	0.0160351
939.280	0.0160702
939.358	0.0161683
939.436	0.0163173
939.514	0.0162482
939.592	0.0161617
939.670	0.0161958
939.748	0.0163120
939.826	0.0161871
939.905	0.0163663
939.983	0.0164473
940.061	0.0162703
940.139	0.0163461
940.217	0.0163453
940.295	0.0164249
940.373	0.0162292
940.451	0.0162971
940.530	0.0163501
940.608	0.0163907
940.686	0.0164490
940.764	0.0163799
940.842	0.0161436
940.920	0.0161893
940.998	0.0161787
941.076	0.0162453
941.155	0.0160677
941.233	0.0160890
941.311	0.0161211
941.389	0.0161613
941.467	0.0161395
941.545	0.0161208
941.623	0.0159975
941.701	0.0159716
941.780	0.0159774
941.858	0.0158983
941.936	0.0159653
942.014	0.0160277
942.092	0.0160041
942.170	0.0159971
942.248	0.0159850
942.326	0.0160542
942.405	0.0160142
942.483	0.0157934
942.561	0.0158063
942.639	0.0159994
942.717	0.0159368
942.795	0.0157791
942.873	0.0157952
942.951	0.0159297
943.030	0.0158777
943.108	0.0158298
943.186	0.0158836
943.264	0.0159684
943.342	0.0159381
943.420	0.0159280
943.498	0.0160732
943.576	0.0160874
943.655	0.0160641
943.733	0.0159402
943.811	0.0159969
943.889	0.0160197
943.967	0.0161529
944.045	0.0161116
944.123	0.0160358
944.201	0.0159770
944.280	0.0160246
944.358	0.0161485
944.436	0.0160407
944.514	0.0161022
944.592	0.0160499
944.670	0.0162443
944.748	0.0162996
944.826	0.0161921
944.905	0.0161060
944.983	0.0161790
945.061	0.0161282
945.139	0.0162892
945.217	0.0162969
945.295	0.0162955
945.373	0.0162232
945.451	0.0164416
945.530	0.0162364
945.608	0.0161129
945.686	0.0163857
945.764	0.0162273
945.842	0.0162163
945.920	0.0162320
945.998	0.0163253
946.076	0.0161896
946.155	0.0160863
946.233	0.0161703
946.311	0.0161731
946.389	0.0161513
946.467	0.0162476
946.545	0.0162587
946.623	0.0161781
946.701	0.0162305
946.780	0.0161354
946.858	0.0161294
946.936	0.0161261
947.014	0.0161540
947.092	0.0161361
947.170	0.0160674
947.248	0.0161335
947.326	0.0160728
947.405	0.0161437
947.483	0.0161684
947.561	0.0161894
947.639	0.0160658
947.717	0.0160299
947.795	0.0161173
947.873	0.0160078
947.951	0.0160155
948.030	0.0160864
948.108	0.0161376
948.186	0.0161306
948.264	0.0160939
948.342	0.0160312
948.420	0.0158761
948.498	0.0162428
948.576	0.0160357
948.655	0.0160880
948.733	0.0161310
948.811	0.0161378
948.889	0.0160378
948.967	0.0160110
949.045	0.0160983
949.123	0.0160126
949.201	0.0159394
949.280	0.0160857
949.358	0.0160032
949.436	0.0159901
949.514	0.0160100
949.592	0.0160117
949.670	0.0160019
949.748	0.0159764
949.826	0.0161494
949.905	0.0159961
949.983	0.0160445
950.061	0.0160231
950.139	0.0160347
950.217	0.0160581
950.295	0.0160065
950.373	0.0160755
950.451	0.0160751
950.530	0.0159799
950.608	0.0159794
950.686	0.0161926
950.764	0.0160225
950.842	0.0160688
950.920	0.0160787
950.998	0.0161375
951.076	0.0161175
951.155	0.0160513
951.233	0.0159806
951.311	0.0160375
951.389	0.0160970
951.467	0.0159428
951.545	0.0160549
951.623	0.0160579
951.701	0.0161036
951.780	0.0159860
951.858	0.0160705
951.936	0.0160847
952.014	0.0160011
952.092	0.0159341
952.170	0.0160642
952.248	0.0161705
952.326	0.0160813
952.405	0.0160921
952.483	0.0161346
952.561	0.0160912
952.639	0.0160458
952.717	0.0160320
952.795	0.0159526
952.873	0.0159878
952.951	0.0161092
953.030	0.0159586
953.108	0.0159803
953.186	0.0159795
953.264	0.0160386
953.342	0.0159927
953.420	0.0160227
953.498	0.0160011
953.576	0.0160453
953.655	0.0161142
953.733	0.0160033
953.811	0.0160889
953.889	0.0160288
953.967	0.0159164
954.045	0.0161195
954.123	0.0160144
954.201	0.0160429
954.280	0.0161296
954.358	0.0161308
954.436	0.0162022
954.514	0.0160117
954.592	0.0160686
954.670	0.0161485
954.748	0.0160559
954.826	0.0161392
954.905	0.0160873
954.983	0.0160875
955.061	0.0159642
955.139	0.0162669
955.217	0.0161840
955.295	0.0160672
955.373	0.0162198
955.451	0.0160838
955.530	0.0160225
955.608	0.0159366
955.686	0.0160894
955.764	0.0161076
955.842	0.0160911
955.920	0.0161225
955.998	0.0159827
956.076	0.0160258
956.155	0.0160113
956.233	0.0161130
956.311	0.0160085
956.389	0.0160590
956.467	0.0161005
956.545	0.0161290
956.623	0.0160091
956.701	0.0159812
956.780	0.0161019
956.858	0.0160065
956.936	0.0159068
957.014	0.0158788
957.092	0.0158954
957.170	0.0159726
957.248	0.0159509
957.326	0.0159937
957.405	0.0159888
957.483	0.0158761
957.561	0.0158640
957.639	0.0159222
957.717	0.0159383
957.795	0.0159131
957.873	0.0158391
957.951	0.0157911
958.030	0.0159769
958.108	0.0158483
958.186	0.0158558
958.264	0.0159544
958.342	0.0159809
958.420	0.0159300
958.498	0.0157926
958.576	0.0159736
958.655	0.0159557
958.733	0.0160109
958.811	0.0159378
958.889	0.0159581
958.967	0.0157676
959.045	0.0158089
959.123	0.0160055
959.201	0.0159241
959.280	0.0157967
959.358	0.0159288
959.436	0.0158829
959.514	0.0158704
959.592	0.0157682
959.670	0.0159351
959.748	0.0158978
959.826	0.0157976
959.905	0.0158244
