05/17/2022	17:07:44	Ver.	4.1	UNKNOWN
Optical Delay	639.982744	Delta X		0.078125	Sweeps	1	Scan Rate	0/0
Coordinates	Axis 1	NaN	Axis 2	NaN	Axis 3	NaN	Axis 4	NaN	Axis 5	NaN	Axis 6	0.000000
TX Power	0.000000	RX Power	0.000000

639.983	0.0168878
640.061	0.0169318
640.139	0.0168432
640.217	0.0169785
640.295	0.0170594
640.373	0.0168842
640.451	0.0169105
640.530	0.0169716
640.608	0.0168057
640.686	0.0169213
640.764	0.0170129
640.842	0.0169756
640.920	0.0169248
640.998	0.0169046
641.076	0.0168993
641.155	0.0169067
641.233	0.0169127
641.311	0.0168969
641.389	0.0168176
641.467	0.0169006
641.545	0.0168845
641.623	0.0168844
641.701	0.0167770
641.780	0.0168138
641.858	0.0168841
641.936	0.0168649
642.014	0.0169466
642.092	0.0168063
642.170	0.0168922
642.248	0.0168327
642.326	0.0168745
642.405	0.0167957
642.483	0.0168394
642.561	0.0169490
642.639	0.0169063
642.717	0.0168542
642.795	0.0167247
642.873	0.0168926
642.951	0.0168438
643.030	0.0169391
643.108	0.0168402
643.186	0.0168401
643.264	0.0168683
643.342	0.0168665
643.420	0.0169283
643.498	0.0169086
643.576	0.0170497
643.655	0.0168868
643.733	0.0169151
643.811	0.0170056
643.889	0.0170367
643.967	0.0168745
644.045	0.0169288
644.123	0.0170261
644.201	0.0170776
644.280	0.0169746
644.358	0.0170218
644.436	0.0169270
644.514	0.0169795
644.592	0.0169642
644.670	0.0170157
644.748	0.0171902
644.826	0.0170825
644.905	0.0171465
644.983	0.0170907
645.061	0.0171812
645.139	0.0172023
645.217	0.0171835
645.295	0.0173120
645.373	0.0172402
645.451	0.0171840
645.530	0.0171532
645.608	0.0172568
645.686	0.0172605
645.764	0.0172749
645.842	0.0171205
645.920	0.0170953
645.998	0.0171385
646.076	0.0173260
646.155	0.0172093
646.233	0.0173318
646.311	0.0172752
646.389	0.0171841
646.467	0.0172855
646.545	0.0171737
646.623	0.0170856
646.701	0.0171853
646.780	0.0171063
646.858	0.0170949
646.936	0.0171494
647.014	0.0169945
647.092	0.0171048
647.170	0.0169444
647.248	0.0169099
647.326	0.0169275
647.405	0.0168863
647.483	0.0170401
647.561	0.0169372
647.639	0.0168036
647.717	0.0168396
647.795	0.0167028
647.873	0.0166732
647.951	0.0167688
648.030	0.0168353
648.108	0.0167509
648.186	0.0166091
648.264	0.0167889
648.342	0.0166586
648.420	0.0164175
648.498	0.0165697
648.576	0.0166862
648.655	0.0165499
648.733	0.0166324
648.811	0.0164936
648.889	0.0165820
648.967	0.0166346
649.045	0.0165530
649.123	0.0166634
649.201	0.0166951
649.280	0.0168071
649.358	0.0167049
649.436	0.0167207
649.514	0.0166781
649.592	0.0167457
649.670	0.0167966
649.748	0.0168887
649.826	0.0167482
649.905	0.0166075
649.983	0.0167727
650.061	0.0169170
650.139	0.0168146
650.217	0.0167448
650.295	0.0167423
650.373	0.0166881
650.451	0.0168193
650.530	0.0168240
650.608	0.0168867
650.686	0.0167496
650.764	0.0166057
650.842	0.0167197
650.920	0.0168448
650.998	0.0169228
651.076	0.0167962
651.155	0.0168324
651.233	0.0168765
651.311	0.0168653
651.389	0.0169440
651.467	0.0168604
651.545	0.0168933
651.623	0.0169438
651.701	0.0168812
651.780	0.0168416
651.858	0.0169319
651.936	0.0169324
652.014	0.0168901
652.092	0.0169363
652.170	0.0170354
652.248	0.0171413
652.326	0.0169605
652.405	0.0169196
652.483	0.0169750
652.561	0.0170430
652.639	0.0170004
652.717	0.0168891
652.795	0.0169939
652.873	0.0169098
652.951	0.0169751
653.030	0.0169963
653.108	0.0169984
653.186	0.0169408
653.264	0.0169240
653.342	0.0169879
653.420	0.0168221
653.498	0.0168958
653.576	0.0169205
653.655	0.0167220
653.733	0.0169257
653.811	0.0168684
653.889	0.0167476
653.967	0.0169080
654.045	0.0168004
654.123	0.0168386
654.201	0.0167603
654.280	0.0168109
654.358	0.0168399
654.436	0.0167119
654.514	0.0169100
654.592	0.0168335
654.670	0.0167079
654.748	0.0168160
654.826	0.0168312
654.905	0.0168336
654.983	0.0168838
655.061	0.0168943
655.139	0.0168620
655.217	0.0169393
655.295	0.0168355
655.373	0.0168285
655.451	0.0169040
655.530	0.0170013
655.608	0.0168736
655.686	0.0168001
655.764	0.0169137
655.842	0.0169804
655.920	0.0169892
655.998	0.0168929
656.076	0.0169380
656.155	0.0170208
656.233	0.0168536
656.311	0.0168810
656.389	0.0169076
656.467	0.0170193
656.545	0.0169306
656.623	0.0169171
656.701	0.0169736
656.780	0.0168153
656.858	0.0168459
656.936	0.0171243
657.014	0.0169551
657.092	0.0170424
657.170	0.0170771
657.248	0.0170785
657.326	0.0170139
657.405	0.0170637
657.483	0.0170572
657.561	0.0170571
657.639	0.0169791
657.717	0.0170808
657.795	0.0172861
657.873	0.0173249
657.951	0.0170132
658.030	0.0171457
658.108	0.0170512
658.186	0.0171712
658.264	0.0172564
658.342	0.0172511
658.420	0.0173055
658.498	0.0172021
658.576	0.0173676
658.655	0.0172003
658.733	0.0170438
658.811	0.0171116
658.889	0.0172036
658.967	0.0171713
659.045	0.0171445
659.123	0.0171783
659.201	0.0172044
659.280	0.0169276
659.358	0.0169523
659.436	0.0170092
659.514	0.0169278
659.592	0.0169863
659.670	0.0170127
659.748	0.0168224
659.826	0.0166950
659.905	0.0167721
659.983	0.0167309
660.061	0.0169122
660.139	0.0168354
660.217	0.0166800
660.295	0.0167722
660.373	0.0167660
660.451	0.0169990
660.530	0.0170914
660.608	0.0169469
660.686	0.0167633
660.764	0.0168935
660.842	0.0169709
660.920	0.0169299
660.998	0.0169269
661.076	0.0168244
661.155	0.0168439
661.233	0.0170502
661.311	0.0169697
661.389	0.0170061
661.467	0.0171125
661.545	0.0170768
661.623	0.0171902
661.701	0.0171458
661.780	0.0172392
661.858	0.0171523
661.936	0.0172007
662.014	0.0172204
662.092	0.0172189
662.170	0.0172462
662.248	0.0172051
662.326	0.0173071
662.405	0.0173454
662.483	0.0174808
662.561	0.0174007
662.639	0.0172303
662.717	0.0173144
662.795	0.0173579
662.873	0.0171318
662.951	0.0171986
663.030	0.0172887
663.108	0.0172106
663.186	0.0173353
663.264	0.0171696
663.342	0.0172022
663.420	0.0171224
663.498	0.0171445
663.576	0.0169801
663.655	0.0169295
663.733	0.0170132
663.811	0.0169409
663.889	0.0168324
663.967	0.0168645
664.045	0.0168497
664.123	0.0166129
664.201	0.0166666
664.280	0.0167507
664.358	0.0167236
664.436	0.0166666
664.514	0.0164474
664.592	0.0165450
664.670	0.0166348
664.748	0.0165400
664.826	0.0166669
664.905	0.0166332
664.983	0.0165194
665.061	0.0166624
665.139	0.0167429
665.217	0.0169817
665.295	0.0168755
665.373	0.0169311
665.451	0.0171735
665.530	0.0171985
665.608	0.0171891
665.686	0.0172385
665.764	0.0174919
665.842	0.0174973
665.920	0.0175369
665.998	0.0175655
666.076	0.0177616
666.155	0.0179026
666.233	0.0177254
666.311	0.0177982
666.389	0.0177142
666.467	0.0177560
666.545	0.0177155
666.623	0.0177689
666.701	0.0177659
666.780	0.0174902
666.858	0.0174516
666.936	0.0173593
667.014	0.0172356
667.092	0.0171051
667.170	0.0170522
667.248	0.0169843
667.326	0.0168494
667.405	0.0165980
667.483	0.0165359
667.561	0.0163557
667.639	0.0162197
667.717	0.0161166
667.795	0.0159954
667.873	0.0160446
667.951	0.0161366
668.030	0.0159240
668.108	0.0157670
668.186	0.0160033
668.264	0.0160577
668.342	0.0159949
668.420	0.0160563
668.498	0.0159750
668.576	0.0162755
668.655	0.0161608
668.733	0.0164014
668.811	0.0164870
668.889	0.0166513
668.967	0.0165634
669.045	0.0166963
669.123	0.0170154
669.201	0.0172343
669.280	0.0171701
669.358	0.0173972
669.436	0.0174342
669.514	0.0177833
669.592	0.0177362
669.670	0.0178294
669.748	0.0179243
669.826	0.0178913
669.905	0.0179583
669.983	0.0179189
670.061	0.0178824
670.139	0.0178236
670.217	0.0178908
670.295	0.0177824
670.373	0.0175517
670.451	0.0175165
670.530	0.0173809
670.608	0.0173292
670.686	0.0171524
670.764	0.0170600
670.842	0.0167947
670.920	0.0167051
670.998	0.0164219
671.076	0.0163496
671.155	0.0161001
671.233	0.0160498
671.311	0.0159358
671.389	0.0159688
671.467	0.0159105
671.545	0.0158001
671.623	0.0156792
671.701	0.0157664
671.780	0.0158099
671.858	0.0158506
671.936	0.0158548
672.014	0.0159481
672.092	0.0158668
672.170	0.0162287
672.248	0.0163499
672.326	0.0164573
672.405	0.0165237
672.483	0.0168600
672.561	0.0170818
672.639	0.0170798
672.717	0.0174118
672.795	0.0172475
672.873	0.0174419
672.951	0.0177233
673.030	0.0178267
673.108	0.0176650
673.186	0.0178132
673.264	0.0178783
673.342	0.0177745
673.420	0.0178721
673.498	0.0178845
673.576	0.0176598
673.655	0.0178035
673.733	0.0176387
673.811	0.0175945
673.889	0.0176232
673.967	0.0175137
674.045	0.0174443
674.123	0.0172265
674.201	0.0171095
674.280	0.0171436
674.358	0.0170180
674.436	0.0169344
674.514	0.0169660
674.592	0.0168466
674.670	0.0168154
674.748	0.0167477
674.826	0.0167620
674.905	0.0167914
674.983	0.0166547
675.061	0.0167120
675.139	0.0168258
675.217	0.0168645
675.295	0.0168532
675.373	0.0167722
675.451	0.0169321
675.530	0.0169135
675.608	0.0170038
675.686	0.0169660
675.764	0.0170161
675.842	0.0171549
675.920	0.0170921
675.998	0.0169973
676.076	0.0170692
676.155	0.0169950
676.233	0.0168349
676.311	0.0170570
676.389	0.0169732
676.467	0.0168518
676.545	0.0167866
676.623	0.0168137
676.701	0.0166624
676.780	0.0165702
676.858	0.0165536
676.936	0.0165310
677.014	0.0166225
677.092	0.0165366
677.170	0.0165113
677.248	0.0164882
677.326	0.0164857
677.405	0.0167824
677.483	0.0167403
677.561	0.0167683
677.639	0.0168687
677.717	0.0169817
677.795	0.0169374
677.873	0.0171563
677.951	0.0172284
678.030	0.0172054
678.108	0.0173533
678.186	0.0173911
678.264	0.0174548
678.342	0.0176391
678.420	0.0177872
678.498	0.0176623
678.576	0.0176564
678.655	0.0176493
678.733	0.0177158
678.811	0.0177290
678.889	0.0176720
678.967	0.0176228
679.045	0.0175459
679.123	0.0174930
679.201	0.0172761
679.280	0.0171732
679.358	0.0172704
679.436	0.0171868
679.514	0.0171197
679.592	0.0170335
679.670	0.0169666
679.748	0.0168476
679.826	0.0168398
679.905	0.0166441
679.983	0.0166244
680.061	0.0166087
680.139	0.0166384
680.217	0.0166117
680.295	0.0166069
680.373	0.0166472
680.451	0.0166800
680.530	0.0165812
680.608	0.0167674
680.686	0.0168140
680.764	0.0167769
680.842	0.0168223
680.920	0.0168832
680.998	0.0168761
681.076	0.0168599
681.155	0.0169733
681.233	0.0169108
681.311	0.0169942
681.389	0.0169283
681.467	0.0168793
681.545	0.0169553
681.623	0.0170342
681.701	0.0169888
681.780	0.0169329
681.858	0.0168489
681.936	0.0169181
682.014	0.0167632
682.092	0.0166574
682.170	0.0164824
682.248	0.0167548
682.326	0.0165452
682.405	0.0164305
682.483	0.0164756
682.561	0.0164559
682.639	0.0165432
682.717	0.0165829
682.795	0.0165703
682.873	0.0164590
682.951	0.0165736
683.030	0.0168132
683.108	0.0167521
683.186	0.0167955
683.264	0.0169685
683.342	0.0169730
683.420	0.0170899
683.498	0.0170393
683.576	0.0173351
683.655	0.0173251
683.733	0.0172932
683.811	0.0173997
683.889	0.0174960
683.967	0.0175014
684.045	0.0175706
684.123	0.0175137
684.201	0.0173557
684.280	0.0173909
684.358	0.0173737
684.436	0.0173141
684.514	0.0171352
684.592	0.0170416
684.670	0.0168349
684.748	0.0167662
684.826	0.0166432
684.905	0.0165531
684.983	0.0165825
685.061	0.0165467
685.139	0.0164394
685.217	0.0164891
685.295	0.0164977
685.373	0.0163663
685.451	0.0163550
685.530	0.0164821
685.608	0.0164960
685.686	0.0165630
685.764	0.0166997
685.842	0.0166857
685.920	0.0169433
685.998	0.0170045
686.076	0.0171293
686.155	0.0172471
686.233	0.0173416
686.311	0.0175179
686.389	0.0175908
686.467	0.0177230
686.545	0.0177721
686.623	0.0179491
686.701	0.0178924
686.780	0.0178833
686.858	0.0177365
686.936	0.0178077
687.014	0.0178666
687.092	0.0175745
687.170	0.0176134
687.248	0.0174961
687.326	0.0174712
687.405	0.0171999
687.483	0.0169020
687.561	0.0168551
687.639	0.0165960
687.717	0.0164547
687.795	0.0163606
687.873	0.0162658
687.951	0.0161656
688.030	0.0161089
688.108	0.0161438
688.186	0.0158136
688.264	0.0158387
688.342	0.0158765
688.420	0.0158475
688.498	0.0159521
688.576	0.0162224
688.655	0.0160582
688.733	0.0162318
688.811	0.0163622
688.889	0.0164464
688.967	0.0165823
689.045	0.0167082
689.123	0.0170215
689.201	0.0171360
689.280	0.0173228
689.358	0.0173241
689.436	0.0175758
689.514	0.0178134
689.592	0.0179187
689.670	0.0179308
689.748	0.0181149
689.826	0.0183135
689.905	0.0183060
689.983	0.0181865
690.061	0.0182875
690.139	0.0183997
690.217	0.0182021
690.295	0.0183801
690.373	0.0181351
690.451	0.0180245
690.530	0.0178189
690.608	0.0177352
690.686	0.0176443
690.764	0.0173055
690.842	0.0171609
690.920	0.0170536
690.998	0.0169517
691.076	0.0168426
691.155	0.0168734
691.233	0.0164648
691.311	0.0164328
691.389	0.0165191
691.467	0.0163787
691.545	0.0161693
691.623	0.0161591
691.701	0.0161956
691.780	0.0162478
691.858	0.0162492
691.936	0.0162552
692.014	0.0162423
692.092	0.0163018
692.170	0.0162679
692.248	0.0163299
692.326	0.0165295
692.405	0.0165855
692.483	0.0165170
692.561	0.0165482
692.639	0.0167239
692.717	0.0167522
692.795	0.0168295
692.873	0.0168797
692.951	0.0167419
693.030	0.0168627
693.108	0.0170313
693.186	0.0168979
693.264	0.0170634
693.342	0.0172504
693.420	0.0171223
693.498	0.0171185
693.576	0.0172001
693.655	0.0173353
693.733	0.0173511
693.811	0.0175594
693.889	0.0174519
693.967	0.0173720
694.045	0.0177213
694.123	0.0176066
694.201	0.0175169
694.280	0.0176126
694.358	0.0176008
694.436	0.0177039
694.514	0.0175849
694.592	0.0176331
694.670	0.0176962
694.748	0.0174757
694.826	0.0175011
694.905	0.0174964
694.983	0.0175149
695.061	0.0172342
695.139	0.0171861
695.217	0.0172295
695.295	0.0172249
695.373	0.0169473
695.451	0.0169017
695.530	0.0167682
695.608	0.0166340
695.686	0.0166470
695.764	0.0164435
695.842	0.0163081
695.920	0.0162318
695.998	0.0161662
696.076	0.0162162
696.155	0.0160834
696.233	0.0160488
696.311	0.0159400
696.389	0.0158795
696.467	0.0159397
696.545	0.0159863
696.623	0.0159016
696.701	0.0160047
696.780	0.0161259
696.858	0.0161708
696.936	0.0160887
697.014	0.0161279
697.092	0.0161505
697.170	0.0163600
697.248	0.0165163
697.326	0.0165430
697.405	0.0167136
697.483	0.0169250
697.561	0.0170055
697.639	0.0170041
697.717	0.0170297
697.795	0.0173522
697.873	0.0173522
697.951	0.0174982
698.030	0.0177583
698.108	0.0179222
698.186	0.0178637
698.264	0.0179934
698.342	0.0182104
698.420	0.0182224
698.498	0.0184787
698.576	0.0183974
698.655	0.0182898
698.733	0.0183609
698.811	0.0183639
698.889	0.0182969
698.967	0.0181417
699.045	0.0181988
699.123	0.0179918
699.201	0.0177662
699.280	0.0179175
699.358	0.0178487
699.436	0.0177100
699.514	0.0174059
699.592	0.0172968
699.670	0.0173121
699.748	0.0172021
699.826	0.0170860
699.905	0.0169617
699.983	0.0168211
700.061	0.0166635
700.139	0.0163924
700.217	0.0165239
700.295	0.0163245
700.373	0.0161823
700.451	0.0161530
700.530	0.0161835
700.608	0.0160897
700.686	0.0161339
700.764	0.0161310
700.842	0.0159599
700.920	0.0160945
700.998	0.0160941
701.076	0.0160029
701.155	0.0161246
701.233	0.0160947
701.311	0.0160958
701.389	0.0162209
701.467	0.0162287
701.545	0.0161983
701.623	0.0162401
701.701	0.0165500
701.780	0.0164302
701.858	0.0165082
701.936	0.0165208
702.014	0.0165197
702.092	0.0165311
702.170	0.0164878
702.248	0.0167690
702.326	0.0168044
702.405	0.0168185
702.483	0.0168838
702.561	0.0169245
702.639	0.0169311
702.717	0.0170557
702.795	0.0171329
702.873	0.0172348
702.951	0.0172594
703.030	0.0172878
703.108	0.0173344
703.186	0.0175668
703.264	0.0176107
703.342	0.0175982
703.420	0.0177633
703.498	0.0178642
703.576	0.0178426
703.655	0.0180069
703.733	0.0179410
703.811	0.0178905
703.889	0.0180389
703.967	0.0179630
704.045	0.0178808
704.123	0.0178786
704.201	0.0178209
704.280	0.0176820
704.358	0.0176556
704.436	0.0177102
704.514	0.0176650
704.592	0.0175182
704.670	0.0173374
704.748	0.0173738
704.826	0.0173421
704.905	0.0171516
704.983	0.0169525
705.061	0.0170416
705.139	0.0168238
705.217	0.0168208
705.295	0.0168478
705.373	0.0166994
705.451	0.0166817
705.530	0.0166491
705.608	0.0165907
705.686	0.0166745
705.764	0.0164990
705.842	0.0166197
705.920	0.0166540
705.998	0.0165695
706.076	0.0164935
706.155	0.0165887
706.233	0.0167339
706.311	0.0167238
706.389	0.0168082
706.467	0.0169229
706.545	0.0169548
706.623	0.0167971
706.701	0.0168366
706.780	0.0169477
706.858	0.0169948
706.936	0.0168452
707.014	0.0168618
707.092	0.0169547
707.170	0.0169591
707.248	0.0168421
707.326	0.0167364
707.405	0.0165804
707.483	0.0166775
707.561	0.0165251
707.639	0.0164338
707.717	0.0162292
707.795	0.0163410
707.873	0.0162648
707.951	0.0161991
708.030	0.0161551
708.108	0.0161013
708.186	0.0161346
708.264	0.0160177
708.342	0.0161478
708.420	0.0159922
708.498	0.0161765
708.576	0.0163677
708.655	0.0162836
708.733	0.0162674
708.811	0.0164281
708.889	0.0166595
708.967	0.0165551
709.045	0.0166814
709.123	0.0167601
709.201	0.0168792
709.280	0.0169720
709.358	0.0170484
709.436	0.0171436
709.514	0.0171828
709.592	0.0174187
709.670	0.0173801
709.748	0.0173219
709.826	0.0173052
709.905	0.0175319
709.983	0.0175818
710.061	0.0175996
710.139	0.0177613
710.217	0.0176466
710.295	0.0177985
710.373	0.0177946
710.451	0.0176577
710.530	0.0175867
710.608	0.0177811
710.686	0.0176213
710.764	0.0177599
710.842	0.0176879
710.920	0.0176208
710.998	0.0175738
711.076	0.0176351
711.155	0.0174887
711.233	0.0175228
711.311	0.0175134
711.389	0.0174889
711.467	0.0173239
711.545	0.0173702
711.623	0.0171864
711.701	0.0172774
711.780	0.0171483
711.858	0.0170858
711.936	0.0169330
712.014	0.0168877
712.092	0.0168320
712.170	0.0166563
712.248	0.0166372
712.326	0.0166075
712.405	0.0165068
712.483	0.0164793
712.561	0.0164139
712.639	0.0164346
712.717	0.0164153
712.795	0.0163603
712.873	0.0162787
712.951	0.0163218
713.030	0.0162318
713.108	0.0163395
713.186	0.0162804
713.264	0.0160564
713.342	0.0161600
713.420	0.0161225
713.498	0.0161403
713.576	0.0160964
713.655	0.0159708
713.733	0.0160089
713.811	0.0161391
713.889	0.0160193
713.967	0.0160120
714.045	0.0161997
714.123	0.0162046
714.201	0.0162729
714.280	0.0163515
714.358	0.0163449
714.436	0.0162444
714.514	0.0163696
714.592	0.0164779
714.670	0.0165221
714.748	0.0166459
714.826	0.0166083
714.905	0.0166377
714.983	0.0168211
715.061	0.0168584
715.139	0.0170077
715.217	0.0171634
715.295	0.0172705
715.373	0.0172628
715.451	0.0175204
715.530	0.0175380
715.608	0.0172818
715.686	0.0175238
715.764	0.0177344
715.842	0.0177562
715.920	0.0177222
715.998	0.0177053
716.076	0.0177625
716.155	0.0176236
716.233	0.0174661
716.311	0.0174187
716.389	0.0174953
716.467	0.0174799
716.545	0.0173344
716.623	0.0170993
716.701	0.0170554
716.780	0.0170381
716.858	0.0168468
716.936	0.0167722
717.014	0.0168259
717.092	0.0169061
717.170	0.0166817
717.248	0.0168243
717.326	0.0166116
717.405	0.0165611
717.483	0.0166985
717.561	0.0166530
717.639	0.0165427
717.717	0.0167234
717.795	0.0167077
717.873	0.0167532
717.951	0.0167927
718.030	0.0168629
718.108	0.0169819
718.186	0.0169800
718.264	0.0170166
718.342	0.0170411
718.420	0.0171241
718.498	0.0171287
718.576	0.0172440
718.655	0.0172000
718.733	0.0172735
718.811	0.0175002
718.889	0.0174110
718.967	0.0172893
719.045	0.0174836
719.123	0.0172977
719.201	0.0172218
719.280	0.0172575
719.358	0.0172368
719.436	0.0171310
719.514	0.0170945
719.592	0.0170404
719.670	0.0169137
719.748	0.0167082
719.826	0.0167471
719.905	0.0167091
719.983	0.0164520
720.061	0.0164763
720.139	0.0163518
720.217	0.0162102
720.295	0.0163322
720.373	0.0163253
720.451	0.0162701
720.530	0.0165306
720.608	0.0165538
720.686	0.0163639
720.764	0.0165527
720.842	0.0165008
720.920	0.0166074
720.998	0.0168530
721.076	0.0168509
721.155	0.0168063
721.233	0.0169072
721.311	0.0168645
721.389	0.0169849
721.467	0.0171745
721.545	0.0171676
721.623	0.0172837
721.701	0.0173860
721.780	0.0173553
721.858	0.0173399
721.936	0.0173844
722.014	0.0172702
722.092	0.0174058
722.170	0.0173709
722.248	0.0173901
722.326	0.0173735
722.405	0.0173795
722.483	0.0173470
722.561	0.0172713
722.639	0.0171937
722.717	0.0172786
722.795	0.0170690
722.873	0.0172343
722.951	0.0170400
723.030	0.0170070
723.108	0.0171889
723.186	0.0170798
723.264	0.0170545
723.342	0.0171342
723.420	0.0171256
723.498	0.0171154
723.576	0.0172160
723.655	0.0172329
723.733	0.0173270
723.811	0.0174889
723.889	0.0173912
723.967	0.0172381
724.045	0.0173935
724.123	0.0174189
724.201	0.0173278
724.280	0.0173543
724.358	0.0173069
724.436	0.0172018
724.514	0.0172461
724.592	0.0171704
724.670	0.0172141
724.748	0.0171561
724.826	0.0169920
724.905	0.0170125
724.983	0.0168913
725.061	0.0167376
725.139	0.0166740
725.217	0.0166094
725.295	0.0166122
725.373	0.0165874
725.451	0.0164996
725.530	0.0165366
725.608	0.0166129
725.686	0.0165544
725.764	0.0163289
725.842	0.0165187
725.920	0.0165937
725.998	0.0165882
726.076	0.0166593
726.155	0.0168052
726.233	0.0168430
726.311	0.0167235
726.389	0.0167421
726.467	0.0168110
726.545	0.0168383
726.623	0.0168665
726.701	0.0169763
726.780	0.0168427
726.858	0.0168626
726.936	0.0169498
727.014	0.0169459
727.092	0.0168555
727.170	0.0167125
727.248	0.0166541
727.326	0.0167924
727.405	0.0167018
727.483	0.0166673
727.561	0.0166728
727.639	0.0166510
727.717	0.0166829
727.795	0.0166882
727.873	0.0164723
727.951	0.0166322
728.030	0.0166740
728.108	0.0166384
728.186	0.0168448
728.264	0.0167155
728.342	0.0168211
728.420	0.0167197
728.498	0.0167764
728.576	0.0168873
728.655	0.0170281
728.733	0.0171455
728.811	0.0171781
728.889	0.0172130
728.967	0.0173988
729.045	0.0172080
729.123	0.0173109
729.201	0.0172164
729.280	0.0172972
729.358	0.0173489
729.436	0.0174188
729.514	0.0173112
729.592	0.0173831
729.670	0.0173183
729.748	0.0173025
729.826	0.0170537
729.905	0.0171147
729.983	0.0171839
730.061	0.0169909
730.139	0.0168698
730.217	0.0170257
730.295	0.0171394
730.373	0.0169863
730.451	0.0167874
730.530	0.0167799
730.608	0.0168124
730.686	0.0167307
730.764	0.0168105
730.842	0.0167450
730.920	0.0167306
730.998	0.0165541
731.076	0.0165421
731.155	0.0165608
731.233	0.0165894
731.311	0.0165916
731.389	0.0165631
731.467	0.0165633
731.545	0.0164935
731.623	0.0165273
731.701	0.0163389
731.780	0.0164981
731.858	0.0166247
731.936	0.0163803
732.014	0.0166663
732.092	0.0165617
732.170	0.0166587
732.248	0.0168295
732.326	0.0168222
732.405	0.0169446
732.483	0.0168608
732.561	0.0170464
732.639	0.0170834
732.717	0.0170329
732.795	0.0171610
732.873	0.0171429
732.951	0.0170358
733.030	0.0172000
733.108	0.0172034
733.186	0.0170494
733.264	0.0172186
733.342	0.0172977
733.420	0.0173276
733.498	0.0172323
733.576	0.0171165
733.655	0.0171900
733.733	0.0173044
733.811	0.0171526
733.889	0.0173109
733.967	0.0173003
734.045	0.0172741
734.123	0.0173511
734.201	0.0172837
734.280	0.0171234
734.358	0.0171750
734.436	0.0171813
734.514	0.0172379
734.592	0.0171372
734.670	0.0171044
734.748	0.0170049
734.826	0.0171275
734.905	0.0169190
734.983	0.0167797
735.061	0.0166551
735.139	0.0169285
735.217	0.0168343
735.295	0.0167374
735.373	0.0166544
735.451	0.0165332
735.530	0.0167133
735.608	0.0166258
735.686	0.0165677
735.764	0.0164030
735.842	0.0164198
735.920	0.0164654
735.998	0.0166569
736.076	0.0164987
736.155	0.0165034
736.233	0.0165520
736.311	0.0165649
736.389	0.0166467
736.467	0.0167850
736.545	0.0168089
736.623	0.0168900
736.701	0.0169030
736.780	0.0168883
736.858	0.0169424
736.936	0.0170335
737.014	0.0170293
737.092	0.0172120
737.170	0.0171715
737.248	0.0171677
737.326	0.0171440
737.405	0.0171816
737.483	0.0172390
737.561	0.0171439
737.639	0.0171889
737.717	0.0170512
737.795	0.0171690
737.873	0.0171711
737.951	0.0172380
738.030	0.0171545
738.108	0.0170315
738.186	0.0170626
738.264	0.0169677
738.342	0.0170717
738.420	0.0170351
738.498	0.0170290
738.576	0.0170461
738.655	0.0169577
738.733	0.0168523
738.811	0.0168595
738.889	0.0170329
738.967	0.0168889
739.045	0.0169054
739.123	0.0170283
739.201	0.0169637
739.280	0.0169940
739.358	0.0170135
739.436	0.0168850
739.514	0.0170009
739.592	0.0169970
739.670	0.0171054
739.748	0.0171596
739.826	0.0171158
739.905	0.0170271
739.983	0.0171143
740.061	0.0170638
740.139	0.0170518
740.217	0.0171540
740.295	0.0171230
740.373	0.0168921
740.451	0.0169518
740.530	0.0170932
740.608	0.0170680
740.686	0.0169016
740.764	0.0168537
740.842	0.0167298
740.920	0.0167677
740.998	0.0168854
741.076	0.0168098
741.155	0.0168145
741.233	0.0168474
741.311	0.0169684
741.389	0.0168136
741.467	0.0167760
741.545	0.0168391
741.623	0.0169490
741.701	0.0171013
741.780	0.0170210
741.858	0.0171271
741.936	0.0171598
742.014	0.0171659
742.092	0.0172728
742.170	0.0173887
742.248	0.0172827
742.326	0.0173382
742.405	0.0173222
742.483	0.0172112
742.561	0.0172295
742.639	0.0172203
742.717	0.0170966
742.795	0.0169926
742.873	0.0170573
742.951	0.0169125
743.030	0.0169485
743.108	0.0170377
743.186	0.0166934
743.264	0.0166292
743.342	0.0165847
743.420	0.0166741
743.498	0.0164896
743.576	0.0164972
743.655	0.0165117
743.733	0.0165059
743.811	0.0164700
743.889	0.0166100
743.967	0.0166646
744.045	0.0165610
744.123	0.0165583
744.201	0.0167021
744.280	0.0168043
744.358	0.0168023
744.436	0.0170109
744.514	0.0170577
744.592	0.0168845
744.670	0.0170650
744.748	0.0171494
744.826	0.0172141
744.905	0.0173074
744.983	0.0173148
745.061	0.0172548
745.139	0.0171859
745.217	0.0173527
745.295	0.0172864
745.373	0.0173261
745.451	0.0171895
745.530	0.0171666
745.608	0.0171239
745.686	0.0170473
745.764	0.0170934
745.842	0.0171507
745.920	0.0170061
745.998	0.0170444
746.076	0.0170522
746.155	0.0169587
746.233	0.0169959
746.311	0.0170176
746.389	0.0169419
746.467	0.0169075
746.545	0.0169151
746.623	0.0170060
746.701	0.0167017
746.780	0.0168909
746.858	0.0168039
746.936	0.0166898
747.014	0.0167662
747.092	0.0167979
747.170	0.0167561
747.248	0.0166045
747.326	0.0166599
747.405	0.0168454
747.483	0.0166538
747.561	0.0168280
747.639	0.0167463
747.717	0.0168517
747.795	0.0167654
747.873	0.0167818
747.951	0.0168311
748.030	0.0168726
748.108	0.0168533
748.186	0.0168512
748.264	0.0169643
748.342	0.0169276
748.420	0.0168906
748.498	0.0169399
748.576	0.0167868
748.655	0.0168538
748.733	0.0168766
748.811	0.0168328
748.889	0.0168111
748.967	0.0168999
749.045	0.0166733
749.123	0.0168996
749.201	0.0167950
749.280	0.0169414
749.358	0.0167732
749.436	0.0168806
749.514	0.0169078
749.592	0.0166652
749.670	0.0169165
749.748	0.0169546
749.826	0.0168584
749.905	0.0169653
749.983	0.0169878
750.061	0.0169759
750.139	0.0170116
750.217	0.0169440
750.295	0.0170603
750.373	0.0169606
750.451	0.0168809
750.530	0.0168626
750.608	0.0168565
750.686	0.0168372
750.764	0.0168417
750.842	0.0167770
750.920	0.0167728
750.998	0.0166157
751.076	0.0166379
751.155	0.0166069
751.233	0.0165661
751.311	0.0164561
751.389	0.0163863
751.467	0.0163962
751.545	0.0164063
751.623	0.0164105
751.701	0.0165694
751.780	0.0163881
751.858	0.0165026
751.936	0.0165762
752.014	0.0166180
752.092	0.0166774
752.170	0.0167065
752.248	0.0166853
752.326	0.0169038
752.405	0.0169329
752.483	0.0170887
752.561	0.0171152
752.639	0.0171531
752.717	0.0171744
752.795	0.0172087
752.873	0.0172698
752.951	0.0172641
753.030	0.0172514
753.108	0.0172274
753.186	0.0171621
753.264	0.0171097
753.342	0.0170703
753.420	0.0170423
753.498	0.0168597
753.576	0.0168284
753.655	0.0170502
753.733	0.0168810
753.811	0.0170066
753.889	0.0168019
753.967	0.0168557
754.045	0.0169267
754.123	0.0168005
754.201	0.0168916
754.280	0.0170071
754.358	0.0168876
754.436	0.0169740
754.514	0.0169759
754.592	0.0169566
754.670	0.0169490
754.748	0.0171853
754.826	0.0170723
754.905	0.0171294
754.983	0.0170908
755.061	0.0171252
755.139	0.0171329
755.217	0.0171964
755.295	0.0172276
755.373	0.0171484
755.451	0.0173775
755.530	0.0172857
755.608	0.0171550
755.686	0.0171581
755.764	0.0171806
755.842	0.0171700
755.920	0.0172149
755.998	0.0172440
756.076	0.0171706
756.155	0.0171709
756.233	0.0170116
756.311	0.0171360
756.389	0.0171584
756.467	0.0170302
756.545	0.0172659
756.623	0.0172013
756.701	0.0169926
756.780	0.0169696
756.858	0.0169962
756.936	0.0169825
757.014	0.0169736
757.092	0.0169089
757.170	0.0168767
757.248	0.0171060
757.326	0.0169614
757.405	0.0169532
757.483	0.0169643
757.561	0.0169400
757.639	0.0170317
757.717	0.0171344
757.795	0.0172911
757.873	0.0172604
757.951	0.0171712
758.030	0.0172922
758.108	0.0172195
758.186	0.0171320
758.264	0.0172869
758.342	0.0173280
758.420	0.0172504
758.498	0.0170961
758.576	0.0170310
758.655	0.0171763
758.733	0.0170460
758.811	0.0169779
758.889	0.0169783
758.967	0.0169846
759.045	0.0167979
759.123	0.0168328
759.201	0.0167950
759.280	0.0167194
759.358	0.0166824
759.436	0.0167031
759.514	0.0166865
759.592	0.0167280
759.670	0.0167726
759.748	0.0169759
759.826	0.0168305
759.905	0.0169291
759.983	0.0170139
760.061	0.0170104
760.139	0.0169962
760.217	0.0171412
760.295	0.0171314
760.373	0.0171378
760.451	0.0170283
760.530	0.0170784
760.608	0.0170369
760.686	0.0172276
760.764	0.0171502
760.842	0.0170466
760.920	0.0169284
760.998	0.0169788
761.076	0.0167958
761.155	0.0169963
761.233	0.0169109
761.311	0.0167175
761.389	0.0167549
761.467	0.0167783
761.545	0.0165986
761.623	0.0166901
761.701	0.0167558
761.780	0.0167525
761.858	0.0167989
761.936	0.0168044
762.014	0.0168615
762.092	0.0167643
762.170	0.0168336
762.248	0.0169296
762.326	0.0169673
762.405	0.0170559
762.483	0.0169028
762.561	0.0170428
762.639	0.0170979
762.717	0.0172003
762.795	0.0171684
762.873	0.0172076
762.951	0.0172581
763.030	0.0171989
763.108	0.0171999
763.186	0.0171583
763.264	0.0172301
763.342	0.0171422
763.420	0.0171458
763.498	0.0171636
763.576	0.0172010
763.655	0.0171333
763.733	0.0170724
763.811	0.0170761
763.889	0.0171142
763.967	0.0170666
764.045	0.0171848
764.123	0.0170892
764.201	0.0169370
764.280	0.0170345
764.358	0.0169321
764.436	0.0168674
764.514	0.0168475
764.592	0.0168775
764.670	0.0168089
764.748	0.0168195
764.826	0.0168132
764.905	0.0167904
764.983	0.0167880
765.061	0.0167370
765.139	0.0168278
765.217	0.0167062
765.295	0.0166806
765.373	0.0167882
765.451	0.0168594
765.530	0.0168465
765.608	0.0167926
765.686	0.0167617
765.764	0.0168531
765.842	0.0169641
765.920	0.0171394
765.998	0.0171285
766.076	0.0171626
766.155	0.0173100
766.233	0.0172218
766.311	0.0171316
766.389	0.0171711
766.467	0.0171722
766.545	0.0172431
766.623	0.0173338
766.701	0.0170716
766.780	0.0172019
766.858	0.0171439
766.936	0.0170761
767.014	0.0170432
767.092	0.0170321
767.170	0.0170005
767.248	0.0170110
767.326	0.0170564
767.405	0.0170741
767.483	0.0170614
767.561	0.0170296
767.639	0.0169076
767.717	0.0169984
767.795	0.0170312
767.873	0.0170467
767.951	0.0171444
768.030	0.0172215
768.108	0.0170964
768.186	0.0171234
768.264	0.0170934
768.342	0.0171413
768.420	0.0171023
768.498	0.0171239
768.576	0.0172306
768.655	0.0171072
768.733	0.0170081
768.811	0.0170499
768.889	0.0169935
768.967	0.0169147
769.045	0.0168482
769.123	0.0169205
769.201	0.0169745
769.280	0.0168227
769.358	0.0167144
769.436	0.0164871
769.514	0.0168195
769.592	0.0166376
769.670	0.0166817
769.748	0.0165968
769.826	0.0167558
769.905	0.0166885
769.983	0.0166541
770.061	0.0168198
770.139	0.0168115
770.217	0.0167351
770.295	0.0169669
770.373	0.0169817
770.451	0.0168877
770.530	0.0170788
770.608	0.0171470
770.686	0.0171592
770.764	0.0170882
770.842	0.0171268
770.920	0.0169952
770.998	0.0170496
771.076	0.0170726
771.155	0.0172024
771.233	0.0171728
771.311	0.0170680
771.389	0.0170271
771.467	0.0171516
771.545	0.0173051
771.623	0.0170699
771.701	0.0171516
771.780	0.0170153
771.858	0.0169138
771.936	0.0169755
772.014	0.0169594
772.092	0.0169786
772.170	0.0169290
772.248	0.0168860
772.326	0.0170023
772.405	0.0169534
772.483	0.0167641
772.561	0.0167875
772.639	0.0170435
772.717	0.0168974
772.795	0.0170020
772.873	0.0168920
772.951	0.0167609
773.030	0.0167412
773.108	0.0168425
773.186	0.0168748
773.264	0.0168429
773.342	0.0167547
773.420	0.0168212
773.498	0.0168921
773.576	0.0169366
773.655	0.0168372
773.733	0.0169324
773.811	0.0169448
773.889	0.0170073
773.967	0.0168286
774.045	0.0169950
774.123	0.0169109
774.201	0.0169906
774.280	0.0169785
774.358	0.0169482
774.436	0.0169948
774.514	0.0169796
774.592	0.0169549
774.670	0.0169601
774.748	0.0169875
774.826	0.0168492
774.905	0.0168491
774.983	0.0169878
775.061	0.0170672
775.139	0.0169746
775.217	0.0170157
775.295	0.0170955
775.373	0.0168947
775.451	0.0167232
775.530	0.0169549
775.608	0.0170985
775.686	0.0172210
775.764	0.0169617
775.842	0.0169646
775.920	0.0170966
775.998	0.0170452
776.076	0.0171321
776.155	0.0170019
776.233	0.0169363
776.311	0.0171046
776.389	0.0171644
776.467	0.0171431
776.545	0.0169789
776.623	0.0170861
776.701	0.0169381
776.780	0.0170200
776.858	0.0170584
776.936	0.0169807
777.014	0.0169668
777.092	0.0169653
777.170	0.0168759
777.248	0.0170271
777.326	0.0168627
777.405	0.0168961
777.483	0.0169505
777.561	0.0169598
777.639	0.0168190
777.717	0.0168575
777.795	0.0168600
777.873	0.0170164
777.951	0.0169827
778.030	0.0169318
778.108	0.0169510
778.186	0.0169382
778.264	0.0169852
778.342	0.0170632
778.420	0.0169782
778.498	0.0170115
778.576	0.0171063
778.655	0.0169260
778.733	0.0169714
778.811	0.0170461
778.889	0.0168620
778.967	0.0169486
779.045	0.0169064
779.123	0.0169883
779.201	0.0170155
779.280	0.0169001
779.358	0.0170200
779.436	0.0168958
779.514	0.0167754
779.592	0.0169016
779.670	0.0170477
779.748	0.0168658
779.826	0.0169749
779.905	0.0170376
779.983	0.0169272
780.061	0.0168534
780.139	0.0170300
780.217	0.0169572
780.295	0.0170953
780.373	0.0169674
780.451	0.0169009
780.530	0.0170999
780.608	0.0169749
780.686	0.0170496
780.764	0.0171394
780.842	0.0169627
780.920	0.0170359
780.998	0.0172015
781.076	0.0171717
781.155	0.0172263
781.233	0.0171655
781.311	0.0169904
781.389	0.0169054
781.467	0.0171862
781.545	0.0169984
781.623	0.0169799
781.701	0.0169952
781.780	0.0169914
781.858	0.0169244
781.936	0.0169162
782.014	0.0168704
782.092	0.0168497
782.170	0.0169833
782.248	0.0169032
782.326	0.0167970
782.405	0.0168636
782.483	0.0169867
782.561	0.0169107
782.639	0.0169439
782.717	0.0171312
782.795	0.0169907
782.873	0.0169444
782.951	0.0169832
783.030	0.0170212
783.108	0.0169941
783.186	0.0170520
783.264	0.0169677
783.342	0.0170438
783.420	0.0170973
783.498	0.0169902
783.576	0.0170962
783.655	0.0170775
783.733	0.0170786
783.811	0.0170582
783.889	0.0170830
783.967	0.0169772
784.045	0.0169004
784.123	0.0168069
784.201	0.0168165
784.280	0.0168143
784.358	0.0167419
784.436	0.0166288
784.514	0.0167896
784.592	0.0167473
784.670	0.0166994
784.748	0.0167844
784.826	0.0167177
784.905	0.0165099
784.983	0.0166688
785.061	0.0166830
785.139	0.0166778
785.217	0.0168365
785.295	0.0167377
785.373	0.0168826
785.451	0.0169872
785.530	0.0167943
785.608	0.0168583
785.686	0.0169405
785.764	0.0170306
785.842	0.0169164
785.920	0.0170004
785.998	0.0171323
786.076	0.0171877
786.155	0.0170481
786.233	0.0170066
786.311	0.0170870
786.389	0.0172021
786.467	0.0171368
786.545	0.0172503
786.623	0.0171196
786.701	0.0171004
786.780	0.0171791
786.858	0.0171034
786.936	0.0170665
787.014	0.0171122
787.092	0.0171617
787.170	0.0170929
787.248	0.0171909
787.326	0.0170877
787.405	0.0169945
787.483	0.0169924
787.561	0.0169106
787.639	0.0169595
787.717	0.0170739
787.795	0.0169203
787.873	0.0167703
787.951	0.0168191
788.030	0.0169563
788.108	0.0168824
788.186	0.0169341
788.264	0.0167538
788.342	0.0168635
788.420	0.0168971
788.498	0.0168211
788.576	0.0170721
788.655	0.0170027
788.733	0.0169396
788.811	0.0170723
788.889	0.0169322
788.967	0.0170441
789.045	0.0170004
789.123	0.0170625
789.201	0.0170173
789.280	0.0172559
789.358	0.0170467
789.436	0.0171505
789.514	0.0171069
789.592	0.0172495
789.670	0.0171243
789.748	0.0171827
789.826	0.0171114
789.905	0.0171087
789.983	0.0171855
790.061	0.0173033
790.139	0.0171827
790.217	0.0171268
790.295	0.0170634
790.373	0.0171055
790.451	0.0172234
790.530	0.0170141
790.608	0.0173476
790.686	0.0172369
790.764	0.0170833
790.842	0.0171511
790.920	0.0172634
790.998	0.0173496
791.076	0.0173571
791.155	0.0172412
791.233	0.0173039
791.311	0.0172073
791.389	0.0172424
791.467	0.0172250
791.545	0.0170435
791.623	0.0170825
791.701	0.0168819
791.780	0.0169801
791.858	0.0170012
791.936	0.0168972
792.014	0.0167364
792.092	0.0167720
792.170	0.0166978
792.248	0.0167556
792.326	0.0166213
792.405	0.0166305
792.483	0.0166788
792.561	0.0166666
792.639	0.0165519
792.717	0.0165556
792.795	0.0165506
792.873	0.0166473
792.951	0.0166446
793.030	0.0167013
793.108	0.0166826
793.186	0.0166651
793.264	0.0168226
793.342	0.0168276
793.420	0.0166896
793.498	0.0166891
793.576	0.0168315
793.655	0.0167723
793.733	0.0167683
793.811	0.0168340
793.889	0.0169583
793.967	0.0168515
794.045	0.0168301
794.123	0.0169607
794.201	0.0169140
794.280	0.0168877
794.358	0.0170632
794.436	0.0168847
794.514	0.0170214
794.592	0.0169624
794.670	0.0171010
794.748	0.0171178
794.826	0.0170854
794.905	0.0171970
794.983	0.0171458
795.061	0.0170332
795.139	0.0171926
795.217	0.0172837
795.295	0.0172414
795.373	0.0173091
795.451	0.0171899
795.530	0.0171211
795.608	0.0172031
795.686	0.0172669
795.764	0.0172493
795.842	0.0171177
795.920	0.0171655
795.998	0.0173692
796.076	0.0172414
796.155	0.0171162
796.233	0.0172644
796.311	0.0171120
796.389	0.0170211
796.467	0.0170479
796.545	0.0171658
796.623	0.0171124
796.701	0.0170908
796.780	0.0170779
796.858	0.0171134
796.936	0.0170731
797.014	0.0171038
797.092	0.0171722
797.170	0.0171899
797.248	0.0170075
797.326	0.0169624
797.405	0.0170252
797.483	0.0169647
797.561	0.0169947
797.639	0.0171137
797.717	0.0170140
797.795	0.0168784
797.873	0.0169600
797.951	0.0168601
798.030	0.0169379
798.108	0.0169115
798.186	0.0169316
798.264	0.0169059
798.342	0.0169456
798.420	0.0168729
798.498	0.0167725
798.576	0.0168692
798.655	0.0169571
798.733	0.0169128
798.811	0.0168626
798.889	0.0170528
798.967	0.0169020
799.045	0.0168143
799.123	0.0171307
799.201	0.0170968
799.280	0.0171667
799.358	0.0172662
799.436	0.0171663
799.514	0.0172849
799.592	0.0171866
799.670	0.0172163
799.748	0.0172805
799.826	0.0171740
799.905	0.0171883
799.983	0.0173436
800.061	0.0172466
800.139	0.0172321
800.217	0.0174046
800.295	0.0172864
800.373	0.0172388
800.451	0.0172925
800.530	0.0172330
800.608	0.0171803
800.686	0.0173045
800.764	0.0173962
800.842	0.0172305
800.920	0.0172959
800.998	0.0171815
801.076	0.0173073
801.155	0.0173920
801.233	0.0172395
801.311	0.0172550
801.389	0.0171906
801.467	0.0170956
801.545	0.0173222
801.623	0.0171706
801.701	0.0172043
801.780	0.0172707
801.858	0.0171482
801.936	0.0169944
802.014	0.0170970
802.092	0.0171334
802.170	0.0169350
802.248	0.0168696
802.326	0.0168839
802.405	0.0169130
802.483	0.0168900
802.561	0.0166670
802.639	0.0166383
802.717	0.0167779
802.795	0.0167065
802.873	0.0166753
802.951	0.0168188
803.030	0.0166247
803.108	0.0166555
803.186	0.0167030
803.264	0.0166684
803.342	0.0168775
803.420	0.0167677
803.498	0.0167499
803.576	0.0166789
803.655	0.0167024
803.733	0.0167472
803.811	0.0167380
803.889	0.0167959
803.967	0.0167942
804.045	0.0168471
804.123	0.0168089
804.201	0.0167495
804.280	0.0167197
804.358	0.0169126
804.436	0.0166841
804.514	0.0167878
804.592	0.0169202
804.670	0.0167735
804.748	0.0167697
804.826	0.0169607
804.905	0.0169198
804.983	0.0169147
805.061	0.0169682
805.139	0.0170402
805.217	0.0171183
805.295	0.0170406
805.373	0.0170013
805.451	0.0171022
805.530	0.0171371
805.608	0.0171110
805.686	0.0171214
805.764	0.0171243
805.842	0.0171219
805.920	0.0170153
805.998	0.0169587
806.076	0.0171953
806.155	0.0170362
806.233	0.0170398
806.311	0.0171288
806.389	0.0170807
806.467	0.0171146
806.545	0.0168826
806.623	0.0169305
806.701	0.0169760
806.780	0.0169794
806.858	0.0171985
806.936	0.0169736
807.014	0.0170181
807.092	0.0171422
807.170	0.0171021
807.248	0.0171691
807.326	0.0171457
807.405	0.0171979
807.483	0.0172108
807.561	0.0173208
807.639	0.0171677
807.717	0.0172150
807.795	0.0170791
807.873	0.0171568
807.951	0.0170226
808.030	0.0170885
808.108	0.0170468
808.186	0.0170293
808.264	0.0170092
808.342	0.0170721
808.420	0.0168987
808.498	0.0170670
808.576	0.0168231
808.655	0.0168453
808.733	0.0169205
808.811	0.0167117
808.889	0.0166420
808.967	0.0167323
809.045	0.0166847
809.123	0.0167442
809.201	0.0166740
809.280	0.0167959
809.358	0.0168178
809.436	0.0165785
809.514	0.0167436
809.592	0.0168522
809.670	0.0168788
809.748	0.0168452
809.826	0.0167332
809.905	0.0168013
809.983	0.0168770
810.061	0.0170953
810.139	0.0169260
810.217	0.0169178
810.295	0.0170730
810.373	0.0168292
810.451	0.0169203
810.530	0.0169546
810.608	0.0168854
810.686	0.0169006
810.764	0.0169785
810.842	0.0169579
810.920	0.0169523
810.998	0.0169709
811.076	0.0168932
811.155	0.0170731
811.233	0.0170458
811.311	0.0169975
811.389	0.0170466
811.467	0.0169474
811.545	0.0170478
811.623	0.0171184
811.701	0.0172560
811.780	0.0171268
811.858	0.0170647
811.936	0.0171474
812.014	0.0172141
812.092	0.0171998
812.170	0.0171231
812.248	0.0171740
812.326	0.0171663
812.405	0.0172780
812.483	0.0172321
812.561	0.0172356
812.639	0.0172540
812.717	0.0172437
812.795	0.0173564
812.873	0.0171349
812.951	0.0171235
813.030	0.0171181
813.108	0.0170932
813.186	0.0170165
813.264	0.0170375
813.342	0.0170965
813.420	0.0171169
813.498	0.0169669
813.576	0.0169613
813.655	0.0169678
813.733	0.0169366
813.811	0.0169460
813.889	0.0169045
813.967	0.0168992
814.045	0.0167297
814.123	0.0168376
814.201	0.0167758
814.280	0.0167616
814.358	0.0167235
814.436	0.0167653
814.514	0.0167604
814.592	0.0167239
814.670	0.0165994
814.748	0.0166315
814.826	0.0166547
814.905	0.0165326
814.983	0.0167290
815.061	0.0167123
815.139	0.0165945
815.217	0.0167372
815.295	0.0168610
815.373	0.0166665
815.451	0.0168335
815.530	0.0168760
815.608	0.0168400
815.686	0.0170215
815.764	0.0168462
815.842	0.0169418
815.920	0.0170370
815.998	0.0169980
816.076	0.0171413
816.155	0.0168563
816.233	0.0170315
816.311	0.0168913
816.389	0.0169090
816.467	0.0169667
816.545	0.0169161
816.623	0.0169492
816.701	0.0169561
816.780	0.0168999
816.858	0.0169001
816.936	0.0168625
817.014	0.0169775
817.092	0.0169247
817.170	0.0170193
817.248	0.0168688
817.326	0.0168951
817.405	0.0169065
817.483	0.0169650
817.561	0.0170971
817.639	0.0169553
817.717	0.0171503
817.795	0.0170611
817.873	0.0169334
817.951	0.0170345
818.030	0.0171012
818.108	0.0170827
818.186	0.0170115
818.264	0.0170427
818.342	0.0170286
818.420	0.0169627
818.498	0.0169212
818.576	0.0169565
818.655	0.0170390
818.733	0.0169772
818.811	0.0168552
818.889	0.0169268
818.967	0.0169402
819.045	0.0170360
819.123	0.0170116
819.201	0.0170428
819.280	0.0169759
819.358	0.0168399
819.436	0.0169125
819.514	0.0170052
819.592	0.0170332
819.670	0.0170755
819.748	0.0172490
819.826	0.0172056
819.905	0.0171745
819.983	0.0172620
820.061	0.0172183
820.139	0.0172591
820.217	0.0172717
820.295	0.0172400
820.373	0.0172385
820.451	0.0173421
820.530	0.0173793
820.608	0.0173456
820.686	0.0173144
820.764	0.0172388
820.842	0.0173295
820.920	0.0173008
820.998	0.0172388
821.076	0.0173518
821.155	0.0172324
821.233	0.0172012
821.311	0.0173350
821.389	0.0172421
821.467	0.0171056
821.545	0.0170786
821.623	0.0171320
821.701	0.0170582
821.780	0.0172340
821.858	0.0172353
821.936	0.0172496
822.014	0.0171690
822.092	0.0171238
822.170	0.0172325
822.248	0.0171941
822.326	0.0171189
822.405	0.0169942
822.483	0.0171251
822.561	0.0171000
822.639	0.0170508
822.717	0.0171247
822.795	0.0171086
822.873	0.0170878
822.951	0.0169785
823.030	0.0170783
823.108	0.0170724
823.186	0.0170584
823.264	0.0170285
823.342	0.0170446
823.420	0.0171095
823.498	0.0172565
823.576	0.0169643
823.655	0.0170573
823.733	0.0171732
823.811	0.0171886
823.889	0.0172193
823.967	0.0172697
824.045	0.0172431
824.123	0.0173961
824.201	0.0172742
824.280	0.0172535
824.358	0.0172115
824.436	0.0172927
824.514	0.0171933
824.592	0.0171606
824.670	0.0171602
824.748	0.0170699
824.826	0.0169141
824.905	0.0168960
824.983	0.0170359
825.061	0.0169769
825.139	0.0170436
825.217	0.0169572
825.295	0.0169785
825.373	0.0171225
825.451	0.0170007
825.530	0.0170528
825.608	0.0169991
825.686	0.0169180
825.764	0.0170319
825.842	0.0168143
825.920	0.0168825
825.998	0.0169380
826.076	0.0169506
826.155	0.0169543
826.233	0.0168751
826.311	0.0168795
826.389	0.0169749
826.467	0.0168890
826.545	0.0168151
826.623	0.0168781
826.701	0.0168767
826.780	0.0168351
826.858	0.0168387
826.936	0.0167480
827.014	0.0167753
827.092	0.0166975
827.170	0.0168277
827.248	0.0167158
827.326	0.0168098
827.405	0.0167954
827.483	0.0168572
827.561	0.0167309
827.639	0.0165281
827.717	0.0167573
827.795	0.0166055
827.873	0.0166836
827.951	0.0167258
828.030	0.0166656
828.108	0.0166015
828.186	0.0166436
828.264	0.0167002
828.342	0.0167426
828.420	0.0166120
828.498	0.0167419
828.576	0.0168061
828.655	0.0168379
828.733	0.0167786
828.811	0.0168795
828.889	0.0167653
828.967	0.0166954
829.045	0.0168604
829.123	0.0167716
829.201	0.0168559
829.280	0.0168970
829.358	0.0166846
829.436	0.0167340
829.514	0.0167299
829.592	0.0168142
829.670	0.0166560
829.748	0.0166412
829.826	0.0166930
829.905	0.0167381
829.983	0.0167923
830.061	0.0167374
830.139	0.0166882
830.217	0.0167229
830.295	0.0168295
830.373	0.0167714
830.451	0.0167902
830.530	0.0167499
830.608	0.0168076
830.686	0.0169388
830.764	0.0168966
830.842	0.0168267
830.920	0.0167133
830.998	0.0168681
831.076	0.0168089
831.155	0.0168162
831.233	0.0169566
831.311	0.0169637
831.389	0.0168494
831.467	0.0169197
831.545	0.0169817
831.623	0.0167847
831.701	0.0168852
831.780	0.0168913
831.858	0.0169807
831.936	0.0169016
832.014	0.0166623
832.092	0.0168043
832.170	0.0170129
832.248	0.0169323
832.326	0.0168805
832.405	0.0169182
832.483	0.0169825
832.561	0.0168449
832.639	0.0168636
832.717	0.0168913
832.795	0.0169320
832.873	0.0170206
832.951	0.0170661
833.030	0.0168416
833.108	0.0169875
833.186	0.0169270
833.264	0.0169419
833.342	0.0170889
833.420	0.0169675
833.498	0.0170397
833.576	0.0170705
833.655	0.0170020
833.733	0.0169833
833.811	0.0168895
833.889	0.0169340
833.967	0.0171494
834.045	0.0170149
834.123	0.0168335
834.201	0.0169833
834.280	0.0168925
834.358	0.0169595
834.436	0.0168684
834.514	0.0170410
834.592	0.0170156
834.670	0.0169624
834.748	0.0169161
834.826	0.0169814
834.905	0.0169599
834.983	0.0170303
835.061	0.0170338
835.139	0.0170692
835.217	0.0170203
835.295	0.0170155
835.373	0.0171309
835.451	0.0169513
835.530	0.0171491
835.608	0.0171576
835.686	0.0169838
835.764	0.0170685
835.842	0.0171549
835.920	0.0171562
835.998	0.0171030
836.076	0.0170405
836.155	0.0170269
836.233	0.0171455
836.311	0.0171350
836.389	0.0170296
836.467	0.0169809
836.545	0.0171366
836.623	0.0171430
836.701	0.0171660
836.780	0.0171361
836.858	0.0171592
836.936	0.0172141
837.014	0.0170657
837.092	0.0169865
837.170	0.0170022
837.248	0.0170120
837.326	0.0170009
837.405	0.0170900
837.483	0.0169602
837.561	0.0170082
837.639	0.0170879
837.717	0.0169930
837.795	0.0171848
837.873	0.0170454
837.951	0.0169041
838.030	0.0169118
838.108	0.0169240
838.186	0.0170011
838.264	0.0169230
838.342	0.0168881
838.420	0.0169498
838.498	0.0168598
838.576	0.0167790
838.655	0.0167610
838.733	0.0169121
838.811	0.0168264
838.889	0.0168579
838.967	0.0168644
839.045	0.0168979
839.123	0.0169096
839.201	0.0168529
839.280	0.0168230
839.358	0.0169958
839.436	0.0169838
839.514	0.0169195
839.592	0.0168784
839.670	0.0167961
839.748	0.0168221
839.826	0.0167336
839.905	0.0167141
839.983	0.0167897
840.061	0.0168778
840.139	0.0169678
840.217	0.0169048
840.295	0.0167402
840.373	0.0168176
840.451	0.0168719
840.530	0.0165858
840.608	0.0169599
840.686	0.0169601
840.764	0.0167758
840.842	0.0169375
840.920	0.0171017
840.998	0.0169862
841.076	0.0169861
841.155	0.0169673
841.233	0.0169933
841.311	0.0170814
841.389	0.0170567
841.467	0.0170895
841.545	0.0170982
841.623	0.0171090
841.701	0.0170331
841.780	0.0170934
841.858	0.0173259
841.936	0.0171652
842.014	0.0170948
842.092	0.0171680
842.170	0.0172533
842.248	0.0171619
842.326	0.0171266
842.405	0.0170638
842.483	0.0170556
842.561	0.0169267
842.639	0.0170355
842.717	0.0170739
842.795	0.0170951
842.873	0.0168326
842.951	0.0170690
843.030	0.0170215
843.108	0.0170477
843.186	0.0170064
843.264	0.0168435
843.342	0.0168423
843.420	0.0169273
843.498	0.0169232
843.576	0.0169835
843.655	0.0170109
843.733	0.0168156
843.811	0.0169079
843.889	0.0169227
843.967	0.0169476
844.045	0.0167985
844.123	0.0168495
844.201	0.0168710
844.280	0.0170119
844.358	0.0169003
844.436	0.0168018
844.514	0.0169046
844.592	0.0168251
844.670	0.0168132
844.748	0.0169255
844.826	0.0169434
844.905	0.0168014
844.983	0.0167976
845.061	0.0170045
845.139	0.0170072
845.217	0.0169554
845.295	0.0170617
845.373	0.0170741
845.451	0.0170522
845.530	0.0170953
845.608	0.0170388
845.686	0.0171720
845.764	0.0170674
845.842	0.0171136
845.920	0.0170204
845.998	0.0169874
846.076	0.0169888
846.155	0.0168732
846.233	0.0170613
846.311	0.0170585
846.389	0.0169672
846.467	0.0169627
846.545	0.0169913
846.623	0.0168161
846.701	0.0168677
846.780	0.0169245
846.858	0.0170216
846.936	0.0169640
847.014	0.0169337
847.092	0.0170564
847.170	0.0170982
847.248	0.0170199
847.326	0.0170284
847.405	0.0170803
847.483	0.0170430
847.561	0.0169115
847.639	0.0169687
847.717	0.0171124
847.795	0.0170079
847.873	0.0168678
847.951	0.0169532
848.030	0.0168391
848.108	0.0168493
848.186	0.0168724
848.264	0.0168802
848.342	0.0169479
848.420	0.0168064
848.498	0.0168070
848.576	0.0169296
848.655	0.0169252
848.733	0.0168804
848.811	0.0169835
848.889	0.0168547
848.967	0.0168764
849.045	0.0170251
849.123	0.0170296
849.201	0.0170313
849.280	0.0170587
849.358	0.0170579
849.436	0.0170251
849.514	0.0169704
849.592	0.0171263
849.670	0.0172218
849.748	0.0169542
849.826	0.0169944
849.905	0.0168427
849.983	0.0169314
850.061	0.0168709
850.139	0.0167695
850.217	0.0169216
850.295	0.0168515
850.373	0.0169436
850.451	0.0168706
850.530	0.0168629
850.608	0.0167029
850.686	0.0168451
850.764	0.0168985
850.842	0.0168095
850.920	0.0167576
850.998	0.0167872
851.076	0.0167986
851.155	0.0167184
851.233	0.0167432
851.311	0.0167918
851.389	0.0168288
851.467	0.0167373
851.545	0.0167143
851.623	0.0168689
851.701	0.0168076
851.780	0.0168198
851.858	0.0167854
851.936	0.0168931
852.014	0.0167863
852.092	0.0170169
852.170	0.0168420
852.248	0.0168284
852.326	0.0167686
852.405	0.0169635
852.483	0.0168502
852.561	0.0168062
852.639	0.0168604
852.717	0.0168538
852.795	0.0168258
852.873	0.0167492
852.951	0.0169238
853.030	0.0167591
853.108	0.0170044
853.186	0.0170035
853.264	0.0169508
853.342	0.0169604
853.420	0.0169114
853.498	0.0169765
853.576	0.0170773
853.655	0.0169716
853.733	0.0170153
853.811	0.0170745
853.889	0.0170863
853.967	0.0171130
854.045	0.0171393
854.123	0.0171045
854.201	0.0169552
854.280	0.0170505
854.358	0.0170559
854.436	0.0169935
854.514	0.0169264
854.592	0.0168600
854.670	0.0168937
854.748	0.0170227
854.826	0.0168997
854.905	0.0168536
854.983	0.0168958
855.061	0.0169015
855.139	0.0168851
855.217	0.0168408
855.295	0.0169774
855.373	0.0169251
855.451	0.0168443
855.530	0.0167934
855.608	0.0169738
855.686	0.0169336
855.764	0.0169842
855.842	0.0169115
855.920	0.0168951
855.998	0.0168831
856.076	0.0169707
856.155	0.0168430
856.233	0.0169489
856.311	0.0170384
856.389	0.0170080
856.467	0.0169618
856.545	0.0167401
856.623	0.0168962
856.701	0.0170338
856.780	0.0170144
856.858	0.0170516
856.936	0.0171164
857.014	0.0171523
857.092	0.0171651
857.170	0.0172100
857.248	0.0172020
857.326	0.0171278
857.405	0.0172726
857.483	0.0172240
857.561	0.0172809
857.639	0.0171114
857.717	0.0170786
857.795	0.0171920
857.873	0.0172187
857.951	0.0172412
858.030	0.0170824
858.108	0.0170706
858.186	0.0170636
858.264	0.0170779
858.342	0.0170148
858.420	0.0169325
858.498	0.0170591
858.576	0.0169452
858.655	0.0169125
858.733	0.0169545
858.811	0.0168159
858.889	0.0169423
858.967	0.0168620
859.045	0.0169554
859.123	0.0169740
859.201	0.0168762
859.280	0.0169226
859.358	0.0168340
859.436	0.0168896
859.514	0.0168787
859.592	0.0167847
859.670	0.0167996
859.748	0.0169526
859.826	0.0170119
859.905	0.0169752
859.983	0.0170186
860.061	0.0170526
860.139	0.0170978
860.217	0.0169693
860.295	0.0171214
860.373	0.0170114
860.451	0.0170541
860.530	0.0171320
860.608	0.0171129
860.686	0.0171271
860.764	0.0170817
860.842	0.0172311
860.920	0.0171529
860.998	0.0171317
861.076	0.0171505
861.155	0.0172117
861.233	0.0170656
861.311	0.0171210
861.389	0.0170647
861.467	0.0171681
861.545	0.0170655
861.623	0.0169977
861.701	0.0169757
861.780	0.0169710
861.858	0.0169419
861.936	0.0170286
862.014	0.0171180
862.092	0.0169301
862.170	0.0170048
862.248	0.0168581
862.326	0.0170361
862.405	0.0168975
862.483	0.0169757
862.561	0.0168468
862.639	0.0168478
862.717	0.0168586
862.795	0.0169541
862.873	0.0168712
862.951	0.0168640
863.030	0.0168599
863.108	0.0169608
863.186	0.0170477
863.264	0.0169526
863.342	0.0169086
863.420	0.0170092
863.498	0.0171484
863.576	0.0170080
863.655	0.0170722
863.733	0.0170602
863.811	0.0171574
863.889	0.0171641
863.967	0.0170621
864.045	0.0170402
864.123	0.0169579
864.201	0.0172623
864.280	0.0172205
864.358	0.0171670
864.436	0.0171098
864.514	0.0172114
864.592	0.0171536
864.670	0.0170905
864.748	0.0169823
864.826	0.0170898
864.905	0.0171416
864.983	0.0170292
865.061	0.0170019
865.139	0.0169801
865.217	0.0168860
865.295	0.0170129
865.373	0.0169373
865.451	0.0169135
865.530	0.0168439
865.608	0.0169838
865.686	0.0168925
865.764	0.0168162
865.842	0.0168957
865.920	0.0169326
865.998	0.0169067
866.076	0.0169755
866.155	0.0168103
866.233	0.0168631
866.311	0.0169082
866.389	0.0168037
866.467	0.0167860
866.545	0.0169278
866.623	0.0169199
866.701	0.0167451
866.780	0.0166634
866.858	0.0168284
866.936	0.0167452
867.014	0.0167963
867.092	0.0167303
867.170	0.0167487
867.248	0.0167807
867.326	0.0167879
867.405	0.0168951
867.483	0.0167403
867.561	0.0166029
867.639	0.0166734
867.717	0.0168132
867.795	0.0169592
867.873	0.0169048
867.951	0.0167504
868.030	0.0166822
868.108	0.0168758
868.186	0.0168027
868.264	0.0166973
868.342	0.0167233
868.420	0.0167489
868.498	0.0168100
868.576	0.0167466
868.655	0.0167968
868.733	0.0166933
868.811	0.0167722
868.889	0.0167973
868.967	0.0167564
869.045	0.0168427
869.123	0.0168710
869.201	0.0168462
869.280	0.0168372
869.358	0.0168742
869.436	0.0169175
869.514	0.0169362
869.592	0.0167031
869.670	0.0169147
869.748	0.0169139
869.826	0.0169812
869.905	0.0169761
869.983	0.0169999
870.061	0.0170766
870.139	0.0170734
870.217	0.0169627
870.295	0.0170573
870.373	0.0170917
870.451	0.0169621
870.530	0.0169518
870.608	0.0172182
870.686	0.0171790
870.764	0.0172715
870.842	0.0170957
870.920	0.0170289
870.998	0.0171923
871.076	0.0172050
871.155	0.0171819
871.233	0.0172330
871.311	0.0171573
871.389	0.0172295
871.467	0.0172134
871.545	0.0170503
871.623	0.0172009
871.701	0.0171361
871.780	0.0171474
871.858	0.0170944
871.936	0.0170832
872.014	0.0170429
872.092	0.0171503
872.170	0.0171063
872.248	0.0171664
872.326	0.0170884
872.405	0.0170110
872.483	0.0171677
872.561	0.0170743
872.639	0.0171087
872.717	0.0172088
872.795	0.0172506
872.873	0.0172128
872.951	0.0171550
873.030	0.0171702
873.108	0.0170389
873.186	0.0171339
873.264	0.0171471
873.342	0.0170786
873.420	0.0171490
873.498	0.0170488
873.576	0.0170676
873.655	0.0170159
873.733	0.0170271
873.811	0.0169506
873.889	0.0170374
873.967	0.0169005
874.045	0.0170049
874.123	0.0170190
874.201	0.0167896
874.280	0.0169205
874.358	0.0167471
874.436	0.0168808
874.514	0.0168949
874.592	0.0168220
874.670	0.0168283
874.748	0.0169079
874.826	0.0168393
874.905	0.0169772
874.983	0.0168825
875.061	0.0167438
875.139	0.0168332
875.217	0.0167415
875.295	0.0167794
875.373	0.0167851
875.451	0.0167466
875.530	0.0168156
875.608	0.0168929
875.686	0.0168131
875.764	0.0167751
875.842	0.0167552
875.920	0.0167926
875.998	0.0167723
876.076	0.0167889
876.155	0.0168732
876.233	0.0168240
876.311	0.0168055
876.389	0.0169874
876.467	0.0169603
876.545	0.0167540
876.623	0.0168231
876.701	0.0169242
876.780	0.0169026
876.858	0.0168694
876.936	0.0170684
877.014	0.0168976
877.092	0.0169315
877.170	0.0169234
877.248	0.0170656
877.326	0.0170021
877.405	0.0172549
877.483	0.0170367
877.561	0.0171009
877.639	0.0170495
877.717	0.0171081
877.795	0.0170613
877.873	0.0171564
877.951	0.0170876
878.030	0.0171557
878.108	0.0170864
878.186	0.0170686
878.264	0.0170920
878.342	0.0172752
878.420	0.0169475
878.498	0.0170340
878.576	0.0170467
878.655	0.0169579
878.733	0.0169381
878.811	0.0169450
878.889	0.0169389
878.967	0.0169844
879.045	0.0169442
879.123	0.0168446
879.201	0.0168560
879.280	0.0168919
879.358	0.0169143
879.436	0.0168802
879.514	0.0170010
879.592	0.0169573
879.670	0.0170518
879.748	0.0169032
879.826	0.0168689
879.905	0.0169164
879.983	0.0170347
880.061	0.0169404
880.139	0.0169151
880.217	0.0171439
880.295	0.0170073
880.373	0.0170721
880.451	0.0169788
880.530	0.0169936
880.608	0.0171362
880.686	0.0171161
880.764	0.0170097
880.842	0.0170973
880.920	0.0171316
880.998	0.0170334
881.076	0.0170318
881.155	0.0170097
881.233	0.0170230
881.311	0.0169309
881.389	0.0170480
881.467	0.0169929
881.545	0.0169707
881.623	0.0169440
881.701	0.0169888
881.780	0.0168012
881.858	0.0169114
881.936	0.0167582
882.014	0.0168069
882.092	0.0167912
882.170	0.0167839
882.248	0.0169035
882.326	0.0168189
882.405	0.0167897
882.483	0.0168163
882.561	0.0166740
882.639	0.0167495
882.717	0.0168109
882.795	0.0168385
882.873	0.0168533
882.951	0.0168215
883.030	0.0168033
883.108	0.0169267
883.186	0.0169260
883.264	0.0167757
883.342	0.0169263
883.420	0.0169919
883.498	0.0169719
883.576	0.0169051
883.655	0.0170795
883.733	0.0169901
883.811	0.0169613
883.889	0.0169261
883.967	0.0169539
884.045	0.0170454
884.123	0.0171081
884.201	0.0170054
884.280	0.0170544
884.358	0.0171459
884.436	0.0170780
884.514	0.0170856
884.592	0.0169731
884.670	0.0170682
884.748	0.0171699
884.826	0.0171930
884.905	0.0170843
884.983	0.0169760
885.061	0.0170145
885.139	0.0170209
885.217	0.0168287
885.295	0.0169808
885.373	0.0170316
885.451	0.0171432
885.530	0.0169506
885.608	0.0170778
885.686	0.0170309
885.764	0.0170526
885.842	0.0169891
885.920	0.0170920
885.998	0.0170829
886.076	0.0169246
886.155	0.0168775
886.233	0.0169266
886.311	0.0169494
886.389	0.0168893
886.467	0.0168836
886.545	0.0170325
886.623	0.0170618
886.701	0.0170515
886.780	0.0170236
886.858	0.0170123
886.936	0.0169640
887.014	0.0170241
887.092	0.0170191
887.170	0.0169611
887.248	0.0169315
887.326	0.0171103
887.405	0.0169190
887.483	0.0168729
887.561	0.0168971
887.639	0.0170049
887.717	0.0170494
887.795	0.0170508
887.873	0.0169665
887.951	0.0170387
888.030	0.0168891
888.108	0.0169832
888.186	0.0170392
888.264	0.0170202
888.342	0.0171360
888.420	0.0169742
888.498	0.0169501
888.576	0.0168970
888.655	0.0169608
888.733	0.0171611
888.811	0.0169720
888.889	0.0169734
888.967	0.0169454
889.045	0.0169495
889.123	0.0169804
889.201	0.0169376
889.280	0.0170646
889.358	0.0169870
889.436	0.0170055
889.514	0.0170255
889.592	0.0171040
889.670	0.0170880
889.748	0.0170694
889.826	0.0171038
889.905	0.0169765
889.983	0.0169721
890.061	0.0169646
890.139	0.0170755
890.217	0.0170981
890.295	0.0169942
890.373	0.0170634
890.451	0.0169029
890.530	0.0170164
890.608	0.0168780
890.686	0.0170013
890.764	0.0169379
890.842	0.0170249
890.920	0.0170546
890.998	0.0168806
891.076	0.0170509
891.155	0.0170187
891.233	0.0170004
891.311	0.0169232
891.389	0.0169103
891.467	0.0169367
891.545	0.0168307
891.623	0.0168694
891.701	0.0169025
891.780	0.0168661
891.858	0.0168945
891.936	0.0169520
892.014	0.0167914
892.092	0.0168899
892.170	0.0169418
892.248	0.0170105
892.326	0.0169767
892.405	0.0168919
892.483	0.0170390
892.561	0.0169341
892.639	0.0168225
892.717	0.0170161
892.795	0.0171319
892.873	0.0169243
892.951	0.0169441
893.030	0.0170032
893.108	0.0170407
893.186	0.0170564
893.264	0.0171085
893.342	0.0169400
893.420	0.0170663
893.498	0.0170554
893.576	0.0170673
893.655	0.0169250
893.733	0.0170723
893.811	0.0171203
893.889	0.0170027
893.967	0.0169402
894.045	0.0168655
894.123	0.0170174
894.201	0.0169908
894.280	0.0169366
894.358	0.0170452
894.436	0.0170956
894.514	0.0169599
894.592	0.0168824
894.670	0.0169424
894.748	0.0170027
894.826	0.0170601
894.905	0.0167619
894.983	0.0169090
895.061	0.0170493
895.139	0.0168304
895.217	0.0168407
895.295	0.0169054
895.373	0.0169044
895.451	0.0168387
895.530	0.0169984
895.608	0.0168139
895.686	0.0169556
895.764	0.0170272
895.842	0.0169524
895.920	0.0168324
895.998	0.0167837
896.076	0.0168024
896.155	0.0168576
896.233	0.0169421
896.311	0.0169408
896.389	0.0168256
896.467	0.0167689
896.545	0.0168361
896.623	0.0168018
896.701	0.0168753
896.780	0.0167926
896.858	0.0167163
896.936	0.0168054
897.014	0.0169956
897.092	0.0167516
897.170	0.0167507
897.248	0.0169572
897.326	0.0168544
897.405	0.0169187
897.483	0.0169540
897.561	0.0169260
897.639	0.0168840
897.717	0.0169180
897.795	0.0169169
897.873	0.0169535
897.951	0.0170039
898.030	0.0169102
898.108	0.0168691
898.186	0.0169716
898.264	0.0170274
898.342	0.0169495
898.420	0.0170197
898.498	0.0169704
898.576	0.0170164
898.655	0.0169380
898.733	0.0169831
898.811	0.0168740
898.889	0.0169824
898.967	0.0169298
899.045	0.0167490
899.123	0.0169012
899.201	0.0170659
899.280	0.0168417
899.358	0.0168719
899.436	0.0168291
899.514	0.0167580
899.592	0.0169670
899.670	0.0168713
899.748	0.0168928
899.826	0.0168935
899.905	0.0169930
899.983	0.0170196
900.061	0.0169271
900.139	0.0170053
900.217	0.0170095
900.295	0.0170453
900.373	0.0170462
900.451	0.0169409
900.530	0.0170981
900.608	0.0171436
900.686	0.0169081
900.764	0.0170254
900.842	0.0171737
900.920	0.0170967
900.998	0.0170377
901.076	0.0170394
901.155	0.0170732
901.233	0.0171136
901.311	0.0170559
901.389	0.0170392
901.467	0.0170699
901.545	0.0170202
901.623	0.0170592
901.701	0.0171452
901.780	0.0169803
901.858	0.0169410
901.936	0.0170086
902.014	0.0169217
902.092	0.0168652
902.170	0.0169952
902.248	0.0170744
902.326	0.0170113
902.405	0.0171146
902.483	0.0169551
902.561	0.0170596
902.639	0.0170368
902.717	0.0169548
902.795	0.0170631
902.873	0.0169528
902.951	0.0170059
903.030	0.0170897
903.108	0.0170908
903.186	0.0169693
903.264	0.0170028
903.342	0.0170068
903.420	0.0170523
903.498	0.0170254
903.576	0.0170101
903.655	0.0170549
903.733	0.0169063
903.811	0.0171243
903.889	0.0171467
903.967	0.0171069
904.045	0.0171201
904.123	0.0170689
904.201	0.0170042
904.280	0.0170883
904.358	0.0169756
904.436	0.0169989
904.514	0.0170491
904.592	0.0170195
904.670	0.0170006
904.748	0.0169047
904.826	0.0169852
904.905	0.0169700
904.983	0.0170650
905.061	0.0170017
905.139	0.0170167
905.217	0.0169667
905.295	0.0169370
905.373	0.0169221
905.451	0.0169533
905.530	0.0170174
905.608	0.0170461
905.686	0.0169556
905.764	0.0170161
905.842	0.0168917
905.920	0.0170135
905.998	0.0169347
906.076	0.0168655
906.155	0.0170410
906.233	0.0170491
906.311	0.0169324
906.389	0.0169305
906.467	0.0170262
906.545	0.0170227
906.623	0.0169049
906.701	0.0169644
906.780	0.0167783
906.858	0.0168079
906.936	0.0169222
907.014	0.0167949
907.092	0.0168977
907.170	0.0169166
907.248	0.0168964
907.326	0.0168002
907.405	0.0167576
907.483	0.0168492
907.561	0.0169461
907.639	0.0168394
907.717	0.0168497
907.795	0.0169479
907.873	0.0167580
907.951	0.0167654
908.030	0.0170076
908.108	0.0169636
908.186	0.0168501
908.264	0.0168143
908.342	0.0169060
908.420	0.0169233
908.498	0.0169569
908.576	0.0167937
908.655	0.0168602
908.733	0.0168978
908.811	0.0169019
908.889	0.0169461
908.967	0.0169325
909.045	0.0170075
909.123	0.0170023
909.201	0.0170004
909.280	0.0170338
909.358	0.0171026
909.436	0.0170155
909.514	0.0170927
909.592	0.0170960
909.670	0.0171359
909.748	0.0171652
909.826	0.0170152
909.905	0.0171153
909.983	0.0171986
910.061	0.0170678
910.139	0.0171220
910.217	0.0171458
910.295	0.0171387
910.373	0.0172703
910.451	0.0171714
910.530	0.0171231
910.608	0.0170172
910.686	0.0170669
910.764	0.0171069
910.842	0.0170610
910.920	0.0171969
910.998	0.0169678
911.076	0.0169982
911.155	0.0170351
911.233	0.0170570
911.311	0.0168628
911.389	0.0169487
911.467	0.0170245
911.545	0.0169612
911.623	0.0168784
911.701	0.0169308
911.780	0.0170808
911.858	0.0170751
911.936	0.0170529
912.014	0.0168442
912.092	0.0169920
912.170	0.0169478
912.248	0.0169433
912.326	0.0168762
912.405	0.0170858
912.483	0.0169578
912.561	0.0171257
912.639	0.0169869
912.717	0.0169442
912.795	0.0170448
912.873	0.0168605
912.951	0.0168880
913.030	0.0170021
913.108	0.0170792
913.186	0.0170415
913.264	0.0170210
913.342	0.0169395
913.420	0.0170610
913.498	0.0171010
913.576	0.0169344
913.655	0.0170794
913.733	0.0169867
913.811	0.0170650
913.889	0.0171120
913.967	0.0170236
914.045	0.0169335
914.123	0.0168987
914.201	0.0170394
914.280	0.0169262
914.358	0.0168225
914.436	0.0167963
914.514	0.0168898
914.592	0.0170442
914.670	0.0169526
914.748	0.0169426
914.826	0.0169009
914.905	0.0169315
914.983	0.0169834
915.061	0.0170009
915.139	0.0168706
915.217	0.0168140
915.295	0.0169692
915.373	0.0169807
915.451	0.0170089
915.530	0.0170020
915.608	0.0170466
915.686	0.0170622
915.764	0.0169286
915.842	0.0169453
915.920	0.0169651
915.998	0.0169511
916.076	0.0169308
916.155	0.0169376
916.233	0.0169423
916.311	0.0167774
916.389	0.0169107
916.467	0.0169766
916.545	0.0169540
916.623	0.0170081
916.701	0.0169334
916.780	0.0169765
916.858	0.0170203
916.936	0.0170969
917.014	0.0169423
917.092	0.0170094
917.170	0.0170766
917.248	0.0170114
917.326	0.0169753
917.405	0.0170431
917.483	0.0171188
917.561	0.0169495
917.639	0.0170688
917.717	0.0168343
917.795	0.0169178
917.873	0.0169713
917.951	0.0168752
918.030	0.0168769
918.108	0.0171613
918.186	0.0168993
918.264	0.0169991
918.342	0.0170260
918.420	0.0168482
918.498	0.0168115
918.576	0.0169691
918.655	0.0169305
918.733	0.0169269
918.811	0.0170854
918.889	0.0169147
918.967	0.0169603
919.045	0.0167990
919.123	0.0169843
919.201	0.0170451
919.280	0.0170808
919.358	0.0169756
919.436	0.0169594
919.514	0.0169241
919.592	0.0169832
919.670	0.0171137
919.748	0.0169983
919.826	0.0170183
919.905	0.0171006
919.983	0.0170740
920.061	0.0170207
920.139	0.0171654
920.217	0.0170770
920.295	0.0171906
920.373	0.0171624
920.451	0.0170060
920.530	0.0171138
920.608	0.0170820
920.686	0.0170897
920.764	0.0171651
920.842	0.0170720
920.920	0.0170635
920.998	0.0170694
921.076	0.0171208
921.155	0.0170091
921.233	0.0169794
921.311	0.0170345
921.389	0.0169218
921.467	0.0170230
921.545	0.0170603
921.623	0.0169167
921.701	0.0169344
921.780	0.0169727
921.858	0.0169830
921.936	0.0170155
922.014	0.0169823
922.092	0.0170313
922.170	0.0168653
922.248	0.0169871
922.326	0.0171007
922.405	0.0170576
922.483	0.0169690
922.561	0.0169751
922.639	0.0170517
922.717	0.0169746
922.795	0.0169977
922.873	0.0171437
922.951	0.0169830
923.030	0.0168882
923.108	0.0170462
923.186	0.0169804
923.264	0.0169870
923.342	0.0170958
923.420	0.0169659
923.498	0.0170374
923.576	0.0171115
923.655	0.0169856
923.733	0.0170917
923.811	0.0171278
923.889	0.0170281
923.967	0.0171091
924.045	0.0170672
924.123	0.0170562
924.201	0.0170379
924.280	0.0170969
924.358	0.0170305
924.436	0.0172147
924.514	0.0169234
924.592	0.0170152
924.670	0.0171664
924.748	0.0171014
924.826	0.0170866
924.905	0.0171310
924.983	0.0169968
925.061	0.0170074
925.139	0.0171004
925.217	0.0171032
925.295	0.0171308
925.373	0.0170602
925.451	0.0171245
925.530	0.0169839
925.608	0.0171313
925.686	0.0169773
925.764	0.0169160
925.842	0.0168928
925.920	0.0169920
925.998	0.0170255
926.076	0.0169001
926.155	0.0170064
926.233	0.0169475
926.311	0.0169802
926.389	0.0169606
926.467	0.0170914
926.545	0.0169354
926.623	0.0169402
926.701	0.0168954
926.780	0.0169714
926.858	0.0169191
926.936	0.0168252
927.014	0.0170285
927.092	0.0170441
927.170	0.0170245
927.248	0.0170163
927.326	0.0170206
927.405	0.0168401
927.483	0.0169804
927.561	0.0169894
927.639	0.0169779
927.717	0.0169475
927.795	0.0170090
927.873	0.0171243
927.951	0.0169362
928.030	0.0169200
928.108	0.0170206
928.186	0.0169318
928.264	0.0169024
928.342	0.0168721
928.420	0.0168630
928.498	0.0168774
928.576	0.0169997
928.655	0.0168803
928.733	0.0169360
928.811	0.0169054
928.889	0.0167626
928.967	0.0167624
929.045	0.0167860
929.123	0.0169093
929.201	0.0167042
929.280	0.0168020
929.358	0.0168491
929.436	0.0168566
929.514	0.0168889
929.592	0.0167985
929.670	0.0167284
929.748	0.0167841
929.826	0.0167736
929.905	0.0167484
929.983	0.0167139
930.061	0.0167673
930.139	0.0168587
930.217	0.0169130
930.295	0.0168908
930.373	0.0167508
930.451	0.0168947
930.530	0.0168492
930.608	0.0169040
930.686	0.0169614
930.764	0.0169646
930.842	0.0169636
930.920	0.0170660
930.998	0.0170616
931.076	0.0169382
931.155	0.0169913
931.233	0.0172057
931.311	0.0170116
931.389	0.0170490
931.467	0.0170606
931.545	0.0171156
931.623	0.0169566
931.701	0.0170949
931.780	0.0170734
931.858	0.0170934
931.936	0.0171130
932.014	0.0169666
932.092	0.0171244
932.170	0.0171347
932.248	0.0170387
932.326	0.0171015
932.405	0.0170277
932.483	0.0170729
932.561	0.0171409
932.639	0.0170398
932.717	0.0169972
932.795	0.0170915
932.873	0.0169530
932.951	0.0171858
933.030	0.0171383
933.108	0.0169131
933.186	0.0170799
933.264	0.0170529
933.342	0.0171037
933.420	0.0172057
933.498	0.0170663
933.576	0.0170703
933.655	0.0170959
933.733	0.0171786
933.811	0.0170998
933.889	0.0171177
933.967	0.0170544
934.045	0.0171840
934.123	0.0170844
934.201	0.0171193
934.280	0.0170627
934.358	0.0170394
934.436	0.0169943
934.514	0.0171680
934.592	0.0170737
934.670	0.0170025
934.748	0.0172718
934.826	0.0170600
934.905	0.0169830
934.983	0.0170442
935.061	0.0170881
935.139	0.0171804
935.217	0.0169688
935.295	0.0169808
935.373	0.0171198
935.451	0.0170886
935.530	0.0171334
935.608	0.0169272
935.686	0.0169804
935.764	0.0171791
935.842	0.0171519
935.920	0.0171586
935.998	0.0171773
936.076	0.0172144
936.155	0.0170271
936.233	0.0169762
936.311	0.0171503
936.389	0.0170969
936.467	0.0172346
936.545	0.0170210
936.623	0.0170882
936.701	0.0173075
936.780	0.0170307
936.858	0.0170010
936.936	0.0170703
937.014	0.0169613
937.092	0.0170479
937.170	0.0170521
937.248	0.0168911
937.326	0.0168739
937.405	0.0169659
937.483	0.0169808
937.561	0.0170154
937.639	0.0169516
937.717	0.0169117
937.795	0.0169387
937.873	0.0169794
937.951	0.0168856
938.030	0.0169060
938.108	0.0169515
938.186	0.0169756
938.264	0.0169752
938.342	0.0169299
938.420	0.0170025
938.498	0.0169030
938.576	0.0170468
938.655	0.0168816
938.733	0.0170251
938.811	0.0170996
938.889	0.0169356
938.967	0.0169058
939.045	0.0171420
939.123	0.0170127
939.201	0.0171295
939.280	0.0171337
939.358	0.0170900
939.436	0.0171690
939.514	0.0169910
939.592	0.0171034
939.670	0.0171405
939.748	0.0171644
939.826	0.0170972
939.905	0.0170452
939.983	0.0171460
940.061	0.0171591
940.139	0.0172087
940.217	0.0169813
940.295	0.0169934
940.373	0.0171004
940.451	0.0171028
940.530	0.0170203
940.608	0.0170460
940.686	0.0172378
940.764	0.0170455
940.842	0.0170679
940.920	0.0169950
940.998	0.0169776
941.076	0.0169360
941.155	0.0169548
941.233	0.0170098
941.311	0.0169701
941.389	0.0170114
941.467	0.0169405
941.545	0.0169979
941.623	0.0169360
941.701	0.0170345
941.780	0.0170425
941.858	0.0171029
941.936	0.0171417
942.014	0.0170242
942.092	0.0168433
942.170	0.0170353
942.248	0.0169775
942.326	0.0169595
942.405	0.0169398
942.483	0.0169784
942.561	0.0168825
942.639	0.0169954
942.717	0.0169656
942.795	0.0169836
942.873	0.0169364
942.951	0.0169424
943.030	0.0169417
943.108	0.0170055
943.186	0.0170195
943.264	0.0169282
943.342	0.0168531
943.420	0.0170769
943.498	0.0171874
943.576	0.0169398
943.655	0.0170267
943.733	0.0170217
943.811	0.0170043
943.889	0.0170409
943.967	0.0169179
944.045	0.0171814
944.123	0.0170087
944.201	0.0170414
944.280	0.0170820
944.358	0.0170280
944.436	0.0169351
944.514	0.0168932
944.592	0.0169272
944.670	0.0170004
944.748	0.0169687
944.826	0.0168764
944.905	0.0170103
944.983	0.0168971
945.061	0.0170518
945.139	0.0169488
945.217	0.0168816
945.295	0.0169585
945.373	0.0168694
945.451	0.0168027
945.530	0.0168832
945.608	0.0169502
945.686	0.0168143
945.764	0.0167508
945.842	0.0167805
945.920	0.0168176
945.998	0.0168565
946.076	0.0170252
946.155	0.0168990
946.233	0.0168781
946.311	0.0169756
946.389	0.0168633
946.467	0.0168856
946.545	0.0167714
946.623	0.0168135
946.701	0.0168156
946.780	0.0168933
946.858	0.0168722
946.936	0.0169034
947.014	0.0169708
947.092	0.0168807
947.170	0.0168090
947.248	0.0168362
947.326	0.0169263
947.405	0.0168212
947.483	0.0168366
947.561	0.0170555
947.639	0.0169614
947.717	0.0169834
947.795	0.0168480
947.873	0.0169340
947.951	0.0169931
948.030	0.0168227
948.108	0.0169714
948.186	0.0171547
948.264	0.0169654
948.342	0.0169085
948.420	0.0170774
948.498	0.0170441
948.576	0.0169955
948.655	0.0169819
948.733	0.0169215
948.811	0.0168866
948.889	0.0169765
948.967	0.0170675
949.045	0.0170228
949.123	0.0170684
949.201	0.0170640
949.280	0.0171638
949.358	0.0170147
949.436	0.0171361
949.514	0.0170766
949.592	0.0170515
949.670	0.0171336
949.748	0.0170377
949.826	0.0170554
949.905	0.0170197
949.983	0.0171321
950.061	0.0172355
950.139	0.0171200
950.217	0.0170770
950.295	0.0171436
950.373	0.0169962
950.451	0.0169975
950.530	0.0170114
950.608	0.0169801
950.686	0.0171134
950.764	0.0169984
950.842	0.0170482
950.920	0.0169283
950.998	0.0170853
951.076	0.0169631
951.155	0.0168879
951.233	0.0171178
951.311	0.0170391
951.389	0.0170380
951.467	0.0169456
951.545	0.0168511
951.623	0.0167943
951.701	0.0168402
951.780	0.0169174
951.858	0.0168252
951.936	0.0168400
952.014	0.0168530
952.092	0.0168235
952.170	0.0168394
952.248	0.0167476
952.326	0.0166333
952.405	0.0168064
952.483	0.0168414
952.561	0.0168146
952.639	0.0166794
952.717	0.0167950
952.795	0.0167645
952.873	0.0167645
952.951	0.0168066
953.030	0.0167630
953.108	0.0168035
953.186	0.0169413
953.264	0.0167911
953.342	0.0167804
953.420	0.0169472
953.498	0.0169293
953.576	0.0168240
953.655	0.0169798
953.733	0.0170755
953.811	0.0169740
953.889	0.0168854
953.967	0.0168935
954.045	0.0169803
954.123	0.0169131
954.201	0.0170306
954.280	0.0170992
954.358	0.0169464
954.436	0.0170889
954.514	0.0170555
954.592	0.0170592
954.670	0.0169942
954.748	0.0169971
954.826	0.0171663
954.905	0.0170539
954.983	0.0170182
955.061	0.0169523
955.139	0.0169989
955.217	0.0170178
955.295	0.0170117
955.373	0.0169664
955.451	0.0170714
955.530	0.0171246
955.608	0.0171088
955.686	0.0170055
955.764	0.0170469
955.842	0.0170756
955.920	0.0169787
955.998	0.0170649
956.076	0.0171770
956.155	0.0170985
956.233	0.0170000
956.311	0.0169794
956.389	0.0171841
956.467	0.0171125
956.545	0.0171125
956.623	0.0170535
956.701	0.0170846
956.780	0.0171011
956.858	0.0170907
956.936	0.0171563
957.014	0.0170132
957.092	0.0170370
957.170	0.0171444
957.248	0.0171556
957.326	0.0171614
957.405	0.0172375
957.483	0.0170126
957.561	0.0171024
957.639	0.0170740
957.717	0.0171039
957.795	0.0171497
957.873	0.0170585
957.951	0.0171944
958.030	0.0171905
958.108	0.0170621
958.186	0.0170073
958.264	0.0171106
958.342	0.0169518
958.420	0.0170728
958.498	0.0168919
958.576	0.0170802
958.655	0.0171614
958.733	0.0170026
958.811	0.0170506
958.889	0.0170843
958.967	0.0171382
959.045	0.0169830
959.123	0.0170700
959.201	0.0169505
959.280	0.0169350
959.358	0.0169632
959.436	0.0169363
959.514	0.0169382
959.592	0.0168702
959.670	0.0169395
959.748	0.0169158
959.826	0.0167165
959.905	0.0168399
