05/17/2022	17:08:09	Ver.	4.1	UNKNOWN
Optical Delay	639.982744	Delta X		0.078125	Sweeps	1	Scan Rate	0/0
Coordinates	Axis 1	NaN	Axis 2	NaN	Axis 3	NaN	Axis 4	NaN	Axis 5	NaN	Axis 6	0.000000
TX Power	0.000000	RX Power	0.000000

639.983	0.0165125
640.061	0.0165430
640.139	0.0165655
640.217	0.0165307
640.295	0.0165071
640.373	0.0165325
640.451	0.0166279
640.530	0.0166096
640.608	0.0165852
640.686	0.0166677
640.764	0.0165942
640.842	0.0164933
640.920	0.0165835
640.998	0.0166862
641.076	0.0165990
641.155	0.0165605
641.233	0.0165440
641.311	0.0166547
641.389	0.0167970
641.467	0.0167940
641.545	0.0164760
641.623	0.0165779
641.701	0.0167707
641.780	0.0167717
641.858	0.0167064
641.936	0.0167511
642.014	0.0168838
642.092	0.0168645
642.170	0.0169459
642.248	0.0168511
642.326	0.0168239
642.405	0.0169025
642.483	0.0167676
642.561	0.0167605
642.639	0.0167959
642.717	0.0167716
642.795	0.0167046
642.873	0.0167334
642.951	0.0168272
643.030	0.0166936
643.108	0.0167130
643.186	0.0168309
643.264	0.0167208
643.342	0.0167074
643.420	0.0167413
643.498	0.0166389
643.576	0.0165760
643.655	0.0168033
643.733	0.0167824
643.811	0.0166685
643.889	0.0165932
643.967	0.0165498
644.045	0.0165610
644.123	0.0165853
644.201	0.0164742
644.280	0.0165498
644.358	0.0164825
644.436	0.0163737
644.514	0.0164024
644.592	0.0164059
644.670	0.0163578
644.748	0.0162253
644.826	0.0162765
644.905	0.0162161
644.983	0.0163024
645.061	0.0162003
645.139	0.0162388
645.217	0.0163426
645.295	0.0163962
645.373	0.0162534
645.451	0.0162901
645.530	0.0162373
645.608	0.0163142
645.686	0.0162080
645.764	0.0161485
645.842	0.0161964
645.920	0.0163031
645.998	0.0162765
646.076	0.0159935
646.155	0.0162334
646.233	0.0163654
646.311	0.0161902
646.389	0.0162059
646.467	0.0162350
646.545	0.0162322
646.623	0.0162776
646.701	0.0164176
646.780	0.0163458
646.858	0.0163716
646.936	0.0164114
647.014	0.0163606
647.092	0.0164003
647.170	0.0164506
647.248	0.0164146
647.326	0.0163278
647.405	0.0164462
647.483	0.0163668
647.561	0.0165410
647.639	0.0164967
647.717	0.0164114
647.795	0.0165352
647.873	0.0165510
647.951	0.0165077
648.030	0.0164467
648.108	0.0164468
648.186	0.0166138
648.264	0.0164264
648.342	0.0166496
648.420	0.0165817
648.498	0.0166078
648.576	0.0165527
648.655	0.0165678
648.733	0.0166080
648.811	0.0166035
648.889	0.0167070
648.967	0.0165477
649.045	0.0166759
649.123	0.0166148
649.201	0.0166537
649.280	0.0165855
649.358	0.0167039
649.436	0.0166811
649.514	0.0166083
649.592	0.0167049
649.670	0.0167389
649.748	0.0165547
649.826	0.0165664
649.905	0.0165940
649.983	0.0165633
650.061	0.0164552
650.139	0.0164674
650.217	0.0165117
650.295	0.0164945
650.373	0.0165512
650.451	0.0164322
650.530	0.0164026
650.608	0.0164869
650.686	0.0165046
650.764	0.0164928
650.842	0.0164520
650.920	0.0163702
650.998	0.0163607
651.076	0.0164265
651.155	0.0164481
651.233	0.0165149
651.311	0.0164152
651.389	0.0164278
651.467	0.0163478
651.545	0.0163924
651.623	0.0164376
651.701	0.0165030
651.780	0.0165845
651.858	0.0165324
651.936	0.0165538
652.014	0.0166140
652.092	0.0166122
652.170	0.0165865
652.248	0.0166289
652.326	0.0165938
652.405	0.0165359
652.483	0.0165426
652.561	0.0165717
652.639	0.0166387
652.717	0.0165927
652.795	0.0167138
652.873	0.0165694
652.951	0.0167758
653.030	0.0164654
653.108	0.0166289
653.186	0.0167165
653.264	0.0165650
653.342	0.0166372
653.420	0.0165604
653.498	0.0166063
653.576	0.0166879
653.655	0.0165561
653.733	0.0167305
653.811	0.0165784
653.889	0.0166272
653.967	0.0167142
654.045	0.0165105
654.123	0.0165952
654.201	0.0166835
654.280	0.0167132
654.358	0.0165670
654.436	0.0166533
654.514	0.0165940
654.592	0.0166412
654.670	0.0166493
654.748	0.0167307
654.826	0.0166752
654.905	0.0166756
654.983	0.0167637
655.061	0.0166600
655.139	0.0170134
655.217	0.0168932
655.295	0.0167894
655.373	0.0167167
655.451	0.0167350
655.530	0.0167650
655.608	0.0168324
655.686	0.0167044
655.764	0.0167622
655.842	0.0167895
655.920	0.0167005
655.998	0.0166428
656.076	0.0165965
656.155	0.0166957
656.233	0.0166993
656.311	0.0165519
656.389	0.0165154
656.467	0.0166915
656.545	0.0166969
656.623	0.0164789
656.701	0.0165891
656.780	0.0165311
656.858	0.0165784
656.936	0.0164404
657.014	0.0165314
657.092	0.0167799
657.170	0.0166203
657.248	0.0165969
657.326	0.0164290
657.405	0.0165755
657.483	0.0166634
657.561	0.0166785
657.639	0.0166351
657.717	0.0165874
657.795	0.0167178
657.873	0.0167268
657.951	0.0167294
658.030	0.0167599
658.108	0.0165836
658.186	0.0167149
658.264	0.0167963
658.342	0.0166950
658.420	0.0166864
658.498	0.0166708
658.576	0.0166782
658.655	0.0167512
658.733	0.0166514
658.811	0.0166555
658.889	0.0166711
658.967	0.0166417
659.045	0.0165496
659.123	0.0165809
659.201	0.0165821
659.280	0.0166319
659.358	0.0165794
659.436	0.0165330
659.514	0.0165343
659.592	0.0165437
659.670	0.0166441
659.748	0.0164908
659.826	0.0164926
659.905	0.0165462
659.983	0.0164884
660.061	0.0165083
660.139	0.0164815
660.217	0.0165735
660.295	0.0164668
660.373	0.0166460
660.451	0.0165919
660.530	0.0165228
660.608	0.0167771
660.686	0.0167178
660.764	0.0165839
660.842	0.0167719
660.920	0.0166489
660.998	0.0167624
661.076	0.0166322
661.155	0.0167671
661.233	0.0166978
661.311	0.0166568
661.389	0.0167838
661.467	0.0166022
661.545	0.0167268
661.623	0.0168135
661.701	0.0168430
661.780	0.0169012
661.858	0.0168615
661.936	0.0168114
662.014	0.0167801
662.092	0.0169106
662.170	0.0168984
662.248	0.0169425
662.326	0.0169949
662.405	0.0169897
662.483	0.0169866
662.561	0.0170605
662.639	0.0169145
662.717	0.0168514
662.795	0.0169924
662.873	0.0168459
662.951	0.0168740
663.030	0.0170081
663.108	0.0167221
663.186	0.0167538
663.264	0.0167019
663.342	0.0166972
663.420	0.0166888
663.498	0.0166437
663.576	0.0165556
663.655	0.0165907
663.733	0.0164255
663.811	0.0164693
663.889	0.0164395
663.967	0.0162227
664.045	0.0162239
664.123	0.0162712
664.201	0.0161767
664.280	0.0162220
664.358	0.0161695
664.436	0.0161522
664.514	0.0161930
664.592	0.0160908
664.670	0.0161096
664.748	0.0159665
664.826	0.0159547
664.905	0.0161749
664.983	0.0163747
665.061	0.0163596
665.139	0.0163371
665.217	0.0164227
665.295	0.0164826
665.373	0.0165559
665.451	0.0165852
665.530	0.0167643
665.608	0.0167854
665.686	0.0167525
665.764	0.0168978
665.842	0.0169734
665.920	0.0169441
665.998	0.0169356
666.076	0.0170397
666.155	0.0172480
666.233	0.0172301
666.311	0.0171240
666.389	0.0172089
666.467	0.0173241
666.545	0.0170738
666.623	0.0170461
666.701	0.0172182
666.780	0.0169649
666.858	0.0168453
666.936	0.0167403
667.014	0.0165620
667.092	0.0165554
667.170	0.0163933
667.248	0.0162993
667.326	0.0161444
667.405	0.0159825
667.483	0.0159956
667.561	0.0159013
667.639	0.0156953
667.717	0.0155765
667.795	0.0155554
667.873	0.0156164
667.951	0.0154097
668.030	0.0153564
668.108	0.0153752
668.186	0.0153859
668.264	0.0153559
668.342	0.0153447
668.420	0.0155495
668.498	0.0156842
668.576	0.0156987
668.655	0.0159629
668.733	0.0160471
668.811	0.0162663
668.889	0.0164708
668.967	0.0165541
669.045	0.0167279
669.123	0.0169955
669.201	0.0170580
669.280	0.0171346
669.358	0.0174353
669.436	0.0174857
669.514	0.0175591
669.592	0.0178587
669.670	0.0177694
669.748	0.0177071
669.826	0.0178662
669.905	0.0177791
669.983	0.0178535
670.061	0.0177636
670.139	0.0176716
670.217	0.0175835
670.295	0.0173946
670.373	0.0172675
670.451	0.0171572
670.530	0.0170168
670.608	0.0169223
670.686	0.0166932
670.764	0.0166486
670.842	0.0165060
670.920	0.0162575
670.998	0.0162807
671.076	0.0160796
671.155	0.0158459
671.233	0.0159050
671.311	0.0158636
671.389	0.0156797
671.467	0.0156467
671.545	0.0155797
671.623	0.0155451
671.701	0.0154742
671.780	0.0156423
671.858	0.0157111
671.936	0.0156533
672.014	0.0157932
672.092	0.0158095
672.170	0.0158408
672.248	0.0160038
672.326	0.0162115
672.405	0.0165024
672.483	0.0164160
672.561	0.0166003
672.639	0.0168137
672.717	0.0168214
672.795	0.0169353
672.873	0.0171301
672.951	0.0173133
673.030	0.0174029
673.108	0.0174031
673.186	0.0174236
673.264	0.0174042
673.342	0.0175562
673.420	0.0175632
673.498	0.0173533
673.576	0.0174540
673.655	0.0173627
673.733	0.0173907
673.811	0.0171842
673.889	0.0171490
673.967	0.0171593
674.045	0.0170599
674.123	0.0170203
674.201	0.0168445
674.280	0.0167809
674.358	0.0166084
674.436	0.0165254
674.514	0.0165456
674.592	0.0164958
674.670	0.0164342
674.748	0.0163483
674.826	0.0163596
674.905	0.0164040
674.983	0.0163194
675.061	0.0163809
675.139	0.0164111
675.217	0.0163252
675.295	0.0163152
675.373	0.0165327
675.451	0.0165056
675.530	0.0165793
675.608	0.0167458
675.686	0.0165993
675.764	0.0165855
675.842	0.0166573
675.920	0.0165788
675.998	0.0166545
676.076	0.0166529
676.155	0.0166799
676.233	0.0165315
676.311	0.0165851
676.389	0.0164955
676.467	0.0163576
676.545	0.0163779
676.623	0.0165358
676.701	0.0163696
676.780	0.0164011
676.858	0.0161646
676.936	0.0160814
677.014	0.0161900
677.092	0.0161047
677.170	0.0160309
677.248	0.0161546
677.326	0.0162280
677.405	0.0161514
677.483	0.0161037
677.561	0.0162817
677.639	0.0161665
677.717	0.0162074
677.795	0.0163359
677.873	0.0165122
677.951	0.0164953
678.030	0.0166363
678.108	0.0167413
678.186	0.0169321
678.264	0.0167566
678.342	0.0169332
678.420	0.0169731
678.498	0.0169841
678.576	0.0170241
678.655	0.0170518
678.733	0.0171246
678.811	0.0171011
678.889	0.0170258
678.967	0.0170000
679.045	0.0169004
679.123	0.0169353
679.201	0.0169102
679.280	0.0166566
679.358	0.0166547
679.436	0.0165943
679.514	0.0164547
679.592	0.0163608
679.670	0.0163162
679.748	0.0163206
679.826	0.0162527
679.905	0.0163074
679.983	0.0163093
680.061	0.0163024
680.139	0.0162524
680.217	0.0162388
680.295	0.0161770
680.373	0.0163413
680.451	0.0162433
680.530	0.0161514
680.608	0.0163685
680.686	0.0163596
680.764	0.0164982
680.842	0.0164330
680.920	0.0164866
680.998	0.0163620
681.076	0.0165384
681.155	0.0165508
681.233	0.0166342
681.311	0.0165865
681.389	0.0166985
681.467	0.0165713
681.545	0.0166491
681.623	0.0165403
681.701	0.0165019
681.780	0.0165116
681.858	0.0163485
681.936	0.0164902
682.014	0.0163207
682.092	0.0162612
682.170	0.0164249
682.248	0.0162496
682.326	0.0161927
682.405	0.0160795
682.483	0.0161750
682.561	0.0162219
682.639	0.0161348
682.717	0.0161490
682.795	0.0161163
682.873	0.0162044
682.951	0.0163520
683.030	0.0163983
683.108	0.0163036
683.186	0.0165879
683.264	0.0167204
683.342	0.0166393
683.420	0.0166817
683.498	0.0169426
683.576	0.0170200
683.655	0.0171545
683.733	0.0170373
683.811	0.0173228
683.889	0.0172560
683.967	0.0173157
684.045	0.0173203
684.123	0.0172798
684.201	0.0172446
684.280	0.0172385
684.358	0.0172339
684.436	0.0171535
684.514	0.0170141
684.592	0.0169347
684.670	0.0168211
684.748	0.0167992
684.826	0.0166039
684.905	0.0163187
684.983	0.0163409
685.061	0.0162141
685.139	0.0161677
685.217	0.0161100
685.295	0.0161104
685.373	0.0159013
685.451	0.0159461
685.530	0.0159224
685.608	0.0159874
685.686	0.0160379
685.764	0.0161322
685.842	0.0160915
685.920	0.0161828
685.998	0.0163882
686.076	0.0164204
686.155	0.0167069
686.233	0.0168488
686.311	0.0168970
686.389	0.0169439
686.467	0.0170232
686.545	0.0171342
686.623	0.0171854
686.701	0.0172603
686.780	0.0172890
686.858	0.0173566
686.936	0.0174148
687.014	0.0173285
687.092	0.0174240
687.170	0.0171676
687.248	0.0171114
687.326	0.0171336
687.405	0.0169833
687.483	0.0167146
687.561	0.0165257
687.639	0.0165079
687.717	0.0162769
687.795	0.0161781
687.873	0.0161725
687.951	0.0161144
688.030	0.0158146
688.108	0.0156937
688.186	0.0155823
688.264	0.0154102
688.342	0.0155030
688.420	0.0155565
688.498	0.0154514
688.576	0.0155878
688.655	0.0155411
688.733	0.0155688
688.811	0.0158459
688.889	0.0157269
688.967	0.0158982
689.045	0.0163270
689.123	0.0163503
689.201	0.0163345
689.280	0.0166451
689.358	0.0169410
689.436	0.0171705
689.514	0.0173987
689.592	0.0172648
689.670	0.0175142
689.748	0.0174950
689.826	0.0177775
689.905	0.0177631
689.983	0.0178343
690.061	0.0179576
690.139	0.0178883
690.217	0.0177470
690.295	0.0177885
690.373	0.0176242
690.451	0.0175942
690.530	0.0173258
690.608	0.0172720
690.686	0.0170901
690.764	0.0168246
690.842	0.0168018
690.920	0.0166031
690.998	0.0164664
691.076	0.0162860
691.155	0.0161555
691.233	0.0159906
691.311	0.0159444
691.389	0.0158717
691.467	0.0158607
691.545	0.0158563
691.623	0.0157048
691.701	0.0157123
691.780	0.0156663
691.858	0.0158141
691.936	0.0157351
692.014	0.0158241
692.092	0.0158201
692.170	0.0159232
692.248	0.0158170
692.326	0.0157653
692.405	0.0158987
692.483	0.0159641
692.561	0.0161469
692.639	0.0160758
692.717	0.0161819
692.795	0.0161816
692.873	0.0162676
692.951	0.0162125
693.030	0.0162489
693.108	0.0165006
693.186	0.0165347
693.264	0.0165960
693.342	0.0165943
693.420	0.0166866
693.498	0.0169081
693.576	0.0169479
693.655	0.0169009
693.733	0.0169701
693.811	0.0169791
693.889	0.0170152
693.967	0.0171431
694.045	0.0171750
694.123	0.0171791
694.201	0.0172771
694.280	0.0171021
694.358	0.0173103
694.436	0.0174437
694.514	0.0172748
694.592	0.0173089
694.670	0.0172025
694.748	0.0172646
694.826	0.0173047
694.905	0.0171024
694.983	0.0171442
695.061	0.0172034
695.139	0.0169521
695.217	0.0168090
695.295	0.0168757
695.373	0.0167371
695.451	0.0166790
695.530	0.0164264
695.608	0.0162312
695.686	0.0161155
695.764	0.0161334
695.842	0.0160159
695.920	0.0160577
695.998	0.0158781
696.076	0.0157914
696.155	0.0157638
696.233	0.0157098
696.311	0.0156554
696.389	0.0158457
696.467	0.0155918
696.545	0.0158675
696.623	0.0157414
696.701	0.0157505
696.780	0.0157548
696.858	0.0157617
696.936	0.0158912
697.014	0.0159104
697.092	0.0159688
697.170	0.0161749
697.248	0.0161702
697.326	0.0162775
697.405	0.0163953
697.483	0.0162914
697.561	0.0164388
697.639	0.0166216
697.717	0.0167646
697.795	0.0167712
697.873	0.0167062
697.951	0.0168866
698.030	0.0171001
698.108	0.0171502
698.186	0.0173116
698.264	0.0173025
698.342	0.0173964
698.420	0.0174937
698.498	0.0173679
698.576	0.0174116
698.655	0.0175720
698.733	0.0177161
698.811	0.0177655
698.889	0.0176810
698.967	0.0176544
699.045	0.0175956
699.123	0.0174586
699.201	0.0174553
699.280	0.0175150
699.358	0.0173574
699.436	0.0174178
699.514	0.0172379
699.592	0.0172093
699.670	0.0170917
699.748	0.0169969
699.826	0.0169052
699.905	0.0168398
699.983	0.0167051
700.061	0.0165399
700.139	0.0165849
700.217	0.0164580
700.295	0.0162451
700.373	0.0160700
700.451	0.0160093
700.530	0.0159750
700.608	0.0160055
700.686	0.0158508
700.764	0.0156611
700.842	0.0155919
700.920	0.0156161
700.998	0.0155746
701.076	0.0154894
701.155	0.0155492
701.233	0.0155971
701.311	0.0155391
701.389	0.0155931
701.467	0.0155576
701.545	0.0155354
701.623	0.0154526
701.701	0.0154070
701.780	0.0156504
701.858	0.0156710
701.936	0.0157034
702.014	0.0158022
702.092	0.0159335
702.170	0.0159891
702.248	0.0161073
702.326	0.0161340
702.405	0.0161801
702.483	0.0162384
702.561	0.0163326
702.639	0.0164867
702.717	0.0165559
702.795	0.0166446
702.873	0.0168292
702.951	0.0168419
703.030	0.0170689
703.108	0.0171578
703.186	0.0171404
703.264	0.0172141
703.342	0.0173992
703.420	0.0173357
703.498	0.0175528
703.576	0.0177814
703.655	0.0177122
703.733	0.0176474
703.811	0.0177158
703.889	0.0177898
703.967	0.0177800
704.045	0.0178458
704.123	0.0176414
704.201	0.0176102
704.280	0.0176401
704.358	0.0173540
704.436	0.0174977
704.514	0.0172768
704.592	0.0172058
704.670	0.0170187
704.748	0.0169108
704.826	0.0168287
704.905	0.0166223
704.983	0.0166520
705.061	0.0164722
705.139	0.0163076
705.217	0.0163216
705.295	0.0162605
705.373	0.0162531
705.451	0.0159837
705.530	0.0160445
705.608	0.0160729
705.686	0.0161158
705.764	0.0160995
705.842	0.0159953
705.920	0.0159991
705.998	0.0161568
706.076	0.0161373
706.155	0.0163751
706.233	0.0162682
706.311	0.0163589
706.389	0.0163054
706.467	0.0162646
706.545	0.0164751
706.623	0.0164063
706.701	0.0163311
706.780	0.0164317
706.858	0.0163910
706.936	0.0165008
707.014	0.0164502
707.092	0.0164236
707.170	0.0163385
707.248	0.0163636
707.326	0.0164060
707.405	0.0164658
707.483	0.0162981
707.561	0.0163428
707.639	0.0161569
707.717	0.0160680
707.795	0.0160345
707.873	0.0159265
707.951	0.0159777
708.030	0.0157892
708.108	0.0158704
708.186	0.0159620
708.264	0.0158260
708.342	0.0158321
708.420	0.0160301
708.498	0.0159657
708.576	0.0161373
708.655	0.0160502
708.733	0.0160735
708.811	0.0160234
708.889	0.0162967
708.967	0.0163631
709.045	0.0162806
709.123	0.0163868
709.201	0.0163461
709.280	0.0165945
709.358	0.0165773
709.436	0.0164958
709.514	0.0165781
709.592	0.0167337
709.670	0.0167689
709.748	0.0167487
709.826	0.0169382
709.905	0.0169644
709.983	0.0169734
710.061	0.0170529
710.139	0.0170118
710.217	0.0171385
710.295	0.0171861
710.373	0.0172414
710.451	0.0171388
710.530	0.0172549
710.608	0.0173145
710.686	0.0173363
710.764	0.0173867
710.842	0.0174125
710.920	0.0174161
710.998	0.0173809
711.076	0.0173708
711.155	0.0173208
711.233	0.0173260
711.311	0.0171806
711.389	0.0171793
711.467	0.0170142
711.545	0.0169892
711.623	0.0170105
711.701	0.0168227
711.780	0.0166999
711.858	0.0166048
711.936	0.0166486
712.014	0.0165401
712.092	0.0163393
712.170	0.0162735
712.248	0.0162498
712.326	0.0160956
712.405	0.0160410
712.483	0.0159688
712.561	0.0159627
712.639	0.0157400
712.717	0.0158005
712.795	0.0159081
712.873	0.0156259
712.951	0.0157861
713.030	0.0159107
713.108	0.0156940
713.186	0.0158672
713.264	0.0158455
713.342	0.0158978
713.420	0.0158899
713.498	0.0158978
713.576	0.0158835
713.655	0.0158113
713.733	0.0157984
713.811	0.0159283
713.889	0.0159638
713.967	0.0158849
714.045	0.0158649
714.123	0.0159931
714.201	0.0159325
714.280	0.0157421
714.358	0.0159747
714.436	0.0159137
714.514	0.0159270
714.592	0.0159689
714.670	0.0160965
714.748	0.0160831
714.826	0.0162392
714.905	0.0162228
714.983	0.0163599
715.061	0.0165414
715.139	0.0165379
715.217	0.0166671
715.295	0.0169339
715.373	0.0168627
715.451	0.0168251
715.530	0.0172198
715.608	0.0172704
715.686	0.0171954
715.764	0.0172690
715.842	0.0173460
715.920	0.0174950
715.998	0.0176237
716.076	0.0174584
716.155	0.0176428
716.233	0.0176111
716.311	0.0174665
716.389	0.0174007
716.467	0.0173647
716.545	0.0172958
716.623	0.0172227
716.701	0.0170172
716.780	0.0170773
716.858	0.0169074
716.936	0.0168639
717.014	0.0167735
717.092	0.0166391
717.170	0.0166669
717.248	0.0165333
717.326	0.0165130
717.405	0.0164019
717.483	0.0163792
717.561	0.0164951
717.639	0.0166336
717.717	0.0165973
717.795	0.0164778
717.873	0.0166904
717.951	0.0166795
718.030	0.0168356
718.108	0.0167361
718.186	0.0168532
718.264	0.0168832
718.342	0.0168967
718.420	0.0169860
718.498	0.0170527
718.576	0.0170554
718.655	0.0170287
718.733	0.0170673
718.811	0.0170955
718.889	0.0170611
718.967	0.0170878
719.045	0.0171286
719.123	0.0169568
719.201	0.0168501
719.280	0.0169298
719.358	0.0167589
719.436	0.0166729
719.514	0.0166341
719.592	0.0166343
719.670	0.0165491
719.748	0.0162965
719.826	0.0162003
719.905	0.0162222
719.983	0.0160071
720.061	0.0159717
720.139	0.0160009
720.217	0.0157861
720.295	0.0159137
720.373	0.0158495
720.451	0.0157063
720.530	0.0156748
720.608	0.0156862
720.686	0.0157257
720.764	0.0156608
720.842	0.0157271
720.920	0.0158372
720.998	0.0158330
721.076	0.0159428
721.155	0.0160819
721.233	0.0161777
721.311	0.0162645
721.389	0.0164358
721.467	0.0164978
721.545	0.0165375
721.623	0.0165245
721.701	0.0167603
721.780	0.0168139
721.858	0.0168446
721.936	0.0169093
722.014	0.0169341
722.092	0.0169556
722.170	0.0170812
722.248	0.0169305
722.326	0.0169136
722.405	0.0169846
722.483	0.0168285
722.561	0.0168710
722.639	0.0169368
722.717	0.0169139
722.795	0.0166987
722.873	0.0167845
722.951	0.0167675
723.030	0.0167735
723.108	0.0166122
723.186	0.0167325
723.264	0.0167902
723.342	0.0165787
723.420	0.0166172
723.498	0.0166903
723.576	0.0167824
723.655	0.0167225
723.733	0.0167143
723.811	0.0167250
723.889	0.0167477
723.967	0.0167847
724.045	0.0167758
724.123	0.0167240
724.201	0.0168057
724.280	0.0169456
724.358	0.0167889
724.436	0.0168192
724.514	0.0168317
724.592	0.0168491
724.670	0.0167284
724.748	0.0165823
724.826	0.0165782
724.905	0.0166261
724.983	0.0164878
725.061	0.0163136
725.139	0.0163826
725.217	0.0163642
725.295	0.0163799
725.373	0.0163197
725.451	0.0162727
725.530	0.0162441
725.608	0.0162356
725.686	0.0162573
725.764	0.0162423
725.842	0.0164068
725.920	0.0163506
725.998	0.0161934
726.076	0.0163376
726.155	0.0164713
726.233	0.0163869
726.311	0.0163889
726.389	0.0164043
726.467	0.0164326
726.545	0.0164955
726.623	0.0163412
726.701	0.0165712
726.780	0.0166337
726.858	0.0164448
726.936	0.0163756
727.014	0.0166196
727.092	0.0164792
727.170	0.0163662
727.248	0.0163126
727.326	0.0162200
727.405	0.0163145
727.483	0.0162271
727.561	0.0161497
727.639	0.0161672
727.717	0.0160802
727.795	0.0161018
727.873	0.0161199
727.951	0.0160326
728.030	0.0161370
728.108	0.0161397
728.186	0.0161052
728.264	0.0160685
728.342	0.0162538
728.420	0.0163038
728.498	0.0163663
728.576	0.0165224
728.655	0.0165636
728.733	0.0165512
728.811	0.0166459
728.889	0.0168132
728.967	0.0168280
729.045	0.0169271
729.123	0.0169940
729.201	0.0170033
729.280	0.0169364
729.358	0.0170477
729.436	0.0169424
729.514	0.0169423
729.592	0.0170126
729.670	0.0168909
729.748	0.0169189
729.826	0.0169279
729.905	0.0168443
729.983	0.0167865
730.061	0.0167747
730.139	0.0167197
730.217	0.0168104
730.295	0.0166071
730.373	0.0166305
730.451	0.0163475
730.530	0.0163947
730.608	0.0163439
730.686	0.0165519
730.764	0.0163675
730.842	0.0162823
730.920	0.0164662
730.998	0.0163480
731.076	0.0164327
731.155	0.0163348
731.233	0.0163864
731.311	0.0165266
731.389	0.0163866
731.467	0.0162478
731.545	0.0162199
731.623	0.0164027
731.701	0.0162168
731.780	0.0162418
731.858	0.0162692
731.936	0.0161787
732.014	0.0161787
732.092	0.0161266
732.170	0.0163062
732.248	0.0162928
732.326	0.0163801
732.405	0.0163161
732.483	0.0164735
732.561	0.0164719
732.639	0.0164554
732.717	0.0165224
732.795	0.0166478
732.873	0.0166826
732.951	0.0166642
733.030	0.0167703
733.108	0.0169218
733.186	0.0168894
733.264	0.0168232
733.342	0.0167617
733.420	0.0167999
733.498	0.0168396
733.576	0.0168649
733.655	0.0169772
733.733	0.0169834
733.811	0.0169009
733.889	0.0168607
733.967	0.0170424
734.045	0.0167844
734.123	0.0168751
734.201	0.0169879
734.280	0.0169697
734.358	0.0167532
734.436	0.0168822
734.514	0.0168137
734.592	0.0167567
734.670	0.0167285
734.748	0.0166165
734.826	0.0167183
734.905	0.0165518
734.983	0.0165582
735.061	0.0164665
735.139	0.0163397
735.217	0.0163863
735.295	0.0164270
735.373	0.0163186
735.451	0.0162525
735.530	0.0161582
735.608	0.0160962
735.686	0.0159908
735.764	0.0162277
735.842	0.0160322
735.920	0.0160411
735.998	0.0161437
736.076	0.0162133
736.155	0.0162346
736.233	0.0161433
736.311	0.0161939
736.389	0.0163174
736.467	0.0163786
736.545	0.0164173
736.623	0.0165577
736.701	0.0164303
736.780	0.0164189
736.858	0.0165589
736.936	0.0165284
737.014	0.0166074
737.092	0.0166930
737.170	0.0166224
737.248	0.0166925
737.326	0.0165085
737.405	0.0167030
737.483	0.0166182
737.561	0.0165257
737.639	0.0164851
737.717	0.0166104
737.795	0.0166660
737.873	0.0166566
737.951	0.0164415
738.030	0.0164823
738.108	0.0164446
738.186	0.0164319
738.264	0.0165520
738.342	0.0164445
738.420	0.0166032
738.498	0.0165936
738.576	0.0164473
738.655	0.0167283
738.733	0.0166930
738.811	0.0167828
738.889	0.0166669
738.967	0.0168057
739.045	0.0167976
739.123	0.0168333
739.201	0.0166855
739.280	0.0167432
739.358	0.0168062
739.436	0.0167915
739.514	0.0168829
739.592	0.0167096
739.670	0.0166386
739.748	0.0165821
739.826	0.0167229
739.905	0.0166237
739.983	0.0166891
740.061	0.0166128
740.139	0.0166148
740.217	0.0167102
740.295	0.0165895
740.373	0.0165047
740.451	0.0164799
740.530	0.0165191
740.608	0.0166901
740.686	0.0165765
740.764	0.0165363
740.842	0.0165611
740.920	0.0165121
740.998	0.0165896
741.076	0.0165775
741.155	0.0165355
741.233	0.0166784
741.311	0.0166641
741.389	0.0167449
741.467	0.0166254
741.545	0.0165978
741.623	0.0165805
741.701	0.0167124
741.780	0.0168113
741.858	0.0167395
741.936	0.0167354
742.014	0.0167454
742.092	0.0170013
742.170	0.0169430
742.248	0.0168806
742.326	0.0167570
742.405	0.0168098
742.483	0.0168903
742.561	0.0168772
742.639	0.0166798
742.717	0.0167252
742.795	0.0165493
742.873	0.0164210
742.951	0.0164005
743.030	0.0162852
743.108	0.0162102
743.186	0.0162278
743.264	0.0162714
743.342	0.0162785
743.420	0.0161797
743.498	0.0160776
743.576	0.0160428
743.655	0.0159678
743.733	0.0161370
743.811	0.0160919
743.889	0.0161485
743.967	0.0161999
744.045	0.0162699
744.123	0.0163220
744.201	0.0162167
744.280	0.0162674
744.358	0.0164005
744.436	0.0162944
744.514	0.0164567
744.592	0.0164403
744.670	0.0164581
744.748	0.0165477
744.826	0.0165013
744.905	0.0165269
744.983	0.0165761
745.061	0.0166913
745.139	0.0167551
745.217	0.0166060
745.295	0.0167099
745.373	0.0167440
745.451	0.0167045
745.530	0.0166060
745.608	0.0165840
745.686	0.0165110
745.764	0.0166577
745.842	0.0166509
745.920	0.0166485
745.998	0.0166620
746.076	0.0166834
746.155	0.0165688
746.233	0.0166241
746.311	0.0167061
746.389	0.0165462
746.467	0.0163997
746.545	0.0167590
746.623	0.0165259
746.701	0.0166116
746.780	0.0165813
746.858	0.0165359
746.936	0.0166219
747.014	0.0164651
747.092	0.0163332
747.170	0.0164998
747.248	0.0165025
747.326	0.0163608
747.405	0.0162926
747.483	0.0163006
747.561	0.0162604
747.639	0.0161749
747.717	0.0161954
747.795	0.0163564
747.873	0.0162727
747.951	0.0162659
748.030	0.0162167
748.108	0.0163107
748.186	0.0161889
748.264	0.0164051
748.342	0.0163136
748.420	0.0162493
748.498	0.0164193
748.576	0.0164028
748.655	0.0164853
748.733	0.0163683
748.811	0.0163950
748.889	0.0164699
748.967	0.0164055
749.045	0.0163308
749.123	0.0164214
749.201	0.0162150
749.280	0.0164043
749.358	0.0165150
749.436	0.0163460
749.514	0.0164718
749.592	0.0164276
749.670	0.0164847
749.748	0.0165112
749.826	0.0164288
749.905	0.0165987
749.983	0.0165726
750.061	0.0165439
750.139	0.0166161
750.217	0.0164909
750.295	0.0165879
750.373	0.0165047
750.451	0.0165469
750.530	0.0164674
750.608	0.0163927
750.686	0.0164563
750.764	0.0164046
750.842	0.0165038
750.920	0.0163769
750.998	0.0162212
751.076	0.0163555
751.155	0.0162706
751.233	0.0162473
751.311	0.0161000
751.389	0.0161478
751.467	0.0162225
751.545	0.0162959
751.623	0.0162873
751.701	0.0163751
751.780	0.0163515
751.858	0.0163394
751.936	0.0163885
752.014	0.0164619
752.092	0.0164495
752.170	0.0167178
752.248	0.0166045
752.326	0.0167391
752.405	0.0167579
752.483	0.0167326
752.561	0.0167934
752.639	0.0169678
752.717	0.0169919
752.795	0.0169946
752.873	0.0169375
752.951	0.0169946
753.030	0.0169980
753.108	0.0169176
753.186	0.0168776
753.264	0.0168140
753.342	0.0168587
753.420	0.0166884
753.498	0.0168669
753.576	0.0167536
753.655	0.0167583
753.733	0.0167334
753.811	0.0166117
753.889	0.0166077
753.967	0.0166217
754.045	0.0166763
754.123	0.0166935
754.201	0.0165425
754.280	0.0166569
754.358	0.0166595
754.436	0.0165495
754.514	0.0166936
754.592	0.0166128
754.670	0.0166917
754.748	0.0166135
754.826	0.0166553
754.905	0.0166867
754.983	0.0166525
755.061	0.0167702
755.139	0.0166040
755.217	0.0166200
755.295	0.0166124
755.373	0.0165851
755.451	0.0167240
755.530	0.0165705
755.608	0.0166303
755.686	0.0166487
755.764	0.0167013
755.842	0.0166408
755.920	0.0167973
755.998	0.0165720
756.076	0.0167296
756.155	0.0166333
756.233	0.0166076
756.311	0.0166308
756.389	0.0165462
756.467	0.0166058
756.545	0.0166152
756.623	0.0164385
756.701	0.0166496
756.780	0.0165355
756.858	0.0165247
756.936	0.0164757
757.014	0.0164340
757.092	0.0164652
757.170	0.0164087
757.248	0.0164799
757.326	0.0163370
757.405	0.0164275
757.483	0.0164309
757.561	0.0164894
757.639	0.0164523
757.717	0.0165028
757.795	0.0165592
757.873	0.0166557
757.951	0.0164944
758.030	0.0165815
758.108	0.0168271
758.186	0.0166928
758.264	0.0166517
758.342	0.0165947
758.420	0.0166531
758.498	0.0166174
758.576	0.0165051
758.655	0.0164552
758.733	0.0164068
758.811	0.0163081
758.889	0.0165070
758.967	0.0163480
759.045	0.0163052
759.123	0.0162672
759.201	0.0163050
759.280	0.0163522
759.358	0.0162424
759.436	0.0163034
759.514	0.0163485
759.592	0.0163692
759.670	0.0163789
759.748	0.0163809
759.826	0.0165180
759.905	0.0163094
759.983	0.0163864
760.061	0.0164413
760.139	0.0165682
760.217	0.0164816
760.295	0.0165662
760.373	0.0166322
760.451	0.0166112
760.530	0.0167077
760.608	0.0166219
760.686	0.0167287
760.764	0.0166940
760.842	0.0166425
760.920	0.0166207
760.998	0.0165664
761.076	0.0165811
761.155	0.0163292
761.233	0.0163884
761.311	0.0163281
761.389	0.0164759
761.467	0.0162846
761.545	0.0162889
761.623	0.0163926
761.701	0.0162714
761.780	0.0164811
761.858	0.0163766
761.936	0.0163448
762.014	0.0166021
762.092	0.0164088
762.170	0.0166294
762.248	0.0165562
762.326	0.0165591
762.405	0.0166254
762.483	0.0166214
762.561	0.0167192
762.639	0.0167406
762.717	0.0168749
762.795	0.0169234
762.873	0.0167208
762.951	0.0168837
763.030	0.0170629
763.108	0.0170146
763.186	0.0167624
763.264	0.0169275
763.342	0.0169880
763.420	0.0170982
763.498	0.0167286
763.576	0.0167867
763.655	0.0168990
763.733	0.0167847
763.811	0.0166513
763.889	0.0167003
763.967	0.0168439
764.045	0.0168793
764.123	0.0165692
764.201	0.0166374
764.280	0.0167126
764.358	0.0165987
764.436	0.0165703
764.514	0.0165241
764.592	0.0166051
764.670	0.0164697
764.748	0.0165395
764.826	0.0164840
764.905	0.0164157
764.983	0.0164763
765.061	0.0165320
765.139	0.0164059
765.217	0.0163575
765.295	0.0163831
765.373	0.0163964
765.451	0.0164777
765.530	0.0163113
765.608	0.0164150
765.686	0.0164434
765.764	0.0164415
765.842	0.0165446
765.920	0.0164146
765.998	0.0165536
766.076	0.0167186
766.155	0.0165217
766.233	0.0167124
766.311	0.0166666
766.389	0.0167540
766.467	0.0166023
766.545	0.0166270
766.623	0.0167989
766.701	0.0166344
766.780	0.0166718
766.858	0.0164813
766.936	0.0164692
767.014	0.0165542
767.092	0.0166418
767.170	0.0164816
767.248	0.0163522
767.326	0.0163922
767.405	0.0163975
767.483	0.0163178
767.561	0.0162718
767.639	0.0164169
767.717	0.0164700
767.795	0.0164961
767.873	0.0163890
767.951	0.0165199
768.030	0.0166357
768.108	0.0167103
768.186	0.0165968
768.264	0.0167296
768.342	0.0166552
768.420	0.0166323
768.498	0.0168087
768.576	0.0167893
768.655	0.0167027
768.733	0.0168738
768.811	0.0167219
768.889	0.0166715
768.967	0.0166246
769.045	0.0165421
769.123	0.0165217
769.201	0.0164902
769.280	0.0163687
769.358	0.0164823
769.436	0.0163818
769.514	0.0163762
769.592	0.0164550
769.670	0.0162910
769.748	0.0165295
769.826	0.0164095
769.905	0.0162491
769.983	0.0164541
770.061	0.0164206
770.139	0.0165230
770.217	0.0165505
770.295	0.0165592
770.373	0.0165834
770.451	0.0165813
770.530	0.0167010
770.608	0.0166008
770.686	0.0166070
770.764	0.0167480
770.842	0.0167097
770.920	0.0166029
770.998	0.0167288
771.076	0.0168240
771.155	0.0167153
771.233	0.0166460
771.311	0.0167446
771.389	0.0165621
771.467	0.0166641
771.545	0.0166553
771.623	0.0167544
771.701	0.0167450
771.780	0.0166304
771.858	0.0167904
771.936	0.0167577
772.014	0.0167895
772.092	0.0165366
772.170	0.0165894
772.248	0.0166148
772.326	0.0167204
772.405	0.0164923
772.483	0.0166119
772.561	0.0166816
772.639	0.0166153
772.717	0.0167168
772.795	0.0165296
772.873	0.0164663
772.951	0.0164594
773.030	0.0163651
773.108	0.0164599
773.186	0.0164890
773.264	0.0163916
773.342	0.0165782
773.420	0.0163522
773.498	0.0164494
773.576	0.0164646
773.655	0.0164767
773.733	0.0164627
773.811	0.0165063
773.889	0.0165659
773.967	0.0164300
774.045	0.0165485
774.123	0.0165945
774.201	0.0165691
774.280	0.0166311
774.358	0.0164654
774.436	0.0165224
774.514	0.0165208
774.592	0.0165836
774.670	0.0164061
774.748	0.0162978
774.826	0.0166261
774.905	0.0163468
774.983	0.0163989
775.061	0.0165743
775.139	0.0164304
775.217	0.0163465
775.295	0.0164288
775.373	0.0164920
775.451	0.0165611
775.530	0.0164857
775.608	0.0163082
775.686	0.0164576
775.764	0.0165562
775.842	0.0165519
775.920	0.0165355
775.998	0.0166747
776.076	0.0167075
776.155	0.0166015
776.233	0.0165746
776.311	0.0166995
776.389	0.0167661
776.467	0.0166917
776.545	0.0166539
776.623	0.0168076
776.701	0.0167929
776.780	0.0167872
776.858	0.0167747
776.936	0.0166484
777.014	0.0167387
777.092	0.0166236
777.170	0.0165804
777.248	0.0166949
777.326	0.0164417
777.405	0.0165633
777.483	0.0167439
777.561	0.0166125
777.639	0.0165134
777.717	0.0165609
777.795	0.0166395
777.873	0.0169020
777.951	0.0167061
778.030	0.0165909
778.108	0.0165537
778.186	0.0166402
778.264	0.0166444
778.342	0.0166294
778.420	0.0164931
778.498	0.0166925
778.576	0.0167198
778.655	0.0166438
778.733	0.0165808
778.811	0.0166248
778.889	0.0166745
778.967	0.0165606
779.045	0.0165793
779.123	0.0167329
779.201	0.0165788
779.280	0.0166090
779.358	0.0164607
779.436	0.0164170
779.514	0.0165105
779.592	0.0165656
779.670	0.0163251
779.748	0.0163486
779.826	0.0164924
779.905	0.0163693
779.983	0.0163847
780.061	0.0163507
780.139	0.0163991
780.217	0.0164378
780.295	0.0165498
780.373	0.0165108
780.451	0.0164709
780.530	0.0164131
780.608	0.0164063
780.686	0.0163987
780.764	0.0166047
780.842	0.0164796
780.920	0.0163977
780.998	0.0165400
781.076	0.0164452
781.155	0.0165205
781.233	0.0165813
781.311	0.0165363
781.389	0.0163908
781.467	0.0163743
781.545	0.0165430
781.623	0.0164293
781.701	0.0163260
781.780	0.0163505
781.858	0.0162766
781.936	0.0163018
782.014	0.0162242
782.092	0.0164234
782.170	0.0164564
782.248	0.0164812
782.326	0.0164899
782.405	0.0164571
782.483	0.0165952
782.561	0.0164771
782.639	0.0165493
782.717	0.0165499
782.795	0.0165631
782.873	0.0165807
782.951	0.0164951
783.030	0.0164244
783.108	0.0165054
783.186	0.0167177
783.264	0.0166438
783.342	0.0166257
783.420	0.0167429
783.498	0.0167519
783.576	0.0167502
783.655	0.0167648
783.733	0.0167756
783.811	0.0167157
783.889	0.0166409
783.967	0.0165234
784.045	0.0166013
784.123	0.0165774
784.201	0.0165124
784.280	0.0164006
784.358	0.0165430
784.436	0.0164700
784.514	0.0165356
784.592	0.0164252
784.670	0.0164668
784.748	0.0165229
784.826	0.0164375
784.905	0.0164158
784.983	0.0163895
785.061	0.0164338
785.139	0.0163502
785.217	0.0164880
785.295	0.0165822
785.373	0.0165313
785.451	0.0166580
785.530	0.0164853
785.608	0.0165499
785.686	0.0166817
785.764	0.0167999
785.842	0.0168230
785.920	0.0168569
785.998	0.0167822
786.076	0.0168184
786.155	0.0167637
786.233	0.0167654
786.311	0.0168477
786.389	0.0169265
786.467	0.0168559
786.545	0.0168221
786.623	0.0167590
786.701	0.0169241
786.780	0.0168405
786.858	0.0168178
786.936	0.0168645
787.014	0.0169028
787.092	0.0168384
787.170	0.0166759
787.248	0.0168113
787.326	0.0167917
787.405	0.0167756
787.483	0.0167332
787.561	0.0165636
787.639	0.0166035
787.717	0.0165199
787.795	0.0165831
787.873	0.0164957
787.951	0.0164976
788.030	0.0165131
788.108	0.0165408
788.186	0.0162894
788.264	0.0162959
788.342	0.0163326
788.420	0.0162653
788.498	0.0163807
788.576	0.0163035
788.655	0.0164078
788.733	0.0163398
788.811	0.0162035
788.889	0.0163792
788.967	0.0165344
789.045	0.0164460
789.123	0.0163260
789.201	0.0165089
789.280	0.0165506
789.358	0.0164384
789.436	0.0165585
789.514	0.0165221
789.592	0.0165167
789.670	0.0165587
789.748	0.0164935
789.826	0.0165311
789.905	0.0165764
789.983	0.0164491
790.061	0.0165103
790.139	0.0165522
790.217	0.0164970
790.295	0.0164953
790.373	0.0165688
790.451	0.0164881
790.530	0.0165479
790.608	0.0164938
790.686	0.0166150
790.764	0.0166460
790.842	0.0166264
790.920	0.0166569
790.998	0.0167223
791.076	0.0167242
791.155	0.0166602
791.233	0.0168364
791.311	0.0167426
791.389	0.0166378
791.467	0.0167941
791.545	0.0168093
791.623	0.0166642
791.701	0.0166377
791.780	0.0163641
791.858	0.0164397
791.936	0.0165054
792.014	0.0164252
792.092	0.0165679
792.170	0.0165337
792.248	0.0162589
792.326	0.0163249
792.405	0.0162000
792.483	0.0162350
792.561	0.0161783
792.639	0.0161884
792.717	0.0163174
792.795	0.0161914
792.873	0.0162424
792.951	0.0163093
793.030	0.0164948
793.108	0.0162817
793.186	0.0164896
793.264	0.0164449
793.342	0.0164783
793.420	0.0164452
793.498	0.0164909
793.576	0.0165858
793.655	0.0164460
793.733	0.0166748
793.811	0.0166249
793.889	0.0167464
793.967	0.0165347
794.045	0.0165678
794.123	0.0165680
794.201	0.0165630
794.280	0.0167395
794.358	0.0166027
794.436	0.0166415
794.514	0.0166565
794.592	0.0167159
794.670	0.0166917
794.748	0.0166417
794.826	0.0167442
794.905	0.0166366
794.983	0.0166922
795.061	0.0167568
795.139	0.0168903
795.217	0.0168677
795.295	0.0168502
795.373	0.0168314
795.451	0.0169337
795.530	0.0169318
795.608	0.0168493
795.686	0.0169605
795.764	0.0168073
795.842	0.0168390
795.920	0.0169851
795.998	0.0168993
796.076	0.0169543
796.155	0.0170072
796.233	0.0168073
796.311	0.0168704
796.389	0.0168430
796.467	0.0168761
796.545	0.0166859
796.623	0.0166350
796.701	0.0168158
796.780	0.0168317
796.858	0.0166301
796.936	0.0167901
797.014	0.0167528
797.092	0.0165578
797.170	0.0167054
797.248	0.0167246
797.326	0.0165918
797.405	0.0165710
797.483	0.0166182
797.561	0.0165228
797.639	0.0165192
797.717	0.0164787
797.795	0.0164143
797.873	0.0164675
797.951	0.0164153
798.030	0.0164515
798.108	0.0162972
798.186	0.0162842
798.264	0.0162639
798.342	0.0161987
798.420	0.0162988
798.498	0.0164041
798.576	0.0164029
798.655	0.0162784
798.733	0.0164851
798.811	0.0162946
798.889	0.0162147
798.967	0.0164664
799.045	0.0164954
799.123	0.0165456
799.201	0.0166244
799.280	0.0165422
799.358	0.0166174
799.436	0.0164215
799.514	0.0165791
799.592	0.0167074
799.670	0.0164957
799.748	0.0166616
799.826	0.0166457
799.905	0.0165156
799.983	0.0166037
800.061	0.0165874
800.139	0.0166423
800.217	0.0166223
800.295	0.0164265
800.373	0.0166077
800.451	0.0167537
800.530	0.0165303
800.608	0.0166212
800.686	0.0165960
800.764	0.0165636
800.842	0.0166724
800.920	0.0167217
800.998	0.0167250
801.076	0.0165966
801.155	0.0166628
801.233	0.0166956
801.311	0.0166349
801.389	0.0166574
801.467	0.0167297
801.545	0.0167477
801.623	0.0168475
801.701	0.0166268
801.780	0.0167546
801.858	0.0167352
801.936	0.0165792
802.014	0.0165263
802.092	0.0166169
802.170	0.0164634
802.248	0.0166172
802.326	0.0165491
802.405	0.0165070
802.483	0.0164474
802.561	0.0165485
802.639	0.0164185
802.717	0.0164872
802.795	0.0164305
802.873	0.0164399
802.951	0.0163284
803.030	0.0164822
803.108	0.0164213
803.186	0.0164064
803.264	0.0163903
803.342	0.0164191
803.420	0.0164666
803.498	0.0166163
803.576	0.0165314
803.655	0.0163270
803.733	0.0165002
803.811	0.0165141
803.889	0.0165679
803.967	0.0165294
804.045	0.0165735
804.123	0.0162525
804.201	0.0165286
804.280	0.0165363
804.358	0.0164077
804.436	0.0164985
804.514	0.0165205
804.592	0.0164767
804.670	0.0164102
804.748	0.0166050
804.826	0.0166714
804.905	0.0165616
804.983	0.0166210
805.061	0.0165333
805.139	0.0166306
805.217	0.0165665
805.295	0.0167147
805.373	0.0167479
805.451	0.0166794
805.530	0.0168054
805.608	0.0167499
805.686	0.0166225
805.764	0.0166940
805.842	0.0166952
805.920	0.0166850
805.998	0.0166604
806.076	0.0166138
806.155	0.0165344
806.233	0.0166644
806.311	0.0165558
806.389	0.0166319
806.467	0.0165630
806.545	0.0165833
806.623	0.0165949
806.701	0.0166641
806.780	0.0166737
806.858	0.0166837
806.936	0.0167216
807.014	0.0166833
807.092	0.0167128
807.170	0.0167835
807.248	0.0168304
807.326	0.0169090
807.405	0.0168062
807.483	0.0168826
807.561	0.0168848
807.639	0.0170561
807.717	0.0169542
807.795	0.0167270
807.873	0.0169415
807.951	0.0168478
808.030	0.0165820
808.108	0.0167404
808.186	0.0168314
808.264	0.0167334
808.342	0.0165932
808.420	0.0166125
808.498	0.0164329
808.576	0.0165439
808.655	0.0165196
808.733	0.0164297
808.811	0.0163857
808.889	0.0164417
808.967	0.0163503
809.045	0.0162859
809.123	0.0163026
809.201	0.0162637
809.280	0.0163928
809.358	0.0161496
809.436	0.0163593
809.514	0.0163884
809.592	0.0163271
809.670	0.0164555
809.748	0.0163849
809.826	0.0161929
809.905	0.0162767
809.983	0.0164542
810.061	0.0164228
810.139	0.0164352
810.217	0.0164987
810.295	0.0163449
810.373	0.0164242
810.451	0.0164165
810.530	0.0163722
810.608	0.0163293
810.686	0.0163664
810.764	0.0164124
810.842	0.0163837
810.920	0.0164256
810.998	0.0164409
811.076	0.0163103
811.155	0.0164360
811.233	0.0165222
811.311	0.0165495
811.389	0.0165493
811.467	0.0165420
811.545	0.0165266
811.623	0.0166544
811.701	0.0165157
811.780	0.0165915
811.858	0.0166708
811.936	0.0166040
812.014	0.0167914
812.092	0.0166355
812.170	0.0166541
812.248	0.0166470
812.326	0.0166911
812.405	0.0167677
812.483	0.0168326
812.561	0.0166612
812.639	0.0166589
812.717	0.0167176
812.795	0.0166935
812.873	0.0166901
812.951	0.0166894
813.030	0.0166695
813.108	0.0167060
813.186	0.0166817
813.264	0.0166457
813.342	0.0165816
813.420	0.0165320
813.498	0.0165684
813.576	0.0166542
813.655	0.0166058
813.733	0.0164999
813.811	0.0165422
813.889	0.0165469
813.967	0.0165008
814.045	0.0163888
814.123	0.0165186
814.201	0.0164251
814.280	0.0163484
814.358	0.0163552
814.436	0.0163507
814.514	0.0163911
814.592	0.0164095
814.670	0.0163394
814.748	0.0163225
814.826	0.0163046
814.905	0.0163008
814.983	0.0164720
815.061	0.0163328
815.139	0.0163580
815.217	0.0165248
815.295	0.0165749
815.373	0.0166335
815.451	0.0164916
815.530	0.0166747
815.608	0.0166134
815.686	0.0166757
815.764	0.0166010
815.842	0.0165954
815.920	0.0166233
815.998	0.0164601
816.076	0.0165013
816.155	0.0166743
816.233	0.0164417
816.311	0.0165807
816.389	0.0164653
816.467	0.0164144
816.545	0.0164553
816.623	0.0164458
816.701	0.0164604
816.780	0.0165104
816.858	0.0164522
816.936	0.0165502
817.014	0.0166795
817.092	0.0165263
817.170	0.0164146
817.248	0.0164774
817.326	0.0166759
817.405	0.0165874
817.483	0.0165614
817.561	0.0167435
817.639	0.0166737
817.717	0.0166579
817.795	0.0167360
817.873	0.0168304
817.951	0.0167613
818.030	0.0168062
818.108	0.0168336
818.186	0.0166972
818.264	0.0168753
818.342	0.0167782
818.420	0.0168423
818.498	0.0168404
818.576	0.0168418
818.655	0.0167533
818.733	0.0167924
818.811	0.0167567
818.889	0.0168069
818.967	0.0167238
819.045	0.0166829
819.123	0.0166643
819.201	0.0168871
819.280	0.0167289
819.358	0.0167091
819.436	0.0166947
819.514	0.0167624
819.592	0.0166605
819.670	0.0167310
819.748	0.0167389
819.826	0.0167918
819.905	0.0169196
819.983	0.0167840
820.061	0.0166779
820.139	0.0168677
820.217	0.0167135
820.295	0.0168622
820.373	0.0168197
820.451	0.0167904
820.530	0.0168257
820.608	0.0167056
820.686	0.0168010
820.764	0.0168683
820.842	0.0167846
820.920	0.0166216
820.998	0.0166026
821.076	0.0167286
821.155	0.0167649
821.233	0.0167249
821.311	0.0167182
821.389	0.0165899
821.467	0.0167213
821.545	0.0166657
821.623	0.0166539
821.701	0.0167057
821.780	0.0166074
821.858	0.0166785
821.936	0.0166761
822.014	0.0165298
822.092	0.0165296
822.170	0.0165429
822.248	0.0165675
822.326	0.0163185
822.405	0.0162249
822.483	0.0163188
822.561	0.0163106
822.639	0.0163782
822.717	0.0162739
822.795	0.0163422
822.873	0.0163265
822.951	0.0162635
823.030	0.0161102
823.108	0.0162045
823.186	0.0163340
823.264	0.0164178
823.342	0.0162091
823.420	0.0162148
823.498	0.0162682
823.576	0.0162999
823.655	0.0162661
823.733	0.0165163
823.811	0.0165160
823.889	0.0164954
823.967	0.0163158
824.045	0.0164563
824.123	0.0164130
824.201	0.0165052
824.280	0.0164944
824.358	0.0165342
824.436	0.0164349
824.514	0.0164690
824.592	0.0165237
824.670	0.0164676
824.748	0.0163680
824.826	0.0165266
824.905	0.0163486
824.983	0.0165575
825.061	0.0165257
825.139	0.0165067
825.217	0.0165366
825.295	0.0164209
825.373	0.0165282
825.451	0.0164666
825.530	0.0166611
825.608	0.0165194
825.686	0.0165287
825.764	0.0165900
825.842	0.0164941
825.920	0.0164956
825.998	0.0164896
826.076	0.0165553
826.155	0.0165859
826.233	0.0165417
826.311	0.0164811
826.389	0.0165656
826.467	0.0166319
826.545	0.0165373
826.623	0.0164572
826.701	0.0164666
826.780	0.0164946
826.858	0.0164034
826.936	0.0163745
827.014	0.0165096
827.092	0.0163705
827.170	0.0163065
827.248	0.0163204
827.326	0.0161967
827.405	0.0163066
827.483	0.0162771
827.561	0.0163439
827.639	0.0162138
827.717	0.0162472
827.795	0.0163021
827.873	0.0164031
827.951	0.0161819
828.030	0.0161128
828.108	0.0161652
828.186	0.0163393
828.264	0.0162166
828.342	0.0163216
828.420	0.0162007
828.498	0.0163400
828.576	0.0162756
828.655	0.0164233
828.733	0.0163329
828.811	0.0164400
828.889	0.0164511
828.967	0.0166086
829.045	0.0163941
829.123	0.0165738
829.201	0.0165315
829.280	0.0164874
829.358	0.0166030
829.436	0.0166039
829.514	0.0165043
829.592	0.0165143
829.670	0.0165000
829.748	0.0166470
829.826	0.0166013
829.905	0.0165866
829.983	0.0166340
830.061	0.0166374
830.139	0.0165600
830.217	0.0165843
830.295	0.0164804
830.373	0.0167588
830.451	0.0166773
830.530	0.0165778
830.608	0.0165865
830.686	0.0167615
830.764	0.0166579
830.842	0.0167189
830.920	0.0165942
830.998	0.0166586
831.076	0.0166522
831.155	0.0166369
831.233	0.0167467
831.311	0.0166477
831.389	0.0166930
831.467	0.0166327
831.545	0.0165112
831.623	0.0166747
831.701	0.0166163
831.780	0.0166058
831.858	0.0166392
831.936	0.0166502
832.014	0.0165981
832.092	0.0165249
832.170	0.0164749
832.248	0.0164918
832.326	0.0166300
832.405	0.0167043
832.483	0.0165535
832.561	0.0167840
832.639	0.0164764
832.717	0.0164275
832.795	0.0164357
832.873	0.0166614
832.951	0.0166864
833.030	0.0165982
833.108	0.0166254
833.186	0.0166645
833.264	0.0165856
833.342	0.0166199
833.420	0.0165041
833.498	0.0165973
833.576	0.0165781
833.655	0.0165678
833.733	0.0166066
833.811	0.0165041
833.889	0.0165771
833.967	0.0165494
834.045	0.0165650
834.123	0.0166174
834.201	0.0164899
834.280	0.0165859
834.358	0.0164286
834.436	0.0165576
834.514	0.0166492
834.592	0.0164751
834.670	0.0164953
834.748	0.0163455
834.826	0.0165302
834.905	0.0165171
834.983	0.0164838
835.061	0.0164941
835.139	0.0165163
835.217	0.0165653
835.295	0.0164753
835.373	0.0163559
835.451	0.0164946
835.530	0.0165895
835.608	0.0165157
835.686	0.0164348
835.764	0.0164777
835.842	0.0165714
835.920	0.0164941
835.998	0.0165376
836.076	0.0163657
836.155	0.0166429
836.233	0.0166823
836.311	0.0164581
836.389	0.0166076
836.467	0.0165452
836.545	0.0165950
836.623	0.0166187
836.701	0.0167140
836.780	0.0167157
836.858	0.0166906
836.936	0.0167539
837.014	0.0167018
837.092	0.0165790
837.170	0.0166544
837.248	0.0166814
837.326	0.0166894
837.405	0.0167026
837.483	0.0168366
837.561	0.0166915
837.639	0.0166402
837.717	0.0166293
837.795	0.0167478
837.873	0.0164639
837.951	0.0165615
838.030	0.0164320
838.108	0.0165227
838.186	0.0165543
838.264	0.0166418
838.342	0.0165119
838.420	0.0165393
838.498	0.0165749
838.576	0.0165089
838.655	0.0163464
838.733	0.0164627
838.811	0.0165791
838.889	0.0165155
838.967	0.0164129
839.045	0.0164668
839.123	0.0165411
839.201	0.0166209
839.280	0.0165094
839.358	0.0164647
839.436	0.0164797
839.514	0.0164967
839.592	0.0164211
839.670	0.0165652
839.748	0.0164949
839.826	0.0164153
839.905	0.0164985
839.983	0.0165056
840.061	0.0164219
840.139	0.0163507
840.217	0.0163844
840.295	0.0164636
840.373	0.0164174
840.451	0.0164492
840.530	0.0164524
840.608	0.0163785
840.686	0.0164043
840.764	0.0165107
840.842	0.0164437
840.920	0.0164337
840.998	0.0165018
841.076	0.0165292
841.155	0.0165059
841.233	0.0165444
841.311	0.0165787
841.389	0.0166311
841.467	0.0165919
841.545	0.0165327
841.623	0.0166763
841.701	0.0166638
841.780	0.0166238
841.858	0.0166669
841.936	0.0167266
842.014	0.0167780
842.092	0.0167844
842.170	0.0168484
842.248	0.0168450
842.326	0.0166528
842.405	0.0166970
842.483	0.0166962
842.561	0.0167446
842.639	0.0166796
842.717	0.0166358
842.795	0.0165651
842.873	0.0166269
842.951	0.0166953
843.030	0.0166209
843.108	0.0164866
843.186	0.0165672
843.264	0.0166138
843.342	0.0165059
843.420	0.0166242
843.498	0.0166131
843.576	0.0165767
843.655	0.0164579
843.733	0.0165509
843.811	0.0163612
843.889	0.0165401
843.967	0.0164546
844.045	0.0165418
844.123	0.0164661
844.201	0.0164439
844.280	0.0166442
844.358	0.0165783
844.436	0.0165910
844.514	0.0163925
844.592	0.0164845
844.670	0.0165467
844.748	0.0166487
844.826	0.0165353
844.905	0.0164885
844.983	0.0165720
845.061	0.0165108
845.139	0.0164346
845.217	0.0166539
845.295	0.0164963
845.373	0.0164401
845.451	0.0166534
845.530	0.0165488
845.608	0.0165916
845.686	0.0165804
845.764	0.0166450
845.842	0.0165496
845.920	0.0166508
845.998	0.0165742
846.076	0.0164597
846.155	0.0165810
846.233	0.0165414
846.311	0.0164121
846.389	0.0164761
846.467	0.0165480
846.545	0.0165128
846.623	0.0164420
846.701	0.0165233
846.780	0.0164109
846.858	0.0163129
846.936	0.0164387
847.014	0.0165162
847.092	0.0163051
847.170	0.0163783
847.248	0.0164430
847.326	0.0164333
847.405	0.0164282
847.483	0.0165024
847.561	0.0164304
847.639	0.0165432
847.717	0.0162661
847.795	0.0162502
847.873	0.0163772
847.951	0.0163533
848.030	0.0163238
848.108	0.0164344
848.186	0.0163442
848.264	0.0162409
848.342	0.0163570
848.420	0.0164288
848.498	0.0163750
848.576	0.0164779
848.655	0.0164110
848.733	0.0166203
848.811	0.0165700
848.889	0.0166404
848.967	0.0165629
849.045	0.0164832
849.123	0.0166182
849.201	0.0165505
849.280	0.0167219
849.358	0.0166472
849.436	0.0165580
849.514	0.0165101
849.592	0.0165734
849.670	0.0166518
849.748	0.0166700
849.826	0.0167065
849.905	0.0166108
849.983	0.0165273
850.061	0.0166289
850.139	0.0164622
850.217	0.0165736
850.295	0.0165273
850.373	0.0165596
850.451	0.0164997
850.530	0.0165487
850.608	0.0165273
850.686	0.0164677
850.764	0.0164720
850.842	0.0163956
850.920	0.0163294
850.998	0.0164903
851.076	0.0163428
851.155	0.0162371
851.233	0.0164371
851.311	0.0163516
851.389	0.0163076
851.467	0.0164092
851.545	0.0165148
851.623	0.0165254
851.701	0.0164214
851.780	0.0164375
851.858	0.0164220
851.936	0.0166125
852.014	0.0164777
852.092	0.0165022
852.170	0.0165279
852.248	0.0165680
852.326	0.0164729
852.405	0.0165601
852.483	0.0165723
852.561	0.0164645
852.639	0.0164259
852.717	0.0164923
852.795	0.0165227
852.873	0.0164842
852.951	0.0164475
853.030	0.0165378
853.108	0.0164283
853.186	0.0164262
853.264	0.0167191
853.342	0.0165453
853.420	0.0165173
853.498	0.0166630
853.576	0.0166113
853.655	0.0165877
853.733	0.0167239
853.811	0.0167236
853.889	0.0166351
853.967	0.0167085
854.045	0.0168104
854.123	0.0166755
854.201	0.0168016
854.280	0.0167985
854.358	0.0165235
854.436	0.0167318
854.514	0.0165301
854.592	0.0165942
854.670	0.0166521
854.748	0.0165994
854.826	0.0164731
854.905	0.0165955
854.983	0.0165304
855.061	0.0167117
855.139	0.0165310
855.217	0.0164629
855.295	0.0166137
855.373	0.0164469
855.451	0.0165539
855.530	0.0166651
855.608	0.0166131
855.686	0.0165464
855.764	0.0164756
855.842	0.0164540
855.920	0.0164915
855.998	0.0164841
856.076	0.0164529
856.155	0.0166306
856.233	0.0165473
856.311	0.0164558
856.389	0.0164999
856.467	0.0164063
856.545	0.0167285
856.623	0.0165523
856.701	0.0165201
856.780	0.0165137
856.858	0.0165934
856.936	0.0166276
857.014	0.0166353
857.092	0.0167196
857.170	0.0166988
857.248	0.0167570
857.326	0.0168297
857.405	0.0168442
857.483	0.0167250
857.561	0.0166458
857.639	0.0166544
857.717	0.0168687
857.795	0.0168713
857.873	0.0167673
857.951	0.0166754
858.030	0.0166595
858.108	0.0166048
858.186	0.0165881
858.264	0.0166402
858.342	0.0165876
858.420	0.0165519
858.498	0.0164688
858.576	0.0164759
858.655	0.0165015
858.733	0.0164750
858.811	0.0164956
858.889	0.0164915
858.967	0.0164199
859.045	0.0163461
859.123	0.0163147
859.201	0.0164117
859.280	0.0162614
859.358	0.0162902
859.436	0.0163884
859.514	0.0165650
859.592	0.0165032
859.670	0.0163494
859.748	0.0163401
859.826	0.0165923
859.905	0.0166916
859.983	0.0166463
860.061	0.0166483
860.139	0.0167736
860.217	0.0165520
860.295	0.0167868
860.373	0.0168740
860.451	0.0167196
860.530	0.0167917
860.608	0.0168967
860.686	0.0168671
860.764	0.0168737
860.842	0.0168015
860.920	0.0167602
860.998	0.0167185
861.076	0.0165623
861.155	0.0167396
861.233	0.0167005
861.311	0.0167265
861.389	0.0166119
861.467	0.0166425
861.545	0.0168115
861.623	0.0166041
861.701	0.0166429
861.780	0.0166057
861.858	0.0166134
861.936	0.0165990
862.014	0.0165558
862.092	0.0165765
862.170	0.0165194
862.248	0.0164697
862.326	0.0165424
862.405	0.0164581
862.483	0.0163992
862.561	0.0163866
862.639	0.0163751
862.717	0.0163007
862.795	0.0162566
862.873	0.0162170
862.951	0.0163960
863.030	0.0163697
863.108	0.0162863
863.186	0.0163572
863.264	0.0164051
863.342	0.0162684
863.420	0.0164410
863.498	0.0164436
863.576	0.0164230
863.655	0.0163377
863.733	0.0163703
863.811	0.0163776
863.889	0.0164082
863.967	0.0164512
864.045	0.0164513
864.123	0.0164507
864.201	0.0164386
864.280	0.0165485
864.358	0.0165382
864.436	0.0164895
864.514	0.0165868
864.592	0.0164833
864.670	0.0164974
864.748	0.0165799
864.826	0.0165927
864.905	0.0165915
864.983	0.0166044
865.061	0.0165109
865.139	0.0165233
865.217	0.0165802
865.295	0.0166970
865.373	0.0165038
865.451	0.0165830
865.530	0.0164689
865.608	0.0164700
865.686	0.0164298
865.764	0.0164890
865.842	0.0165466
865.920	0.0166184
865.998	0.0163978
866.076	0.0164843
866.155	0.0165164
866.233	0.0163869
866.311	0.0164968
866.389	0.0165393
866.467	0.0166128
866.545	0.0165349
866.623	0.0165292
866.701	0.0165988
866.780	0.0165025
866.858	0.0166234
866.936	0.0165645
867.014	0.0166166
867.092	0.0166111
867.170	0.0165710
867.248	0.0165096
867.326	0.0166673
867.405	0.0167384
867.483	0.0166198
867.561	0.0164714
867.639	0.0166223
867.717	0.0166296
867.795	0.0165527
867.873	0.0166979
867.951	0.0165993
868.030	0.0165356
868.108	0.0167031
868.186	0.0166936
868.264	0.0166016
868.342	0.0166807
868.420	0.0166969
868.498	0.0166831
868.576	0.0168148
868.655	0.0167091
868.733	0.0165984
868.811	0.0167094
868.889	0.0168587
868.967	0.0166608
869.045	0.0165839
869.123	0.0166881
869.201	0.0167046
869.280	0.0166380
869.358	0.0165690
869.436	0.0165714
869.514	0.0167630
869.592	0.0166164
869.670	0.0164637
869.748	0.0166766
869.826	0.0167258
869.905	0.0167188
869.983	0.0165021
870.061	0.0165716
870.139	0.0166914
870.217	0.0166643
870.295	0.0167236
870.373	0.0166575
870.451	0.0166077
870.530	0.0166592
870.608	0.0164600
870.686	0.0167300
870.764	0.0166681
870.842	0.0165692
870.920	0.0166242
870.998	0.0166078
871.076	0.0166043
871.155	0.0166357
871.233	0.0165123
871.311	0.0163837
871.389	0.0166249
871.467	0.0164164
871.545	0.0166122
871.623	0.0163811
871.701	0.0165363
871.780	0.0164400
871.858	0.0163989
871.936	0.0164807
872.014	0.0165321
872.092	0.0165224
872.170	0.0164548
872.248	0.0165507
872.326	0.0165405
872.405	0.0165572
872.483	0.0164843
872.561	0.0166023
872.639	0.0165338
872.717	0.0165399
872.795	0.0166046
872.873	0.0164199
872.951	0.0165672
873.030	0.0164882
873.108	0.0164571
873.186	0.0165816
873.264	0.0164359
873.342	0.0165285
873.420	0.0163692
873.498	0.0164410
873.576	0.0165207
873.655	0.0164198
873.733	0.0166315
873.811	0.0165015
873.889	0.0166389
873.967	0.0165603
874.045	0.0164208
874.123	0.0163322
874.201	0.0163438
874.280	0.0166209
874.358	0.0164754
874.436	0.0163115
874.514	0.0165511
874.592	0.0165467
874.670	0.0165271
874.748	0.0164454
874.826	0.0164368
874.905	0.0164156
874.983	0.0166669
875.061	0.0165939
875.139	0.0165575
875.217	0.0164539
875.295	0.0165458
875.373	0.0165846
875.451	0.0167159
875.530	0.0164575
875.608	0.0165195
875.686	0.0165738
875.764	0.0165573
875.842	0.0164208
875.920	0.0165520
875.998	0.0166031
876.076	0.0166093
876.155	0.0165871
876.233	0.0164267
876.311	0.0165836
876.389	0.0166100
876.467	0.0166212
876.545	0.0164656
876.623	0.0165978
876.701	0.0165956
876.780	0.0164622
876.858	0.0164986
876.936	0.0167168
877.014	0.0166339
877.092	0.0166618
877.170	0.0166006
877.248	0.0164709
877.326	0.0165795
877.405	0.0165952
877.483	0.0165376
877.561	0.0165570
877.639	0.0165363
877.717	0.0164978
877.795	0.0165931
877.873	0.0166357
877.951	0.0164986
878.030	0.0165588
878.108	0.0165916
878.186	0.0165863
878.264	0.0163911
878.342	0.0164650
878.420	0.0165806
878.498	0.0164433
878.576	0.0164114
878.655	0.0164882
878.733	0.0164143
878.811	0.0163919
878.889	0.0163760
878.967	0.0162953
879.045	0.0164799
879.123	0.0163692
879.201	0.0164386
879.280	0.0162974
879.358	0.0164641
879.436	0.0164294
879.514	0.0164185
879.592	0.0164648
879.670	0.0163156
879.748	0.0165518
879.826	0.0165132
879.905	0.0162725
879.983	0.0163634
880.061	0.0165775
880.139	0.0164758
880.217	0.0165943
880.295	0.0165572
880.373	0.0166028
880.451	0.0166985
880.530	0.0166687
880.608	0.0166837
880.686	0.0166853
880.764	0.0166425
880.842	0.0167757
880.920	0.0167368
880.998	0.0167249
881.076	0.0165909
881.155	0.0166286
881.233	0.0168330
881.311	0.0167643
881.389	0.0167385
881.467	0.0165287
881.545	0.0166743
881.623	0.0166069
881.701	0.0166253
881.780	0.0166289
881.858	0.0165788
881.936	0.0165359
882.014	0.0165982
882.092	0.0165009
882.170	0.0164899
882.248	0.0165606
882.326	0.0162893
882.405	0.0163949
882.483	0.0165889
882.561	0.0164862
882.639	0.0164064
882.717	0.0165263
882.795	0.0164719
882.873	0.0162395
882.951	0.0164127
883.030	0.0164740
883.108	0.0164288
883.186	0.0166202
883.264	0.0164606
883.342	0.0165508
883.420	0.0166689
883.498	0.0165433
883.576	0.0165353
883.655	0.0165186
883.733	0.0165680
883.811	0.0165023
883.889	0.0165594
883.967	0.0165717
884.045	0.0166985
884.123	0.0164381
884.201	0.0165399
884.280	0.0167501
884.358	0.0166084
884.436	0.0165626
884.514	0.0165218
884.592	0.0168213
884.670	0.0167025
884.748	0.0166236
884.826	0.0165921
884.905	0.0165952
884.983	0.0166282
885.061	0.0166772
885.139	0.0165802
885.217	0.0166181
885.295	0.0165440
885.373	0.0166805
885.451	0.0166077
885.530	0.0166023
885.608	0.0165657
885.686	0.0166666
885.764	0.0166171
885.842	0.0166729
885.920	0.0165649
885.998	0.0166281
886.076	0.0165836
886.155	0.0165337
886.233	0.0166521
886.311	0.0165053
886.389	0.0166197
886.467	0.0166186
886.545	0.0166467
886.623	0.0165298
886.701	0.0166100
886.780	0.0165114
886.858	0.0164671
886.936	0.0164568
887.014	0.0162919
887.092	0.0165157
887.170	0.0165353
887.248	0.0165305
887.326	0.0164433
887.405	0.0164542
887.483	0.0165207
887.561	0.0165243
887.639	0.0164322
887.717	0.0163885
887.795	0.0164930
887.873	0.0165202
887.951	0.0165611
888.030	0.0164754
888.108	0.0165762
888.186	0.0165157
888.264	0.0166008
888.342	0.0164498
888.420	0.0164279
888.498	0.0164614
888.576	0.0165407
888.655	0.0164545
888.733	0.0166386
888.811	0.0165717
888.889	0.0166743
888.967	0.0165247
889.045	0.0163860
889.123	0.0164407
889.201	0.0164556
889.280	0.0165077
889.358	0.0166112
889.436	0.0165354
889.514	0.0164487
889.592	0.0165219
889.670	0.0165337
889.748	0.0166262
889.826	0.0165147
889.905	0.0164949
889.983	0.0164604
890.061	0.0164742
890.139	0.0165248
890.217	0.0165815
890.295	0.0164885
890.373	0.0165570
890.451	0.0165355
890.530	0.0165028
890.608	0.0164651
890.686	0.0165496
890.764	0.0166647
890.842	0.0166046
890.920	0.0165134
890.998	0.0164648
891.076	0.0166586
891.155	0.0165386
891.233	0.0166116
891.311	0.0166378
891.389	0.0165645
891.467	0.0164372
891.545	0.0165855
891.623	0.0165236
891.701	0.0165035
891.780	0.0164671
891.858	0.0165723
891.936	0.0164919
892.014	0.0166090
892.092	0.0165640
892.170	0.0165004
892.248	0.0164754
892.326	0.0164783
892.405	0.0163831
892.483	0.0165350
892.561	0.0165069
892.639	0.0165009
892.717	0.0162883
892.795	0.0165125
892.873	0.0164639
892.951	0.0163787
893.030	0.0165014
893.108	0.0165270
893.186	0.0164073
893.264	0.0165813
893.342	0.0165279
893.420	0.0166351
893.498	0.0164995
893.576	0.0165388
893.655	0.0165638
893.733	0.0164106
893.811	0.0164961
893.889	0.0164600
893.967	0.0164546
894.045	0.0165743
894.123	0.0164652
894.201	0.0164971
894.280	0.0164316
894.358	0.0164489
894.436	0.0165142
894.514	0.0164095
894.592	0.0166499
894.670	0.0165580
894.748	0.0164975
894.826	0.0166635
894.905	0.0165832
894.983	0.0164825
895.061	0.0165274
895.139	0.0165880
895.217	0.0164742
895.295	0.0165646
895.373	0.0166721
895.451	0.0166289
895.530	0.0166309
895.608	0.0165740
895.686	0.0165290
895.764	0.0166735
895.842	0.0165720
895.920	0.0165762
895.998	0.0164602
896.076	0.0165444
896.155	0.0166057
896.233	0.0167188
896.311	0.0165559
896.389	0.0165028
896.467	0.0164896
896.545	0.0165422
896.623	0.0165671
896.701	0.0165774
896.780	0.0164752
896.858	0.0164579
896.936	0.0164851
897.014	0.0165072
897.092	0.0165042
897.170	0.0165379
897.248	0.0164797
897.326	0.0164646
897.405	0.0166187
897.483	0.0164513
897.561	0.0165443
897.639	0.0165337
897.717	0.0165717
897.795	0.0166850
897.873	0.0165637
897.951	0.0165538
898.030	0.0166425
898.108	0.0167625
898.186	0.0165646
898.264	0.0166209
898.342	0.0167949
898.420	0.0166982
898.498	0.0165556
898.576	0.0166785
898.655	0.0165679
898.733	0.0165796
898.811	0.0165533
898.889	0.0165792
898.967	0.0165561
899.045	0.0165312
899.123	0.0164358
899.201	0.0164827
899.280	0.0163713
899.358	0.0163562
899.436	0.0164542
899.514	0.0164321
899.592	0.0164597
899.670	0.0163985
899.748	0.0163972
899.826	0.0164909
899.905	0.0164531
899.983	0.0165306
900.061	0.0165104
900.139	0.0165047
900.217	0.0165302
900.295	0.0165124
900.373	0.0164942
900.451	0.0165361
900.530	0.0164716
900.608	0.0164447
900.686	0.0164626
900.764	0.0166395
900.842	0.0166185
900.920	0.0166094
900.998	0.0166313
901.076	0.0165571
901.155	0.0166441
901.233	0.0167033
901.311	0.0164845
901.389	0.0165552
901.467	0.0166818
901.545	0.0165286
901.623	0.0165665
901.701	0.0166250
901.780	0.0166432
901.858	0.0167416
901.936	0.0166661
902.014	0.0166116
902.092	0.0165747
902.170	0.0165243
902.248	0.0164996
902.326	0.0166091
902.405	0.0165449
902.483	0.0164785
902.561	0.0167415
902.639	0.0165582
902.717	0.0165353
902.795	0.0165739
902.873	0.0165524
902.951	0.0165241
903.030	0.0165792
903.108	0.0167146
903.186	0.0167528
903.264	0.0165887
903.342	0.0165253
903.420	0.0165797
903.498	0.0166269
903.576	0.0165887
903.655	0.0165192
903.733	0.0166647
903.811	0.0165311
903.889	0.0165063
903.967	0.0164552
904.045	0.0165196
904.123	0.0164949
904.201	0.0165714
904.280	0.0165070
904.358	0.0165983
904.436	0.0165620
904.514	0.0164816
904.592	0.0164777
904.670	0.0165268
904.748	0.0166205
904.826	0.0165357
904.905	0.0165187
904.983	0.0164692
905.061	0.0166262
905.139	0.0165356
905.217	0.0165500
905.295	0.0165069
905.373	0.0164694
905.451	0.0166021
905.530	0.0166207
905.608	0.0165144
905.686	0.0165244
905.764	0.0166010
905.842	0.0166866
905.920	0.0165301
905.998	0.0166053
906.076	0.0165517
906.155	0.0165836
906.233	0.0164647
906.311	0.0165521
906.389	0.0166557
906.467	0.0164874
906.545	0.0165308
906.623	0.0164891
906.701	0.0166669
906.780	0.0165362
906.858	0.0164671
906.936	0.0164922
907.014	0.0165849
907.092	0.0165160
907.170	0.0164842
907.248	0.0167126
907.326	0.0166425
907.405	0.0166218
907.483	0.0165115
907.561	0.0166903
907.639	0.0166061
907.717	0.0165878
907.795	0.0164866
907.873	0.0165837
907.951	0.0164927
908.030	0.0165134
908.108	0.0163853
908.186	0.0165309
908.264	0.0165108
908.342	0.0164188
908.420	0.0164465
908.498	0.0164792
908.576	0.0164861
908.655	0.0164839
908.733	0.0165763
908.811	0.0165457
908.889	0.0165552
908.967	0.0164569
909.045	0.0165189
909.123	0.0165823
909.201	0.0166763
909.280	0.0166452
909.358	0.0164415
909.436	0.0164906
909.514	0.0165103
909.592	0.0165513
909.670	0.0166190
909.748	0.0166167
909.826	0.0166821
909.905	0.0165575
909.983	0.0165207
910.061	0.0165839
910.139	0.0165565
910.217	0.0165750
910.295	0.0165975
910.373	0.0165836
910.451	0.0165519
910.530	0.0165057
910.608	0.0163681
910.686	0.0164812
910.764	0.0165221
910.842	0.0163808
910.920	0.0164640
910.998	0.0165094
911.076	0.0164307
911.155	0.0163013
911.233	0.0163546
911.311	0.0163789
911.389	0.0163690
911.467	0.0164967
911.545	0.0164915
911.623	0.0163574
911.701	0.0163882
911.780	0.0163202
911.858	0.0164771
911.936	0.0164727
912.014	0.0164855
912.092	0.0164426
912.170	0.0164233
912.248	0.0164034
912.326	0.0164017
912.405	0.0164594
912.483	0.0165559
912.561	0.0164429
912.639	0.0164560
912.717	0.0164581
912.795	0.0164528
912.873	0.0164658
912.951	0.0165745
913.030	0.0165787
913.108	0.0166513
913.186	0.0165392
913.264	0.0165021
913.342	0.0165827
913.420	0.0166814
913.498	0.0165611
913.576	0.0165257
913.655	0.0165655
913.733	0.0166537
913.811	0.0165005
913.889	0.0165414
913.967	0.0165091
914.045	0.0164835
914.123	0.0164684
914.201	0.0165948
914.280	0.0164816
914.358	0.0164915
914.436	0.0165849
914.514	0.0164864
914.592	0.0165556
914.670	0.0164769
914.748	0.0165073
914.826	0.0164806
914.905	0.0165662
914.983	0.0165756
915.061	0.0165325
915.139	0.0165654
915.217	0.0164367
915.295	0.0164867
915.373	0.0165100
915.451	0.0166036
915.530	0.0165623
915.608	0.0165124
915.686	0.0164889
915.764	0.0166515
915.842	0.0166232
915.920	0.0164510
915.998	0.0163303
916.076	0.0165643
916.155	0.0164789
916.233	0.0165218
916.311	0.0166017
916.389	0.0165116
916.467	0.0165749
916.545	0.0166619
916.623	0.0164114
916.701	0.0164494
916.780	0.0165830
916.858	0.0166138
916.936	0.0167036
917.014	0.0166933
917.092	0.0166236
917.170	0.0167005
917.248	0.0167709
917.326	0.0168201
917.405	0.0168266
917.483	0.0166557
917.561	0.0167396
917.639	0.0167649
917.717	0.0167732
917.795	0.0166847
917.873	0.0167479
917.951	0.0166870
918.030	0.0166058
918.108	0.0169057
918.186	0.0168082
918.264	0.0166777
918.342	0.0166662
918.420	0.0167107
918.498	0.0167003
918.576	0.0166454
918.655	0.0166662
918.733	0.0166953
918.811	0.0166534
918.889	0.0166541
918.967	0.0166571
919.045	0.0166305
919.123	0.0165563
919.201	0.0166398
919.280	0.0166094
919.358	0.0166398
919.436	0.0166545
919.514	0.0164657
919.592	0.0165320
919.670	0.0165958
919.748	0.0164906
919.826	0.0164861
919.905	0.0165890
919.983	0.0166697
920.061	0.0165811
920.139	0.0165688
920.217	0.0166257
920.295	0.0166918
920.373	0.0166102
920.451	0.0167110
920.530	0.0166192
920.608	0.0165387
920.686	0.0165362
920.764	0.0165546
920.842	0.0166201
920.920	0.0165848
920.998	0.0164517
921.076	0.0165472
921.155	0.0165836
921.233	0.0165393
921.311	0.0165932
921.389	0.0166287
921.467	0.0165686
921.545	0.0167133
921.623	0.0166476
921.701	0.0165492
921.780	0.0166311
921.858	0.0166425
921.936	0.0165422
922.014	0.0167296
922.092	0.0166920
922.170	0.0165613
922.248	0.0166152
922.326	0.0167230
922.405	0.0166902
922.483	0.0165772
922.561	0.0166249
922.639	0.0165425
922.717	0.0165997
922.795	0.0166717
922.873	0.0167056
922.951	0.0167466
923.030	0.0167956
923.108	0.0164666
923.186	0.0166292
923.264	0.0166351
923.342	0.0166782
923.420	0.0167242
923.498	0.0164424
923.576	0.0166403
923.655	0.0167073
923.733	0.0166929
923.811	0.0165260
923.889	0.0164587
923.967	0.0164165
924.045	0.0163916
924.123	0.0165085
924.201	0.0165681
924.280	0.0166611
924.358	0.0165871
924.436	0.0165801
924.514	0.0164778
924.592	0.0166424
924.670	0.0165473
924.748	0.0167537
924.826	0.0166412
924.905	0.0166564
924.983	0.0163506
925.061	0.0166008
925.139	0.0165842
925.217	0.0166254
925.295	0.0165191
925.373	0.0163804
925.451	0.0165655
925.530	0.0165254
925.608	0.0165619
925.686	0.0164521
925.764	0.0165232
925.842	0.0164792
925.920	0.0165079
925.998	0.0164133
926.076	0.0163049
926.155	0.0164758
926.233	0.0165004
926.311	0.0164677
926.389	0.0165980
926.467	0.0164079
926.545	0.0164063
926.623	0.0163138
926.701	0.0163301
926.780	0.0164588
926.858	0.0163357
926.936	0.0163011
927.014	0.0163804
927.092	0.0163708
927.170	0.0163641
927.248	0.0165275
927.326	0.0162635
927.405	0.0161740
927.483	0.0162325
927.561	0.0163302
927.639	0.0164709
927.717	0.0164169
927.795	0.0163487
927.873	0.0164967
927.951	0.0164666
928.030	0.0164805
928.108	0.0164611
928.186	0.0164266
928.264	0.0165402
928.342	0.0165592
928.420	0.0165643
928.498	0.0166229
928.576	0.0166093
928.655	0.0166560
928.733	0.0167094
928.811	0.0167086
928.889	0.0166564
928.967	0.0166407
929.045	0.0166621
929.123	0.0165753
929.201	0.0166264
929.280	0.0166691
929.358	0.0164726
929.436	0.0167294
929.514	0.0166232
929.592	0.0164919
929.670	0.0166481
929.748	0.0165981
929.826	0.0166003
929.905	0.0166447
929.983	0.0165976
930.061	0.0165202
930.139	0.0165420
930.217	0.0165396
930.295	0.0166666
930.373	0.0165484
930.451	0.0166480
930.530	0.0165955
930.608	0.0165182
930.686	0.0166241
930.764	0.0166987
930.842	0.0165990
930.920	0.0165097
930.998	0.0166951
931.076	0.0166362
931.155	0.0166956
931.233	0.0165733
931.311	0.0167191
931.389	0.0166328
931.467	0.0166821
931.545	0.0167488
931.623	0.0166442
931.701	0.0167217
931.780	0.0168102
931.858	0.0168209
931.936	0.0165266
932.014	0.0167393
932.092	0.0167458
932.170	0.0168257
932.248	0.0166375
932.326	0.0165506
932.405	0.0167342
932.483	0.0167505
932.561	0.0165665
932.639	0.0165266
932.717	0.0166418
932.795	0.0167871
932.873	0.0166338
932.951	0.0165733
933.030	0.0166890
933.108	0.0167398
933.186	0.0166290
933.264	0.0166590
933.342	0.0166949
933.420	0.0168152
933.498	0.0166600
933.576	0.0167788
933.655	0.0168109
933.733	0.0168446
933.811	0.0168097
933.889	0.0167957
933.967	0.0167072
934.045	0.0168696
934.123	0.0166267
934.201	0.0168008
934.280	0.0167603
934.358	0.0167146
934.436	0.0166238
934.514	0.0164820
934.592	0.0167486
934.670	0.0166280
934.748	0.0165760
934.826	0.0165536
934.905	0.0164774
934.983	0.0165339
935.061	0.0165051
935.139	0.0166138
935.217	0.0165077
935.295	0.0163845
935.373	0.0164658
935.451	0.0164933
935.530	0.0164423
935.608	0.0165115
935.686	0.0166159
935.764	0.0163027
935.842	0.0163033
935.920	0.0164281
935.998	0.0164296
936.076	0.0163619
936.155	0.0164190
936.233	0.0164137
936.311	0.0164583
936.389	0.0163654
936.467	0.0163379
936.545	0.0164957
936.623	0.0166766
936.701	0.0165497
936.780	0.0164628
936.858	0.0165695
936.936	0.0166167
937.014	0.0166430
937.092	0.0166353
937.170	0.0164741
937.248	0.0165083
937.326	0.0165237
937.405	0.0164629
937.483	0.0165396
937.561	0.0165166
937.639	0.0164777
937.717	0.0164964
937.795	0.0165994
937.873	0.0164748
937.951	0.0166000
938.030	0.0165130
938.108	0.0166264
938.186	0.0166103
938.264	0.0166063
938.342	0.0165903
938.420	0.0166420
938.498	0.0166759
938.576	0.0166229
938.655	0.0165858
938.733	0.0166956
938.811	0.0166982
938.889	0.0166809
938.967	0.0166057
939.045	0.0166669
939.123	0.0166525
939.201	0.0167677
939.280	0.0165676
939.358	0.0166485
939.436	0.0166543
939.514	0.0166617
939.592	0.0166921
939.670	0.0166490
939.748	0.0166439
939.826	0.0166737
939.905	0.0165589
939.983	0.0165221
940.061	0.0166204
940.139	0.0166213
940.217	0.0165753
940.295	0.0165202
940.373	0.0164860
940.451	0.0166322
940.530	0.0165462
940.608	0.0165556
940.686	0.0166457
940.764	0.0165349
940.842	0.0164056
940.920	0.0164216
940.998	0.0166369
941.076	0.0165033
941.155	0.0164697
941.233	0.0165036
941.311	0.0165672
941.389	0.0166164
941.467	0.0164996
941.545	0.0164410
941.623	0.0164708
941.701	0.0166691
941.780	0.0165958
941.858	0.0165781
941.936	0.0166449
942.014	0.0163406
942.092	0.0165124
942.170	0.0164561
942.248	0.0164397
942.326	0.0165402
942.405	0.0166320
942.483	0.0166452
942.561	0.0165573
942.639	0.0165633
942.717	0.0165874
942.795	0.0166557
942.873	0.0164524
942.951	0.0165107
943.030	0.0166335
943.108	0.0165605
943.186	0.0164517
943.264	0.0164892
943.342	0.0164384
943.420	0.0164838
943.498	0.0165849
943.576	0.0166045
943.655	0.0166283
943.733	0.0165442
943.811	0.0165563
943.889	0.0166518
943.967	0.0166101
944.045	0.0165539
944.123	0.0166233
944.201	0.0167130
944.280	0.0167453
944.358	0.0166455
944.436	0.0166509
944.514	0.0168351
944.592	0.0167984
944.670	0.0167397
944.748	0.0166728
944.826	0.0167670
944.905	0.0166296
944.983	0.0166621
945.061	0.0168087
945.139	0.0167887
945.217	0.0167756
945.295	0.0165894
945.373	0.0166395
945.451	0.0166780
945.530	0.0166470
945.608	0.0166038
945.686	0.0167616
945.764	0.0166146
945.842	0.0166532
945.920	0.0167429
945.998	0.0166666
946.076	0.0166716
946.155	0.0167354
946.233	0.0167959
946.311	0.0166306
946.389	0.0166900
946.467	0.0166863
946.545	0.0165847
946.623	0.0166434
946.701	0.0167657
946.780	0.0165199
946.858	0.0167251
946.936	0.0166596
947.014	0.0166112
947.092	0.0165828
947.170	0.0166333
947.248	0.0167944
947.326	0.0167618
947.405	0.0165928
947.483	0.0167265
947.561	0.0166135
947.639	0.0165826
947.717	0.0166872
947.795	0.0165724
947.873	0.0166134
947.951	0.0166951
948.030	0.0166483
948.108	0.0165896
948.186	0.0166089
948.264	0.0165491
948.342	0.0165614
948.420	0.0165229
948.498	0.0165041
948.576	0.0165632
948.655	0.0165548
948.733	0.0163905
948.811	0.0163890
948.889	0.0165758
948.967	0.0165394
949.045	0.0165511
949.123	0.0164046
949.201	0.0164611
949.280	0.0164586
949.358	0.0164143
949.436	0.0164220
949.514	0.0164455
949.592	0.0163833
949.670	0.0164426
949.748	0.0164571
949.826	0.0164449
949.905	0.0165203
949.983	0.0165448
950.061	0.0165422
950.139	0.0164828
950.217	0.0164993
950.295	0.0165923
950.373	0.0166214
950.451	0.0165206
950.530	0.0165335
950.608	0.0165688
950.686	0.0166106
950.764	0.0165159
950.842	0.0166596
950.920	0.0163689
950.998	0.0164299
951.076	0.0164882
951.155	0.0165226
951.233	0.0163998
951.311	0.0164314
951.389	0.0164975
951.467	0.0165034
951.545	0.0164532
951.623	0.0166070
951.701	0.0165853
951.780	0.0163117
951.858	0.0166283
951.936	0.0165154
952.014	0.0164423
952.092	0.0166984
952.170	0.0165482
952.248	0.0166575
952.326	0.0165299
952.405	0.0165519
952.483	0.0165846
952.561	0.0166257
952.639	0.0165244
952.717	0.0166148
952.795	0.0164610
952.873	0.0165252
952.951	0.0164764
953.030	0.0166229
953.108	0.0165690
953.186	0.0164967
953.264	0.0165750
953.342	0.0165112
953.420	0.0165285
953.498	0.0167071
953.576	0.0166355
953.655	0.0166483
953.733	0.0165863
953.811	0.0165831
953.889	0.0167031
953.967	0.0168532
954.045	0.0168889
954.123	0.0168741
954.201	0.0167831
954.280	0.0167506
954.358	0.0167271
954.436	0.0167500
954.514	0.0167094
954.592	0.0167640
954.670	0.0167034
954.748	0.0167818
954.826	0.0168243
954.905	0.0166286
954.983	0.0167727
955.061	0.0166259
955.139	0.0166747
955.217	0.0167228
955.295	0.0166682
955.373	0.0166721
955.451	0.0166166
955.530	0.0164967
955.608	0.0165369
955.686	0.0167240
955.764	0.0166619
955.842	0.0165466
955.920	0.0166553
955.998	0.0165276
956.076	0.0165161
956.155	0.0164919
956.233	0.0165699
956.311	0.0165054
956.389	0.0163145
956.467	0.0163846
956.545	0.0165524
956.623	0.0163510
956.701	0.0163337
956.780	0.0164371
956.858	0.0162957
956.936	0.0163196
957.014	0.0162467
957.092	0.0162743
957.170	0.0163332
957.248	0.0162783
957.326	0.0163791
957.405	0.0162329
957.483	0.0163458
957.561	0.0162698
957.639	0.0162592
957.717	0.0162966
957.795	0.0164194
957.873	0.0162753
957.951	0.0162543
958.030	0.0163605
958.108	0.0164395
958.186	0.0164185
958.264	0.0164767
958.342	0.0163448
958.420	0.0164784
958.498	0.0164989
958.576	0.0163667
958.655	0.0164101
958.733	0.0165339
958.811	0.0163644
958.889	0.0163132
958.967	0.0162327
959.045	0.0164913
959.123	0.0164262
959.201	0.0164198
959.280	0.0164297
959.358	0.0164744
959.436	0.0163948
959.514	0.0164334
959.592	0.0163792
959.670	0.0165823
959.748	0.0164368
959.826	0.0164778
959.905	0.0165174
