05/17/2022	17:08:29	Ver.	4.1	UNKNOWN
Optical Delay	639.982744	Delta X		0.078125	Sweeps	1	Scan Rate	0/0
Coordinates	Axis 1	NaN	Axis 2	NaN	Axis 3	NaN	Axis 4	NaN	Axis 5	NaN	Axis 6	0.000000
TX Power	0.000000	RX Power	0.000000

639.983	0.0168073
640.061	0.0167631
640.139	0.0169508
640.217	0.0167317
640.295	0.0169473
640.373	0.0167654
640.451	0.0165063
640.530	0.0167081
640.608	0.0166258
640.686	0.0165782
640.764	0.0166068
640.842	0.0165283
640.920	0.0164821
640.998	0.0165446
641.076	0.0164491
641.155	0.0164886
641.233	0.0165439
641.311	0.0165003
641.389	0.0163432
641.467	0.0164278
641.545	0.0163197
641.623	0.0165350
641.701	0.0163337
641.780	0.0163574
641.858	0.0164735
641.936	0.0163969
642.014	0.0163684
642.092	0.0163724
642.170	0.0164003
642.248	0.0162450
642.326	0.0163521
642.405	0.0163500
642.483	0.0163749
642.561	0.0163910
642.639	0.0163352
642.717	0.0163451
642.795	0.0162680
642.873	0.0163509
642.951	0.0164526
643.030	0.0165148
643.108	0.0164548
643.186	0.0163570
643.264	0.0164483
643.342	0.0165174
643.420	0.0164342
643.498	0.0165071
643.576	0.0164613
643.655	0.0165800
643.733	0.0165106
643.811	0.0165119
643.889	0.0164830
643.967	0.0164748
644.045	0.0165778
644.123	0.0165309
644.201	0.0165819
644.280	0.0164906
644.358	0.0165582
644.436	0.0166270
644.514	0.0166795
644.592	0.0164680
644.670	0.0166476
644.748	0.0165034
644.826	0.0165593
644.905	0.0166568
644.983	0.0166666
645.061	0.0167553
645.139	0.0167805
645.217	0.0166623
645.295	0.0167975
645.373	0.0166151
645.451	0.0167570
645.530	0.0166814
645.608	0.0166082
645.686	0.0168007
645.764	0.0167706
645.842	0.0167454
645.920	0.0167104
645.998	0.0166940
646.076	0.0167616
646.155	0.0166219
646.233	0.0166184
646.311	0.0166332
646.389	0.0165325
646.467	0.0165120
646.545	0.0166633
646.623	0.0166402
646.701	0.0165870
646.780	0.0164464
646.858	0.0165108
646.936	0.0164281
647.014	0.0166396
647.092	0.0165896
647.170	0.0166484
647.248	0.0165583
647.326	0.0166108
647.405	0.0165663
647.483	0.0164715
647.561	0.0165798
647.639	0.0165813
647.717	0.0165012
647.795	0.0165747
647.873	0.0165871
647.951	0.0167688
648.030	0.0166187
648.108	0.0166772
648.186	0.0165398
648.264	0.0166223
648.342	0.0165588
648.420	0.0166724
648.498	0.0165784
648.576	0.0165995
648.655	0.0167677
648.733	0.0168412
648.811	0.0168473
648.889	0.0168069
648.967	0.0168289
649.045	0.0167097
649.123	0.0168007
649.201	0.0169115
649.280	0.0167784
649.358	0.0167706
649.436	0.0167262
649.514	0.0168043
649.592	0.0167224
649.670	0.0168548
649.748	0.0168549
649.826	0.0167587
649.905	0.0168079
649.983	0.0168000
650.061	0.0167345
650.139	0.0166991
650.217	0.0167801
650.295	0.0166924
650.373	0.0166597
650.451	0.0167752
650.530	0.0167370
650.608	0.0166899
650.686	0.0167119
650.764	0.0166245
650.842	0.0167274
650.920	0.0166860
650.998	0.0167017
651.076	0.0166096
651.155	0.0167485
651.233	0.0166291
651.311	0.0167246
651.389	0.0167478
651.467	0.0168044
651.545	0.0167978
651.623	0.0167269
651.701	0.0167195
651.780	0.0166265
651.858	0.0168942
651.936	0.0167847
652.014	0.0167219
652.092	0.0168364
652.170	0.0169134
652.248	0.0166575
652.326	0.0165539
652.405	0.0167151
652.483	0.0168288
652.561	0.0166579
652.639	0.0167588
652.717	0.0167711
652.795	0.0168787
652.873	0.0167176
652.951	0.0167695
653.030	0.0166393
653.108	0.0167127
653.186	0.0166058
653.264	0.0166926
653.342	0.0167033
653.420	0.0165897
653.498	0.0164555
653.576	0.0164548
653.655	0.0165965
653.733	0.0166487
653.811	0.0165562
653.889	0.0166199
653.967	0.0165523
654.045	0.0165151
654.123	0.0165351
654.201	0.0164735
654.280	0.0165047
654.358	0.0165845
654.436	0.0165115
654.514	0.0166393
654.592	0.0166084
654.670	0.0166012
654.748	0.0166821
654.826	0.0166437
654.905	0.0166691
654.983	0.0165274
655.061	0.0165678
655.139	0.0166560
655.217	0.0166621
655.295	0.0167650
655.373	0.0166342
655.451	0.0167082
655.530	0.0166704
655.608	0.0166307
655.686	0.0167474
655.764	0.0167146
655.842	0.0167285
655.920	0.0167461
655.998	0.0165879
656.076	0.0167330
656.155	0.0167809
656.233	0.0164930
656.311	0.0165815
656.389	0.0166547
656.467	0.0167566
656.545	0.0166925
656.623	0.0165700
656.701	0.0168309
656.780	0.0169326
656.858	0.0167554
656.936	0.0167744
657.014	0.0168162
657.092	0.0169032
657.170	0.0169404
657.248	0.0169809
657.326	0.0170229
657.405	0.0169676
657.483	0.0168551
657.561	0.0168751
657.639	0.0170041
657.717	0.0168394
657.795	0.0169189
657.873	0.0169236
657.951	0.0168504
658.030	0.0167825
658.108	0.0169330
658.186	0.0168987
658.264	0.0169086
658.342	0.0169276
658.420	0.0169727
658.498	0.0168224
658.576	0.0167994
658.655	0.0169003
658.733	0.0167049
658.811	0.0166988
658.889	0.0167877
658.967	0.0168059
659.045	0.0166848
659.123	0.0167577
659.201	0.0165652
659.280	0.0166557
659.358	0.0166795
659.436	0.0166254
659.514	0.0165813
659.592	0.0166373
659.670	0.0166509
659.748	0.0165498
659.826	0.0165841
659.905	0.0165974
659.983	0.0165058
660.061	0.0166368
660.139	0.0167401
660.217	0.0166645
660.295	0.0166972
660.373	0.0167738
660.451	0.0166805
660.530	0.0167035
660.608	0.0167531
660.686	0.0166418
660.764	0.0167805
660.842	0.0167831
660.920	0.0168269
660.998	0.0167188
661.076	0.0164482
661.155	0.0166855
661.233	0.0167522
661.311	0.0167719
661.389	0.0166973
661.467	0.0166147
661.545	0.0168626
661.623	0.0166335
661.701	0.0167362
661.780	0.0167014
661.858	0.0169122
661.936	0.0167729
662.014	0.0166915
662.092	0.0167559
662.170	0.0167850
662.248	0.0167330
662.326	0.0168554
662.405	0.0167432
662.483	0.0167511
662.561	0.0168308
662.639	0.0168040
662.717	0.0168339
662.795	0.0167811
662.873	0.0168452
662.951	0.0166887
663.030	0.0166296
663.108	0.0165578
663.186	0.0165536
663.264	0.0166040
663.342	0.0164388
663.420	0.0164965
663.498	0.0163969
663.576	0.0163889
663.655	0.0163638
663.733	0.0162654
663.811	0.0162076
663.889	0.0161331
663.967	0.0159690
664.045	0.0160074
664.123	0.0159515
664.201	0.0158041
664.280	0.0159284
664.358	0.0160294
664.436	0.0157923
664.514	0.0159620
664.592	0.0158964
664.670	0.0159289
664.748	0.0161343
664.826	0.0161764
664.905	0.0163547
664.983	0.0163330
665.061	0.0164725
665.139	0.0165028
665.217	0.0166419
665.295	0.0167115
665.373	0.0169155
665.451	0.0169038
665.530	0.0171452
665.608	0.0171992
665.686	0.0172196
665.764	0.0174374
665.842	0.0175761
665.920	0.0175711
665.998	0.0174787
666.076	0.0174976
666.155	0.0175215
666.233	0.0175227
666.311	0.0175975
666.389	0.0173997
666.467	0.0173792
666.545	0.0172566
666.623	0.0173520
666.701	0.0171330
666.780	0.0170438
666.858	0.0169120
666.936	0.0167619
667.014	0.0166630
667.092	0.0164628
667.170	0.0164622
667.248	0.0161868
667.326	0.0162710
667.405	0.0160485
667.483	0.0160801
667.561	0.0159019
667.639	0.0159148
667.717	0.0158376
667.795	0.0158334
667.873	0.0158439
667.951	0.0158305
668.030	0.0158300
668.108	0.0157696
668.186	0.0157644
668.264	0.0158875
668.342	0.0159589
668.420	0.0162402
668.498	0.0164186
668.576	0.0164890
668.655	0.0165438
668.733	0.0167147
668.811	0.0169006
668.889	0.0171152
668.967	0.0170728
669.045	0.0172203
669.123	0.0175127
669.201	0.0173949
669.280	0.0176592
669.358	0.0177196
669.436	0.0176833
669.514	0.0177454
669.592	0.0177402
669.670	0.0177786
669.748	0.0177451
669.826	0.0178832
669.905	0.0177440
669.983	0.0176379
670.061	0.0175742
670.139	0.0175535
670.217	0.0174805
670.295	0.0172572
670.373	0.0171298
670.451	0.0168362
670.530	0.0168072
670.608	0.0167873
670.686	0.0166223
670.764	0.0164384
670.842	0.0163423
670.920	0.0161120
670.998	0.0162327
671.076	0.0160017
671.155	0.0158349
671.233	0.0157855
671.311	0.0157249
671.389	0.0156530
671.467	0.0156846
671.545	0.0156755
671.623	0.0157449
671.701	0.0158437
671.780	0.0156031
671.858	0.0157286
671.936	0.0158195
672.014	0.0158559
672.092	0.0160641
672.170	0.0162781
672.248	0.0162708
672.326	0.0164201
672.405	0.0165205
672.483	0.0165841
672.561	0.0167970
672.639	0.0167666
672.717	0.0170401
672.795	0.0172401
672.873	0.0171086
672.951	0.0174039
673.030	0.0174616
673.108	0.0174672
673.186	0.0174158
673.264	0.0174039
673.342	0.0174001
673.420	0.0174374
673.498	0.0173882
673.576	0.0173747
673.655	0.0171770
673.733	0.0171194
673.811	0.0170398
673.889	0.0168896
673.967	0.0169073
674.045	0.0167761
674.123	0.0166518
674.201	0.0166476
674.280	0.0164923
674.358	0.0163591
674.436	0.0162731
674.514	0.0162350
674.592	0.0161826
674.670	0.0162415
674.748	0.0162495
674.826	0.0160678
674.905	0.0162167
674.983	0.0161160
675.061	0.0162865
675.139	0.0163010
675.217	0.0163309
675.295	0.0163660
675.373	0.0164143
675.451	0.0163965
675.530	0.0164139
675.608	0.0165159
675.686	0.0164481
675.764	0.0166485
675.842	0.0165164
675.920	0.0167239
675.998	0.0167731
676.076	0.0166289
676.155	0.0166629
676.233	0.0166362
676.311	0.0166649
676.389	0.0166231
676.467	0.0165588
676.545	0.0165062
676.623	0.0164655
676.701	0.0164085
676.780	0.0164795
676.858	0.0163925
676.936	0.0162569
677.014	0.0163150
677.092	0.0162771
677.170	0.0163445
677.248	0.0162885
677.326	0.0163000
677.405	0.0165035
677.483	0.0162395
677.561	0.0164133
677.639	0.0164162
677.717	0.0165992
677.795	0.0165634
677.873	0.0166492
677.951	0.0166361
678.030	0.0168402
678.108	0.0169603
678.186	0.0168624
678.264	0.0169673
678.342	0.0170974
678.420	0.0171936
678.498	0.0170948
678.576	0.0171045
678.655	0.0171091
678.733	0.0171445
678.811	0.0172181
678.889	0.0172134
678.967	0.0171452
679.045	0.0171304
679.123	0.0169753
679.201	0.0168826
679.280	0.0169521
679.358	0.0169349
679.436	0.0167992
679.514	0.0168196
679.592	0.0166244
679.670	0.0166346
679.748	0.0165308
679.826	0.0164852
679.905	0.0165674
679.983	0.0165139
680.061	0.0164146
680.139	0.0164849
680.217	0.0165685
680.295	0.0164963
680.373	0.0165379
680.451	0.0165688
680.530	0.0165496
680.608	0.0167259
680.686	0.0167044
680.764	0.0166541
680.842	0.0166921
680.920	0.0167213
680.998	0.0168733
681.076	0.0167905
681.155	0.0168309
681.233	0.0170208
681.311	0.0169582
681.389	0.0168439
681.467	0.0167838
681.545	0.0166931
681.623	0.0167455
681.701	0.0167459
681.780	0.0166870
681.858	0.0166135
681.936	0.0166193
682.014	0.0165745
682.092	0.0162896
682.170	0.0162689
682.248	0.0163477
682.326	0.0163394
682.405	0.0161608
682.483	0.0161785
682.561	0.0162264
682.639	0.0160308
682.717	0.0161668
682.795	0.0164286
682.873	0.0163487
682.951	0.0164823
683.030	0.0165425
683.108	0.0165895
683.186	0.0167516
683.264	0.0168090
683.342	0.0168677
683.420	0.0170422
683.498	0.0171659
683.576	0.0172977
683.655	0.0174826
683.733	0.0176764
683.811	0.0176377
683.889	0.0176009
683.967	0.0175298
684.045	0.0175806
684.123	0.0176685
684.201	0.0174660
684.280	0.0173981
684.358	0.0174557
684.436	0.0174152
684.514	0.0172285
684.592	0.0170352
684.670	0.0168031
684.748	0.0167960
684.826	0.0165609
684.905	0.0164359
684.983	0.0162370
685.061	0.0162373
685.139	0.0161182
685.217	0.0160660
685.295	0.0160045
685.373	0.0159467
685.451	0.0159897
685.530	0.0159189
685.608	0.0159184
685.686	0.0161035
685.764	0.0160784
685.842	0.0160254
685.920	0.0161621
685.998	0.0165191
686.076	0.0166211
686.155	0.0166963
686.233	0.0166756
686.311	0.0168414
686.389	0.0170448
686.467	0.0170255
686.545	0.0172458
686.623	0.0173048
686.701	0.0173180
686.780	0.0172615
686.858	0.0172925
686.936	0.0172456
687.014	0.0171585
687.092	0.0172710
687.170	0.0170915
687.248	0.0170502
687.326	0.0169743
687.405	0.0167168
687.483	0.0166836
687.561	0.0164988
687.639	0.0163290
687.717	0.0162625
687.795	0.0161963
687.873	0.0160373
687.951	0.0158968
688.030	0.0157687
688.108	0.0157299
688.186	0.0155753
688.264	0.0154823
688.342	0.0154903
688.420	0.0154565
688.498	0.0155191
688.576	0.0158380
688.655	0.0157846
688.733	0.0158691
688.811	0.0161288
688.889	0.0162794
688.967	0.0163193
689.045	0.0165347
689.123	0.0166739
689.201	0.0168093
689.280	0.0170844
689.358	0.0172678
689.436	0.0174866
689.514	0.0175030
689.592	0.0176235
689.670	0.0176927
689.748	0.0177101
689.826	0.0180138
689.905	0.0180138
689.983	0.0179957
690.061	0.0180133
690.139	0.0178848
690.217	0.0179632
690.295	0.0178034
690.373	0.0176384
690.451	0.0176005
690.530	0.0173339
690.608	0.0172598
690.686	0.0170743
690.764	0.0169253
690.842	0.0167018
690.920	0.0166676
690.998	0.0164896
691.076	0.0164017
691.155	0.0163634
691.233	0.0161324
691.311	0.0159416
691.389	0.0159753
691.467	0.0157305
691.545	0.0160719
691.623	0.0159169
691.701	0.0158814
691.780	0.0160349
691.858	0.0159915
691.936	0.0158746
692.014	0.0159689
692.092	0.0159750
692.170	0.0160888
692.248	0.0161594
692.326	0.0161485
692.405	0.0160542
692.483	0.0161878
692.561	0.0162975
692.639	0.0163979
692.717	0.0164717
692.795	0.0164655
692.873	0.0163848
692.951	0.0164864
693.030	0.0165520
693.108	0.0166115
693.186	0.0167493
693.264	0.0168256
693.342	0.0167615
693.420	0.0170409
693.498	0.0170021
693.576	0.0171104
693.655	0.0171143
693.733	0.0173080
693.811	0.0171592
693.889	0.0174088
693.967	0.0175093
694.045	0.0173432
694.123	0.0174405
694.201	0.0177115
694.280	0.0177110
694.358	0.0176760
694.436	0.0176402
694.514	0.0176205
694.592	0.0174699
694.670	0.0174478
694.748	0.0175381
694.826	0.0173392
694.905	0.0173221
694.983	0.0171004
695.061	0.0170377
695.139	0.0168986
695.217	0.0168494
695.295	0.0166907
695.373	0.0165910
695.451	0.0165771
695.530	0.0164542
695.608	0.0162209
695.686	0.0161884
695.764	0.0161316
695.842	0.0159556
695.920	0.0160197
695.998	0.0158903
696.076	0.0158408
696.155	0.0160136
696.233	0.0158921
696.311	0.0158712
696.389	0.0160009
696.467	0.0159206
696.545	0.0157565
696.623	0.0159138
696.701	0.0160928
696.780	0.0160628
696.858	0.0160483
696.936	0.0160564
697.014	0.0162878
697.092	0.0161279
697.170	0.0163010
697.248	0.0163467
697.326	0.0163110
697.405	0.0162859
697.483	0.0165747
697.561	0.0165063
697.639	0.0165627
697.717	0.0166349
697.795	0.0166523
697.873	0.0166829
697.951	0.0168022
698.030	0.0168783
698.108	0.0168250
698.186	0.0169101
698.264	0.0169170
698.342	0.0169546
698.420	0.0170610
698.498	0.0169469
698.576	0.0171366
698.655	0.0171414
698.733	0.0171474
698.811	0.0172572
698.889	0.0172823
698.967	0.0173721
699.045	0.0172670
699.123	0.0173150
699.201	0.0173849
699.280	0.0174809
699.358	0.0173534
699.436	0.0174540
699.514	0.0175922
699.592	0.0174482
699.670	0.0173077
699.748	0.0173194
699.826	0.0174826
699.905	0.0173844
699.983	0.0173260
700.061	0.0173162
700.139	0.0171204
700.217	0.0168622
700.295	0.0168375
700.373	0.0168971
700.451	0.0166528
700.530	0.0166164
700.608	0.0165337
700.686	0.0163533
700.764	0.0162128
700.842	0.0161131
700.920	0.0160538
700.998	0.0160147
701.076	0.0158769
701.155	0.0158520
701.233	0.0158031
701.311	0.0155923
701.389	0.0156339
701.467	0.0157441
701.545	0.0157221
701.623	0.0154906
701.701	0.0156172
701.780	0.0155686
701.858	0.0156979
701.936	0.0156405
702.014	0.0157106
702.092	0.0158428
702.170	0.0159817
702.248	0.0160878
702.326	0.0161715
702.405	0.0162009
702.483	0.0163138
702.561	0.0166145
702.639	0.0166192
702.717	0.0166388
702.795	0.0167419
702.873	0.0167973
702.951	0.0169576
703.030	0.0170766
703.108	0.0172301
703.186	0.0174404
703.264	0.0174407
703.342	0.0175200
703.420	0.0176308
703.498	0.0176197
703.576	0.0178883
703.655	0.0179467
703.733	0.0177039
703.811	0.0178248
703.889	0.0179120
703.967	0.0178060
704.045	0.0177441
704.123	0.0177738
704.201	0.0176807
704.280	0.0174990
704.358	0.0175993
704.436	0.0173552
704.514	0.0172458
704.592	0.0172171
704.670	0.0170464
704.748	0.0169001
704.826	0.0167845
704.905	0.0166138
704.983	0.0164719
705.061	0.0164447
705.139	0.0164496
705.217	0.0161689
705.295	0.0161341
705.373	0.0160765
705.451	0.0160524
705.530	0.0158466
705.608	0.0159062
705.686	0.0159233
705.764	0.0159417
705.842	0.0159331
705.920	0.0160321
705.998	0.0161048
706.076	0.0160790
706.155	0.0162482
706.233	0.0162043
706.311	0.0162662
706.389	0.0162953
706.467	0.0163348
706.545	0.0164585
706.623	0.0164293
706.701	0.0165401
706.780	0.0164633
706.858	0.0164496
706.936	0.0166051
707.014	0.0166459
707.092	0.0165488
707.170	0.0165257
707.248	0.0164986
707.326	0.0164067
707.405	0.0163962
707.483	0.0164513
707.561	0.0164557
707.639	0.0163694
707.717	0.0161800
707.795	0.0162687
707.873	0.0162926
707.951	0.0162679
708.030	0.0162430
708.108	0.0161866
708.186	0.0161440
708.264	0.0162574
708.342	0.0162714
708.420	0.0162979
708.498	0.0163166
708.576	0.0162299
708.655	0.0162332
708.733	0.0163374
708.811	0.0163701
708.889	0.0163614
708.967	0.0163734
709.045	0.0164265
709.123	0.0163860
709.201	0.0164790
709.280	0.0164935
709.358	0.0164974
709.436	0.0166118
709.514	0.0165489
709.592	0.0164838
709.670	0.0166350
709.748	0.0167886
709.826	0.0168267
709.905	0.0168929
709.983	0.0169077
710.061	0.0169402
710.139	0.0170957
710.217	0.0170155
710.295	0.0171628
710.373	0.0172012
710.451	0.0174292
710.530	0.0173427
710.608	0.0173569
710.686	0.0175550
710.764	0.0175200
710.842	0.0175941
710.920	0.0175183
710.998	0.0175800
711.076	0.0175107
711.155	0.0175963
711.233	0.0174324
711.311	0.0173721
711.389	0.0173104
711.467	0.0172976
711.545	0.0172488
711.623	0.0171930
711.701	0.0170441
711.780	0.0169226
711.858	0.0168440
711.936	0.0167466
712.014	0.0165129
712.092	0.0165363
712.170	0.0165201
712.248	0.0162172
712.326	0.0161871
712.405	0.0162101
712.483	0.0161884
712.561	0.0161642
712.639	0.0159607
712.717	0.0159982
712.795	0.0159269
712.873	0.0160583
712.951	0.0160130
713.030	0.0160738
713.108	0.0161942
713.186	0.0161299
713.264	0.0162399
713.342	0.0163995
713.420	0.0162474
713.498	0.0164023
713.576	0.0164368
713.655	0.0163503
713.733	0.0165373
713.811	0.0163899
713.889	0.0163214
713.967	0.0163288
714.045	0.0163569
714.123	0.0163987
714.201	0.0161976
714.280	0.0162142
714.358	0.0161718
714.436	0.0164747
714.514	0.0163857
714.592	0.0163782
714.670	0.0164523
714.748	0.0163955
714.826	0.0164648
714.905	0.0166261
714.983	0.0167147
715.061	0.0167950
715.139	0.0169143
715.217	0.0169364
715.295	0.0170992
715.373	0.0171356
715.451	0.0171643
715.530	0.0173192
715.608	0.0172729
715.686	0.0173793
715.764	0.0175349
715.842	0.0175572
715.920	0.0173925
715.998	0.0173698
716.076	0.0175051
716.155	0.0174518
716.233	0.0173701
716.311	0.0173621
716.389	0.0174442
716.467	0.0172643
716.545	0.0171931
716.623	0.0170862
716.701	0.0170647
716.780	0.0169341
716.858	0.0167929
716.936	0.0166884
717.014	0.0167453
717.092	0.0167542
717.170	0.0165498
717.248	0.0164584
717.326	0.0165627
717.405	0.0166431
717.483	0.0164231
717.561	0.0165746
717.639	0.0165229
717.717	0.0164887
717.795	0.0166740
717.873	0.0166767
717.951	0.0167381
718.030	0.0168708
718.108	0.0170110
718.186	0.0169855
718.264	0.0169378
718.342	0.0169428
718.420	0.0170880
718.498	0.0171068
718.576	0.0170466
718.655	0.0170007
718.733	0.0169349
718.811	0.0169236
718.889	0.0169163
718.967	0.0168308
719.045	0.0169467
719.123	0.0168657
719.201	0.0167099
719.280	0.0167625
719.358	0.0165804
719.436	0.0165823
719.514	0.0163943
719.592	0.0163219
719.670	0.0163704
719.748	0.0161685
719.826	0.0161720
719.905	0.0162090
719.983	0.0159509
720.061	0.0158768
720.139	0.0158149
720.217	0.0159869
720.295	0.0158922
720.373	0.0158787
720.451	0.0157233
720.530	0.0157503
720.608	0.0158635
720.686	0.0158012
720.764	0.0159088
720.842	0.0158693
720.920	0.0159217
720.998	0.0160571
721.076	0.0162514
721.155	0.0161408
721.233	0.0162379
721.311	0.0164101
721.389	0.0164081
721.467	0.0165517
721.545	0.0165979
721.623	0.0166309
721.701	0.0167896
721.780	0.0169334
721.858	0.0170224
721.936	0.0170286
722.014	0.0171423
722.092	0.0170798
722.170	0.0171659
722.248	0.0171259
722.326	0.0172026
722.405	0.0172933
722.483	0.0172056
722.561	0.0171164
722.639	0.0171363
722.717	0.0171588
722.795	0.0171026
722.873	0.0171257
722.951	0.0171043
723.030	0.0169709
723.108	0.0170534
723.186	0.0169815
723.264	0.0170285
723.342	0.0170492
723.420	0.0169833
723.498	0.0169603
723.576	0.0169730
723.655	0.0169868
723.733	0.0168311
723.811	0.0169925
723.889	0.0169749
723.967	0.0169248
724.045	0.0170615
724.123	0.0168514
724.201	0.0167619
724.280	0.0169775
724.358	0.0169023
724.436	0.0167700
724.514	0.0167397
724.592	0.0167246
724.670	0.0166149
724.748	0.0165338
724.826	0.0166065
724.905	0.0162701
724.983	0.0163547
725.061	0.0164230
725.139	0.0165820
725.217	0.0164275
725.295	0.0163078
725.373	0.0164274
725.451	0.0163711
725.530	0.0164104
725.608	0.0163971
725.686	0.0164732
725.764	0.0165134
725.842	0.0164334
725.920	0.0164705
725.998	0.0165745
726.076	0.0166645
726.155	0.0164265
726.233	0.0166056
726.311	0.0165709
726.389	0.0165804
726.467	0.0165792
726.545	0.0166015
726.623	0.0164961
726.701	0.0165567
726.780	0.0164342
726.858	0.0165301
726.936	0.0165238
727.014	0.0162258
727.092	0.0161865
727.170	0.0162742
727.248	0.0162792
727.326	0.0161911
727.405	0.0162209
727.483	0.0162788
727.561	0.0161793
727.639	0.0161874
727.717	0.0162439
727.795	0.0162746
727.873	0.0161600
727.951	0.0162944
728.030	0.0163890
728.108	0.0164104
728.186	0.0164974
728.264	0.0164677
728.342	0.0164600
728.420	0.0166570
728.498	0.0167814
728.576	0.0168415
728.655	0.0168431
728.733	0.0169311
728.811	0.0169772
728.889	0.0171284
728.967	0.0171020
729.045	0.0171376
729.123	0.0170770
729.201	0.0170628
729.280	0.0171525
729.358	0.0172339
729.436	0.0172963
729.514	0.0172758
729.592	0.0170018
729.670	0.0170626
729.748	0.0171399
729.826	0.0169008
729.905	0.0170811
729.983	0.0170171
730.061	0.0168703
730.139	0.0169016
730.217	0.0167991
730.295	0.0167220
730.373	0.0167237
730.451	0.0167192
730.530	0.0166669
730.608	0.0166970
730.686	0.0166257
730.764	0.0164985
730.842	0.0166231
730.920	0.0166612
730.998	0.0166602
731.076	0.0165906
731.155	0.0165873
731.233	0.0164645
731.311	0.0164273
731.389	0.0164040
731.467	0.0164909
731.545	0.0164980
731.623	0.0164629
731.701	0.0163439
731.780	0.0162183
731.858	0.0163902
731.936	0.0163094
732.014	0.0163206
732.092	0.0161973
732.170	0.0162543
732.248	0.0163963
732.326	0.0163179
732.405	0.0163608
732.483	0.0162300
732.561	0.0164021
732.639	0.0163915
732.717	0.0165703
732.795	0.0166541
732.873	0.0165236
732.951	0.0167832
733.030	0.0168327
733.108	0.0169741
733.186	0.0169490
733.264	0.0169814
733.342	0.0170147
733.420	0.0170178
733.498	0.0171458
733.576	0.0172304
733.655	0.0172523
733.733	0.0172334
733.811	0.0171407
733.889	0.0172767
733.967	0.0172912
734.045	0.0171812
734.123	0.0171328
734.201	0.0170420
734.280	0.0168765
734.358	0.0170232
734.436	0.0169235
734.514	0.0167891
734.592	0.0167323
734.670	0.0168336
734.748	0.0167855
734.826	0.0167187
734.905	0.0165479
734.983	0.0163350
735.061	0.0162862
735.139	0.0163083
735.217	0.0163985
735.295	0.0161937
735.373	0.0164417
735.451	0.0162516
735.530	0.0163102
735.608	0.0163711
735.686	0.0162209
735.764	0.0163625
735.842	0.0163714
735.920	0.0163278
735.998	0.0163674
736.076	0.0166551
736.155	0.0168013
736.233	0.0165736
736.311	0.0166064
736.389	0.0167764
736.467	0.0168418
736.545	0.0167796
736.623	0.0167390
736.701	0.0168960
736.780	0.0169343
736.858	0.0167447
736.936	0.0168738
737.014	0.0168614
737.092	0.0168712
737.170	0.0168061
737.248	0.0168076
737.326	0.0167765
737.405	0.0167075
737.483	0.0166898
737.561	0.0166442
737.639	0.0166885
737.717	0.0168227
737.795	0.0166396
737.873	0.0165388
737.951	0.0166770
738.030	0.0165685
738.108	0.0165802
738.186	0.0165839
738.264	0.0168382
738.342	0.0168236
738.420	0.0167686
738.498	0.0167680
738.576	0.0166164
738.655	0.0168432
738.733	0.0169527
738.811	0.0169648
738.889	0.0168498
738.967	0.0170074
739.045	0.0170030
739.123	0.0171080
739.201	0.0170007
739.280	0.0170697
739.358	0.0171672
739.436	0.0170351
739.514	0.0170281
739.592	0.0168969
739.670	0.0169883
739.748	0.0170094
739.826	0.0170020
739.905	0.0168092
739.983	0.0167587
740.061	0.0166756
740.139	0.0167358
740.217	0.0167238
740.295	0.0165234
740.373	0.0166391
740.451	0.0165717
740.530	0.0166145
740.608	0.0163520
740.686	0.0162644
740.764	0.0163566
740.842	0.0164482
740.920	0.0164269
740.998	0.0164677
741.076	0.0165800
741.155	0.0165913
741.233	0.0166287
741.311	0.0165942
741.389	0.0167281
741.467	0.0166933
741.545	0.0168641
741.623	0.0168299
741.701	0.0169853
741.780	0.0169250
741.858	0.0168922
741.936	0.0167940
742.014	0.0169475
742.092	0.0169773
742.170	0.0168528
742.248	0.0168447
742.326	0.0169115
742.405	0.0169502
742.483	0.0168504
742.561	0.0167228
742.639	0.0166941
742.717	0.0166827
742.795	0.0165299
742.873	0.0164899
742.951	0.0166103
743.030	0.0165572
743.108	0.0162784
743.186	0.0163371
743.264	0.0162330
743.342	0.0161792
743.420	0.0163416
743.498	0.0163097
743.576	0.0162984
743.655	0.0162541
743.733	0.0162750
743.811	0.0163091
743.889	0.0164107
743.967	0.0165135
744.045	0.0163914
744.123	0.0164989
744.201	0.0163986
744.280	0.0164999
744.358	0.0166383
744.436	0.0166289
744.514	0.0165156
744.592	0.0165685
744.670	0.0165747
744.748	0.0166454
744.826	0.0165009
744.905	0.0164246
744.983	0.0166664
745.061	0.0164988
745.139	0.0163927
745.217	0.0163353
745.295	0.0164101
745.373	0.0165893
745.451	0.0164657
745.530	0.0165006
745.608	0.0165793
745.686	0.0165320
745.764	0.0165567
745.842	0.0165929
745.920	0.0166506
745.998	0.0166697
746.076	0.0167277
746.155	0.0167527
746.233	0.0167249
746.311	0.0168517
746.389	0.0167309
746.467	0.0168494
746.545	0.0167289
746.623	0.0167812
746.701	0.0167982
746.780	0.0167467
746.858	0.0166946
746.936	0.0167650
747.014	0.0166012
747.092	0.0166842
747.170	0.0167023
747.248	0.0166752
747.326	0.0166411
747.405	0.0165808
747.483	0.0166507
747.561	0.0166227
747.639	0.0166152
747.717	0.0165555
747.795	0.0165437
747.873	0.0165734
747.951	0.0165512
748.030	0.0164938
748.108	0.0166404
748.186	0.0167520
748.264	0.0165853
748.342	0.0165361
748.420	0.0165574
748.498	0.0165559
748.576	0.0164915
748.655	0.0165823
748.733	0.0164827
748.811	0.0165971
748.889	0.0167181
748.967	0.0167639
749.045	0.0166743
749.123	0.0168001
749.201	0.0168764
749.280	0.0166321
749.358	0.0167389
749.436	0.0169264
749.514	0.0168761
749.592	0.0169169
749.670	0.0168767
749.748	0.0168468
749.826	0.0169371
749.905	0.0169223
749.983	0.0168166
750.061	0.0169118
750.139	0.0169300
750.217	0.0169141
750.295	0.0167413
750.373	0.0168611
750.451	0.0167486
750.530	0.0166598
750.608	0.0165979
750.686	0.0165878
750.764	0.0166292
750.842	0.0166253
750.920	0.0165617
750.998	0.0165865
751.076	0.0165267
751.155	0.0165017
751.233	0.0165707
751.311	0.0163714
751.389	0.0165606
751.467	0.0165879
751.545	0.0165761
751.623	0.0165618
751.701	0.0166023
751.780	0.0166467
751.858	0.0166376
751.936	0.0166553
752.014	0.0167499
752.092	0.0168299
752.170	0.0166778
752.248	0.0168407
752.326	0.0167621
752.405	0.0169019
752.483	0.0168037
752.561	0.0168900
752.639	0.0169084
752.717	0.0167875
752.795	0.0168850
752.873	0.0168557
752.951	0.0168262
753.030	0.0167486
753.108	0.0167500
753.186	0.0167733
753.264	0.0167820
753.342	0.0168214
753.420	0.0167365
753.498	0.0167483
753.576	0.0167166
753.655	0.0167586
753.733	0.0167908
753.811	0.0167941
753.889	0.0166934
753.967	0.0168182
754.045	0.0168167
754.123	0.0168608
754.201	0.0167900
754.280	0.0167365
754.358	0.0166953
754.436	0.0166646
754.514	0.0167308
754.592	0.0166673
754.670	0.0166792
754.748	0.0165976
754.826	0.0167449
754.905	0.0167950
754.983	0.0165674
755.061	0.0164974
755.139	0.0165595
755.217	0.0166109
755.295	0.0165903
755.373	0.0164626
755.451	0.0165391
755.530	0.0164436
755.608	0.0165447
755.686	0.0164950
755.764	0.0164690
755.842	0.0164320
755.920	0.0164655
755.998	0.0164714
756.076	0.0165878
756.155	0.0166808
756.233	0.0164362
756.311	0.0164391
756.389	0.0164784
756.467	0.0165717
756.545	0.0165032
756.623	0.0165055
756.701	0.0164701
756.780	0.0167562
756.858	0.0166531
756.936	0.0166219
757.014	0.0168002
757.092	0.0167200
757.170	0.0166568
757.248	0.0166376
757.326	0.0167312
757.405	0.0167424
757.483	0.0168367
757.561	0.0167241
757.639	0.0169452
757.717	0.0168214
757.795	0.0168353
757.873	0.0168565
757.951	0.0168159
758.030	0.0168642
758.108	0.0168463
758.186	0.0167878
758.264	0.0167805
758.342	0.0168838
758.420	0.0167947
758.498	0.0167551
758.576	0.0166817
758.655	0.0166304
758.733	0.0167574
758.811	0.0167413
758.889	0.0165844
758.967	0.0165993
759.045	0.0165200
759.123	0.0165555
759.201	0.0166396
759.280	0.0166512
759.358	0.0166233
759.436	0.0165541
759.514	0.0166596
759.592	0.0167503
759.670	0.0166497
759.748	0.0165398
759.826	0.0167955
759.905	0.0167382
759.983	0.0168062
760.061	0.0169345
760.139	0.0167841
760.217	0.0167787
760.295	0.0168079
760.373	0.0169193
760.451	0.0168306
760.530	0.0167317
760.608	0.0167930
760.686	0.0169576
760.764	0.0168118
760.842	0.0169177
760.920	0.0170044
760.998	0.0166801
761.076	0.0166619
761.155	0.0167374
761.233	0.0167968
761.311	0.0168056
761.389	0.0167501
761.467	0.0166283
761.545	0.0165463
761.623	0.0167476
761.701	0.0167316
761.780	0.0165934
761.858	0.0165516
761.936	0.0165868
762.014	0.0165584
762.092	0.0166923
762.170	0.0165726
762.248	0.0167245
762.326	0.0167574
762.405	0.0167341
762.483	0.0168117
762.561	0.0168852
762.639	0.0167831
762.717	0.0169305
762.795	0.0170625
762.873	0.0169358
762.951	0.0169181
763.030	0.0169969
763.108	0.0169510
763.186	0.0169341
763.264	0.0169167
763.342	0.0168123
763.420	0.0169117
763.498	0.0167912
763.576	0.0169131
763.655	0.0168909
763.733	0.0168116
763.811	0.0169189
763.889	0.0166356
763.967	0.0167019
764.045	0.0166502
764.123	0.0166695
764.201	0.0168877
764.280	0.0166164
764.358	0.0165295
764.436	0.0165847
764.514	0.0165723
764.592	0.0165292
764.670	0.0165311
764.748	0.0165263
764.826	0.0163954
764.905	0.0165121
764.983	0.0165856
765.061	0.0165227
765.139	0.0165621
765.217	0.0163991
765.295	0.0164721
765.373	0.0165269
765.451	0.0164539
765.530	0.0165894
765.608	0.0166953
765.686	0.0166346
765.764	0.0167097
765.842	0.0165459
765.920	0.0168513
765.998	0.0169516
766.076	0.0168210
766.155	0.0167690
766.233	0.0167516
766.311	0.0167891
766.389	0.0168954
766.467	0.0168157
766.545	0.0168589
766.623	0.0166945
766.701	0.0167124
766.780	0.0166753
766.858	0.0165390
766.936	0.0166730
767.014	0.0166734
767.092	0.0166173
767.170	0.0164165
767.248	0.0165315
767.326	0.0163755
767.405	0.0164630
767.483	0.0165437
767.561	0.0165527
767.639	0.0165245
767.717	0.0165852
767.795	0.0167384
767.873	0.0167085
767.951	0.0166335
768.030	0.0167293
768.108	0.0167420
768.186	0.0168607
768.264	0.0167979
768.342	0.0168687
768.420	0.0168726
768.498	0.0168420
768.576	0.0167256
768.655	0.0167489
768.733	0.0166892
768.811	0.0168217
768.889	0.0166484
768.967	0.0166985
769.045	0.0166575
769.123	0.0165213
769.201	0.0165334
769.280	0.0165829
769.358	0.0165260
769.436	0.0165049
769.514	0.0166060
769.592	0.0165635
769.670	0.0165551
769.748	0.0165854
769.826	0.0167086
769.905	0.0164977
769.983	0.0167017
770.061	0.0166484
770.139	0.0165379
770.217	0.0165456
770.295	0.0166947
770.373	0.0166282
770.451	0.0166775
770.530	0.0165607
770.608	0.0165300
770.686	0.0166629
770.764	0.0166709
770.842	0.0166012
770.920	0.0166918
770.998	0.0165119
771.076	0.0164150
771.155	0.0165791
771.233	0.0166475
771.311	0.0166677
771.389	0.0166645
771.467	0.0167517
771.545	0.0166464
771.623	0.0165993
771.701	0.0166867
771.780	0.0166838
771.858	0.0167207
771.936	0.0167332
772.014	0.0166901
772.092	0.0167722
772.170	0.0167512
772.248	0.0167451
772.326	0.0167815
772.405	0.0167393
772.483	0.0166998
772.561	0.0167342
772.639	0.0166153
772.717	0.0168118
772.795	0.0165851
772.873	0.0166726
772.951	0.0167094
773.030	0.0165477
773.108	0.0165115
773.186	0.0165191
773.264	0.0167014
773.342	0.0165046
773.420	0.0164336
773.498	0.0164648
773.576	0.0164748
773.655	0.0165800
773.733	0.0166550
773.811	0.0166543
773.889	0.0165247
773.967	0.0166656
774.045	0.0167111
774.123	0.0166145
774.201	0.0168242
774.280	0.0168990
774.358	0.0167152
774.436	0.0167139
774.514	0.0165889
774.592	0.0166586
774.670	0.0167548
774.748	0.0165876
774.826	0.0165704
774.905	0.0166317
774.983	0.0165761
775.061	0.0166338
775.139	0.0166637
775.217	0.0166399
775.295	0.0167078
775.373	0.0167798
775.451	0.0165206
775.530	0.0166817
775.608	0.0167590
775.686	0.0166329
775.764	0.0167467
775.842	0.0168122
775.920	0.0169028
775.998	0.0168767
776.076	0.0168572
776.155	0.0168852
776.233	0.0169170
776.311	0.0167663
776.389	0.0168558
776.467	0.0168571
776.545	0.0168970
776.623	0.0168741
776.701	0.0169487
776.780	0.0166589
776.858	0.0167339
776.936	0.0165541
777.014	0.0166331
777.092	0.0165459
777.170	0.0164874
777.248	0.0166207
777.326	0.0166203
777.405	0.0165310
777.483	0.0164223
777.561	0.0165199
777.639	0.0164929
777.717	0.0164433
777.795	0.0164880
777.873	0.0164104
777.951	0.0165781
778.030	0.0165550
778.108	0.0164656
778.186	0.0165277
778.264	0.0166870
778.342	0.0164410
778.420	0.0166747
778.498	0.0166727
778.576	0.0165890
778.655	0.0165771
778.733	0.0165298
778.811	0.0166386
778.889	0.0166887
778.967	0.0166219
779.045	0.0165678
779.123	0.0166724
779.201	0.0167606
779.280	0.0166267
779.358	0.0165254
779.436	0.0166589
779.514	0.0166789
779.592	0.0166859
779.670	0.0165966
779.748	0.0165803
779.826	0.0166338
779.905	0.0167051
779.983	0.0166982
780.061	0.0167666
780.139	0.0166989
780.217	0.0166418
780.295	0.0167539
780.373	0.0168509
780.451	0.0167598
780.530	0.0168688
780.608	0.0168138
780.686	0.0167654
780.764	0.0168663
780.842	0.0167245
780.920	0.0168961
780.998	0.0168146
781.076	0.0168684
781.155	0.0168198
781.233	0.0167718
781.311	0.0167996
781.389	0.0167815
781.467	0.0168879
781.545	0.0167280
781.623	0.0168194
781.701	0.0167696
781.780	0.0168291
781.858	0.0168400
781.936	0.0168696
782.014	0.0167883
782.092	0.0168076
782.170	0.0167902
782.248	0.0167006
782.326	0.0167251
782.405	0.0167865
782.483	0.0167928
782.561	0.0168550
782.639	0.0169701
782.717	0.0168434
782.795	0.0168853
782.873	0.0168761
782.951	0.0168665
783.030	0.0169033
783.108	0.0169296
783.186	0.0168959
783.264	0.0169097
783.342	0.0168858
783.420	0.0168800
783.498	0.0169407
783.576	0.0169808
783.655	0.0169283
783.733	0.0168211
783.811	0.0169341
783.889	0.0169324
783.967	0.0166449
784.045	0.0166552
784.123	0.0168919
784.201	0.0167402
784.280	0.0165253
784.358	0.0167086
784.436	0.0166478
784.514	0.0165965
784.592	0.0166374
784.670	0.0166453
784.748	0.0165707
784.826	0.0166119
784.905	0.0165793
784.983	0.0165659
785.061	0.0165654
785.139	0.0165067
785.217	0.0165734
785.295	0.0165241
785.373	0.0165031
785.451	0.0166933
785.530	0.0165607
785.608	0.0165537
785.686	0.0167194
785.764	0.0167271
785.842	0.0167406
785.920	0.0167463
785.998	0.0168706
786.076	0.0168211
786.155	0.0169037
786.233	0.0168462
786.311	0.0168737
786.389	0.0169362
786.467	0.0168752
786.545	0.0169575
786.623	0.0169717
786.701	0.0168420
786.780	0.0170358
786.858	0.0168387
786.936	0.0168357
787.014	0.0169460
787.092	0.0169238
787.170	0.0168034
787.248	0.0167915
787.326	0.0168803
787.405	0.0167817
787.483	0.0166428
787.561	0.0167876
787.639	0.0167091
787.717	0.0165783
787.795	0.0164798
787.873	0.0165691
787.951	0.0163416
788.030	0.0164301
788.108	0.0165105
788.186	0.0163463
788.264	0.0163615
788.342	0.0164230
788.420	0.0162659
788.498	0.0164085
788.576	0.0163467
788.655	0.0164113
788.733	0.0163660
788.811	0.0165021
788.889	0.0164671
788.967	0.0164387
789.045	0.0164361
789.123	0.0163591
789.201	0.0164652
789.280	0.0165699
789.358	0.0165050
789.436	0.0165961
789.514	0.0165583
789.592	0.0166173
789.670	0.0166170
789.748	0.0167428
789.826	0.0167152
789.905	0.0166225
789.983	0.0165927
790.061	0.0166545
790.139	0.0166960
790.217	0.0169002
790.295	0.0169321
790.373	0.0167405
790.451	0.0169050
790.530	0.0169524
790.608	0.0169712
790.686	0.0170532
790.764	0.0170013
790.842	0.0169487
790.920	0.0171400
790.998	0.0171189
791.076	0.0171167
791.155	0.0170612
791.233	0.0170717
791.311	0.0171858
791.389	0.0170433
791.467	0.0169828
791.545	0.0169632
791.623	0.0168687
791.701	0.0169054
791.780	0.0169814
791.858	0.0169106
791.936	0.0167043
792.014	0.0167027
792.092	0.0166228
792.170	0.0167587
792.248	0.0165641
792.326	0.0167549
792.405	0.0165724
792.483	0.0166174
792.561	0.0167095
792.639	0.0166063
792.717	0.0167113
792.795	0.0166990
792.873	0.0166380
792.951	0.0167005
793.030	0.0167802
793.108	0.0166675
793.186	0.0167764
793.264	0.0167053
793.342	0.0168659
793.420	0.0167564
793.498	0.0167262
793.576	0.0167364
793.655	0.0167924
793.733	0.0167496
793.811	0.0168569
793.889	0.0166591
793.967	0.0166048
794.045	0.0167366
794.123	0.0167684
794.201	0.0167412
794.280	0.0167587
794.358	0.0168916
794.436	0.0168037
794.514	0.0167278
794.592	0.0167192
794.670	0.0168432
794.748	0.0167197
794.826	0.0168088
794.905	0.0170322
794.983	0.0167911
795.061	0.0169153
795.139	0.0169227
795.217	0.0168832
795.295	0.0169598
795.373	0.0169596
795.451	0.0168459
795.530	0.0168761
795.608	0.0169276
795.686	0.0169138
795.764	0.0168813
795.842	0.0169375
795.920	0.0168534
795.998	0.0167078
796.076	0.0168893
796.155	0.0167087
796.233	0.0167360
796.311	0.0168079
796.389	0.0167641
796.467	0.0167451
796.545	0.0166710
796.623	0.0167662
796.701	0.0167715
796.780	0.0166788
796.858	0.0169057
796.936	0.0166550
797.014	0.0166109
797.092	0.0167147
797.170	0.0166169
797.248	0.0167624
797.326	0.0166746
797.405	0.0165645
797.483	0.0166067
797.561	0.0165585
797.639	0.0163286
797.717	0.0164324
797.795	0.0164156
797.873	0.0164847
797.951	0.0163265
798.030	0.0162546
798.108	0.0162778
798.186	0.0162953
798.264	0.0163694
798.342	0.0162193
798.420	0.0162582
798.498	0.0164342
798.576	0.0163486
798.655	0.0163972
798.733	0.0164278
798.811	0.0163789
798.889	0.0165088
798.967	0.0166872
799.045	0.0165126
799.123	0.0166165
799.201	0.0165534
799.280	0.0168638
799.358	0.0166814
799.436	0.0169049
799.514	0.0168679
799.592	0.0167263
799.670	0.0168002
799.748	0.0168245
799.826	0.0168288
799.905	0.0168947
799.983	0.0169139
800.061	0.0168306
800.139	0.0168135
800.217	0.0168301
800.295	0.0167645
800.373	0.0168493
800.451	0.0169179
800.530	0.0168291
800.608	0.0167773
800.686	0.0169199
800.764	0.0170145
800.842	0.0170160
800.920	0.0169203
800.998	0.0170020
801.076	0.0170318
801.155	0.0170734
801.233	0.0169314
801.311	0.0169859
801.389	0.0169828
801.467	0.0170800
801.545	0.0170065
801.623	0.0169711
801.701	0.0169492
801.780	0.0170091
801.858	0.0168334
801.936	0.0168833
802.014	0.0168275
802.092	0.0168244
802.170	0.0166593
802.248	0.0167072
802.326	0.0166333
802.405	0.0166489
802.483	0.0167284
802.561	0.0166311
802.639	0.0164463
802.717	0.0165295
802.795	0.0166945
802.873	0.0165849
802.951	0.0164619
803.030	0.0166148
803.108	0.0165353
803.186	0.0166672
803.264	0.0165916
803.342	0.0165772
803.420	0.0166241
803.498	0.0167464
803.576	0.0166888
803.655	0.0165354
803.733	0.0165714
803.811	0.0165421
803.889	0.0165482
803.967	0.0166598
804.045	0.0164603
804.123	0.0165775
804.201	0.0165838
804.280	0.0165940
804.358	0.0165600
804.436	0.0165253
804.514	0.0166245
804.592	0.0166958
804.670	0.0166772
804.748	0.0167400
804.826	0.0166882
804.905	0.0167856
804.983	0.0166695
805.061	0.0167239
805.139	0.0167048
805.217	0.0169778
805.295	0.0167074
805.373	0.0167835
805.451	0.0168158
805.530	0.0166922
805.608	0.0167426
805.686	0.0168633
805.764	0.0167484
805.842	0.0165942
805.920	0.0166813
805.998	0.0165551
806.076	0.0165852
806.155	0.0165569
806.233	0.0165632
806.311	0.0164912
806.389	0.0165959
806.467	0.0165938
806.545	0.0165385
806.623	0.0164613
806.701	0.0166454
806.780	0.0166824
806.858	0.0166278
806.936	0.0166449
807.014	0.0168117
807.092	0.0168037
807.170	0.0168269
807.248	0.0168394
807.326	0.0168242
807.405	0.0168078
807.483	0.0168976
807.561	0.0168401
807.639	0.0169213
807.717	0.0167963
807.795	0.0168072
807.873	0.0169902
807.951	0.0168084
808.030	0.0166769
808.108	0.0167236
808.186	0.0166118
808.264	0.0166208
808.342	0.0164487
808.420	0.0164919
808.498	0.0165629
808.576	0.0163872
808.655	0.0164649
808.733	0.0163615
808.811	0.0163931
808.889	0.0163419
808.967	0.0164217
809.045	0.0164443
809.123	0.0164137
809.201	0.0163799
809.280	0.0163817
809.358	0.0164502
809.436	0.0163169
809.514	0.0165014
809.592	0.0164671
809.670	0.0163908
809.748	0.0164767
809.826	0.0164278
809.905	0.0164765
809.983	0.0164237
810.061	0.0165494
810.139	0.0163891
810.217	0.0164445
810.295	0.0163194
810.373	0.0163760
810.451	0.0163973
810.530	0.0165930
810.608	0.0163876
810.686	0.0163691
810.764	0.0164244
810.842	0.0164635
810.920	0.0165264
810.998	0.0165169
811.076	0.0165112
811.155	0.0165648
811.233	0.0167090
811.311	0.0166413
811.389	0.0166370
811.467	0.0167771
811.545	0.0166370
811.623	0.0168227
811.701	0.0167908
811.780	0.0167744
811.858	0.0168216
811.936	0.0168958
812.014	0.0169113
812.092	0.0167883
812.170	0.0170155
812.248	0.0169270
812.326	0.0169232
812.405	0.0168825
812.483	0.0168210
812.561	0.0167297
812.639	0.0169585
812.717	0.0168403
812.795	0.0168275
812.873	0.0167969
812.951	0.0167826
813.030	0.0165617
813.108	0.0166738
813.186	0.0166743
813.264	0.0166534
813.342	0.0165638
813.420	0.0167627
813.498	0.0165527
813.576	0.0166541
813.655	0.0167089
813.733	0.0165524
813.811	0.0165907
813.889	0.0165648
813.967	0.0163326
814.045	0.0164502
814.123	0.0165525
814.201	0.0165450
814.280	0.0166034
814.358	0.0165321
814.436	0.0163950
814.514	0.0164345
814.592	0.0165647
814.670	0.0165726
814.748	0.0165735
814.826	0.0165972
814.905	0.0166946
814.983	0.0167149
815.061	0.0167390
815.139	0.0167634
815.217	0.0167534
815.295	0.0167895
815.373	0.0168819
815.451	0.0169006
815.530	0.0168526
815.608	0.0168594
815.686	0.0169839
815.764	0.0168761
815.842	0.0169519
815.920	0.0168796
815.998	0.0167799
816.076	0.0168834
816.155	0.0168030
816.233	0.0166802
816.311	0.0168237
816.389	0.0167696
816.467	0.0167660
816.545	0.0167307
816.623	0.0168752
816.701	0.0167130
816.780	0.0168325
816.858	0.0168239
816.936	0.0167452
817.014	0.0168761
817.092	0.0167819
817.170	0.0168015
817.248	0.0169442
817.326	0.0167888
817.405	0.0168727
817.483	0.0168177
817.561	0.0169270
817.639	0.0169277
817.717	0.0169342
817.795	0.0168633
817.873	0.0168549
817.951	0.0169595
818.030	0.0170613
818.108	0.0168781
818.186	0.0170061
818.264	0.0169386
818.342	0.0169324
818.420	0.0170781
818.498	0.0169829
818.576	0.0169321
818.655	0.0169273
818.733	0.0169280
818.811	0.0169543
818.889	0.0168850
818.967	0.0169118
819.045	0.0168681
819.123	0.0168246
819.201	0.0167121
819.280	0.0167374
819.358	0.0167156
819.436	0.0166798
819.514	0.0166119
819.592	0.0165881
819.670	0.0166379
819.748	0.0166712
819.826	0.0166158
819.905	0.0167518
819.983	0.0164348
820.061	0.0164758
820.139	0.0167235
820.217	0.0166746
820.295	0.0166297
820.373	0.0165668
820.451	0.0165105
820.530	0.0166063
820.608	0.0165750
820.686	0.0164356
820.764	0.0165926
820.842	0.0165965
820.920	0.0164626
820.998	0.0165049
821.076	0.0165378
821.155	0.0165532
821.233	0.0164790
821.311	0.0164252
821.389	0.0165749
821.467	0.0163605
821.545	0.0164470
821.623	0.0163440
821.701	0.0163716
821.780	0.0164381
821.858	0.0165022
821.936	0.0165174
822.014	0.0164603
822.092	0.0165049
822.170	0.0165376
822.248	0.0164941
822.326	0.0165650
822.405	0.0164342
822.483	0.0163631
822.561	0.0163995
822.639	0.0164265
822.717	0.0163144
822.795	0.0163839
822.873	0.0165534
822.951	0.0163260
823.030	0.0164522
823.108	0.0164867
823.186	0.0165044
823.264	0.0165070
823.342	0.0165198
823.420	0.0165310
823.498	0.0165227
823.576	0.0165842
823.655	0.0166634
823.733	0.0165501
823.811	0.0166020
823.889	0.0165645
823.967	0.0165147
824.045	0.0166269
824.123	0.0165834
824.201	0.0165914
824.280	0.0165508
824.358	0.0166404
824.436	0.0165453
824.514	0.0166947
824.592	0.0165813
824.670	0.0165304
824.748	0.0165762
824.826	0.0164834
824.905	0.0164158
824.983	0.0164771
825.061	0.0166304
825.139	0.0167010
825.217	0.0166254
825.295	0.0166087
825.373	0.0166660
825.451	0.0166110
825.530	0.0167410
825.608	0.0167043
825.686	0.0168868
825.764	0.0168098
825.842	0.0166677
825.920	0.0167922
825.998	0.0167444
826.076	0.0167809
826.155	0.0168683
826.233	0.0169256
826.311	0.0168726
826.389	0.0169070
826.467	0.0168290
826.545	0.0169678
826.623	0.0168852
826.701	0.0167988
826.780	0.0168300
826.858	0.0169026
826.936	0.0168214
827.014	0.0167949
827.092	0.0166666
827.170	0.0167021
827.248	0.0167505
827.326	0.0167122
827.405	0.0167726
827.483	0.0167706
827.561	0.0167107
827.639	0.0167714
827.717	0.0166869
827.795	0.0165871
827.873	0.0166570
827.951	0.0167407
828.030	0.0167690
828.108	0.0165582
828.186	0.0166568
828.264	0.0166984
828.342	0.0166291
828.420	0.0167126
828.498	0.0166982
828.576	0.0167478
828.655	0.0167809
828.733	0.0166680
828.811	0.0165694
828.889	0.0166952
828.967	0.0166670
829.045	0.0166333
829.123	0.0167081
829.201	0.0166612
829.280	0.0165459
829.358	0.0165719
829.436	0.0165644
829.514	0.0167161
829.592	0.0166919
829.670	0.0165539
829.748	0.0166624
829.826	0.0166148
829.905	0.0165893
829.983	0.0165228
830.061	0.0165760
830.139	0.0164803
830.217	0.0163575
830.295	0.0164363
830.373	0.0166061
830.451	0.0165377
830.530	0.0165907
830.608	0.0166949
830.686	0.0166440
830.764	0.0165826
830.842	0.0165688
830.920	0.0165838
830.998	0.0165897
831.076	0.0165280
831.155	0.0166509
831.233	0.0166050
831.311	0.0165932
831.389	0.0165986
831.467	0.0167717
831.545	0.0165929
831.623	0.0165865
831.701	0.0165837
831.780	0.0166618
831.858	0.0165546
831.936	0.0166061
832.014	0.0164677
832.092	0.0166046
832.170	0.0166412
832.248	0.0166046
832.326	0.0165685
832.405	0.0168238
832.483	0.0165335
832.561	0.0164973
832.639	0.0166508
832.717	0.0166334
832.795	0.0165578
832.873	0.0165853
832.951	0.0166178
833.030	0.0168522
833.108	0.0166607
833.186	0.0167278
833.264	0.0166589
833.342	0.0166750
833.420	0.0167285
833.498	0.0167937
833.576	0.0167116
833.655	0.0166134
833.733	0.0166824
833.811	0.0167051
833.889	0.0166836
833.967	0.0167284
834.045	0.0166560
834.123	0.0166562
834.201	0.0165128
834.280	0.0164806
834.358	0.0165776
834.436	0.0164404
834.514	0.0165354
834.592	0.0164563
834.670	0.0164551
834.748	0.0166443
834.826	0.0164278
834.905	0.0164913
834.983	0.0165539
835.061	0.0164960
835.139	0.0164162
835.217	0.0165325
835.295	0.0167335
835.373	0.0166114
835.451	0.0165275
835.530	0.0165986
835.608	0.0166267
835.686	0.0165313
835.764	0.0166405
835.842	0.0165971
835.920	0.0166853
835.998	0.0165791
836.076	0.0165051
836.155	0.0167095
836.233	0.0167462
836.311	0.0165853
836.389	0.0166090
836.467	0.0167509
836.545	0.0167868
836.623	0.0167792
836.701	0.0167354
836.780	0.0167285
836.858	0.0166532
836.936	0.0167630
837.014	0.0168140
837.092	0.0166507
837.170	0.0167918
837.248	0.0166445
837.326	0.0166405
837.405	0.0167553
837.483	0.0168138
837.561	0.0166412
837.639	0.0167231
837.717	0.0165926
837.795	0.0165871
837.873	0.0166212
837.951	0.0167233
838.030	0.0166039
838.108	0.0166122
838.186	0.0166263
838.264	0.0166058
838.342	0.0166286
838.420	0.0165136
838.498	0.0165952
838.576	0.0165252
838.655	0.0164737
838.733	0.0164874
838.811	0.0165163
838.889	0.0165885
838.967	0.0165932
839.045	0.0167506
839.123	0.0167258
839.201	0.0166750
839.280	0.0167693
839.358	0.0166839
839.436	0.0167390
839.514	0.0166719
839.592	0.0167370
839.670	0.0166208
839.748	0.0166521
839.826	0.0165726
839.905	0.0166410
839.983	0.0165993
840.061	0.0165253
840.139	0.0166247
840.217	0.0165356
840.295	0.0166153
840.373	0.0166022
840.451	0.0165564
840.530	0.0164996
840.608	0.0165874
840.686	0.0166360
840.764	0.0166458
840.842	0.0166920
840.920	0.0166608
840.998	0.0165979
841.076	0.0166736
841.155	0.0166975
841.233	0.0166811
841.311	0.0166019
841.389	0.0166726
841.467	0.0167152
841.545	0.0166330
841.623	0.0166888
841.701	0.0168179
841.780	0.0167052
841.858	0.0167791
841.936	0.0166741
842.014	0.0166786
842.092	0.0166911
842.170	0.0167896
842.248	0.0168076
842.326	0.0166814
842.405	0.0166901
842.483	0.0167188
842.561	0.0166949
842.639	0.0167033
842.717	0.0167691
842.795	0.0168066
842.873	0.0166307
842.951	0.0167011
843.030	0.0168154
843.108	0.0167299
843.186	0.0167510
843.264	0.0168339
843.342	0.0166539
843.420	0.0166945
843.498	0.0166396
843.576	0.0167750
843.655	0.0167067
843.733	0.0167419
843.811	0.0167457
843.889	0.0166338
843.967	0.0167483
844.045	0.0166126
844.123	0.0165905
844.201	0.0166551
844.280	0.0167277
844.358	0.0166314
844.436	0.0164923
844.514	0.0165265
844.592	0.0166497
844.670	0.0166103
844.748	0.0166918
844.826	0.0165186
844.905	0.0166869
844.983	0.0165572
845.061	0.0166145
845.139	0.0166980
845.217	0.0166674
845.295	0.0166727
845.373	0.0168030
845.451	0.0168279
845.530	0.0167264
845.608	0.0168105
845.686	0.0166633
845.764	0.0167069
845.842	0.0167550
845.920	0.0167121
845.998	0.0166699
846.076	0.0165652
846.155	0.0167254
846.233	0.0165585
846.311	0.0166037
846.389	0.0165149
846.467	0.0167734
846.545	0.0166589
846.623	0.0165424
846.701	0.0166920
846.780	0.0165692
846.858	0.0165082
846.936	0.0165029
847.014	0.0167038
847.092	0.0165275
847.170	0.0164893
847.248	0.0166242
847.326	0.0166433
847.405	0.0167016
847.483	0.0165737
847.561	0.0166902
847.639	0.0165821
847.717	0.0166677
847.795	0.0166413
847.873	0.0164954
847.951	0.0167215
848.030	0.0165986
848.108	0.0165115
848.186	0.0164932
848.264	0.0165038
848.342	0.0166643
848.420	0.0166297
848.498	0.0165652
848.576	0.0164754
848.655	0.0166219
848.733	0.0166724
848.811	0.0166032
848.889	0.0166864
848.967	0.0166393
849.045	0.0168028
849.123	0.0168932
849.201	0.0167351
849.280	0.0167944
849.358	0.0167828
849.436	0.0166240
849.514	0.0167012
849.592	0.0168078
849.670	0.0168797
849.748	0.0168431
849.826	0.0168835
849.905	0.0168169
849.983	0.0168782
850.061	0.0168938
850.139	0.0168275
850.217	0.0168856
850.295	0.0167278
850.373	0.0167762
850.451	0.0167246
850.530	0.0166798
850.608	0.0167419
850.686	0.0166441
850.764	0.0167223
850.842	0.0167313
850.920	0.0166615
850.998	0.0166901
851.076	0.0166197
851.155	0.0166949
851.233	0.0167572
851.311	0.0166331
851.389	0.0167260
851.467	0.0166315
851.545	0.0167901
851.623	0.0167421
851.701	0.0167111
851.780	0.0166753
851.858	0.0168176
851.936	0.0167050
852.014	0.0167228
852.092	0.0167133
852.170	0.0167368
852.248	0.0167152
852.326	0.0166362
852.405	0.0166146
852.483	0.0165842
852.561	0.0164301
852.639	0.0165960
852.717	0.0165411
852.795	0.0166625
852.873	0.0167096
852.951	0.0165458
853.030	0.0165347
853.108	0.0164628
853.186	0.0166754
853.264	0.0166544
853.342	0.0166422
853.420	0.0167657
853.498	0.0167196
853.576	0.0167436
853.655	0.0166278
853.733	0.0166875
853.811	0.0166772
853.889	0.0167673
853.967	0.0167137
854.045	0.0169003
854.123	0.0167493
854.201	0.0166000
854.280	0.0166757
854.358	0.0166414
854.436	0.0167622
854.514	0.0167767
854.592	0.0166064
854.670	0.0165572
854.748	0.0165205
854.826	0.0165436
854.905	0.0165226
854.983	0.0167165
855.061	0.0165440
855.139	0.0165120
855.217	0.0164832
855.295	0.0164921
855.373	0.0165615
855.451	0.0166029
855.530	0.0165992
855.608	0.0165722
855.686	0.0165684
855.764	0.0165952
855.842	0.0167022
855.920	0.0166237
855.998	0.0166585
856.076	0.0166893
856.155	0.0166402
856.233	0.0167398
856.311	0.0167902
856.389	0.0167336
856.467	0.0168148
856.545	0.0168163
856.623	0.0168053
856.701	0.0167865
856.780	0.0168295
856.858	0.0168992
856.936	0.0169292
857.014	0.0168797
857.092	0.0168977
857.170	0.0168565
857.248	0.0169246
857.326	0.0168756
857.405	0.0169467
857.483	0.0169360
857.561	0.0170667
857.639	0.0169335
857.717	0.0169943
857.795	0.0170432
857.873	0.0169925
857.951	0.0168142
858.030	0.0168204
858.108	0.0169702
858.186	0.0168725
858.264	0.0167835
858.342	0.0167371
858.420	0.0167410
858.498	0.0167186
858.576	0.0166953
858.655	0.0166540
858.733	0.0167049
858.811	0.0165757
858.889	0.0165558
858.967	0.0165235
859.045	0.0165668
859.123	0.0166174
859.201	0.0165775
859.280	0.0165759
859.358	0.0165588
859.436	0.0164776
859.514	0.0165906
859.592	0.0167424
859.670	0.0165234
859.748	0.0164875
859.826	0.0165135
859.905	0.0167008
859.983	0.0167224
860.061	0.0168027
860.139	0.0167387
860.217	0.0167533
860.295	0.0167093
860.373	0.0168233
860.451	0.0167333
860.530	0.0168229
860.608	0.0167583
860.686	0.0167631
860.764	0.0168120
860.842	0.0168228
860.920	0.0168066
860.998	0.0166765
861.076	0.0166353
861.155	0.0165882
861.233	0.0166624
861.311	0.0167138
861.389	0.0167432
861.467	0.0165387
861.545	0.0166657
861.623	0.0166080
861.701	0.0165834
861.780	0.0166817
861.858	0.0166230
861.936	0.0165332
862.014	0.0164485
862.092	0.0165125
862.170	0.0166602
862.248	0.0166204
862.326	0.0166294
862.405	0.0166013
862.483	0.0167380
862.561	0.0165797
862.639	0.0165546
862.717	0.0165610
862.795	0.0166905
862.873	0.0166209
862.951	0.0164604
863.030	0.0165575
863.108	0.0166441
863.186	0.0166303
863.264	0.0166124
863.342	0.0165900
863.420	0.0165561
863.498	0.0166037
863.576	0.0166589
863.655	0.0167217
863.733	0.0167363
863.811	0.0167368
863.889	0.0167167
863.967	0.0168221
864.045	0.0166115
864.123	0.0166301
864.201	0.0168797
864.280	0.0169070
864.358	0.0169547
864.436	0.0168118
864.514	0.0168559
864.592	0.0168260
864.670	0.0166684
864.748	0.0169167
864.826	0.0168336
864.905	0.0168318
864.983	0.0168581
865.061	0.0167801
865.139	0.0168922
865.217	0.0169904
865.295	0.0167789
865.373	0.0166467
865.451	0.0168613
865.530	0.0167622
865.608	0.0167503
865.686	0.0168535
865.764	0.0167229
865.842	0.0166113
865.920	0.0168224
865.998	0.0168000
866.076	0.0166109
866.155	0.0167427
866.233	0.0168388
866.311	0.0167923
866.389	0.0167568
866.467	0.0167986
866.545	0.0167239
866.623	0.0167268
866.701	0.0168597
866.780	0.0167216
866.858	0.0167189
866.936	0.0165686
867.014	0.0166637
867.092	0.0167886
867.170	0.0166709
867.248	0.0166763
867.326	0.0166052
867.405	0.0167002
867.483	0.0166830
867.561	0.0165504
867.639	0.0166709
867.717	0.0167056
867.795	0.0165691
867.873	0.0165102
867.951	0.0166623
868.030	0.0166496
868.108	0.0166268
868.186	0.0166730
868.264	0.0166572
868.342	0.0166611
868.420	0.0166188
868.498	0.0168198
868.576	0.0166745
868.655	0.0167314
868.733	0.0166280
868.811	0.0165905
868.889	0.0166583
868.967	0.0165629
869.045	0.0165656
869.123	0.0166190
869.201	0.0166089
869.280	0.0163688
869.358	0.0164834
869.436	0.0166122
869.514	0.0167086
869.592	0.0166785
869.670	0.0165118
869.748	0.0166872
869.826	0.0165958
869.905	0.0165724
869.983	0.0165137
870.061	0.0164701
870.139	0.0165480
870.217	0.0168629
870.295	0.0165695
870.373	0.0167032
870.451	0.0165839
870.530	0.0166309
870.608	0.0166412
870.686	0.0166313
870.764	0.0166286
870.842	0.0165358
870.920	0.0165710
870.998	0.0165005
871.076	0.0163860
871.155	0.0164694
871.233	0.0166098
871.311	0.0164920
871.389	0.0165154
871.467	0.0165794
871.545	0.0165168
871.623	0.0166280
871.701	0.0166296
871.780	0.0165404
871.858	0.0166096
871.936	0.0165680
872.014	0.0165688
872.092	0.0167013
872.170	0.0167664
872.248	0.0167905
872.326	0.0167863
872.405	0.0167496
872.483	0.0167114
872.561	0.0167850
872.639	0.0166698
872.717	0.0167891
872.795	0.0168486
872.873	0.0167734
872.951	0.0167136
873.030	0.0168141
873.108	0.0168114
873.186	0.0168229
873.264	0.0167701
873.342	0.0167192
873.420	0.0166259
873.498	0.0167547
873.576	0.0165514
873.655	0.0166031
873.733	0.0166476
873.811	0.0166386
873.889	0.0166360
873.967	0.0166909
874.045	0.0166497
874.123	0.0165632
874.201	0.0166503
874.280	0.0167252
874.358	0.0164477
874.436	0.0165419
874.514	0.0166068
874.592	0.0166013
874.670	0.0165341
874.748	0.0165879
874.826	0.0166664
874.905	0.0165132
874.983	0.0164439
875.061	0.0166896
875.139	0.0166370
875.217	0.0165541
875.295	0.0165414
875.373	0.0166644
875.451	0.0165368
875.530	0.0166222
875.608	0.0166813
875.686	0.0167442
875.764	0.0166154
875.842	0.0166659
875.920	0.0167032
875.998	0.0167188
876.076	0.0165589
876.155	0.0167544
876.233	0.0167496
876.311	0.0168585
876.389	0.0165407
876.467	0.0166323
876.545	0.0166867
876.623	0.0166199
876.701	0.0167844
876.780	0.0166943
876.858	0.0166734
876.936	0.0166370
877.014	0.0167715
877.092	0.0169037
877.170	0.0167995
877.248	0.0168181
877.326	0.0167155
877.405	0.0168114
877.483	0.0167866
877.561	0.0168601
877.639	0.0167688
877.717	0.0168289
877.795	0.0167786
877.873	0.0167197
877.951	0.0167236
878.030	0.0167020
878.108	0.0167815
878.186	0.0167239
878.264	0.0166617
878.342	0.0167245
878.420	0.0167500
878.498	0.0167703
878.576	0.0167288
878.655	0.0166621
878.733	0.0167743
878.811	0.0166524
878.889	0.0167366
878.967	0.0167398
879.045	0.0166499
879.123	0.0168165
879.201	0.0167413
879.280	0.0167149
879.358	0.0168182
879.436	0.0168758
879.514	0.0167597
879.592	0.0168191
879.670	0.0168156
879.748	0.0167744
879.826	0.0168254
879.905	0.0169234
879.983	0.0168104
880.061	0.0167936
880.139	0.0168327
880.217	0.0167991
880.295	0.0168414
880.373	0.0167134
880.451	0.0168545
880.530	0.0168697
880.608	0.0169600
880.686	0.0168406
880.764	0.0167397
880.842	0.0170087
880.920	0.0167574
880.998	0.0167020
881.076	0.0168609
881.155	0.0167872
881.233	0.0168163
881.311	0.0168187
881.389	0.0167703
881.467	0.0168056
881.545	0.0168203
881.623	0.0166360
881.701	0.0168652
881.780	0.0167561
881.858	0.0166837
881.936	0.0167360
882.014	0.0167310
882.092	0.0166805
882.170	0.0166701
882.248	0.0166551
882.326	0.0165999
882.405	0.0166206
882.483	0.0166055
882.561	0.0167385
882.639	0.0166116
882.717	0.0165574
882.795	0.0165072
882.873	0.0166122
882.951	0.0166959
883.030	0.0167062
883.108	0.0166646
883.186	0.0166360
883.264	0.0165874
883.342	0.0165329
883.420	0.0166695
883.498	0.0166810
883.576	0.0166357
883.655	0.0166837
883.733	0.0166717
883.811	0.0165701
883.889	0.0168581
883.967	0.0166977
884.045	0.0167815
884.123	0.0168029
884.201	0.0169249
884.280	0.0166691
884.358	0.0166415
884.436	0.0166837
884.514	0.0166867
884.592	0.0167551
884.670	0.0167458
884.748	0.0166415
884.826	0.0168292
884.905	0.0168284
884.983	0.0167750
885.061	0.0166426
885.139	0.0168130
885.217	0.0168652
885.295	0.0166371
885.373	0.0165723
885.451	0.0166726
885.530	0.0167104
885.608	0.0168064
885.686	0.0167525
885.764	0.0167577
885.842	0.0166154
885.920	0.0168008
885.998	0.0166441
886.076	0.0165360
886.155	0.0165797
886.233	0.0166298
886.311	0.0167098
886.389	0.0166770
886.467	0.0166173
886.545	0.0166677
886.623	0.0166805
886.701	0.0167101
886.780	0.0166405
886.858	0.0166076
886.936	0.0165082
887.014	0.0165637
887.092	0.0165517
887.170	0.0165759
887.248	0.0165515
887.326	0.0167352
887.405	0.0166033
887.483	0.0165597
887.561	0.0166322
887.639	0.0164687
887.717	0.0165804
887.795	0.0167274
887.873	0.0167071
887.951	0.0166836
888.030	0.0167035
888.108	0.0166714
888.186	0.0166901
888.264	0.0166726
888.342	0.0166364
888.420	0.0165420
888.498	0.0165755
888.576	0.0166279
888.655	0.0167935
888.733	0.0166536
888.811	0.0167184
888.889	0.0166715
888.967	0.0167570
889.045	0.0167811
889.123	0.0166261
889.201	0.0165981
889.280	0.0165197
889.358	0.0167052
889.436	0.0167371
889.514	0.0166244
889.592	0.0165991
889.670	0.0166869
889.748	0.0166489
889.826	0.0166750
889.905	0.0166846
889.983	0.0166619
890.061	0.0166498
890.139	0.0166924
890.217	0.0167249
890.295	0.0166376
890.373	0.0167039
890.451	0.0167286
890.530	0.0167636
890.608	0.0167086
890.686	0.0167006
890.764	0.0166493
890.842	0.0166746
890.920	0.0166284
890.998	0.0166982
891.076	0.0165559
891.155	0.0165664
891.233	0.0166535
891.311	0.0166096
891.389	0.0166080
891.467	0.0165250
891.545	0.0166688
891.623	0.0166128
891.701	0.0165453
891.780	0.0166196
891.858	0.0167017
891.936	0.0166005
892.014	0.0168547
892.092	0.0166078
892.170	0.0166042
892.248	0.0165580
892.326	0.0165689
892.405	0.0166530
892.483	0.0165961
892.561	0.0166435
892.639	0.0166954
892.717	0.0164519
892.795	0.0166689
892.873	0.0168422
892.951	0.0167648
893.030	0.0166363
893.108	0.0166515
893.186	0.0165728
893.264	0.0166515
893.342	0.0165953
893.420	0.0166837
893.498	0.0166532
893.576	0.0165620
893.655	0.0165749
893.733	0.0166096
893.811	0.0166811
893.889	0.0167293
893.967	0.0166447
894.045	0.0167000
894.123	0.0166784
894.201	0.0167208
894.280	0.0168084
894.358	0.0166404
894.436	0.0166470
894.514	0.0166472
894.592	0.0166150
894.670	0.0166521
894.748	0.0165951
894.826	0.0168474
894.905	0.0166487
894.983	0.0166267
895.061	0.0166788
895.139	0.0167310
895.217	0.0167047
895.295	0.0167660
895.373	0.0165980
895.451	0.0166886
895.530	0.0168211
895.608	0.0167757
895.686	0.0167435
895.764	0.0167854
895.842	0.0167316
895.920	0.0167783
895.998	0.0168114
896.076	0.0168819
896.155	0.0168300
896.233	0.0167051
896.311	0.0166537
896.389	0.0166546
896.467	0.0166042
896.545	0.0166784
896.623	0.0168531
896.701	0.0167453
896.780	0.0166912
896.858	0.0167289
896.936	0.0167464
897.014	0.0165733
897.092	0.0166483
897.170	0.0166197
897.248	0.0166914
897.326	0.0167541
897.405	0.0167278
897.483	0.0167551
897.561	0.0166782
897.639	0.0167038
897.717	0.0165926
897.795	0.0167653
897.873	0.0167179
897.951	0.0168017
898.030	0.0167039
898.108	0.0166362
898.186	0.0168088
898.264	0.0167598
898.342	0.0166720
898.420	0.0167080
898.498	0.0167295
898.576	0.0166143
898.655	0.0167390
898.733	0.0166536
898.811	0.0166811
898.889	0.0164886
898.967	0.0166425
899.045	0.0168129
899.123	0.0166131
899.201	0.0166364
899.280	0.0164978
899.358	0.0166830
899.436	0.0166796
899.514	0.0163103
899.592	0.0164736
899.670	0.0165906
899.748	0.0166475
899.826	0.0165110
899.905	0.0164669
899.983	0.0166599
900.061	0.0166653
900.139	0.0167212
900.217	0.0167979
900.295	0.0165546
900.373	0.0166090
900.451	0.0166620
900.530	0.0165943
900.608	0.0165678
900.686	0.0166302
900.764	0.0166261
900.842	0.0164708
900.920	0.0166746
900.998	0.0167374
901.076	0.0166563
901.155	0.0166891
901.233	0.0166504
901.311	0.0166874
901.389	0.0165509
901.467	0.0166207
901.545	0.0167143
901.623	0.0167609
901.701	0.0166021
901.780	0.0166267
901.858	0.0167325
901.936	0.0167438
902.014	0.0166761
902.092	0.0168057
902.170	0.0167619
902.248	0.0167706
902.326	0.0166873
902.405	0.0167379
902.483	0.0166719
902.561	0.0166441
902.639	0.0166360
902.717	0.0168230
902.795	0.0167735
902.873	0.0167032
902.951	0.0166644
903.030	0.0165526
903.108	0.0167303
903.186	0.0166754
903.264	0.0166387
903.342	0.0167560
903.420	0.0166485
903.498	0.0167120
903.576	0.0166700
903.655	0.0169354
903.733	0.0168251
903.811	0.0166769
903.889	0.0166740
903.967	0.0167108
904.045	0.0166376
904.123	0.0166990
904.201	0.0168408
904.280	0.0167380
904.358	0.0166667
904.436	0.0167845
904.514	0.0166705
904.592	0.0167509
904.670	0.0167278
904.748	0.0167527
904.826	0.0167010
904.905	0.0165962
904.983	0.0167747
905.061	0.0168464
905.139	0.0166707
905.217	0.0166273
905.295	0.0166890
905.373	0.0165006
905.451	0.0166550
905.530	0.0167677
905.608	0.0167300
905.686	0.0165218
905.764	0.0166472
905.842	0.0166676
905.920	0.0165499
905.998	0.0166360
906.076	0.0165266
906.155	0.0166109
906.233	0.0166434
906.311	0.0166148
906.389	0.0166568
906.467	0.0165735
906.545	0.0165789
906.623	0.0166844
906.701	0.0165223
906.780	0.0165955
906.858	0.0166599
906.936	0.0165591
907.014	0.0167018
907.092	0.0164436
907.170	0.0166644
907.248	0.0165801
907.326	0.0164627
907.405	0.0165435
907.483	0.0165200
907.561	0.0164914
907.639	0.0164101
907.717	0.0166196
907.795	0.0166086
907.873	0.0165531
907.951	0.0165265
908.030	0.0164962
908.108	0.0165327
908.186	0.0165224
908.264	0.0166000
908.342	0.0166325
908.420	0.0164913
908.498	0.0165851
908.576	0.0166272
908.655	0.0164645
908.733	0.0164298
908.811	0.0166541
908.889	0.0166648
908.967	0.0166260
909.045	0.0167097
909.123	0.0167209
909.201	0.0167908
909.280	0.0166666
909.358	0.0166077
909.436	0.0168073
909.514	0.0169130
909.592	0.0167876
909.670	0.0167879
909.748	0.0165976
909.826	0.0168773
909.905	0.0169122
909.983	0.0169153
910.061	0.0168507
910.139	0.0168768
910.217	0.0167783
910.295	0.0167789
910.373	0.0169433
910.451	0.0167825
910.530	0.0166956
910.608	0.0168051
910.686	0.0168578
910.764	0.0167472
910.842	0.0166716
910.920	0.0167161
910.998	0.0167547
911.076	0.0168684
911.155	0.0168364
911.233	0.0167909
911.311	0.0167033
911.389	0.0166595
911.467	0.0165788
911.545	0.0167279
911.623	0.0168529
911.701	0.0166731
911.780	0.0167108
911.858	0.0166108
911.936	0.0166389
912.014	0.0165900
912.092	0.0167123
912.170	0.0167391
912.248	0.0168460
912.326	0.0167209
912.405	0.0167321
912.483	0.0166542
912.561	0.0165992
912.639	0.0166945
912.717	0.0167855
912.795	0.0166393
912.873	0.0167463
912.951	0.0168317
913.030	0.0167860
913.108	0.0168240
913.186	0.0167417
913.264	0.0167614
913.342	0.0167391
913.420	0.0167612
913.498	0.0167742
913.576	0.0166933
913.655	0.0166331
913.733	0.0167844
913.811	0.0167297
913.889	0.0167554
913.967	0.0167299
914.045	0.0166721
914.123	0.0166675
914.201	0.0165855
914.280	0.0167548
914.358	0.0165220
914.436	0.0167020
914.514	0.0167846
914.592	0.0166020
914.670	0.0166383
914.748	0.0166603
914.826	0.0167292
914.905	0.0167022
914.983	0.0168181
915.061	0.0167419
915.139	0.0166869
915.217	0.0166533
915.295	0.0168037
915.373	0.0168512
915.451	0.0167553
915.530	0.0166886
915.608	0.0166382
915.686	0.0167731
915.764	0.0167732
915.842	0.0167317
915.920	0.0165826
915.998	0.0167111
916.076	0.0168000
916.155	0.0166953
916.233	0.0166523
916.311	0.0167058
916.389	0.0167174
916.467	0.0168938
916.545	0.0167503
916.623	0.0166464
916.701	0.0166992
916.780	0.0167713
916.858	0.0168272
916.936	0.0168549
917.014	0.0167615
917.092	0.0167854
917.170	0.0167613
917.248	0.0167323
917.326	0.0167675
917.405	0.0167907
917.483	0.0168492
917.561	0.0167558
917.639	0.0167562
917.717	0.0167576
917.795	0.0167908
917.873	0.0168535
917.951	0.0168397
918.030	0.0169452
918.108	0.0168678
918.186	0.0167897
918.264	0.0169088
918.342	0.0168481
918.420	0.0169584
918.498	0.0167014
918.576	0.0167877
918.655	0.0168702
918.733	0.0167000
918.811	0.0167231
918.889	0.0166888
918.967	0.0168156
919.045	0.0167526
919.123	0.0167720
919.201	0.0167127
919.280	0.0166549
919.358	0.0167255
919.436	0.0167029
919.514	0.0166822
919.592	0.0167912
919.670	0.0168221
919.748	0.0168054
919.826	0.0167205
919.905	0.0167332
919.983	0.0167902
920.061	0.0167160
920.139	0.0166098
920.217	0.0167030
920.295	0.0167913
920.373	0.0166915
920.451	0.0168257
920.530	0.0169699
920.608	0.0167973
920.686	0.0167213
920.764	0.0168459
920.842	0.0168835
920.920	0.0166201
920.998	0.0166702
921.076	0.0167924
921.155	0.0166997
921.233	0.0167219
921.311	0.0165090
921.389	0.0166652
921.467	0.0165862
921.545	0.0166027
921.623	0.0165935
921.701	0.0165428
921.780	0.0165260
921.858	0.0166109
921.936	0.0165286
922.014	0.0165432
922.092	0.0164702
922.170	0.0165266
922.248	0.0166215
922.326	0.0164261
922.405	0.0165544
922.483	0.0165862
922.561	0.0167095
922.639	0.0166824
922.717	0.0166055
922.795	0.0164984
922.873	0.0165899
922.951	0.0166198
923.030	0.0166625
923.108	0.0166531
923.186	0.0166826
923.264	0.0167208
923.342	0.0166279
923.420	0.0167182
923.498	0.0167195
923.576	0.0167152
923.655	0.0166966
923.733	0.0165884
923.811	0.0165626
923.889	0.0166577
923.967	0.0167243
924.045	0.0165328
924.123	0.0166570
924.201	0.0166467
924.280	0.0166940
924.358	0.0165473
924.436	0.0166093
924.514	0.0165434
924.592	0.0166377
924.670	0.0166559
924.748	0.0165488
924.826	0.0165423
924.905	0.0164868
924.983	0.0167135
925.061	0.0166899
925.139	0.0165229
925.217	0.0167531
925.295	0.0167028
925.373	0.0166191
925.451	0.0166547
925.530	0.0168119
925.608	0.0168223
925.686	0.0166105
925.764	0.0166573
925.842	0.0165378
925.920	0.0167575
925.998	0.0166078
926.076	0.0166712
926.155	0.0165599
926.233	0.0166965
926.311	0.0164947
926.389	0.0165135
926.467	0.0166518
926.545	0.0166148
926.623	0.0165339
926.701	0.0164299
926.780	0.0165256
926.858	0.0165691
926.936	0.0165220
927.014	0.0165749
927.092	0.0165988
927.170	0.0166470
927.248	0.0167180
927.326	0.0165784
927.405	0.0166049
927.483	0.0166409
927.561	0.0167111
927.639	0.0166961
927.717	0.0166066
927.795	0.0167303
927.873	0.0166711
927.951	0.0168235
928.030	0.0168248
928.108	0.0168893
928.186	0.0168487
928.264	0.0167142
928.342	0.0167755
928.420	0.0170412
928.498	0.0169897
928.576	0.0168977
928.655	0.0167673
928.733	0.0168915
928.811	0.0168984
928.889	0.0169425
928.967	0.0170093
929.045	0.0168456
929.123	0.0168303
929.201	0.0168755
929.280	0.0169209
929.358	0.0168274
929.436	0.0166942
929.514	0.0167484
929.592	0.0168700
929.670	0.0168322
929.748	0.0169244
929.826	0.0166857
929.905	0.0167978
929.983	0.0168110
930.061	0.0166651
930.139	0.0167963
930.217	0.0166882
930.295	0.0168413
930.373	0.0167237
930.451	0.0166773
930.530	0.0165730
930.608	0.0167057
930.686	0.0167096
930.764	0.0166191
930.842	0.0167949
930.920	0.0166568
930.998	0.0167184
931.076	0.0167877
931.155	0.0166798
931.233	0.0167812
931.311	0.0167075
931.389	0.0167245
931.467	0.0166516
931.545	0.0166733
931.623	0.0167186
931.701	0.0165819
931.780	0.0166945
931.858	0.0166572
931.936	0.0166869
932.014	0.0166768
932.092	0.0165247
932.170	0.0166631
932.248	0.0166434
932.326	0.0165257
932.405	0.0165228
932.483	0.0164978
932.561	0.0165140
932.639	0.0165586
932.717	0.0165958
932.795	0.0164796
932.873	0.0164423
932.951	0.0166144
933.030	0.0165262
933.108	0.0165078
933.186	0.0164217
933.264	0.0165549
933.342	0.0166947
933.420	0.0165700
933.498	0.0165250
933.576	0.0167489
933.655	0.0167607
933.733	0.0165699
933.811	0.0166295
933.889	0.0165810
933.967	0.0166409
934.045	0.0165456
934.123	0.0166201
934.201	0.0167400
934.280	0.0166673
934.358	0.0166135
934.436	0.0166009
934.514	0.0165215
934.592	0.0165772
934.670	0.0166859
934.748	0.0165926
934.826	0.0164884
934.905	0.0167276
934.983	0.0164864
935.061	0.0165797
935.139	0.0165491
935.217	0.0167046
935.295	0.0166429
935.373	0.0167337
935.451	0.0166617
935.530	0.0165601
935.608	0.0166382
935.686	0.0166056
935.764	0.0166499
935.842	0.0166977
935.920	0.0166576
935.998	0.0166962
936.076	0.0168422
936.155	0.0167485
936.233	0.0166988
936.311	0.0167969
936.389	0.0166884
936.467	0.0167492
936.545	0.0168214
936.623	0.0168388
936.701	0.0167123
936.780	0.0165764
936.858	0.0166550
936.936	0.0167279
937.014	0.0168270
937.092	0.0166781
937.170	0.0165791
937.248	0.0166828
937.326	0.0166919
937.405	0.0166609
937.483	0.0167075
937.561	0.0168239
937.639	0.0166920
937.717	0.0165854
937.795	0.0167637
937.873	0.0165966
937.951	0.0166971
938.030	0.0168439
938.108	0.0165643
938.186	0.0166930
938.264	0.0166741
938.342	0.0167442
938.420	0.0166721
938.498	0.0167579
938.576	0.0167458
938.655	0.0166539
938.733	0.0166972
938.811	0.0168331
938.889	0.0166727
938.967	0.0166904
939.045	0.0168176
939.123	0.0167834
939.201	0.0165780
939.280	0.0169270
939.358	0.0166777
939.436	0.0167512
939.514	0.0167159
939.592	0.0167325
939.670	0.0167743
939.748	0.0168222
939.826	0.0166549
939.905	0.0168002
939.983	0.0165765
940.061	0.0166443
940.139	0.0166775
940.217	0.0165889
940.295	0.0165963
940.373	0.0165665
940.451	0.0165705
940.530	0.0166073
940.608	0.0166708
940.686	0.0166955
940.764	0.0167477
940.842	0.0167589
940.920	0.0167176
940.998	0.0167132
941.076	0.0166623
941.155	0.0165649
941.233	0.0166754
941.311	0.0167938
941.389	0.0168643
941.467	0.0167921
941.545	0.0167469
941.623	0.0167522
941.701	0.0167084
941.780	0.0167226
941.858	0.0167954
941.936	0.0168148
942.014	0.0168268
942.092	0.0167354
942.170	0.0168002
942.248	0.0168419
942.326	0.0166743
942.405	0.0167316
942.483	0.0167674
942.561	0.0169618
942.639	0.0166469
942.717	0.0166759
942.795	0.0168339
942.873	0.0168204
942.951	0.0167829
943.030	0.0167146
943.108	0.0167405
943.186	0.0167630
943.264	0.0166371
943.342	0.0167049
943.420	0.0167138
943.498	0.0166833
943.576	0.0166708
943.655	0.0166649
943.733	0.0168694
943.811	0.0168138
943.889	0.0167971
943.967	0.0166442
944.045	0.0168058
944.123	0.0168069
944.201	0.0168040
944.280	0.0168998
944.358	0.0167584
944.436	0.0166198
944.514	0.0168153
944.592	0.0168162
944.670	0.0167812
944.748	0.0167956
944.826	0.0167924
944.905	0.0167343
944.983	0.0167403
945.061	0.0167026
945.139	0.0166779
945.217	0.0167018
945.295	0.0167266
945.373	0.0167112
945.451	0.0167349
945.530	0.0166853
945.608	0.0168146
945.686	0.0166670
945.764	0.0166241
945.842	0.0165297
945.920	0.0165543
945.998	0.0165697
946.076	0.0165005
946.155	0.0164965
946.233	0.0164655
946.311	0.0166215
946.389	0.0164418
946.467	0.0164689
946.545	0.0166521
946.623	0.0165365
946.701	0.0165771
946.780	0.0165182
946.858	0.0164515
946.936	0.0164586
947.014	0.0165405
947.092	0.0164851
947.170	0.0163637
947.248	0.0165077
947.326	0.0165236
947.405	0.0164477
947.483	0.0164078
947.561	0.0165430
947.639	0.0165751
947.717	0.0165030
947.795	0.0165733
947.873	0.0165919
947.951	0.0164922
948.030	0.0165643
948.108	0.0166246
948.186	0.0165875
948.264	0.0165524
948.342	0.0164429
948.420	0.0166553
948.498	0.0165958
948.576	0.0164847
948.655	0.0165626
948.733	0.0163631
948.811	0.0165366
948.889	0.0166718
948.967	0.0165538
949.045	0.0166635
949.123	0.0166559
949.201	0.0166684
949.280	0.0165742
949.358	0.0166383
949.436	0.0167424
949.514	0.0166438
949.592	0.0166631
949.670	0.0166212
949.748	0.0166337
949.826	0.0166679
949.905	0.0167399
949.983	0.0166425
950.061	0.0167567
950.139	0.0166597
950.217	0.0168095
950.295	0.0168672
950.373	0.0169505
950.451	0.0168198
950.530	0.0167574
950.608	0.0168044
950.686	0.0169411
950.764	0.0168607
950.842	0.0168302
950.920	0.0168275
950.998	0.0167691
951.076	0.0166306
951.155	0.0167841
951.233	0.0166560
951.311	0.0166621
951.389	0.0167976
951.467	0.0166936
951.545	0.0167300
951.623	0.0166245
951.701	0.0166852
951.780	0.0165887
951.858	0.0166261
951.936	0.0166501
952.014	0.0166824
952.092	0.0165477
952.170	0.0165363
952.248	0.0167384
952.326	0.0167163
952.405	0.0165910
952.483	0.0165624
952.561	0.0164035
952.639	0.0165415
952.717	0.0164603
952.795	0.0164073
952.873	0.0164755
952.951	0.0163896
953.030	0.0163368
953.108	0.0163982
953.186	0.0163858
953.264	0.0164378
953.342	0.0165369
953.420	0.0164184
953.498	0.0163511
953.576	0.0163602
953.655	0.0165580
953.733	0.0164737
953.811	0.0164508
953.889	0.0165032
953.967	0.0165683
954.045	0.0164695
954.123	0.0164065
954.201	0.0164335
954.280	0.0163355
954.358	0.0165429
954.436	0.0165186
954.514	0.0165121
954.592	0.0165621
954.670	0.0164428
954.748	0.0164733
954.826	0.0164914
954.905	0.0166225
954.983	0.0165881
955.061	0.0165318
955.139	0.0165836
955.217	0.0165104
955.295	0.0165045
955.373	0.0165554
955.451	0.0165387
955.530	0.0164227
955.608	0.0165263
955.686	0.0164826
955.764	0.0165495
955.842	0.0165796
955.920	0.0163540
955.998	0.0165103
956.076	0.0164700
956.155	0.0164974
956.233	0.0165699
956.311	0.0166119
956.389	0.0165020
956.467	0.0163675
956.545	0.0163642
956.623	0.0165577
956.701	0.0164126
956.780	0.0163756
956.858	0.0164466
956.936	0.0165556
957.014	0.0164896
957.092	0.0164806
957.170	0.0164037
957.248	0.0165260
957.326	0.0166105
957.405	0.0166264
957.483	0.0164065
957.561	0.0164386
957.639	0.0164520
957.717	0.0164538
957.795	0.0164950
957.873	0.0164941
957.951	0.0165047
958.030	0.0166148
958.108	0.0166566
958.186	0.0164259
958.264	0.0165465
958.342	0.0166207
958.420	0.0166032
958.498	0.0167432
958.576	0.0166963
958.655	0.0165947
958.733	0.0166261
958.811	0.0166489
958.889	0.0166101
958.967	0.0166633
959.045	0.0167245
959.123	0.0167453
959.201	0.0166780
959.280	0.0167675
959.358	0.0167341
959.436	0.0166490
959.514	0.0167683
959.592	0.0166700
959.670	0.0166532
959.748	0.0167347
959.826	0.0167923
959.905	0.0168347
