05/17/2022	17:13:35	Ver.	4.1	UNKNOWN
Optical Delay	639.982744	Delta X		0.078125	Sweeps	1	Scan Rate	0/0
Coordinates	Axis 1	NaN	Axis 2	NaN	Axis 3	NaN	Axis 4	NaN	Axis 5	NaN	Axis 6	0.000000
TX Power	0.000000	RX Power	0.000000

639.983	0.0165357
640.061	0.0166203
640.139	0.0165936
640.217	0.0165909
640.295	0.0165685
640.373	0.0165235
640.451	0.0163985
640.530	0.0166211
640.608	0.0166970
640.686	0.0165620
640.764	0.0166859
640.842	0.0166947
640.920	0.0166031
640.998	0.0165270
641.076	0.0166097
641.155	0.0166055
641.233	0.0167790
641.311	0.0164766
641.389	0.0166712
641.467	0.0165809
641.545	0.0165439
641.623	0.0165199
641.701	0.0165835
641.780	0.0166545
641.858	0.0166391
641.936	0.0165569
642.014	0.0166322
642.092	0.0164871
642.170	0.0164863
642.248	0.0165087
642.326	0.0164307
642.405	0.0165405
642.483	0.0166406
642.561	0.0165530
642.639	0.0165945
642.717	0.0165726
642.795	0.0165318
642.873	0.0166181
642.951	0.0165591
643.030	0.0166032
643.108	0.0165785
643.186	0.0166254
643.264	0.0165758
643.342	0.0165041
643.420	0.0165237
643.498	0.0166492
643.576	0.0166553
643.655	0.0165519
643.733	0.0165535
643.811	0.0165393
643.889	0.0165347
643.967	0.0165775
644.045	0.0165219
644.123	0.0166381
644.201	0.0166689
644.280	0.0165817
644.358	0.0166933
644.436	0.0167026
644.514	0.0166327
644.592	0.0165031
644.670	0.0166393
644.748	0.0166547
644.826	0.0165872
644.905	0.0165598
644.983	0.0165700
645.061	0.0166228
645.139	0.0165639
645.217	0.0166005
645.295	0.0167323
645.373	0.0164906
645.451	0.0165532
645.530	0.0168179
645.608	0.0166076
645.686	0.0165189
645.764	0.0166087
645.842	0.0165466
645.920	0.0165125
645.998	0.0165472
646.076	0.0165131
646.155	0.0165574
646.233	0.0164870
646.311	0.0165536
646.389	0.0164817
646.467	0.0165240
646.545	0.0165086
646.623	0.0162834
646.701	0.0164211
646.780	0.0165540
646.858	0.0165518
646.936	0.0164343
647.014	0.0164600
647.092	0.0165306
647.170	0.0164609
647.248	0.0164304
647.326	0.0164925
647.405	0.0165204
647.483	0.0164470
647.561	0.0164783
647.639	0.0165790
647.717	0.0164535
647.795	0.0164280
647.873	0.0166101
647.951	0.0164442
648.030	0.0164240
648.108	0.0166113
648.186	0.0165256
648.264	0.0164690
648.342	0.0165599
648.420	0.0165411
648.498	0.0164371
648.576	0.0165590
648.655	0.0164849
648.733	0.0163655
648.811	0.0164079
648.889	0.0164072
648.967	0.0164532
649.045	0.0165507
649.123	0.0165315
649.201	0.0164497
649.280	0.0163884
649.358	0.0164622
649.436	0.0164167
649.514	0.0163380
649.592	0.0164081
649.670	0.0164738
649.748	0.0164281
649.826	0.0163010
649.905	0.0163512
649.983	0.0165878
650.061	0.0164304
650.139	0.0163589
650.217	0.0162830
650.295	0.0162164
650.373	0.0164142
650.451	0.0165311
650.530	0.0164706
650.608	0.0164424
650.686	0.0163431
650.764	0.0163709
650.842	0.0164352
650.920	0.0163660
650.998	0.0163300
651.076	0.0164556
651.155	0.0165500
651.233	0.0162675
651.311	0.0164769
651.389	0.0165522
651.467	0.0165994
651.545	0.0165235
651.623	0.0165414
651.701	0.0165538
651.780	0.0163806
651.858	0.0165671
651.936	0.0165772
652.014	0.0166540
652.092	0.0165914
652.170	0.0165454
652.248	0.0164870
652.326	0.0165600
652.405	0.0165820
652.483	0.0165414
652.561	0.0165250
652.639	0.0165792
652.717	0.0164584
652.795	0.0162941
652.873	0.0164040
652.951	0.0164252
653.030	0.0164125
653.108	0.0163016
653.186	0.0165309
653.264	0.0163528
653.342	0.0162876
653.420	0.0164745
653.498	0.0163601
653.576	0.0163342
653.655	0.0162846
653.733	0.0163716
653.811	0.0163319
653.889	0.0162306
653.967	0.0164050
654.045	0.0164820
654.123	0.0164558
654.201	0.0165797
654.280	0.0165071
654.358	0.0166129
654.436	0.0166315
654.514	0.0165470
654.592	0.0165696
654.670	0.0166408
654.748	0.0166161
654.826	0.0166061
654.905	0.0165442
654.983	0.0166024
655.061	0.0165958
655.139	0.0166198
655.217	0.0164407
655.295	0.0165633
655.373	0.0164413
655.451	0.0164742
655.530	0.0163240
655.608	0.0163287
655.686	0.0163764
655.764	0.0163601
655.842	0.0163428
655.920	0.0164211
655.998	0.0163626
656.076	0.0164183
656.155	0.0164436
656.233	0.0164323
656.311	0.0163798
656.389	0.0162669
656.467	0.0163402
656.545	0.0163483
656.623	0.0162982
656.701	0.0164720
656.780	0.0164368
656.858	0.0164569
656.936	0.0163197
657.014	0.0163238
657.092	0.0165461
657.170	0.0164951
657.248	0.0164410
657.326	0.0165250
657.405	0.0165305
657.483	0.0165300
657.561	0.0165751
657.639	0.0165432
657.717	0.0165834
657.795	0.0165417
657.873	0.0165572
657.951	0.0165964
658.030	0.0165099
658.108	0.0164696
658.186	0.0165555
658.264	0.0166037
658.342	0.0165092
658.420	0.0166450
658.498	0.0166660
658.576	0.0165560
658.655	0.0164964
658.733	0.0164534
658.811	0.0163856
658.889	0.0164592
658.967	0.0166326
659.045	0.0164777
659.123	0.0165121
659.201	0.0164638
659.280	0.0165443
659.358	0.0164812
659.436	0.0164655
659.514	0.0166023
659.592	0.0165369
659.670	0.0165711
659.748	0.0167872
659.826	0.0164097
659.905	0.0164892
659.983	0.0165536
660.061	0.0165173
660.139	0.0165683
660.217	0.0165435
660.295	0.0165320
660.373	0.0164898
660.451	0.0164195
660.530	0.0164574
660.608	0.0164830
660.686	0.0163654
660.764	0.0164716
660.842	0.0163091
660.920	0.0163548
660.998	0.0163821
661.076	0.0161639
661.155	0.0161722
661.233	0.0162908
661.311	0.0162560
661.389	0.0161869
661.467	0.0161410
661.545	0.0162231
661.623	0.0162186
661.701	0.0161112
661.780	0.0161526
661.858	0.0163348
661.936	0.0162634
662.014	0.0162012
662.092	0.0163821
662.170	0.0163407
662.248	0.0164088
662.326	0.0163065
662.405	0.0164147
662.483	0.0164235
662.561	0.0165047
662.639	0.0165567
662.717	0.0166726
662.795	0.0167128
662.873	0.0166077
662.951	0.0166991
663.030	0.0168313
663.108	0.0170177
663.186	0.0169645
663.264	0.0171198
663.342	0.0171758
663.420	0.0172864
663.498	0.0172098
663.576	0.0172716
663.655	0.0170662
663.733	0.0171986
663.811	0.0172560
663.889	0.0172318
663.967	0.0172761
664.045	0.0171021
664.123	0.0170335
664.201	0.0169530
664.280	0.0168873
664.358	0.0166428
664.436	0.0167303
664.514	0.0166663
664.592	0.0163958
664.670	0.0165692
664.748	0.0162768
664.826	0.0162691
664.905	0.0160971
664.983	0.0160872
665.061	0.0160879
665.139	0.0160090
665.217	0.0157645
665.295	0.0156297
665.373	0.0156786
665.451	0.0157644
665.530	0.0156296
665.608	0.0156544
665.686	0.0157502
665.764	0.0158259
665.842	0.0158276
665.920	0.0157912
665.998	0.0157802
666.076	0.0159299
666.155	0.0160124
666.233	0.0161446
666.311	0.0161089
666.389	0.0163734
666.467	0.0164948
666.545	0.0165669
666.623	0.0166065
666.701	0.0169066
666.780	0.0169525
666.858	0.0171528
666.936	0.0171950
667.014	0.0174989
667.092	0.0174232
667.170	0.0175070
667.248	0.0176714
667.326	0.0178168
667.405	0.0176909
667.483	0.0177419
667.561	0.0178149
667.639	0.0177160
667.717	0.0177405
667.795	0.0176637
667.873	0.0175713
667.951	0.0174419
668.030	0.0174094
668.108	0.0172054
668.186	0.0172177
668.264	0.0170713
668.342	0.0168138
668.420	0.0167806
668.498	0.0165285
668.576	0.0164302
668.655	0.0162346
668.733	0.0161832
668.811	0.0160437
668.889	0.0157542
668.967	0.0157362
669.045	0.0157201
669.123	0.0156367
669.201	0.0154948
669.280	0.0154790
669.358	0.0154412
669.436	0.0154045
669.514	0.0155331
669.592	0.0153730
669.670	0.0154679
669.748	0.0155454
669.826	0.0156406
669.905	0.0156215
669.983	0.0158585
670.061	0.0160383
670.139	0.0160597
670.217	0.0161511
670.295	0.0162464
670.373	0.0163493
670.451	0.0165962
670.530	0.0165052
670.608	0.0166473
670.686	0.0167727
670.764	0.0167924
670.842	0.0169696
670.920	0.0170362
670.998	0.0170749
671.076	0.0172179
671.155	0.0172120
671.233	0.0172919
671.311	0.0173557
671.389	0.0174352
671.467	0.0173446
671.545	0.0173656
671.623	0.0173777
671.701	0.0173849
671.780	0.0173881
671.858	0.0171891
671.936	0.0172050
672.014	0.0172300
672.092	0.0172560
672.170	0.0169606
672.248	0.0168603
672.326	0.0167403
672.405	0.0166555
672.483	0.0165880
672.561	0.0164960
672.639	0.0163127
672.717	0.0162994
672.795	0.0162357
672.873	0.0160819
672.951	0.0159990
673.030	0.0159934
673.108	0.0158881
673.186	0.0159540
673.264	0.0159252
673.342	0.0158948
673.420	0.0159631
673.498	0.0161059
673.576	0.0161172
673.655	0.0161400
673.733	0.0161216
673.811	0.0162003
673.889	0.0161722
673.967	0.0162341
674.045	0.0163776
674.123	0.0163678
674.201	0.0164914
674.280	0.0164782
674.358	0.0165221
674.436	0.0164438
674.514	0.0164863
674.592	0.0166782
674.670	0.0165747
674.748	0.0166338
674.826	0.0165479
674.905	0.0165540
674.983	0.0164328
675.061	0.0164301
675.139	0.0164973
675.217	0.0165908
675.295	0.0165182
675.373	0.0164071
675.451	0.0163438
675.530	0.0163095
675.608	0.0161661
675.686	0.0162572
675.764	0.0162225
675.842	0.0161436
675.920	0.0161750
675.998	0.0163098
676.076	0.0161253
676.155	0.0160966
676.233	0.0163716
676.311	0.0163574
676.389	0.0163120
676.467	0.0164124
676.545	0.0165462
676.623	0.0165678
676.701	0.0166103
676.780	0.0166870
676.858	0.0165717
676.936	0.0167246
677.014	0.0169721
677.092	0.0169400
677.170	0.0170293
677.248	0.0168476
677.326	0.0169550
677.405	0.0170156
677.483	0.0171247
677.561	0.0170832
677.639	0.0170572
677.717	0.0171175
677.795	0.0170867
677.873	0.0171266
677.951	0.0170732
678.030	0.0170679
678.108	0.0170761
678.186	0.0170789
678.264	0.0170475
678.342	0.0170533
678.420	0.0170251
678.498	0.0169978
678.576	0.0169112
678.655	0.0169707
678.733	0.0167010
678.811	0.0166437
678.889	0.0166669
678.967	0.0165673
679.045	0.0163903
679.123	0.0162836
679.201	0.0162882
679.280	0.0161262
679.358	0.0160332
679.436	0.0159617
679.514	0.0157629
679.592	0.0155132
679.670	0.0156779
679.748	0.0156142
679.826	0.0154673
679.905	0.0154804
679.983	0.0154974
680.061	0.0154927
680.139	0.0154662
680.217	0.0155167
680.295	0.0156255
680.373	0.0154971
680.451	0.0156261
680.530	0.0157566
680.608	0.0158318
680.686	0.0159611
680.764	0.0161029
680.842	0.0160875
680.920	0.0161758
680.998	0.0163453
681.076	0.0163327
681.155	0.0165330
681.233	0.0166934
681.311	0.0167182
681.389	0.0167023
681.467	0.0170250
681.545	0.0170196
681.623	0.0170152
681.701	0.0172029
681.780	0.0172523
681.858	0.0172607
681.936	0.0173093
682.014	0.0172789
682.092	0.0173043
682.170	0.0174747
682.248	0.0173158
682.326	0.0173302
682.405	0.0174053
682.483	0.0172562
682.561	0.0173022
682.639	0.0171690
682.717	0.0171726
682.795	0.0171858
682.873	0.0170852
682.951	0.0170544
683.030	0.0169759
683.108	0.0168679
683.186	0.0168047
683.264	0.0166497
683.342	0.0165491
683.420	0.0165001
683.498	0.0164041
683.576	0.0161729
683.655	0.0161166
683.733	0.0160499
683.811	0.0159943
683.889	0.0158381
683.967	0.0157163
684.045	0.0157388
684.123	0.0155228
684.201	0.0154934
684.280	0.0155595
684.358	0.0153364
684.436	0.0155525
684.514	0.0152094
684.592	0.0153827
684.670	0.0153799
684.748	0.0153141
684.826	0.0154765
684.905	0.0154395
684.983	0.0155585
685.061	0.0156133
685.139	0.0156366
685.217	0.0157941
685.295	0.0157793
685.373	0.0158888
685.451	0.0160489
685.530	0.0160477
685.608	0.0163224
685.686	0.0163351
685.764	0.0164400
685.842	0.0164230
685.920	0.0165352
685.998	0.0166943
686.076	0.0166581
686.155	0.0168221
686.233	0.0169307
686.311	0.0169468
686.389	0.0169728
686.467	0.0169872
686.545	0.0171631
686.623	0.0169984
686.701	0.0170308
686.780	0.0170390
686.858	0.0171949
686.936	0.0172700
687.014	0.0171120
687.092	0.0170428
687.170	0.0171668
687.248	0.0171650
687.326	0.0171311
687.405	0.0171945
687.483	0.0171065
687.561	0.0171056
687.639	0.0171891
687.717	0.0170950
687.795	0.0170712
687.873	0.0169012
687.951	0.0169247
688.030	0.0168445
688.108	0.0167027
688.186	0.0167429
688.264	0.0165742
688.342	0.0163999
688.420	0.0164271
688.498	0.0162158
688.576	0.0162882
688.655	0.0160767
688.733	0.0160024
688.811	0.0159877
688.889	0.0159262
688.967	0.0158719
689.045	0.0157522
689.123	0.0157815
689.201	0.0156600
689.280	0.0157048
689.358	0.0157370
689.436	0.0156379
689.514	0.0157597
689.592	0.0156575
689.670	0.0157846
689.748	0.0159727
689.826	0.0158943
689.905	0.0160256
689.983	0.0159874
690.061	0.0162071
690.139	0.0163144
690.217	0.0163111
690.295	0.0165648
690.373	0.0164939
690.451	0.0165093
690.530	0.0167205
690.608	0.0166670
690.686	0.0167636
690.764	0.0169197
690.842	0.0168060
690.920	0.0169286
690.998	0.0171016
691.076	0.0168846
691.155	0.0169149
691.233	0.0167786
691.311	0.0169028
691.389	0.0169054
691.467	0.0166871
691.545	0.0167590
691.623	0.0165096
691.701	0.0167197
691.780	0.0164931
691.858	0.0166200
691.936	0.0163767
692.014	0.0163272
692.092	0.0163884
692.170	0.0162991
692.248	0.0163264
692.326	0.0163059
692.405	0.0162650
692.483	0.0163308
692.561	0.0163535
692.639	0.0163753
692.717	0.0164204
692.795	0.0165009
692.873	0.0164942
692.951	0.0165466
693.030	0.0166183
693.108	0.0165725
693.186	0.0167078
693.264	0.0167859
693.342	0.0169021
693.420	0.0168654
693.498	0.0169160
693.576	0.0168379
693.655	0.0169745
693.733	0.0169016
693.811	0.0169143
693.889	0.0167786
693.967	0.0166853
694.045	0.0167545
694.123	0.0167784
694.201	0.0166409
694.280	0.0167016
694.358	0.0165646
694.436	0.0164423
694.514	0.0164538
694.592	0.0164689
694.670	0.0163592
694.748	0.0163549
694.826	0.0162363
694.905	0.0160944
694.983	0.0160842
695.061	0.0160224
695.139	0.0160431
695.217	0.0160664
695.295	0.0160473
695.373	0.0158451
695.451	0.0157889
695.530	0.0158978
695.608	0.0158080
695.686	0.0157740
695.764	0.0158813
695.842	0.0159859
695.920	0.0159982
695.998	0.0161514
696.076	0.0160802
696.155	0.0161145
696.233	0.0162978
696.311	0.0162707
696.389	0.0163797
696.467	0.0164620
696.545	0.0164558
696.623	0.0167236
696.701	0.0167004
696.780	0.0166557
696.858	0.0167554
696.936	0.0167848
697.014	0.0169971
697.092	0.0170483
697.170	0.0169976
697.248	0.0170602
697.326	0.0169423
697.405	0.0170982
697.483	0.0169628
697.561	0.0170586
697.639	0.0171189
697.717	0.0170428
697.795	0.0170661
697.873	0.0171457
697.951	0.0169496
698.030	0.0167671
698.108	0.0169790
698.186	0.0170514
698.264	0.0169228
698.342	0.0168496
698.420	0.0168506
698.498	0.0170970
698.576	0.0169170
698.655	0.0167679
698.733	0.0169001
698.811	0.0168431
698.889	0.0167994
698.967	0.0169092
699.045	0.0168298
699.123	0.0166850
699.201	0.0166377
699.280	0.0167620
699.358	0.0165089
699.436	0.0164779
699.514	0.0165044
699.592	0.0163372
699.670	0.0163193
699.748	0.0161971
699.826	0.0161669
699.905	0.0161548
699.983	0.0159711
700.061	0.0159786
700.139	0.0158597
700.217	0.0158521
700.295	0.0157215
700.373	0.0158760
700.451	0.0159148
700.530	0.0157304
700.608	0.0157594
700.686	0.0158720
700.764	0.0159467
700.842	0.0159138
700.920	0.0159649
700.998	0.0159888
701.076	0.0160327
701.155	0.0159841
701.233	0.0161047
701.311	0.0161905
701.389	0.0162502
701.467	0.0163445
701.545	0.0164346
701.623	0.0165341
701.701	0.0164362
701.780	0.0164932
701.858	0.0164701
701.936	0.0165891
702.014	0.0166442
702.092	0.0166523
702.170	0.0167043
702.248	0.0167457
702.326	0.0167577
702.405	0.0167248
702.483	0.0168005
702.561	0.0167727
702.639	0.0168703
702.717	0.0167526
702.795	0.0168122
702.873	0.0167741
702.951	0.0168155
703.030	0.0168600
703.108	0.0168028
703.186	0.0167422
703.264	0.0167866
703.342	0.0168111
703.420	0.0166264
703.498	0.0166447
703.576	0.0166428
703.655	0.0167999
703.733	0.0164542
703.811	0.0164883
703.889	0.0166248
703.967	0.0166066
704.045	0.0164424
704.123	0.0164902
704.201	0.0164202
704.280	0.0165079
704.358	0.0162760
704.436	0.0163023
704.514	0.0163120
704.592	0.0162897
704.670	0.0161322
704.748	0.0160612
704.826	0.0162911
704.905	0.0161754
704.983	0.0159735
705.061	0.0161126
705.139	0.0161311
705.217	0.0160078
705.295	0.0160640
705.373	0.0159687
705.451	0.0157964
705.530	0.0159638
705.608	0.0158846
705.686	0.0159933
705.764	0.0159532
705.842	0.0159124
705.920	0.0161282
705.998	0.0161125
706.076	0.0162246
706.155	0.0162600
706.233	0.0161034
706.311	0.0162141
706.389	0.0163489
706.467	0.0163937
706.545	0.0165585
706.623	0.0164698
706.701	0.0165456
706.780	0.0164787
706.858	0.0164389
706.936	0.0166850
707.014	0.0164737
707.092	0.0165173
707.170	0.0165871
707.248	0.0165656
707.326	0.0165749
707.405	0.0165963
707.483	0.0165089
707.561	0.0164378
707.639	0.0163554
707.717	0.0164416
707.795	0.0164721
707.873	0.0163888
707.951	0.0163424
708.030	0.0164781
708.108	0.0163702
708.186	0.0163152
708.264	0.0162234
708.342	0.0163241
708.420	0.0164110
708.498	0.0164038
708.576	0.0164451
708.655	0.0164242
708.733	0.0164953
708.811	0.0165778
708.889	0.0167359
708.967	0.0165920
709.045	0.0167516
709.123	0.0167949
709.201	0.0170918
709.280	0.0170387
709.358	0.0171296
709.436	0.0171623
709.514	0.0171198
709.592	0.0172104
709.670	0.0172955
709.748	0.0174336
709.826	0.0172519
709.905	0.0171929
709.983	0.0170979
710.061	0.0169962
710.139	0.0171049
710.217	0.0169828
710.295	0.0168983
710.373	0.0166516
710.451	0.0166960
710.530	0.0165870
710.608	0.0164623
710.686	0.0163535
710.764	0.0162288
710.842	0.0163455
710.920	0.0162409
710.998	0.0161476
711.076	0.0159361
711.155	0.0158681
711.233	0.0158338
711.311	0.0159211
711.389	0.0157104
711.467	0.0157356
711.545	0.0156569
711.623	0.0157030
711.701	0.0157381
711.780	0.0156553
711.858	0.0158062
711.936	0.0157510
712.014	0.0157626
712.092	0.0157772
712.170	0.0158660
712.248	0.0159478
712.326	0.0159161
712.405	0.0159445
712.483	0.0160500
712.561	0.0160367
712.639	0.0161906
712.717	0.0160823
712.795	0.0161697
712.873	0.0161734
712.951	0.0160512
713.030	0.0160686
713.108	0.0161605
713.186	0.0161651
713.264	0.0162746
713.342	0.0160673
713.420	0.0160973
713.498	0.0162318
713.576	0.0163211
713.655	0.0162034
713.733	0.0162875
713.811	0.0164024
713.889	0.0162732
713.967	0.0164430
714.045	0.0165079
714.123	0.0166066
714.201	0.0166550
714.280	0.0167414
714.358	0.0167279
714.436	0.0166999
714.514	0.0166646
714.592	0.0168373
714.670	0.0169696
714.748	0.0168468
714.826	0.0167603
714.905	0.0168990
714.983	0.0169695
715.061	0.0169717
715.139	0.0166051
715.217	0.0167883
715.295	0.0165802
715.373	0.0165281
715.451	0.0165270
715.530	0.0166596
715.608	0.0165737
715.686	0.0163654
715.764	0.0164368
715.842	0.0164084
715.920	0.0163406
715.998	0.0164812
716.076	0.0165217
716.155	0.0164704
716.233	0.0164648
716.311	0.0165355
716.389	0.0165843
716.467	0.0165579
716.545	0.0165862
716.623	0.0165546
716.701	0.0166399
716.780	0.0167504
716.858	0.0167744
716.936	0.0166174
717.014	0.0166591
717.092	0.0166485
717.170	0.0165487
717.248	0.0165420
717.326	0.0163849
717.405	0.0164580
717.483	0.0165086
717.561	0.0163061
717.639	0.0161644
717.717	0.0162193
717.795	0.0160529
717.873	0.0160000
717.951	0.0159959
718.030	0.0159078
718.108	0.0158646
718.186	0.0158581
718.264	0.0157339
718.342	0.0156455
718.420	0.0157220
718.498	0.0158140
718.576	0.0158040
718.655	0.0157867
718.733	0.0159589
718.811	0.0160542
718.889	0.0159044
718.967	0.0161247
719.045	0.0161478
719.123	0.0161434
719.201	0.0162752
719.280	0.0164342
719.358	0.0165027
719.436	0.0165345
719.514	0.0165047
719.592	0.0166219
719.670	0.0166914
719.748	0.0166619
719.826	0.0166523
719.905	0.0167244
719.983	0.0167906
720.061	0.0168162
720.139	0.0167307
720.217	0.0167603
720.295	0.0166830
720.373	0.0167962
720.451	0.0168451
720.530	0.0169378
720.608	0.0169544
720.686	0.0169125
720.764	0.0169144
720.842	0.0170365
720.920	0.0170077
720.998	0.0170512
721.076	0.0171339
721.155	0.0170094
721.233	0.0169473
721.311	0.0169829
721.389	0.0170490
721.467	0.0168466
721.545	0.0168570
721.623	0.0169437
721.701	0.0169135
721.780	0.0168973
721.858	0.0168052
721.936	0.0166428
722.014	0.0166507
722.092	0.0166763
722.170	0.0164392
722.248	0.0165159
722.326	0.0163968
722.405	0.0164655
722.483	0.0164710
722.561	0.0165354
722.639	0.0162421
722.717	0.0163347
722.795	0.0163799
722.873	0.0163792
722.951	0.0163840
723.030	0.0164648
723.108	0.0164684
723.186	0.0165237
723.264	0.0164771
723.342	0.0164981
723.420	0.0166093
723.498	0.0165418
723.576	0.0166618
723.655	0.0167850
723.733	0.0167918
723.811	0.0168139
723.889	0.0167754
723.967	0.0169363
724.045	0.0168625
724.123	0.0168502
724.201	0.0168416
724.280	0.0168668
724.358	0.0168533
724.436	0.0166484
724.514	0.0166186
724.592	0.0164723
724.670	0.0164323
724.748	0.0162959
724.826	0.0163028
724.905	0.0161405
724.983	0.0160279
725.061	0.0160413
725.139	0.0159080
725.217	0.0160012
725.295	0.0158215
725.373	0.0157626
725.451	0.0158649
725.530	0.0158061
725.608	0.0155918
725.686	0.0157961
725.764	0.0158695
725.842	0.0156647
725.920	0.0157623
725.998	0.0158325
726.076	0.0159988
726.155	0.0159889
726.233	0.0158762
726.311	0.0161038
726.389	0.0161434
726.467	0.0161926
726.545	0.0162398
726.623	0.0162400
726.701	0.0162649
726.780	0.0163514
726.858	0.0163091
726.936	0.0163423
727.014	0.0164067
727.092	0.0165076
727.170	0.0165525
727.248	0.0165258
727.326	0.0164951
727.405	0.0165594
727.483	0.0164662
727.561	0.0164862
727.639	0.0165119
727.717	0.0164868
727.795	0.0164475
727.873	0.0165188
727.951	0.0165794
728.030	0.0165995
728.108	0.0165192
728.186	0.0164919
728.264	0.0165513
728.342	0.0167107
728.420	0.0166072
728.498	0.0166566
728.576	0.0167941
728.655	0.0166802
728.733	0.0167529
728.811	0.0170410
728.889	0.0170224
728.967	0.0169779
729.045	0.0169214
729.123	0.0170851
729.201	0.0168991
729.280	0.0169415
729.358	0.0169151
729.436	0.0170260
729.514	0.0169645
729.592	0.0169142
729.670	0.0167673
729.748	0.0168893
729.826	0.0168343
729.905	0.0167556
729.983	0.0167889
730.061	0.0166856
730.139	0.0165385
730.217	0.0165434
730.295	0.0164656
730.373	0.0163634
730.451	0.0163829
730.530	0.0162260
730.608	0.0164331
730.686	0.0160921
730.764	0.0160880
730.842	0.0160586
730.920	0.0161166
730.998	0.0162151
731.076	0.0160062
731.155	0.0160345
731.233	0.0161044
731.311	0.0161693
731.389	0.0162139
731.467	0.0160840
731.545	0.0162533
731.623	0.0162950
731.701	0.0163837
731.780	0.0164323
731.858	0.0162640
731.936	0.0164050
732.014	0.0165953
732.092	0.0165150
732.170	0.0165591
732.248	0.0165123
732.326	0.0164231
732.405	0.0164101
732.483	0.0164885
732.561	0.0164414
732.639	0.0163622
732.717	0.0164124
732.795	0.0163169
732.873	0.0161826
732.951	0.0162421
733.030	0.0161430
733.108	0.0161969
733.186	0.0163793
733.264	0.0162148
733.342	0.0160018
733.420	0.0162090
733.498	0.0162033
733.576	0.0161317
733.655	0.0161771
733.733	0.0163381
733.811	0.0163721
733.889	0.0163742
733.967	0.0163639
734.045	0.0166051
734.123	0.0163740
734.201	0.0163411
734.280	0.0164303
734.358	0.0165106
734.436	0.0167088
734.514	0.0167118
734.592	0.0167158
734.670	0.0167789
734.748	0.0167805
734.826	0.0167060
734.905	0.0170478
734.983	0.0169460
735.061	0.0168285
735.139	0.0169015
735.217	0.0167417
735.295	0.0170537
735.373	0.0168844
735.451	0.0168856
735.530	0.0169635
735.608	0.0168587
735.686	0.0166878
735.764	0.0167978
735.842	0.0166769
735.920	0.0167182
735.998	0.0165833
736.076	0.0166906
736.155	0.0165097
736.233	0.0165261
736.311	0.0166209
736.389	0.0164356
736.467	0.0163163
736.545	0.0164068
736.623	0.0163885
736.701	0.0163181
736.780	0.0164256
736.858	0.0164057
736.936	0.0163717
737.014	0.0163377
737.092	0.0164726
737.170	0.0164201
737.248	0.0163808
737.326	0.0161930
737.405	0.0164098
737.483	0.0165103
737.561	0.0163941
737.639	0.0164161
737.717	0.0164675
737.795	0.0163964
737.873	0.0165059
737.951	0.0164512
738.030	0.0164517
738.108	0.0163377
738.186	0.0164664
738.264	0.0163354
738.342	0.0165517
738.420	0.0163543
738.498	0.0163313
738.576	0.0163425
738.655	0.0163475
738.733	0.0163081
738.811	0.0163248
738.889	0.0163553
738.967	0.0164938
739.045	0.0166568
739.123	0.0166502
739.201	0.0164706
739.280	0.0165240
739.358	0.0167258
739.436	0.0167360
739.514	0.0168012
739.592	0.0166784
739.670	0.0167503
739.748	0.0167670
739.826	0.0167470
739.905	0.0167628
739.983	0.0166849
740.061	0.0167715
740.139	0.0166459
740.217	0.0166030
740.295	0.0165992
740.373	0.0164223
740.451	0.0164068
740.530	0.0163947
740.608	0.0163968
740.686	0.0162811
740.764	0.0162306
740.842	0.0162350
740.920	0.0163435
740.998	0.0163100
741.076	0.0162038
741.155	0.0162701
741.233	0.0162572
741.311	0.0163712
741.389	0.0163225
741.467	0.0163428
741.545	0.0164008
741.623	0.0165416
741.701	0.0165031
741.780	0.0164857
741.858	0.0167439
741.936	0.0166937
742.014	0.0168082
742.092	0.0168150
742.170	0.0168165
742.248	0.0169201
742.326	0.0168704
742.405	0.0168485
742.483	0.0170580
742.561	0.0168946
742.639	0.0169933
742.717	0.0168602
742.795	0.0169718
742.873	0.0168419
742.951	0.0168127
743.030	0.0168568
743.108	0.0167573
743.186	0.0167457
743.264	0.0168460
743.342	0.0167323
743.420	0.0168323
743.498	0.0167860
743.576	0.0166568
743.655	0.0165016
743.733	0.0164935
743.811	0.0163770
743.889	0.0164415
743.967	0.0164570
744.045	0.0163190
744.123	0.0163601
744.201	0.0162120
744.280	0.0163597
744.358	0.0164471
744.436	0.0164539
744.514	0.0163482
744.592	0.0162778
744.670	0.0163378
744.748	0.0163943
744.826	0.0163779
744.905	0.0162401
744.983	0.0164822
745.061	0.0164581
745.139	0.0163692
745.217	0.0163637
745.295	0.0163306
745.373	0.0163196
745.451	0.0162228
745.530	0.0163746
745.608	0.0162478
745.686	0.0161445
745.764	0.0163714
745.842	0.0162376
745.920	0.0162351
745.998	0.0162312
746.076	0.0162089
746.155	0.0162852
746.233	0.0162985
746.311	0.0162322
746.389	0.0161414
746.467	0.0163493
746.545	0.0163662
746.623	0.0164036
746.701	0.0164581
746.780	0.0164354
746.858	0.0165117
746.936	0.0167381
747.014	0.0166575
747.092	0.0166872
747.170	0.0167167
747.248	0.0167055
747.326	0.0168378
747.405	0.0169170
747.483	0.0168687
747.561	0.0167863
747.639	0.0168336
747.717	0.0167520
747.795	0.0167304
747.873	0.0167223
747.951	0.0165987
748.030	0.0166058
748.108	0.0165564
748.186	0.0164766
748.264	0.0164122
748.342	0.0164578
748.420	0.0163415
748.498	0.0164099
748.576	0.0163264
748.655	0.0163451
748.733	0.0162520
748.811	0.0162113
748.889	0.0162706
748.967	0.0162428
749.045	0.0162856
749.123	0.0164526
749.201	0.0163738
749.280	0.0163242
749.358	0.0164088
749.436	0.0164461
749.514	0.0165994
749.592	0.0166361
749.670	0.0167430
749.748	0.0166433
749.826	0.0166876
749.905	0.0166594
749.983	0.0168198
750.061	0.0166568
750.139	0.0167376
750.217	0.0166263
750.295	0.0168308
750.373	0.0168333
750.451	0.0167168
750.530	0.0167390
750.608	0.0168655
750.686	0.0167227
750.764	0.0167827
750.842	0.0166387
750.920	0.0165656
750.998	0.0165952
751.076	0.0166743
751.155	0.0165696
751.233	0.0164901
751.311	0.0165569
751.389	0.0164556
751.467	0.0164420
751.545	0.0164632
751.623	0.0164500
751.701	0.0162480
751.780	0.0163283
751.858	0.0162867
751.936	0.0162814
752.014	0.0162601
752.092	0.0162135
752.170	0.0162962
752.248	0.0162381
752.326	0.0162771
752.405	0.0163666
752.483	0.0163684
752.561	0.0164687
752.639	0.0165108
752.717	0.0166092
752.795	0.0166010
752.873	0.0166308
752.951	0.0166474
753.030	0.0166501
753.108	0.0167206
753.186	0.0167694
753.264	0.0167117
753.342	0.0168262
753.420	0.0167464
753.498	0.0166491
753.576	0.0166076
753.655	0.0168237
753.733	0.0165336
753.811	0.0165388
753.889	0.0166054
753.967	0.0165722
754.045	0.0165209
754.123	0.0164419
754.201	0.0163893
754.280	0.0164241
754.358	0.0164268
754.436	0.0166846
754.514	0.0165059
754.592	0.0165055
754.670	0.0164627
754.748	0.0165268
754.826	0.0165639
754.905	0.0165691
754.983	0.0166728
755.061	0.0165755
755.139	0.0166235
755.217	0.0166693
755.295	0.0166546
755.373	0.0166573
755.451	0.0165593
755.530	0.0166730
755.608	0.0167310
755.686	0.0166711
755.764	0.0167319
755.842	0.0166654
755.920	0.0167077
755.998	0.0166957
756.076	0.0164862
756.155	0.0165491
756.233	0.0164911
756.311	0.0166199
756.389	0.0165346
756.467	0.0164742
756.545	0.0163194
756.623	0.0164671
756.701	0.0163164
756.780	0.0164003
756.858	0.0164584
756.936	0.0162578
757.014	0.0163857
757.092	0.0162592
757.170	0.0162057
757.248	0.0163105
757.326	0.0164046
757.405	0.0163347
757.483	0.0164424
757.561	0.0164397
757.639	0.0164080
757.717	0.0165644
757.795	0.0164417
757.873	0.0165565
757.951	0.0165133
758.030	0.0165285
758.108	0.0163506
758.186	0.0166146
758.264	0.0165102
758.342	0.0166803
758.420	0.0165585
758.498	0.0165914
758.576	0.0167024
758.655	0.0167232
758.733	0.0167433
758.811	0.0166724
758.889	0.0165527
758.967	0.0166500
759.045	0.0167151
759.123	0.0165919
759.201	0.0166303
759.280	0.0165819
759.358	0.0164233
759.436	0.0165459
759.514	0.0164980
759.592	0.0165311
759.670	0.0164992
759.748	0.0164199
759.826	0.0165299
759.905	0.0164577
759.983	0.0164233
760.061	0.0162833
760.139	0.0164303
760.217	0.0164788
760.295	0.0165734
760.373	0.0163739
760.451	0.0165764
760.530	0.0165804
760.608	0.0166293
760.686	0.0166547
760.764	0.0167416
760.842	0.0166714
760.920	0.0167198
760.998	0.0166817
761.076	0.0168644
761.155	0.0168556
761.233	0.0166728
761.311	0.0166604
761.389	0.0166695
761.467	0.0165691
761.545	0.0165970
761.623	0.0165388
761.701	0.0164641
761.780	0.0165086
761.858	0.0164294
761.936	0.0162383
762.014	0.0162031
762.092	0.0162556
762.170	0.0163609
762.248	0.0162655
762.326	0.0163921
762.405	0.0163035
762.483	0.0163707
762.561	0.0163205
762.639	0.0163361
762.717	0.0162778
762.795	0.0164139
762.873	0.0163477
762.951	0.0163316
763.030	0.0162725
763.108	0.0165034
763.186	0.0165893
763.264	0.0166628
763.342	0.0165469
763.420	0.0167464
763.498	0.0166194
763.576	0.0167013
763.655	0.0166327
763.733	0.0167805
763.811	0.0167968
763.889	0.0167282
763.967	0.0167500
764.045	0.0168406
764.123	0.0166671
764.201	0.0167999
764.280	0.0167065
764.358	0.0167956
764.436	0.0167941
764.514	0.0168748
764.592	0.0166833
764.670	0.0168713
764.748	0.0168056
764.826	0.0167514
764.905	0.0169474
764.983	0.0168189
765.061	0.0167473
765.139	0.0166893
765.217	0.0167942
765.295	0.0166259
765.373	0.0165861
765.451	0.0166183
765.530	0.0165862
765.608	0.0166476
765.686	0.0165439
765.764	0.0165623
765.842	0.0164479
765.920	0.0165409
765.998	0.0163888
766.076	0.0164091
766.155	0.0165074
766.233	0.0163860
766.311	0.0163916
766.389	0.0164499
766.467	0.0164587
766.545	0.0164790
766.623	0.0162981
766.701	0.0163988
766.780	0.0164791
766.858	0.0164475
766.936	0.0164272
767.014	0.0164983
767.092	0.0163735
767.170	0.0164881
767.248	0.0165351
767.326	0.0165039
767.405	0.0165077
767.483	0.0164452
767.561	0.0163819
767.639	0.0164114
767.717	0.0164466
767.795	0.0164764
767.873	0.0164862
767.951	0.0162341
768.030	0.0163923
768.108	0.0163794
768.186	0.0165163
768.264	0.0164524
768.342	0.0164696
768.420	0.0163538
768.498	0.0165171
768.576	0.0165779
768.655	0.0165576
768.733	0.0166394
768.811	0.0165176
768.889	0.0165705
768.967	0.0163981
769.045	0.0165553
769.123	0.0165882
769.201	0.0164297
769.280	0.0164341
769.358	0.0164176
769.436	0.0163023
769.514	0.0164323
769.592	0.0163122
769.670	0.0163110
769.748	0.0162537
769.826	0.0162595
769.905	0.0162000
769.983	0.0161934
770.061	0.0162416
770.139	0.0161958
770.217	0.0162608
770.295	0.0161428
770.373	0.0161163
770.451	0.0162302
770.530	0.0162108
770.608	0.0162127
770.686	0.0162363
770.764	0.0163306
770.842	0.0162396
770.920	0.0165456
770.998	0.0164677
771.076	0.0164121
771.155	0.0164413
771.233	0.0165015
771.311	0.0164706
771.389	0.0164928
771.467	0.0165400
771.545	0.0163405
771.623	0.0165141
771.701	0.0164877
771.780	0.0164448
771.858	0.0165733
771.936	0.0167001
772.014	0.0165923
772.092	0.0164704
772.170	0.0164714
772.248	0.0166021
772.326	0.0166693
772.405	0.0165995
772.483	0.0166109
772.561	0.0165396
772.639	0.0164995
772.717	0.0165328
772.795	0.0164844
772.873	0.0166447
772.951	0.0166109
773.030	0.0164552
773.108	0.0164690
773.186	0.0164631
773.264	0.0165016
773.342	0.0163911
773.420	0.0164131
773.498	0.0163456
773.576	0.0163447
773.655	0.0164097
773.733	0.0164497
773.811	0.0164017
773.889	0.0164318
773.967	0.0163811
774.045	0.0165715
774.123	0.0164738
774.201	0.0165403
774.280	0.0164984
774.358	0.0165019
774.436	0.0166012
774.514	0.0164268
774.592	0.0166191
774.670	0.0166232
774.748	0.0165347
774.826	0.0166032
774.905	0.0165775
774.983	0.0164120
775.061	0.0164915
775.139	0.0164739
775.217	0.0165570
775.295	0.0164677
775.373	0.0163453
775.451	0.0164358
775.530	0.0165402
775.608	0.0163194
775.686	0.0163413
775.764	0.0163943
775.842	0.0162690
775.920	0.0162662
775.998	0.0164378
776.076	0.0164050
776.155	0.0163409
776.233	0.0164293
776.311	0.0165182
776.389	0.0166026
776.467	0.0165229
776.545	0.0165248
776.623	0.0166096
776.701	0.0165312
776.780	0.0166154
776.858	0.0166837
776.936	0.0166730
777.014	0.0165579
777.092	0.0165802
777.170	0.0165987
777.248	0.0164577
777.326	0.0166536
777.405	0.0165932
777.483	0.0163875
777.561	0.0163344
777.639	0.0165347
777.717	0.0164203
777.795	0.0164442
777.873	0.0164510
777.951	0.0165358
778.030	0.0164443
778.108	0.0163744
778.186	0.0165839
778.264	0.0167076
778.342	0.0166528
778.420	0.0165031
778.498	0.0165376
778.576	0.0166709
778.655	0.0166795
778.733	0.0165505
778.811	0.0166984
778.889	0.0167042
778.967	0.0167367
779.045	0.0166087
779.123	0.0167539
779.201	0.0166887
779.280	0.0166758
779.358	0.0168011
779.436	0.0168903
779.514	0.0167586
779.592	0.0167315
779.670	0.0167855
779.748	0.0166956
779.826	0.0167487
779.905	0.0167385
779.983	0.0167159
780.061	0.0166707
780.139	0.0166349
780.217	0.0168133
780.295	0.0166905
780.373	0.0166629
780.451	0.0165241
780.530	0.0165669
780.608	0.0166170
780.686	0.0166295
780.764	0.0166317
780.842	0.0166829
780.920	0.0165556
780.998	0.0164539
781.076	0.0164168
781.155	0.0164054
781.233	0.0164166
781.311	0.0163961
781.389	0.0164116
781.467	0.0164487
781.545	0.0163819
781.623	0.0163136
781.701	0.0163449
781.780	0.0164706
781.858	0.0165043
781.936	0.0165644
782.014	0.0164194
782.092	0.0164572
782.170	0.0164565
782.248	0.0164919
782.326	0.0166449
782.405	0.0165105
782.483	0.0165453
782.561	0.0165671
782.639	0.0164359
782.717	0.0164701
782.795	0.0165878
782.873	0.0165604
782.951	0.0165464
783.030	0.0164893
783.108	0.0164481
783.186	0.0165063
783.264	0.0164819
783.342	0.0166169
783.420	0.0165926
783.498	0.0166368
783.576	0.0166066
783.655	0.0166645
783.733	0.0165353
783.811	0.0164264
783.889	0.0166729
783.967	0.0166298
784.045	0.0165701
784.123	0.0167014
784.201	0.0165360
784.280	0.0167018
784.358	0.0166344
784.436	0.0167386
784.514	0.0166525
784.592	0.0166753
784.670	0.0166423
784.748	0.0166563
784.826	0.0164825
784.905	0.0164467
784.983	0.0164561
785.061	0.0166173
785.139	0.0164710
785.217	0.0162617
785.295	0.0162191
785.373	0.0162881
785.451	0.0163719
785.530	0.0161908
785.608	0.0161957
785.686	0.0161326
785.764	0.0161012
785.842	0.0160535
785.920	0.0160842
785.998	0.0162099
786.076	0.0160548
786.155	0.0161842
786.233	0.0162240
786.311	0.0161500
786.389	0.0161253
786.467	0.0160540
786.545	0.0160944
786.623	0.0161115
786.701	0.0163230
786.780	0.0162097
786.858	0.0161948
786.936	0.0162843
787.014	0.0162372
787.092	0.0161900
787.170	0.0161868
787.248	0.0163155
787.326	0.0162555
787.405	0.0163378
787.483	0.0163712
787.561	0.0163635
787.639	0.0164793
787.717	0.0163004
787.795	0.0163423
787.873	0.0164742
787.951	0.0165984
788.030	0.0164011
788.108	0.0165314
788.186	0.0165920
788.264	0.0165001
788.342	0.0164801
788.420	0.0164928
788.498	0.0164442
788.576	0.0166895
788.655	0.0165551
788.733	0.0165138
788.811	0.0165346
788.889	0.0165076
788.967	0.0164722
789.045	0.0165121
789.123	0.0165956
789.201	0.0165522
789.280	0.0165472
789.358	0.0165047
789.436	0.0165413
789.514	0.0164595
789.592	0.0164306
789.670	0.0164247
789.748	0.0164087
789.826	0.0164587
789.905	0.0163911
789.983	0.0164043
790.061	0.0164615
790.139	0.0163962
790.217	0.0164137
790.295	0.0164093
790.373	0.0162839
790.451	0.0165810
790.530	0.0163906
790.608	0.0163805
790.686	0.0163604
790.764	0.0164610
790.842	0.0165104
790.920	0.0163018
790.998	0.0165357
791.076	0.0163905
791.155	0.0162744
791.233	0.0163297
791.311	0.0162524
791.389	0.0163376
791.467	0.0162141
791.545	0.0162688
791.623	0.0161803
791.701	0.0162463
791.780	0.0162586
791.858	0.0163157
791.936	0.0163078
792.014	0.0163384
792.092	0.0163029
792.170	0.0162675
792.248	0.0162855
792.326	0.0162504
792.405	0.0163767
792.483	0.0162782
792.561	0.0163051
792.639	0.0163244
792.717	0.0163566
792.795	0.0162341
792.873	0.0162650
792.951	0.0162862
793.030	0.0163139
793.108	0.0162055
793.186	0.0163825
793.264	0.0162970
793.342	0.0162119
793.420	0.0162879
793.498	0.0163161
793.576	0.0163448
793.655	0.0164485
793.733	0.0163322
793.811	0.0164515
793.889	0.0164349
793.967	0.0164003
794.045	0.0166000
794.123	0.0165498
794.201	0.0166602
794.280	0.0166662
794.358	0.0165323
794.436	0.0164719
794.514	0.0165536
794.592	0.0165993
794.670	0.0167300
794.748	0.0167274
794.826	0.0167702
794.905	0.0166074
794.983	0.0167740
795.061	0.0167101
795.139	0.0166594
795.217	0.0166830
795.295	0.0166479
795.373	0.0165649
795.451	0.0167070
795.530	0.0166412
795.608	0.0164317
795.686	0.0165273
795.764	0.0164818
795.842	0.0163837
795.920	0.0163490
795.998	0.0163675
796.076	0.0164099
796.155	0.0163329
796.233	0.0163590
796.311	0.0162851
796.389	0.0162646
796.467	0.0162617
796.545	0.0161550
796.623	0.0161518
796.701	0.0160883
796.780	0.0161705
796.858	0.0162224
796.936	0.0161698
797.014	0.0161762
797.092	0.0162186
797.170	0.0161449
797.248	0.0161496
797.326	0.0162126
797.405	0.0162983
797.483	0.0162341
797.561	0.0162942
797.639	0.0161402
797.717	0.0162916
797.795	0.0161992
797.873	0.0163862
797.951	0.0163785
798.030	0.0162270
798.108	0.0162334
798.186	0.0164127
798.264	0.0165068
798.342	0.0165614
798.420	0.0164279
798.498	0.0163401
798.576	0.0165270
798.655	0.0166623
798.733	0.0165850
798.811	0.0165275
798.889	0.0165694
798.967	0.0167240
799.045	0.0166904
799.123	0.0166001
799.201	0.0165275
799.280	0.0166405
799.358	0.0167020
799.436	0.0166517
799.514	0.0165677
799.592	0.0165667
799.670	0.0167406
799.748	0.0167210
799.826	0.0166489
799.905	0.0165739
799.983	0.0165919
800.061	0.0165327
800.139	0.0166239
800.217	0.0165845
800.295	0.0166136
800.373	0.0164743
800.451	0.0163714
800.530	0.0163374
800.608	0.0163496
800.686	0.0162788
800.764	0.0162408
800.842	0.0162521
800.920	0.0162366
800.998	0.0163824
801.076	0.0162680
801.155	0.0162077
801.233	0.0162454
801.311	0.0163565
801.389	0.0162065
801.467	0.0162465
801.545	0.0163518
801.623	0.0163403
801.701	0.0163232
801.780	0.0165212
801.858	0.0164925
801.936	0.0163397
802.014	0.0164638
802.092	0.0164857
802.170	0.0164063
802.248	0.0163432
802.326	0.0162611
802.405	0.0164202
802.483	0.0163567
802.561	0.0164516
802.639	0.0164500
802.717	0.0165336
802.795	0.0163760
802.873	0.0161486
802.951	0.0164435
803.030	0.0164044
803.108	0.0163760
803.186	0.0164179
803.264	0.0163153
803.342	0.0163578
803.420	0.0164818
803.498	0.0164238
803.576	0.0164970
803.655	0.0164243
803.733	0.0164204
803.811	0.0164099
803.889	0.0162556
803.967	0.0163815
804.045	0.0163888
804.123	0.0162725
804.201	0.0163734
804.280	0.0165276
804.358	0.0161862
804.436	0.0162542
804.514	0.0165178
804.592	0.0164315
804.670	0.0163336
804.748	0.0163608
804.826	0.0164539
804.905	0.0165871
804.983	0.0164986
805.061	0.0163866
805.139	0.0165067
805.217	0.0164225
805.295	0.0165098
805.373	0.0165254
805.451	0.0164358
805.530	0.0164297
805.608	0.0165002
805.686	0.0165266
805.764	0.0164957
805.842	0.0164565
805.920	0.0164299
805.998	0.0164423
806.076	0.0165240
806.155	0.0166287
806.233	0.0165305
806.311	0.0164374
806.389	0.0165443
806.467	0.0163828
806.545	0.0164119
806.623	0.0164844
806.701	0.0164892
806.780	0.0164923
806.858	0.0164134
806.936	0.0163116
807.014	0.0163847
807.092	0.0165306
807.170	0.0163832
807.248	0.0165448
807.326	0.0164183
807.405	0.0164282
807.483	0.0163095
807.561	0.0163709
807.639	0.0165442
807.717	0.0164405
807.795	0.0162998
807.873	0.0164532
807.951	0.0163127
808.030	0.0163904
808.108	0.0163493
808.186	0.0163296
808.264	0.0162734
808.342	0.0163050
808.420	0.0162228
808.498	0.0163602
808.576	0.0162782
808.655	0.0161651
808.733	0.0161671
808.811	0.0161447
808.889	0.0161654
808.967	0.0162274
809.045	0.0161958
809.123	0.0162149
809.201	0.0161942
809.280	0.0162029
809.358	0.0162074
809.436	0.0163351
809.514	0.0162501
809.592	0.0162746
809.670	0.0163425
809.748	0.0164322
809.826	0.0164944
809.905	0.0165191
809.983	0.0164397
810.061	0.0165115
810.139	0.0166444
810.217	0.0166004
810.295	0.0165713
810.373	0.0166412
810.451	0.0165768
810.530	0.0164344
810.608	0.0165488
810.686	0.0166163
810.764	0.0166692
810.842	0.0164814
810.920	0.0164828
810.998	0.0165707
811.076	0.0164246
811.155	0.0163739
811.233	0.0165257
811.311	0.0164371
811.389	0.0164637
811.467	0.0163553
811.545	0.0163668
811.623	0.0164774
811.701	0.0164748
811.780	0.0163118
811.858	0.0163508
811.936	0.0165279
812.014	0.0164198
812.092	0.0164438
812.170	0.0163476
812.248	0.0163873
812.326	0.0164492
812.405	0.0165578
812.483	0.0164099
812.561	0.0164971
812.639	0.0164112
812.717	0.0164258
812.795	0.0163983
812.873	0.0163177
812.951	0.0165077
813.030	0.0164751
813.108	0.0165915
813.186	0.0164999
813.264	0.0165455
813.342	0.0164468
813.420	0.0164939
813.498	0.0165492
813.576	0.0164476
813.655	0.0165652
813.733	0.0165238
813.811	0.0164604
813.889	0.0164899
813.967	0.0164571
814.045	0.0163600
814.123	0.0165147
814.201	0.0163483
814.280	0.0165514
814.358	0.0165250
814.436	0.0164155
814.514	0.0162842
814.592	0.0163140
814.670	0.0163391
814.748	0.0163048
814.826	0.0162982
814.905	0.0161154
814.983	0.0161400
815.061	0.0163359
815.139	0.0162926
815.217	0.0161539
815.295	0.0161758
815.373	0.0162778
815.451	0.0161413
815.530	0.0163307
815.608	0.0163540
815.686	0.0163132
815.764	0.0164194
815.842	0.0163418
815.920	0.0163152
815.998	0.0163501
816.076	0.0163255
816.155	0.0163026
816.233	0.0163364
816.311	0.0162641
816.389	0.0162652
816.467	0.0162815
816.545	0.0163785
816.623	0.0163741
816.701	0.0164439
816.780	0.0162767
816.858	0.0163525
816.936	0.0163624
817.014	0.0162933
817.092	0.0164341
817.170	0.0164015
817.248	0.0164073
817.326	0.0164317
817.405	0.0163255
817.483	0.0164948
817.561	0.0166307
817.639	0.0163571
817.717	0.0165379
817.795	0.0165939
817.873	0.0164754
817.951	0.0165736
818.030	0.0165716
818.108	0.0167124
818.186	0.0166057
818.264	0.0166288
818.342	0.0163747
818.420	0.0165614
818.498	0.0165071
818.576	0.0166253
818.655	0.0166127
818.733	0.0166134
818.811	0.0164790
818.889	0.0165569
818.967	0.0164866
819.045	0.0163560
819.123	0.0164407
819.201	0.0164207
819.280	0.0164410
819.358	0.0163956
819.436	0.0164893
819.514	0.0163577
819.592	0.0163934
819.670	0.0164006
819.748	0.0163094
819.826	0.0163803
819.905	0.0164236
819.983	0.0164182
820.061	0.0163775
820.139	0.0162749
820.217	0.0164400
820.295	0.0164636
820.373	0.0163406
820.451	0.0164977
820.530	0.0165355
820.608	0.0165687
820.686	0.0163615
820.764	0.0164439
820.842	0.0166403
820.920	0.0164236
820.998	0.0162643
821.076	0.0164453
821.155	0.0164247
821.233	0.0163628
821.311	0.0166307
821.389	0.0164951
821.467	0.0164291
821.545	0.0165417
821.623	0.0164067
821.701	0.0165348
821.780	0.0164352
821.858	0.0164799
821.936	0.0163319
822.014	0.0164429
822.092	0.0165086
822.170	0.0164346
822.248	0.0164521
822.326	0.0165452
822.405	0.0164930
822.483	0.0164486
822.561	0.0164574
822.639	0.0164324
822.717	0.0163675
822.795	0.0164594
822.873	0.0164222
822.951	0.0164280
823.030	0.0164529
823.108	0.0165390
823.186	0.0163600
823.264	0.0163474
823.342	0.0163674
823.420	0.0165396
823.498	0.0166050
823.576	0.0163493
823.655	0.0164701
823.733	0.0165576
823.811	0.0164997
823.889	0.0164275
823.967	0.0166499
824.045	0.0164154
824.123	0.0165271
824.201	0.0164980
824.280	0.0165034
824.358	0.0165457
824.436	0.0166929
824.514	0.0166087
824.592	0.0165257
824.670	0.0165633
824.748	0.0166039
824.826	0.0166463
824.905	0.0165007
824.983	0.0165668
825.061	0.0166566
825.139	0.0165050
825.217	0.0166634
825.295	0.0165237
825.373	0.0165264
825.451	0.0164603
825.530	0.0166515
825.608	0.0167090
825.686	0.0166317
825.764	0.0166346
825.842	0.0165784
825.920	0.0166005
825.998	0.0167099
826.076	0.0164989
826.155	0.0165652
826.233	0.0165008
826.311	0.0165422
826.389	0.0164994
826.467	0.0164539
826.545	0.0163881
826.623	0.0164743
826.701	0.0164262
826.780	0.0163484
826.858	0.0164143
826.936	0.0163977
827.014	0.0163543
827.092	0.0162479
827.170	0.0163816
827.248	0.0161654
827.326	0.0163043
827.405	0.0163395
827.483	0.0162612
827.561	0.0161642
827.639	0.0162459
827.717	0.0162795
827.795	0.0162116
827.873	0.0161962
827.951	0.0163436
828.030	0.0163152
828.108	0.0161838
828.186	0.0162669
828.264	0.0163103
828.342	0.0163390
828.420	0.0163044
828.498	0.0163229
828.576	0.0162303
828.655	0.0163595
828.733	0.0163360
828.811	0.0164442
828.889	0.0162687
828.967	0.0163354
829.045	0.0162663
829.123	0.0164091
829.201	0.0162856
829.280	0.0164313
829.358	0.0163609
829.436	0.0164561
829.514	0.0164346
829.592	0.0163165
829.670	0.0164898
829.748	0.0165366
829.826	0.0165284
829.905	0.0164380
829.983	0.0165274
830.061	0.0164422
830.139	0.0165227
830.217	0.0165012
830.295	0.0164458
830.373	0.0162457
830.451	0.0165765
830.530	0.0165341
830.608	0.0166685
830.686	0.0165788
830.764	0.0164047
830.842	0.0164527
830.920	0.0166219
830.998	0.0166923
831.076	0.0164050
831.155	0.0165827
831.233	0.0165894
831.311	0.0165062
831.389	0.0167017
831.467	0.0167430
831.545	0.0167234
831.623	0.0165196
831.701	0.0166995
831.780	0.0167278
831.858	0.0166769
831.936	0.0166879
832.014	0.0165352
832.092	0.0166634
832.170	0.0165440
832.248	0.0165036
832.326	0.0165336
832.405	0.0165763
832.483	0.0165898
832.561	0.0165768
832.639	0.0165738
832.717	0.0165311
832.795	0.0165118
832.873	0.0164222
832.951	0.0164046
833.030	0.0163791
833.108	0.0163409
833.186	0.0164391
833.264	0.0165346
833.342	0.0164233
833.420	0.0166029
833.498	0.0164419
833.576	0.0164301
833.655	0.0164604
833.733	0.0164677
833.811	0.0165168
833.889	0.0165460
833.967	0.0165354
834.045	0.0164602
834.123	0.0164475
834.201	0.0165529
834.280	0.0166402
834.358	0.0164763
834.436	0.0165556
834.514	0.0164915
834.592	0.0164488
834.670	0.0166028
834.748	0.0165520
834.826	0.0165388
834.905	0.0164298
834.983	0.0163789
835.061	0.0164528
835.139	0.0165901
835.217	0.0164202
835.295	0.0165577
835.373	0.0165019
835.451	0.0165110
835.530	0.0165688
835.608	0.0166196
835.686	0.0167513
835.764	0.0164987
835.842	0.0166684
835.920	0.0168098
835.998	0.0166039
836.076	0.0167123
836.155	0.0167175
836.233	0.0167178
836.311	0.0167210
836.389	0.0166705
836.467	0.0169161
836.545	0.0166399
836.623	0.0168634
836.701	0.0168225
836.780	0.0166097
836.858	0.0168449
836.936	0.0167692
837.014	0.0166761
837.092	0.0167214
837.170	0.0167507
837.248	0.0167165
837.326	0.0166983
837.405	0.0166393
837.483	0.0165681
837.561	0.0165579
837.639	0.0165344
837.717	0.0165227
837.795	0.0166109
837.873	0.0165595
837.951	0.0165347
838.030	0.0166432
838.108	0.0165670
838.186	0.0165825
838.264	0.0165607
838.342	0.0165154
838.420	0.0164970
838.498	0.0165570
838.576	0.0165153
838.655	0.0164759
838.733	0.0166576
838.811	0.0167215
838.889	0.0166277
838.967	0.0165343
839.045	0.0165276
839.123	0.0165450
839.201	0.0165352
839.280	0.0164123
839.358	0.0164738
839.436	0.0166536
839.514	0.0165568
839.592	0.0165549
839.670	0.0165778
839.748	0.0165968
839.826	0.0165771
839.905	0.0164234
839.983	0.0165110
840.061	0.0165276
840.139	0.0162851
840.217	0.0163673
840.295	0.0164095
840.373	0.0165362
840.451	0.0164685
840.530	0.0163609
840.608	0.0164117
840.686	0.0164056
840.764	0.0163888
840.842	0.0164987
840.920	0.0165067
840.998	0.0164207
841.076	0.0163573
841.155	0.0166182
841.233	0.0165479
841.311	0.0165270
841.389	0.0164665
841.467	0.0164243
841.545	0.0166238
841.623	0.0166127
841.701	0.0166467
841.780	0.0165491
841.858	0.0164916
841.936	0.0165967
842.014	0.0164420
842.092	0.0165245
842.170	0.0163963
842.248	0.0164861
842.326	0.0163451
842.405	0.0163854
842.483	0.0165231
842.561	0.0165356
842.639	0.0163726
842.717	0.0164621
842.795	0.0164921
842.873	0.0163300
842.951	0.0163971
843.030	0.0163943
843.108	0.0165073
843.186	0.0163122
843.264	0.0163560
843.342	0.0163161
843.420	0.0163570
843.498	0.0164523
843.576	0.0164568
843.655	0.0163270
843.733	0.0164120
843.811	0.0163726
843.889	0.0164576
843.967	0.0164030
844.045	0.0164578
844.123	0.0163986
844.201	0.0164115
844.280	0.0165254
844.358	0.0163492
844.436	0.0163419
844.514	0.0164376
844.592	0.0163426
844.670	0.0163156
844.748	0.0164272
844.826	0.0163526
844.905	0.0164468
844.983	0.0164844
845.061	0.0163993
845.139	0.0163630
845.217	0.0163609
845.295	0.0164055
845.373	0.0165659
845.451	0.0164670
845.530	0.0164738
845.608	0.0163195
845.686	0.0164601
845.764	0.0163783
845.842	0.0164914
845.920	0.0163583
845.998	0.0165043
846.076	0.0165227
846.155	0.0163988
846.233	0.0164398
846.311	0.0163714
846.389	0.0165785
846.467	0.0166057
846.545	0.0164275
846.623	0.0165121
846.701	0.0165324
846.780	0.0164396
846.858	0.0164304
846.936	0.0165849
847.014	0.0166035
847.092	0.0164566
847.170	0.0164413
847.248	0.0167259
847.326	0.0166029
847.405	0.0164519
847.483	0.0166399
847.561	0.0165010
847.639	0.0165079
847.717	0.0164069
847.795	0.0164783
847.873	0.0164943
847.951	0.0165260
848.030	0.0164091
848.108	0.0164413
848.186	0.0164509
848.264	0.0164375
848.342	0.0163992
848.420	0.0162229
848.498	0.0163584
848.576	0.0163190
848.655	0.0163019
848.733	0.0161387
848.811	0.0162972
848.889	0.0163158
848.967	0.0163411
849.045	0.0163280
849.123	0.0162267
849.201	0.0164436
849.280	0.0163906
849.358	0.0163586
849.436	0.0163000
849.514	0.0163908
849.592	0.0165151
849.670	0.0163478
849.748	0.0163769
849.826	0.0162402
849.905	0.0165028
849.983	0.0164851
850.061	0.0163406
850.139	0.0164063
850.217	0.0163934
850.295	0.0163158
850.373	0.0163438
850.451	0.0162788
850.530	0.0163517
850.608	0.0163440
850.686	0.0162447
850.764	0.0163004
850.842	0.0164340
850.920	0.0164502
850.998	0.0163913
851.076	0.0162495
851.155	0.0163379
851.233	0.0164184
851.311	0.0163818
851.389	0.0162424
851.467	0.0162931
851.545	0.0163563
851.623	0.0165197
851.701	0.0163117
851.780	0.0165462
851.858	0.0165085
851.936	0.0164414
852.014	0.0163992
852.092	0.0163519
852.170	0.0165284
852.248	0.0165397
852.326	0.0165557
852.405	0.0165449
852.483	0.0165649
852.561	0.0163759
852.639	0.0163907
852.717	0.0164771
852.795	0.0165971
852.873	0.0165303
852.951	0.0164752
853.030	0.0165092
853.108	0.0165583
853.186	0.0165049
853.264	0.0165869
853.342	0.0165292
853.420	0.0164853
853.498	0.0165745
853.576	0.0165752
853.655	0.0165931
853.733	0.0164984
853.811	0.0166352
853.889	0.0165736
853.967	0.0166496
854.045	0.0165570
854.123	0.0165058
854.201	0.0165707
854.280	0.0166077
854.358	0.0166020
854.436	0.0166631
854.514	0.0167188
854.592	0.0167449
854.670	0.0165453
854.748	0.0166589
854.826	0.0166709
854.905	0.0167405
854.983	0.0167149
855.061	0.0168238
855.139	0.0168121
855.217	0.0166299
855.295	0.0166411
855.373	0.0167021
855.451	0.0166659
855.530	0.0167487
855.608	0.0165453
855.686	0.0167883
855.764	0.0167150
855.842	0.0167122
855.920	0.0164846
855.998	0.0167059
856.076	0.0167018
856.155	0.0166409
856.233	0.0166627
856.311	0.0166475
856.389	0.0166077
856.467	0.0164983
856.545	0.0165511
856.623	0.0165192
856.701	0.0166173
856.780	0.0165096
856.858	0.0165951
856.936	0.0165929
857.014	0.0166077
857.092	0.0165453
857.170	0.0165302
857.248	0.0165826
857.326	0.0165147
857.405	0.0165474
857.483	0.0166596
857.561	0.0164971
857.639	0.0167225
857.717	0.0167024
857.795	0.0167624
857.873	0.0167245
857.951	0.0166696
858.030	0.0166338
858.108	0.0166809
858.186	0.0166801
858.264	0.0167439
858.342	0.0167197
858.420	0.0165282
858.498	0.0166473
858.576	0.0166932
858.655	0.0166457
858.733	0.0166274
858.811	0.0166233
858.889	0.0164866
858.967	0.0165176
859.045	0.0164133
859.123	0.0165213
859.201	0.0166084
859.280	0.0165450
859.358	0.0163142
859.436	0.0164439
859.514	0.0165329
859.592	0.0164764
859.670	0.0163362
859.748	0.0164140
859.826	0.0164114
859.905	0.0163501
859.983	0.0162813
860.061	0.0164521
860.139	0.0164826
860.217	0.0163529
860.295	0.0162843
860.373	0.0164347
860.451	0.0163376
860.530	0.0164063
860.608	0.0165192
860.686	0.0163960
860.764	0.0163498
860.842	0.0163968
860.920	0.0163331
860.998	0.0163445
861.076	0.0164411
861.155	0.0164880
861.233	0.0164174
861.311	0.0164242
861.389	0.0163926
861.467	0.0164462
861.545	0.0164591
861.623	0.0165814
861.701	0.0165465
861.780	0.0165162
861.858	0.0164969
861.936	0.0165388
862.014	0.0165193
862.092	0.0164796
862.170	0.0166105
862.248	0.0163902
862.326	0.0165421
862.405	0.0165684
862.483	0.0164847
862.561	0.0165048
862.639	0.0165545
862.717	0.0165840
862.795	0.0165765
862.873	0.0165973
862.951	0.0163990
863.030	0.0165241
863.108	0.0165822
863.186	0.0164849
863.264	0.0164548
863.342	0.0165969
863.420	0.0164531
863.498	0.0166025
863.576	0.0165319
863.655	0.0164591
863.733	0.0165525
863.811	0.0165239
863.889	0.0163825
863.967	0.0164166
864.045	0.0164489
864.123	0.0165764
864.201	0.0166601
864.280	0.0166150
864.358	0.0163211
864.436	0.0165079
864.514	0.0164350
864.592	0.0165189
864.670	0.0165147
864.748	0.0165818
864.826	0.0165089
864.905	0.0165888
864.983	0.0167373
865.061	0.0166109
865.139	0.0165063
865.217	0.0165472
865.295	0.0165501
865.373	0.0165962
865.451	0.0166964
865.530	0.0166769
865.608	0.0166415
865.686	0.0165488
865.764	0.0166052
865.842	0.0166187
865.920	0.0165903
865.998	0.0165636
866.076	0.0165124
866.155	0.0166833
866.233	0.0165594
866.311	0.0165812
866.389	0.0165688
866.467	0.0165099
866.545	0.0164977
866.623	0.0164820
866.701	0.0164474
866.780	0.0164729
866.858	0.0163517
866.936	0.0163568
867.014	0.0163603
867.092	0.0163596
867.170	0.0164291
867.248	0.0164064
867.326	0.0163567
867.405	0.0162338
867.483	0.0163363
867.561	0.0163226
867.639	0.0162081
867.717	0.0163475
867.795	0.0162959
867.873	0.0163889
867.951	0.0164697
868.030	0.0163254
868.108	0.0164906
868.186	0.0164323
868.264	0.0164199
868.342	0.0163270
868.420	0.0165311
868.498	0.0165099
868.576	0.0164149
868.655	0.0165075
868.733	0.0165430
868.811	0.0164838
868.889	0.0165101
868.967	0.0165415
869.045	0.0165697
869.123	0.0165104
869.201	0.0165089
869.280	0.0164654
869.358	0.0165427
869.436	0.0165255
869.514	0.0165477
869.592	0.0164866
869.670	0.0164917
869.748	0.0165307
869.826	0.0164648
869.905	0.0164906
869.983	0.0164684
870.061	0.0165131
870.139	0.0164320
870.217	0.0164449
870.295	0.0164372
870.373	0.0163831
870.451	0.0163967
870.530	0.0164014
870.608	0.0163605
870.686	0.0163544
870.764	0.0163378
870.842	0.0163494
870.920	0.0163017
870.998	0.0163253
871.076	0.0163964
871.155	0.0163095
871.233	0.0162298
871.311	0.0163593
871.389	0.0164096
871.467	0.0163307
871.545	0.0163954
871.623	0.0163239
871.701	0.0163762
871.780	0.0165411
871.858	0.0165266
871.936	0.0161839
872.014	0.0163208
872.092	0.0163849
872.170	0.0162953
872.248	0.0162489
872.326	0.0163689
872.405	0.0164838
872.483	0.0164268
872.561	0.0163763
872.639	0.0163674
872.717	0.0164764
872.795	0.0165885
872.873	0.0164235
872.951	0.0163958
873.030	0.0164431
873.108	0.0164230
873.186	0.0165223
873.264	0.0164791
873.342	0.0163839
873.420	0.0163637
873.498	0.0164158
873.576	0.0164464
873.655	0.0164912
873.733	0.0164499
873.811	0.0164292
873.889	0.0162975
873.967	0.0163691
874.045	0.0163355
874.123	0.0165276
874.201	0.0163612
874.280	0.0162848
874.358	0.0164579
874.436	0.0164794
874.514	0.0164419
874.592	0.0163212
874.670	0.0163703
874.748	0.0164929
874.826	0.0163513
874.905	0.0165315
874.983	0.0164053
875.061	0.0163299
875.139	0.0163917
875.217	0.0164146
875.295	0.0162712
875.373	0.0162895
875.451	0.0164455
875.530	0.0163799
875.608	0.0163134
875.686	0.0163235
875.764	0.0163103
875.842	0.0162251
875.920	0.0162985
875.998	0.0161728
876.076	0.0162907
876.155	0.0162467
876.233	0.0163579
876.311	0.0163451
876.389	0.0161801
876.467	0.0163422
876.545	0.0163272
876.623	0.0163439
876.701	0.0164394
876.780	0.0164013
876.858	0.0164157
876.936	0.0165249
877.014	0.0164610
877.092	0.0164668
877.170	0.0163440
877.248	0.0167263
877.326	0.0164324
877.405	0.0165009
877.483	0.0165982
877.561	0.0165816
877.639	0.0166290
877.717	0.0164329
877.795	0.0166440
877.873	0.0166142
877.951	0.0165390
878.030	0.0165556
878.108	0.0166073
878.186	0.0165888
878.264	0.0165379
878.342	0.0166120
878.420	0.0165971
878.498	0.0166295
878.576	0.0167520
878.655	0.0165820
878.733	0.0167333
878.811	0.0167791
878.889	0.0164710
878.967	0.0166368
879.045	0.0167680
879.123	0.0166754
879.201	0.0165623
879.280	0.0166462
879.358	0.0166053
879.436	0.0165235
879.514	0.0164946
879.592	0.0163459
879.670	0.0164702
879.748	0.0165546
879.826	0.0165307
879.905	0.0166337
879.983	0.0165057
880.061	0.0166196
880.139	0.0167236
880.217	0.0166079
880.295	0.0165437
880.373	0.0166481
880.451	0.0165425
880.530	0.0166636
880.608	0.0166565
880.686	0.0164475
880.764	0.0164919
880.842	0.0165448
880.920	0.0165994
880.998	0.0165829
881.076	0.0164642
881.155	0.0165735
881.233	0.0165675
881.311	0.0165205
881.389	0.0167120
881.467	0.0165784
881.545	0.0165239
881.623	0.0164748
881.701	0.0165041
881.780	0.0164497
881.858	0.0165153
881.936	0.0165089
882.014	0.0166099
882.092	0.0165448
882.170	0.0165987
882.248	0.0165615
882.326	0.0165618
882.405	0.0164776
882.483	0.0165107
882.561	0.0165399
882.639	0.0165694
882.717	0.0166766
882.795	0.0165125
882.873	0.0164594
882.951	0.0165432
883.030	0.0165148
883.108	0.0164802
883.186	0.0165108
883.264	0.0165047
883.342	0.0165496
883.420	0.0165522
883.498	0.0165541
883.576	0.0164127
883.655	0.0165625
883.733	0.0165753
883.811	0.0165372
883.889	0.0164738
883.967	0.0165349
884.045	0.0164483
884.123	0.0165791
884.201	0.0166034
884.280	0.0166182
884.358	0.0165171
884.436	0.0165615
884.514	0.0165018
884.592	0.0165356
884.670	0.0165267
884.748	0.0165783
884.826	0.0164619
884.905	0.0165409
884.983	0.0166465
885.061	0.0166565
885.139	0.0166280
885.217	0.0164422
885.295	0.0167400
885.373	0.0166084
885.451	0.0163876
885.530	0.0165654
885.608	0.0165863
885.686	0.0164211
885.764	0.0164467
885.842	0.0165919
885.920	0.0165567
885.998	0.0165092
886.076	0.0165384
886.155	0.0165579
886.233	0.0165601
886.311	0.0165244
886.389	0.0163646
886.467	0.0165018
886.545	0.0164294
886.623	0.0165175
886.701	0.0164340
886.780	0.0165291
886.858	0.0164299
886.936	0.0165453
887.014	0.0166473
887.092	0.0164310
887.170	0.0164665
887.248	0.0164117
887.326	0.0164570
887.405	0.0164156
887.483	0.0165131
887.561	0.0163383
887.639	0.0165209
887.717	0.0166053
887.795	0.0166022
887.873	0.0165968
887.951	0.0165939
888.030	0.0165883
888.108	0.0165479
888.186	0.0165375
888.264	0.0164899
888.342	0.0165573
888.420	0.0165269
888.498	0.0165659
888.576	0.0166184
888.655	0.0165768
888.733	0.0165461
888.811	0.0166889
888.889	0.0165896
888.967	0.0166496
889.045	0.0166248
889.123	0.0165406
889.201	0.0165528
889.280	0.0166467
889.358	0.0166376
889.436	0.0165258
889.514	0.0167078
889.592	0.0164178
889.670	0.0165873
889.748	0.0165643
889.826	0.0165322
889.905	0.0165156
889.983	0.0164465
890.061	0.0165398
890.139	0.0164289
890.217	0.0165310
890.295	0.0164745
890.373	0.0164677
890.451	0.0164240
890.530	0.0164639
890.608	0.0166816
890.686	0.0164117
890.764	0.0164276
890.842	0.0165018
890.920	0.0163643
890.998	0.0164898
891.076	0.0164883
891.155	0.0165594
891.233	0.0164252
891.311	0.0165462
891.389	0.0164407
891.467	0.0165044
891.545	0.0165415
891.623	0.0164623
891.701	0.0166473
891.780	0.0164956
891.858	0.0163354
891.936	0.0164272
892.014	0.0163737
892.092	0.0165616
892.170	0.0164293
892.248	0.0162772
892.326	0.0165326
892.405	0.0164528
892.483	0.0162926
892.561	0.0165154
892.639	0.0164454
892.717	0.0164252
892.795	0.0165149
892.873	0.0162507
892.951	0.0164507
893.030	0.0162349
893.108	0.0162576
893.186	0.0163528
893.264	0.0162766
893.342	0.0163916
893.420	0.0164079
893.498	0.0163635
893.576	0.0164583
893.655	0.0163916
893.733	0.0162872
893.811	0.0164702
893.889	0.0163125
893.967	0.0163519
894.045	0.0164532
894.123	0.0163200
894.201	0.0163538
894.280	0.0163810
894.358	0.0164175
894.436	0.0164587
894.514	0.0165279
894.592	0.0166014
894.670	0.0164845
894.748	0.0164419
894.826	0.0164215
894.905	0.0164447
894.983	0.0164635
895.061	0.0164571
895.139	0.0165047
895.217	0.0164479
895.295	0.0164796
895.373	0.0165214
895.451	0.0165361
895.530	0.0165472
895.608	0.0165649
895.686	0.0165055
895.764	0.0165132
895.842	0.0165765
895.920	0.0164973
895.998	0.0164851
896.076	0.0165225
896.155	0.0165356
896.233	0.0164626
896.311	0.0164273
896.389	0.0165635
896.467	0.0165313
896.545	0.0164664
896.623	0.0163535
896.701	0.0165277
896.780	0.0165851
896.858	0.0166305
896.936	0.0164327
897.014	0.0165256
897.092	0.0164854
897.170	0.0164672
897.248	0.0164124
897.326	0.0164581
897.405	0.0164056
897.483	0.0165420
897.561	0.0165305
897.639	0.0165337
897.717	0.0164475
897.795	0.0163453
897.873	0.0165799
897.951	0.0165698
898.030	0.0164706
898.108	0.0166895
898.186	0.0165602
898.264	0.0166479
898.342	0.0166826
898.420	0.0165874
898.498	0.0166960
898.576	0.0167105
898.655	0.0166320
898.733	0.0164965
898.811	0.0165739
898.889	0.0166466
898.967	0.0166082
899.045	0.0166694
899.123	0.0166258
899.201	0.0166852
899.280	0.0164614
899.358	0.0164574
899.436	0.0165401
899.514	0.0165299
899.592	0.0164417
899.670	0.0165655
899.748	0.0163751
899.826	0.0163359
899.905	0.0163593
899.983	0.0164777
900.061	0.0164676
900.139	0.0164132
900.217	0.0163078
900.295	0.0163374
900.373	0.0164208
900.451	0.0164534
900.530	0.0164478
900.608	0.0164359
900.686	0.0164208
900.764	0.0163934
900.842	0.0166060
900.920	0.0165501
900.998	0.0164343
901.076	0.0166232
901.155	0.0165860
901.233	0.0164970
901.311	0.0164302
901.389	0.0165716
901.467	0.0165427
901.545	0.0166331
901.623	0.0166091
901.701	0.0165115
901.780	0.0166576
901.858	0.0164747
901.936	0.0163766
902.014	0.0165632
902.092	0.0165147
902.170	0.0165897
902.248	0.0165822
902.326	0.0164836
902.405	0.0164402
902.483	0.0164754
902.561	0.0164723
902.639	0.0164655
902.717	0.0164559
902.795	0.0164316
902.873	0.0165575
902.951	0.0164800
903.030	0.0163539
903.108	0.0164014
903.186	0.0165765
903.264	0.0163565
903.342	0.0163850
903.420	0.0164797
903.498	0.0163525
903.576	0.0163747
903.655	0.0164069
903.733	0.0162379
903.811	0.0162142
903.889	0.0164874
903.967	0.0162854
904.045	0.0162324
904.123	0.0164056
904.201	0.0163931
904.280	0.0163058
904.358	0.0163657
904.436	0.0164194
904.514	0.0162724
904.592	0.0162811
904.670	0.0163786
904.748	0.0164106
904.826	0.0164349
904.905	0.0164407
904.983	0.0164165
905.061	0.0164375
905.139	0.0163161
905.217	0.0163577
905.295	0.0164886
905.373	0.0164175
905.451	0.0164017
905.530	0.0164426
905.608	0.0164889
905.686	0.0164532
905.764	0.0165075
905.842	0.0164596
905.920	0.0163882
905.998	0.0164594
906.076	0.0164220
906.155	0.0164286
906.233	0.0164820
906.311	0.0164495
906.389	0.0165722
906.467	0.0166473
906.545	0.0164301
906.623	0.0165737
906.701	0.0164816
906.780	0.0164845
906.858	0.0164967
906.936	0.0165862
907.014	0.0165041
907.092	0.0165739
907.170	0.0165619
907.248	0.0166331
907.326	0.0165820
907.405	0.0166026
907.483	0.0165110
907.561	0.0167551
907.639	0.0166476
907.717	0.0166756
907.795	0.0165266
907.873	0.0167390
907.951	0.0167295
908.030	0.0166006
908.108	0.0166722
908.186	0.0167213
908.264	0.0166885
908.342	0.0167586
908.420	0.0166420
908.498	0.0166619
908.576	0.0167133
908.655	0.0168065
908.733	0.0166814
908.811	0.0166815
908.889	0.0169422
908.967	0.0167682
909.045	0.0166895
909.123	0.0168279
909.201	0.0166787
909.280	0.0167838
909.358	0.0166980
909.436	0.0166057
909.514	0.0166956
909.592	0.0168606
909.670	0.0167550
909.748	0.0166577
909.826	0.0166283
909.905	0.0166735
909.983	0.0166232
910.061	0.0166371
910.139	0.0166818
910.217	0.0166663
910.295	0.0166485
910.373	0.0167130
910.451	0.0167928
910.530	0.0165783
910.608	0.0166578
910.686	0.0165359
910.764	0.0164751
910.842	0.0166166
910.920	0.0165776
910.998	0.0165078
911.076	0.0165735
911.155	0.0166574
911.233	0.0165962
911.311	0.0164499
911.389	0.0164214
911.467	0.0165131
911.545	0.0164772
911.623	0.0165623
911.701	0.0163822
911.780	0.0164056
911.858	0.0165617
911.936	0.0163261
912.014	0.0163960
912.092	0.0165379
912.170	0.0164196
912.248	0.0163734
912.326	0.0163418
912.405	0.0163086
912.483	0.0164494
912.561	0.0163761
912.639	0.0163271
912.717	0.0163888
912.795	0.0163544
912.873	0.0163396
912.951	0.0164699
913.030	0.0165064
913.108	0.0165060
913.186	0.0164534
913.264	0.0163747
913.342	0.0164098
913.420	0.0164600
913.498	0.0164122
913.576	0.0163395
913.655	0.0164703
913.733	0.0164822
913.811	0.0164170
913.889	0.0163457
913.967	0.0164355
914.045	0.0164036
914.123	0.0164035
914.201	0.0164223
914.280	0.0164894
914.358	0.0164387
914.436	0.0165788
914.514	0.0164597
914.592	0.0165726
914.670	0.0166326
914.748	0.0165556
914.826	0.0165200
914.905	0.0166136
914.983	0.0166680
915.061	0.0166933
915.139	0.0166186
915.217	0.0166798
915.295	0.0167608
915.373	0.0166913
915.451	0.0166699
915.530	0.0167669
915.608	0.0167147
915.686	0.0167062
915.764	0.0166779
915.842	0.0165938
915.920	0.0166858
915.998	0.0166332
916.076	0.0166147
916.155	0.0166846
916.233	0.0165915
916.311	0.0166685
916.389	0.0166689
916.467	0.0165230
916.545	0.0166479
916.623	0.0166375
916.701	0.0166786
916.780	0.0165505
916.858	0.0166021
916.936	0.0166465
917.014	0.0167255
917.092	0.0165993
917.170	0.0165498
917.248	0.0165234
917.326	0.0166077
917.405	0.0165446
917.483	0.0165676
917.561	0.0167199
917.639	0.0165929
917.717	0.0163741
917.795	0.0165128
917.873	0.0166363
917.951	0.0166426
918.030	0.0165532
918.108	0.0165337
918.186	0.0167236
918.264	0.0165434
918.342	0.0165009
918.420	0.0166190
918.498	0.0165656
918.576	0.0165184
918.655	0.0165742
918.733	0.0166376
918.811	0.0164646
918.889	0.0164874
918.967	0.0165217
919.045	0.0165013
919.123	0.0164926
919.201	0.0163525
919.280	0.0164523
919.358	0.0164787
919.436	0.0164726
919.514	0.0164532
919.592	0.0164627
919.670	0.0163876
919.748	0.0164389
919.826	0.0162861
919.905	0.0163713
919.983	0.0164640
920.061	0.0163921
920.139	0.0163486
920.217	0.0163039
920.295	0.0162305
920.373	0.0163204
920.451	0.0163831
920.530	0.0163474
920.608	0.0164963
920.686	0.0163960
920.764	0.0162867
920.842	0.0163583
920.920	0.0164066
920.998	0.0164523
921.076	0.0163319
921.155	0.0163107
921.233	0.0164449
921.311	0.0164314
921.389	0.0163757
921.467	0.0163274
921.545	0.0164075
921.623	0.0165148
921.701	0.0165520
921.780	0.0165444
921.858	0.0165897
921.936	0.0165408
922.014	0.0164752
922.092	0.0165329
922.170	0.0164481
922.248	0.0165472
922.326	0.0165826
922.405	0.0165211
922.483	0.0165804
922.561	0.0165067
922.639	0.0163870
922.717	0.0165276
922.795	0.0164833
922.873	0.0165299
922.951	0.0165432
923.030	0.0164539
923.108	0.0165512
923.186	0.0165881
923.264	0.0165795
923.342	0.0166118
923.420	0.0164795
923.498	0.0164069
923.576	0.0165021
923.655	0.0166442
923.733	0.0166667
923.811	0.0165623
923.889	0.0164387
923.967	0.0165868
924.045	0.0166813
924.123	0.0164482
924.201	0.0162669
924.280	0.0165152
924.358	0.0165587
924.436	0.0164629
924.514	0.0163246
924.592	0.0164901
924.670	0.0164951
924.748	0.0164523
924.826	0.0165005
924.905	0.0162888
924.983	0.0163973
925.061	0.0164863
925.139	0.0165759
925.217	0.0163515
925.295	0.0163724
925.373	0.0163085
925.451	0.0164809
925.530	0.0164360
925.608	0.0163405
925.686	0.0162903
925.764	0.0163389
925.842	0.0165660
925.920	0.0163688
925.998	0.0164825
926.076	0.0164727
926.155	0.0163467
926.233	0.0165131
926.311	0.0165685
926.389	0.0165663
926.467	0.0164996
926.545	0.0164616
926.623	0.0163886
926.701	0.0164571
926.780	0.0164536
926.858	0.0163405
926.936	0.0163135
927.014	0.0163696
927.092	0.0163826
927.170	0.0164869
927.248	0.0164603
927.326	0.0163969
927.405	0.0163228
927.483	0.0164085
927.561	0.0164224
927.639	0.0162230
927.717	0.0163703
927.795	0.0164417
927.873	0.0162389
927.951	0.0162701
928.030	0.0161683
928.108	0.0163503
928.186	0.0164514
928.264	0.0164308
928.342	0.0164796
928.420	0.0164922
928.498	0.0163469
928.576	0.0162735
928.655	0.0165471
928.733	0.0164167
928.811	0.0162490
928.889	0.0165665
928.967	0.0165618
929.045	0.0165473
929.123	0.0163705
929.201	0.0165685
929.280	0.0165977
929.358	0.0166122
929.436	0.0164719
929.514	0.0166261
929.592	0.0165117
929.670	0.0164874
929.748	0.0166193
929.826	0.0166404
929.905	0.0165872
929.983	0.0165663
930.061	0.0165987
930.139	0.0166214
930.217	0.0165008
930.295	0.0166272
930.373	0.0164555
930.451	0.0164450
930.530	0.0165916
930.608	0.0164499
930.686	0.0165009
930.764	0.0164030
930.842	0.0163087
930.920	0.0164288
930.998	0.0164605
931.076	0.0164724
931.155	0.0164896
931.233	0.0166033
931.311	0.0165082
931.389	0.0164338
931.467	0.0165897
931.545	0.0163650
931.623	0.0165303
931.701	0.0164575
931.780	0.0163483
931.858	0.0163810
931.936	0.0163349
932.014	0.0164135
932.092	0.0163730
932.170	0.0164046
932.248	0.0164339
932.326	0.0164365
932.405	0.0164173
932.483	0.0165528
932.561	0.0163405
932.639	0.0164617
932.717	0.0166054
932.795	0.0165775
932.873	0.0164084
932.951	0.0164153
933.030	0.0165096
933.108	0.0165128
933.186	0.0164988
933.264	0.0164385
933.342	0.0165411
933.420	0.0164347
933.498	0.0165648
933.576	0.0165457
933.655	0.0164040
933.733	0.0165126
933.811	0.0165002
933.889	0.0164587
933.967	0.0164362
934.045	0.0165927
934.123	0.0164733
934.201	0.0162967
934.280	0.0163847
934.358	0.0165126
934.436	0.0163459
934.514	0.0163631
934.592	0.0165879
934.670	0.0163187
934.748	0.0163027
934.826	0.0165006
934.905	0.0163528
934.983	0.0164124
935.061	0.0163181
935.139	0.0163098
935.217	0.0163658
935.295	0.0163103
935.373	0.0163146
935.451	0.0163325
935.530	0.0164464
935.608	0.0163696
935.686	0.0163863
935.764	0.0164780
935.842	0.0163061
935.920	0.0165175
935.998	0.0165059
936.076	0.0165889
936.155	0.0165834
936.233	0.0164914
936.311	0.0166534
936.389	0.0165561
936.467	0.0166679
936.545	0.0164824
936.623	0.0167800
936.701	0.0167274
936.780	0.0165921
936.858	0.0167727
936.936	0.0166902
937.014	0.0166537
937.092	0.0168313
937.170	0.0167252
937.248	0.0168590
937.326	0.0167825
937.405	0.0166108
937.483	0.0166409
937.561	0.0166036
937.639	0.0167408
937.717	0.0167069
937.795	0.0166636
937.873	0.0167447
937.951	0.0165218
938.030	0.0166593
938.108	0.0165689
938.186	0.0165127
938.264	0.0164057
938.342	0.0165356
938.420	0.0165453
938.498	0.0165644
938.576	0.0164218
938.655	0.0164014
938.733	0.0163885
938.811	0.0163166
938.889	0.0163868
938.967	0.0164194
939.045	0.0164075
939.123	0.0164352
939.201	0.0163744
939.280	0.0163927
939.358	0.0162266
939.436	0.0162526
939.514	0.0163510
939.592	0.0162909
939.670	0.0164548
939.748	0.0162498
939.826	0.0162020
939.905	0.0162176
939.983	0.0163350
940.061	0.0163863
940.139	0.0163456
940.217	0.0162453
940.295	0.0162399
940.373	0.0163783
940.451	0.0164581
940.530	0.0163608
940.608	0.0163623
940.686	0.0164384
940.764	0.0165163
940.842	0.0163795
940.920	0.0164163
940.998	0.0165316
941.076	0.0164271
941.155	0.0164927
941.233	0.0165680
941.311	0.0165376
941.389	0.0165578
941.467	0.0164812
941.545	0.0165992
941.623	0.0165773
941.701	0.0165476
941.780	0.0165162
941.858	0.0164925
941.936	0.0164729
942.014	0.0164021
942.092	0.0164882
942.170	0.0163986
942.248	0.0164973
942.326	0.0164063
942.405	0.0164500
942.483	0.0164825
942.561	0.0164841
942.639	0.0165614
942.717	0.0164215
942.795	0.0164617
942.873	0.0165592
942.951	0.0164265
943.030	0.0164022
943.108	0.0164196
943.186	0.0164088
943.264	0.0163751
943.342	0.0164880
943.420	0.0165334
943.498	0.0164908
943.576	0.0163277
943.655	0.0164992
943.733	0.0164139
943.811	0.0165230
943.889	0.0164033
943.967	0.0165319
944.045	0.0165034
944.123	0.0164841
944.201	0.0165073
944.280	0.0165052
944.358	0.0165186
944.436	0.0166117
944.514	0.0166056
944.592	0.0164812
944.670	0.0165260
944.748	0.0165535
944.826	0.0165189
944.905	0.0166156
944.983	0.0165237
945.061	0.0164631
945.139	0.0165624
945.217	0.0166005
945.295	0.0165813
945.373	0.0165272
945.451	0.0166452
945.530	0.0165257
945.608	0.0165082
945.686	0.0165344
945.764	0.0165661
945.842	0.0164899
945.920	0.0165733
945.998	0.0164880
946.076	0.0165239
946.155	0.0163576
946.233	0.0163081
946.311	0.0164393
946.389	0.0162912
946.467	0.0163097
946.545	0.0163734
946.623	0.0163347
946.701	0.0163564
946.780	0.0163631
946.858	0.0162883
946.936	0.0163205
947.014	0.0163828
947.092	0.0164426
947.170	0.0163801
947.248	0.0162493
947.326	0.0163991
947.405	0.0163818
947.483	0.0162128
947.561	0.0163165
947.639	0.0163941
947.717	0.0163503
947.795	0.0161543
947.873	0.0163213
947.951	0.0163050
948.030	0.0163408
948.108	0.0163242
948.186	0.0163157
948.264	0.0163951
948.342	0.0164545
948.420	0.0163679
948.498	0.0164037
948.576	0.0162772
948.655	0.0162685
948.733	0.0163966
948.811	0.0164349
948.889	0.0163740
948.967	0.0162331
949.045	0.0163263
949.123	0.0164166
949.201	0.0164258
949.280	0.0164489
949.358	0.0163309
949.436	0.0164489
949.514	0.0164748
949.592	0.0163446
949.670	0.0163831
949.748	0.0164589
949.826	0.0163727
949.905	0.0164150
949.983	0.0163857
950.061	0.0163488
950.139	0.0163230
950.217	0.0162987
950.295	0.0164262
950.373	0.0163931
950.451	0.0164095
950.530	0.0163828
950.608	0.0163297
950.686	0.0162447
950.764	0.0164333
950.842	0.0163230
950.920	0.0163232
950.998	0.0163898
951.076	0.0163831
951.155	0.0164306
951.233	0.0163181
951.311	0.0161983
951.389	0.0163940
951.467	0.0163926
951.545	0.0164814
951.623	0.0162721
951.701	0.0164283
951.780	0.0164733
951.858	0.0163634
951.936	0.0163013
952.014	0.0164622
952.092	0.0163785
952.170	0.0163288
952.248	0.0164270
952.326	0.0164475
952.405	0.0163748
952.483	0.0163905
952.561	0.0163249
952.639	0.0163142
952.717	0.0164500
952.795	0.0162971
952.873	0.0161944
952.951	0.0162976
953.030	0.0162857
953.108	0.0163479
953.186	0.0163792
953.264	0.0163004
953.342	0.0162713
953.420	0.0162161
953.498	0.0162196
953.576	0.0161922
953.655	0.0163425
953.733	0.0162554
953.811	0.0162840
953.889	0.0161983
953.967	0.0161534
954.045	0.0163125
954.123	0.0162962
954.201	0.0160043
954.280	0.0160432
954.358	0.0160968
954.436	0.0161964
954.514	0.0162224
954.592	0.0161280
954.670	0.0162594
954.748	0.0162160
954.826	0.0162014
954.905	0.0161646
954.983	0.0162477
955.061	0.0163116
955.139	0.0161887
955.217	0.0162545
955.295	0.0163113
955.373	0.0163991
955.451	0.0163298
955.530	0.0164478
955.608	0.0165692
955.686	0.0163670
955.764	0.0164677
955.842	0.0165051
955.920	0.0166724
955.998	0.0165372
956.076	0.0163716
956.155	0.0163573
956.233	0.0165406
956.311	0.0165430
956.389	0.0165187
956.467	0.0165333
956.545	0.0164706
956.623	0.0166121
956.701	0.0164169
956.780	0.0164909
956.858	0.0164581
956.936	0.0165474
957.014	0.0164676
957.092	0.0164545
957.170	0.0164095
957.248	0.0164393
957.326	0.0165765
957.405	0.0164862
957.483	0.0164515
957.561	0.0163720
957.639	0.0165144
957.717	0.0165400
957.795	0.0163635
957.873	0.0166815
957.951	0.0166400
958.030	0.0165736
958.108	0.0165483
958.186	0.0164966
958.264	0.0165037
958.342	0.0164867
958.420	0.0165679
958.498	0.0165117
958.576	0.0165326
958.655	0.0163675
958.733	0.0165157
958.811	0.0165880
958.889	0.0165532
958.967	0.0164346
959.045	0.0167651
959.123	0.0165314
959.201	0.0165244
959.280	0.0165430
959.358	0.0166823
959.436	0.0167504
959.514	0.0166655
959.592	0.0165981
959.670	0.0165190
959.748	0.0165765
959.826	0.0164906
959.905	0.0165312
