05/17/2022	17:17:20	Ver.	4.1	UNKNOWN
Optical Delay	639.982744	Delta X		0.078125	Sweeps	1	Scan Rate	0/0
Coordinates	Axis 1	NaN	Axis 2	NaN	Axis 3	NaN	Axis 4	NaN	Axis 5	NaN	Axis 6	0.000000
TX Power	0.000000	RX Power	0.000000

639.983	0.0169041
640.061	0.0170230
640.139	0.0169936
640.217	0.0169202
640.295	0.0167388
640.373	0.0170207
640.451	0.0168483
640.530	0.0168180
640.608	0.0168249
640.686	0.0168264
640.764	0.0168597
640.842	0.0166747
640.920	0.0168520
640.998	0.0167333
641.076	0.0167695
641.155	0.0167014
641.233	0.0166902
641.311	0.0167519
641.389	0.0167010
641.467	0.0167196
641.545	0.0168482
641.623	0.0165845
641.701	0.0166542
641.780	0.0167846
641.858	0.0167004
641.936	0.0167088
642.014	0.0166759
642.092	0.0167922
642.170	0.0166029
642.248	0.0166988
642.326	0.0167550
642.405	0.0166215
642.483	0.0166558
642.561	0.0165948
642.639	0.0165516
642.717	0.0167236
642.795	0.0166216
642.873	0.0165877
642.951	0.0166625
643.030	0.0166005
643.108	0.0165092
643.186	0.0166660
643.264	0.0165502
643.342	0.0165929
643.420	0.0165242
643.498	0.0166783
643.576	0.0165848
643.655	0.0166323
643.733	0.0166061
643.811	0.0166350
643.889	0.0166846
643.967	0.0166560
644.045	0.0165237
644.123	0.0167352
644.201	0.0166823
644.280	0.0167194
644.358	0.0166119
644.436	0.0166927
644.514	0.0166604
644.592	0.0166697
644.670	0.0167161
644.748	0.0167593
644.826	0.0167748
644.905	0.0166092
644.983	0.0167336
645.061	0.0167306
645.139	0.0168331
645.217	0.0166257
645.295	0.0166673
645.373	0.0167429
645.451	0.0166534
645.530	0.0166661
645.608	0.0166133
645.686	0.0164970
645.764	0.0166590
645.842	0.0166368
645.920	0.0164494
645.998	0.0165090
646.076	0.0165771
646.155	0.0165096
646.233	0.0166428
646.311	0.0166519
646.389	0.0165414
646.467	0.0166094
646.545	0.0165079
646.623	0.0165097
646.701	0.0164120
646.780	0.0163624
646.858	0.0167702
646.936	0.0166214
647.014	0.0164719
647.092	0.0164980
647.170	0.0166211
647.248	0.0165525
647.326	0.0166634
647.405	0.0166445
647.483	0.0166269
647.561	0.0166698
647.639	0.0167346
647.717	0.0167959
647.795	0.0168302
647.873	0.0168179
647.951	0.0168817
648.030	0.0168172
648.108	0.0167486
648.186	0.0167433
648.264	0.0167515
648.342	0.0169898
648.420	0.0167952
648.498	0.0166325
648.576	0.0168166
648.655	0.0166787
648.733	0.0167139
648.811	0.0166895
648.889	0.0167785
648.967	0.0167907
649.045	0.0167638
649.123	0.0165524
649.201	0.0165989
649.280	0.0165884
649.358	0.0165979
649.436	0.0165414
649.514	0.0165817
649.592	0.0165588
649.670	0.0166193
649.748	0.0165833
649.826	0.0166696
649.905	0.0166665
649.983	0.0166235
650.061	0.0165612
650.139	0.0166338
650.217	0.0166724
650.295	0.0166871
650.373	0.0166619
650.451	0.0165307
650.530	0.0165923
650.608	0.0167602
650.686	0.0169263
650.764	0.0169238
650.842	0.0168247
650.920	0.0169244
650.998	0.0167800
651.076	0.0168654
651.155	0.0168127
651.233	0.0169086
651.311	0.0170101
651.389	0.0170510
651.467	0.0169572
651.545	0.0170153
651.623	0.0169728
651.701	0.0167214
651.780	0.0169211
651.858	0.0170921
651.936	0.0170013
652.014	0.0168110
652.092	0.0168149
652.170	0.0168932
652.248	0.0168084
652.326	0.0168460
652.405	0.0167930
652.483	0.0169272
652.561	0.0167799
652.639	0.0167670
652.717	0.0168536
652.795	0.0167677
652.873	0.0167609
652.951	0.0166695
653.030	0.0166061
653.108	0.0167143
653.186	0.0168060
653.264	0.0167787
653.342	0.0168844
653.420	0.0168631
653.498	0.0167815
653.576	0.0167212
653.655	0.0167525
653.733	0.0168347
653.811	0.0167844
653.889	0.0167760
653.967	0.0168258
654.045	0.0167355
654.123	0.0168762
654.201	0.0168215
654.280	0.0167729
654.358	0.0168609
654.436	0.0166245
654.514	0.0166796
654.592	0.0167586
654.670	0.0166817
654.748	0.0166689
654.826	0.0167619
654.905	0.0167178
654.983	0.0166683
655.061	0.0166846
655.139	0.0167683
655.217	0.0167513
655.295	0.0167155
655.373	0.0167152
655.451	0.0168045
655.530	0.0167653
655.608	0.0167683
655.686	0.0167860
655.764	0.0169025
655.842	0.0165468
655.920	0.0167886
655.998	0.0167649
656.076	0.0169669
656.155	0.0166799
656.233	0.0167106
656.311	0.0166983
656.389	0.0166211
656.467	0.0164827
656.545	0.0167262
656.623	0.0165722
656.701	0.0165776
656.780	0.0166635
656.858	0.0165359
656.936	0.0166574
657.014	0.0166896
657.092	0.0166560
657.170	0.0166235
657.248	0.0166335
657.326	0.0166853
657.405	0.0165278
657.483	0.0165933
657.561	0.0165789
657.639	0.0167218
657.717	0.0166130
657.795	0.0166949
657.873	0.0166544
657.951	0.0166154
658.030	0.0166914
658.108	0.0166815
658.186	0.0166370
658.264	0.0167655
658.342	0.0168401
658.420	0.0167314
658.498	0.0167632
658.576	0.0167195
658.655	0.0170147
658.733	0.0168234
658.811	0.0168900
658.889	0.0168594
658.967	0.0167329
659.045	0.0166325
659.123	0.0168268
659.201	0.0167216
659.280	0.0166989
659.358	0.0167591
659.436	0.0165399
659.514	0.0165676
659.592	0.0166443
659.670	0.0167319
659.748	0.0166064
659.826	0.0166396
659.905	0.0165738
659.983	0.0165951
660.061	0.0166634
660.139	0.0165772
660.217	0.0167161
660.295	0.0168474
660.373	0.0169256
660.451	0.0168122
660.530	0.0169324
660.608	0.0168531
660.686	0.0170158
660.764	0.0170150
660.842	0.0169724
660.920	0.0171495
660.998	0.0171335
661.076	0.0171583
661.155	0.0172110
661.233	0.0171430
661.311	0.0172115
661.389	0.0172849
661.467	0.0171320
661.545	0.0170728
661.623	0.0169973
661.701	0.0170998
661.780	0.0170412
661.858	0.0169520
661.936	0.0168649
662.014	0.0169275
662.092	0.0167207
662.170	0.0166965
662.248	0.0166903
662.326	0.0165174
662.405	0.0164595
662.483	0.0163606
662.561	0.0162740
662.639	0.0163399
662.717	0.0162788
662.795	0.0162614
662.873	0.0161793
662.951	0.0160525
663.030	0.0160212
663.108	0.0162064
663.186	0.0161221
663.264	0.0160600
663.342	0.0160696
663.420	0.0162211
663.498	0.0162260
663.576	0.0162593
663.655	0.0163385
663.733	0.0164698
663.811	0.0163434
663.889	0.0163683
663.967	0.0165898
664.045	0.0166381
664.123	0.0167607
664.201	0.0167770
664.280	0.0168731
664.358	0.0170441
664.436	0.0169891
664.514	0.0169336
664.592	0.0170229
664.670	0.0172094
664.748	0.0170628
664.826	0.0172049
664.905	0.0173092
664.983	0.0173785
665.061	0.0173177
665.139	0.0173167
665.217	0.0173381
665.295	0.0174682
665.373	0.0175017
665.451	0.0173219
665.530	0.0173417
665.608	0.0172502
665.686	0.0174087
665.764	0.0173287
665.842	0.0171122
665.920	0.0171757
665.998	0.0170924
666.076	0.0168880
666.155	0.0167516
666.233	0.0168074
666.311	0.0166809
666.389	0.0165858
666.467	0.0162971
666.545	0.0162701
666.623	0.0163600
666.701	0.0160400
666.780	0.0159549
666.858	0.0159963
666.936	0.0159071
667.014	0.0157485
667.092	0.0157954
667.170	0.0157100
667.248	0.0158356
667.326	0.0157208
667.405	0.0158357
667.483	0.0157329
667.561	0.0158324
667.639	0.0159737
667.717	0.0158883
667.795	0.0160599
667.873	0.0161653
667.951	0.0162309
668.030	0.0163445
668.108	0.0163659
668.186	0.0164661
668.264	0.0165408
668.342	0.0167381
668.420	0.0168172
668.498	0.0168601
668.576	0.0170808
668.655	0.0170232
668.733	0.0170384
668.811	0.0171062
668.889	0.0172510
668.967	0.0172813
669.045	0.0172001
669.123	0.0172794
669.201	0.0174777
669.280	0.0176341
669.358	0.0176096
669.436	0.0176288
669.514	0.0177433
669.592	0.0177533
669.670	0.0176752
669.748	0.0176969
669.826	0.0177057
669.905	0.0177850
669.983	0.0177413
670.061	0.0176722
670.139	0.0176176
670.217	0.0175760
670.295	0.0174568
670.373	0.0173866
670.451	0.0173473
670.530	0.0171780
670.608	0.0172137
670.686	0.0172202
670.764	0.0170998
670.842	0.0168696
670.920	0.0168196
670.998	0.0168655
671.076	0.0166630
671.155	0.0166056
671.233	0.0165296
671.311	0.0163655
671.389	0.0160925
671.467	0.0161170
671.545	0.0160651
671.623	0.0159526
671.701	0.0158655
671.780	0.0158794
671.858	0.0158990
671.936	0.0157336
672.014	0.0157730
672.092	0.0159286
672.170	0.0158038
672.248	0.0156790
672.326	0.0159332
672.405	0.0158533
672.483	0.0160503
672.561	0.0159013
672.639	0.0161044
672.717	0.0162211
672.795	0.0162422
672.873	0.0163907
672.951	0.0163692
673.030	0.0164716
673.108	0.0165401
673.186	0.0166062
673.264	0.0170010
673.342	0.0169691
673.420	0.0169297
673.498	0.0170465
673.576	0.0172058
673.655	0.0172095
673.733	0.0171513
673.811	0.0173842
673.889	0.0175363
673.967	0.0175372
674.045	0.0174348
674.123	0.0176128
674.201	0.0175328
674.280	0.0175361
674.358	0.0174226
674.436	0.0173896
674.514	0.0175421
674.592	0.0174227
674.670	0.0173667
674.748	0.0174266
674.826	0.0173578
674.905	0.0173138
674.983	0.0172718
675.061	0.0170711
675.139	0.0171004
675.217	0.0171613
675.295	0.0169583
675.373	0.0168828
675.451	0.0168816
675.530	0.0168850
675.608	0.0166624
675.686	0.0167479
675.764	0.0165739
675.842	0.0166417
675.920	0.0164880
675.998	0.0164893
676.076	0.0164639
676.155	0.0164461
676.233	0.0164090
676.311	0.0163106
676.389	0.0162640
676.467	0.0162965
676.545	0.0162667
676.623	0.0164263
676.701	0.0164338
676.780	0.0162119
676.858	0.0161845
676.936	0.0161647
677.014	0.0161871
677.092	0.0161925
677.170	0.0160501
677.248	0.0162909
677.326	0.0161875
677.405	0.0161938
677.483	0.0161961
677.561	0.0160659
677.639	0.0161578
677.717	0.0160789
677.795	0.0160037
677.873	0.0160928
677.951	0.0160500
678.030	0.0158585
678.108	0.0159284
678.186	0.0158192
678.264	0.0160156
678.342	0.0158517
678.420	0.0157656
678.498	0.0158295
678.576	0.0157104
678.655	0.0159480
678.733	0.0159478
678.811	0.0160851
678.889	0.0160661
678.967	0.0162561
679.045	0.0163671
679.123	0.0164909
679.201	0.0166410
679.280	0.0168098
679.358	0.0169503
679.436	0.0170068
679.514	0.0171593
679.592	0.0172906
679.670	0.0173675
679.748	0.0174605
679.826	0.0177780
679.905	0.0177121
679.983	0.0178015
680.061	0.0180511
680.139	0.0179610
680.217	0.0179941
680.295	0.0178734
680.373	0.0179533
680.451	0.0178900
680.530	0.0177994
680.608	0.0177799
680.686	0.0176470
680.764	0.0174514
680.842	0.0173864
680.920	0.0171674
680.998	0.0172765
681.076	0.0170890
681.155	0.0169881
681.233	0.0168089
681.311	0.0167487
681.389	0.0167492
681.467	0.0166502
681.545	0.0165881
681.623	0.0165318
681.701	0.0163601
681.780	0.0164532
681.858	0.0163310
681.936	0.0163009
682.014	0.0163055
682.092	0.0162347
682.170	0.0162105
682.248	0.0163814
682.326	0.0161904
682.405	0.0161220
682.483	0.0161287
682.561	0.0162375
682.639	0.0159761
682.717	0.0161843
682.795	0.0161940
682.873	0.0160486
682.951	0.0160511
683.030	0.0161042
683.108	0.0160721
683.186	0.0160070
683.264	0.0161066
683.342	0.0162090
683.420	0.0161072
683.498	0.0160448
683.576	0.0159796
683.655	0.0161304
683.733	0.0161586
683.811	0.0162671
683.889	0.0162926
683.967	0.0163236
684.045	0.0164025
684.123	0.0163219
684.201	0.0164697
684.280	0.0164318
684.358	0.0165601
684.436	0.0164851
684.514	0.0166833
684.592	0.0167799
684.670	0.0169048
684.748	0.0169573
684.826	0.0170637
684.905	0.0171162
684.983	0.0172586
685.061	0.0172382
685.139	0.0172895
685.217	0.0175311
685.295	0.0176081
685.373	0.0174442
685.451	0.0175609
685.530	0.0176882
685.608	0.0177669
685.686	0.0178426
685.764	0.0178506
685.842	0.0179326
685.920	0.0179430
685.998	0.0180769
686.076	0.0179810
686.155	0.0179288
686.233	0.0178799
686.311	0.0179741
686.389	0.0178917
686.467	0.0178469
686.545	0.0177805
686.623	0.0175536
686.701	0.0175669
686.780	0.0173009
686.858	0.0172005
686.936	0.0170236
687.014	0.0170429
687.092	0.0167052
687.170	0.0165594
687.248	0.0163484
687.326	0.0161793
687.405	0.0161000
687.483	0.0158938
687.561	0.0156103
687.639	0.0157035
687.717	0.0154854
687.795	0.0152306
687.873	0.0153295
687.951	0.0151757
688.030	0.0150890
688.108	0.0151928
688.186	0.0150640
688.264	0.0150920
688.342	0.0150954
688.420	0.0149159
688.498	0.0150631
688.576	0.0152081
688.655	0.0153495
688.733	0.0155161
688.811	0.0155531
688.889	0.0156238
688.967	0.0158311
689.045	0.0158862
689.123	0.0160957
689.201	0.0163264
689.280	0.0163213
689.358	0.0165018
689.436	0.0168060
689.514	0.0168341
689.592	0.0171265
689.670	0.0172923
689.748	0.0173537
689.826	0.0175636
689.905	0.0176374
689.983	0.0177660
690.061	0.0178835
690.139	0.0180082
690.217	0.0180060
690.295	0.0180312
690.373	0.0181319
690.451	0.0182661
690.530	0.0182237
690.608	0.0182990
690.686	0.0180943
690.764	0.0181648
690.842	0.0182327
690.920	0.0181180
690.998	0.0179762
691.076	0.0179607
691.155	0.0179897
691.233	0.0178430
691.311	0.0177808
691.389	0.0176552
691.467	0.0176750
691.545	0.0175018
691.623	0.0173414
691.701	0.0172684
691.780	0.0172030
691.858	0.0170426
691.936	0.0169604
692.014	0.0168970
692.092	0.0167344
692.170	0.0166098
692.248	0.0165065
692.326	0.0164403
692.405	0.0163496
692.483	0.0162715
692.561	0.0161954
692.639	0.0160818
692.717	0.0161192
692.795	0.0159466
692.873	0.0158905
692.951	0.0158656
693.030	0.0159232
693.108	0.0160191
693.186	0.0158917
693.264	0.0158250
693.342	0.0158260
693.420	0.0157334
693.498	0.0158666
693.576	0.0158672
693.655	0.0157805
693.733	0.0157713
693.811	0.0158742
693.889	0.0160397
693.967	0.0159978
694.045	0.0160815
694.123	0.0160413
694.201	0.0161353
694.280	0.0161765
694.358	0.0161826
694.436	0.0163982
694.514	0.0163628
694.592	0.0163058
694.670	0.0163666
694.748	0.0165052
694.826	0.0165897
694.905	0.0167204
694.983	0.0168195
695.061	0.0168349
695.139	0.0167909
695.217	0.0168880
695.295	0.0171701
695.373	0.0171146
695.451	0.0173674
695.530	0.0173685
695.608	0.0174384
695.686	0.0175027
695.764	0.0175458
695.842	0.0175349
695.920	0.0177222
695.998	0.0178574
696.076	0.0178741
696.155	0.0178842
696.233	0.0180754
696.311	0.0178485
696.389	0.0179942
696.467	0.0179841
696.545	0.0178524
696.623	0.0178386
696.701	0.0177541
696.780	0.0177066
696.858	0.0175928
696.936	0.0175281
697.014	0.0173832
697.092	0.0172050
697.170	0.0172181
697.248	0.0170101
697.326	0.0168550
697.405	0.0167750
697.483	0.0166695
697.561	0.0165366
697.639	0.0164267
697.717	0.0161992
697.795	0.0161629
697.873	0.0160030
697.951	0.0158785
698.030	0.0158157
698.108	0.0159171
698.186	0.0157285
698.264	0.0155601
698.342	0.0156062
698.420	0.0156958
698.498	0.0156699
698.576	0.0155911
698.655	0.0155963
698.733	0.0157182
698.811	0.0157120
698.889	0.0157906
698.967	0.0158693
699.045	0.0160152
699.123	0.0160546
699.201	0.0161211
699.280	0.0161734
699.358	0.0162115
699.436	0.0164321
699.514	0.0165064
699.592	0.0165878
699.670	0.0166535
699.748	0.0167606
699.826	0.0167213
699.905	0.0168008
699.983	0.0168912
700.061	0.0169736
700.139	0.0169968
700.217	0.0169276
700.295	0.0171075
700.373	0.0171187
700.451	0.0170936
700.530	0.0170139
700.608	0.0169936
700.686	0.0170711
700.764	0.0170280
700.842	0.0171674
700.920	0.0170827
700.998	0.0170804
701.076	0.0170731
701.155	0.0171294
701.233	0.0169758
701.311	0.0169506
701.389	0.0169978
701.467	0.0169147
701.545	0.0170415
701.623	0.0171341
701.701	0.0170917
701.780	0.0169701
701.858	0.0170119
701.936	0.0170404
702.014	0.0171459
702.092	0.0169228
702.170	0.0170142
702.248	0.0170765
702.326	0.0169870
702.405	0.0169205
702.483	0.0169617
702.561	0.0169239
702.639	0.0170252
702.717	0.0169002
702.795	0.0168968
702.873	0.0168684
702.951	0.0168581
703.030	0.0169078
703.108	0.0168980
703.186	0.0170936
703.264	0.0168760
703.342	0.0166920
703.420	0.0167701
703.498	0.0166291
703.576	0.0166007
703.655	0.0166812
703.733	0.0165797
703.811	0.0165287
703.889	0.0165701
703.967	0.0165063
704.045	0.0165357
704.123	0.0165385
704.201	0.0165174
704.280	0.0165192
704.358	0.0165468
704.436	0.0165417
704.514	0.0165984
704.592	0.0166161
704.670	0.0165338
704.748	0.0165855
704.826	0.0165939
704.905	0.0166895
704.983	0.0166805
705.061	0.0166724
705.139	0.0167895
705.217	0.0167290
705.295	0.0166982
705.373	0.0167747
705.451	0.0167581
705.530	0.0167170
705.608	0.0166458
705.686	0.0166744
705.764	0.0166743
705.842	0.0166042
705.920	0.0166376
705.998	0.0167865
706.076	0.0167495
706.155	0.0165507
706.233	0.0166541
706.311	0.0167156
706.389	0.0166923
706.467	0.0168045
706.545	0.0166716
706.623	0.0167712
706.701	0.0167862
706.780	0.0168016
706.858	0.0168875
706.936	0.0168933
707.014	0.0167814
707.092	0.0168874
707.170	0.0170538
707.248	0.0169366
707.326	0.0169350
707.405	0.0168150
707.483	0.0168440
707.561	0.0169752
707.639	0.0169264
707.717	0.0169890
707.795	0.0169796
707.873	0.0168254
707.951	0.0168533
708.030	0.0169576
708.108	0.0167815
708.186	0.0166891
708.264	0.0167654
708.342	0.0167506
708.420	0.0167860
708.498	0.0166676
708.576	0.0165955
708.655	0.0166604
708.733	0.0166375
708.811	0.0166228
708.889	0.0165379
708.967	0.0166377
709.045	0.0167973
709.123	0.0165717
709.201	0.0166094
709.280	0.0167957
709.358	0.0166965
709.436	0.0168237
709.514	0.0168832
709.592	0.0168809
709.670	0.0168732
709.748	0.0169948
709.826	0.0170379
709.905	0.0170595
709.983	0.0169370
710.061	0.0170380
710.139	0.0170481
710.217	0.0169380
710.295	0.0170883
710.373	0.0170747
710.451	0.0169654
710.530	0.0171410
710.608	0.0171764
710.686	0.0172076
710.764	0.0171507
710.842	0.0171922
710.920	0.0171597
710.998	0.0171265
711.076	0.0171539
711.155	0.0170251
711.233	0.0171040
711.311	0.0170654
711.389	0.0169612
711.467	0.0168420
711.545	0.0168359
711.623	0.0166114
711.701	0.0167166
711.780	0.0167403
711.858	0.0167352
711.936	0.0165194
712.014	0.0164374
712.092	0.0163669
712.170	0.0162572
712.248	0.0162531
712.326	0.0162149
712.405	0.0162099
712.483	0.0161169
712.561	0.0162281
712.639	0.0161002
712.717	0.0162109
712.795	0.0161845
712.873	0.0161775
712.951	0.0163264
713.030	0.0163025
713.108	0.0162291
713.186	0.0163326
713.264	0.0162360
713.342	0.0164598
713.420	0.0164582
713.498	0.0165500
713.576	0.0168014
713.655	0.0168214
713.733	0.0168324
713.811	0.0170348
713.889	0.0169705
713.967	0.0171056
714.045	0.0173846
714.123	0.0174259
714.201	0.0175477
714.280	0.0175970
714.358	0.0177084
714.436	0.0177815
714.514	0.0178527
714.592	0.0177322
714.670	0.0179652
714.748	0.0179180
714.826	0.0178521
714.905	0.0177525
714.983	0.0177978
715.061	0.0176103
715.139	0.0176566
715.217	0.0176129
715.295	0.0173517
715.373	0.0174643
715.451	0.0174149
715.530	0.0172607
715.608	0.0170869
715.686	0.0168180
715.764	0.0170020
715.842	0.0169493
715.920	0.0168499
715.998	0.0169249
716.076	0.0167848
716.155	0.0167602
716.233	0.0165498
716.311	0.0165722
716.389	0.0165555
716.467	0.0165500
716.545	0.0165449
716.623	0.0165228
716.701	0.0165112
716.780	0.0165279
716.858	0.0165316
716.936	0.0166206
717.014	0.0164974
717.092	0.0164378
717.170	0.0164693
717.248	0.0165292
717.326	0.0165191
717.405	0.0166358
717.483	0.0165763
717.561	0.0165619
717.639	0.0164289
717.717	0.0165165
717.795	0.0165665
717.873	0.0165213
717.951	0.0163089
718.030	0.0163821
718.108	0.0164333
718.186	0.0165080
718.264	0.0164244
718.342	0.0163940
718.420	0.0163349
718.498	0.0163423
718.576	0.0162434
718.655	0.0164719
718.733	0.0165566
718.811	0.0162553
718.889	0.0161954
718.967	0.0163677
719.045	0.0162585
719.123	0.0164181
719.201	0.0165331
719.280	0.0165882
719.358	0.0163712
719.436	0.0165070
719.514	0.0165799
719.592	0.0166418
719.670	0.0167279
719.748	0.0167185
719.826	0.0167952
719.905	0.0166996
719.983	0.0167142
720.061	0.0168909
720.139	0.0169542
720.217	0.0169266
720.295	0.0169163
720.373	0.0169872
720.451	0.0171657
720.530	0.0169785
720.608	0.0170473
720.686	0.0170354
720.764	0.0171914
720.842	0.0172037
720.920	0.0170516
720.998	0.0172559
721.076	0.0171800
721.155	0.0170710
721.233	0.0172005
721.311	0.0172955
721.389	0.0172945
721.467	0.0173564
721.545	0.0172534
721.623	0.0171120
721.701	0.0172515
721.780	0.0172639
721.858	0.0172673
721.936	0.0172488
722.014	0.0171614
722.092	0.0170833
722.170	0.0169457
722.248	0.0168800
722.326	0.0168488
722.405	0.0167355
722.483	0.0167712
722.561	0.0167572
722.639	0.0165736
722.717	0.0165156
722.795	0.0164837
722.873	0.0165420
722.951	0.0162758
723.030	0.0163585
723.108	0.0163332
723.186	0.0163781
723.264	0.0163400
723.342	0.0162290
723.420	0.0162196
723.498	0.0161447
723.576	0.0162338
723.655	0.0162143
723.733	0.0161096
723.811	0.0162230
723.889	0.0161932
723.967	0.0160250
724.045	0.0161427
724.123	0.0161427
724.201	0.0162700
724.280	0.0162398
724.358	0.0164251
724.436	0.0164403
724.514	0.0164982
724.592	0.0166580
724.670	0.0167525
724.748	0.0169507
724.826	0.0169887
724.905	0.0170824
724.983	0.0171671
725.061	0.0171887
725.139	0.0173542
725.217	0.0172788
725.295	0.0173278
725.373	0.0174629
725.451	0.0173684
725.530	0.0173252
725.608	0.0173602
725.686	0.0174488
725.764	0.0172550
725.842	0.0171613
725.920	0.0169499
725.998	0.0170794
726.076	0.0169322
726.155	0.0171049
726.233	0.0169391
726.311	0.0169187
726.389	0.0168218
726.467	0.0168678
726.545	0.0168398
726.623	0.0165607
726.701	0.0166818
726.780	0.0167671
726.858	0.0167430
726.936	0.0167568
727.014	0.0165215
727.092	0.0166161
727.170	0.0166470
727.248	0.0166900
727.326	0.0166528
727.405	0.0166409
727.483	0.0167010
727.561	0.0168465
727.639	0.0168491
727.717	0.0167041
727.795	0.0168161
727.873	0.0168607
727.951	0.0169204
728.030	0.0169064
728.108	0.0168764
728.186	0.0168912
728.264	0.0170129
728.342	0.0170276
728.420	0.0168530
728.498	0.0169963
728.576	0.0168953
728.655	0.0168311
728.733	0.0167569
728.811	0.0169505
728.889	0.0168137
728.967	0.0168229
729.045	0.0169301
729.123	0.0168928
729.201	0.0170501
729.280	0.0167895
729.358	0.0167770
729.436	0.0168275
729.514	0.0167822
729.592	0.0169114
729.670	0.0169977
729.748	0.0168143
729.826	0.0167743
729.905	0.0168307
729.983	0.0166610
730.061	0.0168253
730.139	0.0168430
730.217	0.0166731
730.295	0.0168288
730.373	0.0170075
730.451	0.0169857
730.530	0.0168053
730.608	0.0167287
730.686	0.0167184
730.764	0.0167277
730.842	0.0166469
730.920	0.0166854
730.998	0.0166846
731.076	0.0166288
731.155	0.0166715
731.233	0.0166165
731.311	0.0166496
731.389	0.0165240
731.467	0.0165583
731.545	0.0166581
731.623	0.0164532
731.701	0.0164219
731.780	0.0165717
731.858	0.0167551
731.936	0.0166233
732.014	0.0164909
732.092	0.0166843
732.170	0.0167455
732.248	0.0168683
732.326	0.0167231
732.405	0.0168160
732.483	0.0169411
732.561	0.0168919
732.639	0.0168315
732.717	0.0168587
732.795	0.0169475
732.873	0.0169955
732.951	0.0170033
733.030	0.0169785
733.108	0.0168382
733.186	0.0167582
733.264	0.0168854
733.342	0.0168760
733.420	0.0167570
733.498	0.0168635
733.576	0.0168755
733.655	0.0166337
733.733	0.0167529
733.811	0.0166911
733.889	0.0166663
733.967	0.0166835
734.045	0.0167198
734.123	0.0166829
734.201	0.0167138
734.280	0.0167735
734.358	0.0168725
734.436	0.0167389
734.514	0.0168092
734.592	0.0168301
734.670	0.0169431
734.748	0.0169035
734.826	0.0168928
734.905	0.0170389
734.983	0.0168135
735.061	0.0167706
735.139	0.0169225
735.217	0.0168058
735.295	0.0168302
735.373	0.0169093
735.451	0.0168320
735.530	0.0169002
735.608	0.0168428
735.686	0.0168871
735.764	0.0168421
735.842	0.0168567
735.920	0.0167003
735.998	0.0167528
736.076	0.0166776
736.155	0.0167523
736.233	0.0167751
736.311	0.0166945
736.389	0.0166374
736.467	0.0167960
736.545	0.0168461
736.623	0.0164551
736.701	0.0166696
736.780	0.0166840
736.858	0.0165818
736.936	0.0166512
737.014	0.0168274
737.092	0.0167411
737.170	0.0165933
737.248	0.0167863
737.326	0.0167639
737.405	0.0165946
737.483	0.0167999
737.561	0.0167731
737.639	0.0167698
737.717	0.0167538
737.795	0.0169572
737.873	0.0169010
737.951	0.0169237
738.030	0.0170050
738.108	0.0167693
738.186	0.0168905
738.264	0.0169407
738.342	0.0170303
738.420	0.0170129
738.498	0.0169118
738.576	0.0168034
738.655	0.0168211
738.733	0.0167052
738.811	0.0166737
738.889	0.0166338
738.967	0.0164034
739.045	0.0166039
739.123	0.0165728
739.201	0.0164575
739.280	0.0165858
739.358	0.0163258
739.436	0.0162791
739.514	0.0163617
739.592	0.0162975
739.670	0.0163026
739.748	0.0162829
739.826	0.0165381
739.905	0.0164521
739.983	0.0165081
740.061	0.0165008
740.139	0.0165845
740.217	0.0166459
740.295	0.0166877
740.373	0.0167305
740.451	0.0167879
740.530	0.0166869
740.608	0.0168469
740.686	0.0168646
740.764	0.0167531
740.842	0.0169753
740.920	0.0167860
740.998	0.0170210
741.076	0.0169572
741.155	0.0171021
741.233	0.0169827
741.311	0.0168434
741.389	0.0169028
741.467	0.0169701
741.545	0.0170572
741.623	0.0169487
741.701	0.0169418
741.780	0.0168156
741.858	0.0170728
741.936	0.0168811
742.014	0.0169277
742.092	0.0167984
742.170	0.0167986
742.248	0.0168254
742.326	0.0167788
742.405	0.0167685
742.483	0.0166918
742.561	0.0167857
742.639	0.0167426
742.717	0.0169291
742.795	0.0169018
742.873	0.0169296
742.951	0.0168610
743.030	0.0168169
743.108	0.0168820
743.186	0.0169773
743.264	0.0169720
743.342	0.0168996
743.420	0.0169730
743.498	0.0168517
743.576	0.0168467
743.655	0.0167941
743.733	0.0167628
743.811	0.0167258
743.889	0.0166209
743.967	0.0165034
744.045	0.0164541
744.123	0.0165197
744.201	0.0165125
744.280	0.0164821
744.358	0.0165739
744.436	0.0164449
744.514	0.0165634
744.592	0.0165504
744.670	0.0166836
744.748	0.0167674
744.826	0.0166132
744.905	0.0167427
744.983	0.0167675
745.061	0.0166428
745.139	0.0168389
745.217	0.0168690
745.295	0.0168896
745.373	0.0169171
745.451	0.0169001
745.530	0.0169191
745.608	0.0168793
745.686	0.0169638
745.764	0.0168678
745.842	0.0167477
745.920	0.0167484
745.998	0.0166572
746.076	0.0166423
746.155	0.0166575
746.233	0.0165452
746.311	0.0164404
746.389	0.0164722
746.467	0.0162765
746.545	0.0162894
746.623	0.0163476
746.701	0.0163491
746.780	0.0163319
746.858	0.0162328
746.936	0.0162521
747.014	0.0162533
747.092	0.0163872
747.170	0.0163638
747.248	0.0165234
747.326	0.0165993
747.405	0.0165857
747.483	0.0166278
747.561	0.0166155
747.639	0.0167098
747.717	0.0168194
747.795	0.0169316
747.873	0.0168066
747.951	0.0168814
748.030	0.0169572
748.108	0.0169957
748.186	0.0169345
748.264	0.0170683
748.342	0.0171397
748.420	0.0170493
748.498	0.0171088
748.576	0.0171521
748.655	0.0172350
748.733	0.0170650
748.811	0.0171333
748.889	0.0171509
748.967	0.0170598
749.045	0.0170168
749.123	0.0169153
749.201	0.0167951
749.280	0.0167456
749.358	0.0168345
749.436	0.0167239
749.514	0.0168432
749.592	0.0166066
749.670	0.0165188
749.748	0.0165771
749.826	0.0165808
749.905	0.0165100
749.983	0.0166024
750.061	0.0163770
750.139	0.0165315
750.217	0.0166009
750.295	0.0166597
750.373	0.0165153
750.451	0.0165778
750.530	0.0165241
750.608	0.0166579
750.686	0.0166061
750.764	0.0166304
750.842	0.0168414
750.920	0.0167270
750.998	0.0166794
751.076	0.0168085
751.155	0.0168610
751.233	0.0168845
751.311	0.0167863
751.389	0.0166624
751.467	0.0166828
751.545	0.0167619
751.623	0.0167194
751.701	0.0167192
751.780	0.0166658
751.858	0.0165803
751.936	0.0167134
752.014	0.0166884
752.092	0.0166922
752.170	0.0166734
752.248	0.0167678
752.326	0.0167453
752.405	0.0167865
752.483	0.0167741
752.561	0.0167223
752.639	0.0168089
752.717	0.0169303
752.795	0.0171649
752.873	0.0169848
752.951	0.0169913
753.030	0.0170351
753.108	0.0171008
753.186	0.0171411
753.264	0.0171358
753.342	0.0169904
753.420	0.0170544
753.498	0.0171418
753.576	0.0170721
753.655	0.0171902
753.733	0.0169591
753.811	0.0171161
753.889	0.0170992
753.967	0.0170458
754.045	0.0171085
754.123	0.0169823
754.201	0.0170060
754.280	0.0170776
754.358	0.0170915
754.436	0.0171317
754.514	0.0170826
754.592	0.0170533
754.670	0.0170712
754.748	0.0169080
754.826	0.0167853
754.905	0.0169709
754.983	0.0168803
755.061	0.0167436
755.139	0.0167023
755.217	0.0167925
755.295	0.0167249
755.373	0.0166510
755.451	0.0167079
755.530	0.0166212
755.608	0.0167557
755.686	0.0166826
755.764	0.0166718
755.842	0.0168954
755.920	0.0169260
755.998	0.0168126
756.076	0.0167490
756.155	0.0167228
756.233	0.0168333
756.311	0.0169350
756.389	0.0166730
756.467	0.0168850
756.545	0.0168149
756.623	0.0168796
756.701	0.0169263
756.780	0.0168192
756.858	0.0167465
756.936	0.0167983
757.014	0.0167516
757.092	0.0165707
757.170	0.0166216
757.248	0.0165479
757.326	0.0165858
757.405	0.0165190
757.483	0.0164497
757.561	0.0165004
757.639	0.0165426
757.717	0.0164542
757.795	0.0162960
757.873	0.0163374
757.951	0.0165052
758.030	0.0165673
758.108	0.0165240
758.186	0.0164761
758.264	0.0165295
758.342	0.0165862
758.420	0.0164135
758.498	0.0166729
758.576	0.0166991
758.655	0.0166930
758.733	0.0166563
758.811	0.0166387
758.889	0.0168099
758.967	0.0168323
759.045	0.0166173
759.123	0.0166792
759.201	0.0167636
759.280	0.0166641
759.358	0.0166354
759.436	0.0164801
759.514	0.0165546
759.592	0.0165936
759.670	0.0163990
759.748	0.0164320
759.826	0.0164969
759.905	0.0164663
759.983	0.0164602
760.061	0.0161987
760.139	0.0163353
760.217	0.0164310
760.295	0.0164114
760.373	0.0163561
760.451	0.0164503
760.530	0.0164057
760.608	0.0163343
760.686	0.0164056
760.764	0.0165439
760.842	0.0163425
760.920	0.0163618
760.998	0.0162289
761.076	0.0163391
761.155	0.0165732
761.233	0.0166008
761.311	0.0164474
761.389	0.0164379
761.467	0.0166051
761.545	0.0166547
761.623	0.0165617
761.701	0.0166326
761.780	0.0166094
761.858	0.0166321
761.936	0.0166953
762.014	0.0166827
762.092	0.0165639
762.170	0.0165577
762.248	0.0165491
762.326	0.0166292
762.405	0.0165353
762.483	0.0166283
762.561	0.0165763
762.639	0.0166662
762.717	0.0166469
762.795	0.0166201
762.873	0.0165522
762.951	0.0167618
763.030	0.0166882
763.108	0.0166952
763.186	0.0167062
763.264	0.0167236
763.342	0.0167625
763.420	0.0167653
763.498	0.0167294
763.576	0.0167855
763.655	0.0167479
763.733	0.0167164
763.811	0.0168121
763.889	0.0169866
763.967	0.0168012
764.045	0.0167552
764.123	0.0169585
764.201	0.0169352
764.280	0.0165942
764.358	0.0168140
764.436	0.0167699
764.514	0.0168718
764.592	0.0168778
764.670	0.0165853
764.748	0.0166341
764.826	0.0167557
764.905	0.0168104
764.983	0.0166045
765.061	0.0165784
765.139	0.0166083
765.217	0.0167616
765.295	0.0166961
765.373	0.0168105
765.451	0.0166337
765.530	0.0167159
765.608	0.0166940
765.686	0.0168108
765.764	0.0168033
765.842	0.0168726
765.920	0.0168452
765.998	0.0168083
766.076	0.0167278
766.155	0.0169186
766.233	0.0169043
766.311	0.0168351
766.389	0.0168565
766.467	0.0169946
766.545	0.0168939
766.623	0.0169325
766.701	0.0168608
766.780	0.0170657
766.858	0.0169265
766.936	0.0168515
767.014	0.0168243
767.092	0.0169020
767.170	0.0168683
767.248	0.0169164
767.326	0.0167252
767.405	0.0167770
767.483	0.0168127
767.561	0.0166827
767.639	0.0165509
767.717	0.0165739
767.795	0.0166541
767.873	0.0166351
767.951	0.0165427
768.030	0.0164284
768.108	0.0165459
768.186	0.0163766
768.264	0.0164171
768.342	0.0164445
768.420	0.0164053
768.498	0.0164970
768.576	0.0165372
768.655	0.0165089
768.733	0.0164333
768.811	0.0164516
768.889	0.0164894
768.967	0.0165566
769.045	0.0166294
769.123	0.0166180
769.201	0.0165904
769.280	0.0164983
769.358	0.0167715
769.436	0.0167156
769.514	0.0168262
769.592	0.0167268
769.670	0.0168555
769.748	0.0168291
769.826	0.0168282
769.905	0.0168772
769.983	0.0168956
770.061	0.0169745
770.139	0.0168713
770.217	0.0168777
770.295	0.0168736
770.373	0.0168773
770.451	0.0168387
770.530	0.0170359
770.608	0.0170464
770.686	0.0169189
770.764	0.0170892
770.842	0.0170718
770.920	0.0170840
770.998	0.0169482
771.076	0.0170242
771.155	0.0169076
771.233	0.0169118
771.311	0.0169839
771.389	0.0169859
771.467	0.0170177
771.545	0.0169875
771.623	0.0170092
771.701	0.0171227
771.780	0.0170798
771.858	0.0169319
771.936	0.0168478
772.014	0.0169872
772.092	0.0169227
772.170	0.0170033
772.248	0.0168446
772.326	0.0169910
772.405	0.0169680
772.483	0.0168816
772.561	0.0169539
772.639	0.0168385
772.717	0.0167213
772.795	0.0167217
772.873	0.0167669
772.951	0.0166486
773.030	0.0166473
773.108	0.0165977
773.186	0.0165401
773.264	0.0165337
773.342	0.0166382
773.420	0.0165582
773.498	0.0165516
773.576	0.0165762
773.655	0.0164778
773.733	0.0164934
773.811	0.0166096
773.889	0.0166196
773.967	0.0165718
774.045	0.0166445
774.123	0.0166946
774.201	0.0168825
774.280	0.0168677
774.358	0.0167697
774.436	0.0167762
774.514	0.0167950
774.592	0.0167479
774.670	0.0168417
774.748	0.0166634
774.826	0.0166687
774.905	0.0166389
774.983	0.0168110
775.061	0.0167613
775.139	0.0167030
775.217	0.0166080
775.295	0.0167258
775.373	0.0165489
775.451	0.0166057
775.530	0.0167473
775.608	0.0166405
775.686	0.0166368
775.764	0.0166018
775.842	0.0167036
775.920	0.0167451
775.998	0.0166652
776.076	0.0165304
776.155	0.0168085
776.233	0.0168447
776.311	0.0168228
776.389	0.0168444
776.467	0.0170209
776.545	0.0169569
776.623	0.0169536
776.701	0.0168462
776.780	0.0169886
776.858	0.0170509
776.936	0.0169588
777.014	0.0168644
777.092	0.0169106
777.170	0.0169186
777.248	0.0169534
777.326	0.0168883
777.405	0.0168536
777.483	0.0169291
777.561	0.0167981
777.639	0.0167493
777.717	0.0169608
777.795	0.0167438
777.873	0.0167883
777.951	0.0167778
778.030	0.0167286
778.108	0.0168269
778.186	0.0167154
778.264	0.0167427
778.342	0.0168298
778.420	0.0166297
778.498	0.0165469
778.576	0.0167426
778.655	0.0165567
778.733	0.0165654
778.811	0.0165074
778.889	0.0163380
778.967	0.0166077
779.045	0.0166373
779.123	0.0164607
779.201	0.0164681
779.280	0.0164192
779.358	0.0164484
779.436	0.0165089
779.514	0.0164759
779.592	0.0164576
779.670	0.0164678
779.748	0.0164818
779.826	0.0163847
779.905	0.0165224
779.983	0.0164233
780.061	0.0165040
780.139	0.0164440
780.217	0.0165775
780.295	0.0166212
780.373	0.0165475
780.451	0.0164938
780.530	0.0165313
780.608	0.0165442
780.686	0.0165282
780.764	0.0165203
780.842	0.0166920
780.920	0.0167112
780.998	0.0166376
781.076	0.0166478
781.155	0.0167793
781.233	0.0166895
781.311	0.0166254
781.389	0.0167175
781.467	0.0168777
781.545	0.0169836
781.623	0.0168034
781.701	0.0168928
781.780	0.0169694
781.858	0.0169817
781.936	0.0170225
782.014	0.0170295
782.092	0.0171198
782.170	0.0172171
782.248	0.0171131
782.326	0.0171542
782.405	0.0171579
782.483	0.0170876
782.561	0.0170616
782.639	0.0171083
782.717	0.0170954
782.795	0.0169661
782.873	0.0169080
782.951	0.0169185
783.030	0.0168490
783.108	0.0168966
783.186	0.0168790
783.264	0.0168852
783.342	0.0167983
783.420	0.0168770
783.498	0.0168489
783.576	0.0167388
783.655	0.0167799
783.733	0.0167464
783.811	0.0166349
783.889	0.0167158
783.967	0.0165208
784.045	0.0165095
784.123	0.0166861
784.201	0.0167352
784.280	0.0164930
784.358	0.0165690
784.436	0.0165749
784.514	0.0165174
784.592	0.0165172
784.670	0.0164222
784.748	0.0165184
784.826	0.0165005
784.905	0.0163786
784.983	0.0164701
785.061	0.0165118
785.139	0.0165513
785.217	0.0165945
785.295	0.0165855
785.373	0.0166714
785.451	0.0166335
785.530	0.0167607
785.608	0.0166212
785.686	0.0168078
785.764	0.0167746
785.842	0.0167442
785.920	0.0168546
785.998	0.0168528
786.076	0.0168184
786.155	0.0168402
786.233	0.0169433
786.311	0.0169839
786.389	0.0170467
786.467	0.0170335
786.545	0.0169296
786.623	0.0169535
786.701	0.0170982
786.780	0.0170921
786.858	0.0172868
786.936	0.0171269
787.014	0.0170099
787.092	0.0169444
787.170	0.0170733
787.248	0.0171827
787.326	0.0171590
787.405	0.0170561
787.483	0.0170950
787.561	0.0170205
787.639	0.0168985
787.717	0.0169295
787.795	0.0171828
787.873	0.0169498
787.951	0.0168402
788.030	0.0168649
788.108	0.0170227
788.186	0.0168027
788.264	0.0167265
788.342	0.0168137
788.420	0.0166905
788.498	0.0165775
788.576	0.0167471
788.655	0.0166472
788.733	0.0167113
788.811	0.0167354
788.889	0.0165622
788.967	0.0164886
789.045	0.0165497
789.123	0.0165131
789.201	0.0165115
789.280	0.0163287
789.358	0.0163647
789.436	0.0163804
789.514	0.0163635
789.592	0.0162759
789.670	0.0164330
789.748	0.0162331
789.826	0.0163017
789.905	0.0164175
789.983	0.0162935
790.061	0.0161535
790.139	0.0163047
790.217	0.0162151
790.295	0.0162505
790.373	0.0162642
790.451	0.0164033
790.530	0.0163902
790.608	0.0165376
790.686	0.0163284
790.764	0.0164035
790.842	0.0163647
790.920	0.0163155
790.998	0.0163660
791.076	0.0163817
791.155	0.0164897
791.233	0.0164377
791.311	0.0164924
791.389	0.0165711
791.467	0.0166570
791.545	0.0165884
791.623	0.0167220
791.701	0.0168303
791.780	0.0167283
791.858	0.0168652
791.936	0.0168637
792.014	0.0169054
792.092	0.0169007
792.170	0.0169862
792.248	0.0170715
792.326	0.0170437
792.405	0.0168721
792.483	0.0171976
792.561	0.0170541
792.639	0.0170667
792.717	0.0171647
792.795	0.0171397
792.873	0.0170937
792.951	0.0170103
793.030	0.0170382
793.108	0.0171524
793.186	0.0171036
793.264	0.0170124
793.342	0.0171783
793.420	0.0171495
793.498	0.0169850
793.576	0.0170477
793.655	0.0167945
793.733	0.0169068
793.811	0.0168719
793.889	0.0169550
793.967	0.0168784
794.045	0.0167904
794.123	0.0167689
794.201	0.0168410
794.280	0.0167184
794.358	0.0166921
794.436	0.0166962
794.514	0.0167741
794.592	0.0165959
794.670	0.0166894
794.748	0.0168043
794.826	0.0167035
794.905	0.0165032
794.983	0.0165199
795.061	0.0167111
795.139	0.0167334
795.217	0.0166798
795.295	0.0165770
795.373	0.0166302
795.451	0.0166936
795.530	0.0167030
795.608	0.0165071
795.686	0.0166505
795.764	0.0168062
795.842	0.0166221
795.920	0.0164986
795.998	0.0166141
796.076	0.0165923
796.155	0.0168106
796.233	0.0166587
796.311	0.0167577
796.389	0.0168279
796.467	0.0166917
796.545	0.0167310
796.623	0.0168179
796.701	0.0168408
796.780	0.0169650
796.858	0.0168923
796.936	0.0169535
797.014	0.0168993
797.092	0.0170258
797.170	0.0169294
797.248	0.0169238
797.326	0.0168669
797.405	0.0170422
797.483	0.0170325
797.561	0.0171635
797.639	0.0170629
797.717	0.0170517
797.795	0.0170004
797.873	0.0169406
797.951	0.0169637
798.030	0.0170274
798.108	0.0170184
798.186	0.0170619
798.264	0.0168479
798.342	0.0169115
798.420	0.0170653
798.498	0.0170288
798.576	0.0169884
798.655	0.0168332
798.733	0.0169230
798.811	0.0168622
798.889	0.0168404
798.967	0.0168685
799.045	0.0167532
799.123	0.0168005
799.201	0.0167970
799.280	0.0167342
799.358	0.0166957
799.436	0.0167771
799.514	0.0167101
799.592	0.0168419
799.670	0.0166451
799.748	0.0166988
799.826	0.0168542
799.905	0.0167410
799.983	0.0168402
800.061	0.0167417
800.139	0.0166851
800.217	0.0167007
800.295	0.0167042
800.373	0.0167343
800.451	0.0166348
800.530	0.0165584
800.608	0.0166695
800.686	0.0166623
800.764	0.0166199
800.842	0.0166383
800.920	0.0166720
800.998	0.0165099
801.076	0.0165326
801.155	0.0164899
801.233	0.0165667
801.311	0.0165349
801.389	0.0166177
801.467	0.0165634
801.545	0.0165556
801.623	0.0165426
801.701	0.0167654
801.780	0.0167671
801.858	0.0165848
801.936	0.0165858
802.014	0.0167754
802.092	0.0166445
802.170	0.0167470
802.248	0.0167970
802.326	0.0167970
802.405	0.0167129
802.483	0.0167823
802.561	0.0167686
802.639	0.0167953
802.717	0.0168505
802.795	0.0168163
802.873	0.0168306
802.951	0.0169650
803.030	0.0168420
803.108	0.0168225
803.186	0.0168899
803.264	0.0169995
803.342	0.0169815
803.420	0.0169992
803.498	0.0170079
803.576	0.0170292
803.655	0.0169859
803.733	0.0168552
803.811	0.0170081
803.889	0.0171198
803.967	0.0170235
804.045	0.0169864
804.123	0.0168398
804.201	0.0169365
804.280	0.0168191
804.358	0.0170197
804.436	0.0169630
804.514	0.0169302
804.592	0.0167973
804.670	0.0168909
804.748	0.0167812
804.826	0.0167181
804.905	0.0168354
804.983	0.0166976
805.061	0.0166519
805.139	0.0167124
805.217	0.0167130
805.295	0.0167330
805.373	0.0167439
805.451	0.0167259
805.530	0.0167764
805.608	0.0165770
805.686	0.0166071
805.764	0.0166819
805.842	0.0167500
805.920	0.0167063
805.998	0.0167366
806.076	0.0167582
806.155	0.0167978
806.233	0.0166562
806.311	0.0168580
806.389	0.0168022
806.467	0.0166445
806.545	0.0167809
806.623	0.0169493
806.701	0.0169617
806.780	0.0168168
806.858	0.0167661
806.936	0.0169777
807.014	0.0169654
807.092	0.0168579
807.170	0.0169043
807.248	0.0169757
807.326	0.0168120
807.405	0.0169225
807.483	0.0168964
807.561	0.0170476
807.639	0.0168667
807.717	0.0168060
807.795	0.0170152
807.873	0.0170547
807.951	0.0169251
808.030	0.0168357
808.108	0.0168898
808.186	0.0169652
808.264	0.0168700
808.342	0.0168962
808.420	0.0169728
808.498	0.0169707
808.576	0.0168398
808.655	0.0169423
808.733	0.0169733
808.811	0.0168420
808.889	0.0168937
808.967	0.0169865
809.045	0.0168022
809.123	0.0168288
809.201	0.0166808
809.280	0.0166428
809.358	0.0167519
809.436	0.0167812
809.514	0.0166864
809.592	0.0167744
809.670	0.0168289
809.748	0.0168009
809.826	0.0166545
809.905	0.0167065
809.983	0.0167307
810.061	0.0167686
810.139	0.0167258
810.217	0.0168343
810.295	0.0168122
810.373	0.0169395
810.451	0.0169345
810.530	0.0168315
810.608	0.0167659
810.686	0.0168167
810.764	0.0169386
810.842	0.0169965
810.920	0.0170010
810.998	0.0168268
811.076	0.0170541
811.155	0.0169544
811.233	0.0169354
811.311	0.0169508
811.389	0.0170194
811.467	0.0171048
811.545	0.0169866
811.623	0.0170235
811.701	0.0169753
811.780	0.0168494
811.858	0.0169878
811.936	0.0171352
812.014	0.0168982
812.092	0.0168575
812.170	0.0169656
812.248	0.0169308
812.326	0.0168032
812.405	0.0168916
812.483	0.0168407
812.561	0.0167827
812.639	0.0167822
812.717	0.0168877
812.795	0.0167857
812.873	0.0167963
812.951	0.0168191
813.030	0.0167442
813.108	0.0167136
813.186	0.0167511
813.264	0.0167458
813.342	0.0167223
813.420	0.0166752
813.498	0.0166862
813.576	0.0166787
813.655	0.0166319
813.733	0.0166863
813.811	0.0166040
813.889	0.0166903
813.967	0.0167336
814.045	0.0164983
814.123	0.0165342
814.201	0.0164780
814.280	0.0165397
814.358	0.0166306
814.436	0.0166006
814.514	0.0165557
814.592	0.0165647
814.670	0.0165822
814.748	0.0164530
814.826	0.0166100
814.905	0.0165261
814.983	0.0166108
815.061	0.0165211
815.139	0.0165233
815.217	0.0165731
815.295	0.0164816
815.373	0.0166177
815.451	0.0164882
815.530	0.0166884
815.608	0.0165673
815.686	0.0164976
815.764	0.0166682
815.842	0.0166107
815.920	0.0166545
815.998	0.0166227
816.076	0.0167238
816.155	0.0167204
816.233	0.0168100
816.311	0.0167706
816.389	0.0165623
816.467	0.0166788
816.545	0.0169167
816.623	0.0168946
816.701	0.0168023
816.780	0.0167537
816.858	0.0167948
816.936	0.0169610
817.014	0.0168398
817.092	0.0168424
817.170	0.0167621
817.248	0.0168043
817.326	0.0169383
817.405	0.0168697
817.483	0.0168848
817.561	0.0169678
817.639	0.0169571
817.717	0.0169633
817.795	0.0169925
817.873	0.0168578
817.951	0.0169649
818.030	0.0168181
818.108	0.0168015
818.186	0.0169082
818.264	0.0169612
818.342	0.0168266
818.420	0.0169341
818.498	0.0167377
818.576	0.0167514
818.655	0.0167316
818.733	0.0169050
818.811	0.0168722
818.889	0.0167348
818.967	0.0166994
819.045	0.0166989
819.123	0.0165538
819.201	0.0166373
819.280	0.0166409
819.358	0.0166557
819.436	0.0165701
819.514	0.0165627
819.592	0.0167169
819.670	0.0164645
819.748	0.0164109
819.826	0.0165128
819.905	0.0165490
819.983	0.0165114
820.061	0.0164788
820.139	0.0165216
820.217	0.0165192
820.295	0.0165617
820.373	0.0163414
820.451	0.0163883
820.530	0.0163894
820.608	0.0163970
820.686	0.0162946
820.764	0.0165730
820.842	0.0165074
820.920	0.0165307
820.998	0.0164573
821.076	0.0164276
821.155	0.0164497
821.233	0.0166315
821.311	0.0165513
821.389	0.0163704
821.467	0.0165482
821.545	0.0165507
821.623	0.0165322
821.701	0.0167138
821.780	0.0165846
821.858	0.0166610
821.936	0.0165702
822.014	0.0164611
822.092	0.0165479
822.170	0.0167226
822.248	0.0166628
822.326	0.0166722
822.405	0.0166431
822.483	0.0166508
822.561	0.0166550
822.639	0.0166831
822.717	0.0166534
822.795	0.0166489
822.873	0.0166645
822.951	0.0166264
823.030	0.0166305
823.108	0.0166776
823.186	0.0167836
823.264	0.0165485
823.342	0.0167118
823.420	0.0167139
823.498	0.0166273
823.576	0.0167016
823.655	0.0165847
823.733	0.0166667
823.811	0.0166106
823.889	0.0167023
823.967	0.0166729
824.045	0.0165868
824.123	0.0165966
824.201	0.0166262
824.280	0.0165974
824.358	0.0166905
824.436	0.0167733
824.514	0.0166375
824.592	0.0166506
824.670	0.0166077
824.748	0.0166261
824.826	0.0166279
824.905	0.0166592
824.983	0.0165156
825.061	0.0168007
825.139	0.0168034
825.217	0.0166119
825.295	0.0166934
825.373	0.0166019
825.451	0.0166355
825.530	0.0166579
825.608	0.0167684
825.686	0.0166557
825.764	0.0165323
825.842	0.0166768
825.920	0.0167449
825.998	0.0168619
826.076	0.0166901
826.155	0.0166627
826.233	0.0167887
826.311	0.0167544
826.389	0.0167320
826.467	0.0167256
826.545	0.0167185
826.623	0.0167500
826.701	0.0167088
826.780	0.0168143
826.858	0.0168699
826.936	0.0168582
827.014	0.0168701
827.092	0.0168439
827.170	0.0168565
827.248	0.0169190
827.326	0.0169809
827.405	0.0168970
827.483	0.0169091
827.561	0.0169253
827.639	0.0170026
827.717	0.0168515
827.795	0.0169609
827.873	0.0168680
827.951	0.0169023
828.030	0.0170216
828.108	0.0169431
828.186	0.0169962
828.264	0.0170228
828.342	0.0169322
828.420	0.0169080
828.498	0.0169961
828.576	0.0170972
828.655	0.0170187
828.733	0.0169741
828.811	0.0169492
828.889	0.0170139
828.967	0.0169582
829.045	0.0169398
829.123	0.0169287
829.201	0.0170544
829.280	0.0170911
829.358	0.0170030
829.436	0.0170123
829.514	0.0170965
829.592	0.0169555
829.670	0.0169557
829.748	0.0169543
829.826	0.0170731
829.905	0.0170330
829.983	0.0168676
830.061	0.0168916
830.139	0.0169813
830.217	0.0170861
830.295	0.0169691
830.373	0.0167884
830.451	0.0169035
830.530	0.0169306
830.608	0.0168477
830.686	0.0168961
830.764	0.0168993
830.842	0.0168004
830.920	0.0166560
830.998	0.0167467
831.076	0.0167318
831.155	0.0168572
831.233	0.0168996
831.311	0.0166873
831.389	0.0166630
831.467	0.0168033
831.545	0.0167332
831.623	0.0166970
831.701	0.0166568
831.780	0.0168148
831.858	0.0168650
831.936	0.0167172
832.014	0.0167802
832.092	0.0167390
832.170	0.0166702
832.248	0.0165744
832.326	0.0167698
832.405	0.0165503
832.483	0.0165960
832.561	0.0165493
832.639	0.0166827
832.717	0.0166287
832.795	0.0166388
832.873	0.0167719
832.951	0.0166519
833.030	0.0166547
833.108	0.0167184
833.186	0.0165904
833.264	0.0167603
833.342	0.0166630
833.420	0.0166243
833.498	0.0167760
833.576	0.0167298
833.655	0.0168552
833.733	0.0168030
833.811	0.0167618
833.889	0.0167209
833.967	0.0167867
834.045	0.0168483
834.123	0.0167526
834.201	0.0167136
834.280	0.0167754
834.358	0.0168375
834.436	0.0168750
834.514	0.0167313
834.592	0.0168005
834.670	0.0169174
834.748	0.0167245
834.826	0.0168681
834.905	0.0167629
834.983	0.0167568
835.061	0.0167435
835.139	0.0167380
835.217	0.0168400
835.295	0.0167507
835.373	0.0168229
835.451	0.0167690
835.530	0.0167089
835.608	0.0167967
835.686	0.0165904
835.764	0.0165894
835.842	0.0167292
835.920	0.0166965
835.998	0.0167516
836.076	0.0166971
836.155	0.0166862
836.233	0.0166325
836.311	0.0167168
836.389	0.0168107
836.467	0.0166965
836.545	0.0166746
836.623	0.0165568
836.701	0.0166480
836.780	0.0166399
836.858	0.0167179
836.936	0.0166617
837.014	0.0163914
837.092	0.0167275
837.170	0.0166980
837.248	0.0166333
837.326	0.0166747
837.405	0.0167612
837.483	0.0166018
837.561	0.0166571
837.639	0.0166762
837.717	0.0166861
837.795	0.0165894
837.873	0.0166656
837.951	0.0167195
838.030	0.0166604
838.108	0.0166798
838.186	0.0166438
838.264	0.0166139
838.342	0.0167037
838.420	0.0166422
838.498	0.0166762
838.576	0.0167244
838.655	0.0166311
838.733	0.0166816
838.811	0.0168358
838.889	0.0166176
838.967	0.0166872
839.045	0.0167470
839.123	0.0167928
839.201	0.0169012
839.280	0.0167570
839.358	0.0167096
839.436	0.0167079
839.514	0.0169643
839.592	0.0169289
839.670	0.0167817
839.748	0.0168912
839.826	0.0168929
839.905	0.0167139
839.983	0.0168200
840.061	0.0168794
840.139	0.0168088
840.217	0.0168994
840.295	0.0168291
840.373	0.0167884
840.451	0.0167574
840.530	0.0168547
840.608	0.0166680
840.686	0.0168019
840.764	0.0167330
840.842	0.0167415
840.920	0.0166942
840.998	0.0166883
841.076	0.0168636
841.155	0.0167525
841.233	0.0167188
841.311	0.0167217
841.389	0.0167268
841.467	0.0167575
841.545	0.0167663
841.623	0.0167722
841.701	0.0168491
841.780	0.0168964
841.858	0.0167402
841.936	0.0167535
842.014	0.0166838
842.092	0.0168272
842.170	0.0167700
842.248	0.0167168
842.326	0.0166727
842.405	0.0168362
842.483	0.0168695
842.561	0.0167966
842.639	0.0166962
842.717	0.0167826
842.795	0.0167569
842.873	0.0167712
842.951	0.0166821
843.030	0.0166679
843.108	0.0168327
843.186	0.0165964
843.264	0.0165241
843.342	0.0165725
843.420	0.0166305
843.498	0.0166676
843.576	0.0164860
843.655	0.0166061
843.733	0.0165193
843.811	0.0165166
843.889	0.0165550
843.967	0.0166692
844.045	0.0164165
844.123	0.0165082
844.201	0.0165212
844.280	0.0165788
844.358	0.0166007
844.436	0.0165098
844.514	0.0164647
844.592	0.0167102
844.670	0.0167117
844.748	0.0165043
844.826	0.0166024
844.905	0.0165593
844.983	0.0167577
845.061	0.0168291
845.139	0.0167567
845.217	0.0167313
845.295	0.0166967
845.373	0.0167479
845.451	0.0168366
845.530	0.0168314
845.608	0.0168494
845.686	0.0167769
845.764	0.0168462
845.842	0.0169735
845.920	0.0167786
845.998	0.0167924
846.076	0.0167829
846.155	0.0167493
846.233	0.0168070
846.311	0.0167926
846.389	0.0168494
846.467	0.0168707
846.545	0.0168139
846.623	0.0168626
846.701	0.0167706
846.780	0.0168378
846.858	0.0167268
846.936	0.0168420
847.014	0.0167034
847.092	0.0167240
847.170	0.0167651
847.248	0.0167351
847.326	0.0166522
847.405	0.0166603
847.483	0.0167878
847.561	0.0166452
847.639	0.0166473
847.717	0.0166450
847.795	0.0166653
847.873	0.0166236
847.951	0.0165409
848.030	0.0166193
848.108	0.0165047
848.186	0.0166865
848.264	0.0166409
848.342	0.0165489
848.420	0.0164691
848.498	0.0164689
848.576	0.0164250
848.655	0.0166009
848.733	0.0165834
848.811	0.0164845
848.889	0.0164104
848.967	0.0165042
849.045	0.0165817
849.123	0.0165002
849.201	0.0165692
849.280	0.0164330
849.358	0.0164802
849.436	0.0165891
849.514	0.0165556
849.592	0.0165322
849.670	0.0165372
849.748	0.0167496
849.826	0.0166226
849.905	0.0166486
849.983	0.0167663
850.061	0.0166251
850.139	0.0167628
850.217	0.0167327
850.295	0.0167589
850.373	0.0167816
850.451	0.0167598
850.530	0.0167308
850.608	0.0168661
850.686	0.0168544
850.764	0.0167137
850.842	0.0168269
850.920	0.0169001
850.998	0.0168427
851.076	0.0167084
851.155	0.0168115
851.233	0.0168750
851.311	0.0168105
851.389	0.0169283
851.467	0.0169125
851.545	0.0169878
851.623	0.0168868
851.701	0.0169004
851.780	0.0167789
851.858	0.0169356
851.936	0.0169663
852.014	0.0170004
852.092	0.0169930
852.170	0.0170004
852.248	0.0170844
852.326	0.0171362
852.405	0.0171251
852.483	0.0170162
852.561	0.0169944
852.639	0.0171188
852.717	0.0169922
852.795	0.0169644
852.873	0.0170148
852.951	0.0170157
853.030	0.0170316
853.108	0.0170741
853.186	0.0169485
853.264	0.0169386
853.342	0.0169690
853.420	0.0170381
853.498	0.0169908
853.576	0.0169775
853.655	0.0168680
853.733	0.0169426
853.811	0.0168851
853.889	0.0167655
853.967	0.0167527
854.045	0.0166860
854.123	0.0168996
854.201	0.0166886
854.280	0.0166914
854.358	0.0167693
854.436	0.0167917
854.514	0.0167238
854.592	0.0166333
854.670	0.0166525
854.748	0.0166183
854.826	0.0165231
854.905	0.0166435
854.983	0.0167009
855.061	0.0166621
855.139	0.0166856
855.217	0.0166747
855.295	0.0165182
855.373	0.0168028
855.451	0.0166997
855.530	0.0168396
855.608	0.0167427
855.686	0.0167517
855.764	0.0167678
855.842	0.0168484
855.920	0.0168832
855.998	0.0169352
856.076	0.0169762
856.155	0.0170157
856.233	0.0169274
856.311	0.0168465
856.389	0.0168537
856.467	0.0169502
856.545	0.0171089
856.623	0.0169499
856.701	0.0169430
856.780	0.0168934
856.858	0.0168403
856.936	0.0169440
857.014	0.0168961
857.092	0.0168717
857.170	0.0168297
857.248	0.0166292
857.326	0.0167763
857.405	0.0169262
857.483	0.0169057
857.561	0.0167595
857.639	0.0167525
857.717	0.0167378
857.795	0.0166731
857.873	0.0166945
857.951	0.0167934
858.030	0.0165810
858.108	0.0164108
858.186	0.0165415
858.264	0.0166638
858.342	0.0167168
858.420	0.0165376
858.498	0.0165873
858.576	0.0166078
858.655	0.0166374
858.733	0.0165294
858.811	0.0165832
858.889	0.0166531
858.967	0.0165594
859.045	0.0165956
859.123	0.0167406
859.201	0.0166196
859.280	0.0165490
859.358	0.0166601
859.436	0.0165149
859.514	0.0165878
859.592	0.0166821
859.670	0.0166534
859.748	0.0167081
859.826	0.0167552
859.905	0.0167211
859.983	0.0166472
860.061	0.0166143
860.139	0.0167072
860.217	0.0167287
860.295	0.0166628
860.373	0.0167732
860.451	0.0166978
860.530	0.0167924
860.608	0.0168183
860.686	0.0168033
860.764	0.0168329
860.842	0.0167193
860.920	0.0168317
860.998	0.0168165
861.076	0.0169138
861.155	0.0168275
861.233	0.0168642
861.311	0.0169222
861.389	0.0169785
861.467	0.0169164
861.545	0.0169927
861.623	0.0169351
861.701	0.0169730
861.780	0.0169858
861.858	0.0168456
861.936	0.0168452
862.014	0.0167930
862.092	0.0169104
862.170	0.0168137
862.248	0.0168732
862.326	0.0168087
862.405	0.0167047
862.483	0.0169632
862.561	0.0167553
862.639	0.0167828
862.717	0.0167386
862.795	0.0168694
862.873	0.0167280
862.951	0.0167622
863.030	0.0169166
863.108	0.0168198
863.186	0.0166641
863.264	0.0167748
863.342	0.0167400
863.420	0.0167076
863.498	0.0167791
863.576	0.0169370
863.655	0.0168533
863.733	0.0168623
863.811	0.0169109
863.889	0.0167661
863.967	0.0166532
864.045	0.0167761
864.123	0.0167974
864.201	0.0168558
864.280	0.0167040
864.358	0.0167999
864.436	0.0167548
864.514	0.0167443
864.592	0.0167723
864.670	0.0168102
864.748	0.0168954
864.826	0.0169042
864.905	0.0167346
864.983	0.0166821
865.061	0.0169083
865.139	0.0167972
865.217	0.0167336
865.295	0.0166820
865.373	0.0166970
865.451	0.0168489
865.530	0.0166293
865.608	0.0166096
865.686	0.0166840
865.764	0.0167327
865.842	0.0166132
865.920	0.0167186
865.998	0.0165147
866.076	0.0167410
866.155	0.0166180
866.233	0.0166624
866.311	0.0165444
866.389	0.0167195
866.467	0.0166709
866.545	0.0166528
866.623	0.0167867
866.701	0.0166029
866.780	0.0166338
866.858	0.0166788
866.936	0.0166703
867.014	0.0166302
867.092	0.0166100
867.170	0.0166518
867.248	0.0166451
867.326	0.0164970
867.405	0.0166597
867.483	0.0166933
867.561	0.0166495
867.639	0.0167668
867.717	0.0168713
867.795	0.0166147
867.873	0.0165954
867.951	0.0167195
868.030	0.0167777
868.108	0.0165611
868.186	0.0166988
868.264	0.0167411
868.342	0.0167772
868.420	0.0167712
868.498	0.0167797
868.576	0.0166554
868.655	0.0165773
868.733	0.0166704
868.811	0.0167640
868.889	0.0166763
868.967	0.0166356
869.045	0.0166304
869.123	0.0166630
869.201	0.0167846
869.280	0.0165569
869.358	0.0166042
869.436	0.0166355
869.514	0.0166170
869.592	0.0168202
869.670	0.0167992
869.748	0.0167232
869.826	0.0167656
869.905	0.0168079
869.983	0.0168527
870.061	0.0168140
870.139	0.0167541
870.217	0.0167386
870.295	0.0167868
870.373	0.0167098
870.451	0.0168391
870.530	0.0167991
870.608	0.0167556
870.686	0.0168052
870.764	0.0168111
870.842	0.0168726
870.920	0.0169608
870.998	0.0168334
871.076	0.0170172
871.155	0.0169501
871.233	0.0169356
871.311	0.0169396
871.389	0.0168512
871.467	0.0170045
871.545	0.0169962
871.623	0.0168582
871.701	0.0170104
871.780	0.0170411
871.858	0.0170390
871.936	0.0168864
872.014	0.0169405
872.092	0.0170155
872.170	0.0169977
872.248	0.0170317
872.326	0.0169954
872.405	0.0169176
872.483	0.0168945
872.561	0.0168545
872.639	0.0169086
872.717	0.0168433
872.795	0.0168497
872.873	0.0168736
872.951	0.0169280
873.030	0.0167751
873.108	0.0168543
873.186	0.0168652
873.264	0.0168978
873.342	0.0168591
873.420	0.0167583
873.498	0.0167924
873.576	0.0167895
873.655	0.0167165
873.733	0.0167199
873.811	0.0167374
873.889	0.0165972
873.967	0.0167809
874.045	0.0166452
874.123	0.0166322
874.201	0.0166990
874.280	0.0166325
874.358	0.0167590
874.436	0.0167123
874.514	0.0167112
874.592	0.0167632
874.670	0.0166093
874.748	0.0168569
874.826	0.0168145
874.905	0.0167532
874.983	0.0168171
875.061	0.0167757
875.139	0.0166337
875.217	0.0166890
875.295	0.0168545
875.373	0.0168282
875.451	0.0167558
875.530	0.0167583
875.608	0.0167192
875.686	0.0167794
875.764	0.0168048
875.842	0.0167754
875.920	0.0168699
875.998	0.0167993
876.076	0.0168079
876.155	0.0168552
876.233	0.0166270
876.311	0.0166115
876.389	0.0167091
876.467	0.0167285
876.545	0.0167587
876.623	0.0167395
876.701	0.0166327
876.780	0.0167333
876.858	0.0167611
876.936	0.0166154
877.014	0.0167586
877.092	0.0167522
877.170	0.0165683
877.248	0.0167747
877.326	0.0165530
877.405	0.0164998
877.483	0.0165398
877.561	0.0166288
877.639	0.0167278
877.717	0.0167097
877.795	0.0165158
877.873	0.0167428
877.951	0.0166119
878.030	0.0166415
878.108	0.0167082
878.186	0.0167410
878.264	0.0167952
878.342	0.0166772
878.420	0.0165508
878.498	0.0166568
878.576	0.0166954
878.655	0.0166369
878.733	0.0167110
878.811	0.0166892
878.889	0.0165937
878.967	0.0166695
879.045	0.0166251
879.123	0.0167317
879.201	0.0165986
879.280	0.0167200
879.358	0.0167175
879.436	0.0167483
879.514	0.0168185
879.592	0.0167046
879.670	0.0167532
879.748	0.0167139
879.826	0.0168082
879.905	0.0168240
879.983	0.0168431
880.061	0.0167349
880.139	0.0167197
880.217	0.0167835
880.295	0.0168993
880.373	0.0168505
880.451	0.0169558
880.530	0.0169140
880.608	0.0169591
880.686	0.0167519
880.764	0.0169321
880.842	0.0168985
880.920	0.0169311
880.998	0.0168700
881.076	0.0170319
881.155	0.0168896
881.233	0.0169838
881.311	0.0169861
881.389	0.0169083
881.467	0.0169671
881.545	0.0168594
881.623	0.0168925
881.701	0.0167675
881.780	0.0167767
881.858	0.0167719
881.936	0.0169712
882.014	0.0167711
882.092	0.0168022
882.170	0.0168224
882.248	0.0168611
882.326	0.0167999
882.405	0.0168153
882.483	0.0166952
882.561	0.0167252
882.639	0.0168626
882.717	0.0168871
882.795	0.0167502
882.873	0.0167669
882.951	0.0168285
883.030	0.0166525
883.108	0.0166614
883.186	0.0166942
883.264	0.0168065
883.342	0.0167936
883.420	0.0168443
883.498	0.0167886
883.576	0.0167777
883.655	0.0167239
883.733	0.0166475
883.811	0.0168179
883.889	0.0167901
883.967	0.0167857
884.045	0.0169550
884.123	0.0168166
884.201	0.0169070
884.280	0.0169184
884.358	0.0167957
884.436	0.0167101
884.514	0.0167648
884.592	0.0167274
884.670	0.0167232
884.748	0.0168539
884.826	0.0168689
884.905	0.0168291
884.983	0.0167260
885.061	0.0166686
885.139	0.0167710
885.217	0.0167428
885.295	0.0167330
885.373	0.0167654
885.451	0.0167107
885.530	0.0166898
885.608	0.0167988
885.686	0.0167471
885.764	0.0168018
885.842	0.0168436
885.920	0.0168654
885.998	0.0168695
886.076	0.0168454
886.155	0.0170072
886.233	0.0169194
886.311	0.0168774
886.389	0.0169660
886.467	0.0168080
886.545	0.0168106
886.623	0.0168738
886.701	0.0168903
886.780	0.0168066
886.858	0.0168899
886.936	0.0169604
887.014	0.0168952
887.092	0.0169099
887.170	0.0168547
887.248	0.0167989
887.326	0.0169005
887.405	0.0167826
887.483	0.0168894
887.561	0.0168511
887.639	0.0167777
887.717	0.0166189
887.795	0.0166681
887.873	0.0167146
887.951	0.0167149
888.030	0.0167094
888.108	0.0168126
888.186	0.0166837
888.264	0.0167300
888.342	0.0167789
888.420	0.0167570
888.498	0.0167751
888.576	0.0168460
888.655	0.0168212
888.733	0.0166457
888.811	0.0166420
888.889	0.0168332
888.967	0.0167422
889.045	0.0166342
889.123	0.0167391
889.201	0.0167059
889.280	0.0166788
889.358	0.0166271
889.436	0.0166313
889.514	0.0166831
889.592	0.0167334
889.670	0.0168810
889.748	0.0166388
889.826	0.0166159
889.905	0.0166669
889.983	0.0167458
890.061	0.0167899
890.139	0.0167219
890.217	0.0166762
890.295	0.0167479
890.373	0.0168107
890.451	0.0166920
890.530	0.0168676
890.608	0.0166888
890.686	0.0167386
890.764	0.0167999
890.842	0.0167074
890.920	0.0166713
890.998	0.0166296
891.076	0.0166108
891.155	0.0168404
891.233	0.0168790
891.311	0.0166759
891.389	0.0166590
891.467	0.0167477
891.545	0.0166644
891.623	0.0167424
891.701	0.0165653
891.780	0.0166459
891.858	0.0167556
891.936	0.0165948
892.014	0.0165915
892.092	0.0167788
892.170	0.0165461
892.248	0.0165422
892.326	0.0165794
892.405	0.0164597
892.483	0.0164763
892.561	0.0164709
892.639	0.0165205
892.717	0.0163996
892.795	0.0164135
892.873	0.0163710
892.951	0.0166006
893.030	0.0166038
893.108	0.0166265
893.186	0.0165337
893.264	0.0165441
893.342	0.0165150
893.420	0.0165656
893.498	0.0165629
893.576	0.0166279
893.655	0.0166592
893.733	0.0166479
893.811	0.0166317
893.889	0.0166502
893.967	0.0166393
894.045	0.0166010
894.123	0.0166276
894.201	0.0166425
894.280	0.0167010
894.358	0.0166866
894.436	0.0166931
894.514	0.0168069
894.592	0.0166881
894.670	0.0168150
894.748	0.0168654
894.826	0.0168050
894.905	0.0168672
894.983	0.0168433
895.061	0.0169509
895.139	0.0169093
895.217	0.0169093
895.295	0.0169497
895.373	0.0168462
895.451	0.0169247
895.530	0.0169200
895.608	0.0169350
895.686	0.0168775
895.764	0.0169833
895.842	0.0168092
895.920	0.0171120
895.998	0.0170267
896.076	0.0168507
896.155	0.0169061
896.233	0.0168917
896.311	0.0169685
896.389	0.0171228
896.467	0.0169544
896.545	0.0170313
896.623	0.0170465
896.701	0.0169471
896.780	0.0170011
896.858	0.0170181
896.936	0.0168018
897.014	0.0170704
897.092	0.0169888
897.170	0.0169968
897.248	0.0168221
897.326	0.0168262
897.405	0.0169114
897.483	0.0168883
897.561	0.0167732
897.639	0.0166632
897.717	0.0166367
897.795	0.0166287
897.873	0.0166448
897.951	0.0166908
898.030	0.0167986
898.108	0.0166739
898.186	0.0167287
898.264	0.0166348
898.342	0.0165624
898.420	0.0165717
898.498	0.0166341
898.576	0.0166483
898.655	0.0167200
898.733	0.0167080
898.811	0.0166756
898.889	0.0164809
898.967	0.0165981
899.045	0.0166518
899.123	0.0167047
899.201	0.0167815
899.280	0.0167026
899.358	0.0166779
899.436	0.0168449
899.514	0.0165701
899.592	0.0167425
899.670	0.0168422
899.748	0.0168401
899.826	0.0167535
899.905	0.0166708
899.983	0.0166805
900.061	0.0166675
900.139	0.0166719
900.217	0.0166879
900.295	0.0165760
900.373	0.0166125
900.451	0.0167667
900.530	0.0167093
900.608	0.0166797
900.686	0.0167405
900.764	0.0166671
900.842	0.0168753
900.920	0.0167294
900.998	0.0167282
901.076	0.0167476
901.155	0.0166399
901.233	0.0168358
901.311	0.0166528
901.389	0.0167937
901.467	0.0166698
901.545	0.0167872
901.623	0.0168211
901.701	0.0167800
901.780	0.0168730
901.858	0.0169073
901.936	0.0167902
902.014	0.0168224
902.092	0.0168021
902.170	0.0168714
902.248	0.0168321
902.326	0.0168034
902.405	0.0169480
902.483	0.0167815
902.561	0.0167037
902.639	0.0168814
902.717	0.0168179
902.795	0.0168080
902.873	0.0167841
902.951	0.0168333
903.030	0.0168050
903.108	0.0167026
903.186	0.0169619
903.264	0.0167302
903.342	0.0168417
903.420	0.0167972
903.498	0.0167249
903.576	0.0167579
903.655	0.0167444
903.733	0.0167178
903.811	0.0167142
903.889	0.0168025
903.967	0.0168724
904.045	0.0168095
904.123	0.0167586
904.201	0.0167009
904.280	0.0167047
904.358	0.0167106
904.436	0.0167216
904.514	0.0167268
904.592	0.0168069
904.670	0.0167595
904.748	0.0166864
904.826	0.0166515
904.905	0.0167118
904.983	0.0165440
905.061	0.0166837
905.139	0.0166564
905.217	0.0166161
905.295	0.0166126
905.373	0.0166444
905.451	0.0166750
905.530	0.0167504
905.608	0.0167163
905.686	0.0167135
905.764	0.0166657
905.842	0.0166905
905.920	0.0165786
905.998	0.0167014
906.076	0.0166273
906.155	0.0166258
906.233	0.0167163
906.311	0.0167792
906.389	0.0166319
906.467	0.0166529
906.545	0.0165903
906.623	0.0167681
906.701	0.0167319
906.780	0.0165597
906.858	0.0168800
906.936	0.0167794
907.014	0.0165079
907.092	0.0167923
907.170	0.0167361
907.248	0.0166610
907.326	0.0168017
907.405	0.0168173
907.483	0.0166312
907.561	0.0168895
907.639	0.0168651
907.717	0.0168130
907.795	0.0168275
907.873	0.0169466
907.951	0.0167783
908.030	0.0167211
908.108	0.0169143
908.186	0.0167274
908.264	0.0170954
908.342	0.0168233
908.420	0.0168073
908.498	0.0168988
908.576	0.0169117
908.655	0.0167125
908.733	0.0168792
908.811	0.0168458
908.889	0.0168572
908.967	0.0167873
909.045	0.0168191
909.123	0.0169192
909.201	0.0169303
909.280	0.0168659
909.358	0.0168800
909.436	0.0167360
909.514	0.0167138
909.592	0.0167808
909.670	0.0168087
909.748	0.0169061
909.826	0.0168420
909.905	0.0168792
909.983	0.0168530
910.061	0.0167719
910.139	0.0167730
910.217	0.0169646
910.295	0.0169567
910.373	0.0168580
910.451	0.0168870
910.530	0.0168970
910.608	0.0168213
910.686	0.0167638
910.764	0.0168607
910.842	0.0169517
910.920	0.0168349
910.998	0.0167324
911.076	0.0168528
911.155	0.0168801
911.233	0.0168867
911.311	0.0168430
911.389	0.0168005
911.467	0.0166991
911.545	0.0168000
911.623	0.0167972
911.701	0.0166913
911.780	0.0167805
911.858	0.0168751
911.936	0.0167056
912.014	0.0167550
912.092	0.0167520
912.170	0.0167439
912.248	0.0168659
912.326	0.0167940
912.405	0.0167815
912.483	0.0168147
912.561	0.0167974
912.639	0.0167573
912.717	0.0168153
912.795	0.0166872
912.873	0.0167195
912.951	0.0167877
913.030	0.0168266
913.108	0.0167786
913.186	0.0166284
913.264	0.0167163
913.342	0.0166833
913.420	0.0167642
913.498	0.0168781
913.576	0.0167395
913.655	0.0168367
913.733	0.0167815
913.811	0.0167478
913.889	0.0167822
913.967	0.0167756
914.045	0.0166847
914.123	0.0168489
914.201	0.0167619
914.280	0.0167406
914.358	0.0167313
914.436	0.0168770
914.514	0.0168282
914.592	0.0168587
914.670	0.0168876
914.748	0.0169668
914.826	0.0169765
914.905	0.0168777
914.983	0.0169833
915.061	0.0169216
915.139	0.0169827
915.217	0.0168973
915.295	0.0167702
915.373	0.0168716
915.451	0.0167876
915.530	0.0167000
915.608	0.0167830
915.686	0.0167690
915.764	0.0167087
915.842	0.0167866
915.920	0.0167286
915.998	0.0167018
916.076	0.0167549
916.155	0.0168201
916.233	0.0166895
916.311	0.0167406
916.389	0.0166998
916.467	0.0167125
916.545	0.0165968
916.623	0.0165565
916.701	0.0167804
916.780	0.0167096
916.858	0.0165670
916.936	0.0165691
917.014	0.0166530
917.092	0.0166888
917.170	0.0167456
917.248	0.0166171
917.326	0.0164643
917.405	0.0167469
917.483	0.0165546
917.561	0.0165700
917.639	0.0165292
917.717	0.0165833
917.795	0.0165011
917.873	0.0165226
917.951	0.0165022
918.030	0.0166367
918.108	0.0165903
918.186	0.0165776
918.264	0.0166210
918.342	0.0166657
918.420	0.0166315
918.498	0.0166119
918.576	0.0166248
918.655	0.0165472
918.733	0.0166698
918.811	0.0166956
918.889	0.0165977
918.967	0.0165729
919.045	0.0165952
919.123	0.0166724
919.201	0.0167392
919.280	0.0167159
919.358	0.0166833
919.436	0.0167605
919.514	0.0167139
919.592	0.0168656
919.670	0.0168533
919.748	0.0167001
919.826	0.0168523
919.905	0.0169331
919.983	0.0168497
920.061	0.0169046
920.139	0.0169322
920.217	0.0167906
920.295	0.0169533
920.373	0.0169910
920.451	0.0168576
920.530	0.0168752
920.608	0.0169121
920.686	0.0168542
920.764	0.0169343
920.842	0.0168971
920.920	0.0167931
920.998	0.0168329
921.076	0.0166491
921.155	0.0168469
921.233	0.0166710
921.311	0.0167502
921.389	0.0167867
921.467	0.0168915
921.545	0.0166653
921.623	0.0166911
921.701	0.0167327
921.780	0.0166631
921.858	0.0168088
921.936	0.0166802
922.014	0.0167178
922.092	0.0166217
922.170	0.0166061
922.248	0.0166280
922.326	0.0166943
922.405	0.0167195
922.483	0.0166763
922.561	0.0165817
922.639	0.0165274
922.717	0.0166407
922.795	0.0164987
922.873	0.0166730
922.951	0.0166958
923.030	0.0165170
923.108	0.0166105
923.186	0.0166096
923.264	0.0165955
923.342	0.0166098
923.420	0.0165834
923.498	0.0165342
923.576	0.0164858
923.655	0.0166576
923.733	0.0167212
923.811	0.0166219
923.889	0.0166149
923.967	0.0166808
924.045	0.0165490
924.123	0.0167204
924.201	0.0166308
924.280	0.0167004
924.358	0.0166733
924.436	0.0167193
924.514	0.0167810
924.592	0.0167351
924.670	0.0166348
924.748	0.0168000
924.826	0.0167486
924.905	0.0167043
924.983	0.0166438
925.061	0.0167577
925.139	0.0167898
925.217	0.0166366
925.295	0.0165933
925.373	0.0167631
925.451	0.0169143
925.530	0.0167324
925.608	0.0165571
925.686	0.0165258
925.764	0.0167799
925.842	0.0166587
925.920	0.0166261
925.998	0.0167046
926.076	0.0166754
926.155	0.0166683
926.233	0.0168123
926.311	0.0166413
926.389	0.0167950
926.467	0.0168869
926.545	0.0167166
926.623	0.0166833
926.701	0.0168320
926.780	0.0166138
926.858	0.0167625
926.936	0.0166963
927.014	0.0165635
927.092	0.0166748
927.170	0.0165429
927.248	0.0166734
927.326	0.0166820
927.405	0.0168552
927.483	0.0167110
927.561	0.0165857
927.639	0.0166934
927.717	0.0167355
927.795	0.0167582
927.873	0.0166489
927.951	0.0165195
928.030	0.0166529
928.108	0.0167652
928.186	0.0167725
928.264	0.0167297
928.342	0.0167359
928.420	0.0167079
928.498	0.0168447
928.576	0.0169346
928.655	0.0167668
928.733	0.0168459
928.811	0.0166766
928.889	0.0167712
928.967	0.0169096
929.045	0.0168240
929.123	0.0170039
929.201	0.0167978
929.280	0.0169021
929.358	0.0168193
929.436	0.0169104
929.514	0.0168182
929.592	0.0168053
929.670	0.0168277
929.748	0.0168295
929.826	0.0167870
929.905	0.0167914
929.983	0.0168524
930.061	0.0166689
930.139	0.0168752
930.217	0.0168586
930.295	0.0168617
930.373	0.0167050
930.451	0.0167622
930.530	0.0167741
930.608	0.0167732
930.686	0.0168217
930.764	0.0167815
930.842	0.0166962
930.920	0.0166905
930.998	0.0167564
931.076	0.0168763
931.155	0.0167738
931.233	0.0168587
931.311	0.0167827
931.389	0.0168221
931.467	0.0169067
931.545	0.0168089
931.623	0.0167902
931.701	0.0168655
931.780	0.0168547
931.858	0.0166138
931.936	0.0168465
932.014	0.0167770
932.092	0.0166432
932.170	0.0168599
932.248	0.0169189
932.326	0.0167889
932.405	0.0167764
932.483	0.0169437
932.561	0.0167992
932.639	0.0166704
932.717	0.0168647
932.795	0.0168398
932.873	0.0169280
932.951	0.0169297
933.030	0.0167978
933.108	0.0168707
933.186	0.0168117
933.264	0.0167390
933.342	0.0168213
933.420	0.0168174
933.498	0.0168218
933.576	0.0167960
933.655	0.0166901
933.733	0.0168421
933.811	0.0168014
933.889	0.0166942
933.967	0.0166972
934.045	0.0167442
934.123	0.0166649
934.201	0.0168194
934.280	0.0168642
934.358	0.0168576
934.436	0.0168069
934.514	0.0168500
934.592	0.0169048
934.670	0.0169114
934.748	0.0167520
934.826	0.0168191
934.905	0.0169498
934.983	0.0168648
935.061	0.0169319
935.139	0.0167548
935.217	0.0167757
935.295	0.0168569
935.373	0.0168697
935.451	0.0169708
935.530	0.0167454
935.608	0.0168504
935.686	0.0168743
935.764	0.0166685
935.842	0.0168242
935.920	0.0168290
935.998	0.0168148
936.076	0.0167017
936.155	0.0167664
936.233	0.0168452
936.311	0.0167942
936.389	0.0168464
936.467	0.0167136
936.545	0.0167495
936.623	0.0167224
936.701	0.0166741
936.780	0.0167587
936.858	0.0167965
936.936	0.0167611
937.014	0.0166782
937.092	0.0167551
937.170	0.0167199
937.248	0.0166833
937.326	0.0166539
937.405	0.0167829
937.483	0.0166870
937.561	0.0167479
937.639	0.0165704
937.717	0.0166293
937.795	0.0167178
937.873	0.0166422
937.951	0.0166454
938.030	0.0166384
938.108	0.0165127
938.186	0.0165290
938.264	0.0166137
938.342	0.0166376
938.420	0.0166969
938.498	0.0168160
938.576	0.0166338
938.655	0.0166096
938.733	0.0167478
938.811	0.0167268
938.889	0.0166837
938.967	0.0168179
939.045	0.0167562
939.123	0.0168314
939.201	0.0169146
939.280	0.0166270
939.358	0.0169217
939.436	0.0168511
939.514	0.0167822
939.592	0.0167435
939.670	0.0167661
939.748	0.0168109
939.826	0.0168147
939.905	0.0167606
939.983	0.0167359
940.061	0.0168894
940.139	0.0168980
940.217	0.0169744
940.295	0.0168858
940.373	0.0169928
940.451	0.0169305
940.530	0.0170608
940.608	0.0168774
940.686	0.0169385
940.764	0.0169158
940.842	0.0169850
940.920	0.0169445
940.998	0.0169215
941.076	0.0168299
941.155	0.0170099
941.233	0.0167493
941.311	0.0169223
941.389	0.0169363
941.467	0.0170216
941.545	0.0167598
941.623	0.0169183
941.701	0.0168831
941.780	0.0167687
941.858	0.0168661
941.936	0.0168656
942.014	0.0167593
942.092	0.0167744
942.170	0.0168024
942.248	0.0169357
942.326	0.0168343
942.405	0.0169456
942.483	0.0169438
942.561	0.0168932
942.639	0.0169053
942.717	0.0168444
942.795	0.0168434
942.873	0.0168059
942.951	0.0168369
943.030	0.0170298
943.108	0.0168243
943.186	0.0168584
943.264	0.0169786
943.342	0.0167741
943.420	0.0168111
943.498	0.0169336
943.576	0.0168226
943.655	0.0168816
943.733	0.0168060
943.811	0.0168201
943.889	0.0167503
943.967	0.0167475
944.045	0.0167849
944.123	0.0167280
944.201	0.0168035
944.280	0.0166006
944.358	0.0167839
944.436	0.0165933
944.514	0.0167378
944.592	0.0166714
944.670	0.0167452
944.748	0.0166891
944.826	0.0164834
944.905	0.0166629
944.983	0.0168438
945.061	0.0166376
945.139	0.0166006
945.217	0.0166385
945.295	0.0166061
945.373	0.0165634
945.451	0.0168209
945.530	0.0166607
945.608	0.0166533
945.686	0.0165818
945.764	0.0166568
945.842	0.0166067
945.920	0.0166829
945.998	0.0166688
946.076	0.0164059
946.155	0.0167188
946.233	0.0165817
946.311	0.0165350
946.389	0.0165445
946.467	0.0166108
946.545	0.0165198
946.623	0.0163936
946.701	0.0164085
946.780	0.0165170
946.858	0.0165484
946.936	0.0164079
947.014	0.0163934
947.092	0.0164375
947.170	0.0164631
947.248	0.0164937
947.326	0.0163757
947.405	0.0164455
947.483	0.0164081
947.561	0.0164259
947.639	0.0165444
947.717	0.0164499
947.795	0.0165614
947.873	0.0164412
947.951	0.0164443
948.030	0.0164987
948.108	0.0164890
948.186	0.0166500
948.264	0.0164497
948.342	0.0164973
948.420	0.0165147
948.498	0.0163961
948.576	0.0165670
948.655	0.0164102
948.733	0.0165152
948.811	0.0165560
948.889	0.0165395
948.967	0.0166176
949.045	0.0165855
949.123	0.0167501
949.201	0.0166859
949.280	0.0166527
949.358	0.0167939
949.436	0.0167255
949.514	0.0168787
949.592	0.0167922
949.670	0.0168187
949.748	0.0169197
949.826	0.0168577
949.905	0.0169057
949.983	0.0167917
950.061	0.0169374
950.139	0.0168909
950.217	0.0168603
950.295	0.0170412
950.373	0.0170021
950.451	0.0169029
950.530	0.0169274
950.608	0.0169456
950.686	0.0169115
950.764	0.0169563
950.842	0.0169797
950.920	0.0169478
950.998	0.0169988
951.076	0.0171095
951.155	0.0170029
951.233	0.0167950
951.311	0.0170390
951.389	0.0169155
951.467	0.0169676
951.545	0.0168929
951.623	0.0168614
951.701	0.0170024
951.780	0.0168639
951.858	0.0169257
951.936	0.0169210
952.014	0.0168735
952.092	0.0168781
952.170	0.0168612
952.248	0.0168974
952.326	0.0169860
952.405	0.0168767
952.483	0.0169009
952.561	0.0169186
952.639	0.0168040
952.717	0.0167622
952.795	0.0169379
952.873	0.0169341
952.951	0.0166679
953.030	0.0167280
953.108	0.0167702
953.186	0.0167104
953.264	0.0168616
953.342	0.0167968
953.420	0.0169548
953.498	0.0167583
953.576	0.0167751
953.655	0.0168922
953.733	0.0167891
953.811	0.0166564
953.889	0.0166608
953.967	0.0166441
954.045	0.0167946
954.123	0.0167947
954.201	0.0168256
954.280	0.0169009
954.358	0.0167897
954.436	0.0168195
954.514	0.0168286
954.592	0.0167796
954.670	0.0167103
954.748	0.0167737
954.826	0.0169628
954.905	0.0167916
954.983	0.0168130
955.061	0.0166997
955.139	0.0167087
955.217	0.0167433
955.295	0.0167300
955.373	0.0167231
955.451	0.0167288
955.530	0.0167414
955.608	0.0167210
955.686	0.0167441
955.764	0.0167102
955.842	0.0168228
955.920	0.0166451
955.998	0.0167339
956.076	0.0165807
956.155	0.0166087
956.233	0.0167292
956.311	0.0165884
956.389	0.0166819
956.467	0.0166883
956.545	0.0165746
956.623	0.0165014
956.701	0.0165543
956.780	0.0167280
956.858	0.0167685
956.936	0.0165791
957.014	0.0166793
957.092	0.0167175
957.170	0.0167466
957.248	0.0167050
957.326	0.0165517
957.405	0.0168165
957.483	0.0166543
957.561	0.0166975
957.639	0.0166269
957.717	0.0167747
957.795	0.0167159
957.873	0.0166145
957.951	0.0167167
958.030	0.0168367
958.108	0.0167723
958.186	0.0167349
958.264	0.0168356
958.342	0.0168937
958.420	0.0166261
958.498	0.0168333
958.576	0.0167035
958.655	0.0167185
958.733	0.0168300
958.811	0.0167644
958.889	0.0168108
958.967	0.0168410
959.045	0.0170235
959.123	0.0168604
959.201	0.0168911
959.280	0.0167579
959.358	0.0169020
959.436	0.0168957
959.514	0.0167294
959.592	0.0168480
959.670	0.0168652
959.748	0.0168343
959.826	0.0167788
959.905	0.0167874
