05/17/2022	17:17:40	Ver.	4.1	UNKNOWN
Optical Delay	639.982744	Delta X		0.078125	Sweeps	1	Scan Rate	0/0
Coordinates	Axis 1	NaN	Axis 2	NaN	Axis 3	NaN	Axis 4	NaN	Axis 5	NaN	Axis 6	0.000000
TX Power	0.000000	RX Power	0.000000

639.983	0.0165562
640.061	0.0163942
640.139	0.0164141
640.217	0.0164286
640.295	0.0165214
640.373	0.0164600
640.451	0.0162469
640.530	0.0165031
640.608	0.0164165
640.686	0.0164022
640.764	0.0164705
640.842	0.0163843
640.920	0.0163152
640.998	0.0164143
641.076	0.0164079
641.155	0.0163750
641.233	0.0163681
641.311	0.0163976
641.389	0.0163554
641.467	0.0164177
641.545	0.0164108
641.623	0.0164728
641.701	0.0165074
641.780	0.0166083
641.858	0.0164733
641.936	0.0164823
642.014	0.0164277
642.092	0.0165157
642.170	0.0163578
642.248	0.0163439
642.326	0.0163851
642.405	0.0163069
642.483	0.0165589
642.561	0.0164621
642.639	0.0163906
642.717	0.0165191
642.795	0.0164330
642.873	0.0164723
642.951	0.0163680
643.030	0.0164520
643.108	0.0164313
643.186	0.0165237
643.264	0.0163890
643.342	0.0163704
643.420	0.0163945
643.498	0.0164719
643.576	0.0165121
643.655	0.0162775
643.733	0.0162866
643.811	0.0164089
643.889	0.0163670
643.967	0.0163623
644.045	0.0164198
644.123	0.0163469
644.201	0.0163855
644.280	0.0163334
644.358	0.0165490
644.436	0.0164045
644.514	0.0164533
644.592	0.0164765
644.670	0.0163600
644.748	0.0164600
644.826	0.0164835
644.905	0.0165511
644.983	0.0165616
645.061	0.0166143
645.139	0.0166472
645.217	0.0166255
645.295	0.0166232
645.373	0.0166221
645.451	0.0165682
645.530	0.0165689
645.608	0.0164906
645.686	0.0165734
645.764	0.0165115
645.842	0.0166223
645.920	0.0164758
645.998	0.0164095
646.076	0.0164275
646.155	0.0163966
646.233	0.0165166
646.311	0.0165493
646.389	0.0165565
646.467	0.0163892
646.545	0.0164218
646.623	0.0164713
646.701	0.0164107
646.780	0.0164302
646.858	0.0163949
646.936	0.0164326
647.014	0.0164109
647.092	0.0163677
647.170	0.0164015
647.248	0.0164443
647.326	0.0163940
647.405	0.0165214
647.483	0.0165440
647.561	0.0166238
647.639	0.0166580
647.717	0.0166128
647.795	0.0166150
647.873	0.0167584
647.951	0.0167322
648.030	0.0166840
648.108	0.0168652
648.186	0.0167444
648.264	0.0166902
648.342	0.0168400
648.420	0.0166665
648.498	0.0167706
648.576	0.0167451
648.655	0.0166798
648.733	0.0167286
648.811	0.0166749
648.889	0.0167866
648.967	0.0166508
649.045	0.0164990
649.123	0.0165230
649.201	0.0164796
649.280	0.0165873
649.358	0.0164469
649.436	0.0165862
649.514	0.0165936
649.592	0.0165482
649.670	0.0163824
649.748	0.0166729
649.826	0.0164514
649.905	0.0164240
649.983	0.0164816
650.061	0.0164944
650.139	0.0165015
650.217	0.0164975
650.295	0.0166064
650.373	0.0165453
650.451	0.0164639
650.530	0.0165933
650.608	0.0166138
650.686	0.0164460
650.764	0.0165567
650.842	0.0165348
650.920	0.0165543
650.998	0.0165164
651.076	0.0165757
651.155	0.0165847
651.233	0.0166006
651.311	0.0165917
651.389	0.0165124
651.467	0.0165479
651.545	0.0165503
651.623	0.0165108
651.701	0.0165154
651.780	0.0165446
651.858	0.0164404
651.936	0.0165878
652.014	0.0165711
652.092	0.0162769
652.170	0.0164703
652.248	0.0163649
652.326	0.0162431
652.405	0.0163878
652.483	0.0164481
652.561	0.0164418
652.639	0.0163461
652.717	0.0163903
652.795	0.0163888
652.873	0.0163696
652.951	0.0165022
653.030	0.0163986
653.108	0.0163474
653.186	0.0162453
653.264	0.0162672
653.342	0.0164773
653.420	0.0163808
653.498	0.0163153
653.576	0.0162871
653.655	0.0164201
653.733	0.0165131
653.811	0.0164610
653.889	0.0164919
653.967	0.0163670
654.045	0.0164993
654.123	0.0164184
654.201	0.0164178
654.280	0.0165264
654.358	0.0164845
654.436	0.0164239
654.514	0.0164993
654.592	0.0165073
654.670	0.0165145
654.748	0.0165459
654.826	0.0164938
654.905	0.0163835
654.983	0.0165089
655.061	0.0164461
655.139	0.0164197
655.217	0.0163821
655.295	0.0164095
655.373	0.0164639
655.451	0.0164912
655.530	0.0166335
655.608	0.0164162
655.686	0.0164735
655.764	0.0164620
655.842	0.0165950
655.920	0.0164423
655.998	0.0164701
656.076	0.0165858
656.155	0.0165742
656.233	0.0164445
656.311	0.0164517
656.389	0.0165853
656.467	0.0164560
656.545	0.0166320
656.623	0.0164452
656.701	0.0163478
656.780	0.0164481
656.858	0.0164302
656.936	0.0165159
657.014	0.0163841
657.092	0.0164799
657.170	0.0164773
657.248	0.0165543
657.326	0.0164278
657.405	0.0165526
657.483	0.0164600
657.561	0.0165727
657.639	0.0166041
657.717	0.0165688
657.795	0.0164924
657.873	0.0166058
657.951	0.0165379
658.030	0.0165434
658.108	0.0165320
658.186	0.0165585
658.264	0.0165277
658.342	0.0166090
658.420	0.0166649
658.498	0.0167207
658.576	0.0166433
658.655	0.0165735
658.733	0.0165443
658.811	0.0165838
658.889	0.0165689
658.967	0.0164839
659.045	0.0165073
659.123	0.0165955
659.201	0.0166027
659.280	0.0164551
659.358	0.0166676
659.436	0.0166003
659.514	0.0164975
659.592	0.0163524
659.670	0.0162698
659.748	0.0163426
659.826	0.0163244
659.905	0.0163354
659.983	0.0161912
660.061	0.0163737
660.139	0.0162188
660.217	0.0162116
660.295	0.0163181
660.373	0.0163392
660.451	0.0164275
660.530	0.0164375
660.608	0.0164107
660.686	0.0165775
660.764	0.0166206
660.842	0.0165833
660.920	0.0166591
660.998	0.0167944
661.076	0.0167728
661.155	0.0166594
661.233	0.0168674
661.311	0.0169043
661.389	0.0167948
661.467	0.0168043
661.545	0.0168162
661.623	0.0167570
661.701	0.0168511
661.780	0.0167844
661.858	0.0167893
661.936	0.0166647
662.014	0.0166254
662.092	0.0165050
662.170	0.0164504
662.248	0.0165000
662.326	0.0163572
662.405	0.0163624
662.483	0.0163612
662.561	0.0163090
662.639	0.0162164
662.717	0.0159911
662.795	0.0160980
662.873	0.0160908
662.951	0.0159250
663.030	0.0159806
663.108	0.0159026
663.186	0.0159541
663.264	0.0158862
663.342	0.0158223
663.420	0.0159242
663.498	0.0158535
663.576	0.0158786
663.655	0.0159541
663.733	0.0159841
663.811	0.0160947
663.889	0.0160529
663.967	0.0162226
664.045	0.0162907
664.123	0.0163780
664.201	0.0164147
664.280	0.0164277
664.358	0.0166118
664.436	0.0166207
664.514	0.0167589
664.592	0.0168102
664.670	0.0169533
664.748	0.0167303
664.826	0.0169125
664.905	0.0169556
664.983	0.0169764
665.061	0.0171555
665.139	0.0172863
665.217	0.0172124
665.295	0.0173595
665.373	0.0172261
665.451	0.0173124
665.530	0.0172984
665.608	0.0173045
665.686	0.0173112
665.764	0.0172684
665.842	0.0171275
665.920	0.0171101
665.998	0.0171828
666.076	0.0172092
666.155	0.0171420
666.233	0.0169002
666.311	0.0168581
666.389	0.0167371
666.467	0.0166888
666.545	0.0165543
666.623	0.0164243
666.701	0.0163911
666.780	0.0162751
666.858	0.0161916
666.936	0.0161033
667.014	0.0160155
667.092	0.0158476
667.170	0.0159100
667.248	0.0157786
667.326	0.0157227
667.405	0.0156750
667.483	0.0155600
667.561	0.0156699
667.639	0.0157357
667.717	0.0156781
667.795	0.0157775
667.873	0.0157776
667.951	0.0158458
668.030	0.0157872
668.108	0.0159579
668.186	0.0159642
668.264	0.0160024
668.342	0.0161796
668.420	0.0163403
668.498	0.0163013
668.576	0.0163780
668.655	0.0165441
668.733	0.0165608
668.811	0.0167077
668.889	0.0167547
668.967	0.0168263
669.045	0.0169125
669.123	0.0167698
669.201	0.0170058
669.280	0.0172681
669.358	0.0171897
669.436	0.0172296
669.514	0.0174106
669.592	0.0172573
669.670	0.0173802
669.748	0.0173057
669.826	0.0173801
669.905	0.0174057
669.983	0.0173681
670.061	0.0173291
670.139	0.0172852
670.217	0.0173803
670.295	0.0173421
670.373	0.0173962
670.451	0.0171755
670.530	0.0170213
670.608	0.0172158
670.686	0.0170835
670.764	0.0168594
670.842	0.0169469
670.920	0.0168111
670.998	0.0166889
671.076	0.0165363
671.155	0.0165712
671.233	0.0164902
671.311	0.0162638
671.389	0.0162099
671.467	0.0160627
671.545	0.0160857
671.623	0.0159934
671.701	0.0157750
671.780	0.0158522
671.858	0.0157309
671.936	0.0154747
672.014	0.0155389
672.092	0.0154515
672.170	0.0153046
672.248	0.0153043
672.326	0.0155039
672.405	0.0153787
672.483	0.0154721
672.561	0.0155726
672.639	0.0153740
672.717	0.0156528
672.795	0.0156094
672.873	0.0157269
672.951	0.0155933
673.030	0.0157052
673.108	0.0157765
673.186	0.0159623
673.264	0.0160146
673.342	0.0159070
673.420	0.0161980
673.498	0.0162865
673.576	0.0165314
673.655	0.0165107
673.733	0.0166348
673.811	0.0169007
673.889	0.0169049
673.967	0.0168468
674.045	0.0170380
674.123	0.0171174
674.201	0.0172069
674.280	0.0170926
674.358	0.0171940
674.436	0.0173455
674.514	0.0171921
674.592	0.0172806
674.670	0.0173311
674.748	0.0172738
674.826	0.0172752
674.905	0.0171646
674.983	0.0172028
675.061	0.0169934
675.139	0.0170363
675.217	0.0170278
675.295	0.0169779
675.373	0.0166717
675.451	0.0165918
675.530	0.0166183
675.608	0.0165158
675.686	0.0165093
675.764	0.0164223
675.842	0.0162608
675.920	0.0162949
675.998	0.0162870
676.076	0.0163210
676.155	0.0160589
676.233	0.0161529
676.311	0.0161048
676.389	0.0160494
676.467	0.0160844
676.545	0.0158086
676.623	0.0160233
676.701	0.0159460
676.780	0.0160130
676.858	0.0159227
676.936	0.0158257
677.014	0.0158665
677.092	0.0159088
677.170	0.0159555
677.248	0.0160405
677.326	0.0160813
677.405	0.0160115
677.483	0.0160553
677.561	0.0160757
677.639	0.0160641
677.717	0.0160987
677.795	0.0160836
677.873	0.0159397
677.951	0.0160507
678.030	0.0162264
678.108	0.0161371
678.186	0.0159216
678.264	0.0159284
678.342	0.0160390
678.420	0.0161254
678.498	0.0160509
678.576	0.0161078
678.655	0.0162058
678.733	0.0162224
678.811	0.0161961
678.889	0.0161952
678.967	0.0163275
679.045	0.0162610
679.123	0.0164177
679.201	0.0165090
679.280	0.0165523
679.358	0.0167378
679.436	0.0168362
679.514	0.0167613
679.592	0.0169985
679.670	0.0170441
679.748	0.0171224
679.826	0.0172875
679.905	0.0173616
679.983	0.0174603
680.061	0.0175278
680.139	0.0176202
680.217	0.0176756
680.295	0.0177357
680.373	0.0177393
680.451	0.0176842
680.530	0.0176317
680.608	0.0176911
680.686	0.0176700
680.764	0.0175833
680.842	0.0175555
680.920	0.0173827
680.998	0.0172073
681.076	0.0170467
681.155	0.0170446
681.233	0.0170420
681.311	0.0166717
681.389	0.0166734
681.467	0.0165652
681.545	0.0164698
681.623	0.0163376
681.701	0.0161922
681.780	0.0161388
681.858	0.0161962
681.936	0.0160802
682.014	0.0158695
682.092	0.0158703
682.170	0.0158367
682.248	0.0159425
682.326	0.0158022
682.405	0.0159386
682.483	0.0157694
682.561	0.0157882
682.639	0.0158829
682.717	0.0157835
682.795	0.0158244
682.873	0.0157897
682.951	0.0157198
683.030	0.0158605
683.108	0.0157162
683.186	0.0158664
683.264	0.0158549
683.342	0.0157777
683.420	0.0157350
683.498	0.0158418
683.576	0.0159380
683.655	0.0158579
683.733	0.0160053
683.811	0.0158717
683.889	0.0158833
683.967	0.0160072
684.045	0.0160883
684.123	0.0160216
684.201	0.0160928
684.280	0.0160229
684.358	0.0162115
684.436	0.0161334
684.514	0.0161523
684.592	0.0163734
684.670	0.0163896
684.748	0.0165697
684.826	0.0166344
684.905	0.0167197
684.983	0.0167193
685.061	0.0168420
685.139	0.0167403
685.217	0.0168870
685.295	0.0169091
685.373	0.0170663
685.451	0.0171829
685.530	0.0172856
685.608	0.0173248
685.686	0.0173083
685.764	0.0173937
685.842	0.0173405
685.920	0.0173807
685.998	0.0175834
686.076	0.0176834
686.155	0.0175414
686.233	0.0176344
686.311	0.0176574
686.389	0.0176831
686.467	0.0174297
686.545	0.0176473
686.623	0.0176256
686.701	0.0174379
686.780	0.0174910
686.858	0.0174883
686.936	0.0172228
687.014	0.0170932
687.092	0.0171125
687.170	0.0169057
687.248	0.0168858
687.326	0.0167840
687.405	0.0165694
687.483	0.0165402
687.561	0.0162196
687.639	0.0162394
687.717	0.0158773
687.795	0.0156915
687.873	0.0156686
687.951	0.0154499
688.030	0.0154913
688.108	0.0154089
688.186	0.0151474
688.264	0.0151869
688.342	0.0150642
688.420	0.0151082
688.498	0.0151414
688.576	0.0150366
688.655	0.0149909
688.733	0.0150150
688.811	0.0152182
688.889	0.0152098
688.967	0.0152893
689.045	0.0152829
689.123	0.0153566
689.201	0.0154332
689.280	0.0156717
689.358	0.0159017
689.436	0.0159927
689.514	0.0160075
689.592	0.0160829
689.670	0.0162679
689.748	0.0165347
689.826	0.0165813
689.905	0.0166777
689.983	0.0168490
690.061	0.0169382
690.139	0.0173225
690.217	0.0171778
690.295	0.0174141
690.373	0.0175681
690.451	0.0176788
690.530	0.0177639
690.608	0.0177897
690.686	0.0178392
690.764	0.0178592
690.842	0.0180383
690.920	0.0179427
690.998	0.0179573
691.076	0.0179589
691.155	0.0179254
691.233	0.0178072
691.311	0.0179211
691.389	0.0178686
691.467	0.0177620
691.545	0.0177132
691.623	0.0176697
691.701	0.0175321
691.780	0.0174877
691.858	0.0173623
691.936	0.0171280
692.014	0.0171201
692.092	0.0169996
692.170	0.0168304
692.248	0.0166837
692.326	0.0164231
692.405	0.0164777
692.483	0.0163035
692.561	0.0161718
692.639	0.0159910
692.717	0.0158458
692.795	0.0157513
692.873	0.0157668
692.951	0.0157612
693.030	0.0155869
693.108	0.0154794
693.186	0.0154765
693.264	0.0154028
693.342	0.0153227
693.420	0.0154234
693.498	0.0153892
693.576	0.0152473
693.655	0.0152644
693.733	0.0153003
693.811	0.0153517
693.889	0.0154548
693.967	0.0154467
694.045	0.0154383
694.123	0.0156109
694.201	0.0155230
694.280	0.0156754
694.358	0.0155334
694.436	0.0158038
694.514	0.0157698
694.592	0.0158796
694.670	0.0159115
694.748	0.0160386
694.826	0.0161109
694.905	0.0162070
694.983	0.0161186
695.061	0.0163216
695.139	0.0164042
695.217	0.0165532
695.295	0.0166702
695.373	0.0166799
695.451	0.0167444
695.530	0.0167751
695.608	0.0170094
695.686	0.0169320
695.764	0.0169818
695.842	0.0172301
695.920	0.0172256
695.998	0.0173042
696.076	0.0174441
696.155	0.0173833
696.233	0.0175153
696.311	0.0174415
696.389	0.0176141
696.467	0.0176081
696.545	0.0175808
696.623	0.0177126
696.701	0.0177425
696.780	0.0177789
696.858	0.0175817
696.936	0.0175450
697.014	0.0173880
697.092	0.0173457
697.170	0.0173237
697.248	0.0171708
697.326	0.0170946
697.405	0.0168833
697.483	0.0167694
697.561	0.0167429
697.639	0.0166803
697.717	0.0164890
697.795	0.0163321
697.873	0.0162033
697.951	0.0161897
698.030	0.0160481
698.108	0.0159913
698.186	0.0158525
698.264	0.0156703
698.342	0.0157095
698.420	0.0157443
698.498	0.0156928
698.576	0.0155750
698.655	0.0154977
698.733	0.0154058
698.811	0.0155864
698.889	0.0155978
698.967	0.0156130
699.045	0.0155299
699.123	0.0155982
699.201	0.0156915
699.280	0.0156905
699.358	0.0158529
699.436	0.0159973
699.514	0.0158009
699.592	0.0159962
699.670	0.0160429
699.748	0.0161600
699.826	0.0163353
699.905	0.0163863
699.983	0.0164154
700.061	0.0164941
700.139	0.0164458
700.217	0.0165485
700.295	0.0168127
700.373	0.0166842
700.451	0.0166888
700.530	0.0166000
700.608	0.0167072
700.686	0.0168088
700.764	0.0167502
700.842	0.0169355
700.920	0.0168373
700.998	0.0169440
701.076	0.0170027
701.155	0.0169128
701.233	0.0171059
701.311	0.0169818
701.389	0.0168597
701.467	0.0168757
701.545	0.0168741
701.623	0.0169137
701.701	0.0168597
701.780	0.0167383
701.858	0.0168725
701.936	0.0169378
702.014	0.0167719
702.092	0.0168925
702.170	0.0167683
702.248	0.0168320
702.326	0.0166737
702.405	0.0166764
702.483	0.0167265
702.561	0.0167821
702.639	0.0166515
702.717	0.0166904
702.795	0.0168441
702.873	0.0167231
702.951	0.0168268
703.030	0.0168906
703.108	0.0168073
703.186	0.0168494
703.264	0.0168254
703.342	0.0167536
703.420	0.0168311
703.498	0.0168021
703.576	0.0167641
703.655	0.0167242
703.733	0.0165955
703.811	0.0164620
703.889	0.0165308
703.967	0.0164211
704.045	0.0162677
704.123	0.0162069
704.201	0.0161719
704.280	0.0160355
704.358	0.0159648
704.436	0.0160775
704.514	0.0161443
704.592	0.0161172
704.670	0.0160718
704.748	0.0159553
704.826	0.0161062
704.905	0.0160621
704.983	0.0160207
705.061	0.0160915
705.139	0.0161878
705.217	0.0162650
705.295	0.0162521
705.373	0.0162459
705.451	0.0162897
705.530	0.0162411
705.608	0.0163734
705.686	0.0164190
705.764	0.0164070
705.842	0.0164363
705.920	0.0163941
705.998	0.0164169
706.076	0.0165028
706.155	0.0165165
706.233	0.0165527
706.311	0.0164783
706.389	0.0165484
706.467	0.0166317
706.545	0.0167007
706.623	0.0165436
706.701	0.0166891
706.780	0.0167729
706.858	0.0166681
706.936	0.0167114
707.014	0.0167756
707.092	0.0167359
707.170	0.0167533
707.248	0.0167528
707.326	0.0167172
707.405	0.0167287
707.483	0.0168392
707.561	0.0166740
707.639	0.0167321
707.717	0.0167161
707.795	0.0166728
707.873	0.0166277
707.951	0.0166846
708.030	0.0168273
708.108	0.0166046
708.186	0.0165871
708.264	0.0167798
708.342	0.0167470
708.420	0.0166145
708.498	0.0167751
708.576	0.0165278
708.655	0.0164399
708.733	0.0165667
708.811	0.0164247
708.889	0.0164363
708.967	0.0164269
709.045	0.0163332
709.123	0.0163930
709.201	0.0163470
709.280	0.0164648
709.358	0.0163291
709.436	0.0163828
709.514	0.0164386
709.592	0.0164960
709.670	0.0164359
709.748	0.0164383
709.826	0.0165103
709.905	0.0165445
709.983	0.0167583
710.061	0.0168592
710.139	0.0169602
710.217	0.0168945
710.295	0.0170777
710.373	0.0169575
710.451	0.0170239
710.530	0.0170505
710.608	0.0171243
710.686	0.0171236
710.764	0.0170047
710.842	0.0171072
710.920	0.0171616
710.998	0.0171449
711.076	0.0171014
711.155	0.0170004
711.233	0.0170653
711.311	0.0169527
711.389	0.0169147
711.467	0.0169514
711.545	0.0169447
711.623	0.0166551
711.701	0.0166716
711.780	0.0167299
711.858	0.0168598
711.936	0.0166762
712.014	0.0166086
712.092	0.0165536
712.170	0.0164222
712.248	0.0164099
712.326	0.0163479
712.405	0.0163485
712.483	0.0162236
712.561	0.0161606
712.639	0.0161932
712.717	0.0161284
712.795	0.0158299
712.873	0.0159940
712.951	0.0158114
713.030	0.0158308
713.108	0.0159371
713.186	0.0160451
713.264	0.0158971
713.342	0.0159963
713.420	0.0159216
713.498	0.0159282
713.576	0.0158727
713.655	0.0159510
713.733	0.0160084
713.811	0.0161629
713.889	0.0161604
713.967	0.0161035
714.045	0.0161723
714.123	0.0161801
714.201	0.0164264
714.280	0.0164291
714.358	0.0166344
714.436	0.0166347
714.514	0.0167444
714.592	0.0167171
714.670	0.0169100
714.748	0.0169698
714.826	0.0171140
714.905	0.0172245
714.983	0.0171293
715.061	0.0172002
715.139	0.0172289
715.217	0.0172158
715.295	0.0170605
715.373	0.0171149
715.451	0.0171038
715.530	0.0169998
715.608	0.0171254
715.686	0.0169670
715.764	0.0170125
715.842	0.0168902
715.920	0.0167302
715.998	0.0166225
716.076	0.0166122
716.155	0.0167389
716.233	0.0166811
716.311	0.0165561
716.389	0.0165115
716.467	0.0164663
716.545	0.0164508
716.623	0.0162080
716.701	0.0163636
716.780	0.0164120
716.858	0.0163196
716.936	0.0163155
717.014	0.0163119
717.092	0.0163169
717.170	0.0163580
717.248	0.0162614
717.326	0.0163498
717.405	0.0163169
717.483	0.0162209
717.561	0.0163463
717.639	0.0162800
717.717	0.0162859
717.795	0.0163022
717.873	0.0162212
717.951	0.0161362
718.030	0.0162308
718.108	0.0161717
718.186	0.0160670
718.264	0.0158974
718.342	0.0160690
718.420	0.0160698
718.498	0.0158904
718.576	0.0159738
718.655	0.0159702
718.733	0.0159643
718.811	0.0160104
718.889	0.0159927
718.967	0.0160393
719.045	0.0159092
719.123	0.0161330
719.201	0.0160935
719.280	0.0161773
719.358	0.0160917
719.436	0.0161085
719.514	0.0162757
719.592	0.0163222
719.670	0.0163058
719.748	0.0163614
719.826	0.0163862
719.905	0.0164291
719.983	0.0165785
720.061	0.0164153
720.139	0.0167227
720.217	0.0166833
720.295	0.0167882
720.373	0.0167794
720.451	0.0169975
720.530	0.0168208
720.608	0.0168143
720.686	0.0170185
720.764	0.0171760
720.842	0.0169445
720.920	0.0169246
720.998	0.0169698
721.076	0.0170211
721.155	0.0170115
721.233	0.0170233
721.311	0.0170518
721.389	0.0171136
721.467	0.0169955
721.545	0.0171072
721.623	0.0171474
721.701	0.0171485
721.780	0.0170731
721.858	0.0170943
721.936	0.0170207
722.014	0.0169912
722.092	0.0170914
722.170	0.0169814
722.248	0.0170249
722.326	0.0170525
722.405	0.0170528
722.483	0.0169213
722.561	0.0168723
722.639	0.0169408
722.717	0.0167918
722.795	0.0168265
722.873	0.0166861
722.951	0.0166972
723.030	0.0165677
723.108	0.0165895
723.186	0.0165210
723.264	0.0163718
723.342	0.0163300
723.420	0.0162408
723.498	0.0162347
723.576	0.0163477
723.655	0.0162789
723.733	0.0161172
723.811	0.0160533
723.889	0.0160429
723.967	0.0159411
724.045	0.0159758
724.123	0.0158739
724.201	0.0158863
724.280	0.0158173
724.358	0.0160263
724.436	0.0159447
724.514	0.0159062
724.592	0.0159731
724.670	0.0162109
724.748	0.0160824
724.826	0.0160744
724.905	0.0163725
724.983	0.0162862
725.061	0.0163898
725.139	0.0164761
725.217	0.0167322
725.295	0.0167714
725.373	0.0165652
725.451	0.0168497
725.530	0.0170296
725.608	0.0169590
725.686	0.0170056
725.764	0.0168911
725.842	0.0170239
725.920	0.0169171
725.998	0.0170377
726.076	0.0171804
726.155	0.0169604
726.233	0.0169450
726.311	0.0170807
726.389	0.0169470
726.467	0.0168158
726.545	0.0169581
726.623	0.0167356
726.701	0.0168413
726.780	0.0166770
726.858	0.0167156
726.936	0.0166612
727.014	0.0167966
727.092	0.0165376
727.170	0.0165720
727.248	0.0165058
727.326	0.0163549
727.405	0.0164149
727.483	0.0164726
727.561	0.0164642
727.639	0.0163495
727.717	0.0163356
727.795	0.0163752
727.873	0.0163008
727.951	0.0164027
728.030	0.0164883
728.108	0.0162727
728.186	0.0164503
728.264	0.0165883
728.342	0.0165214
728.420	0.0166631
728.498	0.0165944
728.576	0.0164346
728.655	0.0166843
728.733	0.0165645
728.811	0.0166832
728.889	0.0166785
728.967	0.0166279
729.045	0.0166532
729.123	0.0166267
729.201	0.0167401
729.280	0.0168237
729.358	0.0166784
729.436	0.0165208
729.514	0.0165575
729.592	0.0165719
729.670	0.0165384
729.748	0.0166243
729.826	0.0165593
729.905	0.0164307
729.983	0.0165331
730.061	0.0166782
730.139	0.0164775
730.217	0.0165510
730.295	0.0164124
730.373	0.0164897
730.451	0.0165387
730.530	0.0164625
730.608	0.0164463
730.686	0.0162596
730.764	0.0164251
730.842	0.0163493
730.920	0.0163393
730.998	0.0162442
731.076	0.0162581
731.155	0.0163642
731.233	0.0164032
731.311	0.0164754
731.389	0.0163750
731.467	0.0163100
731.545	0.0163191
731.623	0.0165722
731.701	0.0163780
731.780	0.0163115
731.858	0.0163396
731.936	0.0163477
732.014	0.0163454
732.092	0.0164935
732.170	0.0165003
732.248	0.0163430
732.326	0.0163951
732.405	0.0165577
732.483	0.0164351
732.561	0.0164121
732.639	0.0166340
732.717	0.0165517
732.795	0.0165801
732.873	0.0166413
732.951	0.0166127
733.030	0.0166579
733.108	0.0166601
733.186	0.0165896
733.264	0.0165491
733.342	0.0166623
733.420	0.0165540
733.498	0.0164613
733.576	0.0164645
733.655	0.0164777
733.733	0.0164468
733.811	0.0164605
733.889	0.0164136
733.967	0.0163914
734.045	0.0164572
734.123	0.0164735
734.201	0.0165255
734.280	0.0164074
734.358	0.0163531
734.436	0.0164145
734.514	0.0164682
734.592	0.0164320
734.670	0.0165502
734.748	0.0165887
734.826	0.0165522
734.905	0.0165975
734.983	0.0165938
735.061	0.0167510
735.139	0.0167417
735.217	0.0168127
735.295	0.0167995
735.373	0.0168530
735.451	0.0167548
735.530	0.0168867
735.608	0.0168207
735.686	0.0167575
735.764	0.0167530
735.842	0.0167137
735.920	0.0166369
735.998	0.0167020
736.076	0.0165488
736.155	0.0165474
736.233	0.0165369
736.311	0.0165504
736.389	0.0165852
736.467	0.0163725
736.545	0.0163951
736.623	0.0165423
736.701	0.0164524
736.780	0.0162701
736.858	0.0164248
736.936	0.0163178
737.014	0.0163228
737.092	0.0162854
737.170	0.0164441
737.248	0.0164775
737.326	0.0162871
737.405	0.0164058
737.483	0.0164169
737.561	0.0163831
737.639	0.0163834
737.717	0.0166098
737.795	0.0165755
737.873	0.0164729
737.951	0.0165837
738.030	0.0166246
738.108	0.0167229
738.186	0.0165425
738.264	0.0166853
738.342	0.0167274
738.420	0.0167077
738.498	0.0168837
738.576	0.0168257
738.655	0.0168327
738.733	0.0166296
738.811	0.0167783
738.889	0.0166168
738.967	0.0165211
739.045	0.0166508
739.123	0.0165913
739.201	0.0167205
739.280	0.0166931
739.358	0.0165068
739.436	0.0165308
739.514	0.0165574
739.592	0.0163557
739.670	0.0165578
739.748	0.0165781
739.826	0.0164916
739.905	0.0163349
739.983	0.0164936
740.061	0.0164534
740.139	0.0163216
740.217	0.0164954
740.295	0.0163889
740.373	0.0163583
740.451	0.0163940
740.530	0.0163567
740.608	0.0163937
740.686	0.0163073
740.764	0.0163361
740.842	0.0162139
740.920	0.0162760
740.998	0.0164799
741.076	0.0164066
741.155	0.0163810
741.233	0.0164787
741.311	0.0164753
741.389	0.0165225
741.467	0.0165435
741.545	0.0165031
741.623	0.0165900
741.701	0.0167428
741.780	0.0167037
741.858	0.0166554
741.936	0.0166551
742.014	0.0166339
742.092	0.0165427
742.170	0.0166713
742.248	0.0166615
742.326	0.0164595
742.405	0.0164678
742.483	0.0166120
742.561	0.0166594
742.639	0.0165669
742.717	0.0165142
742.795	0.0165589
742.873	0.0166798
742.951	0.0165009
743.030	0.0164847
743.108	0.0164885
743.186	0.0164557
743.264	0.0164871
743.342	0.0164764
743.420	0.0165886
743.498	0.0166784
743.576	0.0166245
743.655	0.0166122
743.733	0.0166584
743.811	0.0166282
743.889	0.0167014
743.967	0.0166389
744.045	0.0166735
744.123	0.0165927
744.201	0.0166275
744.280	0.0164893
744.358	0.0164781
744.436	0.0162503
744.514	0.0162921
744.592	0.0163454
744.670	0.0164525
744.748	0.0162762
744.826	0.0161771
744.905	0.0162487
744.983	0.0161542
745.061	0.0164069
745.139	0.0162549
745.217	0.0162715
745.295	0.0163184
745.373	0.0163795
745.451	0.0162840
745.530	0.0164341
745.608	0.0164461
745.686	0.0164281
745.764	0.0164989
745.842	0.0164671
745.920	0.0166443
745.998	0.0165070
746.076	0.0164413
746.155	0.0164874
746.233	0.0165577
746.311	0.0165611
746.389	0.0164808
746.467	0.0164893
746.545	0.0162167
746.623	0.0165216
746.701	0.0164139
746.780	0.0162503
746.858	0.0162196
746.936	0.0161566
747.014	0.0162964
747.092	0.0162076
747.170	0.0160871
747.248	0.0160247
747.326	0.0160590
747.405	0.0160550
747.483	0.0161887
747.561	0.0160100
747.639	0.0160958
747.717	0.0162981
747.795	0.0164175
747.873	0.0162436
747.951	0.0163900
748.030	0.0163988
748.108	0.0163007
748.186	0.0164928
748.264	0.0165367
748.342	0.0165507
748.420	0.0168158
748.498	0.0168610
748.576	0.0167461
748.655	0.0169604
748.733	0.0169878
748.811	0.0169080
748.889	0.0169044
748.967	0.0169310
749.045	0.0171029
749.123	0.0170401
749.201	0.0169123
749.280	0.0170910
749.358	0.0170158
749.436	0.0169521
749.514	0.0169704
749.592	0.0169285
749.670	0.0168983
749.748	0.0168726
749.826	0.0168816
749.905	0.0167426
749.983	0.0166862
750.061	0.0168102
750.139	0.0167452
750.217	0.0167040
750.295	0.0167274
750.373	0.0164937
750.451	0.0166557
750.530	0.0166735
750.608	0.0168692
750.686	0.0167254
750.764	0.0166217
750.842	0.0167368
750.920	0.0167605
750.998	0.0168633
751.076	0.0168303
751.155	0.0167741
751.233	0.0168024
751.311	0.0165696
751.389	0.0166448
751.467	0.0169618
751.545	0.0168747
751.623	0.0167463
751.701	0.0167513
751.780	0.0166547
751.858	0.0167683
751.936	0.0166968
752.014	0.0165446
752.092	0.0165276
752.170	0.0166345
752.248	0.0166059
752.326	0.0165278
752.405	0.0164661
752.483	0.0163544
752.561	0.0163201
752.639	0.0163328
752.717	0.0164271
752.795	0.0162897
752.873	0.0164792
752.951	0.0164423
753.030	0.0161877
753.108	0.0163164
753.186	0.0164259
753.264	0.0163490
753.342	0.0164713
753.420	0.0163403
753.498	0.0164360
753.576	0.0165118
753.655	0.0165430
753.733	0.0165433
753.811	0.0166193
753.889	0.0164853
753.967	0.0164851
754.045	0.0165313
754.123	0.0164204
754.201	0.0165108
754.280	0.0166650
754.358	0.0163383
754.436	0.0163987
754.514	0.0164494
754.592	0.0163853
754.670	0.0163158
754.748	0.0162754
754.826	0.0162273
754.905	0.0161123
754.983	0.0163309
755.061	0.0161539
755.139	0.0161929
755.217	0.0161922
755.295	0.0160307
755.373	0.0160593
755.451	0.0161591
755.530	0.0160644
755.608	0.0159510
755.686	0.0160700
755.764	0.0162810
755.842	0.0162868
755.920	0.0160315
755.998	0.0161934
756.076	0.0163442
756.155	0.0162670
756.233	0.0163528
756.311	0.0163409
756.389	0.0163725
756.467	0.0164841
756.545	0.0165015
756.623	0.0164349
756.701	0.0162807
756.780	0.0165363
756.858	0.0164427
756.936	0.0164912
757.014	0.0163604
757.092	0.0164493
757.170	0.0163311
757.248	0.0162344
757.326	0.0162704
757.405	0.0162248
757.483	0.0163681
757.561	0.0162297
757.639	0.0161919
757.717	0.0161132
757.795	0.0161896
757.873	0.0161497
757.951	0.0160667
758.030	0.0161983
758.108	0.0161394
758.186	0.0162889
758.264	0.0164062
758.342	0.0162480
758.420	0.0160773
758.498	0.0161973
758.576	0.0162746
758.655	0.0162904
758.733	0.0162483
758.811	0.0162219
758.889	0.0164973
758.967	0.0165354
759.045	0.0163127
759.123	0.0164429
759.201	0.0164701
759.280	0.0164258
759.358	0.0165584
759.436	0.0164307
759.514	0.0164926
759.592	0.0164386
759.670	0.0164156
759.748	0.0165155
759.826	0.0163586
759.905	0.0164490
759.983	0.0163602
760.061	0.0165295
760.139	0.0165655
760.217	0.0164362
760.295	0.0162755
760.373	0.0164033
760.451	0.0164115
760.530	0.0164336
760.608	0.0164939
760.686	0.0163857
760.764	0.0165499
760.842	0.0164478
760.920	0.0165422
760.998	0.0164975
761.076	0.0165047
761.155	0.0166805
761.233	0.0164454
761.311	0.0165855
761.389	0.0166496
761.467	0.0166006
761.545	0.0166856
761.623	0.0164770
761.701	0.0168171
761.780	0.0167220
761.858	0.0167302
761.936	0.0165980
762.014	0.0167218
762.092	0.0168040
762.170	0.0166904
762.248	0.0167487
762.326	0.0166011
762.405	0.0167146
762.483	0.0166391
762.561	0.0166369
762.639	0.0166172
762.717	0.0165982
762.795	0.0165123
762.873	0.0165566
762.951	0.0164736
763.030	0.0165829
763.108	0.0164211
763.186	0.0164326
763.264	0.0164725
763.342	0.0164263
763.420	0.0164909
763.498	0.0165150
763.576	0.0164516
763.655	0.0163517
763.733	0.0165948
763.811	0.0164462
763.889	0.0165392
763.967	0.0165119
764.045	0.0166346
764.123	0.0165698
764.201	0.0165696
764.280	0.0165204
764.358	0.0165433
764.436	0.0164538
764.514	0.0165274
764.592	0.0164643
764.670	0.0164910
764.748	0.0164079
764.826	0.0162909
764.905	0.0164220
764.983	0.0164693
765.061	0.0163258
765.139	0.0163105
765.217	0.0164283
765.295	0.0163429
765.373	0.0164381
765.451	0.0163854
765.530	0.0164473
765.608	0.0164983
765.686	0.0163300
765.764	0.0164314
765.842	0.0163544
765.920	0.0164048
765.998	0.0165311
766.076	0.0164906
766.155	0.0164599
766.233	0.0165446
766.311	0.0163744
766.389	0.0164534
766.467	0.0165952
766.545	0.0166468
766.623	0.0166528
766.701	0.0167920
766.780	0.0166720
766.858	0.0166447
766.936	0.0166708
767.014	0.0167112
767.092	0.0166736
767.170	0.0166202
767.248	0.0166125
767.326	0.0166600
767.405	0.0167316
767.483	0.0167226
767.561	0.0164796
767.639	0.0165516
767.717	0.0166444
767.795	0.0165682
767.873	0.0165474
767.951	0.0165221
768.030	0.0164083
768.108	0.0164696
768.186	0.0164380
768.264	0.0164059
768.342	0.0163431
768.420	0.0164796
768.498	0.0164061
768.576	0.0164207
768.655	0.0163554
768.733	0.0163760
768.811	0.0162432
768.889	0.0163335
768.967	0.0162843
769.045	0.0162488
769.123	0.0162217
769.201	0.0162777
769.280	0.0162239
769.358	0.0162039
769.436	0.0163517
769.514	0.0164713
769.592	0.0164155
769.670	0.0163821
769.748	0.0163804
769.826	0.0165607
769.905	0.0165688
769.983	0.0166792
770.061	0.0166350
770.139	0.0166798
770.217	0.0167132
770.295	0.0165640
770.373	0.0166338
770.451	0.0166929
770.530	0.0165720
770.608	0.0166615
770.686	0.0167056
770.764	0.0167501
770.842	0.0166614
770.920	0.0166971
770.998	0.0166898
771.076	0.0167938
771.155	0.0167598
771.233	0.0168333
771.311	0.0168660
771.389	0.0169426
771.467	0.0168813
771.545	0.0168837
771.623	0.0171227
771.701	0.0168690
771.780	0.0167207
771.858	0.0167355
771.936	0.0166802
772.014	0.0166533
772.092	0.0165893
772.170	0.0166808
772.248	0.0165867
772.326	0.0166398
772.405	0.0165571
772.483	0.0165273
772.561	0.0165417
772.639	0.0164204
772.717	0.0164539
772.795	0.0165074
772.873	0.0163188
772.951	0.0164841
773.030	0.0163498
773.108	0.0162974
773.186	0.0164717
773.264	0.0162440
773.342	0.0163715
773.420	0.0163603
773.498	0.0163060
773.576	0.0163641
773.655	0.0163560
773.733	0.0162598
773.811	0.0162799
773.889	0.0164505
773.967	0.0163500
774.045	0.0163155
774.123	0.0164901
774.201	0.0163361
774.280	0.0164939
774.358	0.0164368
774.436	0.0163954
774.514	0.0164323
774.592	0.0163650
774.670	0.0163897
774.748	0.0164984
774.826	0.0164311
774.905	0.0164621
774.983	0.0164942
775.061	0.0165173
775.139	0.0165266
775.217	0.0164240
775.295	0.0165567
775.373	0.0164616
775.451	0.0163088
775.530	0.0164904
775.608	0.0165552
775.686	0.0165477
775.764	0.0165180
775.842	0.0164538
775.920	0.0164756
775.998	0.0164173
776.076	0.0163034
776.155	0.0165735
776.233	0.0165279
776.311	0.0164629
776.389	0.0166113
776.467	0.0167123
776.545	0.0166742
776.623	0.0166215
776.701	0.0167249
776.780	0.0165099
776.858	0.0166828
776.936	0.0166940
777.014	0.0165953
777.092	0.0167316
777.170	0.0169135
777.248	0.0166565
777.326	0.0166730
777.405	0.0166941
777.483	0.0166660
777.561	0.0166346
777.639	0.0165240
777.717	0.0165810
777.795	0.0165161
777.873	0.0165043
777.951	0.0164669
778.030	0.0165014
778.108	0.0166230
778.186	0.0163238
778.264	0.0163725
778.342	0.0164944
778.420	0.0163540
778.498	0.0163735
778.576	0.0163029
778.655	0.0162677
778.733	0.0164349
778.811	0.0163908
778.889	0.0163308
778.967	0.0162924
779.045	0.0162754
779.123	0.0162917
779.201	0.0162947
779.280	0.0163737
779.358	0.0163151
779.436	0.0163020
779.514	0.0163581
779.592	0.0163926
779.670	0.0165797
779.748	0.0163948
779.826	0.0164066
779.905	0.0164459
779.983	0.0163557
780.061	0.0163319
780.139	0.0163407
780.217	0.0164214
780.295	0.0163840
780.373	0.0164153
780.451	0.0164394
780.530	0.0165624
780.608	0.0164412
780.686	0.0163062
780.764	0.0164079
780.842	0.0163429
780.920	0.0164114
780.998	0.0163685
781.076	0.0163945
781.155	0.0164667
781.233	0.0166090
781.311	0.0164530
781.389	0.0164715
781.467	0.0166190
781.545	0.0165458
781.623	0.0165771
781.701	0.0166445
781.780	0.0167369
781.858	0.0167607
781.936	0.0167761
782.014	0.0167984
782.092	0.0168787
782.170	0.0170183
782.248	0.0168349
782.326	0.0170490
782.405	0.0170441
782.483	0.0171644
782.561	0.0170247
782.639	0.0169233
782.717	0.0170074
782.795	0.0170396
782.873	0.0170444
782.951	0.0169376
783.030	0.0170064
783.108	0.0171933
783.186	0.0170010
783.264	0.0168478
783.342	0.0169505
783.420	0.0168645
783.498	0.0168262
783.576	0.0167342
783.655	0.0167943
783.733	0.0167174
783.811	0.0165147
783.889	0.0165968
783.967	0.0164738
784.045	0.0163826
784.123	0.0164722
784.201	0.0163191
784.280	0.0164973
784.358	0.0162874
784.436	0.0161681
784.514	0.0162186
784.592	0.0161989
784.670	0.0161514
784.748	0.0160721
784.826	0.0159669
784.905	0.0160732
784.983	0.0159689
785.061	0.0160733
785.139	0.0160241
785.217	0.0160979
785.295	0.0159132
785.373	0.0159345
785.451	0.0160075
785.530	0.0160501
785.608	0.0159866
785.686	0.0160829
785.764	0.0161129
785.842	0.0160692
785.920	0.0160471
785.998	0.0161310
786.076	0.0163132
786.155	0.0162343
786.233	0.0161826
786.311	0.0163000
786.389	0.0161560
786.467	0.0163054
786.545	0.0163885
786.623	0.0162512
786.701	0.0162539
786.780	0.0164137
786.858	0.0166055
786.936	0.0164366
787.014	0.0164494
787.092	0.0165821
787.170	0.0167022
787.248	0.0166876
787.326	0.0166054
787.405	0.0167529
787.483	0.0165759
787.561	0.0166267
787.639	0.0167487
787.717	0.0166700
787.795	0.0167751
787.873	0.0165955
787.951	0.0166930
788.030	0.0167419
788.108	0.0166873
788.186	0.0167405
788.264	0.0168358
788.342	0.0167229
788.420	0.0167020
788.498	0.0166250
788.576	0.0164135
788.655	0.0166185
788.733	0.0167275
788.811	0.0167068
788.889	0.0164924
788.967	0.0164975
789.045	0.0164337
789.123	0.0164700
789.201	0.0165063
789.280	0.0164571
789.358	0.0164390
789.436	0.0165402
789.514	0.0163616
789.592	0.0163589
789.670	0.0163691
789.748	0.0164318
789.826	0.0162074
789.905	0.0163559
789.983	0.0162122
790.061	0.0162144
790.139	0.0163413
790.217	0.0162498
790.295	0.0162687
790.373	0.0163091
790.451	0.0163258
790.530	0.0163657
790.608	0.0163698
790.686	0.0162840
790.764	0.0163567
790.842	0.0163547
790.920	0.0162482
790.998	0.0162548
791.076	0.0162762
791.155	0.0163663
791.233	0.0163356
791.311	0.0163980
791.389	0.0163316
791.467	0.0164226
791.545	0.0165723
791.623	0.0166626
791.701	0.0165161
791.780	0.0164632
791.858	0.0166613
791.936	0.0169115
792.014	0.0167889
792.092	0.0168217
792.170	0.0169943
792.248	0.0168349
792.326	0.0169678
792.405	0.0169495
792.483	0.0170346
792.561	0.0169465
792.639	0.0169654
792.717	0.0171172
792.795	0.0170720
792.873	0.0170465
792.951	0.0170621
793.030	0.0170832
793.108	0.0170940
793.186	0.0170657
793.264	0.0170101
793.342	0.0171018
793.420	0.0171618
793.498	0.0169978
793.576	0.0168375
793.655	0.0168573
793.733	0.0169395
793.811	0.0168594
793.889	0.0167812
793.967	0.0166707
794.045	0.0165951
794.123	0.0167931
794.201	0.0166737
794.280	0.0166191
794.358	0.0165857
794.436	0.0166052
794.514	0.0164757
794.592	0.0165695
794.670	0.0164526
794.748	0.0163992
794.826	0.0165658
794.905	0.0165804
794.983	0.0166092
795.061	0.0164984
795.139	0.0164342
795.217	0.0162328
795.295	0.0163784
795.373	0.0164683
795.451	0.0163609
795.530	0.0163101
795.608	0.0163938
795.686	0.0164140
795.764	0.0164103
795.842	0.0164793
795.920	0.0164214
795.998	0.0164501
796.076	0.0164427
796.155	0.0164478
796.233	0.0164378
796.311	0.0164938
796.389	0.0165287
796.467	0.0165151
796.545	0.0165245
796.623	0.0165771
796.701	0.0164848
796.780	0.0165450
796.858	0.0164799
796.936	0.0165118
797.014	0.0166412
797.092	0.0166267
797.170	0.0166042
797.248	0.0166095
797.326	0.0167677
797.405	0.0166366
797.483	0.0166303
797.561	0.0167676
797.639	0.0166048
797.717	0.0165546
797.795	0.0166771
797.873	0.0167170
797.951	0.0166253
798.030	0.0166775
798.108	0.0166986
798.186	0.0166087
798.264	0.0165514
798.342	0.0166393
798.420	0.0168033
798.498	0.0167213
798.576	0.0165151
798.655	0.0165581
798.733	0.0165805
798.811	0.0166594
798.889	0.0166360
798.967	0.0166396
799.045	0.0165565
799.123	0.0165121
799.201	0.0164639
799.280	0.0164197
799.358	0.0164611
799.436	0.0165063
799.514	0.0164664
799.592	0.0165186
799.670	0.0163669
799.748	0.0164275
799.826	0.0165496
799.905	0.0165360
799.983	0.0165151
800.061	0.0165228
800.139	0.0165480
800.217	0.0164893
800.295	0.0165636
800.373	0.0166908
800.451	0.0166372
800.530	0.0165410
800.608	0.0165191
800.686	0.0164770
800.764	0.0165955
800.842	0.0164208
800.920	0.0165785
800.998	0.0165154
801.076	0.0165485
801.155	0.0164843
801.233	0.0164742
801.311	0.0164352
801.389	0.0164469
801.467	0.0165266
801.545	0.0164781
801.623	0.0164039
801.701	0.0165608
801.780	0.0164411
801.858	0.0164104
801.936	0.0165199
802.014	0.0164493
802.092	0.0162991
802.170	0.0166029
802.248	0.0165462
802.326	0.0165759
802.405	0.0164899
802.483	0.0166654
802.561	0.0166843
802.639	0.0164925
802.717	0.0166483
802.795	0.0167390
802.873	0.0165717
802.951	0.0166592
803.030	0.0166487
803.108	0.0167503
803.186	0.0167219
803.264	0.0167027
803.342	0.0167318
803.420	0.0168229
803.498	0.0167105
803.576	0.0168049
803.655	0.0168165
803.733	0.0168201
803.811	0.0168847
803.889	0.0167929
803.967	0.0166936
804.045	0.0167707
804.123	0.0167236
804.201	0.0168241
804.280	0.0168054
804.358	0.0168599
804.436	0.0167638
804.514	0.0165598
804.592	0.0166702
804.670	0.0166386
804.748	0.0167143
804.826	0.0165584
804.905	0.0165730
804.983	0.0166209
805.061	0.0165051
805.139	0.0166576
805.217	0.0164788
805.295	0.0164503
805.373	0.0165502
805.451	0.0164479
805.530	0.0165128
805.608	0.0166749
805.686	0.0164788
805.764	0.0166076
805.842	0.0163909
805.920	0.0165408
805.998	0.0164789
806.076	0.0164541
806.155	0.0164069
806.233	0.0166058
806.311	0.0166051
806.389	0.0165349
806.467	0.0164971
806.545	0.0166429
806.623	0.0166123
806.701	0.0166551
806.780	0.0166359
806.858	0.0166753
806.936	0.0165975
807.014	0.0166312
807.092	0.0166065
807.170	0.0166666
807.248	0.0167913
807.326	0.0165692
807.405	0.0166354
807.483	0.0167122
807.561	0.0167094
807.639	0.0167177
807.717	0.0166957
807.795	0.0166901
807.873	0.0166966
807.951	0.0168610
808.030	0.0167330
808.108	0.0167321
808.186	0.0167770
808.264	0.0167531
808.342	0.0166699
808.420	0.0166269
808.498	0.0165838
808.576	0.0167197
808.655	0.0167071
808.733	0.0166502
808.811	0.0166680
808.889	0.0166439
808.967	0.0164644
809.045	0.0165649
809.123	0.0165643
809.201	0.0165487
809.280	0.0164216
809.358	0.0165127
809.436	0.0165046
809.514	0.0164735
809.592	0.0164849
809.670	0.0164478
809.748	0.0162980
809.826	0.0164104
809.905	0.0163940
809.983	0.0162968
810.061	0.0163731
810.139	0.0162936
810.217	0.0162718
810.295	0.0163802
810.373	0.0163903
810.451	0.0163287
810.530	0.0162680
810.608	0.0163772
810.686	0.0163636
810.764	0.0162630
810.842	0.0164897
810.920	0.0163479
810.998	0.0165187
811.076	0.0165449
811.155	0.0165213
811.233	0.0165914
811.311	0.0165914
811.389	0.0166730
811.467	0.0165727
811.545	0.0166196
811.623	0.0166859
811.701	0.0166606
811.780	0.0168553
811.858	0.0168901
811.936	0.0168064
812.014	0.0166698
812.092	0.0167206
812.170	0.0168170
812.248	0.0166888
812.326	0.0166949
812.405	0.0166640
812.483	0.0166753
812.561	0.0166669
812.639	0.0167583
812.717	0.0168748
812.795	0.0166196
812.873	0.0166863
812.951	0.0167066
813.030	0.0166673
813.108	0.0167251
813.186	0.0167046
813.264	0.0165061
813.342	0.0166631
813.420	0.0166035
813.498	0.0164864
813.576	0.0164730
813.655	0.0165909
813.733	0.0164768
813.811	0.0165443
813.889	0.0164439
813.967	0.0164470
814.045	0.0164108
814.123	0.0165893
814.201	0.0165642
814.280	0.0164725
814.358	0.0163535
814.436	0.0163581
814.514	0.0164304
814.592	0.0165249
814.670	0.0164482
814.748	0.0163850
814.826	0.0163375
814.905	0.0163902
814.983	0.0163988
815.061	0.0163017
815.139	0.0164069
815.217	0.0164404
815.295	0.0164417
815.373	0.0162665
815.451	0.0163714
815.530	0.0162740
815.608	0.0163544
815.686	0.0164167
815.764	0.0163140
815.842	0.0162681
815.920	0.0162904
815.998	0.0164688
816.076	0.0163789
816.155	0.0163842
816.233	0.0163804
816.311	0.0164735
816.389	0.0162923
816.467	0.0163860
816.545	0.0164161
816.623	0.0164307
816.701	0.0163658
816.780	0.0162969
816.858	0.0164273
816.936	0.0163639
817.014	0.0164735
817.092	0.0164413
817.170	0.0165684
817.248	0.0165047
817.326	0.0164156
817.405	0.0165700
817.483	0.0166845
817.561	0.0164906
817.639	0.0165576
817.717	0.0164818
817.795	0.0167033
817.873	0.0166501
817.951	0.0165189
818.030	0.0164977
818.108	0.0165871
818.186	0.0164904
818.264	0.0165634
818.342	0.0165913
818.420	0.0165658
818.498	0.0163624
818.576	0.0164705
818.655	0.0167234
818.733	0.0165404
818.811	0.0164058
818.889	0.0165262
818.967	0.0164503
819.045	0.0164728
819.123	0.0164185
819.201	0.0163730
819.280	0.0164247
819.358	0.0164747
819.436	0.0164126
819.514	0.0163992
819.592	0.0163779
819.670	0.0162962
819.748	0.0164355
819.826	0.0164725
819.905	0.0163832
819.983	0.0163787
820.061	0.0162922
820.139	0.0163329
820.217	0.0163158
820.295	0.0161903
820.373	0.0163879
820.451	0.0163316
820.530	0.0161810
820.608	0.0163081
820.686	0.0162598
820.764	0.0163110
820.842	0.0163115
820.920	0.0164381
820.998	0.0162321
821.076	0.0161948
821.155	0.0163882
821.233	0.0162996
821.311	0.0163483
821.389	0.0162893
821.467	0.0162989
821.545	0.0164079
821.623	0.0162588
821.701	0.0163622
821.780	0.0163953
821.858	0.0165585
821.936	0.0165887
822.014	0.0164524
822.092	0.0165984
822.170	0.0166344
822.248	0.0165468
822.326	0.0166351
822.405	0.0165196
822.483	0.0165923
822.561	0.0166389
822.639	0.0166094
822.717	0.0166766
822.795	0.0166234
822.873	0.0166135
822.951	0.0166634
823.030	0.0166544
823.108	0.0167330
823.186	0.0167660
823.264	0.0167063
823.342	0.0167474
823.420	0.0168028
823.498	0.0167846
823.576	0.0168193
823.655	0.0167900
823.733	0.0168441
823.811	0.0168170
823.889	0.0167847
823.967	0.0168163
824.045	0.0167720
824.123	0.0167246
824.201	0.0167513
824.280	0.0168523
824.358	0.0168665
824.436	0.0168953
824.514	0.0168116
824.592	0.0167596
824.670	0.0167973
824.748	0.0169552
824.826	0.0167336
824.905	0.0167850
824.983	0.0168800
825.061	0.0166490
825.139	0.0166851
825.217	0.0166901
825.295	0.0166974
825.373	0.0167749
825.451	0.0166182
825.530	0.0167004
825.608	0.0166461
825.686	0.0164938
825.764	0.0167496
825.842	0.0165347
825.920	0.0167287
825.998	0.0166348
826.076	0.0166416
826.155	0.0164867
826.233	0.0165383
826.311	0.0166456
826.389	0.0166439
826.467	0.0167043
826.545	0.0166302
826.623	0.0166674
826.701	0.0164338
826.780	0.0164782
826.858	0.0165569
826.936	0.0167649
827.014	0.0166177
827.092	0.0166037
827.170	0.0165985
827.248	0.0165306
827.326	0.0165861
827.405	0.0166546
827.483	0.0166344
827.561	0.0165828
827.639	0.0166475
827.717	0.0166702
827.795	0.0165588
827.873	0.0165676
827.951	0.0166727
828.030	0.0166346
828.108	0.0166595
828.186	0.0167627
828.264	0.0166354
828.342	0.0166999
828.420	0.0166473
828.498	0.0167120
828.576	0.0166798
828.655	0.0165253
828.733	0.0167014
828.811	0.0166092
828.889	0.0166275
828.967	0.0167027
829.045	0.0165875
829.123	0.0165347
829.201	0.0164626
829.280	0.0166113
829.358	0.0165385
829.436	0.0164525
829.514	0.0166026
829.592	0.0166634
829.670	0.0164989
829.748	0.0164089
829.826	0.0165063
829.905	0.0164312
829.983	0.0163444
830.061	0.0164537
830.139	0.0164545
830.217	0.0163043
830.295	0.0163951
830.373	0.0164970
830.451	0.0164578
830.530	0.0163765
830.608	0.0164542
830.686	0.0164695
830.764	0.0163338
830.842	0.0164795
830.920	0.0162666
830.998	0.0164874
831.076	0.0165741
831.155	0.0164893
831.233	0.0162788
831.311	0.0164120
831.389	0.0163371
831.467	0.0164300
831.545	0.0164286
831.623	0.0164217
831.701	0.0164306
831.780	0.0163833
831.858	0.0164263
831.936	0.0163570
832.014	0.0164143
832.092	0.0164335
832.170	0.0164904
832.248	0.0164124
832.326	0.0162740
832.405	0.0164409
832.483	0.0164668
832.561	0.0164732
832.639	0.0164797
832.717	0.0165144
832.795	0.0164789
832.873	0.0164220
832.951	0.0163651
833.030	0.0164597
833.108	0.0165314
833.186	0.0165495
833.264	0.0165880
833.342	0.0165197
833.420	0.0165266
833.498	0.0166397
833.576	0.0164024
833.655	0.0164450
833.733	0.0164977
833.811	0.0165054
833.889	0.0163944
833.967	0.0165119
834.045	0.0163886
834.123	0.0166728
834.201	0.0165123
834.280	0.0164938
834.358	0.0165373
834.436	0.0164977
834.514	0.0166273
834.592	0.0164058
834.670	0.0164826
834.748	0.0163845
834.826	0.0163929
834.905	0.0166261
834.983	0.0165181
835.061	0.0165612
835.139	0.0164278
835.217	0.0166061
835.295	0.0164973
835.373	0.0164721
835.451	0.0165244
835.530	0.0165301
835.608	0.0164892
835.686	0.0164620
835.764	0.0165054
835.842	0.0165370
835.920	0.0164950
835.998	0.0165021
836.076	0.0165800
836.155	0.0164768
836.233	0.0165614
836.311	0.0165541
836.389	0.0166055
836.467	0.0164288
836.545	0.0164628
836.623	0.0165610
836.701	0.0165775
836.780	0.0165074
836.858	0.0165808
836.936	0.0166063
837.014	0.0166339
837.092	0.0165359
837.170	0.0165306
837.248	0.0166682
837.326	0.0166528
837.405	0.0165733
837.483	0.0165423
837.561	0.0166463
837.639	0.0165593
837.717	0.0166192
837.795	0.0164492
837.873	0.0164828
837.951	0.0164195
838.030	0.0164336
838.108	0.0164714
838.186	0.0166153
838.264	0.0165544
838.342	0.0164959
838.420	0.0165704
838.498	0.0164915
838.576	0.0164433
838.655	0.0163911
838.733	0.0164698
838.811	0.0165623
838.889	0.0164284
838.967	0.0163837
839.045	0.0165427
839.123	0.0165852
839.201	0.0164437
839.280	0.0164703
839.358	0.0166014
839.436	0.0165611
839.514	0.0165638
839.592	0.0166270
839.670	0.0167152
839.748	0.0166801
839.826	0.0166496
839.905	0.0167722
839.983	0.0165734
840.061	0.0166408
840.139	0.0165691
840.217	0.0167360
840.295	0.0167950
840.373	0.0166862
840.451	0.0166096
840.530	0.0166571
840.608	0.0165839
840.686	0.0165816
840.764	0.0165105
840.842	0.0166177
840.920	0.0165518
840.998	0.0165024
841.076	0.0165095
841.155	0.0163036
841.233	0.0163577
841.311	0.0164954
841.389	0.0163815
841.467	0.0164648
841.545	0.0164238
841.623	0.0163602
841.701	0.0163494
841.780	0.0163571
841.858	0.0163676
841.936	0.0162029
842.014	0.0163760
842.092	0.0163174
842.170	0.0163979
842.248	0.0163420
842.326	0.0163590
842.405	0.0163699
842.483	0.0163560
842.561	0.0165253
842.639	0.0163651
842.717	0.0163130
842.795	0.0164146
842.873	0.0164642
842.951	0.0164104
843.030	0.0165917
843.108	0.0164766
843.186	0.0163939
843.264	0.0164172
843.342	0.0164463
843.420	0.0165946
843.498	0.0164183
843.576	0.0164953
843.655	0.0166155
843.733	0.0166097
843.811	0.0165247
843.889	0.0165126
843.967	0.0166261
844.045	0.0163812
844.123	0.0163479
844.201	0.0163832
844.280	0.0165092
844.358	0.0165147
844.436	0.0165269
844.514	0.0165077
844.592	0.0164353
844.670	0.0165436
844.748	0.0164064
844.826	0.0165132
844.905	0.0164304
844.983	0.0163389
845.061	0.0164095
845.139	0.0165210
845.217	0.0164034
845.295	0.0163624
845.373	0.0164466
845.451	0.0164259
845.530	0.0163100
845.608	0.0163581
845.686	0.0163890
845.764	0.0164594
845.842	0.0164820
845.920	0.0164578
845.998	0.0162945
846.076	0.0163988
846.155	0.0162843
846.233	0.0162797
846.311	0.0163900
846.389	0.0164085
846.467	0.0163580
846.545	0.0164004
846.623	0.0163076
846.701	0.0162349
846.780	0.0162811
846.858	0.0163116
846.936	0.0164471
847.014	0.0163841
847.092	0.0162106
847.170	0.0164257
847.248	0.0164517
847.326	0.0164777
847.405	0.0164712
847.483	0.0164679
847.561	0.0163958
847.639	0.0164512
847.717	0.0164507
847.795	0.0165007
847.873	0.0165326
847.951	0.0163148
848.030	0.0165706
848.108	0.0164256
848.186	0.0165382
848.264	0.0166109
848.342	0.0164761
848.420	0.0166061
848.498	0.0166380
848.576	0.0165511
848.655	0.0165619
848.733	0.0166469
848.811	0.0167338
848.889	0.0166193
848.967	0.0166763
849.045	0.0167028
849.123	0.0167323
849.201	0.0167525
849.280	0.0167094
849.358	0.0168448
849.436	0.0167550
849.514	0.0167242
849.592	0.0167542
849.670	0.0166585
849.748	0.0165383
849.826	0.0165035
849.905	0.0168684
849.983	0.0168515
850.061	0.0166341
850.139	0.0166933
850.217	0.0166023
850.295	0.0167412
850.373	0.0168674
850.451	0.0166273
850.530	0.0167694
850.608	0.0167767
850.686	0.0167537
850.764	0.0166109
850.842	0.0167750
850.920	0.0167111
850.998	0.0168299
851.076	0.0167672
851.155	0.0166998
851.233	0.0166695
851.311	0.0167232
851.389	0.0166787
851.467	0.0166099
851.545	0.0165417
851.623	0.0166995
851.701	0.0166766
851.780	0.0165521
851.858	0.0166559
851.936	0.0166786
852.014	0.0166741
852.092	0.0166010
852.170	0.0165603
852.248	0.0166523
852.326	0.0166296
852.405	0.0167074
852.483	0.0166325
852.561	0.0167827
852.639	0.0166569
852.717	0.0166669
852.795	0.0165883
852.873	0.0167859
852.951	0.0167091
853.030	0.0165985
853.108	0.0167034
853.186	0.0168736
853.264	0.0166957
853.342	0.0167466
853.420	0.0167830
853.498	0.0167171
853.576	0.0168353
853.655	0.0166173
853.733	0.0165082
853.811	0.0166712
853.889	0.0166733
853.967	0.0165921
854.045	0.0165835
854.123	0.0166042
854.201	0.0165147
854.280	0.0164767
854.358	0.0165075
854.436	0.0163851
854.514	0.0164684
854.592	0.0163027
854.670	0.0162976
854.748	0.0163989
854.826	0.0164928
854.905	0.0164022
854.983	0.0163545
855.061	0.0163548
855.139	0.0163019
855.217	0.0161839
855.295	0.0163641
855.373	0.0163731
855.451	0.0163120
855.530	0.0163357
855.608	0.0162697
855.686	0.0163103
855.764	0.0163228
855.842	0.0162688
855.920	0.0164175
855.998	0.0163763
856.076	0.0163590
856.155	0.0163782
856.233	0.0164134
856.311	0.0162820
856.389	0.0163509
856.467	0.0163474
856.545	0.0164715
856.623	0.0164200
856.701	0.0163324
856.780	0.0164645
856.858	0.0163613
856.936	0.0164751
857.014	0.0163763
857.092	0.0163490
857.170	0.0164954
857.248	0.0165585
857.326	0.0164627
857.405	0.0165340
857.483	0.0163384
857.561	0.0164770
857.639	0.0164398
857.717	0.0164350
857.795	0.0166052
857.873	0.0165099
857.951	0.0164208
858.030	0.0165472
858.108	0.0165139
858.186	0.0165075
858.264	0.0165334
858.342	0.0165000
858.420	0.0164776
858.498	0.0165633
858.576	0.0165164
858.655	0.0164837
858.733	0.0164555
858.811	0.0166322
858.889	0.0164888
858.967	0.0165263
859.045	0.0166206
859.123	0.0165871
859.201	0.0165506
859.280	0.0165984
859.358	0.0167083
859.436	0.0166707
859.514	0.0165604
859.592	0.0166583
859.670	0.0165970
859.748	0.0164510
859.826	0.0165368
859.905	0.0167377
859.983	0.0165900
860.061	0.0164251
860.139	0.0165166
860.217	0.0165215
860.295	0.0164391
860.373	0.0164360
860.451	0.0163898
860.530	0.0164792
860.608	0.0164705
860.686	0.0165029
860.764	0.0163648
860.842	0.0163419
860.920	0.0164513
860.998	0.0164078
861.076	0.0163596
861.155	0.0166214
861.233	0.0164803
861.311	0.0163843
861.389	0.0164452
861.467	0.0164032
861.545	0.0164928
861.623	0.0165131
861.701	0.0164379
861.780	0.0164774
861.858	0.0164509
861.936	0.0165005
862.014	0.0163902
862.092	0.0163983
862.170	0.0164713
862.248	0.0164862
862.326	0.0164224
862.405	0.0163776
862.483	0.0163604
862.561	0.0164471
862.639	0.0163700
862.717	0.0164713
862.795	0.0164191
862.873	0.0162695
862.951	0.0164128
863.030	0.0164625
863.108	0.0163028
863.186	0.0163528
863.264	0.0164592
863.342	0.0164561
863.420	0.0163840
863.498	0.0164420
863.576	0.0164429
863.655	0.0164725
863.733	0.0164928
863.811	0.0164606
863.889	0.0165167
863.967	0.0165543
864.045	0.0165086
864.123	0.0165579
864.201	0.0164000
864.280	0.0165103
864.358	0.0166161
864.436	0.0165083
864.514	0.0164975
864.592	0.0166359
864.670	0.0166212
864.748	0.0166150
864.826	0.0165380
864.905	0.0165273
864.983	0.0166211
865.061	0.0165257
865.139	0.0165359
865.217	0.0166172
865.295	0.0165348
865.373	0.0166305
865.451	0.0165067
865.530	0.0165308
865.608	0.0163433
865.686	0.0165042
865.764	0.0165683
865.842	0.0164993
865.920	0.0164628
865.998	0.0165565
866.076	0.0165270
866.155	0.0164692
866.233	0.0164745
866.311	0.0164373
866.389	0.0164510
866.467	0.0165054
866.545	0.0165092
866.623	0.0164622
866.701	0.0165932
866.780	0.0164719
866.858	0.0164880
866.936	0.0165134
867.014	0.0165072
867.092	0.0165531
867.170	0.0165563
867.248	0.0165208
867.326	0.0165119
867.405	0.0166762
867.483	0.0166563
867.561	0.0165351
867.639	0.0166255
867.717	0.0165604
867.795	0.0166203
867.873	0.0165847
867.951	0.0166194
868.030	0.0167594
868.108	0.0168586
868.186	0.0167061
868.264	0.0166836
868.342	0.0166608
868.420	0.0166684
868.498	0.0166177
868.576	0.0166752
868.655	0.0165903
868.733	0.0166779
868.811	0.0166727
868.889	0.0166042
868.967	0.0163822
869.045	0.0167097
869.123	0.0166472
869.201	0.0165888
869.280	0.0166957
869.358	0.0167020
869.436	0.0164973
869.514	0.0166064
869.592	0.0166165
869.670	0.0164828
869.748	0.0165651
869.826	0.0166162
869.905	0.0167058
869.983	0.0166615
870.061	0.0165149
870.139	0.0164741
870.217	0.0165065
870.295	0.0165549
870.373	0.0165794
870.451	0.0165315
870.530	0.0165837
870.608	0.0164484
870.686	0.0165169
870.764	0.0166428
870.842	0.0166245
870.920	0.0165987
870.998	0.0166673
871.076	0.0167133
871.155	0.0166043
871.233	0.0167053
871.311	0.0167595
871.389	0.0165687
871.467	0.0165617
871.545	0.0167786
871.623	0.0168054
871.701	0.0166289
871.780	0.0164964
871.858	0.0167138
871.936	0.0165962
872.014	0.0167204
872.092	0.0166480
872.170	0.0166283
872.248	0.0167712
872.326	0.0166769
872.405	0.0166333
872.483	0.0166341
872.561	0.0166287
872.639	0.0166260
872.717	0.0166550
872.795	0.0164400
872.873	0.0165195
872.951	0.0164246
873.030	0.0165266
873.108	0.0165099
873.186	0.0165202
873.264	0.0164076
873.342	0.0164316
873.420	0.0164322
873.498	0.0163976
873.576	0.0164077
873.655	0.0163911
873.733	0.0163153
873.811	0.0161987
873.889	0.0163244
873.967	0.0163957
874.045	0.0163239
874.123	0.0163501
874.201	0.0162076
874.280	0.0163500
874.358	0.0164115
874.436	0.0163226
874.514	0.0162341
874.592	0.0164141
874.670	0.0163366
874.748	0.0163350
874.826	0.0164906
874.905	0.0163754
874.983	0.0162669
875.061	0.0163570
875.139	0.0164690
875.217	0.0165287
875.295	0.0165118
875.373	0.0164124
875.451	0.0164978
875.530	0.0166179
875.608	0.0165305
875.686	0.0165443
875.764	0.0166640
875.842	0.0167466
875.920	0.0166006
875.998	0.0166232
876.076	0.0167692
876.155	0.0167303
876.233	0.0166656
876.311	0.0167289
876.389	0.0166383
876.467	0.0167312
876.545	0.0168298
876.623	0.0166589
876.701	0.0166788
876.780	0.0167313
876.858	0.0167247
876.936	0.0167319
877.014	0.0166813
877.092	0.0166186
877.170	0.0167293
877.248	0.0167095
877.326	0.0166663
877.405	0.0166476
877.483	0.0166697
877.561	0.0167351
877.639	0.0167503
877.717	0.0167323
877.795	0.0166342
877.873	0.0167517
877.951	0.0167538
878.030	0.0166204
878.108	0.0166978
878.186	0.0166585
878.264	0.0167154
878.342	0.0165887
878.420	0.0165894
878.498	0.0165529
878.576	0.0165766
878.655	0.0165642
878.733	0.0165762
878.811	0.0166946
878.889	0.0166440
878.967	0.0165612
879.045	0.0165376
879.123	0.0165626
879.201	0.0164879
879.280	0.0166280
879.358	0.0165915
879.436	0.0166142
879.514	0.0164965
879.592	0.0165738
879.670	0.0163747
879.748	0.0164642
879.826	0.0165272
879.905	0.0165055
879.983	0.0165022
880.061	0.0164391
880.139	0.0165372
880.217	0.0165878
880.295	0.0164338
880.373	0.0164651
880.451	0.0165604
880.530	0.0163660
880.608	0.0163675
880.686	0.0164745
880.764	0.0166303
880.842	0.0165665
880.920	0.0166662
880.998	0.0165920
881.076	0.0167131
881.155	0.0166225
881.233	0.0166491
881.311	0.0166649
881.389	0.0166573
881.467	0.0166663
881.545	0.0166750
881.623	0.0166915
881.701	0.0167022
881.780	0.0167097
881.858	0.0167461
881.936	0.0166066
882.014	0.0166898
882.092	0.0166036
882.170	0.0166358
882.248	0.0165660
882.326	0.0165158
882.405	0.0166167
882.483	0.0165971
882.561	0.0165985
882.639	0.0166621
882.717	0.0165686
882.795	0.0167920
882.873	0.0165702
882.951	0.0166309
883.030	0.0164496
883.108	0.0166954
883.186	0.0165276
883.264	0.0165872
883.342	0.0165633
883.420	0.0165694
883.498	0.0164639
883.576	0.0166412
883.655	0.0164446
883.733	0.0164577
883.811	0.0165631
883.889	0.0166226
883.967	0.0164626
884.045	0.0164981
884.123	0.0165945
884.201	0.0165585
884.280	0.0165957
884.358	0.0166187
884.436	0.0166078
884.514	0.0164890
884.592	0.0165465
884.670	0.0164327
884.748	0.0165054
884.826	0.0165321
884.905	0.0166567
884.983	0.0165220
885.061	0.0164569
885.139	0.0166545
885.217	0.0166140
885.295	0.0165273
885.373	0.0164503
885.451	0.0165962
885.530	0.0165527
885.608	0.0165085
885.686	0.0164787
885.764	0.0164461
885.842	0.0166116
885.920	0.0165891
885.998	0.0165207
886.076	0.0164089
886.155	0.0165541
886.233	0.0166701
886.311	0.0165414
886.389	0.0163944
886.467	0.0165093
886.545	0.0165862
886.623	0.0166131
886.701	0.0166718
886.780	0.0166493
886.858	0.0165854
886.936	0.0165736
887.014	0.0165794
887.092	0.0167841
887.170	0.0165808
887.248	0.0166255
887.326	0.0165294
887.405	0.0165836
887.483	0.0166953
887.561	0.0166834
887.639	0.0166662
887.717	0.0165762
887.795	0.0166301
887.873	0.0166242
887.951	0.0166040
888.030	0.0165336
888.108	0.0166317
888.186	0.0166393
888.264	0.0165740
888.342	0.0167123
888.420	0.0166235
888.498	0.0166042
888.576	0.0167793
888.655	0.0166136
888.733	0.0165476
888.811	0.0165304
888.889	0.0165425
888.967	0.0165118
889.045	0.0164960
889.123	0.0164843
889.201	0.0163611
889.280	0.0164944
889.358	0.0162100
889.436	0.0162938
889.514	0.0163026
889.592	0.0164184
889.670	0.0163777
889.748	0.0163020
889.826	0.0162919
889.905	0.0161673
889.983	0.0161350
890.061	0.0162679
890.139	0.0163567
890.217	0.0161506
890.295	0.0162492
890.373	0.0164314
890.451	0.0162684
890.530	0.0162759
890.608	0.0163409
890.686	0.0164063
890.764	0.0163599
890.842	0.0163345
890.920	0.0163967
890.998	0.0165625
891.076	0.0163918
891.155	0.0164136
891.233	0.0163919
891.311	0.0164890
891.389	0.0166328
891.467	0.0165411
891.545	0.0164419
891.623	0.0165763
891.701	0.0164848
891.780	0.0164671
891.858	0.0166209
891.936	0.0166223
892.014	0.0164976
892.092	0.0166167
892.170	0.0165195
892.248	0.0166858
892.326	0.0166824
892.405	0.0167229
892.483	0.0166434
892.561	0.0166699
892.639	0.0166697
892.717	0.0166923
892.795	0.0166824
892.873	0.0167300
892.951	0.0167308
893.030	0.0167259
893.108	0.0166975
893.186	0.0167211
893.264	0.0168150
893.342	0.0167414
893.420	0.0167365
893.498	0.0167648
893.576	0.0166651
893.655	0.0167435
893.733	0.0167590
893.811	0.0166422
893.889	0.0166714
893.967	0.0166430
894.045	0.0167590
894.123	0.0166490
894.201	0.0166204
894.280	0.0166254
894.358	0.0166387
894.436	0.0165773
894.514	0.0165693
894.592	0.0164510
894.670	0.0165888
894.748	0.0165035
894.826	0.0164065
894.905	0.0164923
894.983	0.0164668
895.061	0.0164465
895.139	0.0163223
895.217	0.0164132
895.295	0.0164909
895.373	0.0163393
895.451	0.0163851
895.530	0.0164271
895.608	0.0164306
895.686	0.0163523
895.764	0.0162355
895.842	0.0163208
895.920	0.0162725
895.998	0.0162545
896.076	0.0163420
896.155	0.0163705
896.233	0.0163838
896.311	0.0163515
896.389	0.0164097
896.467	0.0164866
896.545	0.0163959
896.623	0.0164181
896.701	0.0164328
896.780	0.0164387
896.858	0.0165613
896.936	0.0166361
897.014	0.0165878
897.092	0.0166852
897.170	0.0166352
897.248	0.0165880
897.326	0.0164989
897.405	0.0165471
897.483	0.0165177
897.561	0.0164932
897.639	0.0165286
897.717	0.0167159
897.795	0.0166470
897.873	0.0165911
897.951	0.0165528
898.030	0.0165618
898.108	0.0165538
898.186	0.0166531
898.264	0.0164980
898.342	0.0166254
898.420	0.0166679
898.498	0.0166410
898.576	0.0165607
898.655	0.0165592
898.733	0.0164633
898.811	0.0165925
898.889	0.0166189
898.967	0.0165307
899.045	0.0166994
899.123	0.0166274
899.201	0.0165993
899.280	0.0164051
899.358	0.0165089
899.436	0.0166274
899.514	0.0166529
899.592	0.0165511
899.670	0.0165786
899.748	0.0165036
899.826	0.0165826
899.905	0.0164523
899.983	0.0163216
900.061	0.0166015
900.139	0.0165145
900.217	0.0165697
900.295	0.0164832
900.373	0.0164967
900.451	0.0166197
900.530	0.0165131
900.608	0.0164921
900.686	0.0164718
900.764	0.0163818
900.842	0.0165936
900.920	0.0165153
900.998	0.0165778
901.076	0.0165834
901.155	0.0163998
901.233	0.0164841
901.311	0.0166289
901.389	0.0164565
901.467	0.0165939
901.545	0.0165220
901.623	0.0164827
901.701	0.0164319
901.780	0.0166114
901.858	0.0165510
901.936	0.0165695
902.014	0.0165841
902.092	0.0165115
902.170	0.0164269
902.248	0.0164758
902.326	0.0164787
902.405	0.0164896
902.483	0.0164941
902.561	0.0164327
902.639	0.0166727
902.717	0.0164728
902.795	0.0165684
902.873	0.0164508
902.951	0.0164588
903.030	0.0164889
903.108	0.0163426
903.186	0.0164453
903.264	0.0164789
903.342	0.0165349
903.420	0.0165166
903.498	0.0164187
903.576	0.0165041
903.655	0.0164825
903.733	0.0164046
903.811	0.0166284
903.889	0.0166068
903.967	0.0166103
904.045	0.0166508
904.123	0.0164994
904.201	0.0164813
904.280	0.0165328
904.358	0.0165149
904.436	0.0165036
904.514	0.0165015
904.592	0.0164326
904.670	0.0164618
904.748	0.0164712
904.826	0.0165687
904.905	0.0163914
904.983	0.0165213
905.061	0.0165249
905.139	0.0166197
905.217	0.0167041
905.295	0.0164845
905.373	0.0166297
905.451	0.0165517
905.530	0.0165031
905.608	0.0166248
905.686	0.0165320
905.764	0.0165410
905.842	0.0165406
905.920	0.0164934
905.998	0.0164590
906.076	0.0165135
906.155	0.0165108
906.233	0.0164322
906.311	0.0165182
906.389	0.0166017
906.467	0.0166036
906.545	0.0165414
906.623	0.0165162
906.701	0.0166277
906.780	0.0166033
906.858	0.0164890
906.936	0.0165861
907.014	0.0165865
907.092	0.0166945
907.170	0.0166230
907.248	0.0167290
907.326	0.0167298
907.405	0.0166389
907.483	0.0167210
907.561	0.0166540
907.639	0.0166008
907.717	0.0165898
907.795	0.0166634
907.873	0.0166132
907.951	0.0167238
908.030	0.0166399
908.108	0.0167217
908.186	0.0165732
908.264	0.0166016
908.342	0.0168350
908.420	0.0166438
908.498	0.0166187
908.576	0.0167099
908.655	0.0166842
908.733	0.0167129
908.811	0.0166836
908.889	0.0166228
908.967	0.0165456
909.045	0.0165618
909.123	0.0165426
909.201	0.0166434
909.280	0.0167187
909.358	0.0166317
909.436	0.0164694
909.514	0.0165482
909.592	0.0164297
909.670	0.0164584
909.748	0.0164361
909.826	0.0165392
909.905	0.0166316
909.983	0.0165755
910.061	0.0165603
910.139	0.0163419
910.217	0.0164909
910.295	0.0164474
910.373	0.0164953
910.451	0.0164850
910.530	0.0165007
910.608	0.0164738
910.686	0.0162924
910.764	0.0164054
910.842	0.0166425
910.920	0.0164886
910.998	0.0163995
911.076	0.0164287
911.155	0.0164703
911.233	0.0164266
911.311	0.0163319
911.389	0.0165384
911.467	0.0164907
911.545	0.0166402
911.623	0.0164774
911.701	0.0164738
911.780	0.0165647
911.858	0.0165353
911.936	0.0165005
912.014	0.0165758
912.092	0.0164372
912.170	0.0166024
912.248	0.0166167
912.326	0.0165565
912.405	0.0164414
912.483	0.0165672
912.561	0.0166057
912.639	0.0164449
912.717	0.0164492
912.795	0.0166042
912.873	0.0163584
912.951	0.0164805
913.030	0.0164790
913.108	0.0164687
913.186	0.0164156
913.264	0.0164780
913.342	0.0164304
913.420	0.0163340
913.498	0.0162895
913.576	0.0163532
913.655	0.0163564
913.733	0.0163612
913.811	0.0165260
913.889	0.0165658
913.967	0.0163972
914.045	0.0164332
914.123	0.0165896
914.201	0.0164506
914.280	0.0164453
914.358	0.0162609
914.436	0.0163743
914.514	0.0164339
914.592	0.0165568
914.670	0.0164528
914.748	0.0163404
914.826	0.0163713
914.905	0.0165073
914.983	0.0163873
915.061	0.0163686
915.139	0.0164742
915.217	0.0163748
915.295	0.0163244
915.373	0.0164438
915.451	0.0162868
915.530	0.0164552
915.608	0.0164825
915.686	0.0164925
915.764	0.0164202
915.842	0.0164668
915.920	0.0167707
915.998	0.0166292
916.076	0.0164135
916.155	0.0164528
916.233	0.0165659
916.311	0.0164157
916.389	0.0164547
916.467	0.0166018
916.545	0.0165256
916.623	0.0166113
916.701	0.0165647
916.780	0.0165997
916.858	0.0165414
916.936	0.0165420
917.014	0.0164388
917.092	0.0165308
917.170	0.0164043
917.248	0.0165211
917.326	0.0165974
917.405	0.0165054
917.483	0.0164030
917.561	0.0164158
917.639	0.0164223
917.717	0.0164088
917.795	0.0165300
917.873	0.0164465
917.951	0.0165095
918.030	0.0163903
918.108	0.0164220
918.186	0.0165094
918.264	0.0164182
918.342	0.0164543
918.420	0.0166018
918.498	0.0166390
918.576	0.0164913
918.655	0.0163593
918.733	0.0164870
918.811	0.0164753
918.889	0.0165262
918.967	0.0164882
919.045	0.0165161
919.123	0.0166081
919.201	0.0165967
919.280	0.0166062
919.358	0.0163557
919.436	0.0165261
919.514	0.0165713
919.592	0.0164868
919.670	0.0165820
919.748	0.0166891
919.826	0.0165863
919.905	0.0166695
919.983	0.0166181
920.061	0.0167561
920.139	0.0166044
920.217	0.0165107
920.295	0.0166524
920.373	0.0167100
920.451	0.0165896
920.530	0.0166885
920.608	0.0165416
920.686	0.0165437
920.764	0.0167548
920.842	0.0165862
920.920	0.0166031
920.998	0.0164937
921.076	0.0164489
921.155	0.0165328
921.233	0.0165205
921.311	0.0165919
921.389	0.0165115
921.467	0.0164927
921.545	0.0163287
921.623	0.0165039
921.701	0.0164560
921.780	0.0164454
921.858	0.0165605
921.936	0.0164074
922.014	0.0164632
922.092	0.0162901
922.170	0.0163869
922.248	0.0163969
922.326	0.0161936
922.405	0.0164067
922.483	0.0163290
922.561	0.0162490
922.639	0.0162984
922.717	0.0163528
922.795	0.0163580
922.873	0.0163638
922.951	0.0162730
923.030	0.0164117
923.108	0.0162679
923.186	0.0162797
923.264	0.0163052
923.342	0.0164028
923.420	0.0163210
923.498	0.0164525
923.576	0.0163125
923.655	0.0163397
923.733	0.0163413
923.811	0.0162265
923.889	0.0165741
923.967	0.0164034
924.045	0.0163915
924.123	0.0163880
924.201	0.0165147
924.280	0.0164244
924.358	0.0164108
924.436	0.0165234
924.514	0.0166157
924.592	0.0164893
924.670	0.0165000
924.748	0.0165666
924.826	0.0167107
924.905	0.0165854
924.983	0.0166109
925.061	0.0166966
925.139	0.0166592
925.217	0.0166280
925.295	0.0165907
925.373	0.0166800
925.451	0.0167882
925.530	0.0166241
925.608	0.0166835
925.686	0.0167049
925.764	0.0166254
925.842	0.0166206
925.920	0.0165093
925.998	0.0166966
926.076	0.0167697
926.155	0.0166537
926.233	0.0166259
926.311	0.0166626
926.389	0.0165943
926.467	0.0166827
926.545	0.0165230
926.623	0.0164997
926.701	0.0165076
926.780	0.0165717
926.858	0.0164221
926.936	0.0163165
927.014	0.0164121
927.092	0.0165314
927.170	0.0164790
927.248	0.0165954
927.326	0.0164526
927.405	0.0164239
927.483	0.0164841
927.561	0.0164471
927.639	0.0165841
927.717	0.0164994
927.795	0.0165488
927.873	0.0163599
927.951	0.0165736
928.030	0.0164089
928.108	0.0163688
928.186	0.0166109
928.264	0.0165244
928.342	0.0165085
928.420	0.0165160
928.498	0.0165745
928.576	0.0164792
928.655	0.0165359
928.733	0.0164172
928.811	0.0165396
928.889	0.0165390
928.967	0.0164890
929.045	0.0166249
929.123	0.0165499
929.201	0.0165012
929.280	0.0165855
929.358	0.0166559
929.436	0.0165459
929.514	0.0165657
929.592	0.0165216
929.670	0.0165897
929.748	0.0166580
929.826	0.0166278
929.905	0.0166682
929.983	0.0166054
930.061	0.0166287
930.139	0.0167007
930.217	0.0167416
930.295	0.0166709
930.373	0.0167091
930.451	0.0167101
930.530	0.0166605
930.608	0.0167213
930.686	0.0166529
930.764	0.0165338
930.842	0.0167088
930.920	0.0166564
930.998	0.0166187
931.076	0.0165043
931.155	0.0165882
931.233	0.0166158
931.311	0.0166444
931.389	0.0165184
931.467	0.0165646
931.545	0.0165076
931.623	0.0164298
931.701	0.0164172
931.780	0.0165453
931.858	0.0163976
931.936	0.0163438
932.014	0.0164765
932.092	0.0163990
932.170	0.0164494
932.248	0.0165289
932.326	0.0164074
932.405	0.0165076
932.483	0.0164701
932.561	0.0164955
932.639	0.0164707
932.717	0.0164553
932.795	0.0164378
932.873	0.0164686
932.951	0.0164938
933.030	0.0165232
933.108	0.0164051
933.186	0.0165493
933.264	0.0164413
933.342	0.0165161
933.420	0.0166409
933.498	0.0164449
933.576	0.0165121
933.655	0.0165070
933.733	0.0164283
933.811	0.0164608
933.889	0.0164278
933.967	0.0164156
934.045	0.0163505
934.123	0.0163982
934.201	0.0164552
934.280	0.0164832
934.358	0.0163400
934.436	0.0164088
934.514	0.0164359
934.592	0.0163865
934.670	0.0163897
934.748	0.0163042
934.826	0.0163623
934.905	0.0164085
934.983	0.0163840
935.061	0.0165416
935.139	0.0163565
935.217	0.0163909
935.295	0.0164711
935.373	0.0164185
935.451	0.0165009
935.530	0.0164955
935.608	0.0165036
935.686	0.0165102
935.764	0.0164412
935.842	0.0164820
935.920	0.0165339
935.998	0.0165240
936.076	0.0165823
936.155	0.0166910
936.233	0.0165509
936.311	0.0166200
936.389	0.0166277
936.467	0.0166049
936.545	0.0166455
936.623	0.0167378
936.701	0.0166663
936.780	0.0165854
936.858	0.0165829
936.936	0.0166912
937.014	0.0166044
937.092	0.0166476
937.170	0.0164431
937.248	0.0165263
937.326	0.0166271
937.405	0.0167214
937.483	0.0166257
937.561	0.0166570
937.639	0.0166636
937.717	0.0166354
937.795	0.0166035
937.873	0.0167564
937.951	0.0167220
938.030	0.0166518
938.108	0.0166617
938.186	0.0166838
938.264	0.0165160
938.342	0.0166486
938.420	0.0166215
938.498	0.0165900
938.576	0.0166119
938.655	0.0166924
938.733	0.0165906
938.811	0.0165852
938.889	0.0165884
938.967	0.0165221
939.045	0.0166254
939.123	0.0166795
939.201	0.0165495
939.280	0.0165668
939.358	0.0167316
939.436	0.0167177
939.514	0.0165782
939.592	0.0165600
939.670	0.0167305
939.748	0.0167477
939.826	0.0167460
939.905	0.0166922
939.983	0.0166922
940.061	0.0167014
940.139	0.0166360
940.217	0.0168317
940.295	0.0167843
940.373	0.0167220
940.451	0.0166338
940.530	0.0167016
940.608	0.0167323
940.686	0.0168296
940.764	0.0166917
940.842	0.0168005
940.920	0.0166646
940.998	0.0166606
941.076	0.0165453
941.155	0.0166628
941.233	0.0166725
941.311	0.0163941
941.389	0.0164620
941.467	0.0165897
941.545	0.0164720
941.623	0.0164690
941.701	0.0164854
941.780	0.0165715
941.858	0.0164604
941.936	0.0164044
942.014	0.0164187
942.092	0.0163916
942.170	0.0163741
942.248	0.0163314
942.326	0.0163857
942.405	0.0164034
942.483	0.0162668
942.561	0.0163271
942.639	0.0163378
942.717	0.0163242
942.795	0.0162695
942.873	0.0162729
942.951	0.0163389
943.030	0.0162370
943.108	0.0162099
943.186	0.0162205
943.264	0.0163375
943.342	0.0162704
943.420	0.0163908
943.498	0.0162931
943.576	0.0162298
943.655	0.0163383
943.733	0.0163228
943.811	0.0162663
943.889	0.0163168
943.967	0.0164088
944.045	0.0163506
944.123	0.0163105
944.201	0.0162841
944.280	0.0162589
944.358	0.0164441
944.436	0.0163967
944.514	0.0163566
944.592	0.0163674
944.670	0.0163607
944.748	0.0163586
944.826	0.0163744
944.905	0.0163658
944.983	0.0164098
945.061	0.0164058
945.139	0.0162563
945.217	0.0165076
945.295	0.0164362
945.373	0.0164915
945.451	0.0163316
945.530	0.0163603
945.608	0.0164163
945.686	0.0164631
945.764	0.0162787
945.842	0.0163931
945.920	0.0163950
945.998	0.0164300
946.076	0.0163891
946.155	0.0163663
946.233	0.0164784
946.311	0.0164219
946.389	0.0164918
946.467	0.0165528
946.545	0.0166715
946.623	0.0165474
946.701	0.0165717
946.780	0.0165826
946.858	0.0165884
946.936	0.0165855
947.014	0.0164787
947.092	0.0165842
947.170	0.0166399
947.248	0.0165508
947.326	0.0166353
947.405	0.0167175
947.483	0.0165574
947.561	0.0165450
947.639	0.0166209
947.717	0.0166469
947.795	0.0166953
947.873	0.0166112
947.951	0.0164692
948.030	0.0166082
948.108	0.0166038
948.186	0.0166127
948.264	0.0165870
948.342	0.0168114
948.420	0.0165623
948.498	0.0166973
948.576	0.0167213
948.655	0.0167675
948.733	0.0167660
948.811	0.0166410
948.889	0.0167577
948.967	0.0166484
949.045	0.0167538
949.123	0.0166473
949.201	0.0168014
949.280	0.0166692
949.358	0.0166467
949.436	0.0167091
949.514	0.0168259
949.592	0.0166957
949.670	0.0168911
949.748	0.0167316
949.826	0.0165106
949.905	0.0167294
949.983	0.0167063
950.061	0.0166489
950.139	0.0167251
950.217	0.0165726
950.295	0.0167209
950.373	0.0166476
950.451	0.0166592
950.530	0.0165395
950.608	0.0166883
950.686	0.0165469
950.764	0.0165049
950.842	0.0166246
950.920	0.0165715
950.998	0.0166146
951.076	0.0165091
951.155	0.0165795
951.233	0.0164545
951.311	0.0165363
951.389	0.0165739
951.467	0.0165327
951.545	0.0164167
951.623	0.0165282
951.701	0.0166493
951.780	0.0165767
951.858	0.0164873
951.936	0.0165612
952.014	0.0166483
952.092	0.0165822
952.170	0.0165255
952.248	0.0165885
952.326	0.0165229
952.405	0.0165802
952.483	0.0164134
952.561	0.0164118
952.639	0.0165435
952.717	0.0166394
952.795	0.0164352
952.873	0.0164651
952.951	0.0164792
953.030	0.0163511
953.108	0.0164742
953.186	0.0164616
953.264	0.0164816
953.342	0.0164491
953.420	0.0162751
953.498	0.0164391
953.576	0.0164638
953.655	0.0164278
953.733	0.0163712
953.811	0.0162800
953.889	0.0165994
953.967	0.0164282
954.045	0.0164229
954.123	0.0163409
954.201	0.0164121
954.280	0.0163140
954.358	0.0163649
954.436	0.0163022
954.514	0.0164319
954.592	0.0163248
954.670	0.0163480
954.748	0.0165205
954.826	0.0164063
954.905	0.0165080
954.983	0.0164396
955.061	0.0166199
955.139	0.0165193
955.217	0.0165551
955.295	0.0164823
955.373	0.0164664
955.451	0.0164690
955.530	0.0164388
955.608	0.0163581
955.686	0.0164979
955.764	0.0165094
955.842	0.0165281
955.920	0.0165449
955.998	0.0164632
956.076	0.0164619
956.155	0.0165226
956.233	0.0163857
956.311	0.0164022
956.389	0.0164035
956.467	0.0164847
956.545	0.0167058
956.623	0.0164715
956.701	0.0165363
956.780	0.0165563
956.858	0.0167473
956.936	0.0166211
957.014	0.0165313
957.092	0.0166285
957.170	0.0165299
957.248	0.0165913
957.326	0.0165999
957.405	0.0165884
957.483	0.0166609
957.561	0.0167176
957.639	0.0166173
957.717	0.0165438
957.795	0.0167120
957.873	0.0165517
957.951	0.0165961
958.030	0.0167316
958.108	0.0164610
958.186	0.0165962
958.264	0.0165196
958.342	0.0166596
958.420	0.0165772
958.498	0.0165462
958.576	0.0165691
958.655	0.0166696
958.733	0.0166004
958.811	0.0166920
958.889	0.0166138
958.967	0.0164491
959.045	0.0164863
959.123	0.0167411
959.201	0.0165598
959.280	0.0166084
959.358	0.0166051
959.436	0.0166042
959.514	0.0164652
959.592	0.0164259
959.670	0.0165778
959.748	0.0165491
959.826	0.0164428
959.905	0.0165591
