05/17/2022	17:20:15	Ver.	4.1	UNKNOWN
Optical Delay	639.982744	Delta X		0.078125	Sweeps	1	Scan Rate	0/0
Coordinates	Axis 1	NaN	Axis 2	NaN	Axis 3	NaN	Axis 4	NaN	Axis 5	NaN	Axis 6	0.000000
TX Power	0.000000	RX Power	0.000000

639.983	0.0156705
640.061	0.0155949
640.139	0.0158120
640.217	0.0157667
640.295	0.0157390
640.373	0.0156847
640.451	0.0157418
640.530	0.0157975
640.608	0.0156809
640.686	0.0158228
640.764	0.0157003
640.842	0.0157686
640.920	0.0157491
640.998	0.0158984
641.076	0.0157642
641.155	0.0158086
641.233	0.0159361
641.311	0.0158142
641.389	0.0158359
641.467	0.0159185
641.545	0.0158507
641.623	0.0158533
641.701	0.0159386
641.780	0.0160534
641.858	0.0158829
641.936	0.0159169
642.014	0.0159769
642.092	0.0159028
642.170	0.0160236
642.248	0.0158500
642.326	0.0159227
642.405	0.0159843
642.483	0.0157537
642.561	0.0158974
642.639	0.0158263
642.717	0.0157986
642.795	0.0158736
642.873	0.0156999
642.951	0.0157474
643.030	0.0157749
643.108	0.0157072
643.186	0.0156998
643.264	0.0156612
643.342	0.0157916
643.420	0.0157293
643.498	0.0156174
643.576	0.0156821
643.655	0.0157481
643.733	0.0155686
643.811	0.0157259
643.889	0.0156584
643.967	0.0157969
644.045	0.0159000
644.123	0.0158446
644.201	0.0156927
644.280	0.0157438
644.358	0.0158410
644.436	0.0159174
644.514	0.0158765
644.592	0.0158397
644.670	0.0159279
644.748	0.0159261
644.826	0.0159728
644.905	0.0158981
644.983	0.0159272
645.061	0.0159623
645.139	0.0157987
645.217	0.0157638
645.295	0.0157745
645.373	0.0158381
645.451	0.0158145
645.530	0.0157074
645.608	0.0156866
645.686	0.0156307
645.764	0.0156050
645.842	0.0156311
645.920	0.0155303
645.998	0.0154681
646.076	0.0155080
646.155	0.0152748
646.233	0.0154913
646.311	0.0153716
646.389	0.0154245
646.467	0.0155243
646.545	0.0155293
646.623	0.0154265
646.701	0.0155927
646.780	0.0154432
646.858	0.0156115
646.936	0.0156740
647.014	0.0155403
647.092	0.0156117
647.170	0.0155571
647.248	0.0157208
647.326	0.0157561
647.405	0.0158304
647.483	0.0157076
647.561	0.0156828
647.639	0.0157783
647.717	0.0157275
647.795	0.0157524
647.873	0.0158935
647.951	0.0158164
648.030	0.0157474
648.108	0.0157339
648.186	0.0158398
648.264	0.0157288
648.342	0.0158141
648.420	0.0157375
648.498	0.0158144
648.576	0.0157510
648.655	0.0156638
648.733	0.0156532
648.811	0.0157014
648.889	0.0157391
648.967	0.0158973
649.045	0.0158107
649.123	0.0158059
649.201	0.0156063
649.280	0.0157180
649.358	0.0158164
649.436	0.0156720
649.514	0.0156439
649.592	0.0156434
649.670	0.0157263
649.748	0.0157425
649.826	0.0157416
649.905	0.0157714
649.983	0.0156917
650.061	0.0157047
650.139	0.0157098
650.217	0.0157284
650.295	0.0157229
650.373	0.0157728
650.451	0.0156648
650.530	0.0156757
650.608	0.0157661
650.686	0.0157362
650.764	0.0155009
650.842	0.0156319
650.920	0.0156793
650.998	0.0155303
651.076	0.0156086
651.155	0.0157378
651.233	0.0158506
651.311	0.0154774
651.389	0.0155877
651.467	0.0157212
651.545	0.0156245
651.623	0.0154803
651.701	0.0156879
651.780	0.0156468
651.858	0.0157397
651.936	0.0156827
652.014	0.0157562
652.092	0.0157526
652.170	0.0156587
652.248	0.0156560
652.326	0.0155863
652.405	0.0156426
652.483	0.0156442
652.561	0.0155547
652.639	0.0156384
652.717	0.0157539
652.795	0.0157282
652.873	0.0156594
652.951	0.0155326
653.030	0.0155696
653.108	0.0154781
653.186	0.0155167
653.264	0.0155109
653.342	0.0155318
653.420	0.0154504
653.498	0.0156515
653.576	0.0155722
653.655	0.0154371
653.733	0.0154256
653.811	0.0154892
653.889	0.0155801
653.967	0.0156453
654.045	0.0155572
654.123	0.0154861
654.201	0.0155389
654.280	0.0155386
654.358	0.0155602
654.436	0.0154826
654.514	0.0155800
654.592	0.0156297
654.670	0.0155140
654.748	0.0156924
654.826	0.0156503
654.905	0.0156409
654.983	0.0156049
655.061	0.0156560
655.139	0.0156905
655.217	0.0157124
655.295	0.0157125
655.373	0.0156697
655.451	0.0156767
655.530	0.0157372
655.608	0.0155579
655.686	0.0157373
655.764	0.0156870
655.842	0.0155978
655.920	0.0156532
655.998	0.0156574
656.076	0.0157439
656.155	0.0156358
656.233	0.0157195
656.311	0.0157500
656.389	0.0156593
656.467	0.0157016
656.545	0.0158918
656.623	0.0156632
656.701	0.0157201
656.780	0.0156852
656.858	0.0156969
656.936	0.0156608
657.014	0.0157703
657.092	0.0156313
657.170	0.0156443
657.248	0.0157877
657.326	0.0157507
657.405	0.0156444
657.483	0.0157899
657.561	0.0155707
657.639	0.0156305
657.717	0.0154963
657.795	0.0156087
657.873	0.0158447
657.951	0.0157031
658.030	0.0155518
658.108	0.0156905
658.186	0.0157056
658.264	0.0157980
658.342	0.0157116
658.420	0.0157803
658.498	0.0158190
658.576	0.0158158
658.655	0.0161073
658.733	0.0159501
658.811	0.0158020
658.889	0.0160334
658.967	0.0160619
659.045	0.0159987
659.123	0.0159337
659.201	0.0159732
659.280	0.0159490
659.358	0.0159637
659.436	0.0157797
659.514	0.0157989
659.592	0.0157716
659.670	0.0158876
659.748	0.0156360
659.826	0.0156898
659.905	0.0156959
659.983	0.0156093
660.061	0.0154462
660.139	0.0153924
660.217	0.0153748
660.295	0.0153529
660.373	0.0152576
660.451	0.0151977
660.530	0.0153013
660.608	0.0151997
660.686	0.0153718
660.764	0.0152036
660.842	0.0152175
660.920	0.0153372
660.998	0.0154436
661.076	0.0153561
661.155	0.0153024
661.233	0.0154552
661.311	0.0156579
661.389	0.0156511
661.467	0.0156574
661.545	0.0156760
661.623	0.0157056
661.701	0.0158724
661.780	0.0159956
661.858	0.0159202
661.936	0.0158849
662.014	0.0160233
662.092	0.0160545
662.170	0.0160691
662.248	0.0162621
662.326	0.0160835
662.405	0.0161099
662.483	0.0160725
662.561	0.0160641
662.639	0.0159844
662.717	0.0160664
662.795	0.0160919
662.873	0.0162021
662.951	0.0160847
663.030	0.0157895
663.108	0.0159776
663.186	0.0160419
663.264	0.0158791
663.342	0.0159870
663.420	0.0160838
663.498	0.0159038
663.576	0.0161147
663.655	0.0158972
663.733	0.0158531
663.811	0.0160008
663.889	0.0158415
663.967	0.0160049
664.045	0.0159113
664.123	0.0158586
664.201	0.0158414
664.280	0.0158496
664.358	0.0157386
664.436	0.0157812
664.514	0.0157883
664.592	0.0155968
664.670	0.0153838
664.748	0.0153736
664.826	0.0153931
664.905	0.0151540
664.983	0.0150967
665.061	0.0152103
665.139	0.0151801
665.217	0.0150306
665.295	0.0149180
665.373	0.0148960
665.451	0.0150419
665.530	0.0149496
665.608	0.0149883
665.686	0.0150347
665.764	0.0149783
665.842	0.0149570
665.920	0.0149582
665.998	0.0151852
666.076	0.0152113
666.155	0.0153397
666.233	0.0155055
666.311	0.0154317
666.389	0.0157215
666.467	0.0158231
666.545	0.0158318
666.623	0.0158261
666.701	0.0159343
666.780	0.0160473
666.858	0.0161629
666.936	0.0163058
667.014	0.0162337
667.092	0.0161684
667.170	0.0163503
667.248	0.0164974
667.326	0.0164230
667.405	0.0165866
667.483	0.0165549
667.561	0.0165721
667.639	0.0165889
667.717	0.0166466
667.795	0.0167199
667.873	0.0164177
667.951	0.0164977
668.030	0.0164745
668.108	0.0163986
668.186	0.0163861
668.264	0.0162859
668.342	0.0162939
668.420	0.0161893
668.498	0.0162122
668.576	0.0161714
668.655	0.0160114
668.733	0.0159222
668.811	0.0158515
668.889	0.0157726
668.967	0.0158415
669.045	0.0157534
669.123	0.0154644
669.201	0.0154960
669.280	0.0153410
669.358	0.0151774
669.436	0.0151999
669.514	0.0150262
669.592	0.0148376
669.670	0.0148543
669.748	0.0148383
669.826	0.0147127
669.905	0.0145870
669.983	0.0145919
670.061	0.0144971
670.139	0.0145120
670.217	0.0145299
670.295	0.0145582
670.373	0.0146286
670.451	0.0145985
670.530	0.0146133
670.608	0.0148513
670.686	0.0147956
670.764	0.0148483
670.842	0.0149987
670.920	0.0149873
670.998	0.0150516
671.076	0.0153420
671.155	0.0154335
671.233	0.0154009
671.311	0.0155997
671.389	0.0155757
671.467	0.0156392
671.545	0.0158666
671.623	0.0159635
671.701	0.0159563
671.780	0.0159911
671.858	0.0161966
671.936	0.0164492
672.014	0.0164010
672.092	0.0164465
672.170	0.0164391
672.248	0.0165417
672.326	0.0165395
672.405	0.0166368
672.483	0.0166030
672.561	0.0166776
672.639	0.0166580
672.717	0.0167177
672.795	0.0166736
672.873	0.0166844
672.951	0.0168563
673.030	0.0165959
673.108	0.0166354
673.186	0.0165205
673.264	0.0164563
673.342	0.0165020
673.420	0.0164845
673.498	0.0163261
673.576	0.0162337
673.655	0.0161726
673.733	0.0160732
673.811	0.0158777
673.889	0.0157459
673.967	0.0154251
674.045	0.0152816
674.123	0.0153300
674.201	0.0150796
674.280	0.0148798
674.358	0.0148950
674.436	0.0146704
674.514	0.0145734
674.592	0.0144647
674.670	0.0145030
674.748	0.0143981
674.826	0.0144196
674.905	0.0144176
674.983	0.0145414
675.061	0.0145864
675.139	0.0145665
675.217	0.0146745
675.295	0.0147792
675.373	0.0148478
675.451	0.0150903
675.530	0.0149529
675.608	0.0151517
675.686	0.0152445
675.764	0.0153740
675.842	0.0154617
675.920	0.0155825
675.998	0.0156194
676.076	0.0158144
676.155	0.0158781
676.233	0.0157973
676.311	0.0159722
676.389	0.0159407
676.467	0.0160367
676.545	0.0160545
676.623	0.0160535
676.701	0.0161907
676.780	0.0161510
676.858	0.0162772
676.936	0.0162547
677.014	0.0162823
677.092	0.0163144
677.170	0.0163410
677.248	0.0161170
677.326	0.0161676
677.405	0.0162000
677.483	0.0162608
677.561	0.0162595
677.639	0.0163628
677.717	0.0162705
677.795	0.0161485
677.873	0.0162678
677.951	0.0161201
678.030	0.0162413
678.108	0.0161631
678.186	0.0162469
678.264	0.0161866
678.342	0.0162846
678.420	0.0160172
678.498	0.0160036
678.576	0.0160613
678.655	0.0159356
678.733	0.0159377
678.811	0.0159030
678.889	0.0157154
678.967	0.0156490
679.045	0.0156660
679.123	0.0155163
679.201	0.0155406
679.280	0.0155065
679.358	0.0156067
679.436	0.0155006
679.514	0.0153769
679.592	0.0153571
679.670	0.0155762
679.748	0.0154774
679.826	0.0153647
679.905	0.0153851
679.983	0.0154078
680.061	0.0153410
680.139	0.0153098
680.217	0.0154498
680.295	0.0154052
680.373	0.0151929
680.451	0.0151973
680.530	0.0153130
680.608	0.0153040
680.686	0.0151015
680.764	0.0150246
680.842	0.0150791
680.920	0.0150883
680.998	0.0149952
681.076	0.0151311
681.155	0.0150711
681.233	0.0149654
681.311	0.0149532
681.389	0.0150233
681.467	0.0150186
681.545	0.0151109
681.623	0.0152418
681.701	0.0152180
681.780	0.0152737
681.858	0.0153748
681.936	0.0154176
682.014	0.0154694
682.092	0.0155070
682.170	0.0154240
682.248	0.0155498
682.326	0.0157160
682.405	0.0158073
682.483	0.0159167
682.561	0.0160317
682.639	0.0158316
682.717	0.0160075
682.795	0.0161149
682.873	0.0160522
682.951	0.0162247
683.030	0.0163016
683.108	0.0160558
683.186	0.0161889
683.264	0.0161623
683.342	0.0163510
683.420	0.0163384
683.498	0.0163093
683.576	0.0163871
683.655	0.0164452
683.733	0.0165369
683.811	0.0165123
683.889	0.0165908
683.967	0.0166158
684.045	0.0165382
684.123	0.0166038
684.201	0.0165272
684.280	0.0165175
684.358	0.0165648
684.436	0.0165472
684.514	0.0164227
684.592	0.0163210
684.670	0.0161237
684.748	0.0160172
684.826	0.0159415
684.905	0.0158479
684.983	0.0156263
685.061	0.0154855
685.139	0.0154144
685.217	0.0151637
685.295	0.0151203
685.373	0.0150202
685.451	0.0148271
685.530	0.0149756
685.608	0.0149240
685.686	0.0148241
685.764	0.0149389
685.842	0.0148116
685.920	0.0148793
685.998	0.0149439
686.076	0.0151224
686.155	0.0150549
686.233	0.0149659
686.311	0.0150026
686.389	0.0150950
686.467	0.0152711
686.545	0.0152798
686.623	0.0151861
686.701	0.0152517
686.780	0.0152220
686.858	0.0154254
686.936	0.0154472
687.014	0.0156165
687.092	0.0154987
687.170	0.0153257
687.248	0.0155650
687.326	0.0153671
687.405	0.0154959
687.483	0.0156396
687.561	0.0153857
687.639	0.0154112
687.717	0.0154411
687.795	0.0155592
687.873	0.0154890
687.951	0.0154904
688.030	0.0156132
688.108	0.0155183
688.186	0.0156768
688.264	0.0154888
688.342	0.0155722
688.420	0.0157912
688.498	0.0157362
688.576	0.0157363
688.655	0.0158544
688.733	0.0159169
688.811	0.0160258
688.889	0.0159743
688.967	0.0161164
689.045	0.0161160
689.123	0.0162766
689.201	0.0162256
689.280	0.0164189
689.358	0.0164037
689.436	0.0163914
689.514	0.0165553
689.592	0.0167055
689.670	0.0166132
689.748	0.0165585
689.826	0.0167056
689.905	0.0168227
689.983	0.0167044
690.061	0.0166757
690.139	0.0166082
690.217	0.0167632
690.295	0.0166429
690.373	0.0165720
690.451	0.0164031
690.530	0.0164124
690.608	0.0163686
690.686	0.0161556
690.764	0.0161282
690.842	0.0161169
690.920	0.0158566
690.998	0.0159726
691.076	0.0157501
691.155	0.0156030
691.233	0.0154991
691.311	0.0154817
691.389	0.0152612
691.467	0.0151861
691.545	0.0149956
691.623	0.0149361
691.701	0.0149207
691.780	0.0147409
691.858	0.0146876
691.936	0.0145852
692.014	0.0145986
692.092	0.0146403
692.170	0.0144220
692.248	0.0144659
692.326	0.0145376
692.405	0.0146014
692.483	0.0144740
692.561	0.0146308
692.639	0.0147482
692.717	0.0146770
692.795	0.0148000
692.873	0.0148862
692.951	0.0149261
693.030	0.0150450
693.108	0.0152090
693.186	0.0151499
693.264	0.0152784
693.342	0.0152354
693.420	0.0153337
693.498	0.0156449
693.576	0.0156171
693.655	0.0156539
693.733	0.0156458
693.811	0.0157914
693.889	0.0158554
693.967	0.0158618
694.045	0.0159586
694.123	0.0160426
694.201	0.0160843
694.280	0.0161697
694.358	0.0162958
694.436	0.0163375
694.514	0.0163018
694.592	0.0163449
694.670	0.0165108
694.748	0.0165002
694.826	0.0165242
694.905	0.0166125
694.983	0.0165230
695.061	0.0165788
695.139	0.0167530
695.217	0.0166080
695.295	0.0165800
695.373	0.0166395
695.451	0.0165348
695.530	0.0165638
695.608	0.0165962
695.686	0.0164886
695.764	0.0162459
695.842	0.0161433
695.920	0.0159858
695.998	0.0159157
696.076	0.0160059
696.155	0.0157142
696.233	0.0155595
696.311	0.0153579
696.389	0.0153384
696.467	0.0152981
696.545	0.0152213
696.623	0.0150916
696.701	0.0151025
696.780	0.0149450
696.858	0.0149689
696.936	0.0149714
697.014	0.0148502
697.092	0.0148751
697.170	0.0148486
697.248	0.0149549
697.326	0.0149709
697.405	0.0148141
697.483	0.0149463
697.561	0.0150941
697.639	0.0151264
697.717	0.0150266
697.795	0.0150276
697.873	0.0152745
697.951	0.0151363
698.030	0.0152897
698.108	0.0152853
698.186	0.0153829
698.264	0.0153817
698.342	0.0153580
698.420	0.0154954
698.498	0.0155757
698.576	0.0155532
698.655	0.0156574
698.733	0.0157297
698.811	0.0157634
698.889	0.0159325
698.967	0.0157798
699.045	0.0159511
699.123	0.0158752
699.201	0.0160827
699.280	0.0160350
699.358	0.0161295
699.436	0.0161114
699.514	0.0162193
699.592	0.0162293
699.670	0.0161250
699.748	0.0160209
699.826	0.0161387
699.905	0.0161286
699.983	0.0162434
700.061	0.0160812
700.139	0.0161175
700.217	0.0161076
700.295	0.0159941
700.373	0.0160003
700.451	0.0160142
700.530	0.0160093
700.608	0.0159863
700.686	0.0158674
700.764	0.0158766
700.842	0.0159566
700.920	0.0159597
700.998	0.0158879
701.076	0.0159124
701.155	0.0160719
701.233	0.0160853
701.311	0.0160073
701.389	0.0159680
701.467	0.0159707
701.545	0.0159626
701.623	0.0159911
701.701	0.0160247
701.780	0.0160376
701.858	0.0159063
701.936	0.0159662
702.014	0.0159678
702.092	0.0157382
702.170	0.0156261
702.248	0.0156182
702.326	0.0154540
702.405	0.0152886
702.483	0.0153391
702.561	0.0150705
702.639	0.0151867
702.717	0.0151148
702.795	0.0151025
702.873	0.0149437
702.951	0.0149275
703.030	0.0148273
703.108	0.0148425
703.186	0.0148437
703.264	0.0149304
703.342	0.0149181
703.420	0.0148620
703.498	0.0148903
703.576	0.0148709
703.655	0.0150903
703.733	0.0151264
703.811	0.0150338
703.889	0.0151901
703.967	0.0151775
704.045	0.0153474
704.123	0.0153474
704.201	0.0154440
704.280	0.0155051
704.358	0.0156985
704.436	0.0155805
704.514	0.0157526
704.592	0.0158099
704.670	0.0157883
704.748	0.0161275
704.826	0.0160270
704.905	0.0160548
704.983	0.0160087
705.061	0.0159419
705.139	0.0161071
705.217	0.0161284
705.295	0.0161153
705.373	0.0162846
705.451	0.0161325
705.530	0.0160282
705.608	0.0161539
705.686	0.0160198
705.764	0.0160717
705.842	0.0159926
705.920	0.0160130
705.998	0.0159669
706.076	0.0159605
706.155	0.0159236
706.233	0.0158413
706.311	0.0158679
706.389	0.0158173
706.467	0.0156635
706.545	0.0156818
706.623	0.0157446
706.701	0.0157681
706.780	0.0155746
706.858	0.0155666
706.936	0.0155824
707.014	0.0154213
707.092	0.0156104
707.170	0.0155624
707.248	0.0153936
707.326	0.0153876
707.405	0.0155437
707.483	0.0154815
707.561	0.0154472
707.639	0.0153424
707.717	0.0154130
707.795	0.0153586
707.873	0.0155323
707.951	0.0154988
708.030	0.0156347
708.108	0.0155619
708.186	0.0154601
708.264	0.0155836
708.342	0.0156139
708.420	0.0156181
708.498	0.0155571
708.576	0.0155603
708.655	0.0155884
708.733	0.0156139
708.811	0.0155104
708.889	0.0154559
708.967	0.0155354
709.045	0.0155292
709.123	0.0154163
709.201	0.0152847
709.280	0.0152452
709.358	0.0153573
709.436	0.0152991
709.514	0.0153371
709.592	0.0152782
709.670	0.0152676
709.748	0.0153075
709.826	0.0153214
709.905	0.0154308
709.983	0.0155322
710.061	0.0154936
710.139	0.0156190
710.217	0.0158366
710.295	0.0157011
710.373	0.0157454
710.451	0.0160111
710.530	0.0159747
710.608	0.0160493
710.686	0.0161269
710.764	0.0162362
710.842	0.0162850
710.920	0.0163132
710.998	0.0162297
711.076	0.0162311
711.155	0.0163345
711.233	0.0161423
711.311	0.0161536
711.389	0.0161411
711.467	0.0160498
711.545	0.0159301
711.623	0.0159811
711.701	0.0159525
711.780	0.0157613
711.858	0.0156482
711.936	0.0156735
712.014	0.0156700
712.092	0.0155679
712.170	0.0156876
712.248	0.0154314
712.326	0.0154734
712.405	0.0155429
712.483	0.0156209
712.561	0.0155826
712.639	0.0155336
712.717	0.0156181
712.795	0.0156669
712.873	0.0157753
712.951	0.0157715
713.030	0.0157801
713.108	0.0157152
713.186	0.0156096
713.264	0.0156249
713.342	0.0156860
713.420	0.0156436
713.498	0.0155048
713.576	0.0154268
713.655	0.0153659
713.733	0.0153358
713.811	0.0153596
713.889	0.0152669
713.967	0.0151555
714.045	0.0152202
714.123	0.0150879
714.201	0.0150957
714.280	0.0150367
714.358	0.0150491
714.436	0.0152249
714.514	0.0151106
714.592	0.0150239
714.670	0.0150329
714.748	0.0153320
714.826	0.0153294
714.905	0.0153249
714.983	0.0154035
715.061	0.0153759
715.139	0.0157734
715.217	0.0156797
715.295	0.0158727
715.373	0.0159000
715.451	0.0159369
715.530	0.0160296
715.608	0.0159995
715.686	0.0161208
715.764	0.0161848
715.842	0.0161659
715.920	0.0162726
715.998	0.0163097
716.076	0.0162986
716.155	0.0163763
716.233	0.0163273
716.311	0.0162044
716.389	0.0163402
716.467	0.0163200
716.545	0.0163713
716.623	0.0163856
716.701	0.0162462
716.780	0.0162238
716.858	0.0161452
716.936	0.0161179
717.014	0.0161515
717.092	0.0160208
717.170	0.0161379
717.248	0.0159235
717.326	0.0159398
717.405	0.0159201
717.483	0.0157837
717.561	0.0158092
717.639	0.0156992
717.717	0.0155601
717.795	0.0154579
717.873	0.0153188
717.951	0.0152511
718.030	0.0152855
718.108	0.0151668
718.186	0.0151883
718.264	0.0151655
718.342	0.0150255
718.420	0.0149431
718.498	0.0149092
718.576	0.0147227
718.655	0.0148825
718.733	0.0149738
718.811	0.0150162
718.889	0.0150227
718.967	0.0151284
719.045	0.0150229
719.123	0.0150764
719.201	0.0151187
719.280	0.0152238
719.358	0.0153631
719.436	0.0154595
719.514	0.0155504
719.592	0.0155642
719.670	0.0157181
719.748	0.0156782
719.826	0.0158987
719.905	0.0158860
719.983	0.0159106
720.061	0.0159887
720.139	0.0160436
720.217	0.0160542
720.295	0.0161610
720.373	0.0161292
720.451	0.0160749
720.530	0.0162733
720.608	0.0162213
720.686	0.0162364
720.764	0.0161906
720.842	0.0160970
720.920	0.0161763
720.998	0.0161877
721.076	0.0162574
721.155	0.0161205
721.233	0.0160744
721.311	0.0160783
721.389	0.0161114
721.467	0.0161256
721.545	0.0158868
721.623	0.0157969
721.701	0.0155822
721.780	0.0157569
721.858	0.0156838
721.936	0.0156414
722.014	0.0154010
722.092	0.0153355
722.170	0.0154704
722.248	0.0153813
722.326	0.0152248
722.405	0.0150717
722.483	0.0152365
722.561	0.0151649
722.639	0.0151221
722.717	0.0150927
722.795	0.0151785
722.873	0.0150184
722.951	0.0150624
723.030	0.0152383
723.108	0.0151554
723.186	0.0151907
723.264	0.0152452
723.342	0.0153332
723.420	0.0154691
723.498	0.0154345
723.576	0.0155689
723.655	0.0155155
723.733	0.0157043
723.811	0.0157986
723.889	0.0158916
723.967	0.0158144
724.045	0.0156912
724.123	0.0159222
724.201	0.0159323
724.280	0.0158811
724.358	0.0158617
724.436	0.0159746
724.514	0.0159103
724.592	0.0158678
724.670	0.0157246
724.748	0.0158963
724.826	0.0158630
724.905	0.0158484
724.983	0.0155991
725.061	0.0155624
725.139	0.0156265
725.217	0.0156164
725.295	0.0154404
725.373	0.0154378
725.451	0.0153461
725.530	0.0155025
725.608	0.0153270
725.686	0.0153327
725.764	0.0153387
725.842	0.0152421
725.920	0.0153732
725.998	0.0153610
726.076	0.0151871
726.155	0.0153966
726.233	0.0154838
726.311	0.0155188
726.389	0.0156619
726.467	0.0156525
726.545	0.0155688
726.623	0.0158017
726.701	0.0159685
726.780	0.0159418
726.858	0.0159924
726.936	0.0159835
727.014	0.0161156
727.092	0.0161452
727.170	0.0161639
727.248	0.0162927
727.326	0.0162627
727.405	0.0161513
727.483	0.0163200
727.561	0.0162531
727.639	0.0163170
727.717	0.0161600
727.795	0.0162492
727.873	0.0162086
727.951	0.0162492
728.030	0.0162347
728.108	0.0162445
728.186	0.0160442
728.264	0.0159843
728.342	0.0161566
728.420	0.0161359
728.498	0.0160254
728.576	0.0159491
728.655	0.0158787
728.733	0.0158815
728.811	0.0159776
728.889	0.0158453
728.967	0.0157697
729.045	0.0158018
729.123	0.0157503
729.201	0.0156926
729.280	0.0157725
729.358	0.0155321
729.436	0.0156215
729.514	0.0155152
729.592	0.0154184
729.670	0.0154546
729.748	0.0153160
729.826	0.0152840
729.905	0.0155843
729.983	0.0153853
730.061	0.0153473
730.139	0.0153456
730.217	0.0153164
730.295	0.0153577
730.373	0.0155820
730.451	0.0154189
730.530	0.0155492
730.608	0.0156335
730.686	0.0155627
730.764	0.0156406
730.842	0.0155710
730.920	0.0157231
730.998	0.0155206
731.076	0.0156098
731.155	0.0155731
731.233	0.0155791
731.311	0.0155920
731.389	0.0154992
731.467	0.0156091
731.545	0.0155603
731.623	0.0155714
731.701	0.0155414
731.780	0.0154305
731.858	0.0156019
731.936	0.0156788
732.014	0.0155785
732.092	0.0155860
732.170	0.0155527
732.248	0.0155685
732.326	0.0156789
732.405	0.0155533
732.483	0.0155621
732.561	0.0154817
732.639	0.0154859
732.717	0.0155976
732.795	0.0155322
732.873	0.0156125
732.951	0.0155470
733.030	0.0155495
733.108	0.0155620
733.186	0.0155349
733.264	0.0156378
733.342	0.0156492
733.420	0.0156515
733.498	0.0156129
733.576	0.0154852
733.655	0.0157041
733.733	0.0158080
733.811	0.0155940
733.889	0.0155959
733.967	0.0156512
734.045	0.0155515
734.123	0.0156731
734.201	0.0156326
734.280	0.0155470
734.358	0.0154940
734.436	0.0155229
734.514	0.0155870
734.592	0.0155463
734.670	0.0156517
734.748	0.0155315
734.826	0.0154278
734.905	0.0156878
734.983	0.0156289
735.061	0.0154359
735.139	0.0155176
735.217	0.0154921
735.295	0.0155073
735.373	0.0155367
735.451	0.0155895
735.530	0.0155930
735.608	0.0154660
735.686	0.0154282
735.764	0.0154810
735.842	0.0153935
735.920	0.0154195
735.998	0.0154280
736.076	0.0155504
736.155	0.0155421
736.233	0.0155707
736.311	0.0155523
736.389	0.0156176
736.467	0.0156259
736.545	0.0156300
736.623	0.0157799
736.701	0.0156578
736.780	0.0157535
736.858	0.0156721
736.936	0.0155173
737.014	0.0155912
737.092	0.0157011
737.170	0.0156309
737.248	0.0157013
737.326	0.0155430
737.405	0.0154317
737.483	0.0155127
737.561	0.0154697
737.639	0.0156716
737.717	0.0155806
737.795	0.0155369
737.873	0.0156282
737.951	0.0155403
738.030	0.0154765
738.108	0.0155125
738.186	0.0154673
738.264	0.0155950
738.342	0.0155523
738.420	0.0155758
738.498	0.0156263
738.576	0.0156543
738.655	0.0158298
738.733	0.0159699
738.811	0.0158275
738.889	0.0157760
738.967	0.0159267
739.045	0.0158186
739.123	0.0159576
739.201	0.0158655
739.280	0.0160206
739.358	0.0158439
739.436	0.0159952
739.514	0.0159554
739.592	0.0158098
739.670	0.0160371
739.748	0.0159496
739.826	0.0158827
739.905	0.0159324
739.983	0.0159948
740.061	0.0159405
740.139	0.0157986
740.217	0.0158410
740.295	0.0158941
740.373	0.0158241
740.451	0.0157507
740.530	0.0158752
740.608	0.0156194
740.686	0.0156824
740.764	0.0156293
740.842	0.0158097
740.920	0.0156467
740.998	0.0155779
741.076	0.0157774
741.155	0.0156593
741.233	0.0156680
741.311	0.0156093
741.389	0.0157708
741.467	0.0158210
741.545	0.0157241
741.623	0.0159020
741.701	0.0158777
741.780	0.0158733
741.858	0.0161538
741.936	0.0159741
742.014	0.0158437
742.092	0.0160348
742.170	0.0160799
742.248	0.0159202
742.326	0.0159711
742.405	0.0159782
742.483	0.0157867
742.561	0.0159578
742.639	0.0158855
742.717	0.0159581
742.795	0.0159346
742.873	0.0157174
742.951	0.0157649
743.030	0.0155727
743.108	0.0156046
743.186	0.0156435
743.264	0.0156674
743.342	0.0155859
743.420	0.0155052
743.498	0.0156364
743.576	0.0156458
743.655	0.0155681
743.733	0.0155194
743.811	0.0154514
743.889	0.0156809
743.967	0.0155787
744.045	0.0155754
744.123	0.0156178
744.201	0.0156319
744.280	0.0156181
744.358	0.0155448
744.436	0.0156155
744.514	0.0157045
744.592	0.0157480
744.670	0.0155189
744.748	0.0154594
744.826	0.0154332
744.905	0.0154045
744.983	0.0155283
745.061	0.0154398
745.139	0.0153732
745.217	0.0155305
745.295	0.0153451
745.373	0.0153688
745.451	0.0152981
745.530	0.0153259
745.608	0.0155252
745.686	0.0154622
745.764	0.0154969
745.842	0.0155331
745.920	0.0155225
745.998	0.0156490
746.076	0.0155496
746.155	0.0157288
746.233	0.0156720
746.311	0.0157140
746.389	0.0156591
746.467	0.0157211
746.545	0.0157899
746.623	0.0158391
746.701	0.0156909
746.780	0.0156627
746.858	0.0157634
746.936	0.0158497
747.014	0.0156112
747.092	0.0156807
747.170	0.0158370
747.248	0.0157431
747.326	0.0156366
747.405	0.0157864
747.483	0.0158791
747.561	0.0157018
747.639	0.0155846
747.717	0.0154709
747.795	0.0157684
747.873	0.0157907
747.951	0.0156629
748.030	0.0157702
748.108	0.0156990
748.186	0.0157083
748.264	0.0158353
748.342	0.0158069
748.420	0.0157194
748.498	0.0157337
748.576	0.0157345
748.655	0.0158376
748.733	0.0158857
748.811	0.0157941
748.889	0.0157156
748.967	0.0159340
749.045	0.0158436
749.123	0.0157622
749.201	0.0157232
749.280	0.0156635
749.358	0.0158099
749.436	0.0156791
749.514	0.0156498
749.592	0.0156228
749.670	0.0157915
749.748	0.0157757
749.826	0.0156499
749.905	0.0157195
749.983	0.0159044
750.061	0.0157995
750.139	0.0158365
750.217	0.0157397
750.295	0.0158688
750.373	0.0159565
750.451	0.0159416
750.530	0.0158282
750.608	0.0158939
750.686	0.0158730
750.764	0.0159937
750.842	0.0160701
750.920	0.0159964
750.998	0.0159161
751.076	0.0160531
751.155	0.0159293
751.233	0.0160751
751.311	0.0159545
751.389	0.0159518
751.467	0.0159174
751.545	0.0158424
751.623	0.0157255
751.701	0.0159515
751.780	0.0158066
751.858	0.0156188
751.936	0.0154893
752.014	0.0156118
752.092	0.0155766
752.170	0.0153905
752.248	0.0154746
752.326	0.0155164
752.405	0.0155521
752.483	0.0155228
752.561	0.0154324
752.639	0.0152908
752.717	0.0153651
752.795	0.0154242
752.873	0.0153921
752.951	0.0154269
753.030	0.0154150
753.108	0.0153317
753.186	0.0153580
753.264	0.0153466
753.342	0.0152194
753.420	0.0152832
753.498	0.0151817
753.576	0.0153111
753.655	0.0153967
753.733	0.0154469
753.811	0.0152338
753.889	0.0153136
753.967	0.0153133
754.045	0.0153084
754.123	0.0153441
754.201	0.0152788
754.280	0.0154335
754.358	0.0155835
754.436	0.0155279
754.514	0.0154496
754.592	0.0154609
754.670	0.0156379
754.748	0.0156406
754.826	0.0155805
754.905	0.0156231
754.983	0.0156622
755.061	0.0156849
755.139	0.0157223
755.217	0.0157253
755.295	0.0158299
755.373	0.0156832
755.451	0.0157871
755.530	0.0157423
755.608	0.0157007
755.686	0.0156042
755.764	0.0156412
755.842	0.0156625
755.920	0.0157046
755.998	0.0158160
756.076	0.0157391
756.155	0.0155575
756.233	0.0157188
756.311	0.0157881
756.389	0.0158901
756.467	0.0157541
756.545	0.0158456
756.623	0.0157325
756.701	0.0158279
756.780	0.0158582
756.858	0.0157699
756.936	0.0158419
757.014	0.0158787
757.092	0.0160011
757.170	0.0159190
757.248	0.0158913
757.326	0.0159408
757.405	0.0157587
757.483	0.0158256
757.561	0.0158546
757.639	0.0158274
757.717	0.0158209
757.795	0.0158414
757.873	0.0156862
757.951	0.0157332
758.030	0.0157718
758.108	0.0157145
758.186	0.0156602
758.264	0.0157246
758.342	0.0155232
758.420	0.0155844
758.498	0.0154832
758.576	0.0155824
758.655	0.0154284
758.733	0.0154278
758.811	0.0154421
758.889	0.0155909
758.967	0.0153709
759.045	0.0153678
759.123	0.0153722
759.201	0.0154888
759.280	0.0155090
759.358	0.0154433
759.436	0.0156149
759.514	0.0157095
759.592	0.0156033
759.670	0.0156797
759.748	0.0158446
759.826	0.0157917
759.905	0.0157179
759.983	0.0157079
760.061	0.0158169
760.139	0.0158083
760.217	0.0157483
760.295	0.0158533
760.373	0.0159579
760.451	0.0158675
760.530	0.0158659
760.608	0.0157497
760.686	0.0158616
760.764	0.0159363
760.842	0.0156882
760.920	0.0156263
760.998	0.0155052
761.076	0.0155161
761.155	0.0156266
761.233	0.0154762
761.311	0.0154842
761.389	0.0155132
761.467	0.0155723
761.545	0.0156356
761.623	0.0155000
761.701	0.0154721
761.780	0.0154239
761.858	0.0156992
761.936	0.0156210
762.014	0.0156355
762.092	0.0156232
762.170	0.0155688
762.248	0.0155700
762.326	0.0156477
762.405	0.0156593
762.483	0.0156321
762.561	0.0156593
762.639	0.0158404
762.717	0.0158432
762.795	0.0157853
762.873	0.0157580
762.951	0.0159488
763.030	0.0159106
763.108	0.0160448
763.186	0.0159727
763.264	0.0158894
763.342	0.0158972
763.420	0.0157922
763.498	0.0159103
763.576	0.0158284
763.655	0.0158521
763.733	0.0156926
763.811	0.0158589
763.889	0.0158012
763.967	0.0157483
764.045	0.0157654
764.123	0.0156369
764.201	0.0155825
764.280	0.0156798
764.358	0.0156709
764.436	0.0157495
764.514	0.0156773
764.592	0.0156813
764.670	0.0157962
764.748	0.0156754
764.826	0.0156439
764.905	0.0155903
764.983	0.0156957
765.061	0.0157465
765.139	0.0156376
765.217	0.0157618
765.295	0.0155849
765.373	0.0156073
765.451	0.0157450
765.530	0.0154898
765.608	0.0156590
765.686	0.0157924
765.764	0.0155547
765.842	0.0154300
765.920	0.0156013
765.998	0.0155429
766.076	0.0154273
766.155	0.0154737
766.233	0.0154388
766.311	0.0154439
766.389	0.0152495
766.467	0.0151369
766.545	0.0152660
766.623	0.0153043
766.701	0.0152116
766.780	0.0153779
766.858	0.0151128
766.936	0.0152636
767.014	0.0154568
767.092	0.0152057
767.170	0.0154266
767.248	0.0154311
767.326	0.0154046
767.405	0.0154288
767.483	0.0154521
767.561	0.0155446
767.639	0.0156571
767.717	0.0157226
767.795	0.0157259
767.873	0.0159274
767.951	0.0159164
768.030	0.0159170
768.108	0.0158515
768.186	0.0159181
768.264	0.0160508
768.342	0.0159635
768.420	0.0161385
768.498	0.0160390
768.576	0.0160744
768.655	0.0160751
768.733	0.0161605
768.811	0.0161629
768.889	0.0161680
768.967	0.0162128
769.045	0.0160653
769.123	0.0161249
769.201	0.0161909
769.280	0.0161128
769.358	0.0159663
769.436	0.0159895
769.514	0.0158693
769.592	0.0160258
769.670	0.0159470
769.748	0.0158845
769.826	0.0160693
769.905	0.0158581
769.983	0.0156931
770.061	0.0157616
770.139	0.0159444
770.217	0.0157754
770.295	0.0157069
770.373	0.0157590
770.451	0.0157538
770.530	0.0157677
770.608	0.0156661
770.686	0.0157694
770.764	0.0156715
770.842	0.0155668
770.920	0.0155760
770.998	0.0156351
771.076	0.0156017
771.155	0.0156380
771.233	0.0155817
771.311	0.0155045
771.389	0.0156065
771.467	0.0155660
771.545	0.0154765
771.623	0.0157166
771.701	0.0156928
771.780	0.0155770
771.858	0.0156179
771.936	0.0154935
772.014	0.0156115
772.092	0.0157855
772.170	0.0158380
772.248	0.0156408
772.326	0.0156438
772.405	0.0157404
772.483	0.0157994
772.561	0.0158432
772.639	0.0159082
772.717	0.0157352
772.795	0.0159409
772.873	0.0159201
772.951	0.0158342
773.030	0.0157808
773.108	0.0159802
773.186	0.0159343
773.264	0.0159779
773.342	0.0159273
773.420	0.0158914
773.498	0.0160091
773.576	0.0158244
773.655	0.0157935
773.733	0.0157503
773.811	0.0158068
773.889	0.0158047
773.967	0.0157944
774.045	0.0158836
774.123	0.0158270
774.201	0.0158463
774.280	0.0158731
774.358	0.0158138
774.436	0.0157463
774.514	0.0158364
774.592	0.0158645
774.670	0.0158229
774.748	0.0156872
774.826	0.0157901
774.905	0.0156492
774.983	0.0156620
775.061	0.0158230
775.139	0.0157165
775.217	0.0155992
775.295	0.0157222
775.373	0.0156378
775.451	0.0155618
775.530	0.0155796
775.608	0.0156770
775.686	0.0155432
775.764	0.0155576
775.842	0.0154615
775.920	0.0156568
775.998	0.0156036
776.076	0.0154826
776.155	0.0153616
776.233	0.0154669
776.311	0.0155154
776.389	0.0154177
776.467	0.0153021
776.545	0.0154399
776.623	0.0156509
776.701	0.0154100
776.780	0.0155127
776.858	0.0154926
776.936	0.0153876
777.014	0.0154591
777.092	0.0155466
777.170	0.0153937
777.248	0.0153886
777.326	0.0155766
777.405	0.0155991
777.483	0.0154942
777.561	0.0155815
777.639	0.0155717
777.717	0.0156150
777.795	0.0155636
777.873	0.0156212
777.951	0.0155527
778.030	0.0155129
778.108	0.0156479
778.186	0.0156545
778.264	0.0156546
778.342	0.0156341
778.420	0.0156966
778.498	0.0157515
778.576	0.0158208
778.655	0.0156889
778.733	0.0157204
778.811	0.0158976
778.889	0.0158356
778.967	0.0158041
779.045	0.0159091
779.123	0.0159437
779.201	0.0159343
779.280	0.0157887
779.358	0.0159903
779.436	0.0159682
779.514	0.0158266
779.592	0.0157746
779.670	0.0159576
779.748	0.0159692
779.826	0.0159579
779.905	0.0159714
779.983	0.0159616
780.061	0.0160308
780.139	0.0157947
780.217	0.0159386
780.295	0.0158746
780.373	0.0159284
780.451	0.0159169
780.530	0.0159066
780.608	0.0158836
780.686	0.0159937
780.764	0.0158013
780.842	0.0156996
780.920	0.0158574
780.998	0.0159763
781.076	0.0157681
781.155	0.0158137
781.233	0.0157762
781.311	0.0156790
781.389	0.0157861
781.467	0.0157658
781.545	0.0157510
781.623	0.0155241
781.701	0.0155633
781.780	0.0153899
781.858	0.0154871
781.936	0.0154612
782.014	0.0154273
782.092	0.0154384
782.170	0.0153186
782.248	0.0153976
782.326	0.0153434
782.405	0.0151934
782.483	0.0153378
782.561	0.0152533
782.639	0.0152859
782.717	0.0152817
782.795	0.0152660
782.873	0.0153387
782.951	0.0152664
783.030	0.0152261
783.108	0.0152876
783.186	0.0153900
783.264	0.0153360
783.342	0.0154760
783.420	0.0153336
783.498	0.0154419
783.576	0.0154865
783.655	0.0154885
783.733	0.0155706
783.811	0.0154747
783.889	0.0155598
783.967	0.0156147
784.045	0.0156517
784.123	0.0156441
784.201	0.0154766
784.280	0.0155730
784.358	0.0157247
784.436	0.0155857
784.514	0.0154964
784.592	0.0156161
784.670	0.0157478
784.748	0.0157728
784.826	0.0157131
784.905	0.0157629
784.983	0.0157823
785.061	0.0158729
785.139	0.0158710
785.217	0.0158169
785.295	0.0158421
785.373	0.0158504
785.451	0.0158857
785.530	0.0160419
785.608	0.0160058
785.686	0.0160210
785.764	0.0159074
785.842	0.0161045
785.920	0.0159676
785.998	0.0161768
786.076	0.0159975
786.155	0.0160210
786.233	0.0158675
786.311	0.0159703
786.389	0.0160094
786.467	0.0160258
786.545	0.0160489
786.623	0.0159665
786.701	0.0159176
786.780	0.0160085
786.858	0.0159962
786.936	0.0158795
787.014	0.0158300
787.092	0.0159132
787.170	0.0158582
787.248	0.0157643
787.326	0.0158767
787.405	0.0157633
787.483	0.0157305
787.561	0.0157883
787.639	0.0159267
787.717	0.0156310
787.795	0.0155724
787.873	0.0156934
787.951	0.0156178
788.030	0.0155961
788.108	0.0156454
788.186	0.0155885
788.264	0.0154011
788.342	0.0155876
788.420	0.0155412
788.498	0.0154874
788.576	0.0154585
788.655	0.0153443
788.733	0.0154409
788.811	0.0154656
788.889	0.0154428
788.967	0.0154221
789.045	0.0154420
789.123	0.0154601
789.201	0.0155682
789.280	0.0155849
789.358	0.0156327
789.436	0.0156036
789.514	0.0156877
789.592	0.0155962
789.670	0.0156628
789.748	0.0157619
789.826	0.0157318
789.905	0.0158311
789.983	0.0157047
790.061	0.0156715
790.139	0.0156218
790.217	0.0157388
790.295	0.0159084
790.373	0.0157627
790.451	0.0158093
790.530	0.0157088
790.608	0.0158927
790.686	0.0158636
790.764	0.0157196
790.842	0.0158244
790.920	0.0158989
790.998	0.0158710
791.076	0.0158607
791.155	0.0157413
791.233	0.0159311
791.311	0.0158958
791.389	0.0157652
791.467	0.0157877
791.545	0.0159441
791.623	0.0157467
791.701	0.0157524
791.780	0.0158501
791.858	0.0157040
791.936	0.0158178
792.014	0.0156694
792.092	0.0156438
792.170	0.0157507
792.248	0.0156062
792.326	0.0156138
792.405	0.0155782
792.483	0.0156528
792.561	0.0156335
792.639	0.0155379
792.717	0.0156464
792.795	0.0156811
792.873	0.0155643
792.951	0.0157106
793.030	0.0155858
793.108	0.0155684
793.186	0.0156440
793.264	0.0155349
793.342	0.0155186
793.420	0.0156377
793.498	0.0154475
793.576	0.0155574
793.655	0.0155864
793.733	0.0155077
793.811	0.0155746
793.889	0.0155655
793.967	0.0156049
794.045	0.0155943
794.123	0.0154945
794.201	0.0156242
794.280	0.0156006
794.358	0.0155028
794.436	0.0155979
794.514	0.0156190
794.592	0.0155800
794.670	0.0156083
794.748	0.0155367
794.826	0.0156248
794.905	0.0156224
794.983	0.0155976
795.061	0.0157416
795.139	0.0157214
795.217	0.0157274
795.295	0.0157088
795.373	0.0158424
795.451	0.0157781
795.530	0.0157414
795.608	0.0159078
795.686	0.0157951
795.764	0.0158479
795.842	0.0159807
795.920	0.0160609
795.998	0.0160443
796.076	0.0159044
796.155	0.0158849
796.233	0.0159029
796.311	0.0159521
796.389	0.0158272
796.467	0.0158223
796.545	0.0158752
796.623	0.0158457
796.701	0.0158513
796.780	0.0158206
796.858	0.0158366
796.936	0.0156661
797.014	0.0158241
797.092	0.0156570
797.170	0.0156676
797.248	0.0157497
797.326	0.0158434
797.405	0.0157457
797.483	0.0158110
797.561	0.0157153
797.639	0.0157212
797.717	0.0158356
797.795	0.0158075
797.873	0.0156984
797.951	0.0157525
798.030	0.0157616
798.108	0.0158059
798.186	0.0158639
798.264	0.0158103
798.342	0.0156557
798.420	0.0158286
798.498	0.0158418
798.576	0.0157536
798.655	0.0156852
798.733	0.0157345
798.811	0.0158071
798.889	0.0157327
798.967	0.0155964
799.045	0.0157304
799.123	0.0156504
799.201	0.0154268
799.280	0.0157391
799.358	0.0155995
799.436	0.0154309
799.514	0.0154002
799.592	0.0156142
799.670	0.0155450
799.748	0.0154459
799.826	0.0153223
799.905	0.0154506
799.983	0.0153854
800.061	0.0155263
800.139	0.0154425
800.217	0.0155199
800.295	0.0154934
800.373	0.0154850
800.451	0.0154210
800.530	0.0155249
800.608	0.0154003
800.686	0.0155788
800.764	0.0156511
800.842	0.0157075
800.920	0.0155170
800.998	0.0155941
801.076	0.0156125
801.155	0.0157064
801.233	0.0157922
801.311	0.0157201
801.389	0.0157281
801.467	0.0156561
801.545	0.0157201
801.623	0.0158141
801.701	0.0157482
801.780	0.0160271
801.858	0.0158200
801.936	0.0157389
802.014	0.0158266
802.092	0.0158190
802.170	0.0158655
802.248	0.0159421
802.326	0.0158750
802.405	0.0158123
802.483	0.0157612
802.561	0.0156926
802.639	0.0156457
802.717	0.0158021
802.795	0.0158044
802.873	0.0157946
802.951	0.0155409
803.030	0.0156053
803.108	0.0157439
803.186	0.0156542
803.264	0.0155998
803.342	0.0156264
803.420	0.0156652
803.498	0.0156487
803.576	0.0156516
803.655	0.0156892
803.733	0.0156006
803.811	0.0156416
803.889	0.0156556
803.967	0.0156522
804.045	0.0156379
804.123	0.0157014
804.201	0.0156200
804.280	0.0155530
804.358	0.0156486
804.436	0.0156409
804.514	0.0155921
804.592	0.0155125
804.670	0.0154865
804.748	0.0156300
804.826	0.0155325
804.905	0.0154623
804.983	0.0157349
805.061	0.0155944
805.139	0.0156416
805.217	0.0156647
805.295	0.0155036
805.373	0.0156239
805.451	0.0156702
805.530	0.0156738
805.608	0.0157535
805.686	0.0156480
805.764	0.0157098
805.842	0.0154959
805.920	0.0155573
805.998	0.0157124
806.076	0.0156726
806.155	0.0156039
806.233	0.0156589
806.311	0.0158048
806.389	0.0158043
806.467	0.0157258
806.545	0.0159514
806.623	0.0157738
806.701	0.0157215
806.780	0.0157390
806.858	0.0157236
806.936	0.0157919
807.014	0.0157943
807.092	0.0158612
807.170	0.0158743
807.248	0.0156133
807.326	0.0157384
807.405	0.0157944
807.483	0.0157639
807.561	0.0157572
807.639	0.0156905
807.717	0.0157639
807.795	0.0158188
807.873	0.0157609
807.951	0.0155997
808.030	0.0156676
808.108	0.0156757
808.186	0.0157047
808.264	0.0156703
808.342	0.0155687
808.420	0.0156170
808.498	0.0155958
808.576	0.0156071
808.655	0.0155524
808.733	0.0155109
808.811	0.0156192
808.889	0.0156892
808.967	0.0156013
809.045	0.0156380
809.123	0.0156075
809.201	0.0157228
809.280	0.0158594
809.358	0.0157568
809.436	0.0156871
809.514	0.0157417
809.592	0.0157927
809.670	0.0158963
809.748	0.0157496
809.826	0.0157346
809.905	0.0158558
809.983	0.0158198
810.061	0.0159218
810.139	0.0157365
810.217	0.0156286
810.295	0.0156897
810.373	0.0156586
810.451	0.0157362
810.530	0.0156687
810.608	0.0156765
810.686	0.0157716
810.764	0.0155959
810.842	0.0156191
810.920	0.0155579
810.998	0.0156283
811.076	0.0156046
811.155	0.0156332
811.233	0.0155463
811.311	0.0156096
811.389	0.0155930
811.467	0.0156284
811.545	0.0158046
811.623	0.0155823
811.701	0.0158430
811.780	0.0157874
811.858	0.0157040
811.936	0.0157286
812.014	0.0156597
812.092	0.0157736
812.170	0.0157889
812.248	0.0156876
812.326	0.0159170
812.405	0.0157751
812.483	0.0157240
812.561	0.0158743
812.639	0.0157826
812.717	0.0157314
812.795	0.0156573
812.873	0.0157841
812.951	0.0157764
813.030	0.0156183
813.108	0.0155739
813.186	0.0157413
813.264	0.0157083
813.342	0.0156129
813.420	0.0156478
813.498	0.0156870
813.576	0.0157020
813.655	0.0156832
813.733	0.0156189
813.811	0.0156671
813.889	0.0155964
813.967	0.0156770
814.045	0.0157224
814.123	0.0155440
814.201	0.0156316
814.280	0.0155141
814.358	0.0155117
814.436	0.0156682
814.514	0.0155946
814.592	0.0154823
814.670	0.0156612
814.748	0.0156952
814.826	0.0155956
814.905	0.0155514
814.983	0.0156063
815.061	0.0154750
815.139	0.0156606
815.217	0.0155150
815.295	0.0155228
815.373	0.0155974
815.451	0.0155249
815.530	0.0155039
815.608	0.0155830
815.686	0.0156491
815.764	0.0155685
815.842	0.0154939
815.920	0.0155814
815.998	0.0155227
816.076	0.0155977
816.155	0.0156692
816.233	0.0155325
816.311	0.0155931
816.389	0.0156625
816.467	0.0157877
816.545	0.0158267
816.623	0.0157639
816.701	0.0157455
816.780	0.0159473
816.858	0.0157352
816.936	0.0158346
817.014	0.0158514
817.092	0.0159003
817.170	0.0158630
817.248	0.0158907
817.326	0.0158152
817.405	0.0158616
817.483	0.0157215
817.561	0.0159879
817.639	0.0158067
817.717	0.0159140
817.795	0.0159252
817.873	0.0159086
817.951	0.0159055
818.030	0.0158952
818.108	0.0157367
818.186	0.0156796
818.264	0.0157793
818.342	0.0157305
818.420	0.0157329
818.498	0.0156989
818.576	0.0155582
818.655	0.0156095
818.733	0.0156475
818.811	0.0156449
818.889	0.0155533
818.967	0.0156026
819.045	0.0153957
819.123	0.0155488
819.201	0.0156146
819.280	0.0154163
819.358	0.0153991
819.436	0.0155322
819.514	0.0154669
819.592	0.0154233
819.670	0.0154131
819.748	0.0156420
819.826	0.0156264
819.905	0.0155099
819.983	0.0155054
820.061	0.0155881
820.139	0.0156816
820.217	0.0156007
820.295	0.0155537
820.373	0.0156456
820.451	0.0155848
820.530	0.0156707
820.608	0.0158839
820.686	0.0157681
820.764	0.0157599
820.842	0.0157720
820.920	0.0157919
820.998	0.0157379
821.076	0.0157933
821.155	0.0158237
821.233	0.0157990
821.311	0.0157821
821.389	0.0157297
821.467	0.0157120
821.545	0.0157917
821.623	0.0157529
821.701	0.0158316
821.780	0.0158589
821.858	0.0157207
821.936	0.0157497
822.014	0.0157966
822.092	0.0158820
822.170	0.0157975
822.248	0.0156504
822.326	0.0155878
822.405	0.0157582
822.483	0.0156253
822.561	0.0157561
822.639	0.0158485
822.717	0.0156821
822.795	0.0157808
822.873	0.0157937
822.951	0.0157273
823.030	0.0156512
823.108	0.0157571
823.186	0.0155503
823.264	0.0156167
823.342	0.0156795
823.420	0.0155865
823.498	0.0156376
823.576	0.0156084
823.655	0.0156084
823.733	0.0155906
823.811	0.0156685
823.889	0.0156335
823.967	0.0155972
824.045	0.0154948
824.123	0.0156189
824.201	0.0154820
824.280	0.0156258
824.358	0.0156156
824.436	0.0155067
824.514	0.0156298
824.592	0.0155769
824.670	0.0155936
824.748	0.0154407
824.826	0.0154240
824.905	0.0154805
824.983	0.0155261
825.061	0.0154529
825.139	0.0153621
825.217	0.0154864
825.295	0.0154358
825.373	0.0154042
825.451	0.0153690
825.530	0.0155046
825.608	0.0153870
825.686	0.0154343
825.764	0.0155129
825.842	0.0153931
825.920	0.0154606
825.998	0.0155731
826.076	0.0154622
826.155	0.0155586
826.233	0.0154710
826.311	0.0154945
826.389	0.0156108
826.467	0.0155653
826.545	0.0155305
826.623	0.0155325
826.701	0.0156795
826.780	0.0156605
826.858	0.0154706
826.936	0.0156009
827.014	0.0155827
827.092	0.0156353
827.170	0.0156732
827.248	0.0156686
827.326	0.0156908
827.405	0.0157134
827.483	0.0157314
827.561	0.0156802
827.639	0.0156575
827.717	0.0155217
827.795	0.0157263
827.873	0.0156665
827.951	0.0157729
828.030	0.0156272
828.108	0.0157122
828.186	0.0156944
828.264	0.0157896
828.342	0.0156702
828.420	0.0157889
828.498	0.0156750
828.576	0.0156828
828.655	0.0157977
828.733	0.0158192
828.811	0.0157407
828.889	0.0157491
828.967	0.0157858
829.045	0.0157259
829.123	0.0157336
829.201	0.0157360
829.280	0.0158241
829.358	0.0158483
829.436	0.0158112
829.514	0.0156867
829.592	0.0157604
829.670	0.0156865
829.748	0.0157965
829.826	0.0156081
829.905	0.0155332
829.983	0.0155750
830.061	0.0156673
830.139	0.0156229
830.217	0.0156937
830.295	0.0155069
830.373	0.0155455
830.451	0.0156523
830.530	0.0153586
830.608	0.0157153
830.686	0.0156465
830.764	0.0156765
830.842	0.0155341
830.920	0.0156168
830.998	0.0157201
831.076	0.0157014
831.155	0.0156817
831.233	0.0157990
831.311	0.0156657
831.389	0.0157877
831.467	0.0157907
831.545	0.0155971
831.623	0.0156858
831.701	0.0158255
831.780	0.0158387
831.858	0.0157169
831.936	0.0157757
832.014	0.0158467
832.092	0.0159546
832.170	0.0159290
832.248	0.0158633
832.326	0.0157903
832.405	0.0157832
832.483	0.0158196
832.561	0.0157616
832.639	0.0157552
832.717	0.0157040
832.795	0.0157632
832.873	0.0158837
832.951	0.0158301
833.030	0.0157936
833.108	0.0157395
833.186	0.0156873
833.264	0.0157439
833.342	0.0157630
833.420	0.0157175
833.498	0.0156288
833.576	0.0156243
833.655	0.0156783
833.733	0.0155667
833.811	0.0156847
833.889	0.0155818
833.967	0.0156374
834.045	0.0156261
834.123	0.0155410
834.201	0.0156264
834.280	0.0153766
834.358	0.0153847
834.436	0.0155109
834.514	0.0156004
834.592	0.0154826
834.670	0.0154064
834.748	0.0153728
834.826	0.0154489
834.905	0.0152911
834.983	0.0155949
835.061	0.0155983
835.139	0.0154268
835.217	0.0155012
835.295	0.0152998
835.373	0.0154110
835.451	0.0153457
835.530	0.0153777
835.608	0.0155019
835.686	0.0154728
835.764	0.0153989
835.842	0.0154708
835.920	0.0154170
835.998	0.0153715
836.076	0.0153848
836.155	0.0154659
836.233	0.0154195
836.311	0.0153901
836.389	0.0155350
836.467	0.0154133
836.545	0.0156070
836.623	0.0154268
836.701	0.0153485
836.780	0.0155106
836.858	0.0154314
836.936	0.0155970
837.014	0.0155122
837.092	0.0155976
837.170	0.0155234
837.248	0.0154774
837.326	0.0155277
837.405	0.0157162
837.483	0.0155780
837.561	0.0156642
837.639	0.0156534
837.717	0.0156856
837.795	0.0157516
837.873	0.0157607
837.951	0.0156423
838.030	0.0157508
838.108	0.0157038
838.186	0.0156595
838.264	0.0156689
838.342	0.0157449
838.420	0.0158765
838.498	0.0157904
838.576	0.0156940
838.655	0.0156209
838.733	0.0158996
838.811	0.0156976
838.889	0.0158178
838.967	0.0158087
839.045	0.0159964
839.123	0.0156383
839.201	0.0158481
839.280	0.0158715
839.358	0.0157810
839.436	0.0157532
839.514	0.0159068
839.592	0.0157942
839.670	0.0158578
839.748	0.0158846
839.826	0.0156379
839.905	0.0156736
839.983	0.0157565
840.061	0.0155593
840.139	0.0157802
840.217	0.0158053
840.295	0.0157639
840.373	0.0156812
840.451	0.0156302
840.530	0.0156131
840.608	0.0156870
840.686	0.0156888
840.764	0.0155988
840.842	0.0156196
840.920	0.0155765
840.998	0.0157453
841.076	0.0156518
841.155	0.0156093
841.233	0.0155880
841.311	0.0155449
841.389	0.0155777
841.467	0.0156240
841.545	0.0156522
841.623	0.0156808
841.701	0.0156698
841.780	0.0156825
841.858	0.0156598
841.936	0.0156997
842.014	0.0156807
842.092	0.0156986
842.170	0.0158624
842.248	0.0158484
842.326	0.0157510
842.405	0.0156428
842.483	0.0158357
842.561	0.0157735
842.639	0.0157108
842.717	0.0157536
842.795	0.0155852
842.873	0.0157375
842.951	0.0156970
843.030	0.0156886
843.108	0.0157568
843.186	0.0156734
843.264	0.0157655
843.342	0.0158048
843.420	0.0157948
843.498	0.0157963
843.576	0.0157948
843.655	0.0157861
843.733	0.0156496
843.811	0.0158766
843.889	0.0157793
843.967	0.0157623
844.045	0.0158953
844.123	0.0157061
844.201	0.0157556
844.280	0.0160043
844.358	0.0158309
844.436	0.0158250
844.514	0.0157788
844.592	0.0157122
844.670	0.0158939
844.748	0.0157379
844.826	0.0157273
844.905	0.0157322
844.983	0.0157546
845.061	0.0158217
845.139	0.0158553
845.217	0.0158961
845.295	0.0157254
845.373	0.0156532
845.451	0.0155971
845.530	0.0157613
845.608	0.0157262
845.686	0.0156909
845.764	0.0157526
845.842	0.0156043
845.920	0.0157921
845.998	0.0156898
846.076	0.0156757
846.155	0.0156525
846.233	0.0155622
846.311	0.0155565
846.389	0.0157467
846.467	0.0156461
846.545	0.0155630
846.623	0.0157296
846.701	0.0156867
846.780	0.0156952
846.858	0.0156269
846.936	0.0156871
847.014	0.0156301
847.092	0.0155386
847.170	0.0156815
847.248	0.0155949
847.326	0.0156345
847.405	0.0157449
847.483	0.0156416
847.561	0.0156275
847.639	0.0156080
847.717	0.0156773
847.795	0.0156365
847.873	0.0156246
847.951	0.0156197
848.030	0.0156313
848.108	0.0156441
848.186	0.0157464
848.264	0.0156074
848.342	0.0157113
848.420	0.0157463
848.498	0.0155394
848.576	0.0155248
848.655	0.0157291
848.733	0.0157545
848.811	0.0156649
848.889	0.0157771
848.967	0.0156603
849.045	0.0157967
849.123	0.0156706
849.201	0.0156460
849.280	0.0157422
849.358	0.0158159
849.436	0.0157133
849.514	0.0157674
849.592	0.0156896
849.670	0.0157230
849.748	0.0157838
849.826	0.0158337
849.905	0.0159051
849.983	0.0157806
850.061	0.0156369
850.139	0.0157423
850.217	0.0158479
850.295	0.0157838
850.373	0.0157121
850.451	0.0158973
850.530	0.0158590
850.608	0.0156163
850.686	0.0158498
850.764	0.0158546
850.842	0.0157021
850.920	0.0158112
850.998	0.0158338
851.076	0.0157013
851.155	0.0157805
851.233	0.0157268
851.311	0.0156257
851.389	0.0155813
851.467	0.0156866
851.545	0.0157073
851.623	0.0155992
851.701	0.0156213
851.780	0.0156372
851.858	0.0157441
851.936	0.0156805
852.014	0.0155812
852.092	0.0156237
852.170	0.0154911
852.248	0.0155287
852.326	0.0156326
852.405	0.0157198
852.483	0.0156775
852.561	0.0155626
852.639	0.0156580
852.717	0.0156603
852.795	0.0158266
852.873	0.0157346
852.951	0.0154545
853.030	0.0156439
853.108	0.0156957
853.186	0.0156779
853.264	0.0156951
853.342	0.0159075
853.420	0.0156986
853.498	0.0157025
853.576	0.0157513
853.655	0.0157675
853.733	0.0157744
853.811	0.0157769
853.889	0.0158643
853.967	0.0157002
854.045	0.0159116
854.123	0.0157169
854.201	0.0158538
854.280	0.0157987
854.358	0.0157397
854.436	0.0158694
854.514	0.0158925
854.592	0.0158134
854.670	0.0157761
854.748	0.0158218
854.826	0.0157725
854.905	0.0157768
854.983	0.0157525
855.061	0.0159111
855.139	0.0159157
855.217	0.0157853
855.295	0.0158195
855.373	0.0158965
855.451	0.0157585
855.530	0.0157367
855.608	0.0159553
855.686	0.0157868
855.764	0.0157607
855.842	0.0157247
855.920	0.0156948
855.998	0.0157140
856.076	0.0156779
856.155	0.0157669
856.233	0.0156608
856.311	0.0156011
856.389	0.0156766
856.467	0.0157521
856.545	0.0155864
856.623	0.0155794
856.701	0.0157626
856.780	0.0155405
856.858	0.0155435
856.936	0.0156042
857.014	0.0156018
857.092	0.0155852
857.170	0.0156396
857.248	0.0157600
857.326	0.0156549
857.405	0.0156073
857.483	0.0156387
857.561	0.0157344
857.639	0.0156913
857.717	0.0156671
857.795	0.0156602
857.873	0.0156849
857.951	0.0157854
858.030	0.0156515
858.108	0.0156644
858.186	0.0157951
858.264	0.0156917
858.342	0.0156414
858.420	0.0156510
858.498	0.0156570
858.576	0.0156476
858.655	0.0156651
858.733	0.0157954
858.811	0.0156517
858.889	0.0156977
858.967	0.0156620
859.045	0.0156113
859.123	0.0155820
859.201	0.0156741
859.280	0.0156133
859.358	0.0156824
859.436	0.0157436
859.514	0.0157282
859.592	0.0157221
859.670	0.0156527
859.748	0.0155329
859.826	0.0155260
859.905	0.0156743
859.983	0.0155662
860.061	0.0155216
860.139	0.0154839
860.217	0.0155506
860.295	0.0155170
860.373	0.0155466
860.451	0.0155894
860.530	0.0154677
860.608	0.0157184
860.686	0.0156590
860.764	0.0157638
860.842	0.0155303
860.920	0.0155137
860.998	0.0156269
861.076	0.0156102
861.155	0.0155352
861.233	0.0157307
861.311	0.0157150
861.389	0.0157486
861.467	0.0156620
861.545	0.0156489
861.623	0.0157669
861.701	0.0155675
861.780	0.0156000
861.858	0.0157175
861.936	0.0157455
862.014	0.0157652
862.092	0.0157288
862.170	0.0156747
862.248	0.0157859
862.326	0.0158245
862.405	0.0157092
862.483	0.0156721
862.561	0.0157542
862.639	0.0158381
862.717	0.0157509
862.795	0.0157931
862.873	0.0157259
862.951	0.0156438
863.030	0.0157661
863.108	0.0156888
863.186	0.0157960
863.264	0.0157845
863.342	0.0157391
863.420	0.0158095
863.498	0.0156594
863.576	0.0157146
863.655	0.0158253
863.733	0.0157299
863.811	0.0156466
863.889	0.0155916
863.967	0.0157575
864.045	0.0157722
864.123	0.0158170
864.201	0.0157202
864.280	0.0157992
864.358	0.0156131
864.436	0.0156307
864.514	0.0157946
864.592	0.0157921
864.670	0.0156968
864.748	0.0158375
864.826	0.0158343
864.905	0.0156615
864.983	0.0157052
865.061	0.0157946
865.139	0.0156400
865.217	0.0157226
865.295	0.0157201
865.373	0.0157722
865.451	0.0158397
865.530	0.0156932
865.608	0.0157416
865.686	0.0158337
865.764	0.0157413
865.842	0.0156188
865.920	0.0157610
865.998	0.0158974
866.076	0.0158065
866.155	0.0157825
866.233	0.0157512
866.311	0.0157772
866.389	0.0158794
866.467	0.0157288
866.545	0.0158027
866.623	0.0158022
866.701	0.0158961
866.780	0.0158008
866.858	0.0157600
866.936	0.0159186
867.014	0.0158247
867.092	0.0158837
867.170	0.0157932
867.248	0.0158398
867.326	0.0157474
867.405	0.0157457
867.483	0.0158091
867.561	0.0157208
867.639	0.0158691
867.717	0.0157937
867.795	0.0157104
867.873	0.0157054
867.951	0.0157520
868.030	0.0157146
868.108	0.0156995
868.186	0.0157186
868.264	0.0156240
868.342	0.0156956
868.420	0.0156146
868.498	0.0157175
868.576	0.0156031
868.655	0.0155755
868.733	0.0154906
868.811	0.0155087
868.889	0.0156511
868.967	0.0154629
869.045	0.0155223
869.123	0.0155074
869.201	0.0154129
869.280	0.0154311
869.358	0.0154585
869.436	0.0155869
869.514	0.0154400
869.592	0.0154332
869.670	0.0155865
869.748	0.0155968
869.826	0.0153200
869.905	0.0155954
869.983	0.0155482
870.061	0.0155277
870.139	0.0154543
870.217	0.0157069
870.295	0.0156419
870.373	0.0155972
870.451	0.0157659
870.530	0.0158144
870.608	0.0156750
870.686	0.0156423
870.764	0.0156787
870.842	0.0157549
870.920	0.0157537
870.998	0.0157668
871.076	0.0157753
871.155	0.0157950
871.233	0.0156763
871.311	0.0158485
871.389	0.0157355
871.467	0.0157640
871.545	0.0159118
871.623	0.0156484
871.701	0.0159222
871.780	0.0157923
871.858	0.0156421
871.936	0.0157838
872.014	0.0159525
872.092	0.0158307
872.170	0.0157336
872.248	0.0159144
872.326	0.0158788
872.405	0.0158662
872.483	0.0159005
872.561	0.0157230
872.639	0.0159718
872.717	0.0161281
872.795	0.0159600
872.873	0.0160303
872.951	0.0159739
873.030	0.0159369
873.108	0.0159430
873.186	0.0159134
873.264	0.0159682
873.342	0.0158930
873.420	0.0158794
873.498	0.0157435
873.576	0.0158714
873.655	0.0158631
873.733	0.0158324
873.811	0.0157020
873.889	0.0158322
873.967	0.0158179
874.045	0.0155868
874.123	0.0157236
874.201	0.0156693
874.280	0.0157298
874.358	0.0156777
874.436	0.0156853
874.514	0.0156589
874.592	0.0156501
874.670	0.0157641
874.748	0.0156409
874.826	0.0156010
874.905	0.0156958
874.983	0.0157458
875.061	0.0158008
875.139	0.0156229
875.217	0.0158231
875.295	0.0158484
875.373	0.0157018
875.451	0.0157683
875.530	0.0157954
875.608	0.0159131
875.686	0.0157354
875.764	0.0158349
875.842	0.0156478
875.920	0.0157560
875.998	0.0155714
876.076	0.0157336
876.155	0.0156760
876.233	0.0156078
876.311	0.0156495
876.389	0.0156631
876.467	0.0158227
876.545	0.0156843
876.623	0.0156895
876.701	0.0157314
876.780	0.0157015
876.858	0.0156353
876.936	0.0157008
877.014	0.0156621
877.092	0.0155979
877.170	0.0156808
877.248	0.0155949
877.326	0.0156852
877.405	0.0156918
877.483	0.0156160
877.561	0.0157644
877.639	0.0157565
877.717	0.0156832
877.795	0.0156219
877.873	0.0156786
877.951	0.0156541
878.030	0.0155740
878.108	0.0158124
878.186	0.0156895
878.264	0.0157799
878.342	0.0158304
878.420	0.0157143
878.498	0.0156428
878.576	0.0157151
878.655	0.0156627
878.733	0.0155807
878.811	0.0158153
878.889	0.0157816
878.967	0.0156199
879.045	0.0156352
879.123	0.0157001
879.201	0.0155996
879.280	0.0157082
879.358	0.0155888
879.436	0.0155739
879.514	0.0156065
879.592	0.0155120
879.670	0.0155558
879.748	0.0155929
879.826	0.0156651
879.905	0.0154623
879.983	0.0154558
880.061	0.0156100
880.139	0.0154710
880.217	0.0155917
880.295	0.0155618
880.373	0.0154458
880.451	0.0154993
880.530	0.0155421
880.608	0.0156641
880.686	0.0155299
880.764	0.0154493
880.842	0.0154826
880.920	0.0154546
880.998	0.0155048
881.076	0.0155207
881.155	0.0156158
881.233	0.0155583
881.311	0.0156091
881.389	0.0156017
881.467	0.0155909
881.545	0.0155939
881.623	0.0156399
881.701	0.0156062
881.780	0.0156663
881.858	0.0156016
881.936	0.0156824
882.014	0.0156687
882.092	0.0156964
882.170	0.0156680
882.248	0.0157661
882.326	0.0156633
882.405	0.0156335
882.483	0.0157855
882.561	0.0156689
882.639	0.0156781
882.717	0.0156561
882.795	0.0157285
882.873	0.0157699
882.951	0.0155019
883.030	0.0157051
883.108	0.0158025
883.186	0.0156954
883.264	0.0156149
883.342	0.0156274
883.420	0.0154809
883.498	0.0157514
883.576	0.0158101
883.655	0.0157048
883.733	0.0156190
883.811	0.0156645
883.889	0.0156223
883.967	0.0157230
884.045	0.0156658
884.123	0.0158328
884.201	0.0156888
884.280	0.0158234
884.358	0.0157835
884.436	0.0158532
884.514	0.0158427
884.592	0.0158014
884.670	0.0158179
884.748	0.0158098
884.826	0.0157401
884.905	0.0157927
884.983	0.0156852
885.061	0.0157738
885.139	0.0157169
885.217	0.0157413
885.295	0.0157568
885.373	0.0156196
885.451	0.0156902
885.530	0.0157590
885.608	0.0157062
885.686	0.0157303
885.764	0.0157424
885.842	0.0158114
885.920	0.0157427
885.998	0.0156745
886.076	0.0158093
886.155	0.0158009
886.233	0.0156717
886.311	0.0156827
886.389	0.0156773
886.467	0.0156697
886.545	0.0157899
886.623	0.0157088
886.701	0.0157214
886.780	0.0157178
886.858	0.0156624
886.936	0.0156829
887.014	0.0157834
887.092	0.0157935
887.170	0.0157508
887.248	0.0158192
887.326	0.0157780
887.405	0.0157338
887.483	0.0157774
887.561	0.0159688
887.639	0.0157365
887.717	0.0157668
887.795	0.0157602
887.873	0.0157991
887.951	0.0157723
888.030	0.0157774
888.108	0.0156383
888.186	0.0158320
888.264	0.0158799
888.342	0.0158051
888.420	0.0158141
888.498	0.0158260
888.576	0.0158197
888.655	0.0158670
888.733	0.0159231
888.811	0.0158845
888.889	0.0159405
888.967	0.0159559
889.045	0.0158963
889.123	0.0159804
889.201	0.0157719
889.280	0.0158248
889.358	0.0158250
889.436	0.0158781
889.514	0.0156925
889.592	0.0158863
889.670	0.0157661
889.748	0.0157483
889.826	0.0157320
889.905	0.0157052
889.983	0.0157851
890.061	0.0158679
890.139	0.0157957
890.217	0.0157530
890.295	0.0158131
890.373	0.0157825
890.451	0.0158887
890.530	0.0157603
890.608	0.0156921
890.686	0.0157135
890.764	0.0158485
890.842	0.0158319
890.920	0.0156953
890.998	0.0158506
891.076	0.0157745
891.155	0.0157801
891.233	0.0157480
891.311	0.0157335
891.389	0.0157164
891.467	0.0157681
891.545	0.0155103
891.623	0.0155914
891.701	0.0156049
891.780	0.0155480
891.858	0.0156677
891.936	0.0156882
892.014	0.0156660
892.092	0.0155835
892.170	0.0155437
892.248	0.0156429
892.326	0.0156132
892.405	0.0155434
892.483	0.0156139
892.561	0.0155333
892.639	0.0155930
892.717	0.0155652
892.795	0.0155121
892.873	0.0156274
892.951	0.0155152
893.030	0.0154951
893.108	0.0156125
893.186	0.0156398
893.264	0.0156442
893.342	0.0156054
893.420	0.0157365
893.498	0.0155608
893.576	0.0155444
893.655	0.0154965
893.733	0.0154902
893.811	0.0156355
893.889	0.0155194
893.967	0.0155401
894.045	0.0157064
894.123	0.0155442
894.201	0.0154659
894.280	0.0155676
894.358	0.0156889
894.436	0.0157121
894.514	0.0155965
894.592	0.0156020
894.670	0.0155795
894.748	0.0156248
894.826	0.0156105
894.905	0.0156091
894.983	0.0156552
895.061	0.0157697
895.139	0.0157518
895.217	0.0157346
895.295	0.0156261
895.373	0.0158678
895.451	0.0159142
895.530	0.0155294
895.608	0.0157240
895.686	0.0157590
895.764	0.0156378
895.842	0.0157748
895.920	0.0158316
895.998	0.0158257
896.076	0.0157297
896.155	0.0157219
896.233	0.0156944
896.311	0.0158616
896.389	0.0156836
896.467	0.0159139
896.545	0.0158051
896.623	0.0158302
896.701	0.0157903
896.780	0.0158165
896.858	0.0157685
896.936	0.0157220
897.014	0.0156702
897.092	0.0156446
897.170	0.0158250
897.248	0.0157399
897.326	0.0156926
897.405	0.0156091
897.483	0.0156769
897.561	0.0156813
897.639	0.0155302
897.717	0.0157182
897.795	0.0158048
897.873	0.0156939
897.951	0.0156433
898.030	0.0157017
898.108	0.0157793
898.186	0.0156194
898.264	0.0156497
898.342	0.0157671
898.420	0.0156693
898.498	0.0156709
898.576	0.0156295
898.655	0.0157964
898.733	0.0157574
898.811	0.0156716
898.889	0.0157007
898.967	0.0155635
899.045	0.0156821
899.123	0.0156467
899.201	0.0156097
899.280	0.0157314
899.358	0.0157107
899.436	0.0157251
899.514	0.0157941
899.592	0.0156898
899.670	0.0156308
899.748	0.0156233
899.826	0.0155975
899.905	0.0156735
899.983	0.0155528
900.061	0.0156281
900.139	0.0157471
900.217	0.0156129
900.295	0.0155271
900.373	0.0156336
900.451	0.0155640
900.530	0.0156192
900.608	0.0156207
900.686	0.0156541
900.764	0.0154858
900.842	0.0156185
900.920	0.0156326
900.998	0.0156146
901.076	0.0154893
901.155	0.0156947
901.233	0.0157912
901.311	0.0155728
901.389	0.0156844
901.467	0.0156727
901.545	0.0155484
901.623	0.0155461
901.701	0.0156660
901.780	0.0156105
901.858	0.0155831
901.936	0.0156124
902.014	0.0156037
902.092	0.0156398
902.170	0.0158342
902.248	0.0157281
902.326	0.0156358
902.405	0.0157425
902.483	0.0156594
902.561	0.0158047
902.639	0.0157236
902.717	0.0157024
902.795	0.0158027
902.873	0.0155724
902.951	0.0155947
903.030	0.0155798
903.108	0.0154644
903.186	0.0156693
903.264	0.0156567
903.342	0.0155379
903.420	0.0155936
903.498	0.0155661
903.576	0.0154642
903.655	0.0156543
903.733	0.0156303
903.811	0.0155722
903.889	0.0155946
903.967	0.0155096
904.045	0.0154706
904.123	0.0155892
904.201	0.0157253
904.280	0.0156216
904.358	0.0154896
904.436	0.0155824
904.514	0.0156150
904.592	0.0156325
904.670	0.0156967
904.748	0.0157893
904.826	0.0155334
904.905	0.0156780
904.983	0.0156740
905.061	0.0157064
905.139	0.0157376
905.217	0.0156397
905.295	0.0157023
905.373	0.0156766
905.451	0.0157091
905.530	0.0156198
905.608	0.0156828
905.686	0.0158468
905.764	0.0157256
905.842	0.0156428
905.920	0.0156301
905.998	0.0156812
906.076	0.0157400
906.155	0.0157304
906.233	0.0157436
906.311	0.0158849
906.389	0.0157613
906.467	0.0157333
906.545	0.0157745
906.623	0.0159076
906.701	0.0159763
906.780	0.0157894
906.858	0.0157604
906.936	0.0158302
907.014	0.0157577
907.092	0.0159254
907.170	0.0157415
907.248	0.0157674
907.326	0.0158183
907.405	0.0159404
907.483	0.0157849
907.561	0.0157455
907.639	0.0155936
907.717	0.0157231
907.795	0.0157012
907.873	0.0157454
907.951	0.0157425
908.030	0.0155907
908.108	0.0156270
908.186	0.0155315
908.264	0.0155431
908.342	0.0155441
908.420	0.0154211
908.498	0.0155084
908.576	0.0156971
908.655	0.0154678
908.733	0.0155402
908.811	0.0155257
908.889	0.0154895
908.967	0.0155714
909.045	0.0155853
909.123	0.0155351
909.201	0.0155451
909.280	0.0154867
909.358	0.0155028
909.436	0.0156546
909.514	0.0156580
909.592	0.0155928
909.670	0.0156058
909.748	0.0155842
909.826	0.0155697
909.905	0.0154566
909.983	0.0156908
910.061	0.0156833
910.139	0.0155459
910.217	0.0154556
910.295	0.0157736
910.373	0.0155836
910.451	0.0156691
910.530	0.0156993
910.608	0.0157832
910.686	0.0156809
910.764	0.0156029
910.842	0.0156973
910.920	0.0157607
910.998	0.0157057
911.076	0.0157210
911.155	0.0157523
911.233	0.0158266
911.311	0.0158873
911.389	0.0157680
911.467	0.0158788
911.545	0.0158033
911.623	0.0158340
911.701	0.0156841
911.780	0.0157345
911.858	0.0156750
911.936	0.0157333
912.014	0.0157124
912.092	0.0158178
912.170	0.0156694
912.248	0.0156452
912.326	0.0156203
912.405	0.0157993
912.483	0.0155458
912.561	0.0156857
912.639	0.0156908
912.717	0.0156211
912.795	0.0156770
912.873	0.0156764
912.951	0.0156670
913.030	0.0155261
913.108	0.0156890
913.186	0.0156284
913.264	0.0156246
913.342	0.0158076
913.420	0.0156385
913.498	0.0156472
913.576	0.0155722
913.655	0.0155152
913.733	0.0156082
913.811	0.0155811
913.889	0.0157269
913.967	0.0156935
914.045	0.0157011
914.123	0.0156992
914.201	0.0156456
914.280	0.0156197
914.358	0.0156176
914.436	0.0157108
914.514	0.0156191
914.592	0.0155532
914.670	0.0157931
914.748	0.0157478
914.826	0.0156939
914.905	0.0156116
914.983	0.0157398
915.061	0.0157392
915.139	0.0157314
915.217	0.0157362
915.295	0.0157359
915.373	0.0157437
915.451	0.0157800
915.530	0.0158709
915.608	0.0157424
915.686	0.0157506
915.764	0.0157593
915.842	0.0158269
915.920	0.0158324
915.998	0.0157487
916.076	0.0158663
916.155	0.0157978
916.233	0.0158050
916.311	0.0157988
916.389	0.0157073
916.467	0.0158643
916.545	0.0157198
916.623	0.0156904
916.701	0.0157917
916.780	0.0157867
916.858	0.0156623
916.936	0.0156429
917.014	0.0158153
917.092	0.0158109
917.170	0.0158191
917.248	0.0156674
917.326	0.0157023
917.405	0.0158654
917.483	0.0157847
917.561	0.0157372
917.639	0.0157606
917.717	0.0157135
917.795	0.0158370
917.873	0.0157614
917.951	0.0158327
918.030	0.0158699
918.108	0.0157705
918.186	0.0158504
918.264	0.0158525
918.342	0.0159302
918.420	0.0157899
918.498	0.0158800
918.576	0.0158566
918.655	0.0157535
918.733	0.0158611
918.811	0.0158494
918.889	0.0159142
918.967	0.0158662
919.045	0.0157576
919.123	0.0160161
919.201	0.0158743
919.280	0.0157639
919.358	0.0158210
919.436	0.0158333
919.514	0.0157640
919.592	0.0156945
919.670	0.0156500
919.748	0.0157404
919.826	0.0156403
919.905	0.0155876
919.983	0.0156519
920.061	0.0157131
920.139	0.0156104
920.217	0.0156210
920.295	0.0156139
920.373	0.0155302
920.451	0.0155875
920.530	0.0155817
920.608	0.0156004
920.686	0.0154639
920.764	0.0154711
920.842	0.0154806
920.920	0.0154918
920.998	0.0156023
921.076	0.0154459
921.155	0.0154002
921.233	0.0155341
921.311	0.0154895
921.389	0.0154489
921.467	0.0154311
921.545	0.0155876
921.623	0.0154449
921.701	0.0155568
921.780	0.0155393
921.858	0.0154993
921.936	0.0155099
922.014	0.0156133
922.092	0.0155676
922.170	0.0157142
922.248	0.0155536
922.326	0.0155303
922.405	0.0156449
922.483	0.0157702
922.561	0.0155209
922.639	0.0156707
922.717	0.0155739
922.795	0.0156018
922.873	0.0156324
922.951	0.0156032
923.030	0.0155366
923.108	0.0156912
923.186	0.0156176
923.264	0.0155673
923.342	0.0156512
923.420	0.0157252
923.498	0.0155959
923.576	0.0156625
923.655	0.0157302
923.733	0.0156987
923.811	0.0156821
923.889	0.0154917
923.967	0.0156240
924.045	0.0156841
924.123	0.0155526
924.201	0.0156522
924.280	0.0156760
924.358	0.0155183
924.436	0.0155998
924.514	0.0155482
924.592	0.0156456
924.670	0.0157504
924.748	0.0157106
924.826	0.0157172
924.905	0.0157008
924.983	0.0156316
925.061	0.0156492
925.139	0.0157951
925.217	0.0156555
925.295	0.0156471
925.373	0.0155560
925.451	0.0155652
925.530	0.0156029
925.608	0.0156864
925.686	0.0155745
925.764	0.0155998
925.842	0.0156390
925.920	0.0157954
925.998	0.0158264
926.076	0.0157930
926.155	0.0157222
926.233	0.0156540
926.311	0.0155435
926.389	0.0156328
926.467	0.0155770
926.545	0.0157227
926.623	0.0156651
926.701	0.0157045
926.780	0.0157684
926.858	0.0156472
926.936	0.0157665
927.014	0.0156107
927.092	0.0156962
927.170	0.0156261
927.248	0.0156294
927.326	0.0156783
927.405	0.0156640
927.483	0.0157552
927.561	0.0156236
927.639	0.0155968
927.717	0.0157191
927.795	0.0156200
927.873	0.0157885
927.951	0.0158234
928.030	0.0156829
928.108	0.0156855
928.186	0.0156762
928.264	0.0155441
928.342	0.0156850
928.420	0.0158372
928.498	0.0156741
928.576	0.0156460
928.655	0.0156700
928.733	0.0156012
928.811	0.0157098
928.889	0.0158848
928.967	0.0155743
929.045	0.0155473
929.123	0.0157019
929.201	0.0156772
929.280	0.0156271
929.358	0.0156024
929.436	0.0156453
929.514	0.0157204
929.592	0.0155759
929.670	0.0155896
929.748	0.0158867
929.826	0.0157273
929.905	0.0158911
929.983	0.0156376
930.061	0.0157535
930.139	0.0158459
930.217	0.0156935
930.295	0.0156394
930.373	0.0157176
930.451	0.0156729
930.530	0.0157742
930.608	0.0156329
930.686	0.0156211
930.764	0.0155692
930.842	0.0155847
930.920	0.0156863
930.998	0.0156257
931.076	0.0157111
931.155	0.0157305
931.233	0.0157785
931.311	0.0156120
931.389	0.0155839
931.467	0.0156396
931.545	0.0157742
931.623	0.0155712
931.701	0.0156625
931.780	0.0156326
931.858	0.0157867
931.936	0.0157094
932.014	0.0156352
932.092	0.0157106
932.170	0.0158025
932.248	0.0156219
932.326	0.0154829
932.405	0.0155578
932.483	0.0154900
932.561	0.0154970
932.639	0.0156297
932.717	0.0156289
932.795	0.0156145
932.873	0.0155160
932.951	0.0157017
933.030	0.0156533
933.108	0.0156206
933.186	0.0156573
933.264	0.0156307
933.342	0.0156824
933.420	0.0156956
933.498	0.0157291
933.576	0.0156462
933.655	0.0157919
933.733	0.0157021
933.811	0.0156734
933.889	0.0156504
933.967	0.0158002
934.045	0.0157625
934.123	0.0157464
934.201	0.0158016
934.280	0.0157139
934.358	0.0157942
934.436	0.0157275
934.514	0.0157479
934.592	0.0156018
934.670	0.0156816
934.748	0.0156270
934.826	0.0157102
934.905	0.0158116
934.983	0.0157427
935.061	0.0156529
935.139	0.0157333
935.217	0.0156059
935.295	0.0155949
935.373	0.0156056
935.451	0.0157330
935.530	0.0157121
935.608	0.0156430
935.686	0.0157145
935.764	0.0156007
935.842	0.0156921
935.920	0.0155992
935.998	0.0154956
936.076	0.0157001
936.155	0.0156319
936.233	0.0156413
936.311	0.0155665
936.389	0.0155676
936.467	0.0154266
936.545	0.0155201
936.623	0.0154540
936.701	0.0155686
936.780	0.0154942
936.858	0.0153324
936.936	0.0154274
937.014	0.0154707
937.092	0.0155382
937.170	0.0154393
937.248	0.0154832
937.326	0.0154722
937.405	0.0156499
937.483	0.0156217
937.561	0.0155026
937.639	0.0154921
937.717	0.0155677
937.795	0.0154724
937.873	0.0155539
937.951	0.0154937
938.030	0.0154510
938.108	0.0155775
938.186	0.0156194
938.264	0.0156191
938.342	0.0155761
938.420	0.0156528
938.498	0.0157331
938.576	0.0156081
938.655	0.0156103
938.733	0.0156002
938.811	0.0157085
938.889	0.0156731
938.967	0.0156108
939.045	0.0156065
939.123	0.0156632
939.201	0.0157343
939.280	0.0156184
939.358	0.0156850
939.436	0.0157449
939.514	0.0157278
939.592	0.0157923
939.670	0.0157706
939.748	0.0157929
939.826	0.0159459
939.905	0.0158308
939.983	0.0158217
940.061	0.0157955
940.139	0.0157645
940.217	0.0159231
940.295	0.0157939
940.373	0.0157468
940.451	0.0158557
940.530	0.0157570
940.608	0.0157890
940.686	0.0158959
940.764	0.0158137
940.842	0.0159308
940.920	0.0159964
940.998	0.0158967
941.076	0.0158949
941.155	0.0157840
941.233	0.0158616
941.311	0.0157492
941.389	0.0158198
941.467	0.0158305
941.545	0.0159299
941.623	0.0159429
941.701	0.0158323
941.780	0.0158294
941.858	0.0157682
941.936	0.0158833
942.014	0.0157740
942.092	0.0159605
942.170	0.0159869
942.248	0.0157787
942.326	0.0157196
942.405	0.0157885
942.483	0.0157774
942.561	0.0158237
942.639	0.0157135
942.717	0.0156977
942.795	0.0156668
942.873	0.0158363
942.951	0.0156442
943.030	0.0157016
943.108	0.0157253
943.186	0.0157051
943.264	0.0157091
943.342	0.0155344
943.420	0.0156384
943.498	0.0158416
943.576	0.0156856
943.655	0.0157416
943.733	0.0156003
943.811	0.0156433
943.889	0.0156628
943.967	0.0156905
944.045	0.0155589
944.123	0.0157514
944.201	0.0158292
944.280	0.0157582
944.358	0.0156646
944.436	0.0157020
944.514	0.0158073
944.592	0.0157228
944.670	0.0157310
944.748	0.0158192
944.826	0.0158277
944.905	0.0157170
944.983	0.0156863
945.061	0.0157769
945.139	0.0159085
945.217	0.0157461
945.295	0.0157239
945.373	0.0156886
945.451	0.0158137
945.530	0.0156843
945.608	0.0157800
945.686	0.0156404
945.764	0.0157510
945.842	0.0157681
945.920	0.0156248
945.998	0.0155286
946.076	0.0156731
946.155	0.0156837
946.233	0.0156248
946.311	0.0155604
946.389	0.0155474
946.467	0.0155978
946.545	0.0156424
946.623	0.0156746
946.701	0.0155614
946.780	0.0155654
946.858	0.0156019
946.936	0.0155792
947.014	0.0156046
947.092	0.0156271
947.170	0.0154919
947.248	0.0155296
947.326	0.0155672
947.405	0.0154364
947.483	0.0155296
947.561	0.0154821
947.639	0.0155787
947.717	0.0156126
947.795	0.0154716
947.873	0.0154768
947.951	0.0156503
948.030	0.0155352
948.108	0.0155428
948.186	0.0155333
948.264	0.0157022
948.342	0.0157325
948.420	0.0155640
948.498	0.0156037
948.576	0.0156215
948.655	0.0157163
948.733	0.0156602
948.811	0.0156239
948.889	0.0156228
948.967	0.0156660
949.045	0.0156914
949.123	0.0157260
949.201	0.0156178
949.280	0.0156429
949.358	0.0156824
949.436	0.0157613
949.514	0.0156428
949.592	0.0156856
949.670	0.0157458
949.748	0.0157314
949.826	0.0158243
949.905	0.0155985
949.983	0.0155247
950.061	0.0157566
950.139	0.0156537
950.217	0.0155943
950.295	0.0156558
950.373	0.0156225
950.451	0.0156916
950.530	0.0156580
950.608	0.0156815
950.686	0.0156065
950.764	0.0156305
950.842	0.0156760
950.920	0.0156125
950.998	0.0156488
951.076	0.0155672
951.155	0.0156319
951.233	0.0156509
951.311	0.0157032
951.389	0.0157117
951.467	0.0158937
951.545	0.0156743
951.623	0.0156921
951.701	0.0155728
951.780	0.0156425
951.858	0.0156850
951.936	0.0157108
952.014	0.0157701
952.092	0.0155582
952.170	0.0156663
952.248	0.0157504
952.326	0.0155771
952.405	0.0157079
952.483	0.0156865
952.561	0.0156126
952.639	0.0157497
952.717	0.0156673
952.795	0.0155885
952.873	0.0156422
952.951	0.0156246
953.030	0.0157352
953.108	0.0158289
953.186	0.0156901
953.264	0.0156813
953.342	0.0156445
953.420	0.0158479
953.498	0.0158150
953.576	0.0155768
953.655	0.0156788
953.733	0.0158044
953.811	0.0157540
953.889	0.0157810
953.967	0.0157388
954.045	0.0156490
954.123	0.0157322
954.201	0.0157067
954.280	0.0156190
954.358	0.0156195
954.436	0.0156264
954.514	0.0156731
954.592	0.0156261
954.670	0.0155750
954.748	0.0157393
954.826	0.0157677
954.905	0.0156127
954.983	0.0156526
955.061	0.0157931
955.139	0.0156756
955.217	0.0158026
955.295	0.0157161
955.373	0.0157399
955.451	0.0157018
955.530	0.0158364
955.608	0.0158215
955.686	0.0158853
955.764	0.0157216
955.842	0.0157440
955.920	0.0158188
955.998	0.0157764
956.076	0.0157529
956.155	0.0156693
956.233	0.0158095
956.311	0.0157382
956.389	0.0158026
956.467	0.0158499
956.545	0.0159040
956.623	0.0159467
956.701	0.0156914
956.780	0.0157450
956.858	0.0157076
956.936	0.0157894
957.014	0.0156554
957.092	0.0155249
957.170	0.0156281
957.248	0.0155550
957.326	0.0156364
957.405	0.0156535
957.483	0.0156058
957.561	0.0156756
957.639	0.0156257
957.717	0.0156851
957.795	0.0157328
957.873	0.0157656
957.951	0.0156609
958.030	0.0156004
958.108	0.0157716
958.186	0.0156386
958.264	0.0157635
958.342	0.0158295
958.420	0.0158273
958.498	0.0157653
958.576	0.0157451
958.655	0.0158069
958.733	0.0157616
958.811	0.0158664
958.889	0.0157076
958.967	0.0158066
959.045	0.0157389
959.123	0.0157111
959.201	0.0157261
959.280	0.0158886
959.358	0.0158734
959.436	0.0158825
959.514	0.0157860
959.592	0.0157751
959.670	0.0158491
959.748	0.0158808
959.826	0.0158129
959.905	0.0158912
