05/17/2022	17:20:30	Ver.	4.1	UNKNOWN
Optical Delay	639.982744	Delta X		0.078125	Sweeps	1	Scan Rate	0/0
Coordinates	Axis 1	NaN	Axis 2	NaN	Axis 3	NaN	Axis 4	NaN	Axis 5	NaN	Axis 6	0.000000
TX Power	0.000000	RX Power	0.000000

639.983	0.0162662
640.061	0.0163139
640.139	0.0164922
640.217	0.0163199
640.295	0.0162217
640.373	0.0164389
640.451	0.0163275
640.530	0.0164917
640.608	0.0163911
640.686	0.0162452
640.764	0.0164115
640.842	0.0162962
640.920	0.0162588
640.998	0.0163247
641.076	0.0163808
641.155	0.0163874
641.233	0.0162981
641.311	0.0163023
641.389	0.0161237
641.467	0.0162359
641.545	0.0163260
641.623	0.0163242
641.701	0.0162419
641.780	0.0162086
641.858	0.0163398
641.936	0.0162741
642.014	0.0161935
642.092	0.0162768
642.170	0.0163730
642.248	0.0163219
642.326	0.0162535
642.405	0.0164175
642.483	0.0162490
642.561	0.0161926
642.639	0.0162374
642.717	0.0161327
642.795	0.0161601
642.873	0.0162591
642.951	0.0161792
643.030	0.0161222
643.108	0.0160409
643.186	0.0160554
643.264	0.0158945
643.342	0.0159853
643.420	0.0159559
643.498	0.0159592
643.576	0.0159451
643.655	0.0159542
643.733	0.0158893
643.811	0.0159171
643.889	0.0158595
643.967	0.0158697
644.045	0.0158964
644.123	0.0158620
644.201	0.0160741
644.280	0.0160760
644.358	0.0160810
644.436	0.0160890
644.514	0.0160645
644.592	0.0161340
644.670	0.0161009
644.748	0.0161550
644.826	0.0161803
644.905	0.0162256
644.983	0.0162226
645.061	0.0163001
645.139	0.0161977
645.217	0.0162622
645.295	0.0162518
645.373	0.0162481
645.451	0.0162213
645.530	0.0161546
645.608	0.0161349
645.686	0.0161328
645.764	0.0161953
645.842	0.0160810
645.920	0.0161037
645.998	0.0162468
646.076	0.0160953
646.155	0.0159994
646.233	0.0160477
646.311	0.0159319
646.389	0.0160445
646.467	0.0160004
646.545	0.0159386
646.623	0.0159975
646.701	0.0159386
646.780	0.0159277
646.858	0.0159849
646.936	0.0161456
647.014	0.0161560
647.092	0.0160321
647.170	0.0161118
647.248	0.0160693
647.326	0.0161218
647.405	0.0162148
647.483	0.0162270
647.561	0.0162476
647.639	0.0162437
647.717	0.0163161
647.795	0.0163116
647.873	0.0163615
647.951	0.0164321
648.030	0.0162186
648.108	0.0162697
648.186	0.0164137
648.264	0.0162619
648.342	0.0161605
648.420	0.0164174
648.498	0.0163598
648.576	0.0161897
648.655	0.0162309
648.733	0.0162398
648.811	0.0162282
648.889	0.0161762
648.967	0.0161406
649.045	0.0162611
649.123	0.0161986
649.201	0.0161761
649.280	0.0162027
649.358	0.0159843
649.436	0.0160007
649.514	0.0161567
649.592	0.0160719
649.670	0.0160199
649.748	0.0160944
649.826	0.0160256
649.905	0.0159712
649.983	0.0161887
650.061	0.0160648
650.139	0.0161983
650.217	0.0160535
650.295	0.0160669
650.373	0.0160828
650.451	0.0161124
650.530	0.0159827
650.608	0.0159160
650.686	0.0159841
650.764	0.0161538
650.842	0.0160545
650.920	0.0159319
650.998	0.0160257
651.076	0.0161806
651.155	0.0159924
651.233	0.0159387
651.311	0.0160327
651.389	0.0159987
651.467	0.0158350
651.545	0.0159920
651.623	0.0161189
651.701	0.0159262
651.780	0.0160236
651.858	0.0161574
651.936	0.0160009
652.014	0.0161082
652.092	0.0160301
652.170	0.0159859
652.248	0.0160421
652.326	0.0162820
652.405	0.0162868
652.483	0.0161249
652.561	0.0161063
652.639	0.0161819
652.717	0.0162801
652.795	0.0162383
652.873	0.0162378
652.951	0.0162633
653.030	0.0162598
653.108	0.0161842
653.186	0.0161031
653.264	0.0162802
653.342	0.0161958
653.420	0.0161980
653.498	0.0161116
653.576	0.0161411
653.655	0.0161947
653.733	0.0161993
653.811	0.0162527
653.889	0.0161833
653.967	0.0161523
654.045	0.0162538
654.123	0.0160747
654.201	0.0160519
654.280	0.0160656
654.358	0.0162174
654.436	0.0160777
654.514	0.0161816
654.592	0.0161118
654.670	0.0159223
654.748	0.0160420
654.826	0.0160432
654.905	0.0161877
654.983	0.0160936
655.061	0.0161238
655.139	0.0161284
655.217	0.0159845
655.295	0.0162680
655.373	0.0161549
655.451	0.0162151
655.530	0.0162419
655.608	0.0162802
655.686	0.0162192
655.764	0.0162073
655.842	0.0162860
655.920	0.0162270
655.998	0.0161677
656.076	0.0161945
656.155	0.0162341
656.233	0.0163252
656.311	0.0161876
656.389	0.0161456
656.467	0.0162006
656.545	0.0162833
656.623	0.0161906
656.701	0.0161648
656.780	0.0162196
656.858	0.0161843
656.936	0.0161958
657.014	0.0161554
657.092	0.0162287
657.170	0.0162687
657.248	0.0163357
657.326	0.0161696
657.405	0.0160841
657.483	0.0162326
657.561	0.0161861
657.639	0.0161919
657.717	0.0161661
657.795	0.0159849
657.873	0.0160341
657.951	0.0159592
658.030	0.0160762
658.108	0.0159563
658.186	0.0159106
658.264	0.0160975
658.342	0.0161266
658.420	0.0161707
658.498	0.0161175
658.576	0.0161476
658.655	0.0161519
658.733	0.0161339
658.811	0.0162807
658.889	0.0163351
658.967	0.0162415
659.045	0.0163133
659.123	0.0164430
659.201	0.0164835
659.280	0.0164456
659.358	0.0163625
659.436	0.0163004
659.514	0.0163321
659.592	0.0164676
659.670	0.0164034
659.748	0.0165504
659.826	0.0163889
659.905	0.0163689
659.983	0.0162220
660.061	0.0162023
660.139	0.0162575
660.217	0.0161469
660.295	0.0161462
660.373	0.0160513
660.451	0.0160744
660.530	0.0161279
660.608	0.0159089
660.686	0.0159515
660.764	0.0158825
660.842	0.0159593
660.920	0.0158916
660.998	0.0159042
661.076	0.0159171
661.155	0.0160388
661.233	0.0159180
661.311	0.0159174
661.389	0.0159286
661.467	0.0160877
661.545	0.0160415
661.623	0.0160768
661.701	0.0161214
661.780	0.0162481
661.858	0.0163148
661.936	0.0162493
662.014	0.0162410
662.092	0.0162890
662.170	0.0163475
662.248	0.0164715
662.326	0.0165266
662.405	0.0165212
662.483	0.0165524
662.561	0.0165257
662.639	0.0165106
662.717	0.0165726
662.795	0.0165296
662.873	0.0165163
662.951	0.0165009
663.030	0.0163530
663.108	0.0163512
663.186	0.0165749
663.264	0.0163815
663.342	0.0164828
663.420	0.0164281
663.498	0.0163307
663.576	0.0164484
663.655	0.0163964
663.733	0.0163856
663.811	0.0163163
663.889	0.0164357
663.967	0.0164737
664.045	0.0165147
664.123	0.0164478
664.201	0.0164185
664.280	0.0164088
664.358	0.0163926
664.436	0.0163974
664.514	0.0163952
664.592	0.0163730
664.670	0.0163010
664.748	0.0164172
664.826	0.0162504
664.905	0.0161269
664.983	0.0160296
665.061	0.0161080
665.139	0.0159620
665.217	0.0158686
665.295	0.0156313
665.373	0.0158140
665.451	0.0156948
665.530	0.0155804
665.608	0.0155473
665.686	0.0156490
665.764	0.0153751
665.842	0.0154707
665.920	0.0153889
665.998	0.0153691
666.076	0.0155022
666.155	0.0154156
666.233	0.0154324
666.311	0.0155193
666.389	0.0156799
666.467	0.0156311
666.545	0.0156303
666.623	0.0157932
666.701	0.0159594
666.780	0.0158720
666.858	0.0161273
666.936	0.0161670
667.014	0.0161727
667.092	0.0162626
667.170	0.0162419
667.248	0.0165264
667.326	0.0166438
667.405	0.0165392
667.483	0.0166798
667.561	0.0167660
667.639	0.0168247
667.717	0.0167485
667.795	0.0168349
667.873	0.0168324
667.951	0.0169399
668.030	0.0168437
668.108	0.0168242
668.186	0.0169337
668.264	0.0170767
668.342	0.0168744
668.420	0.0168166
668.498	0.0168540
668.576	0.0167938
668.655	0.0167856
668.733	0.0167751
668.811	0.0165876
668.889	0.0166429
668.967	0.0165804
669.045	0.0165098
669.123	0.0165209
669.201	0.0164452
669.280	0.0162847
669.358	0.0163169
669.436	0.0160481
669.514	0.0159774
669.592	0.0159480
669.670	0.0158040
669.748	0.0156300
669.826	0.0156258
669.905	0.0155849
669.983	0.0154045
670.061	0.0152972
670.139	0.0153474
670.217	0.0152250
670.295	0.0151831
670.373	0.0150636
670.451	0.0150201
670.530	0.0151453
670.608	0.0149094
670.686	0.0150632
670.764	0.0150859
670.842	0.0151472
670.920	0.0151462
670.998	0.0152249
671.076	0.0151652
671.155	0.0154192
671.233	0.0154733
671.311	0.0155022
671.389	0.0156014
671.467	0.0157243
671.545	0.0158198
671.623	0.0159142
671.701	0.0159083
671.780	0.0160489
671.858	0.0160769
671.936	0.0163645
672.014	0.0162890
672.092	0.0163347
672.170	0.0163365
672.248	0.0164746
672.326	0.0167250
672.405	0.0166527
672.483	0.0167467
672.561	0.0167445
672.639	0.0168353
672.717	0.0169305
672.795	0.0169923
672.873	0.0168827
672.951	0.0168772
673.030	0.0169389
673.108	0.0170258
673.186	0.0171889
673.264	0.0171851
673.342	0.0170738
673.420	0.0170621
673.498	0.0171299
673.576	0.0171364
673.655	0.0171667
673.733	0.0170260
673.811	0.0169617
673.889	0.0169048
673.967	0.0169125
674.045	0.0168720
674.123	0.0167204
674.201	0.0165308
674.280	0.0163189
674.358	0.0162170
674.436	0.0160345
674.514	0.0158765
674.592	0.0158384
674.670	0.0156517
674.748	0.0155101
674.826	0.0153281
674.905	0.0152677
674.983	0.0150182
675.061	0.0149123
675.139	0.0149051
675.217	0.0149454
675.295	0.0150477
675.373	0.0148968
675.451	0.0149866
675.530	0.0149264
675.608	0.0150412
675.686	0.0150803
675.764	0.0152328
675.842	0.0153209
675.920	0.0152909
675.998	0.0153283
676.076	0.0155752
676.155	0.0156480
676.233	0.0156834
676.311	0.0159370
676.389	0.0160755
676.467	0.0160586
676.545	0.0161813
676.623	0.0162573
676.701	0.0161951
676.780	0.0163595
676.858	0.0164381
676.936	0.0163906
677.014	0.0166150
677.092	0.0165736
677.170	0.0164749
677.248	0.0166171
677.326	0.0166281
677.405	0.0166930
677.483	0.0166077
677.561	0.0165720
677.639	0.0166464
677.717	0.0167166
677.795	0.0166966
677.873	0.0166204
677.951	0.0165506
678.030	0.0166251
678.108	0.0166239
678.186	0.0166451
678.264	0.0166463
678.342	0.0166666
678.420	0.0166035
678.498	0.0166615
678.576	0.0165121
678.655	0.0166327
678.733	0.0165350
678.811	0.0165824
678.889	0.0165317
678.967	0.0164536
679.045	0.0162750
679.123	0.0164345
679.201	0.0164687
679.280	0.0163045
679.358	0.0163094
679.436	0.0162209
679.514	0.0162691
679.592	0.0161532
679.670	0.0161232
679.748	0.0162660
679.826	0.0160975
679.905	0.0162322
679.983	0.0161324
680.061	0.0161137
680.139	0.0162018
680.217	0.0162673
680.295	0.0162130
680.373	0.0161880
680.451	0.0161437
680.530	0.0161565
680.608	0.0161816
680.686	0.0162431
680.764	0.0161370
680.842	0.0159938
680.920	0.0160258
680.998	0.0159332
681.076	0.0159365
681.155	0.0158150
681.233	0.0156358
681.311	0.0155893
681.389	0.0156564
681.467	0.0155582
681.545	0.0156180
681.623	0.0155859
681.701	0.0156200
681.780	0.0156720
681.858	0.0154996
681.936	0.0155466
682.014	0.0156417
682.092	0.0157674
682.170	0.0158232
682.248	0.0158155
682.326	0.0156712
682.405	0.0158414
682.483	0.0157143
682.561	0.0158751
682.639	0.0157462
682.717	0.0159739
682.795	0.0160770
682.873	0.0158918
682.951	0.0159754
683.030	0.0159464
683.108	0.0161417
683.186	0.0162529
683.264	0.0161649
683.342	0.0162395
683.420	0.0163801
683.498	0.0162108
683.576	0.0165195
683.655	0.0166403
683.733	0.0167378
683.811	0.0166746
683.889	0.0166296
683.967	0.0167886
684.045	0.0168298
684.123	0.0169258
684.201	0.0169532
684.280	0.0170226
684.358	0.0170269
684.436	0.0170911
684.514	0.0170946
684.592	0.0170712
684.670	0.0169696
684.748	0.0169955
684.826	0.0170280
684.905	0.0169267
684.983	0.0170302
685.061	0.0167573
685.139	0.0166055
685.217	0.0165773
685.295	0.0164178
685.373	0.0163530
685.451	0.0162819
685.530	0.0161505
685.608	0.0159857
685.686	0.0158681
685.764	0.0156221
685.842	0.0156018
685.920	0.0155836
685.998	0.0154919
686.076	0.0154758
686.155	0.0153276
686.233	0.0154773
686.311	0.0153125
686.389	0.0155755
686.467	0.0154969
686.545	0.0155202
686.623	0.0154713
686.701	0.0156242
686.780	0.0156487
686.858	0.0156647
686.936	0.0157686
687.014	0.0156904
687.092	0.0157407
687.170	0.0158879
687.248	0.0160223
687.326	0.0159613
687.405	0.0158981
687.483	0.0159048
687.561	0.0159071
687.639	0.0159045
687.717	0.0160712
687.795	0.0159835
687.873	0.0160048
687.951	0.0160532
688.030	0.0159126
688.108	0.0158942
688.186	0.0159638
688.264	0.0158906
688.342	0.0160168
688.420	0.0162416
688.498	0.0161782
688.576	0.0162061
688.655	0.0162365
688.733	0.0159562
688.811	0.0159585
688.889	0.0162444
688.967	0.0162020
689.045	0.0162082
689.123	0.0163486
689.201	0.0164374
689.280	0.0164336
689.358	0.0166445
689.436	0.0165382
689.514	0.0164703
689.592	0.0166685
689.670	0.0165828
689.748	0.0166582
689.826	0.0166706
689.905	0.0168945
689.983	0.0168871
690.061	0.0168504
690.139	0.0169881
690.217	0.0170454
690.295	0.0170151
690.373	0.0169949
690.451	0.0170219
690.530	0.0171356
690.608	0.0170504
690.686	0.0171073
690.764	0.0169749
690.842	0.0170647
690.920	0.0170350
690.998	0.0169117
691.076	0.0168813
691.155	0.0168693
691.233	0.0167621
691.311	0.0166105
691.389	0.0164829
691.467	0.0163974
691.545	0.0163401
691.623	0.0162555
691.701	0.0162310
691.780	0.0159695
691.858	0.0159431
691.936	0.0157130
692.014	0.0156294
692.092	0.0156122
692.170	0.0154089
692.248	0.0153070
692.326	0.0152319
692.405	0.0151778
692.483	0.0150935
692.561	0.0150587
692.639	0.0149989
692.717	0.0148469
692.795	0.0149128
692.873	0.0149238
692.951	0.0148898
693.030	0.0149048
693.108	0.0149271
693.186	0.0150894
693.264	0.0151773
693.342	0.0152671
693.420	0.0152069
693.498	0.0152479
693.576	0.0154604
693.655	0.0155095
693.733	0.0156116
693.811	0.0156367
693.889	0.0158588
693.967	0.0158368
694.045	0.0157704
694.123	0.0159686
694.201	0.0161530
694.280	0.0161746
694.358	0.0162452
694.436	0.0162589
694.514	0.0163616
694.592	0.0164577
694.670	0.0163851
694.748	0.0166262
694.826	0.0166495
694.905	0.0166807
694.983	0.0168398
695.061	0.0169328
695.139	0.0170766
695.217	0.0171212
695.295	0.0171100
695.373	0.0171501
695.451	0.0172215
695.530	0.0172942
695.608	0.0172704
695.686	0.0174553
695.764	0.0173450
695.842	0.0173429
695.920	0.0174584
695.998	0.0174194
696.076	0.0171736
696.155	0.0172002
696.233	0.0171777
696.311	0.0168717
696.389	0.0168573
696.467	0.0167664
696.545	0.0165425
696.623	0.0165124
696.701	0.0161776
696.780	0.0162196
696.858	0.0159811
696.936	0.0158384
697.014	0.0157345
697.092	0.0155818
697.170	0.0154144
697.248	0.0152757
697.326	0.0154163
697.405	0.0155543
697.483	0.0153737
697.561	0.0153504
697.639	0.0153175
697.717	0.0153136
697.795	0.0154092
697.873	0.0152670
697.951	0.0153035
698.030	0.0154935
698.108	0.0155201
698.186	0.0155167
698.264	0.0154678
698.342	0.0155477
698.420	0.0155650
698.498	0.0155997
698.576	0.0155817
698.655	0.0156664
698.733	0.0157102
698.811	0.0156361
698.889	0.0159284
698.967	0.0158418
699.045	0.0158759
699.123	0.0159973
699.201	0.0161182
699.280	0.0162257
699.358	0.0161398
699.436	0.0163145
699.514	0.0163245
699.592	0.0162639
699.670	0.0163577
699.748	0.0166114
699.826	0.0166792
699.905	0.0165065
699.983	0.0165263
700.061	0.0166029
700.139	0.0165025
700.217	0.0166328
700.295	0.0166819
700.373	0.0165606
700.451	0.0165265
700.530	0.0166336
700.608	0.0164991
700.686	0.0164050
700.764	0.0164658
700.842	0.0161097
700.920	0.0162468
700.998	0.0162050
701.076	0.0162740
701.155	0.0163496
701.233	0.0161913
701.311	0.0160666
701.389	0.0160756
701.467	0.0162617
701.545	0.0162450
701.623	0.0162038
701.701	0.0163026
701.780	0.0162682
701.858	0.0162739
701.936	0.0164197
702.014	0.0163289
702.092	0.0162494
702.170	0.0164049
702.248	0.0163586
702.326	0.0163421
702.405	0.0162646
702.483	0.0162995
702.561	0.0162617
702.639	0.0161665
702.717	0.0160361
702.795	0.0161539
702.873	0.0161090
702.951	0.0159209
703.030	0.0159066
703.108	0.0158470
703.186	0.0157039
703.264	0.0156629
703.342	0.0156087
703.420	0.0156866
703.498	0.0155221
703.576	0.0154929
703.655	0.0153953
703.733	0.0154425
703.811	0.0154982
703.889	0.0153484
703.967	0.0155218
704.045	0.0155255
704.123	0.0155009
704.201	0.0156051
704.280	0.0157439
704.358	0.0157529
704.436	0.0157977
704.514	0.0159499
704.592	0.0159552
704.670	0.0160367
704.748	0.0160616
704.826	0.0161025
704.905	0.0160947
704.983	0.0162939
705.061	0.0162479
705.139	0.0163731
705.217	0.0164487
705.295	0.0164692
705.373	0.0165357
705.451	0.0166852
705.530	0.0167808
705.608	0.0166535
705.686	0.0168346
705.764	0.0168164
705.842	0.0166622
705.920	0.0169254
705.998	0.0168437
706.076	0.0166909
706.155	0.0166544
706.233	0.0169020
706.311	0.0167932
706.389	0.0167615
706.467	0.0166173
706.545	0.0167285
706.623	0.0165010
706.701	0.0165944
706.780	0.0165021
706.858	0.0164668
706.936	0.0163508
707.014	0.0162914
707.092	0.0162069
707.170	0.0160786
707.248	0.0162457
707.326	0.0161398
707.405	0.0160213
707.483	0.0160007
707.561	0.0160819
707.639	0.0160192
707.717	0.0159121
707.795	0.0157391
707.873	0.0158996
707.951	0.0159689
708.030	0.0159099
708.108	0.0158346
708.186	0.0158598
708.264	0.0159883
708.342	0.0159232
708.420	0.0157311
708.498	0.0159664
708.576	0.0160649
708.655	0.0159791
708.733	0.0159038
708.811	0.0160976
708.889	0.0160075
708.967	0.0160084
709.045	0.0161465
709.123	0.0160833
709.201	0.0160338
709.280	0.0160844
709.358	0.0160945
709.436	0.0160091
709.514	0.0160580
709.592	0.0159256
709.670	0.0159747
709.748	0.0159094
709.826	0.0158496
709.905	0.0158465
709.983	0.0157728
710.061	0.0157892
710.139	0.0158242
710.217	0.0157478
710.295	0.0158920
710.373	0.0159224
710.451	0.0158388
710.530	0.0159863
710.608	0.0160938
710.686	0.0161456
710.764	0.0163423
710.842	0.0164345
710.920	0.0165559
710.998	0.0164841
711.076	0.0166602
711.155	0.0166789
711.233	0.0168135
711.311	0.0167581
711.389	0.0168494
711.467	0.0169000
711.545	0.0168191
711.623	0.0168650
711.701	0.0169329
711.780	0.0168379
711.858	0.0167458
711.936	0.0168166
712.014	0.0168513
712.092	0.0167023
712.170	0.0165249
712.248	0.0165704
712.326	0.0165099
712.405	0.0161322
712.483	0.0162901
712.561	0.0161172
712.639	0.0160275
712.717	0.0160207
712.795	0.0160773
712.873	0.0159400
712.951	0.0160731
713.030	0.0159132
713.108	0.0158723
713.186	0.0159562
713.264	0.0159150
713.342	0.0158881
713.420	0.0160651
713.498	0.0159016
713.576	0.0161111
713.655	0.0161389
713.733	0.0160143
713.811	0.0160143
713.889	0.0160385
713.967	0.0161219
714.045	0.0159138
714.123	0.0159048
714.201	0.0160607
714.280	0.0159823
714.358	0.0159323
714.436	0.0157546
714.514	0.0157650
714.592	0.0157091
714.670	0.0157686
714.748	0.0157615
714.826	0.0156429
714.905	0.0156130
714.983	0.0156764
715.061	0.0155865
715.139	0.0157747
715.217	0.0157215
715.295	0.0158164
715.373	0.0158597
715.451	0.0157859
715.530	0.0159239
715.608	0.0159074
715.686	0.0159923
715.764	0.0161238
715.842	0.0163183
715.920	0.0162972
715.998	0.0163686
716.076	0.0165200
716.155	0.0166042
716.233	0.0165852
716.311	0.0166760
716.389	0.0167147
716.467	0.0168167
716.545	0.0167641
716.623	0.0167856
716.701	0.0168069
716.780	0.0170048
716.858	0.0169028
716.936	0.0167200
717.014	0.0167403
717.092	0.0167510
717.170	0.0168926
717.248	0.0167809
717.326	0.0167456
717.405	0.0166259
717.483	0.0166828
717.561	0.0165668
717.639	0.0165304
717.717	0.0165370
717.795	0.0164326
717.873	0.0164388
717.951	0.0163512
718.030	0.0161278
718.108	0.0161417
718.186	0.0161671
718.264	0.0160200
718.342	0.0161398
718.420	0.0159665
718.498	0.0158020
718.576	0.0156307
718.655	0.0156561
718.733	0.0156099
718.811	0.0156409
718.889	0.0156284
718.967	0.0154207
719.045	0.0154134
719.123	0.0155702
719.201	0.0153149
719.280	0.0153403
719.358	0.0155422
719.436	0.0155989
719.514	0.0155153
719.592	0.0155154
719.670	0.0157587
719.748	0.0155670
719.826	0.0156554
719.905	0.0157352
719.983	0.0158112
720.061	0.0158344
720.139	0.0160175
720.217	0.0159819
720.295	0.0159524
720.373	0.0162296
720.451	0.0162457
720.530	0.0162225
720.608	0.0162514
720.686	0.0164038
720.764	0.0164113
720.842	0.0164193
720.920	0.0164758
720.998	0.0165995
721.076	0.0166018
721.155	0.0165377
721.233	0.0165228
721.311	0.0166569
721.389	0.0166035
721.467	0.0165165
721.545	0.0166961
721.623	0.0166421
721.701	0.0165623
721.780	0.0167046
721.858	0.0166704
721.936	0.0166164
722.014	0.0165778
722.092	0.0164719
722.170	0.0165355
722.248	0.0166115
722.326	0.0162893
722.405	0.0163831
722.483	0.0162769
722.561	0.0163454
722.639	0.0163471
722.717	0.0161648
722.795	0.0160347
722.873	0.0160897
722.951	0.0160831
723.030	0.0160052
723.108	0.0158708
723.186	0.0158498
723.264	0.0158280
723.342	0.0158195
723.420	0.0158520
723.498	0.0157305
723.576	0.0158201
723.655	0.0157887
723.733	0.0157739
723.811	0.0158377
723.889	0.0159539
723.967	0.0159608
724.045	0.0160240
724.123	0.0160213
724.201	0.0159756
724.280	0.0162975
724.358	0.0161707
724.436	0.0162392
724.514	0.0162555
724.592	0.0163634
724.670	0.0165418
724.748	0.0163742
724.826	0.0164042
724.905	0.0165206
724.983	0.0164507
725.061	0.0163495
725.139	0.0164719
725.217	0.0163957
725.295	0.0163103
725.373	0.0163240
725.451	0.0162442
725.530	0.0163583
725.608	0.0162682
725.686	0.0162796
725.764	0.0160586
725.842	0.0161051
725.920	0.0161169
725.998	0.0161231
726.076	0.0159940
726.155	0.0160158
726.233	0.0160191
726.311	0.0160044
726.389	0.0159014
726.467	0.0158855
726.545	0.0160901
726.623	0.0160358
726.701	0.0160239
726.780	0.0159853
726.858	0.0160906
726.936	0.0161016
727.014	0.0162262
727.092	0.0163606
727.170	0.0164481
727.248	0.0164521
727.326	0.0164357
727.405	0.0164836
727.483	0.0166247
727.561	0.0167167
727.639	0.0166110
727.717	0.0166553
727.795	0.0166976
727.873	0.0166397
727.951	0.0166977
728.030	0.0166117
728.108	0.0166911
728.186	0.0165672
728.264	0.0167503
728.342	0.0166905
728.420	0.0165004
728.498	0.0165687
728.576	0.0166367
728.655	0.0165726
728.733	0.0165584
728.811	0.0163522
728.889	0.0164777
728.967	0.0163299
729.045	0.0162283
729.123	0.0162459
729.201	0.0161947
729.280	0.0162403
729.358	0.0160511
729.436	0.0161154
729.514	0.0159483
729.592	0.0157870
729.670	0.0157999
729.748	0.0158871
729.826	0.0156592
729.905	0.0156216
729.983	0.0157771
730.061	0.0155785
730.139	0.0156739
730.217	0.0156590
730.295	0.0154721
730.373	0.0156239
730.451	0.0155695
730.530	0.0155119
730.608	0.0156198
730.686	0.0156555
730.764	0.0158478
730.842	0.0156302
730.920	0.0158940
730.998	0.0157965
731.076	0.0159235
731.155	0.0159394
731.233	0.0160332
731.311	0.0161840
731.389	0.0161776
731.467	0.0161192
731.545	0.0160876
731.623	0.0162154
731.701	0.0162431
731.780	0.0162667
731.858	0.0162370
731.936	0.0162534
732.014	0.0162804
732.092	0.0162393
732.170	0.0163723
732.248	0.0163490
732.326	0.0163100
732.405	0.0161990
732.483	0.0162741
732.561	0.0162003
732.639	0.0161748
732.717	0.0161433
732.795	0.0161906
732.873	0.0160667
732.951	0.0160396
733.030	0.0160514
733.108	0.0161298
733.186	0.0161045
733.264	0.0158849
733.342	0.0160471
733.420	0.0161182
733.498	0.0160694
733.576	0.0159758
733.655	0.0160612
733.733	0.0160060
733.811	0.0160250
733.889	0.0160925
733.967	0.0159044
734.045	0.0160526
734.123	0.0161111
734.201	0.0160929
734.280	0.0160510
734.358	0.0161710
734.436	0.0162712
734.514	0.0162949
734.592	0.0160549
734.670	0.0161059
734.748	0.0162374
734.826	0.0162544
734.905	0.0161994
734.983	0.0162643
735.061	0.0161942
735.139	0.0160487
735.217	0.0163138
735.295	0.0162946
735.373	0.0161957
735.451	0.0163203
735.530	0.0162703
735.608	0.0162656
735.686	0.0162273
735.764	0.0161534
735.842	0.0162554
735.920	0.0161135
735.998	0.0162515
736.076	0.0161118
736.155	0.0162505
736.233	0.0161514
736.311	0.0160511
736.389	0.0161362
736.467	0.0162563
736.545	0.0161423
736.623	0.0160876
736.701	0.0161896
736.780	0.0161673
736.858	0.0160602
736.936	0.0160632
737.014	0.0161163
737.092	0.0161737
737.170	0.0162804
737.248	0.0162874
737.326	0.0162295
737.405	0.0162704
737.483	0.0163698
737.561	0.0161855
737.639	0.0161486
737.717	0.0161298
737.795	0.0163139
737.873	0.0162427
737.951	0.0163416
738.030	0.0162993
738.108	0.0162049
738.186	0.0163533
738.264	0.0162492
738.342	0.0163499
738.420	0.0163665
738.498	0.0162989
738.576	0.0163369
738.655	0.0163391
738.733	0.0163818
738.811	0.0166083
738.889	0.0164826
738.967	0.0163050
739.045	0.0164641
739.123	0.0164318
739.201	0.0164322
739.280	0.0165197
739.358	0.0166241
739.436	0.0164962
739.514	0.0165077
739.592	0.0164188
739.670	0.0164645
739.748	0.0163898
739.826	0.0163261
739.905	0.0164243
739.983	0.0164241
740.061	0.0163324
740.139	0.0164084
740.217	0.0163676
740.295	0.0163007
740.373	0.0163139
740.451	0.0163189
740.530	0.0163343
740.608	0.0163516
740.686	0.0162669
740.764	0.0163120
740.842	0.0161853
740.920	0.0162101
740.998	0.0162345
741.076	0.0162006
741.155	0.0161669
741.233	0.0161507
741.311	0.0159715
741.389	0.0159269
741.467	0.0159632
741.545	0.0161008
741.623	0.0159002
741.701	0.0159370
741.780	0.0158833
741.858	0.0158966
741.936	0.0158949
742.014	0.0159386
742.092	0.0159912
742.170	0.0159926
742.248	0.0159710
742.326	0.0160083
742.405	0.0160477
742.483	0.0161391
742.561	0.0162431
742.639	0.0161176
742.717	0.0162489
742.795	0.0164594
742.873	0.0163456
742.951	0.0163393
743.030	0.0163340
743.108	0.0163460
743.186	0.0162828
743.264	0.0162247
743.342	0.0162637
743.420	0.0162331
743.498	0.0160508
743.576	0.0160748
743.655	0.0162188
743.733	0.0161635
743.811	0.0160857
743.889	0.0160322
743.967	0.0161156
744.045	0.0160462
744.123	0.0161760
744.201	0.0161169
744.280	0.0160373
744.358	0.0160326
744.436	0.0161303
744.514	0.0162981
744.592	0.0160938
744.670	0.0161697
744.748	0.0161720
744.826	0.0162547
744.905	0.0161469
744.983	0.0162096
745.061	0.0162910
745.139	0.0162099
745.217	0.0161124
745.295	0.0161681
745.373	0.0161068
745.451	0.0161510
745.530	0.0161388
745.608	0.0159704
745.686	0.0159332
745.764	0.0159917
745.842	0.0160177
745.920	0.0159837
745.998	0.0161017
746.076	0.0160205
746.155	0.0160748
746.233	0.0159914
746.311	0.0162045
746.389	0.0159875
746.467	0.0161094
746.545	0.0163835
746.623	0.0164793
746.701	0.0162856
746.780	0.0161247
746.858	0.0161497
746.936	0.0163947
747.014	0.0163762
747.092	0.0163766
747.170	0.0163850
747.248	0.0163194
747.326	0.0163536
747.405	0.0163567
747.483	0.0162106
747.561	0.0162547
747.639	0.0163499
747.717	0.0163213
747.795	0.0161884
747.873	0.0161345
747.951	0.0160635
748.030	0.0161670
748.108	0.0159823
748.186	0.0162058
748.264	0.0160645
748.342	0.0160406
748.420	0.0160991
748.498	0.0161737
748.576	0.0161496
748.655	0.0159519
748.733	0.0161707
748.811	0.0161803
748.889	0.0161398
748.967	0.0162492
749.045	0.0162165
749.123	0.0162836
749.201	0.0163792
749.280	0.0162983
749.358	0.0161706
749.436	0.0162649
749.514	0.0161966
749.592	0.0162091
749.670	0.0162302
749.748	0.0161121
749.826	0.0160143
749.905	0.0160336
749.983	0.0161951
750.061	0.0160757
750.139	0.0160048
750.217	0.0161813
750.295	0.0161272
750.373	0.0159460
750.451	0.0160810
750.530	0.0161356
750.608	0.0160023
750.686	0.0161281
750.764	0.0160489
750.842	0.0159721
750.920	0.0162394
750.998	0.0161774
751.076	0.0161624
751.155	0.0162218
751.233	0.0162852
751.311	0.0161779
751.389	0.0163355
751.467	0.0162090
751.545	0.0163744
751.623	0.0162697
751.701	0.0164561
751.780	0.0162645
751.858	0.0163639
751.936	0.0165010
752.014	0.0163117
752.092	0.0162300
752.170	0.0163867
752.248	0.0162616
752.326	0.0161881
752.405	0.0161799
752.483	0.0160947
752.561	0.0161057
752.639	0.0161087
752.717	0.0160426
752.795	0.0160850
752.873	0.0160485
752.951	0.0158523
753.030	0.0159123
753.108	0.0158434
753.186	0.0159161
753.264	0.0158025
753.342	0.0160065
753.420	0.0158923
753.498	0.0160387
753.576	0.0158480
753.655	0.0157220
753.733	0.0158121
753.811	0.0157925
753.889	0.0158231
753.967	0.0158869
754.045	0.0159636
754.123	0.0160020
754.201	0.0160492
754.280	0.0160118
754.358	0.0159031
754.436	0.0158278
754.514	0.0160847
754.592	0.0161529
754.670	0.0160971
754.748	0.0161002
754.826	0.0159541
754.905	0.0160381
754.983	0.0162121
755.061	0.0161088
755.139	0.0162357
755.217	0.0163767
755.295	0.0161987
755.373	0.0161587
755.451	0.0163442
755.530	0.0163454
755.608	0.0163723
755.686	0.0163619
755.764	0.0163524
755.842	0.0164096
755.920	0.0164711
755.998	0.0164419
756.076	0.0163708
756.155	0.0164142
756.233	0.0164806
756.311	0.0164203
756.389	0.0164990
756.467	0.0163171
756.545	0.0162305
756.623	0.0162914
756.701	0.0163149
756.780	0.0163161
756.858	0.0162412
756.936	0.0162034
757.014	0.0161423
757.092	0.0161240
757.170	0.0161008
757.248	0.0161536
757.326	0.0161270
757.405	0.0162751
757.483	0.0162873
757.561	0.0162296
757.639	0.0162448
757.717	0.0162875
757.795	0.0161908
757.873	0.0162245
757.951	0.0164145
758.030	0.0163540
758.108	0.0161653
758.186	0.0162144
758.264	0.0162061
758.342	0.0164616
758.420	0.0163426
758.498	0.0163771
758.576	0.0161784
758.655	0.0161433
758.733	0.0160785
758.811	0.0161090
758.889	0.0161383
758.967	0.0161258
759.045	0.0159865
759.123	0.0159949
759.201	0.0157904
759.280	0.0159949
759.358	0.0159057
759.436	0.0158029
759.514	0.0158393
759.592	0.0159354
759.670	0.0159187
759.748	0.0158647
759.826	0.0157368
759.905	0.0158940
759.983	0.0159328
760.061	0.0159634
760.139	0.0160349
760.217	0.0161327
760.295	0.0161049
760.373	0.0160784
760.451	0.0162458
760.530	0.0161764
760.608	0.0161924
760.686	0.0162496
760.764	0.0163324
760.842	0.0162699
760.920	0.0161327
760.998	0.0164404
761.076	0.0163268
761.155	0.0162538
761.233	0.0162305
761.311	0.0163404
761.389	0.0161742
761.467	0.0163138
761.545	0.0161234
761.623	0.0161839
761.701	0.0161271
761.780	0.0161601
761.858	0.0161314
761.936	0.0161019
762.014	0.0160054
762.092	0.0160389
762.170	0.0159177
762.248	0.0159425
762.326	0.0159182
762.405	0.0159451
762.483	0.0160859
762.561	0.0161490
762.639	0.0160691
762.717	0.0160212
762.795	0.0160860
762.873	0.0160800
762.951	0.0161272
763.030	0.0160934
763.108	0.0160431
763.186	0.0162257
763.264	0.0161266
763.342	0.0161602
763.420	0.0160341
763.498	0.0161798
763.576	0.0162507
763.655	0.0161540
763.733	0.0162524
763.811	0.0163387
763.889	0.0162100
763.967	0.0163443
764.045	0.0162382
764.123	0.0162521
764.201	0.0162867
764.280	0.0162983
764.358	0.0162669
764.436	0.0162403
764.514	0.0163508
764.592	0.0163034
764.670	0.0161771
764.748	0.0162809
764.826	0.0162204
764.905	0.0162989
764.983	0.0163570
765.061	0.0161511
765.139	0.0160799
765.217	0.0162467
765.295	0.0161645
765.373	0.0161763
765.451	0.0161799
765.530	0.0163028
765.608	0.0163877
765.686	0.0161742
765.764	0.0162196
765.842	0.0162698
765.920	0.0162741
765.998	0.0163749
766.076	0.0163276
766.155	0.0162634
766.233	0.0163574
766.311	0.0163215
766.389	0.0163808
766.467	0.0162578
766.545	0.0161809
766.623	0.0162819
766.701	0.0161829
766.780	0.0161841
766.858	0.0161017
766.936	0.0161247
767.014	0.0161428
767.092	0.0160434
767.170	0.0160542
767.248	0.0161555
767.326	0.0159895
767.405	0.0159605
767.483	0.0158612
767.561	0.0159509
767.639	0.0159092
767.717	0.0160155
767.795	0.0158022
767.873	0.0159888
767.951	0.0159563
768.030	0.0160277
768.108	0.0160371
768.186	0.0160028
768.264	0.0160573
768.342	0.0160767
768.420	0.0160441
768.498	0.0161372
768.576	0.0161690
768.655	0.0163899
768.733	0.0163022
768.811	0.0164647
768.889	0.0164458
768.967	0.0163419
769.045	0.0165243
769.123	0.0165915
769.201	0.0165656
769.280	0.0165270
769.358	0.0165702
769.436	0.0167065
769.514	0.0166831
769.592	0.0165463
769.670	0.0165590
769.748	0.0165327
769.826	0.0168242
769.905	0.0166630
769.983	0.0166187
770.061	0.0164998
770.139	0.0165698
770.217	0.0164121
770.295	0.0164593
770.373	0.0164172
770.451	0.0163406
770.530	0.0164685
770.608	0.0163732
770.686	0.0162736
770.764	0.0161961
770.842	0.0162705
770.920	0.0161431
770.998	0.0161494
771.076	0.0161211
771.155	0.0161291
771.233	0.0161956
771.311	0.0161944
771.389	0.0160501
771.467	0.0161914
771.545	0.0160944
771.623	0.0159702
771.701	0.0160000
771.780	0.0160516
771.858	0.0159950
771.936	0.0159698
772.014	0.0157910
772.092	0.0159193
772.170	0.0157864
772.248	0.0156817
772.326	0.0157760
772.405	0.0159229
772.483	0.0158122
772.561	0.0158340
772.639	0.0159061
772.717	0.0156647
772.795	0.0159048
772.873	0.0158368
772.951	0.0157970
773.030	0.0160330
773.108	0.0159099
773.186	0.0160644
773.264	0.0161613
773.342	0.0159724
773.420	0.0160828
773.498	0.0161005
773.576	0.0161863
773.655	0.0163177
773.733	0.0162438
773.811	0.0163311
773.889	0.0163416
773.967	0.0164078
774.045	0.0163181
774.123	0.0162185
774.201	0.0162528
774.280	0.0162817
774.358	0.0163358
774.436	0.0162719
774.514	0.0162522
774.592	0.0163005
774.670	0.0163543
774.748	0.0162274
774.826	0.0161510
774.905	0.0162490
774.983	0.0163252
775.061	0.0162890
775.139	0.0162585
775.217	0.0162682
775.295	0.0163336
775.373	0.0162253
775.451	0.0162770
775.530	0.0163445
775.608	0.0163213
775.686	0.0162694
775.764	0.0161821
775.842	0.0163432
775.920	0.0162128
775.998	0.0162383
776.076	0.0163337
776.155	0.0163021
776.233	0.0161684
776.311	0.0162374
776.389	0.0161954
776.467	0.0160591
776.545	0.0161748
776.623	0.0160831
776.701	0.0160888
776.780	0.0161401
776.858	0.0160936
776.936	0.0159198
777.014	0.0160889
777.092	0.0159223
777.170	0.0160537
777.248	0.0159889
777.326	0.0160271
777.405	0.0160559
777.483	0.0159903
777.561	0.0159895
777.639	0.0159270
777.717	0.0160339
777.795	0.0161537
777.873	0.0158876
777.951	0.0159064
778.030	0.0161234
778.108	0.0160657
778.186	0.0160407
778.264	0.0161446
778.342	0.0158960
778.420	0.0158818
778.498	0.0160780
778.576	0.0160599
778.655	0.0160805
778.733	0.0161261
778.811	0.0161082
778.889	0.0161380
778.967	0.0162227
779.045	0.0161703
779.123	0.0160814
779.201	0.0163559
779.280	0.0161646
779.358	0.0161806
779.436	0.0162735
779.514	0.0162311
779.592	0.0164007
779.670	0.0164498
779.748	0.0162668
779.826	0.0163393
779.905	0.0163830
779.983	0.0164363
780.061	0.0164423
780.139	0.0162567
780.217	0.0162617
780.295	0.0163467
780.373	0.0164465
780.451	0.0162226
780.530	0.0164088
780.608	0.0163181
780.686	0.0162752
780.764	0.0164058
780.842	0.0162713
780.920	0.0162884
780.998	0.0163869
781.076	0.0162670
781.155	0.0163924
781.233	0.0163557
781.311	0.0161961
781.389	0.0161012
781.467	0.0163130
781.545	0.0163255
781.623	0.0162276
781.701	0.0163638
781.780	0.0162794
781.858	0.0162214
781.936	0.0162994
782.014	0.0161457
782.092	0.0161385
782.170	0.0161430
782.248	0.0160520
782.326	0.0160796
782.405	0.0159769
782.483	0.0160931
782.561	0.0158858
782.639	0.0159621
782.717	0.0159291
782.795	0.0157682
782.873	0.0157932
782.951	0.0157928
783.030	0.0159610
783.108	0.0158844
783.186	0.0157561
783.264	0.0159428
783.342	0.0159109
783.420	0.0158833
783.498	0.0158448
783.576	0.0160030
783.655	0.0158183
783.733	0.0158408
783.811	0.0160081
783.889	0.0159019
783.967	0.0159801
784.045	0.0159492
784.123	0.0161735
784.201	0.0159739
784.280	0.0160332
784.358	0.0161404
784.436	0.0161309
784.514	0.0160696
784.592	0.0162623
784.670	0.0162497
784.748	0.0162772
784.826	0.0162960
784.905	0.0163982
784.983	0.0163470
785.061	0.0163500
785.139	0.0163205
785.217	0.0163954
785.295	0.0164333
785.373	0.0163916
785.451	0.0162935
785.530	0.0164907
785.608	0.0164928
785.686	0.0164059
785.764	0.0164819
785.842	0.0165881
785.920	0.0165195
785.998	0.0164180
786.076	0.0165356
786.155	0.0165761
786.233	0.0164272
786.311	0.0164431
786.389	0.0165395
786.467	0.0165794
786.545	0.0165053
786.623	0.0163751
786.701	0.0164419
786.780	0.0165349
786.858	0.0164617
786.936	0.0161939
787.014	0.0161505
787.092	0.0162476
787.170	0.0162464
787.248	0.0162803
787.326	0.0162850
787.405	0.0162335
787.483	0.0161559
787.561	0.0161627
787.639	0.0161291
787.717	0.0160683
787.795	0.0160851
787.873	0.0160953
787.951	0.0159502
788.030	0.0160408
788.108	0.0161008
788.186	0.0159068
788.264	0.0159294
788.342	0.0158678
788.420	0.0158587
788.498	0.0158136
788.576	0.0159236
788.655	0.0158526
788.733	0.0158204
788.811	0.0158278
788.889	0.0159158
788.967	0.0158183
789.045	0.0156814
789.123	0.0156924
789.201	0.0157465
789.280	0.0157369
789.358	0.0157950
789.436	0.0159175
789.514	0.0158720
789.592	0.0160070
789.670	0.0159183
789.748	0.0159338
789.826	0.0159127
789.905	0.0160300
789.983	0.0161452
790.061	0.0161314
790.139	0.0161008
790.217	0.0161398
790.295	0.0163004
790.373	0.0162625
790.451	0.0162408
790.530	0.0161813
790.608	0.0161502
790.686	0.0163013
790.764	0.0162210
790.842	0.0161768
790.920	0.0162599
790.998	0.0163603
791.076	0.0162859
791.155	0.0162441
791.233	0.0162316
791.311	0.0162148
791.389	0.0164224
791.467	0.0163897
791.545	0.0162867
791.623	0.0163892
791.701	0.0164518
791.780	0.0165413
791.858	0.0164639
791.936	0.0164191
792.014	0.0164812
792.092	0.0165659
792.170	0.0164149
792.248	0.0163099
792.326	0.0164272
792.405	0.0165478
792.483	0.0164200
792.561	0.0163194
792.639	0.0164530
792.717	0.0163480
792.795	0.0163333
792.873	0.0163899
792.951	0.0162903
793.030	0.0163272
793.108	0.0162740
793.186	0.0163680
793.264	0.0161733
793.342	0.0161727
793.420	0.0162860
793.498	0.0162304
793.576	0.0162351
793.655	0.0163140
793.733	0.0162708
793.811	0.0161084
793.889	0.0161520
793.967	0.0161386
794.045	0.0161462
794.123	0.0162104
794.201	0.0159893
794.280	0.0160339
794.358	0.0161417
794.436	0.0160162
794.514	0.0159701
794.592	0.0159882
794.670	0.0159917
794.748	0.0161969
794.826	0.0161263
794.905	0.0160658
794.983	0.0160361
795.061	0.0159149
795.139	0.0158873
795.217	0.0161228
795.295	0.0160421
795.373	0.0160807
795.451	0.0159621
795.530	0.0161747
795.608	0.0162873
795.686	0.0160833
795.764	0.0161178
795.842	0.0162114
795.920	0.0159954
795.998	0.0162288
796.076	0.0162721
796.155	0.0162238
796.233	0.0163506
796.311	0.0162872
796.389	0.0162920
796.467	0.0163623
796.545	0.0161884
796.623	0.0162296
796.701	0.0162285
796.780	0.0163333
796.858	0.0162408
796.936	0.0161304
797.014	0.0162487
797.092	0.0162167
797.170	0.0161568
797.248	0.0162434
797.326	0.0162331
797.405	0.0161646
797.483	0.0160928
797.561	0.0161497
797.639	0.0161497
797.717	0.0162287
797.795	0.0160824
797.873	0.0161294
797.951	0.0161864
798.030	0.0160516
798.108	0.0161143
798.186	0.0161906
798.264	0.0161018
798.342	0.0160088
798.420	0.0161959
798.498	0.0161407
798.576	0.0160413
798.655	0.0161245
798.733	0.0161362
798.811	0.0161018
798.889	0.0160579
798.967	0.0161923
799.045	0.0161037
799.123	0.0159381
799.201	0.0159350
799.280	0.0161594
799.358	0.0161089
799.436	0.0160923
799.514	0.0161794
799.592	0.0160758
799.670	0.0160202
799.748	0.0160711
799.826	0.0160748
799.905	0.0160880
799.983	0.0160753
800.061	0.0160590
800.139	0.0161410
800.217	0.0161475
800.295	0.0159846
800.373	0.0159759
800.451	0.0160386
800.530	0.0161849
800.608	0.0160640
800.686	0.0158563
800.764	0.0159855
800.842	0.0160545
800.920	0.0159198
800.998	0.0161442
801.076	0.0159406
801.155	0.0160506
801.233	0.0161440
801.311	0.0160561
801.389	0.0159966
801.467	0.0161574
801.545	0.0161361
801.623	0.0160925
801.701	0.0160997
801.780	0.0162978
801.858	0.0162809
801.936	0.0163290
802.014	0.0162935
802.092	0.0162312
802.170	0.0162930
802.248	0.0163664
802.326	0.0163916
802.405	0.0163344
802.483	0.0163514
802.561	0.0164737
802.639	0.0163478
802.717	0.0162860
802.795	0.0163335
802.873	0.0163451
802.951	0.0161732
803.030	0.0163097
803.108	0.0162367
803.186	0.0161827
803.264	0.0161820
803.342	0.0161818
803.420	0.0162057
803.498	0.0161413
803.576	0.0160856
803.655	0.0162437
803.733	0.0161382
803.811	0.0163473
803.889	0.0161432
803.967	0.0160226
804.045	0.0160074
804.123	0.0160496
804.201	0.0162046
804.280	0.0161806
804.358	0.0161454
804.436	0.0161409
804.514	0.0161058
804.592	0.0160210
804.670	0.0160873
804.748	0.0161562
804.826	0.0160699
804.905	0.0162466
804.983	0.0160800
805.061	0.0161015
805.139	0.0160542
805.217	0.0160603
805.295	0.0160315
805.373	0.0159415
805.451	0.0159882
805.530	0.0159778
805.608	0.0161787
805.686	0.0161282
805.764	0.0161544
805.842	0.0161260
805.920	0.0161428
805.998	0.0160585
806.076	0.0162575
806.155	0.0162104
806.233	0.0161880
806.311	0.0162082
806.389	0.0161808
806.467	0.0162930
806.545	0.0162648
806.623	0.0162472
806.701	0.0162393
806.780	0.0162190
806.858	0.0161956
806.936	0.0163834
807.014	0.0160979
807.092	0.0162511
807.170	0.0162502
807.248	0.0162861
807.326	0.0162889
807.405	0.0162934
807.483	0.0162774
807.561	0.0162447
807.639	0.0160813
807.717	0.0160756
807.795	0.0162186
807.873	0.0162401
807.951	0.0161976
808.030	0.0162135
808.108	0.0160535
808.186	0.0162615
808.264	0.0161879
808.342	0.0161467
808.420	0.0161100
808.498	0.0161076
808.576	0.0161285
808.655	0.0161361
808.733	0.0159739
808.811	0.0161894
808.889	0.0161203
808.967	0.0159962
809.045	0.0160466
809.123	0.0159625
809.201	0.0159957
809.280	0.0161241
809.358	0.0160330
809.436	0.0159892
809.514	0.0159241
809.592	0.0161769
809.670	0.0161286
809.748	0.0160459
809.826	0.0161438
809.905	0.0161282
809.983	0.0160951
810.061	0.0161350
810.139	0.0161662
810.217	0.0163243
810.295	0.0160799
810.373	0.0161535
810.451	0.0161007
810.530	0.0161537
810.608	0.0162077
810.686	0.0161831
810.764	0.0162767
810.842	0.0161706
810.920	0.0161650
810.998	0.0160285
811.076	0.0161343
811.155	0.0160874
811.233	0.0160681
811.311	0.0160566
811.389	0.0160674
811.467	0.0160342
811.545	0.0161558
811.623	0.0160423
811.701	0.0160532
811.780	0.0160895
811.858	0.0159993
811.936	0.0160954
812.014	0.0161749
812.092	0.0162667
812.170	0.0160073
812.248	0.0161320
812.326	0.0161510
812.405	0.0160458
812.483	0.0162076
812.561	0.0160907
812.639	0.0161489
812.717	0.0161211
812.795	0.0162654
812.873	0.0163249
812.951	0.0162271
813.030	0.0162205
813.108	0.0162305
813.186	0.0163221
813.264	0.0161746
813.342	0.0162747
813.420	0.0164098
813.498	0.0161582
813.576	0.0162087
813.655	0.0162321
813.733	0.0162845
813.811	0.0162995
813.889	0.0161130
813.967	0.0161707
814.045	0.0162182
814.123	0.0162006
814.201	0.0161294
814.280	0.0162460
814.358	0.0161517
814.436	0.0161263
814.514	0.0161299
814.592	0.0161912
814.670	0.0160828
814.748	0.0161376
814.826	0.0162757
814.905	0.0161612
814.983	0.0161220
815.061	0.0160542
815.139	0.0161794
815.217	0.0161457
815.295	0.0162168
815.373	0.0161539
815.451	0.0161595
815.530	0.0160821
815.608	0.0161092
815.686	0.0162457
815.764	0.0159306
815.842	0.0160342
815.920	0.0162038
815.998	0.0161358
816.076	0.0161200
816.155	0.0160377
816.233	0.0159740
816.311	0.0159982
816.389	0.0159929
816.467	0.0160316
816.545	0.0161024
816.623	0.0160564
816.701	0.0160072
816.780	0.0161257
816.858	0.0159937
816.936	0.0159795
817.014	0.0160210
817.092	0.0162705
817.170	0.0162344
817.248	0.0161341
817.326	0.0162993
817.405	0.0162517
817.483	0.0162569
817.561	0.0161302
817.639	0.0161949
817.717	0.0164746
817.795	0.0163213
817.873	0.0162293
817.951	0.0161720
818.030	0.0162845
818.108	0.0162470
818.186	0.0163095
818.264	0.0162657
818.342	0.0162666
818.420	0.0163406
818.498	0.0162766
818.576	0.0162696
818.655	0.0162990
818.733	0.0162991
818.811	0.0162183
818.889	0.0164368
818.967	0.0162035
819.045	0.0161780
819.123	0.0160851
819.201	0.0162075
819.280	0.0161356
819.358	0.0161454
819.436	0.0159942
819.514	0.0160150
819.592	0.0160851
819.670	0.0161432
819.748	0.0160761
819.826	0.0159849
819.905	0.0161253
819.983	0.0159792
820.061	0.0158168
820.139	0.0160165
820.217	0.0160894
820.295	0.0159341
820.373	0.0160192
820.451	0.0159481
820.530	0.0160881
820.608	0.0159818
820.686	0.0160556
820.764	0.0160144
820.842	0.0162302
820.920	0.0160242
820.998	0.0161734
821.076	0.0160924
821.155	0.0161481
821.233	0.0161884
821.311	0.0162119
821.389	0.0162484
821.467	0.0161836
821.545	0.0161856
821.623	0.0162856
821.701	0.0161903
821.780	0.0162583
821.858	0.0162074
821.936	0.0162646
822.014	0.0163129
822.092	0.0162278
822.170	0.0161868
822.248	0.0165167
822.326	0.0162231
822.405	0.0161603
822.483	0.0162305
822.561	0.0162725
822.639	0.0162477
822.717	0.0162162
822.795	0.0162357
822.873	0.0162710
822.951	0.0159773
823.030	0.0161491
823.108	0.0161765
823.186	0.0161474
823.264	0.0161639
823.342	0.0161103
823.420	0.0159788
823.498	0.0160910
823.576	0.0160970
823.655	0.0160630
823.733	0.0161554
823.811	0.0160638
823.889	0.0160060
823.967	0.0161150
824.045	0.0160672
824.123	0.0160327
824.201	0.0161481
824.280	0.0161469
824.358	0.0159884
824.436	0.0159229
824.514	0.0159693
824.592	0.0159361
824.670	0.0158818
824.748	0.0160391
824.826	0.0160262
824.905	0.0158190
824.983	0.0159378
825.061	0.0161302
825.139	0.0160997
825.217	0.0160523
825.295	0.0160892
825.373	0.0159885
825.451	0.0160532
825.530	0.0160086
825.608	0.0160869
825.686	0.0160573
825.764	0.0160809
825.842	0.0160683
825.920	0.0161914
825.998	0.0161676
826.076	0.0160583
826.155	0.0162019
826.233	0.0162632
826.311	0.0162304
826.389	0.0162509
826.467	0.0162904
826.545	0.0162753
826.623	0.0162890
826.701	0.0163877
826.780	0.0162745
826.858	0.0162376
826.936	0.0163850
827.014	0.0163192
827.092	0.0162302
827.170	0.0163444
827.248	0.0163350
827.326	0.0163873
827.405	0.0163010
827.483	0.0163368
827.561	0.0164315
827.639	0.0165273
827.717	0.0163341
827.795	0.0164204
827.873	0.0162769
827.951	0.0162639
828.030	0.0164031
828.108	0.0163647
828.186	0.0162841
828.264	0.0163617
828.342	0.0165696
828.420	0.0164422
828.498	0.0164132
828.576	0.0163727
828.655	0.0163302
828.733	0.0163557
828.811	0.0163400
828.889	0.0164301
828.967	0.0162677
829.045	0.0163110
829.123	0.0163753
829.201	0.0162689
829.280	0.0162748
829.358	0.0161692
829.436	0.0162632
829.514	0.0162914
829.592	0.0162016
829.670	0.0163828
829.748	0.0162125
829.826	0.0162672
829.905	0.0162619
829.983	0.0163196
830.061	0.0161871
830.139	0.0163382
830.217	0.0161633
830.295	0.0159810
830.373	0.0161379
830.451	0.0162418
830.530	0.0162063
830.608	0.0161183
830.686	0.0160819
830.764	0.0159414
830.842	0.0161047
830.920	0.0161222
830.998	0.0160383
831.076	0.0161080
831.155	0.0160118
831.233	0.0160869
831.311	0.0160522
831.389	0.0160238
831.467	0.0160085
831.545	0.0161617
831.623	0.0160616
831.701	0.0160885
831.780	0.0160190
831.858	0.0160505
831.936	0.0160970
832.014	0.0161183
832.092	0.0160615
832.170	0.0160090
832.248	0.0159469
832.326	0.0159853
832.405	0.0160444
832.483	0.0161111
832.561	0.0160612
832.639	0.0158695
832.717	0.0159530
832.795	0.0159908
832.873	0.0160202
832.951	0.0160609
833.030	0.0161565
833.108	0.0158941
833.186	0.0159643
833.264	0.0158957
833.342	0.0159750
833.420	0.0158565
833.498	0.0159989
833.576	0.0158362
833.655	0.0159091
833.733	0.0161175
833.811	0.0160896
833.889	0.0159101
833.967	0.0160894
834.045	0.0159518
834.123	0.0160505
834.201	0.0161596
834.280	0.0160646
834.358	0.0161610
834.436	0.0159365
834.514	0.0161761
834.592	0.0161723
834.670	0.0159327
834.748	0.0160390
834.826	0.0160773
834.905	0.0159721
834.983	0.0160543
835.061	0.0161024
835.139	0.0160065
835.217	0.0160301
835.295	0.0160522
835.373	0.0160237
835.451	0.0160114
835.530	0.0160291
835.608	0.0161617
835.686	0.0162165
835.764	0.0161975
835.842	0.0161086
835.920	0.0160211
835.998	0.0162422
836.076	0.0162183
836.155	0.0161702
836.233	0.0162289
836.311	0.0159832
836.389	0.0160648
836.467	0.0160940
836.545	0.0160101
836.623	0.0161445
836.701	0.0161029
836.780	0.0161436
836.858	0.0160577
836.936	0.0159126
837.014	0.0161230
837.092	0.0162323
837.170	0.0161658
837.248	0.0161552
837.326	0.0160069
837.405	0.0162235
837.483	0.0162159
837.561	0.0161038
837.639	0.0161856
837.717	0.0161547
837.795	0.0162298
837.873	0.0161573
837.951	0.0162090
838.030	0.0163082
838.108	0.0161503
838.186	0.0161114
838.264	0.0161204
838.342	0.0161254
838.420	0.0163466
838.498	0.0163152
838.576	0.0162252
838.655	0.0163001
838.733	0.0162938
838.811	0.0162792
838.889	0.0161877
838.967	0.0162269
839.045	0.0163198
839.123	0.0163475
839.201	0.0161649
839.280	0.0161287
839.358	0.0162245
839.436	0.0161775
839.514	0.0161908
839.592	0.0162361
839.670	0.0162760
839.748	0.0162729
839.826	0.0162836
839.905	0.0162620
839.983	0.0162821
840.061	0.0162290
840.139	0.0161745
840.217	0.0161501
840.295	0.0164066
840.373	0.0162393
840.451	0.0162107
840.530	0.0161932
840.608	0.0162952
840.686	0.0162347
840.764	0.0161626
840.842	0.0162462
840.920	0.0161192
840.998	0.0162048
841.076	0.0161977
841.155	0.0162278
841.233	0.0161911
841.311	0.0162151
841.389	0.0162640
841.467	0.0161726
841.545	0.0161443
841.623	0.0161993
841.701	0.0162090
841.780	0.0161534
841.858	0.0161956
841.936	0.0161837
842.014	0.0160538
842.092	0.0160754
842.170	0.0162255
842.248	0.0162827
842.326	0.0161346
842.405	0.0161944
842.483	0.0160876
842.561	0.0161236
842.639	0.0162508
842.717	0.0161385
842.795	0.0161406
842.873	0.0162027
842.951	0.0162675
843.030	0.0164075
843.108	0.0162645
843.186	0.0161439
843.264	0.0161607
843.342	0.0163704
843.420	0.0162032
843.498	0.0162464
843.576	0.0163422
843.655	0.0162643
843.733	0.0163104
843.811	0.0162747
843.889	0.0162750
843.967	0.0162115
844.045	0.0162174
844.123	0.0161915
844.201	0.0161392
844.280	0.0162536
844.358	0.0161842
844.436	0.0162247
844.514	0.0162767
844.592	0.0162594
844.670	0.0161533
844.748	0.0161856
844.826	0.0160921
844.905	0.0161794
844.983	0.0161415
845.061	0.0161358
845.139	0.0161473
845.217	0.0160240
845.295	0.0161447
845.373	0.0161271
845.451	0.0160145
845.530	0.0161101
845.608	0.0161321
845.686	0.0161138
845.764	0.0160105
845.842	0.0162388
845.920	0.0161661
845.998	0.0161618
846.076	0.0160382
846.155	0.0162782
846.233	0.0161165
846.311	0.0160639
846.389	0.0160722
846.467	0.0162012
846.545	0.0160995
846.623	0.0159400
846.701	0.0161096
846.780	0.0161138
846.858	0.0162550
846.936	0.0161017
847.014	0.0160510
847.092	0.0160538
847.170	0.0161079
847.248	0.0161572
847.326	0.0161423
847.405	0.0160654
847.483	0.0162132
847.561	0.0161073
847.639	0.0162205
847.717	0.0160168
847.795	0.0161853
847.873	0.0162570
847.951	0.0161841
848.030	0.0160827
848.108	0.0159840
848.186	0.0160760
848.264	0.0160059
848.342	0.0161102
848.420	0.0161881
848.498	0.0162294
848.576	0.0162343
848.655	0.0162985
848.733	0.0162168
848.811	0.0161859
848.889	0.0161681
848.967	0.0162095
849.045	0.0162711
849.123	0.0161697
849.201	0.0161575
849.280	0.0161629
849.358	0.0161161
849.436	0.0161565
849.514	0.0161918
849.592	0.0161108
849.670	0.0163888
849.748	0.0161127
849.826	0.0161929
849.905	0.0161315
849.983	0.0161288
850.061	0.0162350
850.139	0.0162311
850.217	0.0161732
850.295	0.0162813
850.373	0.0163069
850.451	0.0162551
850.530	0.0161267
850.608	0.0162627
850.686	0.0163013
850.764	0.0162624
850.842	0.0163496
850.920	0.0162524
850.998	0.0162845
851.076	0.0164571
851.155	0.0162585
851.233	0.0162814
851.311	0.0162798
851.389	0.0163125
851.467	0.0162376
851.545	0.0163119
851.623	0.0162759
851.701	0.0161793
851.780	0.0161597
851.858	0.0162338
851.936	0.0162560
852.014	0.0162741
852.092	0.0163152
852.170	0.0162757
852.248	0.0163019
852.326	0.0161646
852.405	0.0161822
852.483	0.0162817
852.561	0.0161505
852.639	0.0162646
852.717	0.0162419
852.795	0.0161079
852.873	0.0161060
852.951	0.0162440
853.030	0.0161648
853.108	0.0163196
853.186	0.0162189
853.264	0.0161787
853.342	0.0161485
853.420	0.0161549
853.498	0.0162670
853.576	0.0162421
853.655	0.0160217
853.733	0.0160898
853.811	0.0161577
853.889	0.0161195
853.967	0.0161125
854.045	0.0161906
854.123	0.0161373
854.201	0.0162753
854.280	0.0162061
854.358	0.0162792
854.436	0.0162099
854.514	0.0160960
854.592	0.0161922
854.670	0.0162922
854.748	0.0160976
854.826	0.0162888
854.905	0.0162167
854.983	0.0160180
855.061	0.0161012
855.139	0.0162813
855.217	0.0163037
855.295	0.0161792
855.373	0.0159751
855.451	0.0161457
855.530	0.0161958
855.608	0.0161520
855.686	0.0162888
855.764	0.0162409
855.842	0.0161642
855.920	0.0160799
855.998	0.0161111
856.076	0.0161021
856.155	0.0160041
856.233	0.0160500
856.311	0.0159509
856.389	0.0160268
856.467	0.0160316
856.545	0.0159849
856.623	0.0159222
856.701	0.0159720
856.780	0.0159267
856.858	0.0161924
856.936	0.0159329
857.014	0.0159037
857.092	0.0158821
857.170	0.0158132
857.248	0.0160550
857.326	0.0161031
857.405	0.0160313
857.483	0.0160139
857.561	0.0159968
857.639	0.0160891
857.717	0.0159502
857.795	0.0161046
857.873	0.0160661
857.951	0.0162453
858.030	0.0162031
858.108	0.0161569
858.186	0.0160775
858.264	0.0161770
858.342	0.0162547
858.420	0.0162135
858.498	0.0161459
858.576	0.0161471
858.655	0.0160776
858.733	0.0160898
858.811	0.0161835
858.889	0.0161928
858.967	0.0161972
859.045	0.0162442
859.123	0.0161473
859.201	0.0161516
859.280	0.0161370
859.358	0.0160649
859.436	0.0162350
859.514	0.0161477
859.592	0.0161077
859.670	0.0161409
859.748	0.0160730
859.826	0.0161857
859.905	0.0161478
859.983	0.0161821
860.061	0.0161242
860.139	0.0160098
860.217	0.0159891
860.295	0.0162035
860.373	0.0160094
860.451	0.0161084
860.530	0.0162231
860.608	0.0162476
860.686	0.0162631
860.764	0.0160349
860.842	0.0160632
860.920	0.0161490
860.998	0.0160642
861.076	0.0159461
861.155	0.0160065
861.233	0.0162483
861.311	0.0160210
861.389	0.0160812
861.467	0.0161556
861.545	0.0161436
861.623	0.0161344
861.701	0.0161525
861.780	0.0162450
861.858	0.0161706
861.936	0.0162587
862.014	0.0161243
862.092	0.0161505
862.170	0.0162275
862.248	0.0163142
862.326	0.0163379
862.405	0.0161401
862.483	0.0161160
862.561	0.0163195
862.639	0.0164079
862.717	0.0162169
862.795	0.0161834
862.873	0.0161594
862.951	0.0162762
863.030	0.0162976
863.108	0.0161037
863.186	0.0164111
863.264	0.0160950
863.342	0.0161372
863.420	0.0162623
863.498	0.0162463
863.576	0.0162090
863.655	0.0161471
863.733	0.0160707
863.811	0.0163342
863.889	0.0162187
863.967	0.0161319
864.045	0.0162974
864.123	0.0163361
864.201	0.0163485
864.280	0.0161747
864.358	0.0163175
864.436	0.0162720
864.514	0.0162833
864.592	0.0163580
864.670	0.0163066
864.748	0.0162596
864.826	0.0162163
864.905	0.0163997
864.983	0.0163074
865.061	0.0162554
865.139	0.0161633
865.217	0.0162788
865.295	0.0162157
865.373	0.0162786
865.451	0.0161077
865.530	0.0161181
865.608	0.0161406
865.686	0.0162481
865.764	0.0162604
865.842	0.0162731
865.920	0.0161469
865.998	0.0161271
866.076	0.0161771
866.155	0.0162865
866.233	0.0161838
866.311	0.0159849
866.389	0.0163448
866.467	0.0162164
866.545	0.0160945
866.623	0.0161369
866.701	0.0160300
866.780	0.0161631
866.858	0.0161819
866.936	0.0161619
867.014	0.0160706
867.092	0.0160284
867.170	0.0160462
867.248	0.0161414
867.326	0.0160887
867.405	0.0160720
867.483	0.0159756
867.561	0.0159994
867.639	0.0160332
867.717	0.0160838
867.795	0.0159995
867.873	0.0160439
867.951	0.0159137
868.030	0.0159750
868.108	0.0159286
868.186	0.0159120
868.264	0.0160170
868.342	0.0160252
868.420	0.0160958
868.498	0.0159039
868.576	0.0159953
868.655	0.0160509
868.733	0.0161325
868.811	0.0161132
868.889	0.0161462
868.967	0.0160524
869.045	0.0161561
869.123	0.0161560
869.201	0.0162152
869.280	0.0161362
869.358	0.0160781
869.436	0.0160847
869.514	0.0163023
869.592	0.0161707
869.670	0.0161858
869.748	0.0162868
869.826	0.0162901
869.905	0.0161932
869.983	0.0164065
870.061	0.0165495
870.139	0.0164960
870.217	0.0163561
870.295	0.0164416
870.373	0.0164094
870.451	0.0163937
870.530	0.0164747
870.608	0.0163568
870.686	0.0164248
870.764	0.0164350
870.842	0.0163848
870.920	0.0163857
870.998	0.0165642
871.076	0.0165078
871.155	0.0166020
871.233	0.0164916
871.311	0.0163037
871.389	0.0165231
871.467	0.0165961
871.545	0.0163631
871.623	0.0163885
871.701	0.0163583
871.780	0.0163607
871.858	0.0162990
871.936	0.0161695
872.014	0.0162404
872.092	0.0162067
872.170	0.0161253
872.248	0.0161739
872.326	0.0160821
872.405	0.0161039
872.483	0.0160556
872.561	0.0160206
872.639	0.0160950
872.717	0.0160917
872.795	0.0159876
872.873	0.0159843
872.951	0.0160128
873.030	0.0159896
873.108	0.0160947
873.186	0.0161149
873.264	0.0159482
873.342	0.0160735
873.420	0.0161789
873.498	0.0161005
873.576	0.0161154
873.655	0.0160383
873.733	0.0162223
873.811	0.0160914
873.889	0.0161876
873.967	0.0162556
874.045	0.0161865
874.123	0.0161268
874.201	0.0161199
874.280	0.0161559
874.358	0.0160140
874.436	0.0161073
874.514	0.0162302
874.592	0.0162080
874.670	0.0160761
874.748	0.0162048
874.826	0.0161395
874.905	0.0161453
874.983	0.0160593
875.061	0.0161681
875.139	0.0162997
875.217	0.0162992
875.295	0.0162086
875.373	0.0161135
875.451	0.0162473
875.530	0.0159699
875.608	0.0161335
875.686	0.0160989
875.764	0.0161767
875.842	0.0161143
875.920	0.0159637
875.998	0.0162280
876.076	0.0161645
876.155	0.0160526
876.233	0.0159640
876.311	0.0161215
876.389	0.0161021
876.467	0.0160905
876.545	0.0160947
876.623	0.0160646
876.701	0.0160539
876.780	0.0160240
876.858	0.0161339
876.936	0.0158861
877.014	0.0160088
877.092	0.0160432
877.170	0.0159563
877.248	0.0160400
877.326	0.0161532
877.405	0.0159419
877.483	0.0160445
877.561	0.0158877
877.639	0.0160225
877.717	0.0160817
877.795	0.0159057
877.873	0.0161023
877.951	0.0160930
878.030	0.0161111
878.108	0.0159458
878.186	0.0160601
878.264	0.0160257
878.342	0.0159731
878.420	0.0160326
878.498	0.0160080
878.576	0.0160060
878.655	0.0161180
878.733	0.0160782
878.811	0.0160211
878.889	0.0161636
878.967	0.0160717
879.045	0.0160962
879.123	0.0161555
879.201	0.0161878
879.280	0.0160825
879.358	0.0161410
879.436	0.0161654
879.514	0.0161610
879.592	0.0160541
879.670	0.0162286
879.748	0.0161299
879.826	0.0159889
879.905	0.0162272
879.983	0.0161547
880.061	0.0159479
880.139	0.0160168
880.217	0.0161740
880.295	0.0160525
880.373	0.0160118
880.451	0.0161002
880.530	0.0161626
880.608	0.0160793
880.686	0.0160074
880.764	0.0160583
880.842	0.0160291
880.920	0.0162112
880.998	0.0161480
881.076	0.0161871
881.155	0.0162510
881.233	0.0161445
881.311	0.0161761
881.389	0.0160986
881.467	0.0160900
881.545	0.0160625
881.623	0.0160590
881.701	0.0161443
881.780	0.0161975
881.858	0.0162237
881.936	0.0162748
882.014	0.0161633
882.092	0.0160770
882.170	0.0163463
882.248	0.0163282
882.326	0.0162636
882.405	0.0163201
882.483	0.0161400
882.561	0.0162637
882.639	0.0163518
882.717	0.0163213
882.795	0.0163567
882.873	0.0164120
882.951	0.0162918
883.030	0.0161932
883.108	0.0161795
883.186	0.0161965
883.264	0.0161305
883.342	0.0163837
883.420	0.0162713
883.498	0.0162652
883.576	0.0161243
883.655	0.0162072
883.733	0.0161246
883.811	0.0162402
883.889	0.0162437
883.967	0.0160867
884.045	0.0161019
884.123	0.0161780
884.201	0.0162074
884.280	0.0161857
884.358	0.0163172
884.436	0.0162357
884.514	0.0162030
884.592	0.0160541
884.670	0.0162014
884.748	0.0161405
884.826	0.0161504
884.905	0.0162215
884.983	0.0160455
885.061	0.0161552
885.139	0.0162132
885.217	0.0160751
885.295	0.0162047
885.373	0.0161578
885.451	0.0159908
885.530	0.0161967
885.608	0.0161058
885.686	0.0161821
885.764	0.0161297
885.842	0.0163360
885.920	0.0161055
885.998	0.0161742
886.076	0.0163247
886.155	0.0161945
886.233	0.0163162
886.311	0.0162580
886.389	0.0161305
886.467	0.0161846
886.545	0.0162532
886.623	0.0162476
886.701	0.0161088
886.780	0.0161484
886.858	0.0163104
886.936	0.0162774
887.014	0.0163080
887.092	0.0161649
887.170	0.0161932
887.248	0.0162643
887.326	0.0163677
887.405	0.0162778
887.483	0.0164021
887.561	0.0162721
887.639	0.0163219
887.717	0.0163342
887.795	0.0163081
887.873	0.0162062
887.951	0.0162408
888.030	0.0163313
888.108	0.0163011
888.186	0.0161691
888.264	0.0162142
888.342	0.0162795
888.420	0.0161875
888.498	0.0162335
888.576	0.0161069
888.655	0.0161403
888.733	0.0162759
888.811	0.0162466
888.889	0.0161217
888.967	0.0161376
889.045	0.0162145
889.123	0.0162246
889.201	0.0162753
889.280	0.0161153
889.358	0.0161507
889.436	0.0162061
889.514	0.0161156
889.592	0.0162017
889.670	0.0162598
889.748	0.0161507
889.826	0.0161594
889.905	0.0161344
889.983	0.0161916
890.061	0.0161446
890.139	0.0162563
890.217	0.0163457
890.295	0.0161462
890.373	0.0161622
890.451	0.0162150
890.530	0.0161578
890.608	0.0162560
890.686	0.0160637
890.764	0.0161720
890.842	0.0160168
890.920	0.0160261
890.998	0.0162408
891.076	0.0161310
891.155	0.0160123
891.233	0.0161265
891.311	0.0161489
891.389	0.0160138
891.467	0.0160832
891.545	0.0160434
891.623	0.0160281
891.701	0.0160432
891.780	0.0162566
891.858	0.0159752
891.936	0.0160571
892.014	0.0160097
892.092	0.0160243
892.170	0.0159960
892.248	0.0162268
892.326	0.0159716
892.405	0.0158800
892.483	0.0160788
892.561	0.0160297
892.639	0.0159418
892.717	0.0159981
892.795	0.0160838
892.873	0.0160445
892.951	0.0161725
893.030	0.0161178
893.108	0.0162371
893.186	0.0160890
893.264	0.0161109
893.342	0.0161360
893.420	0.0163196
893.498	0.0161666
893.576	0.0161236
893.655	0.0162136
893.733	0.0162043
893.811	0.0162076
893.889	0.0162358
893.967	0.0162638
894.045	0.0162134
894.123	0.0162159
894.201	0.0162282
894.280	0.0163121
894.358	0.0163445
894.436	0.0161909
894.514	0.0162197
894.592	0.0161162
894.670	0.0162370
894.748	0.0162847
894.826	0.0161258
894.905	0.0161821
894.983	0.0162955
895.061	0.0161136
895.139	0.0160519
895.217	0.0162181
895.295	0.0160653
895.373	0.0162028
895.451	0.0161658
895.530	0.0161656
895.608	0.0161847
895.686	0.0161796
895.764	0.0161292
895.842	0.0163004
895.920	0.0161367
895.998	0.0162738
896.076	0.0162630
896.155	0.0162188
896.233	0.0161391
896.311	0.0161106
896.389	0.0161469
896.467	0.0161298
896.545	0.0161449
896.623	0.0161609
896.701	0.0160771
896.780	0.0161587
896.858	0.0161185
896.936	0.0160848
897.014	0.0159996
897.092	0.0159973
897.170	0.0161330
897.248	0.0160909
897.326	0.0160003
897.405	0.0159368
897.483	0.0160978
897.561	0.0161627
897.639	0.0161966
897.717	0.0161378
897.795	0.0161794
897.873	0.0161316
897.951	0.0161710
898.030	0.0160813
898.108	0.0160755
898.186	0.0161224
898.264	0.0161531
898.342	0.0160683
898.420	0.0160652
898.498	0.0161289
898.576	0.0161153
898.655	0.0159924
898.733	0.0160210
898.811	0.0160564
898.889	0.0160365
898.967	0.0160690
899.045	0.0160698
899.123	0.0161314
899.201	0.0161883
899.280	0.0161069
899.358	0.0161247
899.436	0.0160551
899.514	0.0161786
899.592	0.0160783
899.670	0.0161732
899.748	0.0160858
899.826	0.0161655
899.905	0.0161909
899.983	0.0161275
900.061	0.0161156
900.139	0.0161846
900.217	0.0160811
900.295	0.0163115
900.373	0.0162651
900.451	0.0161156
900.530	0.0162957
900.608	0.0161014
900.686	0.0161607
900.764	0.0161095
900.842	0.0162991
900.920	0.0161424
900.998	0.0162587
901.076	0.0161533
901.155	0.0162159
901.233	0.0161270
901.311	0.0160892
901.389	0.0161249
901.467	0.0161147
901.545	0.0160072
901.623	0.0160999
901.701	0.0162276
901.780	0.0162322
901.858	0.0160291
901.936	0.0161194
902.014	0.0161459
902.092	0.0161699
902.170	0.0159010
902.248	0.0160722
902.326	0.0161286
902.405	0.0160415
902.483	0.0161128
902.561	0.0161914
902.639	0.0160681
902.717	0.0160269
902.795	0.0161592
902.873	0.0161690
902.951	0.0161166
903.030	0.0160819
903.108	0.0161279
903.186	0.0161581
903.264	0.0161110
903.342	0.0160883
903.420	0.0160934
903.498	0.0161005
903.576	0.0162144
903.655	0.0161866
903.733	0.0160252
903.811	0.0160616
903.889	0.0161217
903.967	0.0162013
904.045	0.0161460
904.123	0.0160243
904.201	0.0160579
904.280	0.0161051
904.358	0.0162329
904.436	0.0162357
904.514	0.0160802
904.592	0.0161337
904.670	0.0161815
904.748	0.0161274
904.826	0.0160950
904.905	0.0161594
904.983	0.0163515
905.061	0.0161000
905.139	0.0162278
905.217	0.0162953
905.295	0.0161549
905.373	0.0161756
905.451	0.0162013
905.530	0.0161851
905.608	0.0162185
905.686	0.0162142
905.764	0.0162304
905.842	0.0162526
905.920	0.0161724
905.998	0.0161349
906.076	0.0160951
906.155	0.0162868
906.233	0.0162094
906.311	0.0160505
906.389	0.0162061
906.467	0.0161710
906.545	0.0161245
906.623	0.0162539
906.701	0.0161278
906.780	0.0161043
906.858	0.0160137
906.936	0.0161314
907.014	0.0162154
907.092	0.0163966
907.170	0.0163938
907.248	0.0161976
907.326	0.0162434
907.405	0.0162928
907.483	0.0162659
907.561	0.0162930
907.639	0.0163649
907.717	0.0162428
907.795	0.0162231
907.873	0.0163068
907.951	0.0163814
908.030	0.0163274
908.108	0.0161934
908.186	0.0161850
908.264	0.0162415
908.342	0.0161834
908.420	0.0162652
908.498	0.0162958
908.576	0.0160884
908.655	0.0161539
908.733	0.0162566
908.811	0.0161797
908.889	0.0162623
908.967	0.0160785
909.045	0.0161769
909.123	0.0162472
909.201	0.0160267
909.280	0.0161343
909.358	0.0160339
909.436	0.0159874
909.514	0.0160696
909.592	0.0162677
909.670	0.0160537
909.748	0.0159816
909.826	0.0162025
909.905	0.0159347
909.983	0.0160670
910.061	0.0160455
910.139	0.0160069
910.217	0.0160932
910.295	0.0160958
910.373	0.0160746
910.451	0.0160666
910.530	0.0160772
910.608	0.0161607
910.686	0.0162473
910.764	0.0162292
910.842	0.0161043
910.920	0.0161851
910.998	0.0161633
911.076	0.0162002
911.155	0.0161703
911.233	0.0161938
911.311	0.0161427
911.389	0.0162160
911.467	0.0162464
911.545	0.0163557
911.623	0.0162893
911.701	0.0162249
911.780	0.0162298
911.858	0.0162869
911.936	0.0162640
912.014	0.0162490
912.092	0.0162644
912.170	0.0162644
912.248	0.0161745
912.326	0.0163743
912.405	0.0161959
912.483	0.0162435
912.561	0.0162483
912.639	0.0161730
912.717	0.0160983
912.795	0.0162765
912.873	0.0161826
912.951	0.0162669
913.030	0.0161568
913.108	0.0160948
913.186	0.0161252
913.264	0.0162380
913.342	0.0162624
913.420	0.0162999
913.498	0.0163029
913.576	0.0161744
913.655	0.0162103
913.733	0.0162453
913.811	0.0162430
913.889	0.0162899
913.967	0.0162102
914.045	0.0163108
914.123	0.0162859
914.201	0.0162240
914.280	0.0160608
914.358	0.0163300
914.436	0.0162973
914.514	0.0162621
914.592	0.0162605
914.670	0.0162283
914.748	0.0162617
914.826	0.0161903
914.905	0.0162144
914.983	0.0163979
915.061	0.0162226
915.139	0.0162069
915.217	0.0161521
915.295	0.0162679
915.373	0.0162304
915.451	0.0162894
915.530	0.0162289
915.608	0.0161396
915.686	0.0160931
915.764	0.0162078
915.842	0.0163018
915.920	0.0162090
915.998	0.0161929
916.076	0.0162650
916.155	0.0162390
916.233	0.0160258
916.311	0.0161826
916.389	0.0161260
916.467	0.0161688
916.545	0.0163023
916.623	0.0161518
916.701	0.0161960
916.780	0.0161483
916.858	0.0161810
916.936	0.0162124
917.014	0.0160914
917.092	0.0162218
917.170	0.0161839
917.248	0.0162283
917.326	0.0160989
917.405	0.0163541
917.483	0.0160901
917.561	0.0160788
917.639	0.0161193
917.717	0.0162184
917.795	0.0163269
917.873	0.0161930
917.951	0.0161559
918.030	0.0162585
918.108	0.0161879
918.186	0.0162241
918.264	0.0162546
918.342	0.0161823
918.420	0.0162170
918.498	0.0162283
918.576	0.0162344
918.655	0.0163063
918.733	0.0163545
918.811	0.0161709
918.889	0.0163142
918.967	0.0163114
919.045	0.0162670
919.123	0.0160608
919.201	0.0161208
919.280	0.0162231
919.358	0.0161552
919.436	0.0162421
919.514	0.0162960
919.592	0.0161848
919.670	0.0160638
919.748	0.0163113
919.826	0.0162281
919.905	0.0162035
919.983	0.0160945
920.061	0.0161330
920.139	0.0161113
920.217	0.0161642
920.295	0.0160462
920.373	0.0160262
920.451	0.0161559
920.530	0.0159492
920.608	0.0159283
920.686	0.0160656
920.764	0.0160221
920.842	0.0159272
920.920	0.0160093
920.998	0.0160612
921.076	0.0157282
921.155	0.0160695
921.233	0.0160074
921.311	0.0160462
921.389	0.0160991
921.467	0.0159038
921.545	0.0158164
921.623	0.0158547
921.701	0.0159938
921.780	0.0160626
921.858	0.0161822
921.936	0.0159113
922.014	0.0159231
922.092	0.0161000
922.170	0.0161227
922.248	0.0161694
922.326	0.0160314
922.405	0.0160408
922.483	0.0160882
922.561	0.0161182
922.639	0.0160897
922.717	0.0161376
922.795	0.0161723
922.873	0.0162714
922.951	0.0161101
923.030	0.0162453
923.108	0.0162979
923.186	0.0163370
923.264	0.0162898
923.342	0.0161597
923.420	0.0161883
923.498	0.0162302
923.576	0.0161956
923.655	0.0164124
923.733	0.0161898
923.811	0.0162710
923.889	0.0163522
923.967	0.0162995
924.045	0.0163147
924.123	0.0162502
924.201	0.0163951
924.280	0.0162953
924.358	0.0161250
924.436	0.0162643
924.514	0.0163560
924.592	0.0162402
924.670	0.0161093
924.748	0.0162976
924.826	0.0163148
924.905	0.0162090
924.983	0.0162867
925.061	0.0160757
925.139	0.0161156
925.217	0.0162265
925.295	0.0162045
925.373	0.0160766
925.451	0.0160778
925.530	0.0161763
925.608	0.0160815
925.686	0.0161662
925.764	0.0160489
925.842	0.0160765
925.920	0.0159799
925.998	0.0161292
926.076	0.0159470
926.155	0.0160799
926.233	0.0160442
926.311	0.0159640
926.389	0.0161571
926.467	0.0160786
926.545	0.0160882
926.623	0.0158360
926.701	0.0160158
926.780	0.0160420
926.858	0.0159220
926.936	0.0159464
927.014	0.0160917
927.092	0.0160114
927.170	0.0162225
927.248	0.0161111
927.326	0.0159933
927.405	0.0160678
927.483	0.0160514
927.561	0.0160339
927.639	0.0160679
927.717	0.0160985
927.795	0.0160926
927.873	0.0160188
927.951	0.0161045
928.030	0.0161882
928.108	0.0162159
928.186	0.0163022
928.264	0.0161608
928.342	0.0161411
928.420	0.0162229
928.498	0.0162011
928.576	0.0162354
928.655	0.0163205
928.733	0.0161977
928.811	0.0162934
928.889	0.0163650
928.967	0.0162649
929.045	0.0162674
929.123	0.0162126
929.201	0.0162721
929.280	0.0163853
929.358	0.0163321
929.436	0.0162962
929.514	0.0162358
929.592	0.0162980
929.670	0.0162428
929.748	0.0163659
929.826	0.0163691
929.905	0.0162497
929.983	0.0161803
930.061	0.0162879
930.139	0.0163195
930.217	0.0162092
930.295	0.0162823
930.373	0.0160876
930.451	0.0162457
930.530	0.0161752
930.608	0.0162225
930.686	0.0162724
930.764	0.0162498
930.842	0.0160326
930.920	0.0162457
930.998	0.0160668
931.076	0.0160734
931.155	0.0162096
931.233	0.0160636
931.311	0.0160936
931.389	0.0159994
931.467	0.0160870
931.545	0.0160863
931.623	0.0160825
931.701	0.0161042
931.780	0.0161262
931.858	0.0160339
931.936	0.0160735
932.014	0.0162099
932.092	0.0159879
932.170	0.0161479
932.248	0.0160522
932.326	0.0160882
932.405	0.0160910
932.483	0.0161663
932.561	0.0162585
932.639	0.0160859
932.717	0.0161424
932.795	0.0160372
932.873	0.0161230
932.951	0.0160365
933.030	0.0161272
933.108	0.0160514
933.186	0.0160954
933.264	0.0160054
933.342	0.0161125
933.420	0.0159500
933.498	0.0158732
933.576	0.0161050
933.655	0.0160238
933.733	0.0160869
933.811	0.0161422
933.889	0.0160203
933.967	0.0159323
934.045	0.0161587
934.123	0.0160449
934.201	0.0160328
934.280	0.0161800
934.358	0.0161579
934.436	0.0161227
934.514	0.0162215
934.592	0.0159760
934.670	0.0159197
934.748	0.0160544
934.826	0.0161786
934.905	0.0160346
934.983	0.0161416
935.061	0.0162195
935.139	0.0161326
935.217	0.0160887
935.295	0.0161538
935.373	0.0161668
935.451	0.0161785
935.530	0.0160642
935.608	0.0161111
935.686	0.0160101
935.764	0.0160550
935.842	0.0161600
935.920	0.0161550
935.998	0.0161423
936.076	0.0160729
936.155	0.0160217
936.233	0.0160695
936.311	0.0161217
936.389	0.0160583
936.467	0.0161167
936.545	0.0160390
936.623	0.0160410
936.701	0.0160619
936.780	0.0160307
936.858	0.0159871
936.936	0.0159928
937.014	0.0161915
937.092	0.0160243
937.170	0.0160459
937.248	0.0160866
937.326	0.0161314
937.405	0.0161335
937.483	0.0161397
937.561	0.0160857
937.639	0.0160149
937.717	0.0160443
937.795	0.0161726
937.873	0.0160762
937.951	0.0160218
938.030	0.0160349
938.108	0.0162415
938.186	0.0161843
938.264	0.0160901
938.342	0.0162502
938.420	0.0162624
938.498	0.0161050
938.576	0.0161917
938.655	0.0162292
938.733	0.0162414
938.811	0.0163215
938.889	0.0162267
938.967	0.0163165
939.045	0.0162204
939.123	0.0162421
939.201	0.0162450
939.280	0.0161769
939.358	0.0162064
939.436	0.0164093
939.514	0.0163861
939.592	0.0163459
939.670	0.0163044
939.748	0.0162558
939.826	0.0161768
939.905	0.0162431
939.983	0.0162778
940.061	0.0162461
940.139	0.0163767
940.217	0.0161996
940.295	0.0162684
940.373	0.0162795
940.451	0.0161773
940.530	0.0162922
940.608	0.0162955
940.686	0.0162621
940.764	0.0162154
940.842	0.0161534
940.920	0.0162116
940.998	0.0161403
941.076	0.0161159
941.155	0.0162917
941.233	0.0161069
941.311	0.0161942
941.389	0.0161586
941.467	0.0162159
941.545	0.0161166
941.623	0.0162138
941.701	0.0161574
941.780	0.0159951
941.858	0.0161794
941.936	0.0161925
942.014	0.0160963
942.092	0.0162045
942.170	0.0162543
942.248	0.0161832
942.326	0.0162321
942.405	0.0163015
942.483	0.0161511
942.561	0.0163676
942.639	0.0162095
942.717	0.0161488
942.795	0.0162873
942.873	0.0161606
942.951	0.0162126
943.030	0.0162415
943.108	0.0161703
943.186	0.0162756
943.264	0.0162251
943.342	0.0162019
943.420	0.0161109
943.498	0.0160708
943.576	0.0161509
943.655	0.0160918
943.733	0.0159774
943.811	0.0161159
943.889	0.0162072
943.967	0.0160576
944.045	0.0161616
944.123	0.0161085
944.201	0.0161075
944.280	0.0160289
944.358	0.0162147
944.436	0.0162020
944.514	0.0159560
944.592	0.0161657
944.670	0.0162497
944.748	0.0162149
944.826	0.0162008
944.905	0.0162608
944.983	0.0160873
945.061	0.0161156
945.139	0.0162276
945.217	0.0162112
945.295	0.0161227
945.373	0.0161706
945.451	0.0162560
945.530	0.0162856
945.608	0.0162948
945.686	0.0163099
945.764	0.0162071
945.842	0.0163978
945.920	0.0162690
945.998	0.0161753
946.076	0.0162100
946.155	0.0161015
946.233	0.0162176
946.311	0.0161859
946.389	0.0162843
946.467	0.0162453
946.545	0.0162614
946.623	0.0160548
946.701	0.0161021
946.780	0.0161124
946.858	0.0161999
946.936	0.0161281
947.014	0.0161196
947.092	0.0161858
947.170	0.0159414
947.248	0.0161338
947.326	0.0162111
947.405	0.0161663
947.483	0.0161271
947.561	0.0160061
947.639	0.0161922
947.717	0.0161855
947.795	0.0161726
947.873	0.0161553
947.951	0.0161438
948.030	0.0160583
948.108	0.0160667
948.186	0.0160679
948.264	0.0160102
948.342	0.0160683
948.420	0.0160006
948.498	0.0159843
948.576	0.0159077
948.655	0.0160501
948.733	0.0162667
948.811	0.0160693
948.889	0.0160455
948.967	0.0160301
949.045	0.0161694
949.123	0.0162427
949.201	0.0161429
949.280	0.0162568
949.358	0.0160938
949.436	0.0161414
949.514	0.0161706
949.592	0.0161906
949.670	0.0162041
949.748	0.0162110
949.826	0.0162198
949.905	0.0161663
949.983	0.0162366
950.061	0.0162836
950.139	0.0162621
950.217	0.0162050
950.295	0.0163278
950.373	0.0162202
950.451	0.0161739
950.530	0.0162578
950.608	0.0162086
950.686	0.0161008
950.764	0.0162280
950.842	0.0162651
950.920	0.0161594
950.998	0.0161858
951.076	0.0162444
951.155	0.0162511
951.233	0.0163161
951.311	0.0161056
951.389	0.0163161
951.467	0.0162612
951.545	0.0160390
951.623	0.0161536
951.701	0.0161049
951.780	0.0161827
951.858	0.0160556
951.936	0.0161014
952.014	0.0162199
952.092	0.0161356
952.170	0.0161275
952.248	0.0160178
952.326	0.0161853
952.405	0.0161195
952.483	0.0161469
952.561	0.0161037
952.639	0.0162894
952.717	0.0162553
952.795	0.0161131
952.873	0.0159933
952.951	0.0160373
953.030	0.0163476
953.108	0.0161322
953.186	0.0160478
953.264	0.0159937
953.342	0.0161633
953.420	0.0160748
953.498	0.0160267
953.576	0.0160180
953.655	0.0161779
953.733	0.0160437
953.811	0.0161181
953.889	0.0161676
953.967	0.0160345
954.045	0.0161474
954.123	0.0160400
954.201	0.0161288
954.280	0.0161394
954.358	0.0161459
954.436	0.0162397
954.514	0.0160796
954.592	0.0161015
954.670	0.0160755
954.748	0.0161738
954.826	0.0160807
954.905	0.0162068
954.983	0.0162230
955.061	0.0161189
955.139	0.0160902
955.217	0.0161958
955.295	0.0161085
955.373	0.0160777
955.451	0.0161024
955.530	0.0161081
955.608	0.0161566
955.686	0.0161498
955.764	0.0162380
955.842	0.0161895
955.920	0.0161119
955.998	0.0162402
956.076	0.0163089
956.155	0.0162141
956.233	0.0163302
956.311	0.0162719
956.389	0.0163148
956.467	0.0164554
956.545	0.0162354
956.623	0.0164226
956.701	0.0163792
956.780	0.0162794
956.858	0.0163013
956.936	0.0162789
957.014	0.0161630
957.092	0.0163321
957.170	0.0161688
957.248	0.0163243
957.326	0.0162316
957.405	0.0163210
957.483	0.0162670
957.561	0.0162435
957.639	0.0161466
957.717	0.0161957
957.795	0.0161790
957.873	0.0162147
957.951	0.0163016
958.030	0.0161943
958.108	0.0161555
958.186	0.0163055
958.264	0.0162514
958.342	0.0162132
958.420	0.0161367
958.498	0.0161829
958.576	0.0161781
958.655	0.0160475
958.733	0.0161187
958.811	0.0160477
958.889	0.0162047
958.967	0.0163098
959.045	0.0162175
959.123	0.0161272
959.201	0.0161021
959.280	0.0162119
959.358	0.0161932
959.436	0.0161140
959.514	0.0161621
959.592	0.0163981
959.670	0.0162029
959.748	0.0163024
959.826	0.0162888
959.905	0.0161460
