05/17/2022	17:21:40	Ver.	4.1	UNKNOWN
Optical Delay	639.982744	Delta X		0.078125	Sweeps	1	Scan Rate	0/0
Coordinates	Axis 1	NaN	Axis 2	NaN	Axis 3	NaN	Axis 4	NaN	Axis 5	NaN	Axis 6	0.000000
TX Power	0.000000	RX Power	0.000000

639.983	0.0162436
640.061	0.0161369
640.139	0.0162012
640.217	0.0162140
640.295	0.0163847
640.373	0.0163564
640.451	0.0162232
640.530	0.0164037
640.608	0.0161689
640.686	0.0163744
640.764	0.0163087
640.842	0.0162638
640.920	0.0163322
640.998	0.0163258
641.076	0.0163889
641.155	0.0164779
641.233	0.0162614
641.311	0.0162875
641.389	0.0162983
641.467	0.0163373
641.545	0.0162592
641.623	0.0163853
641.701	0.0163227
641.780	0.0162006
641.858	0.0162003
641.936	0.0162915
642.014	0.0161759
642.092	0.0161956
642.170	0.0160925
642.248	0.0162039
642.326	0.0161279
642.405	0.0160216
642.483	0.0160653
642.561	0.0162411
642.639	0.0161416
642.717	0.0163461
642.795	0.0161838
642.873	0.0162328
642.951	0.0164298
643.030	0.0162872
643.108	0.0162799
643.186	0.0164131
643.264	0.0163788
643.342	0.0163342
643.420	0.0164439
643.498	0.0164140
643.576	0.0163579
643.655	0.0165377
643.733	0.0164101
643.811	0.0163940
643.889	0.0164707
643.967	0.0164577
644.045	0.0165161
644.123	0.0165946
644.201	0.0164722
644.280	0.0165461
644.358	0.0163957
644.436	0.0164484
644.514	0.0164520
644.592	0.0163693
644.670	0.0163722
644.748	0.0163390
644.826	0.0163490
644.905	0.0163242
644.983	0.0161997
645.061	0.0163157
645.139	0.0161327
645.217	0.0162750
645.295	0.0160514
645.373	0.0161637
645.451	0.0160939
645.530	0.0160713
645.608	0.0162319
645.686	0.0160007
645.764	0.0163177
645.842	0.0161834
645.920	0.0160965
645.998	0.0161738
646.076	0.0162077
646.155	0.0162440
646.233	0.0163722
646.311	0.0162892
646.389	0.0162638
646.467	0.0162711
646.545	0.0163850
646.623	0.0164140
646.701	0.0165061
646.780	0.0164459
646.858	0.0164014
646.936	0.0163268
647.014	0.0163541
647.092	0.0163340
647.170	0.0164091
647.248	0.0162796
647.326	0.0162971
647.405	0.0162099
647.483	0.0161548
647.561	0.0161292
647.639	0.0161949
647.717	0.0161939
647.795	0.0161199
647.873	0.0162142
647.951	0.0162033
648.030	0.0161086
648.108	0.0161395
648.186	0.0160867
648.264	0.0161165
648.342	0.0161295
648.420	0.0160214
648.498	0.0161530
648.576	0.0164112
648.655	0.0162061
648.733	0.0161914
648.811	0.0162653
648.889	0.0162198
648.967	0.0162315
649.045	0.0162862
649.123	0.0163120
649.201	0.0161779
649.280	0.0161164
649.358	0.0162186
649.436	0.0162385
649.514	0.0162247
649.592	0.0162167
649.670	0.0162016
649.748	0.0162647
649.826	0.0162711
649.905	0.0160785
649.983	0.0162668
650.061	0.0162527
650.139	0.0161527
650.217	0.0162518
650.295	0.0161339
650.373	0.0160666
650.451	0.0160431
650.530	0.0161452
650.608	0.0163077
650.686	0.0162642
650.764	0.0162148
650.842	0.0160945
650.920	0.0165022
650.998	0.0164355
651.076	0.0164232
651.155	0.0164697
651.233	0.0163886
651.311	0.0164981
651.389	0.0164059
651.467	0.0164684
651.545	0.0166406
651.623	0.0164864
651.701	0.0165385
651.780	0.0164526
651.858	0.0166281
651.936	0.0166193
652.014	0.0164747
652.092	0.0165118
652.170	0.0163940
652.248	0.0165549
652.326	0.0165163
652.405	0.0163872
652.483	0.0162690
652.561	0.0163152
652.639	0.0163277
652.717	0.0162379
652.795	0.0161359
652.873	0.0161629
652.951	0.0162629
653.030	0.0162207
653.108	0.0161655
653.186	0.0161861
653.264	0.0159989
653.342	0.0161681
653.420	0.0161497
653.498	0.0162548
653.576	0.0162315
653.655	0.0161398
653.733	0.0161592
653.811	0.0162437
653.889	0.0163209
653.967	0.0161864
654.045	0.0162166
654.123	0.0161807
654.201	0.0161841
654.280	0.0162963
654.358	0.0161293
654.436	0.0163631
654.514	0.0162438
654.592	0.0163310
654.670	0.0162621
654.748	0.0162607
654.826	0.0162832
654.905	0.0161211
654.983	0.0162625
655.061	0.0161629
655.139	0.0162476
655.217	0.0162035
655.295	0.0163361
655.373	0.0162554
655.451	0.0162640
655.530	0.0161863
655.608	0.0162116
655.686	0.0163190
655.764	0.0162463
655.842	0.0161181
655.920	0.0162792
655.998	0.0163893
656.076	0.0160866
656.155	0.0162477
656.233	0.0160984
656.311	0.0161115
656.389	0.0163206
656.467	0.0162342
656.545	0.0161967
656.623	0.0161200
656.701	0.0161047
656.780	0.0162270
656.858	0.0162785
656.936	0.0161430
657.014	0.0162177
657.092	0.0161807
657.170	0.0161662
657.248	0.0161501
657.326	0.0162008
657.405	0.0161137
657.483	0.0162249
657.561	0.0161157
657.639	0.0161284
657.717	0.0161346
657.795	0.0162674
657.873	0.0161008
657.951	0.0160267
658.030	0.0161425
658.108	0.0160535
658.186	0.0160607
658.264	0.0161514
658.342	0.0162032
658.420	0.0162437
658.498	0.0162279
658.576	0.0162801
658.655	0.0162940
658.733	0.0162517
658.811	0.0161626
658.889	0.0163214
658.967	0.0164342
659.045	0.0162821
659.123	0.0161942
659.201	0.0163036
659.280	0.0163666
659.358	0.0162103
659.436	0.0162448
659.514	0.0160371
659.592	0.0161664
659.670	0.0162655
659.748	0.0160024
659.826	0.0161602
659.905	0.0159306
659.983	0.0160030
660.061	0.0159631
660.139	0.0160025
660.217	0.0160722
660.295	0.0159106
660.373	0.0156909
660.451	0.0157674
660.530	0.0157819
660.608	0.0159556
660.686	0.0158386
660.764	0.0158977
660.842	0.0161081
660.920	0.0159259
660.998	0.0158991
661.076	0.0160949
661.155	0.0161334
661.233	0.0162994
661.311	0.0162600
661.389	0.0162463
661.467	0.0164357
661.545	0.0164848
661.623	0.0165042
661.701	0.0165343
661.780	0.0164954
661.858	0.0164272
661.936	0.0166035
662.014	0.0165114
662.092	0.0165785
662.170	0.0165259
662.248	0.0164592
662.326	0.0164075
662.405	0.0163612
662.483	0.0165387
662.561	0.0166090
662.639	0.0164419
662.717	0.0163828
662.795	0.0164410
662.873	0.0162867
662.951	0.0163501
663.030	0.0162956
663.108	0.0162532
663.186	0.0162334
663.264	0.0163360
663.342	0.0162886
663.420	0.0163899
663.498	0.0163967
663.576	0.0164356
663.655	0.0162966
663.733	0.0164014
663.811	0.0165065
663.889	0.0164083
663.967	0.0163998
664.045	0.0163599
664.123	0.0162620
664.201	0.0163746
664.280	0.0162623
664.358	0.0160996
664.436	0.0160843
664.514	0.0159660
664.592	0.0158919
664.670	0.0158863
664.748	0.0156990
664.826	0.0156908
664.905	0.0155537
664.983	0.0156125
665.061	0.0155372
665.139	0.0155412
665.217	0.0153502
665.295	0.0152620
665.373	0.0153739
665.451	0.0154541
665.530	0.0155125
665.608	0.0154572
665.686	0.0156404
665.764	0.0158033
665.842	0.0158030
665.920	0.0158172
665.998	0.0159913
666.076	0.0160283
666.155	0.0160513
666.233	0.0162473
666.311	0.0163828
666.389	0.0163099
666.467	0.0163514
666.545	0.0165780
666.623	0.0165929
666.701	0.0165735
666.780	0.0166840
666.858	0.0166542
666.936	0.0166116
667.014	0.0167628
667.092	0.0167371
667.170	0.0168098
667.248	0.0169183
667.326	0.0168509
667.405	0.0168277
667.483	0.0168762
667.561	0.0169231
667.639	0.0169267
667.717	0.0167860
667.795	0.0167359
667.873	0.0167776
667.951	0.0167213
668.030	0.0166659
668.108	0.0166569
668.186	0.0167524
668.264	0.0165091
668.342	0.0164532
668.420	0.0165160
668.498	0.0164873
668.576	0.0164094
668.655	0.0164156
668.733	0.0162695
668.811	0.0162244
668.889	0.0161773
668.967	0.0160773
669.045	0.0158884
669.123	0.0159219
669.201	0.0156535
669.280	0.0157762
669.358	0.0155266
669.436	0.0153284
669.514	0.0154785
669.592	0.0153460
669.670	0.0153709
669.748	0.0152735
669.826	0.0153982
669.905	0.0153287
669.983	0.0154940
670.061	0.0153510
670.139	0.0152890
670.217	0.0154060
670.295	0.0155339
670.373	0.0156294
670.451	0.0156376
670.530	0.0157673
670.608	0.0159284
670.686	0.0159873
670.764	0.0161462
670.842	0.0161186
670.920	0.0161285
670.998	0.0164503
671.076	0.0163796
671.155	0.0164012
671.233	0.0164198
671.311	0.0164600
671.389	0.0167696
671.467	0.0167812
671.545	0.0167088
671.623	0.0168607
671.701	0.0168893
671.780	0.0169103
671.858	0.0169424
671.936	0.0168762
672.014	0.0169299
672.092	0.0170224
672.170	0.0169618
672.248	0.0170822
672.326	0.0171133
672.405	0.0171032
672.483	0.0170733
672.561	0.0170982
672.639	0.0170541
672.717	0.0171042
672.795	0.0170358
672.873	0.0170712
672.951	0.0170142
673.030	0.0170129
673.108	0.0170364
673.186	0.0170886
673.264	0.0169219
673.342	0.0169509
673.420	0.0167968
673.498	0.0166169
673.576	0.0166173
673.655	0.0165443
673.733	0.0162241
673.811	0.0162327
673.889	0.0158786
673.967	0.0159746
674.045	0.0159090
674.123	0.0156873
674.201	0.0154656
674.280	0.0153838
674.358	0.0152037
674.436	0.0151199
674.514	0.0148978
674.592	0.0150249
674.670	0.0149225
674.748	0.0148978
674.826	0.0149027
674.905	0.0148785
674.983	0.0148537
675.061	0.0148293
675.139	0.0150562
675.217	0.0150912
675.295	0.0150678
675.373	0.0151508
675.451	0.0151781
675.530	0.0153559
675.608	0.0155247
675.686	0.0156126
675.764	0.0158223
675.842	0.0159679
675.920	0.0161301
675.998	0.0162035
676.076	0.0163840
676.155	0.0165519
676.233	0.0166143
676.311	0.0166762
676.389	0.0167830
676.467	0.0167744
676.545	0.0170291
676.623	0.0170253
676.701	0.0170428
676.780	0.0170296
676.858	0.0171869
676.936	0.0171288
677.014	0.0173320
677.092	0.0172794
677.170	0.0171851
677.248	0.0173141
677.326	0.0174419
677.405	0.0172245
677.483	0.0174058
677.561	0.0172054
677.639	0.0172215
677.717	0.0172209
677.795	0.0169853
677.873	0.0170033
677.951	0.0170129
678.030	0.0169373
678.108	0.0167843
678.186	0.0166685
678.264	0.0164797
678.342	0.0164855
678.420	0.0164220
678.498	0.0163694
678.576	0.0161334
678.655	0.0161108
678.733	0.0161379
678.811	0.0160521
678.889	0.0159521
678.967	0.0157805
679.045	0.0158264
679.123	0.0157960
679.201	0.0156592
679.280	0.0157117
679.358	0.0156494
679.436	0.0156615
679.514	0.0156901
679.592	0.0154956
679.670	0.0154882
679.748	0.0155156
679.826	0.0154604
679.905	0.0155028
679.983	0.0155022
680.061	0.0155132
680.139	0.0155727
680.217	0.0154327
680.295	0.0153674
680.373	0.0154556
680.451	0.0155103
680.530	0.0155437
680.608	0.0156889
680.686	0.0157742
680.764	0.0156065
680.842	0.0156116
680.920	0.0157732
680.998	0.0156797
681.076	0.0158593
681.155	0.0158065
681.233	0.0158926
681.311	0.0159595
681.389	0.0160232
681.467	0.0161823
681.545	0.0159626
681.623	0.0161239
681.701	0.0161597
681.780	0.0161661
681.858	0.0162658
681.936	0.0163348
682.014	0.0163023
682.092	0.0163850
682.170	0.0164204
682.248	0.0163719
682.326	0.0163560
682.405	0.0163967
682.483	0.0163435
682.561	0.0163372
682.639	0.0165271
682.717	0.0165062
682.795	0.0165047
682.873	0.0164599
682.951	0.0165094
683.030	0.0164642
683.108	0.0164809
683.186	0.0165204
683.264	0.0164607
683.342	0.0164938
683.420	0.0165154
683.498	0.0166186
683.576	0.0165291
683.655	0.0166702
683.733	0.0168076
683.811	0.0167606
683.889	0.0166954
683.967	0.0167831
684.045	0.0167601
684.123	0.0166459
684.201	0.0167810
684.280	0.0166897
684.358	0.0166409
684.436	0.0167108
684.514	0.0168153
684.592	0.0165259
684.670	0.0163983
684.748	0.0164531
684.826	0.0162806
684.905	0.0160782
684.983	0.0159658
685.061	0.0160866
685.139	0.0160141
685.217	0.0157695
685.295	0.0158509
685.373	0.0157416
685.451	0.0156787
685.530	0.0155090
685.608	0.0155316
685.686	0.0154657
685.764	0.0154704
685.842	0.0155381
685.920	0.0154476
685.998	0.0154555
686.076	0.0156098
686.155	0.0155083
686.233	0.0155344
686.311	0.0155591
686.389	0.0156625
686.467	0.0156792
686.545	0.0157666
686.623	0.0157127
686.701	0.0157962
686.780	0.0158096
686.858	0.0159332
686.936	0.0159943
687.014	0.0160753
687.092	0.0162083
687.170	0.0163084
687.248	0.0161756
687.326	0.0163473
687.405	0.0163335
687.483	0.0163717
687.561	0.0165004
687.639	0.0164677
687.717	0.0165904
687.795	0.0165046
687.873	0.0163625
687.951	0.0165836
688.030	0.0165225
688.108	0.0166417
688.186	0.0165108
688.264	0.0165747
688.342	0.0166721
688.420	0.0167241
688.498	0.0166174
688.576	0.0165622
688.655	0.0167136
688.733	0.0166073
688.811	0.0165805
688.889	0.0165652
688.967	0.0167612
689.045	0.0166271
689.123	0.0166566
689.201	0.0167912
689.280	0.0164991
689.358	0.0166097
689.436	0.0166019
689.514	0.0166148
689.592	0.0165844
689.670	0.0165621
689.748	0.0165565
689.826	0.0167043
689.905	0.0165396
689.983	0.0165762
690.061	0.0165096
690.139	0.0166731
690.217	0.0166611
690.295	0.0167065
690.373	0.0166317
690.451	0.0167065
690.530	0.0166613
690.608	0.0165913
690.686	0.0165703
690.764	0.0166212
690.842	0.0163851
690.920	0.0164783
690.998	0.0164027
691.076	0.0162245
691.155	0.0162717
691.233	0.0162244
691.311	0.0160862
691.389	0.0160576
691.467	0.0158480
691.545	0.0156927
691.623	0.0157002
691.701	0.0157179
691.780	0.0156837
691.858	0.0156232
691.936	0.0155030
692.014	0.0153558
692.092	0.0155601
692.170	0.0154305
692.248	0.0154517
692.326	0.0154939
692.405	0.0155371
692.483	0.0155354
692.561	0.0155946
692.639	0.0155478
692.717	0.0154905
692.795	0.0155904
692.873	0.0156736
692.951	0.0157323
693.030	0.0156686
693.108	0.0156509
693.186	0.0156151
693.264	0.0157219
693.342	0.0157494
693.420	0.0156055
693.498	0.0157000
693.576	0.0155592
693.655	0.0156938
693.733	0.0158601
693.811	0.0158820
693.889	0.0159290
693.967	0.0159953
694.045	0.0159435
694.123	0.0160536
694.201	0.0162508
694.280	0.0162876
694.358	0.0163556
694.436	0.0164813
694.514	0.0166707
694.592	0.0166875
694.670	0.0167424
694.748	0.0168751
694.826	0.0169903
694.905	0.0170722
694.983	0.0170685
695.061	0.0171566
695.139	0.0172146
695.217	0.0172025
695.295	0.0173634
695.373	0.0170998
695.451	0.0171953
695.530	0.0172569
695.608	0.0171180
695.686	0.0171274
695.764	0.0170401
695.842	0.0168634
695.920	0.0168523
695.998	0.0167596
696.076	0.0166410
696.155	0.0165594
696.233	0.0165213
696.311	0.0165659
696.389	0.0162346
696.467	0.0162354
696.545	0.0162495
696.623	0.0162370
696.701	0.0160132
696.780	0.0160205
696.858	0.0160161
696.936	0.0158981
697.014	0.0157968
697.092	0.0157728
697.170	0.0157365
697.248	0.0157939
697.326	0.0156749
697.405	0.0156119
697.483	0.0155982
697.561	0.0155127
697.639	0.0154858
697.717	0.0154596
697.795	0.0153343
697.873	0.0155313
697.951	0.0153584
698.030	0.0152720
698.108	0.0155492
698.186	0.0154290
698.264	0.0154284
698.342	0.0154930
698.420	0.0153812
698.498	0.0154835
698.576	0.0155273
698.655	0.0156727
698.733	0.0155969
698.811	0.0155626
698.889	0.0156149
698.967	0.0157610
699.045	0.0156969
699.123	0.0158839
699.201	0.0158341
699.280	0.0158909
699.358	0.0161654
699.436	0.0162147
699.514	0.0162639
699.592	0.0164105
699.670	0.0165616
699.748	0.0164901
699.826	0.0165064
699.905	0.0166780
699.983	0.0167003
700.061	0.0167241
700.139	0.0168388
700.217	0.0168004
700.295	0.0169458
700.373	0.0167746
700.451	0.0167387
700.530	0.0170443
700.608	0.0170071
700.686	0.0169141
700.764	0.0167723
700.842	0.0169508
700.920	0.0168678
700.998	0.0168492
701.076	0.0167433
701.155	0.0167187
701.233	0.0166557
701.311	0.0167576
701.389	0.0167699
701.467	0.0166273
701.545	0.0165423
701.623	0.0165900
701.701	0.0165509
701.780	0.0165205
701.858	0.0164890
701.936	0.0163913
702.014	0.0165193
702.092	0.0163544
702.170	0.0163751
702.248	0.0163351
702.326	0.0162258
702.405	0.0161356
702.483	0.0161131
702.561	0.0160909
702.639	0.0160556
702.717	0.0159682
702.795	0.0160245
702.873	0.0158907
702.951	0.0158362
703.030	0.0158440
703.108	0.0158205
703.186	0.0158150
703.264	0.0156886
703.342	0.0157837
703.420	0.0156879
703.498	0.0156631
703.576	0.0156957
703.655	0.0157190
703.733	0.0155914
703.811	0.0156565
703.889	0.0156030
703.967	0.0157236
704.045	0.0157056
704.123	0.0157402
704.201	0.0157394
704.280	0.0158487
704.358	0.0158694
704.436	0.0158935
704.514	0.0158648
704.592	0.0160246
704.670	0.0160971
704.748	0.0160057
704.826	0.0160488
704.905	0.0161990
704.983	0.0162634
705.061	0.0162954
705.139	0.0163163
705.217	0.0164881
705.295	0.0165585
705.373	0.0164393
705.451	0.0165223
705.530	0.0167301
705.608	0.0167017
705.686	0.0167543
705.764	0.0168528
705.842	0.0166755
705.920	0.0167741
705.998	0.0168398
706.076	0.0169991
706.155	0.0169073
706.233	0.0168668
706.311	0.0168664
706.389	0.0168101
706.467	0.0167477
706.545	0.0166338
706.623	0.0166179
706.701	0.0165260
706.780	0.0163912
706.858	0.0164429
706.936	0.0162926
707.014	0.0163332
707.092	0.0162440
707.170	0.0159261
707.248	0.0160703
707.326	0.0159398
707.405	0.0160105
707.483	0.0160182
707.561	0.0158833
707.639	0.0158649
707.717	0.0159782
707.795	0.0160715
707.873	0.0160143
707.951	0.0160185
708.030	0.0161613
708.108	0.0161137
708.186	0.0162608
708.264	0.0161632
708.342	0.0161662
708.420	0.0163074
708.498	0.0164996
708.576	0.0164464
708.655	0.0164707
708.733	0.0165887
708.811	0.0164633
708.889	0.0165726
708.967	0.0164455
709.045	0.0166102
709.123	0.0165012
709.201	0.0163306
709.280	0.0163807
709.358	0.0161880
709.436	0.0160896
709.514	0.0161871
709.592	0.0163325
709.670	0.0160651
709.748	0.0160062
709.826	0.0159599
709.905	0.0158604
709.983	0.0159852
710.061	0.0158385
710.139	0.0159917
710.217	0.0160497
710.295	0.0160410
710.373	0.0159876
710.451	0.0159196
710.530	0.0160530
710.608	0.0162508
710.686	0.0161286
710.764	0.0160777
710.842	0.0161716
710.920	0.0161841
710.998	0.0164413
711.076	0.0164523
711.155	0.0164033
711.233	0.0164799
711.311	0.0164519
711.389	0.0164953
711.467	0.0164472
711.545	0.0165835
711.623	0.0166473
711.701	0.0166125
711.780	0.0166706
711.858	0.0167241
711.936	0.0166969
712.014	0.0165240
712.092	0.0164414
712.170	0.0164445
712.248	0.0166058
712.326	0.0165494
712.405	0.0165149
712.483	0.0165174
712.561	0.0164626
712.639	0.0164266
712.717	0.0164176
712.795	0.0164742
712.873	0.0163263
712.951	0.0163627
713.030	0.0163442
713.108	0.0163316
713.186	0.0163247
713.264	0.0163032
713.342	0.0162029
713.420	0.0161039
713.498	0.0161022
713.576	0.0161110
713.655	0.0161510
713.733	0.0161271
713.811	0.0160342
713.889	0.0160837
713.967	0.0160253
714.045	0.0159758
714.123	0.0159024
714.201	0.0158231
714.280	0.0159401
714.358	0.0158423
714.436	0.0158283
714.514	0.0158387
714.592	0.0158174
714.670	0.0160666
714.748	0.0160251
714.826	0.0160865
714.905	0.0161573
714.983	0.0163021
715.061	0.0161515
715.139	0.0162228
715.217	0.0163771
715.295	0.0163739
715.373	0.0165388
715.451	0.0163518
715.530	0.0164235
715.608	0.0165316
715.686	0.0165067
715.764	0.0165914
715.842	0.0167207
715.920	0.0167278
715.998	0.0166312
716.076	0.0167294
716.155	0.0168349
716.233	0.0166986
716.311	0.0167934
716.389	0.0167132
716.467	0.0168323
716.545	0.0167616
716.623	0.0166338
716.701	0.0167252
716.780	0.0165940
716.858	0.0165163
716.936	0.0164206
717.014	0.0164159
717.092	0.0165664
717.170	0.0164953
717.248	0.0165486
717.326	0.0162699
717.405	0.0164446
717.483	0.0163655
717.561	0.0164156
717.639	0.0162296
717.717	0.0163228
717.795	0.0162210
717.873	0.0161411
717.951	0.0161366
718.030	0.0160909
718.108	0.0159460
718.186	0.0160018
718.264	0.0160011
718.342	0.0157783
718.420	0.0157185
718.498	0.0157999
718.576	0.0158756
718.655	0.0157133
718.733	0.0157493
718.811	0.0158144
718.889	0.0158293
718.967	0.0158191
719.045	0.0158255
719.123	0.0157990
719.201	0.0158400
719.280	0.0160092
719.358	0.0158237
719.436	0.0159579
719.514	0.0160906
719.592	0.0160632
719.670	0.0162708
719.748	0.0162296
719.826	0.0162030
719.905	0.0162453
719.983	0.0163662
720.061	0.0164886
720.139	0.0165092
720.217	0.0163892
720.295	0.0165634
720.373	0.0164494
720.451	0.0163287
720.530	0.0164440
720.608	0.0163663
720.686	0.0163992
720.764	0.0163138
720.842	0.0162616
720.920	0.0162030
720.998	0.0161996
721.076	0.0161609
721.155	0.0160590
721.233	0.0158975
721.311	0.0159083
721.389	0.0160325
721.467	0.0159320
721.545	0.0159308
721.623	0.0160390
721.701	0.0160048
721.780	0.0160588
721.858	0.0158502
721.936	0.0159936
722.014	0.0160696
722.092	0.0162106
722.170	0.0161256
722.248	0.0162190
722.326	0.0162362
722.405	0.0161838
722.483	0.0161957
722.561	0.0163019
722.639	0.0164892
722.717	0.0164088
722.795	0.0164516
722.873	0.0165697
722.951	0.0165489
723.030	0.0165960
723.108	0.0165598
723.186	0.0165784
723.264	0.0165276
723.342	0.0164462
723.420	0.0165244
723.498	0.0165331
723.576	0.0165600
723.655	0.0163825
723.733	0.0164323
723.811	0.0164165
723.889	0.0164241
723.967	0.0161581
724.045	0.0161509
724.123	0.0162126
724.201	0.0162605
724.280	0.0160609
724.358	0.0159703
724.436	0.0159212
724.514	0.0160349
724.592	0.0160140
724.670	0.0159549
724.748	0.0159126
724.826	0.0158511
724.905	0.0157445
724.983	0.0157979
725.061	0.0156907
725.139	0.0157000
725.217	0.0156659
725.295	0.0157911
725.373	0.0157140
725.451	0.0156477
725.530	0.0156224
725.608	0.0157444
725.686	0.0157201
725.764	0.0156448
725.842	0.0156480
725.920	0.0157749
725.998	0.0158376
726.076	0.0158617
726.155	0.0159106
726.233	0.0159617
726.311	0.0160130
726.389	0.0160840
726.467	0.0161745
726.545	0.0161490
726.623	0.0163231
726.701	0.0163157
726.780	0.0163429
726.858	0.0164584
726.936	0.0165221
727.014	0.0166344
727.092	0.0166248
727.170	0.0165766
727.248	0.0165398
727.326	0.0166567
727.405	0.0166265
727.483	0.0167274
727.561	0.0166881
727.639	0.0166643
727.717	0.0167604
727.795	0.0168687
727.873	0.0166840
727.951	0.0167970
728.030	0.0168974
728.108	0.0168309
728.186	0.0168845
728.264	0.0168710
728.342	0.0168651
728.420	0.0169147
728.498	0.0168272
728.576	0.0166770
728.655	0.0166972
728.733	0.0166502
728.811	0.0166222
728.889	0.0164631
728.967	0.0164178
729.045	0.0164993
729.123	0.0163539
729.201	0.0161859
729.280	0.0162016
729.358	0.0161366
729.436	0.0162241
729.514	0.0159790
729.592	0.0160901
729.670	0.0160843
729.748	0.0158186
729.826	0.0158600
729.905	0.0157915
729.983	0.0157845
730.061	0.0157870
730.139	0.0158463
730.217	0.0159380
730.295	0.0158463
730.373	0.0159510
730.451	0.0159676
730.530	0.0158840
730.608	0.0158720
730.686	0.0160725
730.764	0.0161173
730.842	0.0160928
730.920	0.0162666
730.998	0.0161465
731.076	0.0163402
731.155	0.0162649
731.233	0.0163924
731.311	0.0164106
731.389	0.0162528
731.467	0.0163210
731.545	0.0164348
731.623	0.0164458
731.701	0.0164282
731.780	0.0165414
731.858	0.0165731
731.936	0.0164629
732.014	0.0165350
732.092	0.0164021
732.170	0.0163813
732.248	0.0163445
732.326	0.0163012
732.405	0.0164067
732.483	0.0164822
732.561	0.0163834
732.639	0.0163554
732.717	0.0161993
732.795	0.0162698
732.873	0.0159996
732.951	0.0161004
733.030	0.0161579
733.108	0.0161416
733.186	0.0160851
733.264	0.0158871
733.342	0.0159018
733.420	0.0159847
733.498	0.0160002
733.576	0.0159987
733.655	0.0160793
733.733	0.0160645
733.811	0.0160866
733.889	0.0162733
733.967	0.0163163
734.045	0.0163708
734.123	0.0162607
734.201	0.0164090
734.280	0.0162756
734.358	0.0162708
734.436	0.0164743
734.514	0.0164550
734.592	0.0164048
734.670	0.0164561
734.748	0.0163802
734.826	0.0164907
734.905	0.0164382
734.983	0.0164103
735.061	0.0163731
735.139	0.0164938
735.217	0.0164186
735.295	0.0164777
735.373	0.0165249
735.451	0.0165800
735.530	0.0165065
735.608	0.0164360
735.686	0.0166028
735.764	0.0164397
735.842	0.0165287
735.920	0.0166026
735.998	0.0165741
736.076	0.0165555
736.155	0.0165540
736.233	0.0163919
736.311	0.0163474
736.389	0.0164301
736.467	0.0162696
736.545	0.0162966
736.623	0.0161148
736.701	0.0160976
736.780	0.0159377
736.858	0.0159829
736.936	0.0160167
737.014	0.0160301
737.092	0.0158725
737.170	0.0159954
737.248	0.0158256
737.326	0.0158527
737.405	0.0158393
737.483	0.0158790
737.561	0.0159057
737.639	0.0158846
737.717	0.0159653
737.795	0.0159835
737.873	0.0159508
737.951	0.0159583
738.030	0.0160625
738.108	0.0161287
738.186	0.0162664
738.264	0.0162090
738.342	0.0164554
738.420	0.0165314
738.498	0.0165408
738.576	0.0166512
738.655	0.0166486
738.733	0.0167132
738.811	0.0167876
738.889	0.0168648
738.967	0.0168936
739.045	0.0167670
739.123	0.0167310
739.201	0.0168362
739.280	0.0167754
739.358	0.0166954
739.436	0.0166458
739.514	0.0165407
739.592	0.0165804
739.670	0.0166231
739.748	0.0163512
739.826	0.0163793
739.905	0.0163908
739.983	0.0164288
740.061	0.0162323
740.139	0.0161235
740.217	0.0161711
740.295	0.0160269
740.373	0.0160310
740.451	0.0159688
740.530	0.0159744
740.608	0.0159737
740.686	0.0159719
740.764	0.0161273
740.842	0.0160172
740.920	0.0158595
740.998	0.0156493
741.076	0.0159569
741.155	0.0157340
741.233	0.0158491
741.311	0.0159555
741.389	0.0159087
741.467	0.0158199
741.545	0.0159586
741.623	0.0162665
741.701	0.0160589
741.780	0.0159493
741.858	0.0158518
741.936	0.0160815
742.014	0.0161564
742.092	0.0162250
742.170	0.0161478
742.248	0.0163053
742.326	0.0162297
742.405	0.0162925
742.483	0.0163456
742.561	0.0163781
742.639	0.0163734
742.717	0.0164569
742.795	0.0164025
742.873	0.0164406
742.951	0.0164201
743.030	0.0163285
743.108	0.0164689
743.186	0.0164941
743.264	0.0165496
743.342	0.0164781
743.420	0.0163470
743.498	0.0165465
743.576	0.0163788
743.655	0.0164443
743.733	0.0165668
743.811	0.0164545
743.889	0.0163561
743.967	0.0165269
744.045	0.0163753
744.123	0.0162482
744.201	0.0160553
744.280	0.0161478
744.358	0.0162256
744.436	0.0161604
744.514	0.0160904
744.592	0.0160621
744.670	0.0159293
744.748	0.0159724
744.826	0.0160597
744.905	0.0160130
744.983	0.0159193
745.061	0.0159003
745.139	0.0159454
745.217	0.0159441
745.295	0.0160215
745.373	0.0159697
745.451	0.0160273
745.530	0.0159441
745.608	0.0160629
745.686	0.0162158
745.764	0.0161513
745.842	0.0161597
745.920	0.0162775
745.998	0.0162471
746.076	0.0162846
746.155	0.0163049
746.233	0.0162722
746.311	0.0163528
746.389	0.0163504
746.467	0.0163109
746.545	0.0162975
746.623	0.0163129
746.701	0.0164025
746.780	0.0162727
746.858	0.0162681
746.936	0.0163840
747.014	0.0162706
747.092	0.0163537
747.170	0.0164476
747.248	0.0162978
747.326	0.0161974
747.405	0.0163475
747.483	0.0163342
747.561	0.0163994
747.639	0.0162979
747.717	0.0162542
747.795	0.0163036
747.873	0.0163251
747.951	0.0163346
748.030	0.0163850
748.108	0.0163756
748.186	0.0162671
748.264	0.0163194
748.342	0.0163148
748.420	0.0162043
748.498	0.0162621
748.576	0.0161848
748.655	0.0162109
748.733	0.0161770
748.811	0.0160691
748.889	0.0162509
748.967	0.0162173
749.045	0.0160239
749.123	0.0161350
749.201	0.0160520
749.280	0.0159796
749.358	0.0160289
749.436	0.0160069
749.514	0.0160562
749.592	0.0160766
749.670	0.0160545
749.748	0.0160424
749.826	0.0161382
749.905	0.0160127
749.983	0.0160575
750.061	0.0161149
750.139	0.0161063
750.217	0.0161815
750.295	0.0162155
750.373	0.0163126
750.451	0.0164793
750.530	0.0163259
750.608	0.0162965
750.686	0.0162769
750.764	0.0163235
750.842	0.0163081
750.920	0.0164262
750.998	0.0164732
751.076	0.0163132
751.155	0.0162569
751.233	0.0163201
751.311	0.0163493
751.389	0.0163638
751.467	0.0162665
751.545	0.0161447
751.623	0.0162316
751.701	0.0162940
751.780	0.0161311
751.858	0.0162023
751.936	0.0161815
752.014	0.0162495
752.092	0.0161524
752.170	0.0160651
752.248	0.0159974
752.326	0.0160986
752.405	0.0161634
752.483	0.0161423
752.561	0.0162080
752.639	0.0161600
752.717	0.0161631
752.795	0.0160398
752.873	0.0158878
752.951	0.0159296
753.030	0.0159401
753.108	0.0160984
753.186	0.0161672
753.264	0.0159645
753.342	0.0159845
753.420	0.0160027
753.498	0.0161105
753.576	0.0160330
753.655	0.0161061
753.733	0.0160584
753.811	0.0160705
753.889	0.0160052
753.967	0.0161390
754.045	0.0161333
754.123	0.0162212
754.201	0.0162495
754.280	0.0162133
754.358	0.0161871
754.436	0.0162074
754.514	0.0161775
754.592	0.0162791
754.670	0.0162849
754.748	0.0161092
754.826	0.0163889
754.905	0.0162099
754.983	0.0162229
755.061	0.0160266
755.139	0.0160812
755.217	0.0161700
755.295	0.0161104
755.373	0.0161096
755.451	0.0161864
755.530	0.0162467
755.608	0.0162137
755.686	0.0163874
755.764	0.0161873
755.842	0.0162360
755.920	0.0163130
755.998	0.0161985
756.076	0.0163573
756.155	0.0162699
756.233	0.0163522
756.311	0.0163654
756.389	0.0163816
756.467	0.0163318
756.545	0.0163354
756.623	0.0163470
756.701	0.0163998
756.780	0.0162726
756.858	0.0162428
756.936	0.0161771
757.014	0.0163661
757.092	0.0162208
757.170	0.0162256
757.248	0.0161390
757.326	0.0161676
757.405	0.0163469
757.483	0.0163058
757.561	0.0161432
757.639	0.0161222
757.717	0.0162299
757.795	0.0163232
757.873	0.0163119
757.951	0.0163204
758.030	0.0161697
758.108	0.0164111
758.186	0.0164225
758.264	0.0163171
758.342	0.0163316
758.420	0.0162614
758.498	0.0162768
758.576	0.0163088
758.655	0.0165031
758.733	0.0163686
758.811	0.0161633
758.889	0.0162234
758.967	0.0162881
759.045	0.0162024
759.123	0.0161440
759.201	0.0161064
759.280	0.0162093
759.358	0.0161455
759.436	0.0161268
759.514	0.0161353
759.592	0.0161081
759.670	0.0161607
759.748	0.0160712
759.826	0.0163983
759.905	0.0162478
759.983	0.0161552
760.061	0.0161449
760.139	0.0163215
760.217	0.0160738
760.295	0.0162351
760.373	0.0162028
760.451	0.0159817
760.530	0.0161579
760.608	0.0162714
760.686	0.0160258
760.764	0.0161131
760.842	0.0160740
760.920	0.0160994
760.998	0.0162322
761.076	0.0162018
761.155	0.0160097
761.233	0.0159238
761.311	0.0160152
761.389	0.0161127
761.467	0.0161896
761.545	0.0161578
761.623	0.0161868
761.701	0.0161939
761.780	0.0161453
761.858	0.0161804
761.936	0.0161491
762.014	0.0161672
762.092	0.0163824
762.170	0.0161747
762.248	0.0161972
762.326	0.0162531
762.405	0.0163569
762.483	0.0163007
762.561	0.0161792
762.639	0.0162347
762.717	0.0164695
762.795	0.0161843
762.873	0.0161423
762.951	0.0163004
763.030	0.0163792
763.108	0.0163161
763.186	0.0163911
763.264	0.0163609
763.342	0.0162904
763.420	0.0164822
763.498	0.0163277
763.576	0.0164008
763.655	0.0163521
763.733	0.0165012
763.811	0.0165054
763.889	0.0165360
763.967	0.0164236
764.045	0.0165565
764.123	0.0164323
764.201	0.0164219
764.280	0.0164895
764.358	0.0165019
764.436	0.0164124
764.514	0.0164304
764.592	0.0163932
764.670	0.0164374
764.748	0.0163821
764.826	0.0162679
764.905	0.0163029
764.983	0.0162140
765.061	0.0162168
765.139	0.0164451
765.217	0.0163619
765.295	0.0162079
765.373	0.0162486
765.451	0.0163802
765.530	0.0164488
765.608	0.0162952
765.686	0.0162129
765.764	0.0163242
765.842	0.0161909
765.920	0.0163524
765.998	0.0163306
766.076	0.0161027
766.155	0.0160973
766.233	0.0161649
766.311	0.0161151
766.389	0.0159552
766.467	0.0161317
766.545	0.0161337
766.623	0.0159652
766.701	0.0160289
766.780	0.0161503
766.858	0.0160557
766.936	0.0158942
767.014	0.0160144
767.092	0.0159647
767.170	0.0158768
767.248	0.0160997
767.326	0.0159485
767.405	0.0161077
767.483	0.0159373
767.561	0.0160016
767.639	0.0160895
767.717	0.0161588
767.795	0.0160851
767.873	0.0161593
767.951	0.0162054
768.030	0.0161574
768.108	0.0161652
768.186	0.0163014
768.264	0.0161847
768.342	0.0161367
768.420	0.0163212
768.498	0.0163566
768.576	0.0163271
768.655	0.0164235
768.733	0.0164394
768.811	0.0163845
768.889	0.0164359
768.967	0.0165634
769.045	0.0164711
769.123	0.0163777
769.201	0.0164619
769.280	0.0165993
769.358	0.0166039
769.436	0.0165125
769.514	0.0165846
769.592	0.0165782
769.670	0.0164439
769.748	0.0164628
769.826	0.0164806
769.905	0.0165243
769.983	0.0163407
770.061	0.0163596
770.139	0.0164842
770.217	0.0162926
770.295	0.0162114
770.373	0.0162870
770.451	0.0162486
770.530	0.0162392
770.608	0.0163161
770.686	0.0160867
770.764	0.0161147
770.842	0.0161435
770.920	0.0158276
770.998	0.0159948
771.076	0.0159440
771.155	0.0159925
771.233	0.0157993
771.311	0.0158916
771.389	0.0159910
771.467	0.0158697
771.545	0.0157893
771.623	0.0158971
771.701	0.0157915
771.780	0.0158313
771.858	0.0158255
771.936	0.0159334
772.014	0.0157893
772.092	0.0159025
772.170	0.0159289
772.248	0.0158213
772.326	0.0159395
772.405	0.0159634
772.483	0.0161910
772.561	0.0159861
772.639	0.0161858
772.717	0.0162148
772.795	0.0162934
772.873	0.0163090
772.951	0.0163066
773.030	0.0165550
773.108	0.0165980
773.186	0.0165676
773.264	0.0166344
773.342	0.0166222
773.420	0.0165611
773.498	0.0165979
773.576	0.0166548
773.655	0.0168603
773.733	0.0165875
773.811	0.0165852
773.889	0.0166720
773.967	0.0165888
774.045	0.0166262
774.123	0.0166261
774.201	0.0165654
774.280	0.0166589
774.358	0.0165612
774.436	0.0164262
774.514	0.0164661
774.592	0.0164742
774.670	0.0163016
774.748	0.0163941
774.826	0.0163910
774.905	0.0164331
774.983	0.0163192
775.061	0.0161939
775.139	0.0162535
775.217	0.0162452
775.295	0.0162864
775.373	0.0162675
775.451	0.0161220
775.530	0.0160902
775.608	0.0161669
775.686	0.0161832
775.764	0.0161234
775.842	0.0161017
775.920	0.0161372
775.998	0.0159039
776.076	0.0160268
776.155	0.0161299
776.233	0.0161968
776.311	0.0159499
776.389	0.0159322
776.467	0.0160952
776.545	0.0159929
776.623	0.0160312
776.701	0.0160770
776.780	0.0159090
776.858	0.0157920
776.936	0.0161540
777.014	0.0161315
777.092	0.0159779
777.170	0.0159708
777.248	0.0160662
777.326	0.0161667
777.405	0.0160767
777.483	0.0161411
777.561	0.0160384
777.639	0.0161013
777.717	0.0159529
777.795	0.0159312
777.873	0.0158572
777.951	0.0159379
778.030	0.0160905
778.108	0.0159451
778.186	0.0158540
778.264	0.0159476
778.342	0.0159132
778.420	0.0160043
778.498	0.0159082
778.576	0.0159701
778.655	0.0161271
778.733	0.0162022
778.811	0.0162259
778.889	0.0163071
778.967	0.0163194
779.045	0.0165079
779.123	0.0164608
779.201	0.0165787
779.280	0.0164234
779.358	0.0164528
779.436	0.0164713
779.514	0.0164366
779.592	0.0165400
779.670	0.0162950
779.748	0.0163869
779.826	0.0165179
779.905	0.0165297
779.983	0.0163757
780.061	0.0163873
780.139	0.0164596
780.217	0.0164731
780.295	0.0163651
780.373	0.0164165
780.451	0.0164997
780.530	0.0164481
780.608	0.0163328
780.686	0.0165531
780.764	0.0164333
780.842	0.0163361
780.920	0.0163861
780.998	0.0162800
781.076	0.0163236
781.155	0.0163816
781.233	0.0162553
781.311	0.0163568
781.389	0.0162202
781.467	0.0162228
781.545	0.0163204
781.623	0.0161858
781.701	0.0162865
781.780	0.0162965
781.858	0.0161262
781.936	0.0161395
782.014	0.0160698
782.092	0.0159239
782.170	0.0161239
782.248	0.0160147
782.326	0.0160937
782.405	0.0159987
782.483	0.0161393
782.561	0.0159247
782.639	0.0159101
782.717	0.0160709
782.795	0.0159948
782.873	0.0160130
782.951	0.0160114
783.030	0.0159653
783.108	0.0159795
783.186	0.0161267
783.264	0.0161674
783.342	0.0160077
783.420	0.0160674
783.498	0.0161960
783.576	0.0162211
783.655	0.0162240
783.733	0.0163074
783.811	0.0163650
783.889	0.0161040
783.967	0.0164469
784.045	0.0162569
784.123	0.0164056
784.201	0.0163400
784.280	0.0164735
784.358	0.0164638
784.436	0.0165603
784.514	0.0165002
784.592	0.0165621
784.670	0.0165434
784.748	0.0165946
784.826	0.0164802
784.905	0.0165618
784.983	0.0167233
785.061	0.0165209
785.139	0.0166278
785.217	0.0166354
785.295	0.0166039
785.373	0.0165974
785.451	0.0165956
785.530	0.0166541
785.608	0.0166496
785.686	0.0164255
785.764	0.0164468
785.842	0.0163972
785.920	0.0164321
785.998	0.0164783
786.076	0.0165167
786.155	0.0163118
786.233	0.0162490
786.311	0.0163977
786.389	0.0163697
786.467	0.0164019
786.545	0.0163391
786.623	0.0163403
786.701	0.0162209
786.780	0.0162032
786.858	0.0163189
786.936	0.0163239
787.014	0.0162363
787.092	0.0163301
787.170	0.0163135
787.248	0.0162769
787.326	0.0163506
787.405	0.0162827
787.483	0.0161431
787.561	0.0161916
787.639	0.0162582
787.717	0.0162013
787.795	0.0161438
787.873	0.0162361
787.951	0.0160677
788.030	0.0161490
788.108	0.0161219
788.186	0.0162576
788.264	0.0161291
788.342	0.0161137
788.420	0.0160651
788.498	0.0160314
788.576	0.0161761
788.655	0.0160106
788.733	0.0160721
788.811	0.0161366
788.889	0.0161342
788.967	0.0159944
789.045	0.0160014
789.123	0.0161322
789.201	0.0160929
789.280	0.0162199
789.358	0.0162566
789.436	0.0161897
789.514	0.0161916
789.592	0.0162622
789.670	0.0161514
789.748	0.0162759
789.826	0.0162672
789.905	0.0163148
789.983	0.0162677
790.061	0.0161835
790.139	0.0161421
790.217	0.0162052
790.295	0.0162891
790.373	0.0162215
790.451	0.0162597
790.530	0.0161971
790.608	0.0162007
790.686	0.0162111
790.764	0.0161079
790.842	0.0162015
790.920	0.0162052
790.998	0.0163573
791.076	0.0162734
791.155	0.0162422
791.233	0.0162618
791.311	0.0161562
791.389	0.0162350
791.467	0.0162434
791.545	0.0162506
791.623	0.0162220
791.701	0.0162633
791.780	0.0162767
791.858	0.0161964
791.936	0.0163868
792.014	0.0162408
792.092	0.0162847
792.170	0.0162764
792.248	0.0161649
792.326	0.0161419
792.405	0.0162311
792.483	0.0162653
792.561	0.0163951
792.639	0.0162572
792.717	0.0162791
792.795	0.0163240
792.873	0.0163857
792.951	0.0163014
793.030	0.0163303
793.108	0.0163335
793.186	0.0163195
793.264	0.0162997
793.342	0.0162509
793.420	0.0162849
793.498	0.0162424
793.576	0.0162487
793.655	0.0162811
793.733	0.0162661
793.811	0.0162760
793.889	0.0162003
793.967	0.0163827
794.045	0.0160867
794.123	0.0161380
794.201	0.0160760
794.280	0.0161182
794.358	0.0161303
794.436	0.0159904
794.514	0.0159198
794.592	0.0159113
794.670	0.0160838
794.748	0.0159451
794.826	0.0159446
794.905	0.0158455
794.983	0.0160355
795.061	0.0161525
795.139	0.0160439
795.217	0.0160820
795.295	0.0161369
795.373	0.0161594
795.451	0.0161453
795.530	0.0160870
795.608	0.0160813
795.686	0.0161475
795.764	0.0160883
795.842	0.0160424
795.920	0.0161584
795.998	0.0161912
796.076	0.0161934
796.155	0.0162455
796.233	0.0160645
796.311	0.0161485
796.389	0.0162372
796.467	0.0162745
796.545	0.0162698
796.623	0.0163876
796.701	0.0163010
796.780	0.0160308
796.858	0.0162947
796.936	0.0162530
797.014	0.0162549
797.092	0.0162706
797.170	0.0163680
797.248	0.0163618
797.326	0.0163532
797.405	0.0164053
797.483	0.0163735
797.561	0.0161582
797.639	0.0162859
797.717	0.0164664
797.795	0.0164828
797.873	0.0164133
797.951	0.0162373
798.030	0.0163113
798.108	0.0161255
798.186	0.0163191
798.264	0.0163235
798.342	0.0163323
798.420	0.0163971
798.498	0.0162418
798.576	0.0161745
798.655	0.0162239
798.733	0.0162086
798.811	0.0163429
798.889	0.0160671
798.967	0.0161746
799.045	0.0162930
799.123	0.0159354
799.201	0.0161375
799.280	0.0161356
799.358	0.0159922
799.436	0.0161857
799.514	0.0160995
799.592	0.0162793
799.670	0.0161983
799.748	0.0161849
799.826	0.0159299
799.905	0.0159104
799.983	0.0160634
800.061	0.0160283
800.139	0.0161329
800.217	0.0160272
800.295	0.0160874
800.373	0.0161256
800.451	0.0160960
800.530	0.0160238
800.608	0.0161186
800.686	0.0161392
800.764	0.0161417
800.842	0.0160680
800.920	0.0161690
800.998	0.0161491
801.076	0.0160014
801.155	0.0161778
801.233	0.0161328
801.311	0.0162436
801.389	0.0161294
801.467	0.0161797
801.545	0.0162160
801.623	0.0162949
801.701	0.0161987
801.780	0.0162996
801.858	0.0161207
801.936	0.0161337
802.014	0.0162894
802.092	0.0162080
802.170	0.0161710
802.248	0.0162164
802.326	0.0161511
802.405	0.0161006
802.483	0.0162773
802.561	0.0162447
802.639	0.0162948
802.717	0.0160572
802.795	0.0161559
802.873	0.0161957
802.951	0.0161116
803.030	0.0161761
803.108	0.0161973
803.186	0.0162173
803.264	0.0161749
803.342	0.0161561
803.420	0.0161478
803.498	0.0162272
803.576	0.0161773
803.655	0.0160477
803.733	0.0161319
803.811	0.0160158
803.889	0.0160905
803.967	0.0161475
804.045	0.0160226
804.123	0.0161611
804.201	0.0161523
804.280	0.0161387
804.358	0.0161833
804.436	0.0161007
804.514	0.0161042
804.592	0.0161786
804.670	0.0161776
804.748	0.0161282
804.826	0.0162192
804.905	0.0162794
804.983	0.0161187
805.061	0.0162146
805.139	0.0161297
805.217	0.0161124
805.295	0.0160868
805.373	0.0162449
805.451	0.0162000
805.530	0.0162568
805.608	0.0162563
805.686	0.0162064
805.764	0.0163125
805.842	0.0163433
805.920	0.0163048
805.998	0.0163906
806.076	0.0162975
806.155	0.0162847
806.233	0.0164375
806.311	0.0163646
806.389	0.0162355
806.467	0.0163098
806.545	0.0162093
806.623	0.0162592
806.701	0.0163641
806.780	0.0162242
806.858	0.0161109
806.936	0.0162979
807.014	0.0162396
807.092	0.0161613
807.170	0.0162206
807.248	0.0162074
807.326	0.0162509
807.405	0.0162153
807.483	0.0162797
807.561	0.0161279
807.639	0.0162991
807.717	0.0161279
807.795	0.0161801
807.873	0.0161466
807.951	0.0160147
808.030	0.0162658
808.108	0.0161372
808.186	0.0160107
808.264	0.0161315
808.342	0.0162373
808.420	0.0161736
808.498	0.0161472
808.576	0.0163055
808.655	0.0164051
808.733	0.0162627
808.811	0.0162648
808.889	0.0164236
808.967	0.0162836
809.045	0.0163116
809.123	0.0163866
809.201	0.0164219
809.280	0.0162835
809.358	0.0163157
809.436	0.0163973
809.514	0.0164134
809.592	0.0163305
809.670	0.0165420
809.748	0.0163361
809.826	0.0163165
809.905	0.0163895
809.983	0.0165520
810.061	0.0164503
810.139	0.0164807
810.217	0.0164362
810.295	0.0163562
810.373	0.0164198
810.451	0.0163848
810.530	0.0164539
810.608	0.0165480
810.686	0.0165108
810.764	0.0164716
810.842	0.0163075
810.920	0.0164532
810.998	0.0164043
811.076	0.0163587
811.155	0.0162691
811.233	0.0164246
811.311	0.0163951
811.389	0.0163297
811.467	0.0163567
811.545	0.0162292
811.623	0.0164672
811.701	0.0162640
811.780	0.0162514
811.858	0.0162707
811.936	0.0162563
812.014	0.0163023
812.092	0.0162827
812.170	0.0163882
812.248	0.0163705
812.326	0.0163403
812.405	0.0162582
812.483	0.0163177
812.561	0.0163332
812.639	0.0162578
812.717	0.0163327
812.795	0.0164603
812.873	0.0163696
812.951	0.0161292
813.030	0.0162513
813.108	0.0162962
813.186	0.0163078
813.264	0.0161634
813.342	0.0162827
813.420	0.0163405
813.498	0.0162122
813.576	0.0163929
813.655	0.0162798
813.733	0.0161968
813.811	0.0162709
813.889	0.0163185
813.967	0.0163242
814.045	0.0161706
814.123	0.0163403
814.201	0.0162385
814.280	0.0162323
814.358	0.0162776
814.436	0.0162384
814.514	0.0163047
814.592	0.0162471
814.670	0.0161004
814.748	0.0160552
814.826	0.0159464
814.905	0.0161318
814.983	0.0160148
815.061	0.0159422
815.139	0.0159801
815.217	0.0159998
815.295	0.0159177
815.373	0.0159209
815.451	0.0160580
815.530	0.0161106
815.608	0.0160974
815.686	0.0159206
815.764	0.0161018
815.842	0.0159469
815.920	0.0160426
815.998	0.0160606
816.076	0.0160356
816.155	0.0160821
816.233	0.0161198
816.311	0.0160439
816.389	0.0160976
816.467	0.0162754
816.545	0.0162805
816.623	0.0161447
816.701	0.0162384
816.780	0.0163638
816.858	0.0161224
816.936	0.0162965
817.014	0.0162832
817.092	0.0163669
817.170	0.0164368
817.248	0.0163943
817.326	0.0163908
817.405	0.0164366
817.483	0.0163994
817.561	0.0162898
817.639	0.0163237
817.717	0.0163607
817.795	0.0163641
817.873	0.0165173
817.951	0.0164864
818.030	0.0164735
818.108	0.0164010
818.186	0.0163270
818.264	0.0163496
818.342	0.0164487
818.420	0.0164688
818.498	0.0164243
818.576	0.0163322
818.655	0.0165331
818.733	0.0162765
818.811	0.0162452
818.889	0.0163532
818.967	0.0161632
819.045	0.0161164
819.123	0.0162791
819.201	0.0162113
819.280	0.0161813
819.358	0.0161005
819.436	0.0162322
819.514	0.0162064
819.592	0.0162850
819.670	0.0162569
819.748	0.0159911
819.826	0.0160910
819.905	0.0160545
819.983	0.0161572
820.061	0.0161493
820.139	0.0160812
820.217	0.0160753
820.295	0.0162183
820.373	0.0160149
820.451	0.0161034
820.530	0.0161109
820.608	0.0161859
820.686	0.0161987
820.764	0.0162296
820.842	0.0161063
820.920	0.0162717
820.998	0.0163837
821.076	0.0160817
821.155	0.0162189
821.233	0.0161258
821.311	0.0161195
821.389	0.0162141
821.467	0.0162936
821.545	0.0163552
821.623	0.0163190
821.701	0.0161690
821.780	0.0162014
821.858	0.0163051
821.936	0.0162691
822.014	0.0162803
822.092	0.0161951
822.170	0.0161887
822.248	0.0160347
822.326	0.0161907
822.405	0.0162448
822.483	0.0161793
822.561	0.0161835
822.639	0.0161068
822.717	0.0162262
822.795	0.0159382
822.873	0.0162177
822.951	0.0159338
823.030	0.0159347
823.108	0.0159222
823.186	0.0161639
823.264	0.0160820
823.342	0.0160455
823.420	0.0158302
823.498	0.0158974
823.576	0.0160556
823.655	0.0160290
823.733	0.0160294
823.811	0.0159620
823.889	0.0160155
823.967	0.0159551
824.045	0.0159967
824.123	0.0159436
824.201	0.0159970
824.280	0.0160394
824.358	0.0160078
824.436	0.0159875
824.514	0.0159193
824.592	0.0161105
824.670	0.0160943
824.748	0.0161732
824.826	0.0160595
824.905	0.0161488
824.983	0.0160736
825.061	0.0162950
825.139	0.0160881
825.217	0.0161421
825.295	0.0162503
825.373	0.0162130
825.451	0.0162325
825.530	0.0162738
825.608	0.0162492
825.686	0.0163261
825.764	0.0163005
825.842	0.0164467
825.920	0.0163106
825.998	0.0161598
826.076	0.0161466
826.155	0.0163131
826.233	0.0161292
826.311	0.0161781
826.389	0.0161649
826.467	0.0162192
826.545	0.0162128
826.623	0.0163202
826.701	0.0162086
826.780	0.0162846
826.858	0.0162206
826.936	0.0161228
827.014	0.0161581
827.092	0.0163123
827.170	0.0162463
827.248	0.0162584
827.326	0.0161420
827.405	0.0160360
827.483	0.0162975
827.561	0.0161588
827.639	0.0162645
827.717	0.0162498
827.795	0.0161464
827.873	0.0161337
827.951	0.0161935
828.030	0.0163132
828.108	0.0162290
828.186	0.0161713
828.264	0.0161379
828.342	0.0161821
828.420	0.0162850
828.498	0.0162337
828.576	0.0161933
828.655	0.0162312
828.733	0.0162584
828.811	0.0162352
828.889	0.0162855
828.967	0.0162730
829.045	0.0163333
829.123	0.0163443
829.201	0.0163290
829.280	0.0163056
829.358	0.0162730
829.436	0.0162873
829.514	0.0162991
829.592	0.0162479
829.670	0.0162357
829.748	0.0163084
829.826	0.0161827
829.905	0.0161607
829.983	0.0164187
830.061	0.0162692
830.139	0.0162831
830.217	0.0161251
830.295	0.0162793
830.373	0.0161719
830.451	0.0162476
830.530	0.0162022
830.608	0.0161937
830.686	0.0164232
830.764	0.0161889
830.842	0.0162357
830.920	0.0163560
830.998	0.0161829
831.076	0.0163486
831.155	0.0162691
831.233	0.0163016
831.311	0.0162840
831.389	0.0162641
831.467	0.0163742
831.545	0.0162681
831.623	0.0163450
831.701	0.0163163
831.780	0.0163424
831.858	0.0164693
831.936	0.0163761
832.014	0.0163410
832.092	0.0163746
832.170	0.0164367
832.248	0.0164111
832.326	0.0164876
832.405	0.0162627
832.483	0.0165430
832.561	0.0165749
832.639	0.0164215
832.717	0.0164173
832.795	0.0163046
832.873	0.0162885
832.951	0.0164396
833.030	0.0163603
833.108	0.0163603
833.186	0.0163675
833.264	0.0165192
833.342	0.0163882
833.420	0.0164265
833.498	0.0162966
833.576	0.0163094
833.655	0.0163824
833.733	0.0163669
833.811	0.0164546
833.889	0.0164111
833.967	0.0162177
834.045	0.0161365
834.123	0.0162332
834.201	0.0162187
834.280	0.0161889
834.358	0.0161504
834.436	0.0162165
834.514	0.0161583
834.592	0.0162985
834.670	0.0161755
834.748	0.0161604
834.826	0.0161286
834.905	0.0163485
834.983	0.0162809
835.061	0.0162602
835.139	0.0162038
835.217	0.0162999
835.295	0.0162785
835.373	0.0162016
835.451	0.0162466
835.530	0.0161667
835.608	0.0163464
835.686	0.0163293
835.764	0.0161102
835.842	0.0163040
835.920	0.0162928
835.998	0.0163166
836.076	0.0162349
836.155	0.0161066
836.233	0.0163044
836.311	0.0161972
836.389	0.0161936
836.467	0.0161656
836.545	0.0160773
836.623	0.0161356
836.701	0.0161736
836.780	0.0161163
836.858	0.0162735
836.936	0.0162044
837.014	0.0161306
837.092	0.0161829
837.170	0.0161876
837.248	0.0161596
837.326	0.0160937
837.405	0.0161938
837.483	0.0162827
837.561	0.0162087
837.639	0.0162031
837.717	0.0163341
837.795	0.0162373
837.873	0.0161083
837.951	0.0164689
838.030	0.0164002
838.108	0.0162395
838.186	0.0162253
838.264	0.0163043
838.342	0.0162357
838.420	0.0161644
838.498	0.0161816
838.576	0.0163358
838.655	0.0162376
838.733	0.0160716
838.811	0.0162441
838.889	0.0162785
838.967	0.0162057
839.045	0.0161356
839.123	0.0161787
839.201	0.0161349
839.280	0.0163063
839.358	0.0162612
839.436	0.0161136
839.514	0.0161880
839.592	0.0162368
839.670	0.0162572
839.748	0.0164548
839.826	0.0163805
839.905	0.0162268
839.983	0.0162228
840.061	0.0162847
840.139	0.0162076
840.217	0.0162975
840.295	0.0163052
840.373	0.0162714
840.451	0.0162229
840.530	0.0162322
840.608	0.0161906
840.686	0.0162511
840.764	0.0161317
840.842	0.0163433
840.920	0.0162733
840.998	0.0163485
841.076	0.0161810
841.155	0.0163210
841.233	0.0162679
841.311	0.0161700
841.389	0.0163740
841.467	0.0162850
841.545	0.0163300
841.623	0.0163447
841.701	0.0162802
841.780	0.0162678
841.858	0.0163582
841.936	0.0161987
842.014	0.0162974
842.092	0.0164458
842.170	0.0161923
842.248	0.0161932
842.326	0.0162559
842.405	0.0162617
842.483	0.0162231
842.561	0.0163589
842.639	0.0162230
842.717	0.0162781
842.795	0.0162807
842.873	0.0163779
842.951	0.0163488
843.030	0.0162191
843.108	0.0163871
843.186	0.0162866
843.264	0.0161906
843.342	0.0163873
843.420	0.0162931
843.498	0.0161398
843.576	0.0162083
843.655	0.0164105
843.733	0.0163813
843.811	0.0163016
843.889	0.0162389
843.967	0.0162950
844.045	0.0162434
844.123	0.0163029
844.201	0.0163480
844.280	0.0162599
844.358	0.0162114
844.436	0.0163152
844.514	0.0163085
844.592	0.0162631
844.670	0.0162384
844.748	0.0162826
844.826	0.0162193
844.905	0.0162305
844.983	0.0162119
845.061	0.0162521
845.139	0.0162926
845.217	0.0162017
845.295	0.0162185
845.373	0.0161903
845.451	0.0162239
845.530	0.0162014
845.608	0.0162393
845.686	0.0161760
845.764	0.0162556
845.842	0.0161098
845.920	0.0160917
845.998	0.0161775
846.076	0.0161375
846.155	0.0161313
846.233	0.0161124
846.311	0.0160654
846.389	0.0160087
846.467	0.0161230
846.545	0.0160491
846.623	0.0160226
846.701	0.0160897
846.780	0.0160143
846.858	0.0159481
846.936	0.0160772
847.014	0.0159896
847.092	0.0160112
847.170	0.0159346
847.248	0.0160276
847.326	0.0161169
847.405	0.0159480
847.483	0.0159097
847.561	0.0159968
847.639	0.0160538
847.717	0.0159947
847.795	0.0159981
847.873	0.0159203
847.951	0.0159876
848.030	0.0160368
848.108	0.0160960
848.186	0.0161050
848.264	0.0161327
848.342	0.0160606
848.420	0.0160719
848.498	0.0160854
848.576	0.0161985
848.655	0.0160275
848.733	0.0160625
848.811	0.0161048
848.889	0.0161522
848.967	0.0161962
849.045	0.0162171
849.123	0.0162078
849.201	0.0161335
849.280	0.0161903
849.358	0.0163774
849.436	0.0162843
849.514	0.0161107
849.592	0.0162305
849.670	0.0162709
849.748	0.0162785
849.826	0.0162521
849.905	0.0163490
849.983	0.0164111
850.061	0.0163349
850.139	0.0162114
850.217	0.0163429
850.295	0.0161971
850.373	0.0162858
850.451	0.0163236
850.530	0.0161778
850.608	0.0163132
850.686	0.0163984
850.764	0.0163782
850.842	0.0162899
850.920	0.0162816
850.998	0.0162740
851.076	0.0162658
851.155	0.0162385
851.233	0.0161788
851.311	0.0163683
851.389	0.0163567
851.467	0.0162666
851.545	0.0162466
851.623	0.0163438
851.701	0.0162382
851.780	0.0161460
851.858	0.0163911
851.936	0.0163617
852.014	0.0164236
852.092	0.0162258
852.170	0.0161525
852.248	0.0161223
852.326	0.0161948
852.405	0.0163406
852.483	0.0163090
852.561	0.0162891
852.639	0.0162640
852.717	0.0161771
852.795	0.0162299
852.873	0.0161752
852.951	0.0162429
853.030	0.0161868
853.108	0.0161824
853.186	0.0161930
853.264	0.0160956
853.342	0.0161323
853.420	0.0162122
853.498	0.0160531
853.576	0.0161409
853.655	0.0162070
853.733	0.0160732
853.811	0.0161067
853.889	0.0161743
853.967	0.0163428
854.045	0.0162712
854.123	0.0162079
854.201	0.0162391
854.280	0.0162202
854.358	0.0162053
854.436	0.0163381
854.514	0.0162785
854.592	0.0163264
854.670	0.0163179
854.748	0.0163251
854.826	0.0162502
854.905	0.0163312
854.983	0.0162951
855.061	0.0163746
855.139	0.0163582
855.217	0.0163622
855.295	0.0162563
855.373	0.0163644
855.451	0.0162395
855.530	0.0163508
855.608	0.0162345
855.686	0.0162484
855.764	0.0162627
855.842	0.0161153
855.920	0.0162374
855.998	0.0163148
856.076	0.0162079
856.155	0.0161839
856.233	0.0161904
856.311	0.0162046
856.389	0.0162156
856.467	0.0162418
856.545	0.0160992
856.623	0.0161978
856.701	0.0161236
856.780	0.0163322
856.858	0.0161550
856.936	0.0160368
857.014	0.0161618
857.092	0.0162425
857.170	0.0162705
857.248	0.0161112
857.326	0.0161639
857.405	0.0162315
857.483	0.0161497
857.561	0.0160856
857.639	0.0162894
857.717	0.0161512
857.795	0.0160820
857.873	0.0161466
857.951	0.0160619
858.030	0.0160926
858.108	0.0161829
858.186	0.0160421
858.264	0.0161475
858.342	0.0160659
858.420	0.0162856
858.498	0.0162457
858.576	0.0162700
858.655	0.0163554
858.733	0.0162923
858.811	0.0163091
858.889	0.0163714
858.967	0.0163548
859.045	0.0163428
859.123	0.0162901
859.201	0.0164061
859.280	0.0162228
859.358	0.0161891
859.436	0.0163978
859.514	0.0163864
859.592	0.0163397
859.670	0.0163222
859.748	0.0163349
859.826	0.0163218
859.905	0.0163293
859.983	0.0162460
860.061	0.0163144
860.139	0.0163073
860.217	0.0162470
860.295	0.0163312
860.373	0.0163359
860.451	0.0162359
860.530	0.0162228
860.608	0.0163595
860.686	0.0162249
860.764	0.0162017
860.842	0.0162543
860.920	0.0162402
860.998	0.0162591
861.076	0.0161909
861.155	0.0162349
861.233	0.0162411
861.311	0.0162482
861.389	0.0164326
861.467	0.0162870
861.545	0.0164297
861.623	0.0164172
861.701	0.0164685
861.780	0.0163618
861.858	0.0164342
861.936	0.0163830
862.014	0.0164746
862.092	0.0165231
862.170	0.0166029
862.248	0.0164920
862.326	0.0164394
862.405	0.0163640
862.483	0.0164376
862.561	0.0164044
862.639	0.0164847
862.717	0.0164425
862.795	0.0164645
862.873	0.0163361
862.951	0.0163447
863.030	0.0164883
863.108	0.0164369
863.186	0.0163697
863.264	0.0162900
863.342	0.0163450
863.420	0.0162523
863.498	0.0161472
863.576	0.0161472
863.655	0.0162390
863.733	0.0161501
863.811	0.0162531
863.889	0.0162276
863.967	0.0161117
864.045	0.0161730
864.123	0.0162645
864.201	0.0161284
864.280	0.0162959
864.358	0.0161316
864.436	0.0161111
864.514	0.0162171
864.592	0.0163354
864.670	0.0162505
864.748	0.0162421
864.826	0.0162434
864.905	0.0162037
864.983	0.0161241
865.061	0.0162057
865.139	0.0162508
865.217	0.0162195
865.295	0.0162654
865.373	0.0162230
865.451	0.0162376
865.530	0.0162140
865.608	0.0163037
865.686	0.0162616
865.764	0.0161756
865.842	0.0163186
865.920	0.0162627
865.998	0.0162525
866.076	0.0162859
866.155	0.0161874
866.233	0.0160609
866.311	0.0162199
866.389	0.0161775
866.467	0.0160131
866.545	0.0162000
866.623	0.0162161
866.701	0.0161964
866.780	0.0162019
866.858	0.0161422
866.936	0.0161404
867.014	0.0161803
867.092	0.0161481
867.170	0.0163321
867.248	0.0162569
867.326	0.0162980
867.405	0.0162477
867.483	0.0161819
867.561	0.0161672
867.639	0.0161893
867.717	0.0162886
867.795	0.0162392
867.873	0.0162082
867.951	0.0162349
868.030	0.0162043
868.108	0.0161874
868.186	0.0160405
868.264	0.0161174
868.342	0.0161818
868.420	0.0163026
868.498	0.0162546
868.576	0.0163128
868.655	0.0161789
868.733	0.0161658
868.811	0.0161076
868.889	0.0161229
868.967	0.0161257
869.045	0.0162145
869.123	0.0162169
869.201	0.0161923
869.280	0.0161411
869.358	0.0162098
869.436	0.0161195
869.514	0.0160869
869.592	0.0161717
869.670	0.0162769
869.748	0.0161893
869.826	0.0162073
869.905	0.0163615
869.983	0.0162605
870.061	0.0162648
870.139	0.0162907
870.217	0.0163192
870.295	0.0162963
870.373	0.0161485
870.451	0.0162515
870.530	0.0162944
870.608	0.0163236
870.686	0.0162878
870.764	0.0161472
870.842	0.0161736
870.920	0.0163003
870.998	0.0161614
871.076	0.0162401
871.155	0.0163161
871.233	0.0163525
871.311	0.0161620
871.389	0.0163074
871.467	0.0163089
871.545	0.0162337
871.623	0.0162642
871.701	0.0163189
871.780	0.0162890
871.858	0.0162944
871.936	0.0163491
872.014	0.0162733
872.092	0.0162737
872.170	0.0161728
872.248	0.0162440
872.326	0.0161857
872.405	0.0162127
872.483	0.0162375
872.561	0.0163557
872.639	0.0161881
872.717	0.0161572
872.795	0.0162766
872.873	0.0161183
872.951	0.0162363
873.030	0.0163448
873.108	0.0163328
873.186	0.0163352
873.264	0.0162748
873.342	0.0163396
873.420	0.0162337
873.498	0.0162105
873.576	0.0163010
873.655	0.0162865
873.733	0.0163436
873.811	0.0162119
873.889	0.0160771
873.967	0.0162319
874.045	0.0162984
874.123	0.0162069
874.201	0.0162076
874.280	0.0161127
874.358	0.0162421
874.436	0.0162785
874.514	0.0162134
874.592	0.0163078
874.670	0.0162640
874.748	0.0161959
874.826	0.0162415
874.905	0.0162382
874.983	0.0160754
875.061	0.0162347
875.139	0.0162060
875.217	0.0162464
875.295	0.0161469
875.373	0.0162366
875.451	0.0163631
875.530	0.0162575
875.608	0.0163316
875.686	0.0162036
875.764	0.0162003
875.842	0.0161254
875.920	0.0161715
875.998	0.0161965
876.076	0.0162466
876.155	0.0162601
876.233	0.0162064
876.311	0.0162360
876.389	0.0162605
876.467	0.0162474
876.545	0.0163059
876.623	0.0162666
876.701	0.0161364
876.780	0.0162804
876.858	0.0162835
876.936	0.0162337
877.014	0.0161348
877.092	0.0162841
877.170	0.0163584
877.248	0.0162562
877.326	0.0163012
877.405	0.0162851
877.483	0.0162473
877.561	0.0164181
877.639	0.0162378
877.717	0.0161900
877.795	0.0162748
877.873	0.0164128
877.951	0.0162512
878.030	0.0163641
878.108	0.0162842
878.186	0.0163174
878.264	0.0164104
878.342	0.0163326
878.420	0.0162202
878.498	0.0164341
878.576	0.0163235
878.655	0.0162746
878.733	0.0162231
878.811	0.0162769
878.889	0.0162434
878.967	0.0162318
879.045	0.0161258
879.123	0.0162703
879.201	0.0162273
879.280	0.0162680
879.358	0.0162298
879.436	0.0163010
879.514	0.0163658
879.592	0.0161761
879.670	0.0161809
879.748	0.0161955
879.826	0.0163245
879.905	0.0162272
879.983	0.0162051
880.061	0.0161229
880.139	0.0162329
880.217	0.0162773
880.295	0.0162032
880.373	0.0161362
880.451	0.0161751
880.530	0.0160887
880.608	0.0161216
880.686	0.0161698
880.764	0.0161021
880.842	0.0161835
880.920	0.0162974
880.998	0.0161502
881.076	0.0161973
881.155	0.0162319
881.233	0.0162234
881.311	0.0163710
881.389	0.0162438
881.467	0.0163194
881.545	0.0162779
881.623	0.0162298
881.701	0.0162564
881.780	0.0163323
881.858	0.0162286
881.936	0.0161640
882.014	0.0162309
882.092	0.0162899
882.170	0.0163081
882.248	0.0163908
882.326	0.0165125
882.405	0.0163091
882.483	0.0162624
882.561	0.0163774
882.639	0.0164692
882.717	0.0164434
882.795	0.0163804
882.873	0.0164188
882.951	0.0160997
883.030	0.0161050
883.108	0.0163472
883.186	0.0164397
883.264	0.0163200
883.342	0.0162802
883.420	0.0163574
883.498	0.0163601
883.576	0.0162228
883.655	0.0162107
883.733	0.0163496
883.811	0.0163062
883.889	0.0161892
883.967	0.0162807
884.045	0.0162781
884.123	0.0163148
884.201	0.0162010
884.280	0.0163656
884.358	0.0163186
884.436	0.0162645
884.514	0.0162782
884.592	0.0163220
884.670	0.0163669
884.748	0.0162991
884.826	0.0163545
884.905	0.0163551
884.983	0.0163027
885.061	0.0160799
885.139	0.0162761
885.217	0.0163350
885.295	0.0162112
885.373	0.0161781
885.451	0.0163221
885.530	0.0162683
885.608	0.0161986
885.686	0.0162684
885.764	0.0162106
885.842	0.0163397
885.920	0.0162564
885.998	0.0162772
886.076	0.0162086
886.155	0.0161534
886.233	0.0160056
886.311	0.0161262
886.389	0.0160095
886.467	0.0161246
886.545	0.0161324
886.623	0.0162096
886.701	0.0162006
886.780	0.0161603
886.858	0.0160981
886.936	0.0161797
887.014	0.0160618
887.092	0.0160387
887.170	0.0161215
887.248	0.0161174
887.326	0.0159986
887.405	0.0159731
887.483	0.0160773
887.561	0.0160104
887.639	0.0160505
887.717	0.0162608
887.795	0.0161624
887.873	0.0160882
887.951	0.0160810
888.030	0.0161459
888.108	0.0161333
888.186	0.0161191
888.264	0.0162903
888.342	0.0160721
888.420	0.0162739
888.498	0.0162025
888.576	0.0161537
888.655	0.0161197
888.733	0.0161842
888.811	0.0162188
888.889	0.0162364
888.967	0.0162394
889.045	0.0161491
889.123	0.0160702
889.201	0.0161958
889.280	0.0162280
889.358	0.0161629
889.436	0.0162003
889.514	0.0162023
889.592	0.0160388
889.670	0.0161491
889.748	0.0160413
889.826	0.0162402
889.905	0.0160882
889.983	0.0160713
890.061	0.0161771
890.139	0.0160928
890.217	0.0161961
890.295	0.0162743
890.373	0.0162107
890.451	0.0162418
890.530	0.0162075
890.608	0.0162473
890.686	0.0161844
890.764	0.0163990
890.842	0.0163311
890.920	0.0162787
890.998	0.0162370
891.076	0.0163142
891.155	0.0162827
891.233	0.0162813
891.311	0.0162663
891.389	0.0162479
891.467	0.0164214
891.545	0.0163190
891.623	0.0162478
891.701	0.0162946
891.780	0.0163190
891.858	0.0163525
891.936	0.0160161
892.014	0.0163342
892.092	0.0162929
892.170	0.0162549
892.248	0.0162502
892.326	0.0161900
892.405	0.0163326
892.483	0.0161788
892.561	0.0163022
892.639	0.0161395
892.717	0.0162327
892.795	0.0162135
892.873	0.0161498
892.951	0.0162569
893.030	0.0163015
893.108	0.0162865
893.186	0.0162103
893.264	0.0160004
893.342	0.0160585
893.420	0.0162830
893.498	0.0160644
893.576	0.0162258
893.655	0.0162975
893.733	0.0163980
893.811	0.0162655
893.889	0.0162234
893.967	0.0162725
894.045	0.0162243
894.123	0.0162726
894.201	0.0161582
894.280	0.0163026
894.358	0.0163551
894.436	0.0163885
894.514	0.0163144
894.592	0.0162729
894.670	0.0162572
894.748	0.0164073
894.826	0.0162736
894.905	0.0163602
894.983	0.0163894
895.061	0.0163392
895.139	0.0163316
895.217	0.0162415
895.295	0.0164480
895.373	0.0163392
895.451	0.0163230
895.530	0.0162362
895.608	0.0162424
895.686	0.0162628
895.764	0.0163007
895.842	0.0162573
895.920	0.0162925
895.998	0.0162643
896.076	0.0162855
896.155	0.0161913
896.233	0.0162857
896.311	0.0162103
896.389	0.0162577
896.467	0.0163326
896.545	0.0163028
896.623	0.0162237
896.701	0.0162969
896.780	0.0162727
896.858	0.0161580
896.936	0.0163000
897.014	0.0161866
897.092	0.0163288
897.170	0.0163393
897.248	0.0161322
897.326	0.0161548
897.405	0.0163452
897.483	0.0162779
897.561	0.0162841
897.639	0.0161832
897.717	0.0162337
897.795	0.0162450
897.873	0.0162753
897.951	0.0162482
898.030	0.0162256
898.108	0.0163389
898.186	0.0161818
898.264	0.0162542
898.342	0.0162415
898.420	0.0161174
898.498	0.0162724
898.576	0.0162949
898.655	0.0162429
898.733	0.0162704
898.811	0.0162536
898.889	0.0161578
898.967	0.0161087
899.045	0.0162091
899.123	0.0161590
899.201	0.0161570
899.280	0.0162263
899.358	0.0161410
899.436	0.0163216
899.514	0.0161938
899.592	0.0159923
899.670	0.0161807
899.748	0.0162009
899.826	0.0162280
899.905	0.0162564
899.983	0.0161951
900.061	0.0163258
900.139	0.0162897
900.217	0.0162226
900.295	0.0162398
900.373	0.0162354
900.451	0.0161749
900.530	0.0163543
900.608	0.0161724
900.686	0.0161983
900.764	0.0163838
900.842	0.0162435
900.920	0.0163528
900.998	0.0162802
901.076	0.0162560
901.155	0.0162368
901.233	0.0161507
901.311	0.0162516
901.389	0.0164111
901.467	0.0162488
901.545	0.0163872
901.623	0.0163747
901.701	0.0162863
901.780	0.0161599
901.858	0.0163412
901.936	0.0163002
902.014	0.0164270
902.092	0.0163203
902.170	0.0162531
902.248	0.0162230
902.326	0.0162499
902.405	0.0163633
902.483	0.0162838
902.561	0.0163618
902.639	0.0163718
902.717	0.0163811
902.795	0.0163948
902.873	0.0163512
902.951	0.0163788
903.030	0.0162999
903.108	0.0162748
903.186	0.0162953
903.264	0.0162472
903.342	0.0162243
903.420	0.0162137
903.498	0.0160986
903.576	0.0162769
903.655	0.0162772
903.733	0.0162955
903.811	0.0162646
903.889	0.0162655
903.967	0.0161414
904.045	0.0162191
904.123	0.0162632
904.201	0.0162037
904.280	0.0162242
904.358	0.0161709
904.436	0.0161401
904.514	0.0160640
904.592	0.0161871
904.670	0.0161761
904.748	0.0161976
904.826	0.0162975
904.905	0.0161623
904.983	0.0161863
905.061	0.0163619
905.139	0.0163134
905.217	0.0160406
905.295	0.0162519
905.373	0.0162570
905.451	0.0162914
905.530	0.0162923
905.608	0.0161713
905.686	0.0162594
905.764	0.0161274
905.842	0.0162576
905.920	0.0162037
905.998	0.0162125
906.076	0.0162586
906.155	0.0161917
906.233	0.0161931
906.311	0.0162177
906.389	0.0162549
906.467	0.0162370
906.545	0.0162255
906.623	0.0162174
906.701	0.0163087
906.780	0.0163007
906.858	0.0162514
906.936	0.0162450
907.014	0.0162549
907.092	0.0162660
907.170	0.0162590
907.248	0.0162560
907.326	0.0162580
907.405	0.0162899
907.483	0.0162400
907.561	0.0161805
907.639	0.0162199
907.717	0.0161841
907.795	0.0161750
907.873	0.0161723
907.951	0.0162158
908.030	0.0161678
908.108	0.0161735
908.186	0.0162605
908.264	0.0160241
908.342	0.0161705
908.420	0.0160818
908.498	0.0160612
908.576	0.0161629
908.655	0.0159818
908.733	0.0161701
908.811	0.0161639
908.889	0.0161549
908.967	0.0161620
909.045	0.0161250
909.123	0.0160589
909.201	0.0161931
909.280	0.0160574
909.358	0.0160303
909.436	0.0161044
909.514	0.0161459
909.592	0.0160635
909.670	0.0159936
909.748	0.0160304
909.826	0.0161288
909.905	0.0160924
909.983	0.0161224
910.061	0.0162053
910.139	0.0161526
910.217	0.0161358
910.295	0.0162201
910.373	0.0163206
910.451	0.0161462
910.530	0.0161217
910.608	0.0165005
910.686	0.0161707
910.764	0.0160825
910.842	0.0162791
910.920	0.0162532
910.998	0.0163136
911.076	0.0164274
911.155	0.0162796
911.233	0.0163623
911.311	0.0162825
911.389	0.0163665
911.467	0.0163681
911.545	0.0162959
911.623	0.0164294
911.701	0.0163066
911.780	0.0163004
911.858	0.0162371
911.936	0.0161358
912.014	0.0162977
912.092	0.0163799
912.170	0.0161127
912.248	0.0162177
912.326	0.0162019
912.405	0.0163650
912.483	0.0162494
912.561	0.0163475
912.639	0.0163251
912.717	0.0163380
912.795	0.0163486
912.873	0.0163998
912.951	0.0162357
913.030	0.0161912
913.108	0.0162627
913.186	0.0163752
913.264	0.0162776
913.342	0.0162413
913.420	0.0162560
913.498	0.0163676
913.576	0.0163573
913.655	0.0163606
913.733	0.0162968
913.811	0.0161051
913.889	0.0162077
913.967	0.0163042
914.045	0.0162341
914.123	0.0161864
914.201	0.0162558
914.280	0.0162553
914.358	0.0162683
914.436	0.0161745
914.514	0.0162554
914.592	0.0163296
914.670	0.0162523
914.748	0.0162585
914.826	0.0162164
914.905	0.0162240
914.983	0.0161357
915.061	0.0163019
915.139	0.0161996
915.217	0.0162486
915.295	0.0161964
915.373	0.0160712
915.451	0.0161923
915.530	0.0161246
915.608	0.0159784
915.686	0.0161497
915.764	0.0160907
915.842	0.0161055
915.920	0.0161940
915.998	0.0161339
916.076	0.0160063
916.155	0.0160976
916.233	0.0162007
916.311	0.0160830
916.389	0.0160508
916.467	0.0160664
916.545	0.0161050
916.623	0.0161295
916.701	0.0161267
916.780	0.0162128
916.858	0.0160456
916.936	0.0160582
917.014	0.0161138
917.092	0.0160448
917.170	0.0160669
917.248	0.0160984
917.326	0.0161072
917.405	0.0159028
917.483	0.0159763
917.561	0.0161288
917.639	0.0161291
917.717	0.0162383
917.795	0.0162119
917.873	0.0161314
917.951	0.0160367
918.030	0.0161777
918.108	0.0161378
918.186	0.0161031
918.264	0.0161588
918.342	0.0162516
918.420	0.0162866
918.498	0.0163570
918.576	0.0161588
918.655	0.0162402
918.733	0.0162816
918.811	0.0161965
918.889	0.0161337
918.967	0.0162924
919.045	0.0162266
919.123	0.0161655
919.201	0.0160773
919.280	0.0161286
919.358	0.0162992
919.436	0.0163385
919.514	0.0163179
919.592	0.0161754
919.670	0.0162124
919.748	0.0162508
919.826	0.0162323
919.905	0.0162102
919.983	0.0162142
920.061	0.0160620
920.139	0.0161748
920.217	0.0161938
920.295	0.0160899
920.373	0.0161898
920.451	0.0161423
920.530	0.0161226
920.608	0.0160439
920.686	0.0161191
920.764	0.0161474
920.842	0.0161756
920.920	0.0162649
920.998	0.0161633
921.076	0.0161279
921.155	0.0161586
921.233	0.0162257
921.311	0.0161156
921.389	0.0161786
921.467	0.0162824
921.545	0.0161475
921.623	0.0161959
921.701	0.0162033
921.780	0.0162267
921.858	0.0161577
921.936	0.0162357
922.014	0.0163455
922.092	0.0162621
922.170	0.0161962
922.248	0.0162403
922.326	0.0162861
922.405	0.0162151
922.483	0.0162500
922.561	0.0163169
922.639	0.0162490
922.717	0.0162080
922.795	0.0162412
922.873	0.0162675
922.951	0.0163402
923.030	0.0162859
923.108	0.0162669
923.186	0.0162425
923.264	0.0162380
923.342	0.0161743
923.420	0.0162842
923.498	0.0161392
923.576	0.0161364
923.655	0.0162711
923.733	0.0162417
923.811	0.0162894
923.889	0.0161553
923.967	0.0161347
924.045	0.0162050
924.123	0.0161289
924.201	0.0161467
924.280	0.0162001
924.358	0.0161077
924.436	0.0161420
924.514	0.0160743
924.592	0.0161417
924.670	0.0159545
924.748	0.0161419
924.826	0.0162453
924.905	0.0161115
924.983	0.0161444
925.061	0.0161089
925.139	0.0161462
925.217	0.0160983
925.295	0.0160905
925.373	0.0160411
925.451	0.0161481
925.530	0.0160795
925.608	0.0160750
925.686	0.0161343
925.764	0.0161044
925.842	0.0160944
925.920	0.0161059
925.998	0.0160506
926.076	0.0160905
926.155	0.0161373
926.233	0.0161346
926.311	0.0162690
926.389	0.0161942
926.467	0.0160994
926.545	0.0161938
926.623	0.0162480
926.701	0.0160909
926.780	0.0162778
926.858	0.0161564
926.936	0.0161495
927.014	0.0162971
927.092	0.0162119
927.170	0.0161581
927.248	0.0160761
927.326	0.0162041
927.405	0.0162404
927.483	0.0161418
927.561	0.0162268
927.639	0.0162560
927.717	0.0163564
927.795	0.0162881
927.873	0.0162325
927.951	0.0163116
928.030	0.0160759
928.108	0.0161332
928.186	0.0164737
928.264	0.0162724
928.342	0.0163007
928.420	0.0163177
928.498	0.0163838
928.576	0.0162369
928.655	0.0163290
928.733	0.0163400
928.811	0.0162211
928.889	0.0164220
928.967	0.0163129
929.045	0.0162483
929.123	0.0162830
929.201	0.0163168
929.280	0.0163108
929.358	0.0162568
929.436	0.0163781
929.514	0.0162256
929.592	0.0164157
929.670	0.0163251
929.748	0.0162667
929.826	0.0163819
929.905	0.0162482
929.983	0.0164103
930.061	0.0162319
930.139	0.0161672
930.217	0.0163535
930.295	0.0163796
930.373	0.0162431
930.451	0.0162868
930.530	0.0161794
930.608	0.0162114
930.686	0.0162815
930.764	0.0164033
930.842	0.0162831
930.920	0.0162196
930.998	0.0163451
931.076	0.0161843
931.155	0.0161506
931.233	0.0162505
931.311	0.0162443
931.389	0.0161552
931.467	0.0162907
931.545	0.0160950
931.623	0.0160464
931.701	0.0162945
931.780	0.0163186
931.858	0.0161199
931.936	0.0162249
932.014	0.0162231
932.092	0.0162476
932.170	0.0161096
932.248	0.0162420
932.326	0.0162186
932.405	0.0161169
932.483	0.0161700
932.561	0.0161721
932.639	0.0161617
932.717	0.0161205
932.795	0.0161466
932.873	0.0161826
932.951	0.0161206
933.030	0.0162989
933.108	0.0161909
933.186	0.0160889
933.264	0.0162230
933.342	0.0162351
933.420	0.0162714
933.498	0.0161465
933.576	0.0162947
933.655	0.0161873
933.733	0.0162283
933.811	0.0163245
933.889	0.0163294
933.967	0.0163328
934.045	0.0161845
934.123	0.0162064
934.201	0.0163974
934.280	0.0163893
934.358	0.0162930
934.436	0.0161642
934.514	0.0161597
934.592	0.0163009
934.670	0.0163051
934.748	0.0162167
934.826	0.0163068
934.905	0.0163705
934.983	0.0163182
935.061	0.0162436
935.139	0.0163631
935.217	0.0162848
935.295	0.0163628
935.373	0.0163488
935.451	0.0163204
935.530	0.0163040
935.608	0.0162778
935.686	0.0162967
935.764	0.0163441
935.842	0.0162244
935.920	0.0163614
935.998	0.0161724
936.076	0.0163103
936.155	0.0161838
936.233	0.0161384
936.311	0.0161058
936.389	0.0162983
936.467	0.0162248
936.545	0.0163059
936.623	0.0163240
936.701	0.0162579
936.780	0.0162334
936.858	0.0163052
936.936	0.0161742
937.014	0.0162889
937.092	0.0161649
937.170	0.0161964
937.248	0.0160718
937.326	0.0161612
937.405	0.0162157
937.483	0.0162005
937.561	0.0162496
937.639	0.0162846
937.717	0.0161731
937.795	0.0161575
937.873	0.0160710
937.951	0.0161066
938.030	0.0161717
938.108	0.0161942
938.186	0.0160402
938.264	0.0160966
938.342	0.0162344
938.420	0.0161472
938.498	0.0160017
938.576	0.0161572
938.655	0.0162930
938.733	0.0162643
938.811	0.0162472
938.889	0.0161256
938.967	0.0161432
939.045	0.0160718
939.123	0.0161974
939.201	0.0160543
939.280	0.0161689
939.358	0.0162233
939.436	0.0161684
939.514	0.0162360
939.592	0.0162401
939.670	0.0160814
939.748	0.0162358
939.826	0.0162019
939.905	0.0161790
939.983	0.0162381
940.061	0.0162125
940.139	0.0162725
940.217	0.0162119
940.295	0.0162765
940.373	0.0162472
940.451	0.0160847
940.530	0.0160960
940.608	0.0162188
940.686	0.0162827
940.764	0.0161799
940.842	0.0161884
940.920	0.0161326
940.998	0.0161234
941.076	0.0161561
941.155	0.0162225
941.233	0.0161710
941.311	0.0162780
941.389	0.0162089
941.467	0.0162032
941.545	0.0162031
941.623	0.0161343
941.701	0.0163333
941.780	0.0163059
941.858	0.0162803
941.936	0.0161362
942.014	0.0161251
942.092	0.0162099
942.170	0.0161430
942.248	0.0161111
942.326	0.0161828
942.405	0.0161289
942.483	0.0160972
942.561	0.0160880
942.639	0.0161697
942.717	0.0161300
942.795	0.0161386
942.873	0.0160194
942.951	0.0159887
943.030	0.0160497
943.108	0.0161490
943.186	0.0161153
943.264	0.0159508
943.342	0.0160640
943.420	0.0160420
943.498	0.0161385
943.576	0.0160896
943.655	0.0160022
943.733	0.0160791
943.811	0.0159885
943.889	0.0160186
943.967	0.0161192
944.045	0.0161046
944.123	0.0161474
944.201	0.0160738
944.280	0.0161951
944.358	0.0162047
944.436	0.0161784
944.514	0.0162752
944.592	0.0160795
944.670	0.0160789
944.748	0.0160648
944.826	0.0160390
944.905	0.0162016
944.983	0.0161747
945.061	0.0161397
945.139	0.0160390
945.217	0.0161182
945.295	0.0161243
945.373	0.0161915
945.451	0.0161861
945.530	0.0161613
945.608	0.0161257
945.686	0.0162589
945.764	0.0162138
945.842	0.0162270
945.920	0.0161028
945.998	0.0162412
946.076	0.0162071
946.155	0.0162781
946.233	0.0162383
946.311	0.0163724
946.389	0.0162266
946.467	0.0162066
946.545	0.0163773
946.623	0.0163895
946.701	0.0163376
946.780	0.0162270
946.858	0.0163654
946.936	0.0163267
947.014	0.0163445
947.092	0.0164103
947.170	0.0163981
947.248	0.0163562
947.326	0.0163443
947.405	0.0163129
947.483	0.0163148
947.561	0.0163898
947.639	0.0162573
947.717	0.0163805
947.795	0.0162383
947.873	0.0162064
947.951	0.0162267
948.030	0.0162655
948.108	0.0162920
948.186	0.0161568
948.264	0.0160349
948.342	0.0160793
948.420	0.0161827
948.498	0.0161398
948.576	0.0160162
948.655	0.0161093
948.733	0.0161906
948.811	0.0160591
948.889	0.0161656
948.967	0.0161861
949.045	0.0160761
949.123	0.0160472
949.201	0.0161263
949.280	0.0161273
949.358	0.0160320
949.436	0.0161517
949.514	0.0161156
949.592	0.0161599
949.670	0.0162123
949.748	0.0161295
949.826	0.0162721
949.905	0.0160974
949.983	0.0162276
950.061	0.0161800
950.139	0.0162108
950.217	0.0162720
950.295	0.0161710
950.373	0.0162585
950.451	0.0161701
950.530	0.0162991
950.608	0.0161598
950.686	0.0162463
950.764	0.0162209
950.842	0.0162346
950.920	0.0161964
950.998	0.0162688
951.076	0.0162873
951.155	0.0162806
951.233	0.0163136
951.311	0.0162522
951.389	0.0162217
951.467	0.0161906
951.545	0.0162744
951.623	0.0160861
951.701	0.0160653
951.780	0.0161215
951.858	0.0161022
951.936	0.0161436
952.014	0.0162305
952.092	0.0160561
952.170	0.0161983
952.248	0.0161417
952.326	0.0161851
952.405	0.0159933
952.483	0.0160555
952.561	0.0161069
952.639	0.0162329
952.717	0.0160455
952.795	0.0161620
952.873	0.0162279
952.951	0.0161150
953.030	0.0162502
953.108	0.0162199
953.186	0.0162528
953.264	0.0162015
953.342	0.0162246
953.420	0.0161794
953.498	0.0163178
953.576	0.0163167
953.655	0.0162987
953.733	0.0162844
953.811	0.0162032
953.889	0.0162009
953.967	0.0163403
954.045	0.0163906
954.123	0.0162520
954.201	0.0162369
954.280	0.0162772
954.358	0.0163580
954.436	0.0162344
954.514	0.0164414
954.592	0.0163755
954.670	0.0163062
954.748	0.0163428
954.826	0.0165005
954.905	0.0164513
954.983	0.0163935
955.061	0.0164169
955.139	0.0163765
955.217	0.0164999
955.295	0.0165318
955.373	0.0164331
955.451	0.0163519
955.530	0.0163538
955.608	0.0164848
955.686	0.0164073
955.764	0.0163911
955.842	0.0165788
955.920	0.0163307
955.998	0.0163857
956.076	0.0163332
956.155	0.0163744
956.233	0.0165302
956.311	0.0165720
956.389	0.0165447
956.467	0.0164019
956.545	0.0163905
956.623	0.0164959
956.701	0.0164043
956.780	0.0164262
956.858	0.0165147
956.936	0.0166263
957.014	0.0165083
957.092	0.0164165
957.170	0.0164411
957.248	0.0165163
957.326	0.0163924
957.405	0.0164178
957.483	0.0163936
957.561	0.0162943
957.639	0.0163814
957.717	0.0162459
957.795	0.0163293
957.873	0.0162154
957.951	0.0163582
958.030	0.0163119
958.108	0.0163113
958.186	0.0161598
958.264	0.0162431
958.342	0.0163612
958.420	0.0160592
958.498	0.0161498
958.576	0.0162959
958.655	0.0161804
958.733	0.0161882
958.811	0.0163178
958.889	0.0162216
958.967	0.0160931
959.045	0.0160950
959.123	0.0162432
959.201	0.0162532
959.280	0.0162114
959.358	0.0162343
959.436	0.0161339
959.514	0.0161682
959.592	0.0162336
959.670	0.0160490
959.748	0.0161243
959.826	0.0161846
959.905	0.0161655
