05/17/2022	17:23:35	Ver.	4.1	UNKNOWN
Optical Delay	639.982744	Delta X		0.078125	Sweeps	1	Scan Rate	0/0
Coordinates	Axis 1	NaN	Axis 2	NaN	Axis 3	NaN	Axis 4	NaN	Axis 5	NaN	Axis 6	0.000000
TX Power	0.000000	RX Power	0.000000

639.983	0.0155145
640.061	0.0153538
640.139	0.0153848
640.217	0.0152669
640.295	0.0153731
640.373	0.0153742
640.451	0.0153113
640.530	0.0153608
640.608	0.0154445
640.686	0.0152805
640.764	0.0153225
640.842	0.0153390
640.920	0.0153263
640.998	0.0154595
641.076	0.0154214
641.155	0.0153841
641.233	0.0152805
641.311	0.0153330
641.389	0.0152676
641.467	0.0154060
641.545	0.0153561
641.623	0.0152814
641.701	0.0154343
641.780	0.0155296
641.858	0.0155004
641.936	0.0154371
642.014	0.0155182
642.092	0.0155294
642.170	0.0155174
642.248	0.0154028
642.326	0.0155171
642.405	0.0155489
642.483	0.0156013
642.561	0.0153635
642.639	0.0153484
642.717	0.0154269
642.795	0.0154855
642.873	0.0152983
642.951	0.0153607
643.030	0.0155444
643.108	0.0152762
643.186	0.0152638
643.264	0.0153261
643.342	0.0152032
643.420	0.0153881
643.498	0.0152682
643.576	0.0153209
643.655	0.0154041
643.733	0.0152732
643.811	0.0153515
643.889	0.0152144
643.967	0.0152259
644.045	0.0153871
644.123	0.0153361
644.201	0.0153015
644.280	0.0152901
644.358	0.0152622
644.436	0.0154652
644.514	0.0153539
644.592	0.0152852
644.670	0.0154807
644.748	0.0153331
644.826	0.0153156
644.905	0.0154780
644.983	0.0154705
645.061	0.0153531
645.139	0.0154158
645.217	0.0155545
645.295	0.0155335
645.373	0.0155395
645.451	0.0155719
645.530	0.0154880
645.608	0.0153665
645.686	0.0154186
645.764	0.0155673
645.842	0.0154710
645.920	0.0155431
645.998	0.0155032
646.076	0.0153108
646.155	0.0155079
646.233	0.0153840
646.311	0.0153427
646.389	0.0153299
646.467	0.0152332
646.545	0.0154134
646.623	0.0153960
646.701	0.0152387
646.780	0.0152929
646.858	0.0153614
646.936	0.0155006
647.014	0.0151627
647.092	0.0154118
647.170	0.0154796
647.248	0.0154809
647.326	0.0153233
647.405	0.0154856
647.483	0.0154346
647.561	0.0153094
647.639	0.0153603
647.717	0.0154012
647.795	0.0155289
647.873	0.0153825
647.951	0.0154622
648.030	0.0154704
648.108	0.0154778
648.186	0.0154762
648.264	0.0155127
648.342	0.0153332
648.420	0.0154517
648.498	0.0153312
648.576	0.0153366
648.655	0.0154546
648.733	0.0153558
648.811	0.0152189
648.889	0.0153830
648.967	0.0154293
649.045	0.0153748
649.123	0.0152953
649.201	0.0153367
649.280	0.0154887
649.358	0.0153072
649.436	0.0152766
649.514	0.0153560
649.592	0.0154096
649.670	0.0154568
649.748	0.0152782
649.826	0.0153313
649.905	0.0155014
649.983	0.0154787
650.061	0.0154117
650.139	0.0153730
650.217	0.0154700
650.295	0.0154157
650.373	0.0153364
650.451	0.0155933
650.530	0.0155368
650.608	0.0156004
650.686	0.0155641
650.764	0.0155313
650.842	0.0154050
650.920	0.0153854
650.998	0.0153539
651.076	0.0154987
651.155	0.0153844
651.233	0.0153168
651.311	0.0153374
651.389	0.0153116
651.467	0.0153464
651.545	0.0152912
651.623	0.0152541
651.701	0.0152927
651.780	0.0151862
651.858	0.0153083
651.936	0.0152727
652.014	0.0151142
652.092	0.0152415
652.170	0.0152038
652.248	0.0153939
652.326	0.0152974
652.405	0.0152272
652.483	0.0153876
652.561	0.0153940
652.639	0.0154491
652.717	0.0155560
652.795	0.0154511
652.873	0.0155654
652.951	0.0156282
653.030	0.0156813
653.108	0.0156442
653.186	0.0156335
653.264	0.0155624
653.342	0.0156182
653.420	0.0156902
653.498	0.0155724
653.576	0.0155120
653.655	0.0154939
653.733	0.0154757
653.811	0.0155111
653.889	0.0154449
653.967	0.0154453
654.045	0.0153500
654.123	0.0155002
654.201	0.0154554
654.280	0.0153010
654.358	0.0154075
654.436	0.0152758
654.514	0.0154061
654.592	0.0155225
654.670	0.0154201
654.748	0.0155200
654.826	0.0152997
654.905	0.0154426
654.983	0.0155563
655.061	0.0153648
655.139	0.0155077
655.217	0.0154584
655.295	0.0156149
655.373	0.0156355
655.451	0.0155437
655.530	0.0155630
655.608	0.0154881
655.686	0.0156934
655.764	0.0158765
655.842	0.0158179
655.920	0.0158363
655.998	0.0156454
656.076	0.0157447
656.155	0.0157149
656.233	0.0157435
656.311	0.0156734
656.389	0.0156228
656.467	0.0156295
656.545	0.0156080
656.623	0.0155994
656.701	0.0155248
656.780	0.0154092
656.858	0.0154637
656.936	0.0152881
657.014	0.0152071
657.092	0.0152775
657.170	0.0151948
657.248	0.0152758
657.326	0.0152807
657.405	0.0152325
657.483	0.0152435
657.561	0.0152965
657.639	0.0152804
657.717	0.0152747
657.795	0.0153613
657.873	0.0154301
657.951	0.0154150
658.030	0.0153916
658.108	0.0154607
658.186	0.0154791
658.264	0.0156915
658.342	0.0155364
658.420	0.0155083
658.498	0.0155495
658.576	0.0154738
658.655	0.0154922
658.733	0.0155527
658.811	0.0154992
658.889	0.0153663
658.967	0.0154645
659.045	0.0152736
659.123	0.0152619
659.201	0.0151601
659.280	0.0150253
659.358	0.0150882
659.436	0.0149479
659.514	0.0152074
659.592	0.0150409
659.670	0.0149647
659.748	0.0151196
659.826	0.0149683
659.905	0.0149909
659.983	0.0150963
660.061	0.0151497
660.139	0.0150968
660.217	0.0151979
660.295	0.0152921
660.373	0.0152617
660.451	0.0151897
660.530	0.0153974
660.608	0.0154508
660.686	0.0153916
660.764	0.0155734
660.842	0.0155529
660.920	0.0154218
660.998	0.0154410
661.076	0.0155619
661.155	0.0154770
661.233	0.0154475
661.311	0.0156010
661.389	0.0155942
661.467	0.0153676
661.545	0.0153883
661.623	0.0153484
661.701	0.0153453
661.780	0.0154121
661.858	0.0153722
661.936	0.0153385
662.014	0.0154078
662.092	0.0153733
662.170	0.0153344
662.248	0.0152815
662.326	0.0153892
662.405	0.0154449
662.483	0.0154517
662.561	0.0153367
662.639	0.0154161
662.717	0.0153539
662.795	0.0154523
662.873	0.0154530
662.951	0.0154629
663.030	0.0154796
663.108	0.0154046
663.186	0.0154684
663.264	0.0155328
663.342	0.0155627
663.420	0.0153270
663.498	0.0153705
663.576	0.0153998
663.655	0.0152345
663.733	0.0151781
663.811	0.0153266
663.889	0.0151849
663.967	0.0152193
664.045	0.0149812
664.123	0.0150948
664.201	0.0151671
664.280	0.0151118
664.358	0.0149361
664.436	0.0148862
664.514	0.0148933
664.592	0.0150665
664.670	0.0150410
664.748	0.0149693
664.826	0.0150997
664.905	0.0150950
664.983	0.0149868
665.061	0.0151639
665.139	0.0152534
665.217	0.0152785
665.295	0.0152624
665.373	0.0153674
665.451	0.0154092
665.530	0.0155772
665.608	0.0154781
665.686	0.0155875
665.764	0.0157001
665.842	0.0156374
665.920	0.0157036
665.998	0.0157194
666.076	0.0158344
666.155	0.0157803
666.233	0.0155876
666.311	0.0157161
666.389	0.0157838
666.467	0.0157587
666.545	0.0157759
666.623	0.0157434
666.701	0.0156584
666.780	0.0157600
666.858	0.0157089
666.936	0.0157071
667.014	0.0156559
667.092	0.0158102
667.170	0.0156469
667.248	0.0156218
667.326	0.0156413
667.405	0.0156303
667.483	0.0158008
667.561	0.0158069
667.639	0.0156264
667.717	0.0155470
667.795	0.0154745
667.873	0.0156612
667.951	0.0155968
668.030	0.0154704
668.108	0.0154668
668.186	0.0152928
668.264	0.0153651
668.342	0.0152343
668.420	0.0150919
668.498	0.0151211
668.576	0.0150052
668.655	0.0149982
668.733	0.0147498
668.811	0.0147184
668.889	0.0146375
668.967	0.0146058
669.045	0.0145435
669.123	0.0144582
669.201	0.0145446
669.280	0.0145721
669.358	0.0145722
669.436	0.0144508
669.514	0.0146789
669.592	0.0147397
669.670	0.0147087
669.748	0.0146732
669.826	0.0148499
669.905	0.0150517
669.983	0.0151694
670.061	0.0151858
670.139	0.0152641
670.217	0.0152985
670.295	0.0154799
670.373	0.0156101
670.451	0.0155540
670.530	0.0159017
670.608	0.0158244
670.686	0.0157626
670.764	0.0159140
670.842	0.0159559
670.920	0.0159285
670.998	0.0158464
671.076	0.0159116
671.155	0.0161814
671.233	0.0160472
671.311	0.0158933
671.389	0.0158430
671.467	0.0158781
671.545	0.0159222
671.623	0.0159338
671.701	0.0158523
671.780	0.0157327
671.858	0.0157112
671.936	0.0156968
672.014	0.0157282
672.092	0.0154312
672.170	0.0155039
672.248	0.0155826
672.326	0.0155235
672.405	0.0155137
672.483	0.0153143
672.561	0.0154459
672.639	0.0154733
672.717	0.0153513
672.795	0.0153987
672.873	0.0154568
672.951	0.0154169
673.030	0.0153426
673.108	0.0154370
673.186	0.0154365
673.264	0.0153659
673.342	0.0152809
673.420	0.0152653
673.498	0.0152736
673.576	0.0153033
673.655	0.0151882
673.733	0.0150597
673.811	0.0150282
673.889	0.0150008
673.967	0.0148044
674.045	0.0148947
674.123	0.0147568
674.201	0.0145638
674.280	0.0146346
674.358	0.0143765
674.436	0.0144759
674.514	0.0144064
674.592	0.0143929
674.670	0.0144554
674.748	0.0144708
674.826	0.0144382
674.905	0.0144888
674.983	0.0146889
675.061	0.0147452
675.139	0.0148683
675.217	0.0147497
675.295	0.0149629
675.373	0.0151177
675.451	0.0152943
675.530	0.0154044
675.608	0.0155779
675.686	0.0157326
675.764	0.0158600
675.842	0.0159353
675.920	0.0160506
675.998	0.0162766
676.076	0.0162322
676.155	0.0163573
676.233	0.0166512
676.311	0.0166047
676.389	0.0166881
676.467	0.0168193
676.545	0.0168299
676.623	0.0167677
676.701	0.0167670
676.780	0.0166698
676.858	0.0167010
676.936	0.0168011
677.014	0.0166705
677.092	0.0166021
677.170	0.0165144
677.248	0.0164696
677.326	0.0162805
677.405	0.0161469
677.483	0.0160172
677.561	0.0157898
677.639	0.0156764
677.717	0.0156499
677.795	0.0155416
677.873	0.0151856
677.951	0.0150619
678.030	0.0150140
678.108	0.0149120
678.186	0.0149000
678.264	0.0148201
678.342	0.0145149
678.420	0.0147304
678.498	0.0147787
678.576	0.0146637
678.655	0.0146902
678.733	0.0146654
678.811	0.0147082
678.889	0.0147826
678.967	0.0147513
679.045	0.0148053
679.123	0.0147842
679.201	0.0147886
679.280	0.0147715
679.358	0.0148962
679.436	0.0148727
679.514	0.0149755
679.592	0.0149689
679.670	0.0151420
679.748	0.0152310
679.826	0.0151991
679.905	0.0154558
679.983	0.0152794
680.061	0.0153656
680.139	0.0154318
680.217	0.0156578
680.295	0.0155865
680.373	0.0155626
680.451	0.0155383
680.530	0.0157677
680.608	0.0157125
680.686	0.0156621
680.764	0.0157217
680.842	0.0158534
680.920	0.0158288
680.998	0.0158113
681.076	0.0157456
681.155	0.0159281
681.233	0.0157772
681.311	0.0158257
681.389	0.0158058
681.467	0.0158570
681.545	0.0158496
681.623	0.0159061
681.701	0.0159892
681.780	0.0159074
681.858	0.0158130
681.936	0.0158836
682.014	0.0159187
682.092	0.0157902
682.170	0.0156195
682.248	0.0156051
682.326	0.0156991
682.405	0.0157646
682.483	0.0157024
682.561	0.0156891
682.639	0.0156885
682.717	0.0155684
682.795	0.0156327
682.873	0.0155962
682.951	0.0154591
683.030	0.0154250
683.108	0.0154803
683.186	0.0155084
683.264	0.0155478
683.342	0.0153813
683.420	0.0154466
683.498	0.0155141
683.576	0.0156726
683.655	0.0154463
683.733	0.0155392
683.811	0.0153398
683.889	0.0154737
683.967	0.0154550
684.045	0.0153177
684.123	0.0152512
684.201	0.0153593
684.280	0.0152768
684.358	0.0152081
684.436	0.0151769
684.514	0.0152882
684.592	0.0152317
684.670	0.0150950
684.748	0.0150983
684.826	0.0152431
684.905	0.0150531
684.983	0.0150764
685.061	0.0151951
685.139	0.0151051
685.217	0.0151463
685.295	0.0151523
685.373	0.0150007
685.451	0.0150636
685.530	0.0152143
685.608	0.0152555
685.686	0.0151940
685.764	0.0151080
685.842	0.0150890
685.920	0.0152934
685.998	0.0151022
686.076	0.0152634
686.155	0.0152270
686.233	0.0151212
686.311	0.0153412
686.389	0.0152453
686.467	0.0152685
686.545	0.0153598
686.623	0.0153166
686.701	0.0154810
686.780	0.0155531
686.858	0.0153818
686.936	0.0154526
687.014	0.0154620
687.092	0.0155946
687.170	0.0156314
687.248	0.0157292
687.326	0.0158235
687.405	0.0156467
687.483	0.0156556
687.561	0.0157098
687.639	0.0157090
687.717	0.0157127
687.795	0.0157442
687.873	0.0160075
687.951	0.0159839
688.030	0.0157395
688.108	0.0158093
688.186	0.0158723
688.264	0.0158134
688.342	0.0158992
688.420	0.0158225
688.498	0.0157960
688.576	0.0157943
688.655	0.0157590
688.733	0.0157569
688.811	0.0158161
688.889	0.0158038
688.967	0.0156181
689.045	0.0158208
689.123	0.0157906
689.201	0.0157872
689.280	0.0158119
689.358	0.0158478
689.436	0.0158228
689.514	0.0156269
689.592	0.0155454
689.670	0.0156743
689.748	0.0155814
689.826	0.0155159
689.905	0.0155424
689.983	0.0155017
690.061	0.0153259
690.139	0.0152837
690.217	0.0151812
690.295	0.0151671
690.373	0.0149819
690.451	0.0150721
690.530	0.0147958
690.608	0.0147576
690.686	0.0147932
690.764	0.0148083
690.842	0.0147272
690.920	0.0147122
690.998	0.0147657
691.076	0.0147678
691.155	0.0147515
691.233	0.0148517
691.311	0.0149295
691.389	0.0151324
691.467	0.0149615
691.545	0.0152337
691.623	0.0153715
691.701	0.0155727
691.780	0.0156660
691.858	0.0157211
691.936	0.0157517
692.014	0.0156560
692.092	0.0158406
692.170	0.0158195
692.248	0.0159245
692.326	0.0159126
692.405	0.0159013
692.483	0.0158141
692.561	0.0158104
692.639	0.0158432
692.717	0.0155751
692.795	0.0155977
692.873	0.0157581
692.951	0.0155891
693.030	0.0155224
693.108	0.0153851
693.186	0.0154652
693.264	0.0153967
693.342	0.0153363
693.420	0.0152753
693.498	0.0152542
693.576	0.0151678
693.655	0.0151140
693.733	0.0150697
693.811	0.0151218
693.889	0.0152497
693.967	0.0154279
694.045	0.0153466
694.123	0.0152731
694.201	0.0154476
694.280	0.0153889
694.358	0.0155042
694.436	0.0156215
694.514	0.0155863
694.592	0.0157140
694.670	0.0155721
694.748	0.0156112
694.826	0.0157610
694.905	0.0157729
694.983	0.0156834
695.061	0.0157345
695.139	0.0158037
695.217	0.0157546
695.295	0.0157944
695.373	0.0157833
695.451	0.0157103
695.530	0.0158820
695.608	0.0157472
695.686	0.0157761
695.764	0.0159600
695.842	0.0157773
695.920	0.0157578
695.998	0.0158259
696.076	0.0159778
696.155	0.0159498
696.233	0.0158646
696.311	0.0157697
696.389	0.0158765
696.467	0.0158533
696.545	0.0157497
696.623	0.0157826
696.701	0.0157846
696.780	0.0156741
696.858	0.0156593
696.936	0.0154298
697.014	0.0152590
697.092	0.0153303
697.170	0.0151798
697.248	0.0150393
697.326	0.0151645
697.405	0.0150526
697.483	0.0149488
697.561	0.0147812
697.639	0.0146832
697.717	0.0147034
697.795	0.0146120
697.873	0.0145319
697.951	0.0143956
698.030	0.0144922
698.108	0.0145625
698.186	0.0144028
698.264	0.0145574
698.342	0.0145469
698.420	0.0145889
698.498	0.0147076
698.576	0.0146610
698.655	0.0146368
698.733	0.0147984
698.811	0.0149551
698.889	0.0149252
698.967	0.0149397
699.045	0.0151163
699.123	0.0153198
699.201	0.0152214
699.280	0.0153392
699.358	0.0154851
699.436	0.0156162
699.514	0.0155158
699.592	0.0154166
699.670	0.0156784
699.748	0.0157327
699.826	0.0157132
699.905	0.0158839
699.983	0.0160619
700.061	0.0160001
700.139	0.0160281
700.217	0.0159657
700.295	0.0162682
700.373	0.0162791
700.451	0.0163105
700.530	0.0162863
700.608	0.0165703
700.686	0.0166982
700.764	0.0165280
700.842	0.0165208
700.920	0.0166640
700.998	0.0167504
701.076	0.0168791
701.155	0.0167530
701.233	0.0168048
701.311	0.0168494
701.389	0.0168879
701.467	0.0166157
701.545	0.0164626
701.623	0.0165616
701.701	0.0163390
701.780	0.0162997
701.858	0.0162056
701.936	0.0161372
702.014	0.0159513
702.092	0.0157175
702.170	0.0157096
702.248	0.0154648
702.326	0.0153809
702.405	0.0153236
702.483	0.0152031
702.561	0.0151634
702.639	0.0148376
702.717	0.0149576
702.795	0.0147923
702.873	0.0148646
702.951	0.0148508
703.030	0.0149086
703.108	0.0147393
703.186	0.0147588
703.264	0.0148536
703.342	0.0148653
703.420	0.0148888
703.498	0.0148360
703.576	0.0149397
703.655	0.0149660
703.733	0.0149145
703.811	0.0150242
703.889	0.0149916
703.967	0.0153791
704.045	0.0150353
704.123	0.0150989
704.201	0.0152464
704.280	0.0153684
704.358	0.0154283
704.436	0.0152981
704.514	0.0152905
704.592	0.0152112
704.670	0.0154677
704.748	0.0154480
704.826	0.0154113
704.905	0.0153806
704.983	0.0153772
705.061	0.0155379
705.139	0.0154626
705.217	0.0155547
705.295	0.0155684
705.373	0.0156289
705.451	0.0155141
705.530	0.0155911
705.608	0.0157745
705.686	0.0157289
705.764	0.0157990
705.842	0.0157449
705.920	0.0159192
705.998	0.0157902
706.076	0.0158161
706.155	0.0156441
706.233	0.0158131
706.311	0.0159944
706.389	0.0158507
706.467	0.0157841
706.545	0.0158520
706.623	0.0156953
706.701	0.0158138
706.780	0.0157136
706.858	0.0156745
706.936	0.0157731
707.014	0.0157347
707.092	0.0156344
707.170	0.0155827
707.248	0.0155862
707.326	0.0156573
707.405	0.0156668
707.483	0.0157159
707.561	0.0156279
707.639	0.0154780
707.717	0.0154388
707.795	0.0155096
707.873	0.0155285
707.951	0.0154844
708.030	0.0153584
708.108	0.0154564
708.186	0.0154034
708.264	0.0152735
708.342	0.0152331
708.420	0.0152768
708.498	0.0152824
708.576	0.0153808
708.655	0.0152053
708.733	0.0152026
708.811	0.0149891
708.889	0.0151502
708.967	0.0151759
709.045	0.0150814
709.123	0.0151242
709.201	0.0150123
709.280	0.0150936
709.358	0.0150915
709.436	0.0149930
709.514	0.0149432
709.592	0.0149677
709.670	0.0148526
709.748	0.0150520
709.826	0.0151019
709.905	0.0150024
709.983	0.0149868
710.061	0.0149313
710.139	0.0150056
710.217	0.0149483
710.295	0.0149850
710.373	0.0149420
710.451	0.0150091
710.530	0.0151564
710.608	0.0150774
710.686	0.0152332
710.764	0.0151920
710.842	0.0152271
710.920	0.0152318
710.998	0.0153881
711.076	0.0154051
711.155	0.0154253
711.233	0.0155648
711.311	0.0154220
711.389	0.0155836
711.467	0.0157470
711.545	0.0156572
711.623	0.0156702
711.701	0.0157363
711.780	0.0156252
711.858	0.0158535
711.936	0.0157925
712.014	0.0158136
712.092	0.0158969
712.170	0.0158593
712.248	0.0158462
712.326	0.0157561
712.405	0.0159645
712.483	0.0159219
712.561	0.0157954
712.639	0.0156893
712.717	0.0158309
712.795	0.0158327
712.873	0.0157038
712.951	0.0155912
713.030	0.0154743
713.108	0.0155939
713.186	0.0155399
713.264	0.0154094
713.342	0.0153938
713.420	0.0153504
713.498	0.0152779
713.576	0.0152728
713.655	0.0152388
713.733	0.0151356
713.811	0.0153174
713.889	0.0152959
713.967	0.0152843
714.045	0.0152670
714.123	0.0152888
714.201	0.0153885
714.280	0.0153516
714.358	0.0153423
714.436	0.0154907
714.514	0.0154725
714.592	0.0155403
714.670	0.0155511
714.748	0.0155704
714.826	0.0156417
714.905	0.0158123
714.983	0.0156763
715.061	0.0156201
715.139	0.0158588
715.217	0.0158526
715.295	0.0157784
715.373	0.0158111
715.451	0.0158429
715.530	0.0158509
715.608	0.0158668
715.686	0.0158215
715.764	0.0157616
715.842	0.0157230
715.920	0.0158012
715.998	0.0157171
716.076	0.0156434
716.155	0.0156646
716.233	0.0156048
716.311	0.0154763
716.389	0.0153876
716.467	0.0152602
716.545	0.0154138
716.623	0.0153893
716.701	0.0152103
716.780	0.0152416
716.858	0.0152000
716.936	0.0151702
717.014	0.0150694
717.092	0.0149361
717.170	0.0151010
717.248	0.0150929
717.326	0.0152493
717.405	0.0151072
717.483	0.0150905
717.561	0.0150784
717.639	0.0152180
717.717	0.0151943
717.795	0.0150864
717.873	0.0151703
717.951	0.0152583
718.030	0.0151766
718.108	0.0151821
718.186	0.0151324
718.264	0.0152277
718.342	0.0153978
718.420	0.0155404
718.498	0.0154496
718.576	0.0152399
718.655	0.0154083
718.733	0.0155920
718.811	0.0156907
718.889	0.0155961
718.967	0.0156496
719.045	0.0156767
719.123	0.0156994
719.201	0.0157306
719.280	0.0157073
719.358	0.0158414
719.436	0.0157703
719.514	0.0158617
719.592	0.0159148
719.670	0.0158393
719.748	0.0158941
719.826	0.0157983
719.905	0.0159193
719.983	0.0158421
720.061	0.0158004
720.139	0.0158616
720.217	0.0158461
720.295	0.0158060
720.373	0.0157720
720.451	0.0157645
720.530	0.0154890
720.608	0.0156149
720.686	0.0154726
720.764	0.0153550
720.842	0.0154678
720.920	0.0155100
720.998	0.0152976
721.076	0.0151279
721.155	0.0153337
721.233	0.0151875
721.311	0.0150266
721.389	0.0151585
721.467	0.0149537
721.545	0.0150479
721.623	0.0149366
721.701	0.0150237
721.780	0.0149529
721.858	0.0150475
721.936	0.0152582
722.014	0.0152660
722.092	0.0150584
722.170	0.0152462
722.248	0.0152443
722.326	0.0152654
722.405	0.0154562
722.483	0.0154500
722.561	0.0154305
722.639	0.0155505
722.717	0.0155998
722.795	0.0156433
722.873	0.0155994
722.951	0.0157150
723.030	0.0157912
723.108	0.0158495
723.186	0.0159021
723.264	0.0158727
723.342	0.0159325
723.420	0.0158817
723.498	0.0159691
723.576	0.0159323
723.655	0.0159663
723.733	0.0158330
723.811	0.0160392
723.889	0.0158908
723.967	0.0158846
724.045	0.0158447
724.123	0.0158421
724.201	0.0157776
724.280	0.0157524
724.358	0.0155534
724.436	0.0156538
724.514	0.0154356
724.592	0.0154633
724.670	0.0153270
724.748	0.0154546
724.826	0.0154545
724.905	0.0151385
724.983	0.0153273
725.061	0.0152932
725.139	0.0153593
725.217	0.0152803
725.295	0.0151030
725.373	0.0151776
725.451	0.0152889
725.530	0.0152221
725.608	0.0151588
725.686	0.0151004
725.764	0.0152509
725.842	0.0153329
725.920	0.0151934
725.998	0.0152775
726.076	0.0153327
726.155	0.0152929
726.233	0.0152653
726.311	0.0152872
726.389	0.0154590
726.467	0.0153014
726.545	0.0152865
726.623	0.0152495
726.701	0.0154391
726.780	0.0152795
726.858	0.0154682
726.936	0.0154068
727.014	0.0153904
727.092	0.0154176
727.170	0.0153592
727.248	0.0153437
727.326	0.0153747
727.405	0.0153622
727.483	0.0155521
727.561	0.0153644
727.639	0.0154634
727.717	0.0154737
727.795	0.0154710
727.873	0.0155141
727.951	0.0154199
728.030	0.0154465
728.108	0.0155133
728.186	0.0154391
728.264	0.0153587
728.342	0.0154934
728.420	0.0153345
728.498	0.0155569
728.576	0.0156155
728.655	0.0155456
728.733	0.0155566
728.811	0.0154975
728.889	0.0154488
728.967	0.0156258
729.045	0.0154948
729.123	0.0154884
729.201	0.0157025
729.280	0.0157571
729.358	0.0155814
729.436	0.0156512
729.514	0.0155102
729.592	0.0155708
729.670	0.0157363
729.748	0.0157258
729.826	0.0157501
729.905	0.0156324
729.983	0.0157315
730.061	0.0155827
730.139	0.0156703
730.217	0.0155939
730.295	0.0155842
730.373	0.0156261
730.451	0.0157767
730.530	0.0157319
730.608	0.0155279
730.686	0.0156068
730.764	0.0156509
730.842	0.0156172
730.920	0.0153820
730.998	0.0153553
731.076	0.0154121
731.155	0.0153683
731.233	0.0154138
731.311	0.0152841
731.389	0.0152608
731.467	0.0153506
731.545	0.0151955
731.623	0.0152497
731.701	0.0152724
731.780	0.0151530
731.858	0.0151823
731.936	0.0153238
732.014	0.0152632
732.092	0.0150197
732.170	0.0151563
732.248	0.0152396
732.326	0.0151698
732.405	0.0151763
732.483	0.0152018
732.561	0.0152834
732.639	0.0151449
732.717	0.0152399
732.795	0.0152325
732.873	0.0152056
732.951	0.0152817
733.030	0.0152481
733.108	0.0151205
733.186	0.0153154
733.264	0.0153980
733.342	0.0155247
733.420	0.0154462
733.498	0.0154747
733.576	0.0155141
733.655	0.0153949
733.733	0.0156190
733.811	0.0155094
733.889	0.0154700
733.967	0.0155656
734.045	0.0154450
734.123	0.0153871
734.201	0.0155023
734.280	0.0155694
734.358	0.0155518
734.436	0.0154374
734.514	0.0156773
734.592	0.0156898
734.670	0.0155887
734.748	0.0156050
734.826	0.0155674
734.905	0.0156411
734.983	0.0154689
735.061	0.0155401
735.139	0.0155723
735.217	0.0157329
735.295	0.0156384
735.373	0.0156238
735.451	0.0156125
735.530	0.0155271
735.608	0.0153806
735.686	0.0153095
735.764	0.0154451
735.842	0.0152314
735.920	0.0152934
735.998	0.0152883
736.076	0.0152217
736.155	0.0151278
736.233	0.0150974
736.311	0.0151740
736.389	0.0149023
736.467	0.0149545
736.545	0.0151323
736.623	0.0150331
736.701	0.0150615
736.780	0.0150389
736.858	0.0151585
736.936	0.0151575
737.014	0.0151971
737.092	0.0152661
737.170	0.0152507
737.248	0.0153210
737.326	0.0153563
737.405	0.0153130
737.483	0.0153548
737.561	0.0153558
737.639	0.0154137
737.717	0.0154976
737.795	0.0155430
737.873	0.0156522
737.951	0.0156346
738.030	0.0156144
738.108	0.0157792
738.186	0.0156644
738.264	0.0158555
738.342	0.0157076
738.420	0.0156959
738.498	0.0158447
738.576	0.0157750
738.655	0.0158457
738.733	0.0158174
738.811	0.0156773
738.889	0.0156903
738.967	0.0156298
739.045	0.0154760
739.123	0.0155567
739.201	0.0155933
739.280	0.0155583
739.358	0.0153895
739.436	0.0153496
739.514	0.0153244
739.592	0.0155081
739.670	0.0153665
739.748	0.0153769
739.826	0.0154553
739.905	0.0152973
739.983	0.0152765
740.061	0.0154151
740.139	0.0152542
740.217	0.0152176
740.295	0.0152322
740.373	0.0153884
740.451	0.0153827
740.530	0.0154301
740.608	0.0153094
740.686	0.0153736
740.764	0.0154192
740.842	0.0154149
740.920	0.0153819
740.998	0.0155559
741.076	0.0154316
741.155	0.0153993
741.233	0.0156707
741.311	0.0156599
741.389	0.0155803
741.467	0.0155521
741.545	0.0157200
741.623	0.0157461
741.701	0.0157072
741.780	0.0156158
741.858	0.0157477
741.936	0.0156168
742.014	0.0156455
742.092	0.0157819
742.170	0.0157666
742.248	0.0156821
742.326	0.0156208
742.405	0.0157454
742.483	0.0156795
742.561	0.0156741
742.639	0.0158743
742.717	0.0158559
742.795	0.0157030
742.873	0.0156559
742.951	0.0155872
743.030	0.0157526
743.108	0.0157450
743.186	0.0156923
743.264	0.0157025
743.342	0.0156857
743.420	0.0155840
743.498	0.0154819
743.576	0.0154971
743.655	0.0154540
743.733	0.0155165
743.811	0.0154555
743.889	0.0153652
743.967	0.0152316
744.045	0.0153612
744.123	0.0152845
744.201	0.0152789
744.280	0.0153123
744.358	0.0153249
744.436	0.0152567
744.514	0.0153378
744.592	0.0152028
744.670	0.0152759
744.748	0.0153455
744.826	0.0153324
744.905	0.0153774
744.983	0.0154117
745.061	0.0151867
745.139	0.0152254
745.217	0.0153015
745.295	0.0153548
745.373	0.0152928
745.451	0.0153349
745.530	0.0152241
745.608	0.0152222
745.686	0.0152498
745.764	0.0153360
745.842	0.0152841
745.920	0.0153812
745.998	0.0152525
746.076	0.0152011
746.155	0.0152795
746.233	0.0153706
746.311	0.0154453
746.389	0.0154246
746.467	0.0153283
746.545	0.0153288
746.623	0.0153613
746.701	0.0154131
746.780	0.0153149
746.858	0.0152390
746.936	0.0152856
747.014	0.0153079
747.092	0.0151382
747.170	0.0152234
747.248	0.0153329
747.326	0.0152269
747.405	0.0152115
747.483	0.0151235
747.561	0.0151963
747.639	0.0151877
747.717	0.0151024
747.795	0.0151057
747.873	0.0152586
747.951	0.0152376
748.030	0.0151421
748.108	0.0151814
748.186	0.0152640
748.264	0.0153657
748.342	0.0154082
748.420	0.0154135
748.498	0.0152680
748.576	0.0154147
748.655	0.0153481
748.733	0.0155534
748.811	0.0155260
748.889	0.0156344
748.967	0.0155642
749.045	0.0155740
749.123	0.0155643
749.201	0.0156813
749.280	0.0156297
749.358	0.0157292
749.436	0.0156712
749.514	0.0157433
749.592	0.0156205
749.670	0.0158219
749.748	0.0157826
749.826	0.0157629
749.905	0.0155937
749.983	0.0156334
750.061	0.0155683
750.139	0.0154730
750.217	0.0155360
750.295	0.0155145
750.373	0.0154987
750.451	0.0155537
750.530	0.0153086
750.608	0.0153693
750.686	0.0154057
750.764	0.0155017
750.842	0.0154585
750.920	0.0153953
750.998	0.0153875
751.076	0.0155066
751.155	0.0153516
751.233	0.0153722
751.311	0.0156608
751.389	0.0153548
751.467	0.0154767
751.545	0.0153672
751.623	0.0153658
751.701	0.0153723
751.780	0.0153656
751.858	0.0153533
751.936	0.0153547
752.014	0.0153024
752.092	0.0153971
752.170	0.0154876
752.248	0.0153642
752.326	0.0153685
752.405	0.0152837
752.483	0.0154747
752.561	0.0153257
752.639	0.0153994
752.717	0.0154595
752.795	0.0154293
752.873	0.0152203
752.951	0.0153093
753.030	0.0154327
753.108	0.0154245
753.186	0.0153089
753.264	0.0154317
753.342	0.0153618
753.420	0.0153576
753.498	0.0154211
753.576	0.0154238
753.655	0.0154357
753.733	0.0155143
753.811	0.0155602
753.889	0.0154346
753.967	0.0154452
754.045	0.0154836
754.123	0.0155108
754.201	0.0156755
754.280	0.0156993
754.358	0.0155127
754.436	0.0156741
754.514	0.0156415
754.592	0.0156502
754.670	0.0155244
754.748	0.0156396
754.826	0.0156205
754.905	0.0155912
754.983	0.0157060
755.061	0.0156290
755.139	0.0156469
755.217	0.0156762
755.295	0.0156542
755.373	0.0156905
755.451	0.0157151
755.530	0.0157183
755.608	0.0156379
755.686	0.0153696
755.764	0.0155727
755.842	0.0156319
755.920	0.0156006
755.998	0.0155446
756.076	0.0155521
756.155	0.0156022
756.233	0.0156130
756.311	0.0155550
756.389	0.0155776
756.467	0.0155329
756.545	0.0155583
756.623	0.0155242
756.701	0.0154021
756.780	0.0154882
756.858	0.0155169
756.936	0.0154872
757.014	0.0155248
757.092	0.0155368
757.170	0.0155087
757.248	0.0154851
757.326	0.0154294
757.405	0.0154527
757.483	0.0153426
757.561	0.0154829
757.639	0.0155154
757.717	0.0153766
757.795	0.0156178
757.873	0.0155761
757.951	0.0155795
758.030	0.0154871
758.108	0.0154461
758.186	0.0155944
758.264	0.0156100
758.342	0.0156562
758.420	0.0156264
758.498	0.0155676
758.576	0.0155475
758.655	0.0156768
758.733	0.0155467
758.811	0.0155645
758.889	0.0155759
758.967	0.0155840
759.045	0.0156648
759.123	0.0153562
759.201	0.0154076
759.280	0.0154791
759.358	0.0153761
759.436	0.0153553
759.514	0.0154107
759.592	0.0152122
759.670	0.0153278
759.748	0.0152854
759.826	0.0152804
759.905	0.0152667
759.983	0.0152098
760.061	0.0153031
760.139	0.0153278
760.217	0.0152646
760.295	0.0152029
760.373	0.0153333
760.451	0.0153333
760.530	0.0153566
760.608	0.0153381
760.686	0.0153460
760.764	0.0151788
760.842	0.0154694
760.920	0.0152834
760.998	0.0153708
761.076	0.0154927
761.155	0.0153947
761.233	0.0153363
761.311	0.0154498
761.389	0.0154491
761.467	0.0154267
761.545	0.0153589
761.623	0.0154857
761.701	0.0154295
761.780	0.0154144
761.858	0.0154734
761.936	0.0154565
762.014	0.0155027
762.092	0.0154888
762.170	0.0154568
762.248	0.0154945
762.326	0.0152666
762.405	0.0154777
762.483	0.0153716
762.561	0.0155161
762.639	0.0153172
762.717	0.0155370
762.795	0.0156176
762.873	0.0155679
762.951	0.0152937
763.030	0.0153900
763.108	0.0153604
763.186	0.0155171
763.264	0.0155351
763.342	0.0154694
763.420	0.0155339
763.498	0.0155477
763.576	0.0154645
763.655	0.0155736
763.733	0.0155582
763.811	0.0155288
763.889	0.0155320
763.967	0.0155731
764.045	0.0154940
764.123	0.0155238
764.201	0.0155481
764.280	0.0155350
764.358	0.0154472
764.436	0.0154218
764.514	0.0155220
764.592	0.0154262
764.670	0.0154251
764.748	0.0154522
764.826	0.0156199
764.905	0.0153981
764.983	0.0152370
765.061	0.0152286
765.139	0.0153262
765.217	0.0154018
765.295	0.0153260
765.373	0.0152146
765.451	0.0153062
765.530	0.0151879
765.608	0.0152721
765.686	0.0153548
765.764	0.0153354
765.842	0.0152468
765.920	0.0152229
765.998	0.0153780
766.076	0.0153124
766.155	0.0154480
766.233	0.0153769
766.311	0.0154363
766.389	0.0154477
766.467	0.0154169
766.545	0.0155022
766.623	0.0154825
766.701	0.0155514
766.780	0.0156248
766.858	0.0155206
766.936	0.0156709
767.014	0.0156424
767.092	0.0155875
767.170	0.0156195
767.248	0.0156165
767.326	0.0156672
767.405	0.0157811
767.483	0.0157085
767.561	0.0157047
767.639	0.0155922
767.717	0.0155647
767.795	0.0155936
767.873	0.0154996
767.951	0.0158087
768.030	0.0155183
768.108	0.0153948
768.186	0.0154864
768.264	0.0156704
768.342	0.0156413
768.420	0.0155544
768.498	0.0155704
768.576	0.0156262
768.655	0.0155179
768.733	0.0154710
768.811	0.0154902
768.889	0.0154372
768.967	0.0155123
769.045	0.0154176
769.123	0.0153730
769.201	0.0154381
769.280	0.0154425
769.358	0.0153330
769.436	0.0152533
769.514	0.0152235
769.592	0.0151653
769.670	0.0151771
769.748	0.0153439
769.826	0.0152035
769.905	0.0152666
769.983	0.0152828
770.061	0.0152087
770.139	0.0152224
770.217	0.0152561
770.295	0.0151212
770.373	0.0152969
770.451	0.0152769
770.530	0.0152235
770.608	0.0152270
770.686	0.0152518
770.764	0.0151142
770.842	0.0152116
770.920	0.0151520
770.998	0.0152040
771.076	0.0151714
771.155	0.0152528
771.233	0.0151321
771.311	0.0151634
771.389	0.0150009
771.467	0.0151793
771.545	0.0150584
771.623	0.0152808
771.701	0.0152084
771.780	0.0153182
771.858	0.0153358
771.936	0.0152172
772.014	0.0151827
772.092	0.0152992
772.170	0.0153236
772.248	0.0154447
772.326	0.0152917
772.405	0.0155334
772.483	0.0155832
772.561	0.0154440
772.639	0.0156049
772.717	0.0155890
772.795	0.0155428
772.873	0.0156281
772.951	0.0155908
773.030	0.0156195
773.108	0.0157765
773.186	0.0157615
773.264	0.0155304
773.342	0.0156020
773.420	0.0156554
773.498	0.0156456
773.576	0.0157507
773.655	0.0156827
773.733	0.0156908
773.811	0.0156261
773.889	0.0157738
773.967	0.0157344
774.045	0.0155902
774.123	0.0155002
774.201	0.0155801
774.280	0.0153566
774.358	0.0153525
774.436	0.0154945
774.514	0.0153329
774.592	0.0153606
774.670	0.0153712
774.748	0.0152031
774.826	0.0150838
774.905	0.0151814
774.983	0.0151846
775.061	0.0151994
775.139	0.0151796
775.217	0.0151537
775.295	0.0151544
775.373	0.0151269
775.451	0.0152495
775.530	0.0152190
775.608	0.0151749
775.686	0.0151429
775.764	0.0151775
775.842	0.0151560
775.920	0.0152537
775.998	0.0152555
776.076	0.0152158
776.155	0.0153001
776.233	0.0153581
776.311	0.0153959
776.389	0.0154279
776.467	0.0154050
776.545	0.0155091
776.623	0.0154591
776.701	0.0154607
776.780	0.0155174
776.858	0.0154738
776.936	0.0153886
777.014	0.0154207
777.092	0.0155022
777.170	0.0153915
777.248	0.0154755
777.326	0.0154393
777.405	0.0155830
777.483	0.0155321
777.561	0.0154760
777.639	0.0155184
777.717	0.0155267
777.795	0.0157936
777.873	0.0155972
777.951	0.0156901
778.030	0.0157038
778.108	0.0156970
778.186	0.0157262
778.264	0.0158650
778.342	0.0157776
778.420	0.0157346
778.498	0.0158561
778.576	0.0159240
778.655	0.0156868
778.733	0.0157830
778.811	0.0158694
778.889	0.0157852
778.967	0.0158179
779.045	0.0157595
779.123	0.0157796
779.201	0.0158643
779.280	0.0157004
779.358	0.0158007
779.436	0.0158813
779.514	0.0158299
779.592	0.0158000
779.670	0.0159305
779.748	0.0159164
779.826	0.0159587
779.905	0.0158169
779.983	0.0156432
780.061	0.0156360
780.139	0.0158711
780.217	0.0158913
780.295	0.0157054
780.373	0.0157662
780.451	0.0158416
780.530	0.0157806
780.608	0.0158183
780.686	0.0156321
780.764	0.0155295
780.842	0.0156639
780.920	0.0154916
780.998	0.0155527
781.076	0.0154184
781.155	0.0155287
781.233	0.0154245
781.311	0.0154467
781.389	0.0154807
781.467	0.0153658
781.545	0.0153678
781.623	0.0153740
781.701	0.0154279
781.780	0.0153591
781.858	0.0154758
781.936	0.0153316
782.014	0.0153264
782.092	0.0154733
782.170	0.0153407
782.248	0.0153916
782.326	0.0153954
782.405	0.0153799
782.483	0.0155122
782.561	0.0153679
782.639	0.0155161
782.717	0.0155117
782.795	0.0154733
782.873	0.0153754
782.951	0.0154823
783.030	0.0155501
783.108	0.0154800
783.186	0.0155614
783.264	0.0155399
783.342	0.0155811
783.420	0.0154938
783.498	0.0155659
783.576	0.0156496
783.655	0.0155627
783.733	0.0155997
783.811	0.0154663
783.889	0.0157442
783.967	0.0156943
784.045	0.0154539
784.123	0.0157983
784.201	0.0157457
784.280	0.0158080
784.358	0.0156565
784.436	0.0155753
784.514	0.0157621
784.592	0.0158309
784.670	0.0155923
784.748	0.0156799
784.826	0.0156020
784.905	0.0155753
784.983	0.0155526
785.061	0.0154382
785.139	0.0154913
785.217	0.0154450
785.295	0.0153814
785.373	0.0154659
785.451	0.0154447
785.530	0.0154096
785.608	0.0153569
785.686	0.0154634
785.764	0.0153248
785.842	0.0154083
785.920	0.0154552
785.998	0.0153555
786.076	0.0152299
786.155	0.0153464
786.233	0.0154585
786.311	0.0153186
786.389	0.0153179
786.467	0.0153754
786.545	0.0153699
786.623	0.0152701
786.701	0.0152232
786.780	0.0152060
786.858	0.0152916
786.936	0.0152071
787.014	0.0151910
787.092	0.0152013
787.170	0.0152211
787.248	0.0151658
787.326	0.0152292
787.405	0.0152265
787.483	0.0152758
787.561	0.0152847
787.639	0.0152134
787.717	0.0153062
787.795	0.0153488
787.873	0.0152309
787.951	0.0152503
788.030	0.0155372
788.108	0.0154675
788.186	0.0154298
788.264	0.0153857
788.342	0.0155402
788.420	0.0155397
788.498	0.0158160
788.576	0.0157348
788.655	0.0155454
788.733	0.0154754
788.811	0.0156203
788.889	0.0153702
788.967	0.0157009
789.045	0.0156401
789.123	0.0154459
789.201	0.0155290
789.280	0.0155299
789.358	0.0153413
789.436	0.0153745
789.514	0.0153620
789.592	0.0154372
789.670	0.0153637
789.748	0.0154242
789.826	0.0151201
789.905	0.0151981
789.983	0.0153689
790.061	0.0152592
790.139	0.0152596
790.217	0.0153525
790.295	0.0152434
790.373	0.0153143
790.451	0.0153325
790.530	0.0152454
790.608	0.0153558
790.686	0.0154501
790.764	0.0152535
790.842	0.0150928
790.920	0.0152957
790.998	0.0152743
791.076	0.0153565
791.155	0.0152715
791.233	0.0153947
791.311	0.0154107
791.389	0.0153978
791.467	0.0154385
791.545	0.0153566
791.623	0.0153171
791.701	0.0155193
791.780	0.0154882
791.858	0.0154832
791.936	0.0155278
792.014	0.0154579
792.092	0.0155638
792.170	0.0155542
792.248	0.0155011
792.326	0.0155254
792.405	0.0154736
792.483	0.0156086
792.561	0.0155939
792.639	0.0156181
792.717	0.0154735
792.795	0.0153651
792.873	0.0156261
792.951	0.0155474
793.030	0.0155488
793.108	0.0154286
793.186	0.0155409
793.264	0.0152825
793.342	0.0154285
793.420	0.0153522
793.498	0.0153131
793.576	0.0154758
793.655	0.0154244
793.733	0.0154180
793.811	0.0153431
793.889	0.0153991
793.967	0.0155341
794.045	0.0153534
794.123	0.0152506
794.201	0.0153822
794.280	0.0152705
794.358	0.0154961
794.436	0.0153569
794.514	0.0152960
794.592	0.0153757
794.670	0.0153674
794.748	0.0153674
794.826	0.0153934
794.905	0.0152212
794.983	0.0151698
795.061	0.0152670
795.139	0.0153472
795.217	0.0151567
795.295	0.0152457
795.373	0.0152628
795.451	0.0151764
795.530	0.0153488
795.608	0.0152789
795.686	0.0152471
795.764	0.0152385
795.842	0.0155243
795.920	0.0153322
795.998	0.0153402
796.076	0.0153936
796.155	0.0154368
796.233	0.0153796
796.311	0.0154365
796.389	0.0154917
796.467	0.0155478
796.545	0.0154157
796.623	0.0156097
796.701	0.0156358
796.780	0.0155247
796.858	0.0155931
796.936	0.0156580
797.014	0.0155357
797.092	0.0156767
797.170	0.0157207
797.248	0.0154865
797.326	0.0156487
797.405	0.0155658
797.483	0.0155659
797.561	0.0158131
797.639	0.0157223
797.717	0.0156071
797.795	0.0155182
797.873	0.0154908
797.951	0.0155351
798.030	0.0155578
798.108	0.0154877
798.186	0.0156496
798.264	0.0154948
798.342	0.0155416
798.420	0.0154521
798.498	0.0155820
798.576	0.0154193
798.655	0.0153938
798.733	0.0153895
798.811	0.0153280
798.889	0.0152945
798.967	0.0152617
799.045	0.0154118
799.123	0.0154533
799.201	0.0153740
799.280	0.0152602
799.358	0.0152612
799.436	0.0153058
799.514	0.0153189
799.592	0.0153964
799.670	0.0151894
799.748	0.0151977
799.826	0.0153161
799.905	0.0153606
799.983	0.0154092
800.061	0.0153466
800.139	0.0153973
800.217	0.0153504
800.295	0.0154455
800.373	0.0154715
800.451	0.0154491
800.530	0.0154310
800.608	0.0155606
800.686	0.0155614
800.764	0.0155707
800.842	0.0154783
800.920	0.0154754
800.998	0.0153567
801.076	0.0155198
801.155	0.0156247
801.233	0.0153716
801.311	0.0154062
801.389	0.0154403
801.467	0.0155167
801.545	0.0154177
801.623	0.0154225
801.701	0.0154173
801.780	0.0154169
801.858	0.0155483
801.936	0.0154494
802.014	0.0153353
802.092	0.0154508
802.170	0.0153728
802.248	0.0154697
802.326	0.0155470
802.405	0.0155634
802.483	0.0154718
802.561	0.0155994
802.639	0.0154873
802.717	0.0155015
802.795	0.0156091
802.873	0.0155809
802.951	0.0154073
803.030	0.0155268
803.108	0.0156349
803.186	0.0155109
803.264	0.0155346
803.342	0.0155550
803.420	0.0153780
803.498	0.0154683
803.576	0.0154327
803.655	0.0156179
803.733	0.0156261
803.811	0.0154462
803.889	0.0155253
803.967	0.0154925
804.045	0.0153502
804.123	0.0153960
804.201	0.0156204
804.280	0.0155180
804.358	0.0155125
804.436	0.0155771
804.514	0.0155806
804.592	0.0156285
804.670	0.0155179
804.748	0.0155199
804.826	0.0156441
804.905	0.0156736
804.983	0.0155073
805.061	0.0153921
805.139	0.0155123
805.217	0.0156093
805.295	0.0154638
805.373	0.0155058
805.451	0.0153783
805.530	0.0154478
805.608	0.0153703
805.686	0.0154328
805.764	0.0154541
805.842	0.0153541
805.920	0.0152499
805.998	0.0153655
806.076	0.0153440
806.155	0.0154420
806.233	0.0153149
806.311	0.0154510
806.389	0.0153568
806.467	0.0153101
806.545	0.0153571
806.623	0.0154024
806.701	0.0153710
806.780	0.0154089
806.858	0.0153918
806.936	0.0153493
807.014	0.0154055
807.092	0.0155585
807.170	0.0155879
807.248	0.0153998
807.326	0.0152403
807.405	0.0154441
807.483	0.0153715
807.561	0.0153833
807.639	0.0155411
807.717	0.0156024
807.795	0.0154942
807.873	0.0155803
807.951	0.0155997
808.030	0.0154950
808.108	0.0155734
808.186	0.0157198
808.264	0.0156807
808.342	0.0156621
808.420	0.0157043
808.498	0.0156779
808.576	0.0156178
808.655	0.0157693
808.733	0.0156870
808.811	0.0156293
808.889	0.0157841
808.967	0.0157457
809.045	0.0159409
809.123	0.0157881
809.201	0.0156821
809.280	0.0156917
809.358	0.0158868
809.436	0.0157319
809.514	0.0155933
809.592	0.0156119
809.670	0.0156024
809.748	0.0155151
809.826	0.0155247
809.905	0.0156040
809.983	0.0154282
810.061	0.0154445
810.139	0.0154929
810.217	0.0153806
810.295	0.0154617
810.373	0.0153419
810.451	0.0152741
810.530	0.0153668
810.608	0.0153595
810.686	0.0152943
810.764	0.0153703
810.842	0.0152222
810.920	0.0153103
810.998	0.0154731
811.076	0.0152194
811.155	0.0152480
811.233	0.0152524
811.311	0.0153219
811.389	0.0151963
811.467	0.0151554
811.545	0.0153799
811.623	0.0153547
811.701	0.0152955
811.780	0.0152839
811.858	0.0154253
811.936	0.0155168
812.014	0.0154189
812.092	0.0151975
812.170	0.0153008
812.248	0.0153558
812.326	0.0153846
812.405	0.0154517
812.483	0.0154373
812.561	0.0154485
812.639	0.0154606
812.717	0.0155340
812.795	0.0153712
812.873	0.0154726
812.951	0.0157185
813.030	0.0155225
813.108	0.0155293
813.186	0.0153223
813.264	0.0155771
813.342	0.0155272
813.420	0.0154627
813.498	0.0155743
813.576	0.0154407
813.655	0.0154894
813.733	0.0153950
813.811	0.0153053
813.889	0.0154415
813.967	0.0154742
814.045	0.0154395
814.123	0.0151794
814.201	0.0154739
814.280	0.0155205
814.358	0.0153156
814.436	0.0154536
814.514	0.0153864
814.592	0.0152884
814.670	0.0154108
814.748	0.0152839
814.826	0.0152425
814.905	0.0153369
814.983	0.0153484
815.061	0.0153479
815.139	0.0154140
815.217	0.0153967
815.295	0.0153867
815.373	0.0153782
815.451	0.0154572
815.530	0.0153568
815.608	0.0153600
815.686	0.0154756
815.764	0.0154730
815.842	0.0155135
815.920	0.0154919
815.998	0.0156020
816.076	0.0154467
816.155	0.0154391
816.233	0.0155100
816.311	0.0155913
816.389	0.0155281
816.467	0.0155604
816.545	0.0155910
816.623	0.0154734
816.701	0.0154276
816.780	0.0154605
816.858	0.0155734
816.936	0.0154839
817.014	0.0156264
817.092	0.0154810
817.170	0.0154730
817.248	0.0156150
817.326	0.0154201
817.405	0.0154988
817.483	0.0155324
817.561	0.0155867
817.639	0.0154269
817.717	0.0153537
817.795	0.0153957
817.873	0.0153735
817.951	0.0154111
818.030	0.0153599
818.108	0.0153455
818.186	0.0153555
818.264	0.0153889
818.342	0.0155060
818.420	0.0153790
818.498	0.0154520
818.576	0.0153707
818.655	0.0153027
818.733	0.0153372
818.811	0.0153922
818.889	0.0153331
818.967	0.0154217
819.045	0.0153683
819.123	0.0154359
819.201	0.0154146
819.280	0.0154240
819.358	0.0155409
819.436	0.0155817
819.514	0.0155995
819.592	0.0153472
819.670	0.0155227
819.748	0.0155672
819.826	0.0156425
819.905	0.0156178
819.983	0.0156127
820.061	0.0155812
820.139	0.0156369
820.217	0.0154676
820.295	0.0156393
820.373	0.0156820
820.451	0.0155882
820.530	0.0156270
820.608	0.0155783
820.686	0.0155930
820.764	0.0155280
820.842	0.0156718
820.920	0.0155635
820.998	0.0154613
821.076	0.0156544
821.155	0.0157272
821.233	0.0157331
821.311	0.0155823
821.389	0.0156887
821.467	0.0156068
821.545	0.0156275
821.623	0.0155673
821.701	0.0156598
821.780	0.0155345
821.858	0.0155949
821.936	0.0155556
822.014	0.0155021
822.092	0.0154803
822.170	0.0154354
822.248	0.0154001
822.326	0.0154523
822.405	0.0155060
822.483	0.0154312
822.561	0.0153793
822.639	0.0155090
822.717	0.0153366
822.795	0.0153796
822.873	0.0154028
822.951	0.0153998
823.030	0.0153958
823.108	0.0152866
823.186	0.0154196
823.264	0.0153784
823.342	0.0152164
823.420	0.0152405
823.498	0.0154223
823.576	0.0155146
823.655	0.0154585
823.733	0.0152020
823.811	0.0153728
823.889	0.0152930
823.967	0.0154035
824.045	0.0154066
824.123	0.0154182
824.201	0.0154600
824.280	0.0154173
824.358	0.0153380
824.436	0.0152263
824.514	0.0155244
824.592	0.0154853
824.670	0.0154659
824.748	0.0155070
824.826	0.0154803
824.905	0.0156413
824.983	0.0154391
825.061	0.0154930
825.139	0.0154402
825.217	0.0154392
825.295	0.0155817
825.373	0.0155576
825.451	0.0154496
825.530	0.0155676
825.608	0.0154346
825.686	0.0155153
825.764	0.0155693
825.842	0.0155038
825.920	0.0153543
825.998	0.0154163
826.076	0.0153693
826.155	0.0152962
826.233	0.0154933
826.311	0.0153249
826.389	0.0153593
826.467	0.0155109
826.545	0.0153579
826.623	0.0152587
826.701	0.0153669
826.780	0.0152583
826.858	0.0153127
826.936	0.0153723
827.014	0.0152823
827.092	0.0153860
827.170	0.0152731
827.248	0.0153588
827.326	0.0154506
827.405	0.0151958
827.483	0.0154848
827.561	0.0153999
827.639	0.0153419
827.717	0.0154205
827.795	0.0154627
827.873	0.0154441
827.951	0.0155411
828.030	0.0154594
828.108	0.0154705
828.186	0.0154644
828.264	0.0153217
828.342	0.0152794
828.420	0.0154408
828.498	0.0153902
828.576	0.0153292
828.655	0.0153431
828.733	0.0154790
828.811	0.0154338
828.889	0.0154110
828.967	0.0155029
829.045	0.0154858
829.123	0.0153147
829.201	0.0154713
829.280	0.0153186
829.358	0.0153791
829.436	0.0154796
829.514	0.0153470
829.592	0.0154256
829.670	0.0153484
829.748	0.0153402
829.826	0.0153376
829.905	0.0152483
829.983	0.0153457
830.061	0.0153917
830.139	0.0153244
830.217	0.0153805
830.295	0.0155040
830.373	0.0153778
830.451	0.0154301
830.530	0.0155302
830.608	0.0155161
830.686	0.0153806
830.764	0.0156373
830.842	0.0154504
830.920	0.0155557
830.998	0.0156847
831.076	0.0155202
831.155	0.0155417
831.233	0.0155069
831.311	0.0156339
831.389	0.0156639
831.467	0.0156187
831.545	0.0156120
831.623	0.0155766
831.701	0.0156050
831.780	0.0156108
831.858	0.0155943
831.936	0.0156010
832.014	0.0154610
832.092	0.0157361
832.170	0.0155766
832.248	0.0155154
832.326	0.0154995
832.405	0.0154327
832.483	0.0155239
832.561	0.0156341
832.639	0.0155553
832.717	0.0155358
832.795	0.0155289
832.873	0.0153851
832.951	0.0155373
833.030	0.0154421
833.108	0.0154333
833.186	0.0155322
833.264	0.0154268
833.342	0.0155234
833.420	0.0155943
833.498	0.0155306
833.576	0.0156005
833.655	0.0154694
833.733	0.0156224
833.811	0.0154406
833.889	0.0155025
833.967	0.0154530
834.045	0.0156197
834.123	0.0155422
834.201	0.0154696
834.280	0.0154037
834.358	0.0155209
834.436	0.0155065
834.514	0.0157061
834.592	0.0156081
834.670	0.0156892
834.748	0.0155658
834.826	0.0155416
834.905	0.0157296
834.983	0.0156255
835.061	0.0155168
835.139	0.0155769
835.217	0.0155495
835.295	0.0155788
835.373	0.0156183
835.451	0.0155862
835.530	0.0155585
835.608	0.0156418
835.686	0.0156900
835.764	0.0156345
835.842	0.0155205
835.920	0.0157430
835.998	0.0157412
836.076	0.0155594
836.155	0.0156247
836.233	0.0155785
836.311	0.0154932
836.389	0.0155401
836.467	0.0156519
836.545	0.0155375
836.623	0.0156161
836.701	0.0156924
836.780	0.0155565
836.858	0.0156166
836.936	0.0156773
837.014	0.0156808
837.092	0.0154662
837.170	0.0154850
837.248	0.0155316
837.326	0.0156847
837.405	0.0156536
837.483	0.0155332
837.561	0.0155701
837.639	0.0155314
837.717	0.0154897
837.795	0.0156139
837.873	0.0155699
837.951	0.0154727
838.030	0.0155019
838.108	0.0154404
838.186	0.0155407
838.264	0.0155191
838.342	0.0153751
838.420	0.0153763
838.498	0.0154141
838.576	0.0154452
838.655	0.0154807
838.733	0.0154142
838.811	0.0153549
838.889	0.0153095
838.967	0.0154473
839.045	0.0155302
839.123	0.0153916
839.201	0.0153756
839.280	0.0153294
839.358	0.0154200
839.436	0.0155784
839.514	0.0154440
839.592	0.0154126
839.670	0.0154309
839.748	0.0154848
839.826	0.0154981
839.905	0.0154461
839.983	0.0155074
840.061	0.0154015
840.139	0.0155285
840.217	0.0155318
840.295	0.0155518
840.373	0.0154836
840.451	0.0155724
840.530	0.0155920
840.608	0.0155566
840.686	0.0154868
840.764	0.0156355
840.842	0.0155328
840.920	0.0155208
840.998	0.0155447
841.076	0.0155265
841.155	0.0155233
841.233	0.0155585
841.311	0.0154335
841.389	0.0155362
841.467	0.0155850
841.545	0.0154415
841.623	0.0154824
841.701	0.0154451
841.780	0.0154760
841.858	0.0154272
841.936	0.0154176
842.014	0.0156252
842.092	0.0154748
842.170	0.0155818
842.248	0.0155678
842.326	0.0155086
842.405	0.0154653
842.483	0.0155323
842.561	0.0154618
842.639	0.0154044
842.717	0.0155599
842.795	0.0153009
842.873	0.0153946
842.951	0.0154522
843.030	0.0156370
843.108	0.0155499
843.186	0.0153685
843.264	0.0155765
843.342	0.0155361
843.420	0.0153919
843.498	0.0154380
843.576	0.0155075
843.655	0.0154134
843.733	0.0154477
843.811	0.0153975
843.889	0.0155129
843.967	0.0154527
844.045	0.0156729
844.123	0.0155869
844.201	0.0153967
844.280	0.0154887
844.358	0.0155522
844.436	0.0155530
844.514	0.0154801
844.592	0.0155328
844.670	0.0153890
844.748	0.0155015
844.826	0.0155778
844.905	0.0154642
844.983	0.0155183
845.061	0.0155151
845.139	0.0154891
845.217	0.0155451
845.295	0.0155908
845.373	0.0154988
845.451	0.0155585
845.530	0.0154515
845.608	0.0154560
845.686	0.0155383
845.764	0.0155827
845.842	0.0153761
845.920	0.0154695
845.998	0.0155172
846.076	0.0155156
846.155	0.0155301
846.233	0.0155537
846.311	0.0153996
846.389	0.0154166
846.467	0.0153798
846.545	0.0154174
846.623	0.0155130
846.701	0.0154880
846.780	0.0154522
846.858	0.0155017
846.936	0.0155511
847.014	0.0155827
847.092	0.0155818
847.170	0.0154018
847.248	0.0155006
847.326	0.0155521
847.405	0.0156136
847.483	0.0155090
847.561	0.0154160
847.639	0.0154837
847.717	0.0154843
847.795	0.0154305
847.873	0.0153912
847.951	0.0155038
848.030	0.0153548
848.108	0.0153046
848.186	0.0153794
848.264	0.0154409
848.342	0.0154977
848.420	0.0155260
848.498	0.0153349
848.576	0.0154063
848.655	0.0154757
848.733	0.0154793
848.811	0.0153075
848.889	0.0154071
848.967	0.0154214
849.045	0.0152717
849.123	0.0153525
849.201	0.0155211
849.280	0.0155869
849.358	0.0154005
849.436	0.0155370
849.514	0.0153233
849.592	0.0155504
849.670	0.0154620
849.748	0.0154030
849.826	0.0154146
849.905	0.0154128
849.983	0.0154950
850.061	0.0153867
850.139	0.0153563
850.217	0.0155587
850.295	0.0155320
850.373	0.0156188
850.451	0.0154723
850.530	0.0154478
850.608	0.0154025
850.686	0.0155135
850.764	0.0154646
850.842	0.0154503
850.920	0.0153876
850.998	0.0154420
851.076	0.0155161
851.155	0.0154384
851.233	0.0154061
851.311	0.0155131
851.389	0.0153693
851.467	0.0154282
851.545	0.0156082
851.623	0.0155149
851.701	0.0153721
851.780	0.0155949
851.858	0.0155061
851.936	0.0154266
852.014	0.0155904
852.092	0.0155545
852.170	0.0154160
852.248	0.0154237
852.326	0.0155315
852.405	0.0154641
852.483	0.0154590
852.561	0.0155405
852.639	0.0155682
852.717	0.0155034
852.795	0.0154295
852.873	0.0154535
852.951	0.0154630
853.030	0.0155269
853.108	0.0154916
853.186	0.0154374
853.264	0.0155164
853.342	0.0153396
853.420	0.0153609
853.498	0.0154631
853.576	0.0154213
853.655	0.0154931
853.733	0.0155062
853.811	0.0154681
853.889	0.0155994
853.967	0.0153908
854.045	0.0154423
854.123	0.0153970
854.201	0.0154057
854.280	0.0153924
854.358	0.0153519
854.436	0.0153770
854.514	0.0154498
854.592	0.0155072
854.670	0.0153555
854.748	0.0152738
854.826	0.0154498
854.905	0.0155110
854.983	0.0154678
855.061	0.0154949
855.139	0.0155081
855.217	0.0155022
855.295	0.0154827
855.373	0.0153152
855.451	0.0156255
855.530	0.0155586
855.608	0.0155093
855.686	0.0155618
855.764	0.0156065
855.842	0.0154928
855.920	0.0155060
855.998	0.0154126
856.076	0.0155463
856.155	0.0155159
856.233	0.0155165
856.311	0.0155569
856.389	0.0154826
856.467	0.0155417
856.545	0.0155772
856.623	0.0156087
856.701	0.0155754
856.780	0.0155624
856.858	0.0154680
856.936	0.0155127
857.014	0.0154153
857.092	0.0154453
857.170	0.0155816
857.248	0.0155380
857.326	0.0154166
857.405	0.0154832
857.483	0.0154550
857.561	0.0155189
857.639	0.0154508
857.717	0.0153526
857.795	0.0155299
857.873	0.0154980
857.951	0.0155820
858.030	0.0154880
858.108	0.0156585
858.186	0.0154744
858.264	0.0155811
858.342	0.0153899
858.420	0.0153300
858.498	0.0155154
858.576	0.0154050
858.655	0.0154881
858.733	0.0155012
858.811	0.0155815
858.889	0.0154770
858.967	0.0153002
859.045	0.0154604
859.123	0.0154197
859.201	0.0153378
859.280	0.0154353
859.358	0.0154578
859.436	0.0153639
859.514	0.0153162
859.592	0.0153648
859.670	0.0153916
859.748	0.0153783
859.826	0.0153082
859.905	0.0153622
859.983	0.0154011
860.061	0.0153671
860.139	0.0155676
860.217	0.0153041
860.295	0.0153115
860.373	0.0152183
860.451	0.0154482
860.530	0.0153428
860.608	0.0153696
860.686	0.0152901
860.764	0.0153074
860.842	0.0153410
860.920	0.0152700
860.998	0.0153729
861.076	0.0153267
861.155	0.0154722
861.233	0.0155585
861.311	0.0154836
861.389	0.0154246
861.467	0.0153479
861.545	0.0153570
861.623	0.0155174
861.701	0.0154544
861.780	0.0153939
861.858	0.0153773
861.936	0.0153783
862.014	0.0154568
862.092	0.0155634
862.170	0.0154928
862.248	0.0153697
862.326	0.0154549
862.405	0.0154958
862.483	0.0154637
862.561	0.0154826
862.639	0.0154149
862.717	0.0154097
862.795	0.0155002
862.873	0.0154145
862.951	0.0154533
863.030	0.0156544
863.108	0.0153701
863.186	0.0153864
863.264	0.0155536
863.342	0.0154443
863.420	0.0153698
863.498	0.0153513
863.576	0.0155361
863.655	0.0155235
863.733	0.0156010
863.811	0.0154404
863.889	0.0155930
863.967	0.0155537
864.045	0.0154823
864.123	0.0153773
864.201	0.0155817
864.280	0.0156367
864.358	0.0155824
864.436	0.0154916
864.514	0.0155685
864.592	0.0154691
864.670	0.0155711
864.748	0.0156403
864.826	0.0154431
864.905	0.0155952
864.983	0.0155960
865.061	0.0155828
865.139	0.0155386
865.217	0.0156891
865.295	0.0156493
865.373	0.0155293
865.451	0.0156747
865.530	0.0154778
865.608	0.0155074
865.686	0.0154136
865.764	0.0154952
865.842	0.0154705
865.920	0.0155370
865.998	0.0154968
866.076	0.0153816
866.155	0.0155170
866.233	0.0155514
866.311	0.0154877
866.389	0.0154058
866.467	0.0154377
866.545	0.0155305
866.623	0.0155301
866.701	0.0154842
866.780	0.0156255
866.858	0.0154974
866.936	0.0155621
867.014	0.0155431
867.092	0.0155903
867.170	0.0155917
867.248	0.0156870
867.326	0.0155796
867.405	0.0154932
867.483	0.0155056
867.561	0.0156712
867.639	0.0157265
867.717	0.0155604
867.795	0.0156551
867.873	0.0156755
867.951	0.0155753
868.030	0.0154572
868.108	0.0156114
868.186	0.0155527
868.264	0.0156106
868.342	0.0154652
868.420	0.0154929
868.498	0.0154867
868.576	0.0153985
868.655	0.0154220
868.733	0.0154798
868.811	0.0155174
868.889	0.0154346
868.967	0.0154366
869.045	0.0153860
869.123	0.0152271
869.201	0.0153452
869.280	0.0153487
869.358	0.0153597
869.436	0.0154036
869.514	0.0154013
869.592	0.0153406
869.670	0.0154562
869.748	0.0153659
869.826	0.0153270
869.905	0.0154227
869.983	0.0154744
870.061	0.0152989
870.139	0.0152735
870.217	0.0154311
870.295	0.0155546
870.373	0.0154056
870.451	0.0152950
870.530	0.0153553
870.608	0.0154287
870.686	0.0153418
870.764	0.0154084
870.842	0.0155579
870.920	0.0153733
870.998	0.0154594
871.076	0.0153149
871.155	0.0153385
871.233	0.0153719
871.311	0.0154395
871.389	0.0153614
871.467	0.0154649
871.545	0.0155759
871.623	0.0153320
871.701	0.0154417
871.780	0.0153728
871.858	0.0154052
871.936	0.0154911
872.014	0.0155987
872.092	0.0156238
872.170	0.0155335
872.248	0.0154919
872.326	0.0155986
872.405	0.0157115
872.483	0.0155306
872.561	0.0155423
872.639	0.0156431
872.717	0.0154881
872.795	0.0155540
872.873	0.0154954
872.951	0.0156236
873.030	0.0155537
873.108	0.0155584
873.186	0.0154582
873.264	0.0157070
873.342	0.0155530
873.420	0.0155446
873.498	0.0156403
873.576	0.0155485
873.655	0.0156051
873.733	0.0155663
873.811	0.0156248
873.889	0.0154604
873.967	0.0155164
874.045	0.0153693
874.123	0.0154642
874.201	0.0154030
874.280	0.0155975
874.358	0.0156236
874.436	0.0155111
874.514	0.0154448
874.592	0.0153165
874.670	0.0154311
874.748	0.0154990
874.826	0.0154793
874.905	0.0153689
874.983	0.0153804
875.061	0.0152681
875.139	0.0154655
875.217	0.0154375
875.295	0.0153795
875.373	0.0153441
875.451	0.0153017
875.530	0.0153712
875.608	0.0154090
875.686	0.0152387
875.764	0.0153172
875.842	0.0153174
875.920	0.0155031
875.998	0.0153159
876.076	0.0154942
876.155	0.0153992
876.233	0.0154879
876.311	0.0155915
876.389	0.0155348
876.467	0.0155099
876.545	0.0153780
876.623	0.0155841
876.701	0.0155216
876.780	0.0155422
876.858	0.0156115
876.936	0.0155489
877.014	0.0154488
877.092	0.0155177
877.170	0.0155421
877.248	0.0155224
877.326	0.0154919
877.405	0.0155353
877.483	0.0155716
877.561	0.0156175
877.639	0.0154140
877.717	0.0155360
877.795	0.0155584
877.873	0.0153596
877.951	0.0154477
878.030	0.0155569
878.108	0.0156870
878.186	0.0155919
878.264	0.0154066
878.342	0.0154910
878.420	0.0155550
878.498	0.0155945
878.576	0.0154416
878.655	0.0154648
878.733	0.0156630
878.811	0.0153498
878.889	0.0154810
878.967	0.0154360
879.045	0.0155448
879.123	0.0154717
879.201	0.0154185
879.280	0.0154070
879.358	0.0155001
879.436	0.0155312
879.514	0.0155470
879.592	0.0154687
879.670	0.0154019
879.748	0.0155144
879.826	0.0155499
879.905	0.0155286
879.983	0.0154686
880.061	0.0154219
880.139	0.0153848
880.217	0.0155262
880.295	0.0153951
880.373	0.0154344
880.451	0.0155048
880.530	0.0154591
880.608	0.0155428
880.686	0.0155019
880.764	0.0155236
880.842	0.0155215
880.920	0.0156246
880.998	0.0155801
881.076	0.0154772
881.155	0.0156001
881.233	0.0153916
881.311	0.0154226
881.389	0.0154918
881.467	0.0154951
881.545	0.0155251
881.623	0.0155307
881.701	0.0156125
881.780	0.0155061
881.858	0.0154906
881.936	0.0155002
882.014	0.0155219
882.092	0.0154420
882.170	0.0153786
882.248	0.0155911
882.326	0.0157484
882.405	0.0155068
882.483	0.0153858
882.561	0.0156551
882.639	0.0154794
882.717	0.0154781
882.795	0.0155683
882.873	0.0155223
882.951	0.0155430
883.030	0.0155931
883.108	0.0155730
883.186	0.0155881
883.264	0.0155812
883.342	0.0155471
883.420	0.0154996
883.498	0.0154837
883.576	0.0155016
883.655	0.0155910
883.733	0.0153531
883.811	0.0154720
883.889	0.0155545
883.967	0.0152883
884.045	0.0154562
884.123	0.0154921
884.201	0.0153938
884.280	0.0155264
884.358	0.0154194
884.436	0.0153349
884.514	0.0154215
884.592	0.0153999
884.670	0.0153259
884.748	0.0152358
884.826	0.0152328
884.905	0.0152544
884.983	0.0153445
885.061	0.0152696
885.139	0.0152100
885.217	0.0153085
885.295	0.0152368
885.373	0.0153545
885.451	0.0154268
885.530	0.0153488
885.608	0.0154749
885.686	0.0153493
885.764	0.0154684
885.842	0.0153741
885.920	0.0155092
885.998	0.0154281
886.076	0.0154892
886.155	0.0154946
886.233	0.0153384
886.311	0.0154729
886.389	0.0153845
886.467	0.0152499
886.545	0.0153539
886.623	0.0154237
886.701	0.0153017
886.780	0.0154346
886.858	0.0154453
886.936	0.0153996
887.014	0.0154153
887.092	0.0154374
887.170	0.0154578
887.248	0.0155182
887.326	0.0154781
887.405	0.0154323
887.483	0.0154201
887.561	0.0155512
887.639	0.0155077
887.717	0.0154060
887.795	0.0155212
887.873	0.0154375
887.951	0.0154629
888.030	0.0153283
888.108	0.0155386
888.186	0.0155341
888.264	0.0154538
888.342	0.0154968
888.420	0.0154381
888.498	0.0154559
888.576	0.0154324
888.655	0.0154968
888.733	0.0155293
888.811	0.0154032
888.889	0.0153700
888.967	0.0153644
889.045	0.0153283
889.123	0.0154253
889.201	0.0154639
889.280	0.0154816
889.358	0.0153695
889.436	0.0156049
889.514	0.0153970
889.592	0.0153328
889.670	0.0154625
889.748	0.0153685
889.826	0.0153883
889.905	0.0155523
889.983	0.0153555
890.061	0.0154092
890.139	0.0154279
890.217	0.0154152
890.295	0.0154988
890.373	0.0153513
890.451	0.0153991
890.530	0.0154349
890.608	0.0154973
890.686	0.0154149
890.764	0.0153670
890.842	0.0153392
890.920	0.0153226
890.998	0.0152840
891.076	0.0153262
891.155	0.0152964
891.233	0.0154048
891.311	0.0152423
891.389	0.0154130
891.467	0.0154340
891.545	0.0153338
891.623	0.0152641
891.701	0.0154159
891.780	0.0152855
891.858	0.0154153
891.936	0.0154044
892.014	0.0152776
892.092	0.0153777
892.170	0.0153595
892.248	0.0155355
892.326	0.0154692
892.405	0.0154063
892.483	0.0155368
892.561	0.0153751
892.639	0.0154182
892.717	0.0153158
892.795	0.0153723
892.873	0.0154490
892.951	0.0154356
893.030	0.0154502
893.108	0.0154385
893.186	0.0154379
893.264	0.0154852
893.342	0.0153664
893.420	0.0154472
893.498	0.0154427
893.576	0.0154402
893.655	0.0154177
893.733	0.0154040
893.811	0.0153804
893.889	0.0153239
893.967	0.0154270
894.045	0.0154558
894.123	0.0153587
894.201	0.0152130
894.280	0.0154572
894.358	0.0155030
894.436	0.0154811
894.514	0.0155479
894.592	0.0154710
894.670	0.0155195
894.748	0.0154704
894.826	0.0154924
894.905	0.0154385
894.983	0.0154258
895.061	0.0155960
895.139	0.0155834
895.217	0.0155885
895.295	0.0154578
895.373	0.0156610
895.451	0.0156257
895.530	0.0155962
895.608	0.0155827
895.686	0.0155039
895.764	0.0154976
895.842	0.0155663
895.920	0.0155087
895.998	0.0155670
896.076	0.0155456
896.155	0.0156361
896.233	0.0154923
896.311	0.0155056
896.389	0.0154729
896.467	0.0155811
896.545	0.0154581
896.623	0.0156031
896.701	0.0155862
896.780	0.0155850
896.858	0.0155084
896.936	0.0154807
897.014	0.0156001
897.092	0.0156021
897.170	0.0154975
897.248	0.0155262
897.326	0.0154486
897.405	0.0152431
897.483	0.0154335
897.561	0.0155393
897.639	0.0154232
897.717	0.0154362
897.795	0.0154005
897.873	0.0154457
897.951	0.0154689
898.030	0.0155438
898.108	0.0152914
898.186	0.0154652
898.264	0.0154852
898.342	0.0154662
898.420	0.0154398
898.498	0.0154914
898.576	0.0155174
898.655	0.0153590
898.733	0.0154648
898.811	0.0154298
898.889	0.0154744
898.967	0.0153689
899.045	0.0153944
899.123	0.0153490
899.201	0.0153796
899.280	0.0153673
899.358	0.0153850
899.436	0.0153318
899.514	0.0152567
899.592	0.0153162
899.670	0.0153384
899.748	0.0152631
899.826	0.0153382
899.905	0.0152407
899.983	0.0152678
900.061	0.0152310
900.139	0.0153309
900.217	0.0153674
900.295	0.0154221
900.373	0.0152573
900.451	0.0154120
900.530	0.0153881
900.608	0.0152859
900.686	0.0153748
900.764	0.0153661
900.842	0.0154862
900.920	0.0154625
900.998	0.0153706
901.076	0.0153945
901.155	0.0153822
901.233	0.0153645
901.311	0.0153830
901.389	0.0153129
901.467	0.0153969
901.545	0.0154501
901.623	0.0153567
901.701	0.0153347
901.780	0.0153879
901.858	0.0152885
901.936	0.0153679
902.014	0.0154223
902.092	0.0153653
902.170	0.0154065
902.248	0.0154574
902.326	0.0153458
902.405	0.0154101
902.483	0.0154120
902.561	0.0155032
902.639	0.0155305
902.717	0.0153853
902.795	0.0154095
902.873	0.0154666
902.951	0.0152982
903.030	0.0154552
903.108	0.0156092
903.186	0.0155512
903.264	0.0154302
903.342	0.0155533
903.420	0.0155573
903.498	0.0154684
903.576	0.0154379
903.655	0.0154288
903.733	0.0154633
903.811	0.0154941
903.889	0.0155367
903.967	0.0154523
904.045	0.0154462
904.123	0.0154398
904.201	0.0154295
904.280	0.0155370
904.358	0.0154923
904.436	0.0156183
904.514	0.0154453
904.592	0.0155604
904.670	0.0155331
904.748	0.0156091
904.826	0.0154677
904.905	0.0155775
904.983	0.0155079
905.061	0.0155304
905.139	0.0154118
905.217	0.0155228
905.295	0.0155445
905.373	0.0155540
905.451	0.0155134
905.530	0.0155960
905.608	0.0155350
905.686	0.0154293
905.764	0.0154782
905.842	0.0155794
905.920	0.0154252
905.998	0.0154987
906.076	0.0154976
906.155	0.0155289
906.233	0.0154241
906.311	0.0155466
906.389	0.0155148
906.467	0.0154950
906.545	0.0155753
906.623	0.0153488
906.701	0.0154147
906.780	0.0153297
906.858	0.0154646
906.936	0.0154167
907.014	0.0152794
907.092	0.0153200
907.170	0.0152937
907.248	0.0153224
907.326	0.0151360
907.405	0.0153561
907.483	0.0151060
907.561	0.0151316
907.639	0.0151975
907.717	0.0153112
907.795	0.0151867
907.873	0.0151218
907.951	0.0152724
908.030	0.0152000
908.108	0.0152271
908.186	0.0152012
908.264	0.0153687
908.342	0.0152802
908.420	0.0152059
908.498	0.0153849
908.576	0.0151717
908.655	0.0153690
908.733	0.0152641
908.811	0.0152457
908.889	0.0152055
908.967	0.0153313
909.045	0.0153983
909.123	0.0153327
909.201	0.0154562
909.280	0.0154279
909.358	0.0153481
909.436	0.0153640
909.514	0.0153703
909.592	0.0153405
909.670	0.0152911
909.748	0.0154000
909.826	0.0153317
909.905	0.0153075
909.983	0.0154410
910.061	0.0153588
910.139	0.0155363
910.217	0.0152666
910.295	0.0153646
910.373	0.0155480
910.451	0.0155109
910.530	0.0153680
910.608	0.0154264
910.686	0.0152361
910.764	0.0153873
910.842	0.0154980
910.920	0.0154105
910.998	0.0154569
911.076	0.0154089
911.155	0.0155852
911.233	0.0154110
911.311	0.0153462
911.389	0.0153983
911.467	0.0152345
911.545	0.0154063
911.623	0.0155100
911.701	0.0154198
911.780	0.0154108
911.858	0.0155759
911.936	0.0155281
912.014	0.0154313
912.092	0.0155450
912.170	0.0154153
912.248	0.0155093
912.326	0.0154218
912.405	0.0154100
912.483	0.0155019
912.561	0.0155552
912.639	0.0154356
912.717	0.0154066
912.795	0.0154350
912.873	0.0154619
912.951	0.0155630
913.030	0.0154095
913.108	0.0155031
913.186	0.0153928
913.264	0.0154729
913.342	0.0154386
913.420	0.0155840
913.498	0.0153603
913.576	0.0155149
913.655	0.0155992
913.733	0.0156737
913.811	0.0156030
913.889	0.0154963
913.967	0.0155230
914.045	0.0155743
914.123	0.0155918
914.201	0.0155145
914.280	0.0155936
914.358	0.0154569
914.436	0.0155151
914.514	0.0154734
914.592	0.0153765
914.670	0.0156124
914.748	0.0156219
914.826	0.0155229
914.905	0.0154676
914.983	0.0154920
915.061	0.0154257
915.139	0.0155556
915.217	0.0153769
915.295	0.0154408
915.373	0.0155303
915.451	0.0154637
915.530	0.0154787
915.608	0.0154894
915.686	0.0154795
915.764	0.0153963
915.842	0.0153265
915.920	0.0154357
915.998	0.0154638
916.076	0.0153747
916.155	0.0153210
916.233	0.0153947
916.311	0.0152695
916.389	0.0154306
916.467	0.0153639
916.545	0.0154591
916.623	0.0153317
916.701	0.0154020
916.780	0.0154559
916.858	0.0153384
916.936	0.0154253
917.014	0.0154514
917.092	0.0154708
917.170	0.0154364
917.248	0.0154318
917.326	0.0155413
917.405	0.0154300
917.483	0.0155514
917.561	0.0154287
917.639	0.0155273
917.717	0.0155081
917.795	0.0154617
917.873	0.0153793
917.951	0.0156425
918.030	0.0155505
918.108	0.0154721
918.186	0.0154062
918.264	0.0154873
918.342	0.0155206
918.420	0.0153439
918.498	0.0154459
918.576	0.0153857
918.655	0.0154224
918.733	0.0154931
918.811	0.0154865
918.889	0.0154279
918.967	0.0153627
919.045	0.0151202
919.123	0.0153632
919.201	0.0152211
919.280	0.0151507
919.358	0.0153964
919.436	0.0152590
919.514	0.0153049
919.592	0.0152855
919.670	0.0152460
919.748	0.0153246
919.826	0.0154017
919.905	0.0152419
919.983	0.0152564
920.061	0.0152814
920.139	0.0152962
920.217	0.0153193
920.295	0.0154560
920.373	0.0154175
920.451	0.0155643
920.530	0.0154211
920.608	0.0153413
920.686	0.0154042
920.764	0.0154017
920.842	0.0154182
920.920	0.0155267
920.998	0.0155811
921.076	0.0155754
921.155	0.0155427
921.233	0.0155379
921.311	0.0154874
921.389	0.0154929
921.467	0.0153845
921.545	0.0155163
921.623	0.0154620
921.701	0.0156084
921.780	0.0153955
921.858	0.0154578
921.936	0.0153880
922.014	0.0154506
922.092	0.0155195
922.170	0.0154878
922.248	0.0154462
922.326	0.0153690
922.405	0.0154874
922.483	0.0153970
922.561	0.0154954
922.639	0.0154474
922.717	0.0155293
922.795	0.0154445
922.873	0.0153571
922.951	0.0154862
923.030	0.0154197
923.108	0.0153614
923.186	0.0154208
923.264	0.0155210
923.342	0.0153906
923.420	0.0153148
923.498	0.0154265
923.576	0.0153232
923.655	0.0154721
923.733	0.0153536
923.811	0.0153587
923.889	0.0153340
923.967	0.0151833
924.045	0.0155103
924.123	0.0153609
924.201	0.0153230
924.280	0.0153598
924.358	0.0151423
924.436	0.0152825
924.514	0.0152344
924.592	0.0153012
924.670	0.0153333
924.748	0.0152731
924.826	0.0153450
924.905	0.0153260
924.983	0.0152899
925.061	0.0151828
925.139	0.0151656
925.217	0.0153005
925.295	0.0152945
925.373	0.0154116
925.451	0.0153721
925.530	0.0154174
925.608	0.0152618
925.686	0.0153453
925.764	0.0154675
925.842	0.0155061
925.920	0.0155076
925.998	0.0154506
926.076	0.0154004
926.155	0.0154022
926.233	0.0154739
926.311	0.0153778
926.389	0.0154565
926.467	0.0155689
926.545	0.0154991
926.623	0.0154377
926.701	0.0155109
926.780	0.0154675
926.858	0.0155245
926.936	0.0154223
927.014	0.0156020
927.092	0.0155476
927.170	0.0153913
927.248	0.0154896
927.326	0.0154397
927.405	0.0155135
927.483	0.0154968
927.561	0.0154678
927.639	0.0154672
927.717	0.0154707
927.795	0.0156111
927.873	0.0154220
927.951	0.0154488
928.030	0.0154602
928.108	0.0154755
928.186	0.0155248
928.264	0.0154992
928.342	0.0154363
928.420	0.0155176
928.498	0.0155846
928.576	0.0155077
928.655	0.0154338
928.733	0.0155135
928.811	0.0156755
928.889	0.0156339
928.967	0.0154922
929.045	0.0154559
929.123	0.0156183
929.201	0.0155309
929.280	0.0153819
929.358	0.0154233
929.436	0.0154259
929.514	0.0155680
929.592	0.0155535
929.670	0.0155057
929.748	0.0155067
929.826	0.0155343
929.905	0.0155556
929.983	0.0154285
930.061	0.0154463
930.139	0.0154301
930.217	0.0155389
930.295	0.0154102
930.373	0.0154345
930.451	0.0154547
930.530	0.0155272
930.608	0.0155098
930.686	0.0154434
930.764	0.0154336
930.842	0.0153011
930.920	0.0153540
930.998	0.0154135
931.076	0.0154794
931.155	0.0153345
931.233	0.0153368
931.311	0.0153872
931.389	0.0153806
931.467	0.0153079
931.545	0.0155048
931.623	0.0153860
931.701	0.0154197
931.780	0.0153609
931.858	0.0154917
931.936	0.0154113
932.014	0.0154006
932.092	0.0153330
932.170	0.0154813
932.248	0.0153288
932.326	0.0155550
932.405	0.0154039
932.483	0.0153843
932.561	0.0153749
932.639	0.0155276
932.717	0.0153956
932.795	0.0155230
932.873	0.0155392
932.951	0.0154588
933.030	0.0153979
933.108	0.0153935
933.186	0.0155488
933.264	0.0154276
933.342	0.0154744
933.420	0.0155093
933.498	0.0154520
933.576	0.0153686
933.655	0.0153674
933.733	0.0154375
933.811	0.0153399
933.889	0.0154309
933.967	0.0155039
934.045	0.0153540
934.123	0.0153740
934.201	0.0153857
934.280	0.0154414
934.358	0.0154632
934.436	0.0154263
934.514	0.0151535
934.592	0.0153767
934.670	0.0153051
934.748	0.0153541
934.826	0.0154689
934.905	0.0154922
934.983	0.0155054
935.061	0.0153863
935.139	0.0153599
935.217	0.0153870
935.295	0.0154367
935.373	0.0152611
935.451	0.0154378
935.530	0.0155063
935.608	0.0154263
935.686	0.0155653
935.764	0.0155866
935.842	0.0155323
935.920	0.0154937
935.998	0.0155457
936.076	0.0154369
936.155	0.0155997
936.233	0.0155294
936.311	0.0155574
936.389	0.0156078
936.467	0.0155852
936.545	0.0155877
936.623	0.0156272
936.701	0.0156030
936.780	0.0155207
936.858	0.0156277
936.936	0.0157115
937.014	0.0156614
937.092	0.0156631
937.170	0.0155640
937.248	0.0155513
937.326	0.0156100
937.405	0.0155994
937.483	0.0155827
937.561	0.0156420
937.639	0.0155235
937.717	0.0155280
937.795	0.0155156
937.873	0.0154807
937.951	0.0155576
938.030	0.0156418
938.108	0.0154308
938.186	0.0155972
938.264	0.0155667
938.342	0.0155244
938.420	0.0154501
938.498	0.0154426
938.576	0.0155180
938.655	0.0154370
938.733	0.0154679
938.811	0.0155399
938.889	0.0153705
938.967	0.0155254
939.045	0.0154456
939.123	0.0154711
939.201	0.0155511
939.280	0.0155437
939.358	0.0154181
939.436	0.0156230
939.514	0.0155437
939.592	0.0156578
939.670	0.0155801
939.748	0.0155294
939.826	0.0156222
939.905	0.0155621
939.983	0.0156857
940.061	0.0155191
940.139	0.0156281
940.217	0.0155245
940.295	0.0155230
940.373	0.0156448
940.451	0.0155939
940.530	0.0156751
940.608	0.0155211
940.686	0.0155723
940.764	0.0156702
940.842	0.0156323
940.920	0.0155286
940.998	0.0155592
941.076	0.0156633
941.155	0.0155991
941.233	0.0155939
941.311	0.0156099
941.389	0.0156644
941.467	0.0156223
941.545	0.0156218
941.623	0.0157634
941.701	0.0156796
941.780	0.0156597
941.858	0.0155766
941.936	0.0156509
942.014	0.0155228
942.092	0.0156358
942.170	0.0155503
942.248	0.0156010
942.326	0.0154343
942.405	0.0154526
942.483	0.0155677
942.561	0.0154586
942.639	0.0156307
942.717	0.0155763
942.795	0.0155113
942.873	0.0154125
942.951	0.0155044
943.030	0.0155563
943.108	0.0154607
943.186	0.0156815
943.264	0.0154491
943.342	0.0153610
943.420	0.0155299
943.498	0.0154140
943.576	0.0153930
943.655	0.0155064
943.733	0.0153445
943.811	0.0153708
943.889	0.0155053
943.967	0.0153552
944.045	0.0154317
944.123	0.0153834
944.201	0.0151864
944.280	0.0155050
944.358	0.0152976
944.436	0.0153306
944.514	0.0154798
944.592	0.0155292
944.670	0.0154314
944.748	0.0154148
944.826	0.0154360
944.905	0.0154730
944.983	0.0155556
945.061	0.0154817
945.139	0.0156004
945.217	0.0153749
945.295	0.0155096
945.373	0.0156219
945.451	0.0154928
945.530	0.0155498
945.608	0.0155797
945.686	0.0156014
945.764	0.0156127
945.842	0.0155572
945.920	0.0154444
945.998	0.0154945
946.076	0.0154050
946.155	0.0153822
946.233	0.0154046
946.311	0.0154496
946.389	0.0153603
946.467	0.0152859
946.545	0.0153815
946.623	0.0153954
946.701	0.0153378
946.780	0.0154156
946.858	0.0153867
946.936	0.0153675
947.014	0.0153748
947.092	0.0154217
947.170	0.0152847
947.248	0.0154152
947.326	0.0153723
947.405	0.0153868
947.483	0.0154694
947.561	0.0156129
947.639	0.0155538
947.717	0.0154773
947.795	0.0154319
947.873	0.0155283
947.951	0.0154070
948.030	0.0154826
948.108	0.0155441
948.186	0.0154745
948.264	0.0155859
948.342	0.0155964
948.420	0.0155524
948.498	0.0155515
948.576	0.0154176
948.655	0.0156037
948.733	0.0156664
948.811	0.0157053
948.889	0.0156628
948.967	0.0155166
949.045	0.0156036
949.123	0.0156604
949.201	0.0155858
949.280	0.0155252
949.358	0.0155759
949.436	0.0155354
949.514	0.0155045
949.592	0.0154692
949.670	0.0155595
949.748	0.0156675
949.826	0.0155365
949.905	0.0154631
949.983	0.0155428
950.061	0.0154432
950.139	0.0154913
950.217	0.0154646
950.295	0.0154409
950.373	0.0155076
950.451	0.0156117
950.530	0.0155450
950.608	0.0155432
950.686	0.0155712
950.764	0.0155180
950.842	0.0154211
950.920	0.0156383
950.998	0.0155392
951.076	0.0154900
951.155	0.0155032
951.233	0.0154514
951.311	0.0155768
951.389	0.0156332
951.467	0.0155241
951.545	0.0155001
951.623	0.0156052
951.701	0.0154921
951.780	0.0155339
951.858	0.0155641
951.936	0.0156248
952.014	0.0156844
952.092	0.0156812
952.170	0.0156657
952.248	0.0155868
952.326	0.0155451
952.405	0.0156052
952.483	0.0154695
952.561	0.0155756
952.639	0.0156313
952.717	0.0155102
952.795	0.0154571
952.873	0.0155098
952.951	0.0154671
953.030	0.0155093
953.108	0.0155025
953.186	0.0155626
953.264	0.0155412
953.342	0.0154283
953.420	0.0154919
953.498	0.0154733
953.576	0.0156617
953.655	0.0156496
953.733	0.0155842
953.811	0.0156311
953.889	0.0155332
953.967	0.0155732
954.045	0.0155740
954.123	0.0156038
954.201	0.0155303
954.280	0.0155398
954.358	0.0155665
954.436	0.0155359
954.514	0.0155376
954.592	0.0155659
954.670	0.0155181
954.748	0.0155682
954.826	0.0155386
954.905	0.0154745
954.983	0.0153699
955.061	0.0154780
955.139	0.0155096
955.217	0.0156139
955.295	0.0154551
955.373	0.0153784
955.451	0.0154204
955.530	0.0155568
955.608	0.0153605
955.686	0.0154500
955.764	0.0154899
955.842	0.0155860
955.920	0.0156209
955.998	0.0155805
956.076	0.0155435
956.155	0.0155045
956.233	0.0155495
956.311	0.0155252
956.389	0.0154553
956.467	0.0153962
956.545	0.0154938
956.623	0.0155131
956.701	0.0154336
956.780	0.0154289
956.858	0.0154781
956.936	0.0155194
957.014	0.0153523
957.092	0.0154250
957.170	0.0154569
957.248	0.0154410
957.326	0.0155042
957.405	0.0155605
957.483	0.0156177
957.561	0.0155786
957.639	0.0154440
957.717	0.0153678
957.795	0.0153889
957.873	0.0154865
957.951	0.0155061
958.030	0.0154280
958.108	0.0155009
958.186	0.0154417
958.264	0.0154350
958.342	0.0155423
958.420	0.0153071
958.498	0.0154076
958.576	0.0154560
958.655	0.0154189
958.733	0.0154945
958.811	0.0153086
958.889	0.0153986
958.967	0.0154213
959.045	0.0155275
959.123	0.0153590
959.201	0.0153958
959.280	0.0153726
959.358	0.0152924
959.436	0.0154781
959.514	0.0154240
959.592	0.0154114
959.670	0.0154882
959.748	0.0155154
959.826	0.0154267
959.905	0.0153691
