05/17/2022	17:23:50	Ver.	4.1	UNKNOWN
Optical Delay	639.982744	Delta X		0.078125	Sweeps	1	Scan Rate	0/0
Coordinates	Axis 1	NaN	Axis 2	NaN	Axis 3	NaN	Axis 4	NaN	Axis 5	NaN	Axis 6	0.000000
TX Power	0.000000	RX Power	0.000000

639.983	0.0153205
640.061	0.0152338
640.139	0.0151730
640.217	0.0151162
640.295	0.0151719
640.373	0.0152187
640.451	0.0151154
640.530	0.0150835
640.608	0.0151491
640.686	0.0151540
640.764	0.0152019
640.842	0.0151083
640.920	0.0150581
640.998	0.0150694
641.076	0.0150938
641.155	0.0150190
641.233	0.0151363
641.311	0.0152323
641.389	0.0152267
641.467	0.0152629
641.545	0.0150996
641.623	0.0151551
641.701	0.0151697
641.780	0.0152173
641.858	0.0152110
641.936	0.0151992
642.014	0.0152535
642.092	0.0153710
642.170	0.0151196
642.248	0.0152860
642.326	0.0153786
642.405	0.0153321
642.483	0.0152911
642.561	0.0153024
642.639	0.0152529
642.717	0.0153036
642.795	0.0153314
642.873	0.0153117
642.951	0.0152188
643.030	0.0151749
643.108	0.0152945
643.186	0.0154302
643.264	0.0153684
643.342	0.0152842
643.420	0.0152328
643.498	0.0152308
643.576	0.0152263
643.655	0.0153346
643.733	0.0152436
643.811	0.0152324
643.889	0.0153032
643.967	0.0151678
644.045	0.0152493
644.123	0.0152950
644.201	0.0153092
644.280	0.0152380
644.358	0.0151051
644.436	0.0152217
644.514	0.0152282
644.592	0.0151980
644.670	0.0153447
644.748	0.0153265
644.826	0.0153850
644.905	0.0153543
644.983	0.0153636
645.061	0.0153883
645.139	0.0152634
645.217	0.0153703
645.295	0.0152481
645.373	0.0154539
645.451	0.0155632
645.530	0.0153965
645.608	0.0154134
645.686	0.0153028
645.764	0.0152023
645.842	0.0152058
645.920	0.0154797
645.998	0.0154931
646.076	0.0153664
646.155	0.0152220
646.233	0.0153188
646.311	0.0152891
646.389	0.0153968
646.467	0.0153597
646.545	0.0153228
646.623	0.0153747
646.701	0.0152957
646.780	0.0153289
646.858	0.0154972
646.936	0.0154373
647.014	0.0154652
647.092	0.0154837
647.170	0.0153745
647.248	0.0153822
647.326	0.0153279
647.405	0.0154919
647.483	0.0155164
647.561	0.0153566
647.639	0.0155399
647.717	0.0154046
647.795	0.0154722
647.873	0.0155590
647.951	0.0153869
648.030	0.0152684
648.108	0.0153152
648.186	0.0154800
648.264	0.0154581
648.342	0.0152271
648.420	0.0153249
648.498	0.0153413
648.576	0.0154324
648.655	0.0153863
648.733	0.0154366
648.811	0.0153026
648.889	0.0153464
648.967	0.0152483
649.045	0.0153127
649.123	0.0153672
649.201	0.0155939
649.280	0.0154374
649.358	0.0153879
649.436	0.0154538
649.514	0.0154379
649.592	0.0155269
649.670	0.0154984
649.748	0.0153167
649.826	0.0154198
649.905	0.0156385
649.983	0.0156120
650.061	0.0155415
650.139	0.0155138
650.217	0.0156318
650.295	0.0156570
650.373	0.0156386
650.451	0.0156577
650.530	0.0156678
650.608	0.0158119
650.686	0.0157249
650.764	0.0156718
650.842	0.0156616
650.920	0.0156561
650.998	0.0156918
651.076	0.0156837
651.155	0.0156246
651.233	0.0154945
651.311	0.0155898
651.389	0.0153683
651.467	0.0155724
651.545	0.0154919
651.623	0.0153653
651.701	0.0154097
651.780	0.0154379
651.858	0.0154398
651.936	0.0153686
652.014	0.0153296
652.092	0.0153802
652.170	0.0152364
652.248	0.0154719
652.326	0.0152892
652.405	0.0153628
652.483	0.0153047
652.561	0.0153281
652.639	0.0155392
652.717	0.0154189
652.795	0.0154529
652.873	0.0156141
652.951	0.0153464
653.030	0.0153034
653.108	0.0155651
653.186	0.0155269
653.264	0.0153707
653.342	0.0154051
653.420	0.0155789
653.498	0.0153938
653.576	0.0153598
653.655	0.0153834
653.733	0.0153528
653.811	0.0153349
653.889	0.0154356
653.967	0.0154086
654.045	0.0154488
654.123	0.0153106
654.201	0.0152795
654.280	0.0154075
654.358	0.0153648
654.436	0.0154603
654.514	0.0154819
654.592	0.0154250
654.670	0.0153838
654.748	0.0153532
654.826	0.0154131
654.905	0.0154021
654.983	0.0153676
655.061	0.0154850
655.139	0.0153906
655.217	0.0153758
655.295	0.0153850
655.373	0.0154108
655.451	0.0154237
655.530	0.0154095
655.608	0.0153919
655.686	0.0154154
655.764	0.0154437
655.842	0.0154148
655.920	0.0153320
655.998	0.0152370
656.076	0.0154223
656.155	0.0153809
656.233	0.0152119
656.311	0.0152475
656.389	0.0151777
656.467	0.0152747
656.545	0.0151373
656.623	0.0150700
656.701	0.0151278
656.780	0.0151215
656.858	0.0152072
656.936	0.0150269
657.014	0.0149309
657.092	0.0149994
657.170	0.0150465
657.248	0.0151072
657.326	0.0149911
657.405	0.0151375
657.483	0.0152267
657.561	0.0150520
657.639	0.0151884
657.717	0.0152630
657.795	0.0153630
657.873	0.0153265
657.951	0.0152449
658.030	0.0154114
658.108	0.0155241
658.186	0.0154565
658.264	0.0153877
658.342	0.0156046
658.420	0.0154913
658.498	0.0154537
658.576	0.0154214
658.655	0.0153649
658.733	0.0153654
658.811	0.0154607
658.889	0.0153616
658.967	0.0152314
659.045	0.0152187
659.123	0.0151968
659.201	0.0153023
659.280	0.0151049
659.358	0.0150726
659.436	0.0151932
659.514	0.0150742
659.592	0.0150580
659.670	0.0149725
659.748	0.0149468
659.826	0.0148841
659.905	0.0150553
659.983	0.0150497
660.061	0.0149468
660.139	0.0150562
660.217	0.0151318
660.295	0.0151436
660.373	0.0152256
660.451	0.0152025
660.530	0.0153425
660.608	0.0153445
660.686	0.0152309
660.764	0.0155045
660.842	0.0154372
660.920	0.0154486
660.998	0.0154856
661.076	0.0154433
661.155	0.0154991
661.233	0.0155181
661.311	0.0154498
661.389	0.0154804
661.467	0.0154303
661.545	0.0153413
661.623	0.0154552
661.701	0.0154270
661.780	0.0152543
661.858	0.0154460
661.936	0.0154111
662.014	0.0153248
662.092	0.0152748
662.170	0.0153303
662.248	0.0154301
662.326	0.0152805
662.405	0.0151767
662.483	0.0153976
662.561	0.0153618
662.639	0.0151784
662.717	0.0153795
662.795	0.0153020
662.873	0.0152538
662.951	0.0153143
663.030	0.0153371
663.108	0.0153638
663.186	0.0153362
663.264	0.0153085
663.342	0.0153586
663.420	0.0153834
663.498	0.0153139
663.576	0.0150931
663.655	0.0152642
663.733	0.0152747
663.811	0.0152930
663.889	0.0152555
663.967	0.0151919
664.045	0.0151981
664.123	0.0151911
664.201	0.0151857
664.280	0.0151993
664.358	0.0150637
664.436	0.0152435
664.514	0.0151360
664.592	0.0151190
664.670	0.0151212
664.748	0.0152544
664.826	0.0150859
664.905	0.0151488
664.983	0.0152596
665.061	0.0152596
665.139	0.0153853
665.217	0.0154385
665.295	0.0154076
665.373	0.0153415
665.451	0.0154813
665.530	0.0154897
665.608	0.0155734
665.686	0.0155186
665.764	0.0154725
665.842	0.0156602
665.920	0.0156667
665.998	0.0155544
666.076	0.0155938
666.155	0.0156596
666.233	0.0155987
666.311	0.0155243
666.389	0.0156773
666.467	0.0155202
666.545	0.0154823
666.623	0.0156118
666.701	0.0154990
666.780	0.0155408
666.858	0.0155384
666.936	0.0155724
667.014	0.0153869
667.092	0.0154890
667.170	0.0156313
667.248	0.0154360
667.326	0.0155628
667.405	0.0154470
667.483	0.0154006
667.561	0.0154701
667.639	0.0153279
667.717	0.0154025
667.795	0.0154496
667.873	0.0155602
667.951	0.0154070
668.030	0.0151558
668.108	0.0152808
668.186	0.0152147
668.264	0.0152876
668.342	0.0151475
668.420	0.0150803
668.498	0.0151177
668.576	0.0149142
668.655	0.0147109
668.733	0.0147516
668.811	0.0146831
668.889	0.0146563
668.967	0.0146148
669.045	0.0145721
669.123	0.0145197
669.201	0.0145199
669.280	0.0145218
669.358	0.0143996
669.436	0.0144049
669.514	0.0145567
669.592	0.0145206
669.670	0.0146053
669.748	0.0146883
669.826	0.0147576
669.905	0.0148697
669.983	0.0149981
670.061	0.0150690
670.139	0.0150557
670.217	0.0151532
670.295	0.0154217
670.373	0.0155128
670.451	0.0155120
670.530	0.0155556
670.608	0.0156368
670.686	0.0158546
670.764	0.0157270
670.842	0.0158071
670.920	0.0159295
670.998	0.0160370
671.076	0.0158070
671.155	0.0159689
671.233	0.0160037
671.311	0.0160222
671.389	0.0160049
671.467	0.0159673
671.545	0.0159336
671.623	0.0159203
671.701	0.0158241
671.780	0.0158629
671.858	0.0157871
671.936	0.0157742
672.014	0.0156851
672.092	0.0157396
672.170	0.0156199
672.248	0.0157046
672.326	0.0156138
672.405	0.0155394
672.483	0.0156451
672.561	0.0155918
672.639	0.0154902
672.717	0.0155553
672.795	0.0155891
672.873	0.0154369
672.951	0.0154633
673.030	0.0155296
673.108	0.0155573
673.186	0.0155486
673.264	0.0154207
673.342	0.0154044
673.420	0.0154250
673.498	0.0153094
673.576	0.0153230
673.655	0.0153115
673.733	0.0153535
673.811	0.0153719
673.889	0.0152814
673.967	0.0152240
674.045	0.0151189
674.123	0.0149931
674.201	0.0149907
674.280	0.0149622
674.358	0.0148465
674.436	0.0148043
674.514	0.0146689
674.592	0.0145892
674.670	0.0145953
674.748	0.0145815
674.826	0.0145573
674.905	0.0146165
674.983	0.0146011
675.061	0.0147813
675.139	0.0147354
675.217	0.0149804
675.295	0.0149780
675.373	0.0150233
675.451	0.0151350
675.530	0.0152943
675.608	0.0152650
675.686	0.0154989
675.764	0.0156033
675.842	0.0157346
675.920	0.0159985
675.998	0.0161530
676.076	0.0162611
676.155	0.0161304
676.233	0.0162289
676.311	0.0163497
676.389	0.0164693
676.467	0.0164364
676.545	0.0165559
676.623	0.0165479
676.701	0.0166460
676.780	0.0165377
676.858	0.0166140
676.936	0.0165738
677.014	0.0165073
677.092	0.0166142
677.170	0.0164552
677.248	0.0161242
677.326	0.0160731
677.405	0.0161419
677.483	0.0158698
677.561	0.0157339
677.639	0.0155870
677.717	0.0155493
677.795	0.0154456
677.873	0.0152728
677.951	0.0152199
678.030	0.0149750
678.108	0.0147842
678.186	0.0148199
678.264	0.0147551
678.342	0.0146954
678.420	0.0146191
678.498	0.0146965
678.576	0.0145915
678.655	0.0144786
678.733	0.0144807
678.811	0.0145715
678.889	0.0144872
678.967	0.0145210
679.045	0.0146796
679.123	0.0146363
679.201	0.0145771
679.280	0.0147147
679.358	0.0147539
679.436	0.0147919
679.514	0.0148818
679.592	0.0147717
679.670	0.0148799
679.748	0.0149915
679.826	0.0150209
679.905	0.0149995
679.983	0.0151272
680.061	0.0151748
680.139	0.0151454
680.217	0.0154459
680.295	0.0154736
680.373	0.0152536
680.451	0.0154342
680.530	0.0155366
680.608	0.0154484
680.686	0.0154179
680.764	0.0156161
680.842	0.0156151
680.920	0.0157262
680.998	0.0157516
681.076	0.0157070
681.155	0.0156942
681.233	0.0156587
681.311	0.0155607
681.389	0.0156896
681.467	0.0157327
681.545	0.0157684
681.623	0.0159055
681.701	0.0158302
681.780	0.0157097
681.858	0.0158179
681.936	0.0158356
682.014	0.0157204
682.092	0.0158054
682.170	0.0158095
682.248	0.0157619
682.326	0.0156847
682.405	0.0156730
682.483	0.0156049
682.561	0.0155537
682.639	0.0155064
682.717	0.0154219
682.795	0.0154892
682.873	0.0155781
682.951	0.0154243
683.030	0.0153652
683.108	0.0153792
683.186	0.0154602
683.264	0.0153172
683.342	0.0152740
683.420	0.0152299
683.498	0.0152316
683.576	0.0152470
683.655	0.0152198
683.733	0.0150752
683.811	0.0150812
683.889	0.0151357
683.967	0.0151704
684.045	0.0150479
684.123	0.0151282
684.201	0.0150658
684.280	0.0151366
684.358	0.0150011
684.436	0.0150553
684.514	0.0150843
684.592	0.0150310
684.670	0.0150381
684.748	0.0149909
684.826	0.0149683
684.905	0.0151513
684.983	0.0149283
685.061	0.0151994
685.139	0.0152105
685.217	0.0149654
685.295	0.0151566
685.373	0.0151460
685.451	0.0151524
685.530	0.0151642
685.608	0.0152951
685.686	0.0151362
685.764	0.0151845
685.842	0.0151644
685.920	0.0151188
685.998	0.0152885
686.076	0.0153143
686.155	0.0153191
686.233	0.0152354
686.311	0.0153578
686.389	0.0152262
686.467	0.0151054
686.545	0.0152630
686.623	0.0152776
686.701	0.0153398
686.780	0.0152365
686.858	0.0154102
686.936	0.0154256
687.014	0.0152229
687.092	0.0153173
687.170	0.0154524
687.248	0.0156017
687.326	0.0154800
687.405	0.0155417
687.483	0.0154813
687.561	0.0156760
687.639	0.0157571
687.717	0.0156480
687.795	0.0156202
687.873	0.0157112
687.951	0.0157764
688.030	0.0157368
688.108	0.0157375
688.186	0.0157043
688.264	0.0157571
688.342	0.0158944
688.420	0.0156203
688.498	0.0157098
688.576	0.0156479
688.655	0.0157137
688.733	0.0156389
688.811	0.0157274
688.889	0.0157525
688.967	0.0157448
689.045	0.0156301
689.123	0.0157526
689.201	0.0157298
689.280	0.0157764
689.358	0.0156777
689.436	0.0156431
689.514	0.0158294
689.592	0.0156325
689.670	0.0155972
689.748	0.0156751
689.826	0.0157207
689.905	0.0154617
689.983	0.0155795
690.061	0.0156099
690.139	0.0154604
690.217	0.0152203
690.295	0.0152025
690.373	0.0151566
690.451	0.0150896
690.530	0.0150225
690.608	0.0149607
690.686	0.0148740
690.764	0.0146928
690.842	0.0148195
690.920	0.0147419
690.998	0.0147137
691.076	0.0147224
691.155	0.0147828
691.233	0.0148057
691.311	0.0147375
691.389	0.0148821
691.467	0.0149619
691.545	0.0150422
691.623	0.0149522
691.701	0.0152631
691.780	0.0153154
691.858	0.0151745
691.936	0.0154558
692.014	0.0155432
692.092	0.0155390
692.170	0.0156846
692.248	0.0157947
692.326	0.0156491
692.405	0.0156573
692.483	0.0158798
692.561	0.0157026
692.639	0.0157008
692.717	0.0157513
692.795	0.0156744
692.873	0.0155747
692.951	0.0155205
693.030	0.0155418
693.108	0.0154797
693.186	0.0155132
693.264	0.0153405
693.342	0.0152608
693.420	0.0153152
693.498	0.0153056
693.576	0.0152916
693.655	0.0153081
693.733	0.0150940
693.811	0.0150361
693.889	0.0151463
693.967	0.0151136
694.045	0.0150882
694.123	0.0152467
694.201	0.0151418
694.280	0.0152700
694.358	0.0152320
694.436	0.0152667
694.514	0.0152938
694.592	0.0152080
694.670	0.0153372
694.748	0.0154509
694.826	0.0153790
694.905	0.0154880
694.983	0.0155019
695.061	0.0154644
695.139	0.0155228
695.217	0.0157935
695.295	0.0156419
695.373	0.0157084
695.451	0.0157208
695.530	0.0157651
695.608	0.0158009
695.686	0.0158781
695.764	0.0158577
695.842	0.0158483
695.920	0.0159875
695.998	0.0159914
696.076	0.0159530
696.155	0.0160735
696.233	0.0161478
696.311	0.0160426
696.389	0.0160823
696.467	0.0161459
696.545	0.0160148
696.623	0.0161545
696.701	0.0160590
696.780	0.0159705
696.858	0.0158989
696.936	0.0158432
697.014	0.0158007
697.092	0.0157330
697.170	0.0155836
697.248	0.0153793
697.326	0.0153063
697.405	0.0153815
697.483	0.0152510
697.561	0.0150674
697.639	0.0150921
697.717	0.0149941
697.795	0.0148216
697.873	0.0150256
697.951	0.0147503
698.030	0.0147631
698.108	0.0148188
698.186	0.0145985
698.264	0.0146117
698.342	0.0148136
698.420	0.0148735
698.498	0.0147285
698.576	0.0147295
698.655	0.0148012
698.733	0.0149892
698.811	0.0148979
698.889	0.0149573
698.967	0.0150948
699.045	0.0150700
699.123	0.0149742
699.201	0.0149506
699.280	0.0150759
699.358	0.0151945
699.436	0.0152107
699.514	0.0152986
699.592	0.0154274
699.670	0.0154470
699.748	0.0154627
699.826	0.0155282
699.905	0.0155440
699.983	0.0156177
700.061	0.0155600
700.139	0.0156463
700.217	0.0156476
700.295	0.0157500
700.373	0.0158928
700.451	0.0159914
700.530	0.0158832
700.608	0.0162421
700.686	0.0160799
700.764	0.0162000
700.842	0.0163223
700.920	0.0163556
700.998	0.0163371
701.076	0.0164144
701.155	0.0164816
701.233	0.0165188
701.311	0.0165046
701.389	0.0165066
701.467	0.0166541
701.545	0.0165380
701.623	0.0162989
701.701	0.0164502
701.780	0.0163486
701.858	0.0162420
701.936	0.0161275
702.014	0.0158610
702.092	0.0158441
702.170	0.0157706
702.248	0.0156257
702.326	0.0153822
702.405	0.0154673
702.483	0.0151577
702.561	0.0150050
702.639	0.0149485
702.717	0.0148683
702.795	0.0147460
702.873	0.0146410
702.951	0.0146860
703.030	0.0145995
703.108	0.0146095
703.186	0.0144672
703.264	0.0144779
703.342	0.0145522
703.420	0.0145063
703.498	0.0144726
703.576	0.0145787
703.655	0.0146864
703.733	0.0148204
703.811	0.0147409
703.889	0.0145661
703.967	0.0147607
704.045	0.0149089
704.123	0.0148470
704.201	0.0150113
704.280	0.0148327
704.358	0.0150010
704.436	0.0150249
704.514	0.0150993
704.592	0.0150584
704.670	0.0150954
704.748	0.0151413
704.826	0.0151994
704.905	0.0152798
704.983	0.0153107
705.061	0.0152299
705.139	0.0154493
705.217	0.0153617
705.295	0.0153929
705.373	0.0152892
705.451	0.0154453
705.530	0.0155525
705.608	0.0154800
705.686	0.0156287
705.764	0.0157302
705.842	0.0156319
705.920	0.0155394
705.998	0.0156553
706.076	0.0157809
706.155	0.0157684
706.233	0.0157686
706.311	0.0156558
706.389	0.0157258
706.467	0.0156682
706.545	0.0158987
706.623	0.0156441
706.701	0.0157500
706.780	0.0156451
706.858	0.0156164
706.936	0.0156364
707.014	0.0156517
707.092	0.0155967
707.170	0.0157312
707.248	0.0156041
707.326	0.0156931
707.405	0.0155769
707.483	0.0154836
707.561	0.0156654
707.639	0.0153184
707.717	0.0154149
707.795	0.0155177
707.873	0.0154533
707.951	0.0153952
708.030	0.0154151
708.108	0.0154647
708.186	0.0153662
708.264	0.0153256
708.342	0.0153028
708.420	0.0153590
708.498	0.0153587
708.576	0.0152972
708.655	0.0151138
708.733	0.0150722
708.811	0.0151285
708.889	0.0151273
708.967	0.0149786
709.045	0.0150974
709.123	0.0150288
709.201	0.0149132
709.280	0.0149576
709.358	0.0150178
709.436	0.0151529
709.514	0.0150819
709.592	0.0150708
709.670	0.0151210
709.748	0.0149927
709.826	0.0148713
709.905	0.0150173
709.983	0.0149091
710.061	0.0150155
710.139	0.0149588
710.217	0.0148859
710.295	0.0149477
710.373	0.0150776
710.451	0.0149657
710.530	0.0149747
710.608	0.0149453
710.686	0.0150381
710.764	0.0150192
710.842	0.0151473
710.920	0.0152076
710.998	0.0151759
711.076	0.0152877
711.155	0.0154572
711.233	0.0154355
711.311	0.0155494
711.389	0.0155500
711.467	0.0156158
711.545	0.0157215
711.623	0.0157672
711.701	0.0157015
711.780	0.0157853
711.858	0.0157473
711.936	0.0158739
712.014	0.0159338
712.092	0.0158936
712.170	0.0159332
712.248	0.0158701
712.326	0.0158922
712.405	0.0157489
712.483	0.0157925
712.561	0.0158599
712.639	0.0158911
712.717	0.0158103
712.795	0.0157091
712.873	0.0156197
712.951	0.0156145
713.030	0.0155470
713.108	0.0155603
713.186	0.0154527
713.264	0.0154582
713.342	0.0153177
713.420	0.0152587
713.498	0.0152681
713.576	0.0152194
713.655	0.0152110
713.733	0.0151003
713.811	0.0151608
713.889	0.0150075
713.967	0.0151118
714.045	0.0151250
714.123	0.0150763
714.201	0.0150548
714.280	0.0151443
714.358	0.0152418
714.436	0.0152628
714.514	0.0151128
714.592	0.0151029
714.670	0.0151808
714.748	0.0153801
714.826	0.0152463
714.905	0.0153793
714.983	0.0153708
715.061	0.0154626
715.139	0.0155060
715.217	0.0154025
715.295	0.0155392
715.373	0.0154698
715.451	0.0155682
715.530	0.0156427
715.608	0.0154859
715.686	0.0156223
715.764	0.0156493
715.842	0.0156371
715.920	0.0155437
715.998	0.0157315
716.076	0.0154406
716.155	0.0153836
716.233	0.0154965
716.311	0.0155949
716.389	0.0154721
716.467	0.0154124
716.545	0.0154684
716.623	0.0154949
716.701	0.0153992
716.780	0.0153033
716.858	0.0152934
716.936	0.0153262
717.014	0.0153381
717.092	0.0152737
717.170	0.0150915
717.248	0.0151876
717.326	0.0150549
717.405	0.0152068
717.483	0.0151242
717.561	0.0151543
717.639	0.0151303
717.717	0.0152258
717.795	0.0152413
717.873	0.0152332
717.951	0.0152013
718.030	0.0150775
718.108	0.0152034
718.186	0.0152662
718.264	0.0152681
718.342	0.0152734
718.420	0.0154684
718.498	0.0154935
718.576	0.0153957
718.655	0.0155177
718.733	0.0155470
718.811	0.0155920
718.889	0.0156570
718.967	0.0157524
719.045	0.0158054
719.123	0.0157873
719.201	0.0157519
719.280	0.0158945
719.358	0.0157429
719.436	0.0157686
719.514	0.0157979
719.592	0.0158026
719.670	0.0158022
719.748	0.0157249
719.826	0.0157972
719.905	0.0157302
719.983	0.0156615
720.061	0.0157347
720.139	0.0156624
720.217	0.0155797
720.295	0.0155161
720.373	0.0155494
720.451	0.0153700
720.530	0.0155795
720.608	0.0154971
720.686	0.0153800
720.764	0.0153536
720.842	0.0151989
720.920	0.0152419
720.998	0.0152177
721.076	0.0151388
721.155	0.0150388
721.233	0.0149189
721.311	0.0149345
721.389	0.0147500
721.467	0.0148318
721.545	0.0149712
721.623	0.0149110
721.701	0.0149298
721.780	0.0149641
721.858	0.0148752
721.936	0.0149615
722.014	0.0149823
722.092	0.0149625
722.170	0.0150138
722.248	0.0150562
722.326	0.0151266
722.405	0.0151785
722.483	0.0150180
722.561	0.0151340
722.639	0.0152539
722.717	0.0151451
722.795	0.0154011
722.873	0.0152320
722.951	0.0154117
723.030	0.0155141
723.108	0.0154140
723.186	0.0155386
723.264	0.0155686
723.342	0.0155644
723.420	0.0155898
723.498	0.0156922
723.576	0.0157246
723.655	0.0157902
723.733	0.0156853
723.811	0.0157303
723.889	0.0156346
723.967	0.0157677
724.045	0.0157233
724.123	0.0157985
724.201	0.0156577
724.280	0.0156863
724.358	0.0156607
724.436	0.0157268
724.514	0.0156958
724.592	0.0155998
724.670	0.0155827
724.748	0.0156177
724.826	0.0156185
724.905	0.0154166
724.983	0.0155093
725.061	0.0154280
725.139	0.0155150
725.217	0.0152927
725.295	0.0153010
725.373	0.0154652
725.451	0.0154642
725.530	0.0154237
725.608	0.0154098
725.686	0.0153583
725.764	0.0154536
725.842	0.0153539
725.920	0.0154588
725.998	0.0153793
726.076	0.0152907
726.155	0.0153249
726.233	0.0154276
726.311	0.0154147
726.389	0.0152347
726.467	0.0153898
726.545	0.0153205
726.623	0.0153692
726.701	0.0153897
726.780	0.0155318
726.858	0.0153081
726.936	0.0154734
727.014	0.0153495
727.092	0.0153173
727.170	0.0153156
727.248	0.0153225
727.326	0.0153098
727.405	0.0153349
727.483	0.0154495
727.561	0.0153868
727.639	0.0154488
727.717	0.0153476
727.795	0.0153926
727.873	0.0154292
727.951	0.0152748
728.030	0.0152740
728.108	0.0153162
728.186	0.0152236
728.264	0.0153304
728.342	0.0154765
728.420	0.0153712
728.498	0.0153600
728.576	0.0153194
728.655	0.0154102
728.733	0.0153857
728.811	0.0154664
728.889	0.0153156
728.967	0.0153858
729.045	0.0153532
729.123	0.0153716
729.201	0.0154167
729.280	0.0155410
729.358	0.0153853
729.436	0.0152435
729.514	0.0153497
729.592	0.0155147
729.670	0.0154955
729.748	0.0154793
729.826	0.0155779
729.905	0.0156364
729.983	0.0155988
730.061	0.0155635
730.139	0.0155716
730.217	0.0157673
730.295	0.0157713
730.373	0.0156317
730.451	0.0156119
730.530	0.0156005
730.608	0.0155938
730.686	0.0156805
730.764	0.0156606
730.842	0.0154223
730.920	0.0154932
730.998	0.0155754
731.076	0.0155128
731.155	0.0154626
731.233	0.0152965
731.311	0.0153963
731.389	0.0152299
731.467	0.0152033
731.545	0.0152021
731.623	0.0150387
731.701	0.0148685
731.780	0.0147888
731.858	0.0148291
731.936	0.0148420
732.014	0.0148427
732.092	0.0147492
732.170	0.0147855
732.248	0.0148048
732.326	0.0147630
732.405	0.0148803
732.483	0.0148490
732.561	0.0148907
732.639	0.0148491
732.717	0.0150385
732.795	0.0149673
732.873	0.0149356
732.951	0.0148152
733.030	0.0149593
733.108	0.0150484
733.186	0.0150779
733.264	0.0150482
733.342	0.0152826
733.420	0.0152540
733.498	0.0153155
733.576	0.0153464
733.655	0.0153760
733.733	0.0155414
733.811	0.0154102
733.889	0.0156293
733.967	0.0154944
734.045	0.0155208
734.123	0.0156095
734.201	0.0154964
734.280	0.0156290
734.358	0.0154435
734.436	0.0155306
734.514	0.0156556
734.592	0.0155625
734.670	0.0155079
734.748	0.0156803
734.826	0.0157552
734.905	0.0156082
734.983	0.0156676
735.061	0.0157423
735.139	0.0156083
735.217	0.0156093
735.295	0.0157271
735.373	0.0157346
735.451	0.0156184
735.530	0.0158447
735.608	0.0156118
735.686	0.0156067
735.764	0.0155390
735.842	0.0155177
735.920	0.0154951
735.998	0.0156124
736.076	0.0154305
736.155	0.0153687
736.233	0.0153876
736.311	0.0153211
736.389	0.0152528
736.467	0.0151981
736.545	0.0152307
736.623	0.0151230
736.701	0.0151582
736.780	0.0150825
736.858	0.0151065
736.936	0.0150627
737.014	0.0151894
737.092	0.0152030
737.170	0.0151294
737.248	0.0150308
737.326	0.0151624
737.405	0.0151787
737.483	0.0152369
737.561	0.0153399
737.639	0.0154110
737.717	0.0153757
737.795	0.0154701
737.873	0.0154754
737.951	0.0154252
738.030	0.0155970
738.108	0.0156180
738.186	0.0154745
738.264	0.0155208
738.342	0.0158898
738.420	0.0155952
738.498	0.0157797
738.576	0.0157625
738.655	0.0157711
738.733	0.0156591
738.811	0.0155243
738.889	0.0156496
738.967	0.0157217
739.045	0.0156499
739.123	0.0155759
739.201	0.0155828
739.280	0.0154236
739.358	0.0153564
739.436	0.0153709
739.514	0.0152975
739.592	0.0152968
739.670	0.0151161
739.748	0.0152026
739.826	0.0151761
739.905	0.0152017
739.983	0.0151452
740.061	0.0151968
740.139	0.0150413
740.217	0.0150867
740.295	0.0151633
740.373	0.0150207
740.451	0.0151388
740.530	0.0151372
740.608	0.0150036
740.686	0.0151154
740.764	0.0151575
740.842	0.0151414
740.920	0.0151284
740.998	0.0151859
741.076	0.0152393
741.155	0.0153190
741.233	0.0153473
741.311	0.0152095
741.389	0.0152411
741.467	0.0154169
741.545	0.0155088
741.623	0.0153046
741.701	0.0155634
741.780	0.0154591
741.858	0.0154562
741.936	0.0154762
742.014	0.0154909
742.092	0.0155396
742.170	0.0154687
742.248	0.0153411
742.326	0.0154073
742.405	0.0155898
742.483	0.0155296
742.561	0.0155170
742.639	0.0155682
742.717	0.0154236
742.795	0.0154192
742.873	0.0154068
742.951	0.0154346
743.030	0.0153454
743.108	0.0155112
743.186	0.0153316
743.264	0.0154467
743.342	0.0153056
743.420	0.0155132
743.498	0.0154234
743.576	0.0153709
743.655	0.0153738
743.733	0.0152651
743.811	0.0152313
743.889	0.0153876
743.967	0.0152734
744.045	0.0152428
744.123	0.0152557
744.201	0.0151062
744.280	0.0151415
744.358	0.0151589
744.436	0.0152076
744.514	0.0152267
744.592	0.0152961
744.670	0.0151988
744.748	0.0151635
744.826	0.0152293
744.905	0.0154136
744.983	0.0152978
745.061	0.0151722
745.139	0.0152644
745.217	0.0152692
745.295	0.0152824
745.373	0.0152557
745.451	0.0151841
745.530	0.0153301
745.608	0.0152114
745.686	0.0153629
745.764	0.0151756
745.842	0.0152524
745.920	0.0152068
745.998	0.0150696
746.076	0.0152514
746.155	0.0151971
746.233	0.0152698
746.311	0.0152248
746.389	0.0152214
746.467	0.0152795
746.545	0.0152705
746.623	0.0152283
746.701	0.0153173
746.780	0.0151832
746.858	0.0153051
746.936	0.0153466
747.014	0.0154043
747.092	0.0152776
747.170	0.0153580
747.248	0.0153400
747.326	0.0152122
747.405	0.0152052
747.483	0.0153313
747.561	0.0152650
747.639	0.0151717
747.717	0.0152435
747.795	0.0154362
747.873	0.0153139
747.951	0.0151914
748.030	0.0152881
748.108	0.0152652
748.186	0.0152179
748.264	0.0153888
748.342	0.0153288
748.420	0.0154476
748.498	0.0154435
748.576	0.0153838
748.655	0.0154612
748.733	0.0155106
748.811	0.0154541
748.889	0.0155492
748.967	0.0155118
749.045	0.0155347
749.123	0.0156254
749.201	0.0156818
749.280	0.0156319
749.358	0.0158112
749.436	0.0155682
749.514	0.0155270
749.592	0.0156439
749.670	0.0156596
749.748	0.0156833
749.826	0.0157279
749.905	0.0156819
749.983	0.0156001
750.061	0.0157382
750.139	0.0156615
750.217	0.0157742
750.295	0.0157109
750.373	0.0156950
750.451	0.0155599
750.530	0.0157481
750.608	0.0155622
750.686	0.0156007
750.764	0.0156685
750.842	0.0155880
750.920	0.0156058
750.998	0.0156456
751.076	0.0155011
751.155	0.0154549
751.233	0.0154469
751.311	0.0155141
751.389	0.0155097
751.467	0.0154597
751.545	0.0155304
751.623	0.0154601
751.701	0.0154125
751.780	0.0154115
751.858	0.0153471
751.936	0.0154565
752.014	0.0153849
752.092	0.0154514
752.170	0.0153436
752.248	0.0152298
752.326	0.0153082
752.405	0.0152486
752.483	0.0153768
752.561	0.0153601
752.639	0.0151975
752.717	0.0153886
752.795	0.0152680
752.873	0.0152287
752.951	0.0153704
753.030	0.0154338
753.108	0.0152834
753.186	0.0154152
753.264	0.0152968
753.342	0.0153611
753.420	0.0154369
753.498	0.0154196
753.576	0.0154240
753.655	0.0154081
753.733	0.0154169
753.811	0.0154135
753.889	0.0154157
753.967	0.0153698
754.045	0.0154131
754.123	0.0155475
754.201	0.0154720
754.280	0.0153735
754.358	0.0155225
754.436	0.0154089
754.514	0.0155838
754.592	0.0156071
754.670	0.0154644
754.748	0.0154858
754.826	0.0153728
754.905	0.0155104
754.983	0.0155149
755.061	0.0156082
755.139	0.0155267
755.217	0.0154391
755.295	0.0155108
755.373	0.0154955
755.451	0.0155726
755.530	0.0155907
755.608	0.0154519
755.686	0.0155727
755.764	0.0155740
755.842	0.0154336
755.920	0.0155683
755.998	0.0154601
756.076	0.0156066
756.155	0.0155379
756.233	0.0155478
756.311	0.0155929
756.389	0.0154427
756.467	0.0153465
756.545	0.0153628
756.623	0.0153087
756.701	0.0153653
756.780	0.0153889
756.858	0.0153247
756.936	0.0153794
757.014	0.0153023
757.092	0.0153217
757.170	0.0152493
757.248	0.0152441
757.326	0.0153329
757.405	0.0154022
757.483	0.0153442
757.561	0.0152544
757.639	0.0152534
757.717	0.0151986
757.795	0.0154034
757.873	0.0152686
757.951	0.0152763
758.030	0.0152037
758.108	0.0152144
758.186	0.0151580
758.264	0.0154457
758.342	0.0154536
758.420	0.0153099
758.498	0.0153044
758.576	0.0154212
758.655	0.0153994
758.733	0.0155153
758.811	0.0155882
758.889	0.0153196
758.967	0.0154560
759.045	0.0154108
759.123	0.0155357
759.201	0.0153934
759.280	0.0154655
759.358	0.0154552
759.436	0.0154517
759.514	0.0153682
759.592	0.0151584
759.670	0.0153321
759.748	0.0155183
759.826	0.0151607
759.905	0.0151547
759.983	0.0151823
760.061	0.0151489
760.139	0.0151734
760.217	0.0150039
760.295	0.0151366
760.373	0.0149722
760.451	0.0149870
760.530	0.0149665
760.608	0.0150021
760.686	0.0150819
760.764	0.0151036
760.842	0.0151965
760.920	0.0151025
760.998	0.0151958
761.076	0.0151833
761.155	0.0152180
761.233	0.0151958
761.311	0.0153094
761.389	0.0152742
761.467	0.0152289
761.545	0.0154537
761.623	0.0152945
761.701	0.0153838
761.780	0.0153828
761.858	0.0153908
761.936	0.0154558
762.014	0.0154184
762.092	0.0155691
762.170	0.0154188
762.248	0.0154072
762.326	0.0155014
762.405	0.0154070
762.483	0.0154460
762.561	0.0155771
762.639	0.0155924
762.717	0.0154432
762.795	0.0155151
762.873	0.0154138
762.951	0.0154027
763.030	0.0154790
763.108	0.0154961
763.186	0.0155606
763.264	0.0154081
763.342	0.0155195
763.420	0.0154179
763.498	0.0154533
763.576	0.0155744
763.655	0.0155589
763.733	0.0155082
763.811	0.0156580
763.889	0.0155761
763.967	0.0156756
764.045	0.0154036
764.123	0.0155162
764.201	0.0156037
764.280	0.0155019
764.358	0.0153741
764.436	0.0153568
764.514	0.0153030
764.592	0.0153650
764.670	0.0154134
764.748	0.0153712
764.826	0.0152805
764.905	0.0152470
764.983	0.0152321
765.061	0.0151332
765.139	0.0152997
765.217	0.0151605
765.295	0.0151749
765.373	0.0150474
765.451	0.0152120
765.530	0.0151488
765.608	0.0152988
765.686	0.0152155
765.764	0.0152958
765.842	0.0151767
765.920	0.0151711
765.998	0.0152432
766.076	0.0151694
766.155	0.0152578
766.233	0.0152097
766.311	0.0153339
766.389	0.0153343
766.467	0.0152274
766.545	0.0152905
766.623	0.0152940
766.701	0.0152260
766.780	0.0152936
766.858	0.0153075
766.936	0.0152939
767.014	0.0153789
767.092	0.0155886
767.170	0.0156883
767.248	0.0154533
767.326	0.0152864
767.405	0.0155166
767.483	0.0155514
767.561	0.0154389
767.639	0.0154136
767.717	0.0153311
767.795	0.0155003
767.873	0.0154951
767.951	0.0156255
768.030	0.0153130
768.108	0.0153226
768.186	0.0154566
768.264	0.0153239
768.342	0.0152808
768.420	0.0154027
768.498	0.0153845
768.576	0.0153842
768.655	0.0152663
768.733	0.0152433
768.811	0.0153598
768.889	0.0153255
768.967	0.0152576
769.045	0.0153664
769.123	0.0152975
769.201	0.0151786
769.280	0.0154829
769.358	0.0153201
769.436	0.0153217
769.514	0.0152763
769.592	0.0151069
769.670	0.0153036
769.748	0.0151828
769.826	0.0152209
769.905	0.0151803
769.983	0.0151890
770.061	0.0151951
770.139	0.0152129
770.217	0.0152134
770.295	0.0151486
770.373	0.0150785
770.451	0.0149226
770.530	0.0151356
770.608	0.0151059
770.686	0.0150681
770.764	0.0151974
770.842	0.0151717
770.920	0.0151040
770.998	0.0152374
771.076	0.0152264
771.155	0.0152963
771.233	0.0150687
771.311	0.0151897
771.389	0.0152742
771.467	0.0152127
771.545	0.0152571
771.623	0.0154054
771.701	0.0154124
771.780	0.0153564
771.858	0.0153415
771.936	0.0153083
772.014	0.0155563
772.092	0.0153255
772.170	0.0154834
772.248	0.0154417
772.326	0.0155280
772.405	0.0157062
772.483	0.0156532
772.561	0.0155215
772.639	0.0156669
772.717	0.0156553
772.795	0.0156882
772.873	0.0157440
772.951	0.0157084
773.030	0.0156766
773.108	0.0156303
773.186	0.0156339
773.264	0.0156590
773.342	0.0157101
773.420	0.0157248
773.498	0.0157661
773.576	0.0156129
773.655	0.0155787
773.733	0.0157951
773.811	0.0155839
773.889	0.0157592
773.967	0.0157445
774.045	0.0157000
774.123	0.0157249
774.201	0.0155309
774.280	0.0156821
774.358	0.0156905
774.436	0.0155857
774.514	0.0155255
774.592	0.0154073
774.670	0.0154302
774.748	0.0153181
774.826	0.0152862
774.905	0.0152429
774.983	0.0151954
775.061	0.0153120
775.139	0.0151154
775.217	0.0152219
775.295	0.0151743
775.373	0.0150659
775.451	0.0152680
775.530	0.0152557
775.608	0.0150717
775.686	0.0151579
775.764	0.0151489
775.842	0.0151554
775.920	0.0152192
775.998	0.0153360
776.076	0.0153721
776.155	0.0153182
776.233	0.0152452
776.311	0.0152241
776.389	0.0153461
776.467	0.0153321
776.545	0.0153821
776.623	0.0152189
776.701	0.0154985
776.780	0.0153867
776.858	0.0155522
776.936	0.0155259
777.014	0.0154681
777.092	0.0155296
777.170	0.0153727
777.248	0.0155479
777.326	0.0154403
777.405	0.0155722
777.483	0.0155086
777.561	0.0154922
777.639	0.0156321
777.717	0.0155956
777.795	0.0156570
777.873	0.0156305
777.951	0.0155849
778.030	0.0156040
778.108	0.0157153
778.186	0.0157964
778.264	0.0155502
778.342	0.0157138
778.420	0.0157758
778.498	0.0158116
778.576	0.0156622
778.655	0.0157893
778.733	0.0158228
778.811	0.0156953
778.889	0.0158663
778.967	0.0158650
779.045	0.0157098
779.123	0.0157112
779.201	0.0157405
779.280	0.0157552
779.358	0.0157295
779.436	0.0156990
779.514	0.0157149
779.592	0.0157184
779.670	0.0157144
779.748	0.0155431
779.826	0.0157927
779.905	0.0156950
779.983	0.0155236
780.061	0.0154897
780.139	0.0155209
780.217	0.0155951
780.295	0.0155760
780.373	0.0155579
780.451	0.0156136
780.530	0.0155125
780.608	0.0154122
780.686	0.0154886
780.764	0.0156445
780.842	0.0155344
780.920	0.0153703
780.998	0.0153266
781.076	0.0154951
781.155	0.0153442
781.233	0.0153894
781.311	0.0153100
781.389	0.0153457
781.467	0.0153457
781.545	0.0152619
781.623	0.0152823
781.701	0.0152943
781.780	0.0153265
781.858	0.0153951
781.936	0.0152374
782.014	0.0152527
782.092	0.0152940
782.170	0.0151956
782.248	0.0152562
782.326	0.0152923
782.405	0.0152267
782.483	0.0152732
782.561	0.0153067
782.639	0.0153883
782.717	0.0152355
782.795	0.0151800
782.873	0.0153671
782.951	0.0152866
783.030	0.0153575
783.108	0.0153364
783.186	0.0153263
783.264	0.0152851
783.342	0.0151669
783.420	0.0152724
783.498	0.0154407
783.576	0.0153461
783.655	0.0152944
783.733	0.0153601
783.811	0.0155025
783.889	0.0155021
783.967	0.0153127
784.045	0.0154031
784.123	0.0154979
784.201	0.0156129
784.280	0.0153481
784.358	0.0153374
784.436	0.0154069
784.514	0.0154385
784.592	0.0154731
784.670	0.0153954
784.748	0.0154389
784.826	0.0153430
784.905	0.0153925
784.983	0.0152924
785.061	0.0153664
785.139	0.0153128
785.217	0.0152564
785.295	0.0153561
785.373	0.0153024
785.451	0.0152259
785.530	0.0152228
785.608	0.0150650
785.686	0.0152470
785.764	0.0153767
785.842	0.0151875
785.920	0.0151484
785.998	0.0152689
786.076	0.0152001
786.155	0.0152769
786.233	0.0152608
786.311	0.0153166
786.389	0.0151968
786.467	0.0151690
786.545	0.0152451
786.623	0.0152654
786.701	0.0154366
786.780	0.0153287
786.858	0.0152316
786.936	0.0153557
787.014	0.0154591
787.092	0.0154157
787.170	0.0152187
787.248	0.0153275
787.326	0.0153478
787.405	0.0152482
787.483	0.0154194
787.561	0.0154722
787.639	0.0152491
787.717	0.0152727
787.795	0.0153078
787.873	0.0153242
787.951	0.0151320
788.030	0.0152666
788.108	0.0154186
788.186	0.0152325
788.264	0.0152824
788.342	0.0154299
788.420	0.0153739
788.498	0.0153180
788.576	0.0155180
788.655	0.0155544
788.733	0.0154084
788.811	0.0154554
788.889	0.0154450
788.967	0.0154496
789.045	0.0154242
789.123	0.0153805
789.201	0.0153870
789.280	0.0153730
789.358	0.0154001
789.436	0.0154383
789.514	0.0153803
789.592	0.0153271
789.670	0.0153834
789.748	0.0152580
789.826	0.0152457
789.905	0.0153255
789.983	0.0153296
790.061	0.0152310
790.139	0.0152522
790.217	0.0151997
790.295	0.0150761
790.373	0.0152307
790.451	0.0151183
790.530	0.0150264
790.608	0.0151684
790.686	0.0151791
790.764	0.0151918
790.842	0.0152280
790.920	0.0151009
790.998	0.0151981
791.076	0.0152354
791.155	0.0153424
791.233	0.0152437
791.311	0.0150739
791.389	0.0152200
791.467	0.0154136
791.545	0.0153734
791.623	0.0153295
791.701	0.0154935
791.780	0.0154675
791.858	0.0153179
791.936	0.0153574
792.014	0.0154033
792.092	0.0153860
792.170	0.0154776
792.248	0.0156445
792.326	0.0155656
792.405	0.0154359
792.483	0.0155097
792.561	0.0155463
792.639	0.0156084
792.717	0.0155308
792.795	0.0155611
792.873	0.0155708
792.951	0.0156031
793.030	0.0155526
793.108	0.0154749
793.186	0.0154213
793.264	0.0154420
793.342	0.0155973
793.420	0.0155517
793.498	0.0154564
793.576	0.0152222
793.655	0.0154707
793.733	0.0153506
793.811	0.0153264
793.889	0.0152445
793.967	0.0153297
794.045	0.0153202
794.123	0.0153555
794.201	0.0153971
794.280	0.0151349
794.358	0.0151984
794.436	0.0153450
794.514	0.0153406
794.592	0.0152115
794.670	0.0152523
794.748	0.0150939
794.826	0.0152192
794.905	0.0153181
794.983	0.0152425
795.061	0.0151132
795.139	0.0150510
795.217	0.0152263
795.295	0.0151616
795.373	0.0152303
795.451	0.0151766
795.530	0.0151061
795.608	0.0151960
795.686	0.0152328
795.764	0.0152175
795.842	0.0151228
795.920	0.0153583
795.998	0.0152518
796.076	0.0151894
796.155	0.0153373
796.233	0.0154079
796.311	0.0154343
796.389	0.0154617
796.467	0.0152805
796.545	0.0154686
796.623	0.0153432
796.701	0.0154430
796.780	0.0155249
796.858	0.0154594
796.936	0.0154580
797.014	0.0156386
797.092	0.0155161
797.170	0.0156248
797.248	0.0155716
797.326	0.0157034
797.405	0.0156403
797.483	0.0157484
797.561	0.0155920
797.639	0.0156546
797.717	0.0155391
797.795	0.0156388
797.873	0.0155859
797.951	0.0154920
798.030	0.0157906
798.108	0.0157158
798.186	0.0155389
798.264	0.0155901
798.342	0.0155894
798.420	0.0156754
798.498	0.0155550
798.576	0.0154697
798.655	0.0155034
798.733	0.0156138
798.811	0.0154012
798.889	0.0153745
798.967	0.0154004
799.045	0.0153904
799.123	0.0153946
799.201	0.0153018
799.280	0.0151904
799.358	0.0152162
799.436	0.0154174
799.514	0.0154578
799.592	0.0153354
799.670	0.0152769
799.748	0.0153484
799.826	0.0153176
799.905	0.0152604
799.983	0.0152338
800.061	0.0152500
800.139	0.0153043
800.217	0.0152615
800.295	0.0152814
800.373	0.0153460
800.451	0.0154047
800.530	0.0153244
800.608	0.0154033
800.686	0.0152345
800.764	0.0154131
800.842	0.0154507
800.920	0.0153458
800.998	0.0153024
801.076	0.0153701
801.155	0.0153791
801.233	0.0153538
801.311	0.0156263
801.389	0.0154130
801.467	0.0153531
801.545	0.0152802
801.623	0.0152274
801.701	0.0153068
801.780	0.0154492
801.858	0.0153635
801.936	0.0153936
802.014	0.0154394
802.092	0.0152737
802.170	0.0152541
802.248	0.0154942
802.326	0.0154277
802.405	0.0154604
802.483	0.0155129
802.561	0.0154621
802.639	0.0155582
802.717	0.0155422
802.795	0.0154151
802.873	0.0155029
802.951	0.0156120
803.030	0.0155148
803.108	0.0156287
803.186	0.0155402
803.264	0.0154836
803.342	0.0153783
803.420	0.0153142
803.498	0.0155776
803.576	0.0154673
803.655	0.0155501
803.733	0.0153916
803.811	0.0154075
803.889	0.0154876
803.967	0.0155980
804.045	0.0155343
804.123	0.0154131
804.201	0.0153368
804.280	0.0154565
804.358	0.0155984
804.436	0.0153684
804.514	0.0153677
804.592	0.0155027
804.670	0.0154813
804.748	0.0153659
804.826	0.0155843
804.905	0.0155643
804.983	0.0155972
805.061	0.0155648
805.139	0.0154504
805.217	0.0155140
805.295	0.0154129
805.373	0.0154800
805.451	0.0154289
805.530	0.0155550
805.608	0.0154480
805.686	0.0154150
805.764	0.0153682
805.842	0.0153200
805.920	0.0153244
805.998	0.0153914
806.076	0.0152818
806.155	0.0153803
806.233	0.0153677
806.311	0.0152514
806.389	0.0152789
806.467	0.0152486
806.545	0.0152400
806.623	0.0153793
806.701	0.0152230
806.780	0.0152198
806.858	0.0153328
806.936	0.0154491
807.014	0.0152991
807.092	0.0152747
807.170	0.0152882
807.248	0.0153773
807.326	0.0154660
807.405	0.0154086
807.483	0.0153531
807.561	0.0153162
807.639	0.0153993
807.717	0.0153632
807.795	0.0153561
807.873	0.0155035
807.951	0.0155463
808.030	0.0155275
808.108	0.0156114
808.186	0.0155247
808.264	0.0154995
808.342	0.0154804
808.420	0.0156443
808.498	0.0156866
808.576	0.0155306
808.655	0.0155450
808.733	0.0156527
808.811	0.0156545
808.889	0.0155405
808.967	0.0156509
809.045	0.0157151
809.123	0.0157368
809.201	0.0156326
809.280	0.0155528
809.358	0.0156552
809.436	0.0156629
809.514	0.0153077
809.592	0.0154392
809.670	0.0154604
809.748	0.0154059
809.826	0.0153987
809.905	0.0152050
809.983	0.0151857
810.061	0.0153261
810.139	0.0151438
810.217	0.0152412
810.295	0.0153139
810.373	0.0151791
810.451	0.0151195
810.530	0.0151685
810.608	0.0151048
810.686	0.0152101
810.764	0.0152409
810.842	0.0151725
810.920	0.0151995
810.998	0.0151159
811.076	0.0151948
811.155	0.0150432
811.233	0.0151276
811.311	0.0151965
811.389	0.0152570
811.467	0.0152079
811.545	0.0152729
811.623	0.0151495
811.701	0.0151845
811.780	0.0152489
811.858	0.0153278
811.936	0.0153300
812.014	0.0152177
812.092	0.0152672
812.170	0.0153139
812.248	0.0152493
812.326	0.0153307
812.405	0.0153072
812.483	0.0152934
812.561	0.0153535
812.639	0.0153550
812.717	0.0155542
812.795	0.0153651
812.873	0.0153859
812.951	0.0153897
813.030	0.0154681
813.108	0.0154067
813.186	0.0154838
813.264	0.0154269
813.342	0.0154339
813.420	0.0152828
813.498	0.0153961
813.576	0.0154198
813.655	0.0153320
813.733	0.0152783
813.811	0.0154478
813.889	0.0154660
813.967	0.0153452
814.045	0.0151362
814.123	0.0152543
814.201	0.0152090
814.280	0.0152345
814.358	0.0152834
814.436	0.0151526
814.514	0.0152493
814.592	0.0152310
814.670	0.0152827
814.748	0.0152844
814.826	0.0150475
814.905	0.0152864
814.983	0.0153126
815.061	0.0153497
815.139	0.0152673
815.217	0.0152709
815.295	0.0153082
815.373	0.0153696
815.451	0.0154529
815.530	0.0152921
815.608	0.0153674
815.686	0.0153594
815.764	0.0154556
815.842	0.0154354
815.920	0.0155124
815.998	0.0154522
816.076	0.0154522
816.155	0.0155570
816.233	0.0154774
816.311	0.0156335
816.389	0.0155543
816.467	0.0155900
816.545	0.0156491
816.623	0.0155262
816.701	0.0155255
816.780	0.0157029
816.858	0.0156285
816.936	0.0156886
817.014	0.0155925
817.092	0.0156092
817.170	0.0156120
817.248	0.0155586
817.326	0.0156332
817.405	0.0155323
817.483	0.0155174
817.561	0.0153919
817.639	0.0154108
817.717	0.0155009
817.795	0.0154901
817.873	0.0153310
817.951	0.0153887
818.030	0.0153399
818.108	0.0153589
818.186	0.0152554
818.264	0.0152028
818.342	0.0152482
818.420	0.0151833
818.498	0.0152637
818.576	0.0151770
818.655	0.0152911
818.733	0.0152995
818.811	0.0152299
818.889	0.0152192
818.967	0.0153207
819.045	0.0153944
819.123	0.0151521
819.201	0.0152494
819.280	0.0154463
819.358	0.0152715
819.436	0.0153474
819.514	0.0153420
819.592	0.0153790
819.670	0.0153133
819.748	0.0153539
819.826	0.0154158
819.905	0.0154488
819.983	0.0154923
820.061	0.0153319
820.139	0.0153011
820.217	0.0153931
820.295	0.0153988
820.373	0.0152488
820.451	0.0152601
820.530	0.0153237
820.608	0.0154052
820.686	0.0154308
820.764	0.0153036
820.842	0.0152345
820.920	0.0154057
820.998	0.0154490
821.076	0.0154727
821.155	0.0154182
821.233	0.0153336
821.311	0.0154992
821.389	0.0155087
821.467	0.0152594
821.545	0.0154316
821.623	0.0154410
821.701	0.0153588
821.780	0.0153507
821.858	0.0152974
821.936	0.0154095
822.014	0.0153400
822.092	0.0154476
822.170	0.0154404
822.248	0.0154282
822.326	0.0152822
822.405	0.0152953
822.483	0.0154792
822.561	0.0152701
822.639	0.0152357
822.717	0.0153434
822.795	0.0151750
822.873	0.0152169
822.951	0.0152919
823.030	0.0152731
823.108	0.0153365
823.186	0.0152155
823.264	0.0152081
823.342	0.0153124
823.420	0.0151951
823.498	0.0151884
823.576	0.0153003
823.655	0.0153790
823.733	0.0152460
823.811	0.0152499
823.889	0.0154675
823.967	0.0154411
824.045	0.0153087
824.123	0.0154163
824.201	0.0154375
824.280	0.0152733
824.358	0.0154866
824.436	0.0154488
824.514	0.0154781
824.592	0.0152990
824.670	0.0154170
824.748	0.0155788
824.826	0.0153867
824.905	0.0154355
824.983	0.0153540
825.061	0.0154826
825.139	0.0155292
825.217	0.0154623
825.295	0.0155313
825.373	0.0154548
825.451	0.0154151
825.530	0.0153812
825.608	0.0154564
825.686	0.0154703
825.764	0.0153668
825.842	0.0153756
825.920	0.0154513
825.998	0.0154013
826.076	0.0153835
826.155	0.0155036
826.233	0.0153604
826.311	0.0154834
826.389	0.0153780
826.467	0.0152016
826.545	0.0153003
826.623	0.0154004
826.701	0.0153217
826.780	0.0153711
826.858	0.0153091
826.936	0.0153369
827.014	0.0151749
827.092	0.0152814
827.170	0.0152112
827.248	0.0152449
827.326	0.0151971
827.405	0.0153992
827.483	0.0153994
827.561	0.0153203
827.639	0.0152776
827.717	0.0155016
827.795	0.0153846
827.873	0.0153402
827.951	0.0151642
828.030	0.0153591
828.108	0.0154677
828.186	0.0154185
828.264	0.0152295
828.342	0.0153038
828.420	0.0154175
828.498	0.0153943
828.576	0.0154107
828.655	0.0154545
828.733	0.0153246
828.811	0.0153654
828.889	0.0155253
828.967	0.0153246
829.045	0.0153525
829.123	0.0154541
829.201	0.0153982
829.280	0.0153711
829.358	0.0154446
829.436	0.0154987
829.514	0.0153629
829.592	0.0153788
829.670	0.0155166
829.748	0.0154588
829.826	0.0154205
829.905	0.0154213
829.983	0.0154569
830.061	0.0154590
830.139	0.0154173
830.217	0.0154750
830.295	0.0155224
830.373	0.0154205
830.451	0.0154007
830.530	0.0154655
830.608	0.0154063
830.686	0.0153401
830.764	0.0154996
830.842	0.0154545
830.920	0.0155310
830.998	0.0156065
831.076	0.0153957
831.155	0.0155115
831.233	0.0154160
831.311	0.0154939
831.389	0.0155514
831.467	0.0156651
831.545	0.0156778
831.623	0.0154926
831.701	0.0155687
831.780	0.0156021
831.858	0.0156260
831.936	0.0154394
832.014	0.0156572
832.092	0.0156660
832.170	0.0155763
832.248	0.0154921
832.326	0.0156332
832.405	0.0156622
832.483	0.0155009
832.561	0.0154860
832.639	0.0154875
832.717	0.0155455
832.795	0.0156074
832.873	0.0154829
832.951	0.0155592
833.030	0.0155364
833.108	0.0154520
833.186	0.0155112
833.264	0.0156595
833.342	0.0155563
833.420	0.0154887
833.498	0.0155128
833.576	0.0153976
833.655	0.0155006
833.733	0.0154025
833.811	0.0155062
833.889	0.0154501
833.967	0.0155222
834.045	0.0153696
834.123	0.0153671
834.201	0.0156355
834.280	0.0155573
834.358	0.0153938
834.436	0.0153756
834.514	0.0155138
834.592	0.0153894
834.670	0.0154006
834.748	0.0154372
834.826	0.0154311
834.905	0.0154559
834.983	0.0153918
835.061	0.0153677
835.139	0.0155322
835.217	0.0153755
835.295	0.0154075
835.373	0.0153853
835.451	0.0153910
835.530	0.0152565
835.608	0.0154312
835.686	0.0153250
835.764	0.0154648
835.842	0.0154935
835.920	0.0154675
835.998	0.0152789
836.076	0.0153920
836.155	0.0153817
836.233	0.0155286
836.311	0.0154337
836.389	0.0155715
836.467	0.0154040
836.545	0.0153922
836.623	0.0154885
836.701	0.0153675
836.780	0.0153418
836.858	0.0153844
836.936	0.0151740
837.014	0.0154456
837.092	0.0155299
837.170	0.0154325
837.248	0.0154870
837.326	0.0153881
837.405	0.0153906
837.483	0.0154034
837.561	0.0153496
837.639	0.0154407
837.717	0.0154350
837.795	0.0154677
837.873	0.0154348
837.951	0.0153503
838.030	0.0156050
838.108	0.0154554
838.186	0.0154350
838.264	0.0154488
838.342	0.0154734
838.420	0.0154520
838.498	0.0152799
838.576	0.0153057
838.655	0.0153435
838.733	0.0153809
838.811	0.0154518
838.889	0.0155043
838.967	0.0155095
839.045	0.0153981
839.123	0.0154544
839.201	0.0153313
839.280	0.0155446
839.358	0.0154346
839.436	0.0153026
839.514	0.0154078
839.592	0.0154382
839.670	0.0155389
839.748	0.0153860
839.826	0.0153088
839.905	0.0152728
839.983	0.0153814
840.061	0.0152086
840.139	0.0151623
840.217	0.0153275
840.295	0.0153909
840.373	0.0152570
840.451	0.0152821
840.530	0.0153123
840.608	0.0152494
840.686	0.0153516
840.764	0.0153178
840.842	0.0152637
840.920	0.0153057
840.998	0.0153706
841.076	0.0152880
841.155	0.0154799
841.233	0.0153568
841.311	0.0152805
841.389	0.0152917
841.467	0.0153164
841.545	0.0153132
841.623	0.0154509
841.701	0.0154239
841.780	0.0153074
841.858	0.0152583
841.936	0.0154193
842.014	0.0153497
842.092	0.0152957
842.170	0.0153534
842.248	0.0153366
842.326	0.0153147
842.405	0.0153004
842.483	0.0153177
842.561	0.0154243
842.639	0.0153589
842.717	0.0152332
842.795	0.0153414
842.873	0.0152721
842.951	0.0152864
843.030	0.0152647
843.108	0.0154182
843.186	0.0155060
843.264	0.0153881
843.342	0.0153448
843.420	0.0154179
843.498	0.0154176
843.576	0.0152871
843.655	0.0152779
843.733	0.0153145
843.811	0.0154098
843.889	0.0153756
843.967	0.0154083
844.045	0.0153233
844.123	0.0153979
844.201	0.0154124
844.280	0.0154481
844.358	0.0153461
844.436	0.0154574
844.514	0.0154443
844.592	0.0154666
844.670	0.0154158
844.748	0.0155327
844.826	0.0154823
844.905	0.0154787
844.983	0.0155117
845.061	0.0154321
845.139	0.0155080
845.217	0.0156160
845.295	0.0155551
845.373	0.0154668
845.451	0.0155457
845.530	0.0154354
845.608	0.0154507
845.686	0.0153964
845.764	0.0153716
845.842	0.0154310
845.920	0.0154373
845.998	0.0154358
846.076	0.0154338
846.155	0.0154894
846.233	0.0154563
846.311	0.0152576
846.389	0.0153696
846.467	0.0153765
846.545	0.0154030
846.623	0.0154678
846.701	0.0153506
846.780	0.0154087
846.858	0.0154156
846.936	0.0153150
847.014	0.0153451
847.092	0.0154114
847.170	0.0154344
847.248	0.0154664
847.326	0.0154110
847.405	0.0152567
847.483	0.0153516
847.561	0.0153854
847.639	0.0154089
847.717	0.0153715
847.795	0.0154490
847.873	0.0154466
847.951	0.0154140
848.030	0.0153844
848.108	0.0153929
848.186	0.0153993
848.264	0.0154759
848.342	0.0154757
848.420	0.0154023
848.498	0.0153730
848.576	0.0153860
848.655	0.0155022
848.733	0.0153297
848.811	0.0153642
848.889	0.0154131
848.967	0.0153921
849.045	0.0153976
849.123	0.0154720
849.201	0.0153600
849.280	0.0154478
849.358	0.0155301
849.436	0.0155005
849.514	0.0154128
849.592	0.0154586
849.670	0.0155315
849.748	0.0155118
849.826	0.0155392
849.905	0.0155637
849.983	0.0155350
850.061	0.0154208
850.139	0.0155521
850.217	0.0155507
850.295	0.0154304
850.373	0.0154343
850.451	0.0154523
850.530	0.0154605
850.608	0.0155904
850.686	0.0153681
850.764	0.0154546
850.842	0.0155246
850.920	0.0155756
850.998	0.0154666
851.076	0.0153679
851.155	0.0153617
851.233	0.0153857
851.311	0.0154656
851.389	0.0155232
851.467	0.0155214
851.545	0.0154952
851.623	0.0154282
851.701	0.0154197
851.780	0.0154833
851.858	0.0155198
851.936	0.0152878
852.014	0.0152582
852.092	0.0154725
852.170	0.0154996
852.248	0.0154829
852.326	0.0155518
852.405	0.0153831
852.483	0.0155161
852.561	0.0154125
852.639	0.0154132
852.717	0.0154140
852.795	0.0153350
852.873	0.0154900
852.951	0.0153996
853.030	0.0153985
853.108	0.0152509
853.186	0.0152923
853.264	0.0153281
853.342	0.0153787
853.420	0.0153933
853.498	0.0154056
853.576	0.0152750
853.655	0.0152344
853.733	0.0153702
853.811	0.0152641
853.889	0.0151578
853.967	0.0152338
854.045	0.0151639
854.123	0.0153513
854.201	0.0154365
854.280	0.0153052
854.358	0.0152312
854.436	0.0152829
854.514	0.0152953
854.592	0.0154535
854.670	0.0153928
854.748	0.0152043
854.826	0.0153159
854.905	0.0152715
854.983	0.0152677
855.061	0.0153167
855.139	0.0154161
855.217	0.0152624
855.295	0.0152484
855.373	0.0152611
855.451	0.0153020
855.530	0.0153600
855.608	0.0153524
855.686	0.0151627
855.764	0.0154120
855.842	0.0153261
855.920	0.0151913
855.998	0.0153098
856.076	0.0153869
856.155	0.0153252
856.233	0.0154201
856.311	0.0153928
856.389	0.0152670
856.467	0.0154202
856.545	0.0153170
856.623	0.0152848
856.701	0.0152916
856.780	0.0152529
856.858	0.0155298
856.936	0.0154625
857.014	0.0152013
857.092	0.0152502
857.170	0.0154243
857.248	0.0154927
857.326	0.0152635
857.405	0.0152979
857.483	0.0153890
857.561	0.0154470
857.639	0.0154883
857.717	0.0153082
857.795	0.0151678
857.873	0.0152983
857.951	0.0154713
858.030	0.0153560
858.108	0.0153867
858.186	0.0153725
858.264	0.0154000
858.342	0.0153811
858.420	0.0154631
858.498	0.0154089
858.576	0.0153946
858.655	0.0153788
858.733	0.0154977
858.811	0.0154281
858.889	0.0153449
858.967	0.0154316
859.045	0.0154728
859.123	0.0152455
859.201	0.0154282
859.280	0.0153733
859.358	0.0154017
859.436	0.0152586
859.514	0.0153432
859.592	0.0152729
859.670	0.0156168
859.748	0.0154466
859.826	0.0154177
859.905	0.0153478
859.983	0.0152290
860.061	0.0153517
860.139	0.0155325
860.217	0.0154733
860.295	0.0154653
860.373	0.0154556
860.451	0.0154212
860.530	0.0155084
860.608	0.0153847
860.686	0.0152374
860.764	0.0155565
860.842	0.0154723
860.920	0.0154043
860.998	0.0154849
861.076	0.0154616
861.155	0.0156149
861.233	0.0154444
861.311	0.0154697
861.389	0.0155275
861.467	0.0154739
861.545	0.0154168
861.623	0.0154542
861.701	0.0154566
861.780	0.0154310
861.858	0.0155240
861.936	0.0155864
862.014	0.0154928
862.092	0.0155206
862.170	0.0156012
862.248	0.0154214
862.326	0.0155143
862.405	0.0155162
862.483	0.0154418
862.561	0.0154525
862.639	0.0154503
862.717	0.0153499
862.795	0.0154094
862.873	0.0153973
862.951	0.0153896
863.030	0.0154079
863.108	0.0154053
863.186	0.0154275
863.264	0.0153333
863.342	0.0154475
863.420	0.0152678
863.498	0.0154332
863.576	0.0154435
863.655	0.0154586
863.733	0.0154227
863.811	0.0155620
863.889	0.0153928
863.967	0.0155164
864.045	0.0154159
864.123	0.0153247
864.201	0.0154202
864.280	0.0153341
864.358	0.0154312
864.436	0.0154726
864.514	0.0153453
864.592	0.0153998
864.670	0.0153546
864.748	0.0153638
864.826	0.0153987
864.905	0.0154764
864.983	0.0154858
865.061	0.0152298
865.139	0.0153112
865.217	0.0152438
865.295	0.0154167
865.373	0.0154349
865.451	0.0153680
865.530	0.0154887
865.608	0.0152763
865.686	0.0152724
865.764	0.0151158
865.842	0.0152467
865.920	0.0152415
865.998	0.0151219
866.076	0.0152209
866.155	0.0151840
866.233	0.0151514
866.311	0.0152502
866.389	0.0152072
866.467	0.0154476
866.545	0.0153282
866.623	0.0152328
866.701	0.0152007
866.780	0.0152627
866.858	0.0152239
866.936	0.0153053
867.014	0.0152489
867.092	0.0155029
867.170	0.0153722
867.248	0.0154877
867.326	0.0153964
867.405	0.0152694
867.483	0.0153728
867.561	0.0154384
867.639	0.0154148
867.717	0.0155292
867.795	0.0155415
867.873	0.0154160
867.951	0.0154362
868.030	0.0155663
868.108	0.0155436
868.186	0.0155321
868.264	0.0153635
868.342	0.0154478
868.420	0.0154441
868.498	0.0153812
868.576	0.0153692
868.655	0.0154996
868.733	0.0153661
868.811	0.0153732
868.889	0.0153480
868.967	0.0153441
869.045	0.0153192
869.123	0.0154285
869.201	0.0153880
869.280	0.0154370
869.358	0.0154404
869.436	0.0155007
869.514	0.0153245
869.592	0.0153266
869.670	0.0153634
869.748	0.0153768
869.826	0.0154936
869.905	0.0154823
869.983	0.0153600
870.061	0.0152969
870.139	0.0154160
870.217	0.0153155
870.295	0.0154886
870.373	0.0153487
870.451	0.0152658
870.530	0.0156267
870.608	0.0155700
870.686	0.0155305
870.764	0.0155711
870.842	0.0155492
870.920	0.0154902
870.998	0.0155522
871.076	0.0154528
871.155	0.0155293
871.233	0.0156318
871.311	0.0154668
871.389	0.0154667
871.467	0.0154910
871.545	0.0156189
871.623	0.0155637
871.701	0.0154241
871.780	0.0156035
871.858	0.0155830
871.936	0.0154603
872.014	0.0156315
872.092	0.0155335
872.170	0.0156091
872.248	0.0155598
872.326	0.0155212
872.405	0.0156216
872.483	0.0155817
872.561	0.0154398
872.639	0.0155842
872.717	0.0155112
872.795	0.0154868
872.873	0.0156098
872.951	0.0154843
873.030	0.0154209
873.108	0.0154462
873.186	0.0154456
873.264	0.0154119
873.342	0.0154462
873.420	0.0154504
873.498	0.0154482
873.576	0.0154490
873.655	0.0153316
873.733	0.0154153
873.811	0.0155079
873.889	0.0154828
873.967	0.0152719
874.045	0.0154173
874.123	0.0153923
874.201	0.0154333
874.280	0.0154830
874.358	0.0154651
874.436	0.0154148
874.514	0.0154289
874.592	0.0155035
874.670	0.0154511
874.748	0.0155798
874.826	0.0155994
874.905	0.0155536
874.983	0.0153252
875.061	0.0153345
875.139	0.0153455
875.217	0.0154375
875.295	0.0154166
875.373	0.0154119
875.451	0.0154183
875.530	0.0153264
875.608	0.0154491
875.686	0.0154646
875.764	0.0154614
875.842	0.0154462
875.920	0.0155527
875.998	0.0153600
876.076	0.0155305
876.155	0.0154425
876.233	0.0154253
876.311	0.0154425
876.389	0.0153664
876.467	0.0155182
876.545	0.0155512
876.623	0.0154172
876.701	0.0153411
876.780	0.0153519
876.858	0.0155344
876.936	0.0154681
877.014	0.0153936
877.092	0.0154890
877.170	0.0153539
877.248	0.0153994
877.326	0.0154057
877.405	0.0154456
877.483	0.0153921
877.561	0.0154176
877.639	0.0154969
877.717	0.0154753
877.795	0.0154314
877.873	0.0153972
877.951	0.0154454
878.030	0.0153165
878.108	0.0153798
878.186	0.0153304
878.264	0.0154812
878.342	0.0153918
878.420	0.0153413
878.498	0.0153682
878.576	0.0152834
878.655	0.0153590
878.733	0.0153815
878.811	0.0154802
878.889	0.0154939
878.967	0.0154419
879.045	0.0154295
879.123	0.0152914
879.201	0.0153721
879.280	0.0154079
879.358	0.0153970
879.436	0.0153936
879.514	0.0154550
879.592	0.0153789
879.670	0.0153988
879.748	0.0153471
879.826	0.0152592
879.905	0.0153264
879.983	0.0154521
880.061	0.0153611
880.139	0.0152814
880.217	0.0154574
880.295	0.0153136
880.373	0.0152989
880.451	0.0153570
880.530	0.0154160
880.608	0.0154888
880.686	0.0154350
880.764	0.0153880
880.842	0.0155025
880.920	0.0155243
880.998	0.0154836
881.076	0.0153841
881.155	0.0154720
881.233	0.0155081
881.311	0.0153915
881.389	0.0154100
881.467	0.0153602
881.545	0.0155173
881.623	0.0153077
881.701	0.0154281
881.780	0.0154828
881.858	0.0153502
881.936	0.0153246
882.014	0.0154221
882.092	0.0155272
882.170	0.0154231
882.248	0.0154086
882.326	0.0154280
882.405	0.0153554
882.483	0.0154924
882.561	0.0153522
882.639	0.0154989
882.717	0.0153517
882.795	0.0153012
882.873	0.0154035
882.951	0.0154906
883.030	0.0152795
883.108	0.0154707
883.186	0.0154910
883.264	0.0154742
883.342	0.0154201
883.420	0.0155289
883.498	0.0153994
883.576	0.0154207
883.655	0.0154585
883.733	0.0154256
883.811	0.0154992
883.889	0.0153054
883.967	0.0153812
884.045	0.0154721
884.123	0.0152702
884.201	0.0152822
884.280	0.0153957
884.358	0.0152859
884.436	0.0153482
884.514	0.0153806
884.592	0.0152879
884.670	0.0154872
884.748	0.0154500
884.826	0.0153142
884.905	0.0152633
884.983	0.0152773
885.061	0.0153189
885.139	0.0153031
885.217	0.0153070
885.295	0.0153285
885.373	0.0153767
885.451	0.0153418
885.530	0.0154079
885.608	0.0151293
885.686	0.0152277
885.764	0.0154035
885.842	0.0153192
885.920	0.0154124
885.998	0.0152626
886.076	0.0154860
886.155	0.0155312
886.233	0.0154079
886.311	0.0152610
886.389	0.0152689
886.467	0.0154779
886.545	0.0153481
886.623	0.0154254
886.701	0.0154706
886.780	0.0152928
886.858	0.0154053
886.936	0.0154646
887.014	0.0154549
887.092	0.0153655
887.170	0.0153807
887.248	0.0154362
887.326	0.0152824
887.405	0.0152838
887.483	0.0152723
887.561	0.0154652
887.639	0.0153667
887.717	0.0153242
887.795	0.0153110
887.873	0.0154053
887.951	0.0153300
888.030	0.0153567
888.108	0.0155460
888.186	0.0154829
888.264	0.0154352
888.342	0.0153554
888.420	0.0154821
888.498	0.0153835
888.576	0.0154890
888.655	0.0154706
888.733	0.0153413
888.811	0.0153600
888.889	0.0153816
888.967	0.0154848
889.045	0.0154495
889.123	0.0154374
889.201	0.0154366
889.280	0.0153313
889.358	0.0153228
889.436	0.0153716
889.514	0.0153381
889.592	0.0153485
889.670	0.0154031
889.748	0.0153615
889.826	0.0152679
889.905	0.0152849
889.983	0.0154546
890.061	0.0154527
890.139	0.0153475
890.217	0.0152383
890.295	0.0152953
890.373	0.0153341
890.451	0.0152466
890.530	0.0153738
890.608	0.0153379
890.686	0.0152932
890.764	0.0153493
890.842	0.0152958
890.920	0.0152425
890.998	0.0153008
891.076	0.0153087
891.155	0.0151913
891.233	0.0153318
891.311	0.0153879
891.389	0.0152972
891.467	0.0153490
891.545	0.0152982
891.623	0.0153806
891.701	0.0152574
891.780	0.0153569
891.858	0.0154140
891.936	0.0153112
892.014	0.0154021
892.092	0.0152816
892.170	0.0153568
892.248	0.0154810
892.326	0.0154776
892.405	0.0154169
892.483	0.0154527
892.561	0.0152933
892.639	0.0155427
892.717	0.0155776
892.795	0.0154108
892.873	0.0153973
892.951	0.0154070
893.030	0.0154939
893.108	0.0154921
893.186	0.0154057
893.264	0.0154164
893.342	0.0154179
893.420	0.0153939
893.498	0.0154942
893.576	0.0153867
893.655	0.0153966
893.733	0.0155628
893.811	0.0152351
893.889	0.0152483
893.967	0.0153980
894.045	0.0153942
894.123	0.0153594
894.201	0.0154636
894.280	0.0154889
894.358	0.0153069
894.436	0.0152571
894.514	0.0152416
894.592	0.0152665
894.670	0.0152945
894.748	0.0153121
894.826	0.0152952
894.905	0.0152575
894.983	0.0153419
895.061	0.0153077
895.139	0.0154567
895.217	0.0153796
895.295	0.0153160
895.373	0.0153246
895.451	0.0154366
895.530	0.0153745
895.608	0.0152472
895.686	0.0154425
895.764	0.0152827
895.842	0.0153326
895.920	0.0154067
895.998	0.0153925
896.076	0.0154659
896.155	0.0153561
896.233	0.0154586
896.311	0.0154293
896.389	0.0153918
896.467	0.0154279
896.545	0.0154862
896.623	0.0155148
896.701	0.0154339
896.780	0.0154646
896.858	0.0153502
896.936	0.0153800
897.014	0.0154951
897.092	0.0154663
897.170	0.0154434
897.248	0.0153671
897.326	0.0153558
897.405	0.0154246
897.483	0.0154325
897.561	0.0153915
897.639	0.0153803
897.717	0.0154385
897.795	0.0155284
897.873	0.0154829
897.951	0.0154130
898.030	0.0155521
898.108	0.0153123
898.186	0.0155431
898.264	0.0153887
898.342	0.0153590
898.420	0.0154188
898.498	0.0154387
898.576	0.0154327
898.655	0.0155315
898.733	0.0154893
898.811	0.0155487
898.889	0.0155797
898.967	0.0154852
899.045	0.0153334
899.123	0.0154428
899.201	0.0154572
899.280	0.0154297
899.358	0.0154279
899.436	0.0154646
899.514	0.0153606
899.592	0.0155566
899.670	0.0154218
899.748	0.0153986
899.826	0.0153749
899.905	0.0155938
899.983	0.0153495
900.061	0.0153164
900.139	0.0154016
900.217	0.0153210
900.295	0.0154104
900.373	0.0153436
900.451	0.0153513
900.530	0.0153242
900.608	0.0152773
900.686	0.0153807
900.764	0.0153418
900.842	0.0151759
900.920	0.0151959
900.998	0.0153164
901.076	0.0154021
901.155	0.0151736
901.233	0.0151326
901.311	0.0153182
901.389	0.0153606
901.467	0.0152895
901.545	0.0152832
901.623	0.0153684
901.701	0.0153860
901.780	0.0153475
901.858	0.0152179
901.936	0.0153005
902.014	0.0154919
902.092	0.0152242
902.170	0.0151503
902.248	0.0151709
902.326	0.0151344
902.405	0.0152996
902.483	0.0151659
902.561	0.0152022
902.639	0.0152378
902.717	0.0153090
902.795	0.0151884
902.873	0.0152157
902.951	0.0152467
903.030	0.0151900
903.108	0.0151924
903.186	0.0151540
903.264	0.0152074
903.342	0.0152377
903.420	0.0152213
903.498	0.0151739
903.576	0.0152458
903.655	0.0152247
903.733	0.0152377
903.811	0.0151816
903.889	0.0152271
903.967	0.0151582
904.045	0.0152317
904.123	0.0152108
904.201	0.0151888
904.280	0.0153093
904.358	0.0152526
904.436	0.0151902
904.514	0.0150656
904.592	0.0153703
904.670	0.0153856
904.748	0.0149911
904.826	0.0152475
904.905	0.0153645
904.983	0.0153129
905.061	0.0152235
905.139	0.0151988
905.217	0.0154434
905.295	0.0154207
905.373	0.0152973
905.451	0.0152496
905.530	0.0154481
905.608	0.0153080
905.686	0.0153712
905.764	0.0154079
905.842	0.0152406
905.920	0.0153912
905.998	0.0154595
906.076	0.0153149
906.155	0.0154449
906.233	0.0155333
906.311	0.0154597
906.389	0.0154668
906.467	0.0155195
906.545	0.0155254
906.623	0.0153688
906.701	0.0153704
906.780	0.0154189
906.858	0.0156105
906.936	0.0155592
907.014	0.0155804
907.092	0.0154540
907.170	0.0154497
907.248	0.0155340
907.326	0.0154826
907.405	0.0155146
907.483	0.0154687
907.561	0.0155279
907.639	0.0153338
907.717	0.0154755
907.795	0.0153950
907.873	0.0153207
907.951	0.0154981
908.030	0.0155090
908.108	0.0152058
908.186	0.0153923
908.264	0.0153278
908.342	0.0153087
908.420	0.0153835
908.498	0.0153470
908.576	0.0153649
908.655	0.0152802
908.733	0.0153974
908.811	0.0154180
908.889	0.0154230
908.967	0.0154037
909.045	0.0152942
909.123	0.0154327
909.201	0.0154628
909.280	0.0152531
909.358	0.0154166
909.436	0.0153645
909.514	0.0154587
909.592	0.0154714
909.670	0.0154180
909.748	0.0153648
909.826	0.0153369
909.905	0.0154350
909.983	0.0153518
910.061	0.0153805
910.139	0.0153278
910.217	0.0153985
910.295	0.0154224
910.373	0.0153004
910.451	0.0154057
910.530	0.0153785
910.608	0.0153423
910.686	0.0154114
910.764	0.0153290
910.842	0.0152861
910.920	0.0154959
910.998	0.0153143
911.076	0.0153690
911.155	0.0154330
911.233	0.0153338
911.311	0.0152961
911.389	0.0155669
911.467	0.0153558
911.545	0.0151959
911.623	0.0153271
911.701	0.0152740
911.780	0.0152111
911.858	0.0154384
911.936	0.0152648
912.014	0.0153104
912.092	0.0153855
912.170	0.0152959
912.248	0.0153588
912.326	0.0153190
912.405	0.0154761
912.483	0.0154286
912.561	0.0153133
912.639	0.0152337
912.717	0.0152618
912.795	0.0155106
912.873	0.0154317
912.951	0.0153360
913.030	0.0153453
913.108	0.0155484
913.186	0.0153713
913.264	0.0152930
913.342	0.0153446
913.420	0.0154745
913.498	0.0154185
913.576	0.0154186
913.655	0.0154490
913.733	0.0154060
913.811	0.0153872
913.889	0.0154828
913.967	0.0153428
914.045	0.0153492
914.123	0.0155110
914.201	0.0154580
914.280	0.0153558
914.358	0.0155208
914.436	0.0153646
914.514	0.0154077
914.592	0.0154294
914.670	0.0153579
914.748	0.0154987
914.826	0.0155620
914.905	0.0153127
914.983	0.0153166
915.061	0.0153500
915.139	0.0154457
915.217	0.0153590
915.295	0.0155127
915.373	0.0154865
915.451	0.0154390
915.530	0.0153889
915.608	0.0154379
915.686	0.0155198
915.764	0.0153754
915.842	0.0154299
915.920	0.0153327
915.998	0.0154114
916.076	0.0155390
916.155	0.0153796
916.233	0.0155048
916.311	0.0154755
916.389	0.0152415
916.467	0.0152873
916.545	0.0153493
916.623	0.0154400
916.701	0.0153031
916.780	0.0154084
916.858	0.0153899
916.936	0.0153284
917.014	0.0152592
917.092	0.0153862
917.170	0.0153614
917.248	0.0154390
917.326	0.0154149
917.405	0.0153654
917.483	0.0153733
917.561	0.0153481
917.639	0.0153799
917.717	0.0154121
917.795	0.0153028
917.873	0.0154180
917.951	0.0154050
918.030	0.0155016
918.108	0.0154920
918.186	0.0153848
918.264	0.0153544
918.342	0.0154211
918.420	0.0153880
918.498	0.0153584
918.576	0.0153806
918.655	0.0154531
918.733	0.0153908
918.811	0.0153283
918.889	0.0153455
918.967	0.0153474
919.045	0.0152651
919.123	0.0153101
919.201	0.0154897
919.280	0.0154152
919.358	0.0152885
919.436	0.0153107
919.514	0.0152146
919.592	0.0154375
919.670	0.0154250
919.748	0.0153471
919.826	0.0153651
919.905	0.0153975
919.983	0.0152992
920.061	0.0152827
920.139	0.0152499
920.217	0.0154203
920.295	0.0152829
920.373	0.0154163
920.451	0.0153107
920.530	0.0154229
920.608	0.0155124
920.686	0.0154176
920.764	0.0154198
920.842	0.0154697
920.920	0.0154321
920.998	0.0154888
921.076	0.0155603
921.155	0.0154842
921.233	0.0155098
921.311	0.0155660
921.389	0.0155856
921.467	0.0154303
921.545	0.0155169
921.623	0.0154381
921.701	0.0155853
921.780	0.0156429
921.858	0.0156088
921.936	0.0154514
922.014	0.0154401
922.092	0.0154156
922.170	0.0153655
922.248	0.0155860
922.326	0.0155120
922.405	0.0154665
922.483	0.0154182
922.561	0.0153603
922.639	0.0155400
922.717	0.0156094
922.795	0.0155154
922.873	0.0153618
922.951	0.0154639
923.030	0.0153374
923.108	0.0154406
923.186	0.0153898
923.264	0.0154221
923.342	0.0154097
923.420	0.0153925
923.498	0.0153780
923.576	0.0155465
923.655	0.0153347
923.733	0.0152901
923.811	0.0153657
923.889	0.0153330
923.967	0.0153702
924.045	0.0153432
924.123	0.0153693
924.201	0.0153601
924.280	0.0155633
924.358	0.0154824
924.436	0.0152659
924.514	0.0153416
924.592	0.0152998
924.670	0.0153463
924.748	0.0153335
924.826	0.0154310
924.905	0.0153566
924.983	0.0152650
925.061	0.0152743
925.139	0.0151937
925.217	0.0154218
925.295	0.0154494
925.373	0.0153960
925.451	0.0152570
925.530	0.0152335
925.608	0.0154344
925.686	0.0153191
925.764	0.0152850
925.842	0.0153014
925.920	0.0153435
925.998	0.0153350
926.076	0.0154562
926.155	0.0153664
926.233	0.0153700
926.311	0.0154095
926.389	0.0153183
926.467	0.0154439
926.545	0.0154340
926.623	0.0153188
926.701	0.0154874
926.780	0.0154909
926.858	0.0154513
926.936	0.0155292
927.014	0.0155234
927.092	0.0154496
927.170	0.0153467
927.248	0.0155332
927.326	0.0155790
927.405	0.0155768
927.483	0.0156334
927.561	0.0155453
927.639	0.0155069
927.717	0.0154165
927.795	0.0154253
927.873	0.0154971
927.951	0.0154109
928.030	0.0154427
928.108	0.0153330
928.186	0.0153425
928.264	0.0153360
928.342	0.0155819
928.420	0.0154192
928.498	0.0154036
928.576	0.0155254
928.655	0.0154359
928.733	0.0153247
928.811	0.0154022
928.889	0.0155133
928.967	0.0154330
929.045	0.0154350
929.123	0.0154131
929.201	0.0153196
929.280	0.0154967
929.358	0.0153638
929.436	0.0153416
929.514	0.0153336
929.592	0.0153888
929.670	0.0153460
929.748	0.0154592
929.826	0.0153362
929.905	0.0154130
929.983	0.0153758
930.061	0.0154306
930.139	0.0153066
930.217	0.0153915
930.295	0.0153979
930.373	0.0154877
930.451	0.0153381
930.530	0.0153739
930.608	0.0153526
930.686	0.0152941
930.764	0.0154185
930.842	0.0154214
930.920	0.0153200
930.998	0.0153124
931.076	0.0153027
931.155	0.0153412
931.233	0.0153059
931.311	0.0153909
931.389	0.0153284
931.467	0.0152476
931.545	0.0152538
931.623	0.0154076
931.701	0.0155236
931.780	0.0154519
931.858	0.0154813
931.936	0.0155144
932.014	0.0154101
932.092	0.0154824
932.170	0.0153836
932.248	0.0153738
932.326	0.0155341
932.405	0.0153751
932.483	0.0154931
932.561	0.0156103
932.639	0.0154018
932.717	0.0154475
932.795	0.0154176
932.873	0.0156245
932.951	0.0155568
933.030	0.0154379
933.108	0.0154918
933.186	0.0155537
933.264	0.0155439
933.342	0.0156099
933.420	0.0155366
933.498	0.0154369
933.576	0.0154832
933.655	0.0155305
933.733	0.0155630
933.811	0.0154770
933.889	0.0155735
933.967	0.0155758
934.045	0.0155558
934.123	0.0156166
934.201	0.0156184
934.280	0.0155853
934.358	0.0154845
934.436	0.0156224
934.514	0.0154852
934.592	0.0155598
934.670	0.0155087
934.748	0.0155027
934.826	0.0153979
934.905	0.0155576
934.983	0.0155262
935.061	0.0154418
935.139	0.0155367
935.217	0.0155433
935.295	0.0155371
935.373	0.0153836
935.451	0.0155946
935.530	0.0156197
935.608	0.0154427
935.686	0.0155702
935.764	0.0153857
935.842	0.0154985
935.920	0.0155045
935.998	0.0156804
936.076	0.0155504
936.155	0.0154919
936.233	0.0154840
936.311	0.0154952
936.389	0.0156256
936.467	0.0156138
936.545	0.0155190
936.623	0.0154988
936.701	0.0156742
936.780	0.0155460
936.858	0.0155635
936.936	0.0156238
937.014	0.0155713
937.092	0.0156652
937.170	0.0156216
937.248	0.0156313
937.326	0.0155987
937.405	0.0156061
937.483	0.0155813
937.561	0.0157479
937.639	0.0155255
937.717	0.0155268
937.795	0.0155409
937.873	0.0155827
937.951	0.0155797
938.030	0.0154371
938.108	0.0154737
938.186	0.0155374
938.264	0.0155492
938.342	0.0153900
938.420	0.0154031
938.498	0.0155164
938.576	0.0154678
938.655	0.0155371
938.733	0.0153001
938.811	0.0153751
938.889	0.0154190
938.967	0.0153336
939.045	0.0153210
939.123	0.0154287
939.201	0.0153195
939.280	0.0153042
939.358	0.0152380
939.436	0.0152673
939.514	0.0153839
939.592	0.0155148
939.670	0.0153114
939.748	0.0154089
939.826	0.0153911
939.905	0.0154865
939.983	0.0152192
940.061	0.0153162
940.139	0.0154015
940.217	0.0154020
940.295	0.0154030
940.373	0.0154067
940.451	0.0153603
940.530	0.0154561
940.608	0.0153563
940.686	0.0154651
940.764	0.0155368
940.842	0.0154835
940.920	0.0154354
940.998	0.0154474
941.076	0.0154811
941.155	0.0156174
941.233	0.0156344
941.311	0.0154022
941.389	0.0153767
941.467	0.0152670
941.545	0.0154016
941.623	0.0154143
941.701	0.0154009
941.780	0.0154263
941.858	0.0153764
941.936	0.0153554
942.014	0.0153015
942.092	0.0152795
942.170	0.0154719
942.248	0.0154174
942.326	0.0154110
942.405	0.0153816
942.483	0.0154275
942.561	0.0155435
942.639	0.0152233
942.717	0.0153854
942.795	0.0154424
942.873	0.0154502
942.951	0.0154553
943.030	0.0154607
943.108	0.0153764
943.186	0.0154483
943.264	0.0153835
943.342	0.0154591
943.420	0.0155253
943.498	0.0153679
943.576	0.0153618
943.655	0.0152532
943.733	0.0153172
943.811	0.0154312
943.889	0.0154450
943.967	0.0154344
944.045	0.0154615
944.123	0.0154346
944.201	0.0153621
944.280	0.0152323
944.358	0.0153133
944.436	0.0154979
944.514	0.0154552
944.592	0.0153495
944.670	0.0153934
944.748	0.0153965
944.826	0.0153578
944.905	0.0154198
944.983	0.0153609
945.061	0.0155127
945.139	0.0155139
945.217	0.0153889
945.295	0.0154066
945.373	0.0154988
945.451	0.0155298
945.530	0.0154165
945.608	0.0156387
945.686	0.0156767
945.764	0.0155441
945.842	0.0155739
945.920	0.0154701
945.998	0.0154691
946.076	0.0156684
946.155	0.0155944
946.233	0.0154946
946.311	0.0155183
946.389	0.0155379
946.467	0.0156491
946.545	0.0155595
946.623	0.0154473
946.701	0.0155072
946.780	0.0154734
946.858	0.0154367
946.936	0.0154358
947.014	0.0155447
947.092	0.0154971
947.170	0.0153461
947.248	0.0154469
947.326	0.0153893
947.405	0.0154030
947.483	0.0154689
947.561	0.0153943
947.639	0.0154626
947.717	0.0155030
947.795	0.0154104
947.873	0.0154181
947.951	0.0154709
948.030	0.0154522
948.108	0.0154123
948.186	0.0154349
948.264	0.0154305
948.342	0.0155219
948.420	0.0156018
948.498	0.0154580
948.576	0.0154932
948.655	0.0154038
948.733	0.0155676
948.811	0.0155598
948.889	0.0154874
948.967	0.0154710
949.045	0.0152858
949.123	0.0155419
949.201	0.0155422
949.280	0.0155717
949.358	0.0154185
949.436	0.0154692
949.514	0.0153802
949.592	0.0155297
949.670	0.0154140
949.748	0.0154039
949.826	0.0154913
949.905	0.0153998
949.983	0.0153564
950.061	0.0152991
950.139	0.0152393
950.217	0.0153313
950.295	0.0154435
950.373	0.0155588
950.451	0.0155123
950.530	0.0154769
950.608	0.0155125
950.686	0.0154284
950.764	0.0154409
950.842	0.0154949
950.920	0.0154386
950.998	0.0153877
951.076	0.0154420
951.155	0.0154124
951.233	0.0155464
951.311	0.0154955
951.389	0.0154853
951.467	0.0155396
951.545	0.0156287
951.623	0.0155251
951.701	0.0154872
951.780	0.0155296
951.858	0.0155882
951.936	0.0154650
952.014	0.0155783
952.092	0.0156175
952.170	0.0155449
952.248	0.0155583
952.326	0.0155949
952.405	0.0156116
952.483	0.0155623
952.561	0.0155475
952.639	0.0156395
952.717	0.0155117
952.795	0.0154935
952.873	0.0155793
952.951	0.0154031
953.030	0.0155803
953.108	0.0155556
953.186	0.0155597
953.264	0.0155245
953.342	0.0154954
953.420	0.0156347
953.498	0.0153970
953.576	0.0153185
953.655	0.0153952
953.733	0.0153655
953.811	0.0154784
953.889	0.0154933
953.967	0.0152866
954.045	0.0152682
954.123	0.0154186
954.201	0.0154208
954.280	0.0152754
954.358	0.0152245
954.436	0.0153916
954.514	0.0153848
954.592	0.0154210
954.670	0.0154025
954.748	0.0153654
954.826	0.0153254
954.905	0.0153226
954.983	0.0153557
955.061	0.0153480
955.139	0.0152389
955.217	0.0153618
955.295	0.0152734
955.373	0.0152914
955.451	0.0153530
955.530	0.0154402
955.608	0.0154205
955.686	0.0153357
955.764	0.0153071
955.842	0.0154287
955.920	0.0154227
955.998	0.0152910
956.076	0.0153766
956.155	0.0152981
956.233	0.0153275
956.311	0.0154897
956.389	0.0153788
956.467	0.0153459
956.545	0.0155088
956.623	0.0154539
956.701	0.0154244
956.780	0.0155395
956.858	0.0155151
956.936	0.0155008
957.014	0.0155746
957.092	0.0154217
957.170	0.0155061
957.248	0.0155511
957.326	0.0154747
957.405	0.0155415
957.483	0.0155166
957.561	0.0155238
957.639	0.0155560
957.717	0.0156324
957.795	0.0153685
957.873	0.0156090
957.951	0.0155171
958.030	0.0154636
958.108	0.0154673
958.186	0.0155971
958.264	0.0154749
958.342	0.0153727
958.420	0.0154809
958.498	0.0155383
958.576	0.0154910
958.655	0.0154525
958.733	0.0155447
958.811	0.0155378
958.889	0.0155570
958.967	0.0153781
959.045	0.0154008
959.123	0.0154845
959.201	0.0155167
959.280	0.0154990
959.358	0.0153312
959.436	0.0155131
959.514	0.0155215
959.592	0.0155021
959.670	0.0155868
959.748	0.0154744
959.826	0.0155074
959.905	0.0154562
