05/17/2022	17:24:10	Ver.	4.1	UNKNOWN
Optical Delay	639.982744	Delta X		0.078125	Sweeps	1	Scan Rate	0/0
Coordinates	Axis 1	NaN	Axis 2	NaN	Axis 3	NaN	Axis 4	NaN	Axis 5	NaN	Axis 6	0.000000
TX Power	0.000000	RX Power	0.000000

639.983	0.0152900
640.061	0.0154167
640.139	0.0153917
640.217	0.0154285
640.295	0.0154327
640.373	0.0152364
640.451	0.0155089
640.530	0.0155284
640.608	0.0156272
640.686	0.0152850
640.764	0.0153972
640.842	0.0156052
640.920	0.0153200
640.998	0.0154645
641.076	0.0153851
641.155	0.0154008
641.233	0.0155331
641.311	0.0154257
641.389	0.0154382
641.467	0.0154575
641.545	0.0153950
641.623	0.0153458
641.701	0.0153924
641.780	0.0154435
641.858	0.0153454
641.936	0.0154045
642.014	0.0153584
642.092	0.0153221
642.170	0.0154791
642.248	0.0153297
642.326	0.0153876
642.405	0.0153013
642.483	0.0153361
642.561	0.0154987
642.639	0.0154132
642.717	0.0152997
642.795	0.0153215
642.873	0.0153327
642.951	0.0153015
643.030	0.0155585
643.108	0.0155069
643.186	0.0154238
643.264	0.0154309
643.342	0.0154728
643.420	0.0156045
643.498	0.0155360
643.576	0.0155569
643.655	0.0155981
643.733	0.0155164
643.811	0.0156086
643.889	0.0155211
643.967	0.0155610
644.045	0.0155581
644.123	0.0156044
644.201	0.0156738
644.280	0.0156693
644.358	0.0156518
644.436	0.0156240
644.514	0.0156009
644.592	0.0155512
644.670	0.0156455
644.748	0.0155466
644.826	0.0155220
644.905	0.0157657
644.983	0.0155597
645.061	0.0156055
645.139	0.0155164
645.217	0.0156051
645.295	0.0155640
645.373	0.0154636
645.451	0.0155547
645.530	0.0156114
645.608	0.0155466
645.686	0.0155026
645.764	0.0155243
645.842	0.0155533
645.920	0.0154919
645.998	0.0155692
646.076	0.0156546
646.155	0.0154587
646.233	0.0155402
646.311	0.0155450
646.389	0.0155858
646.467	0.0154749
646.545	0.0156879
646.623	0.0156492
646.701	0.0155572
646.780	0.0153960
646.858	0.0154797
646.936	0.0154183
647.014	0.0155031
647.092	0.0155077
647.170	0.0154866
647.248	0.0154451
647.326	0.0154266
647.405	0.0153532
647.483	0.0154160
647.561	0.0153941
647.639	0.0154025
647.717	0.0155099
647.795	0.0154465
647.873	0.0154165
647.951	0.0153893
648.030	0.0153336
648.108	0.0153385
648.186	0.0155135
648.264	0.0153533
648.342	0.0152800
648.420	0.0153059
648.498	0.0153619
648.576	0.0154286
648.655	0.0154358
648.733	0.0154694
648.811	0.0154320
648.889	0.0153186
648.967	0.0154694
649.045	0.0154213
649.123	0.0153865
649.201	0.0153473
649.280	0.0152787
649.358	0.0155169
649.436	0.0154903
649.514	0.0153292
649.592	0.0153386
649.670	0.0154563
649.748	0.0153391
649.826	0.0154858
649.905	0.0154655
649.983	0.0153017
650.061	0.0153194
650.139	0.0153170
650.217	0.0152699
650.295	0.0153810
650.373	0.0152655
650.451	0.0151756
650.530	0.0150794
650.608	0.0151817
650.686	0.0153070
650.764	0.0153442
650.842	0.0153345
650.920	0.0151787
650.998	0.0152573
651.076	0.0154029
651.155	0.0152920
651.233	0.0151259
651.311	0.0153500
651.389	0.0152437
651.467	0.0153078
651.545	0.0154758
651.623	0.0153772
651.701	0.0154685
651.780	0.0154836
651.858	0.0154029
651.936	0.0154192
652.014	0.0155615
652.092	0.0155341
652.170	0.0156001
652.248	0.0156319
652.326	0.0156042
652.405	0.0153999
652.483	0.0154671
652.561	0.0153835
652.639	0.0153353
652.717	0.0153864
652.795	0.0154203
652.873	0.0154524
652.951	0.0153411
653.030	0.0152579
653.108	0.0152833
653.186	0.0153482
653.264	0.0152147
653.342	0.0152518
653.420	0.0152707
653.498	0.0152296
653.576	0.0152197
653.655	0.0150735
653.733	0.0152022
653.811	0.0152400
653.889	0.0153067
653.967	0.0152668
654.045	0.0152584
654.123	0.0153490
654.201	0.0153140
654.280	0.0151741
654.358	0.0153689
654.436	0.0153228
654.514	0.0153986
654.592	0.0153384
654.670	0.0152987
654.748	0.0155057
654.826	0.0152911
654.905	0.0152988
654.983	0.0152594
655.061	0.0153142
655.139	0.0152657
655.217	0.0152039
655.295	0.0153773
655.373	0.0153290
655.451	0.0152372
655.530	0.0152385
655.608	0.0152161
655.686	0.0153252
655.764	0.0150413
655.842	0.0150672
655.920	0.0151359
655.998	0.0151916
656.076	0.0148653
656.155	0.0151057
656.233	0.0151525
656.311	0.0148811
656.389	0.0150549
656.467	0.0151648
656.545	0.0150974
656.623	0.0151691
656.701	0.0151620
656.780	0.0153233
656.858	0.0153480
656.936	0.0153463
657.014	0.0154056
657.092	0.0154044
657.170	0.0155089
657.248	0.0153738
657.326	0.0154560
657.405	0.0154965
657.483	0.0155343
657.561	0.0153687
657.639	0.0153629
657.717	0.0154098
657.795	0.0153915
657.873	0.0153206
657.951	0.0153205
658.030	0.0150864
658.108	0.0152937
658.186	0.0152441
658.264	0.0151660
658.342	0.0151904
658.420	0.0151924
658.498	0.0150715
658.576	0.0152406
658.655	0.0151519
658.733	0.0151272
658.811	0.0152355
658.889	0.0152286
658.967	0.0152768
659.045	0.0152909
659.123	0.0152614
659.201	0.0153191
659.280	0.0153873
659.358	0.0155357
659.436	0.0155212
659.514	0.0154897
659.592	0.0154259
659.670	0.0155228
659.748	0.0155299
659.826	0.0154665
659.905	0.0156016
659.983	0.0155975
660.061	0.0156036
660.139	0.0156339
660.217	0.0155736
660.295	0.0154539
660.373	0.0155925
660.451	0.0155186
660.530	0.0154927
660.608	0.0153424
660.686	0.0154681
660.764	0.0155222
660.842	0.0154589
660.920	0.0152881
660.998	0.0154097
661.076	0.0154971
661.155	0.0154146
661.233	0.0153720
661.311	0.0153618
661.389	0.0154818
661.467	0.0155112
661.545	0.0154365
661.623	0.0154851
661.701	0.0155119
661.780	0.0154430
661.858	0.0153851
661.936	0.0155746
662.014	0.0155341
662.092	0.0155744
662.170	0.0154137
662.248	0.0155277
662.326	0.0154209
662.405	0.0153891
662.483	0.0154061
662.561	0.0154126
662.639	0.0154445
662.717	0.0154441
662.795	0.0153319
662.873	0.0153971
662.951	0.0152367
663.030	0.0151867
663.108	0.0152044
663.186	0.0151884
663.264	0.0151910
663.342	0.0150894
663.420	0.0150652
663.498	0.0150417
663.576	0.0151515
663.655	0.0151453
663.733	0.0150814
663.811	0.0149784
663.889	0.0150845
663.967	0.0151469
664.045	0.0150060
664.123	0.0152393
664.201	0.0151318
664.280	0.0152856
664.358	0.0153382
664.436	0.0153548
664.514	0.0153082
664.592	0.0153662
664.670	0.0154206
664.748	0.0153909
664.826	0.0154646
664.905	0.0154578
664.983	0.0154167
665.061	0.0156152
665.139	0.0155878
665.217	0.0156829
665.295	0.0155810
665.373	0.0155119
665.451	0.0155173
665.530	0.0154910
665.608	0.0154426
665.686	0.0155254
665.764	0.0154797
665.842	0.0155906
665.920	0.0155003
665.998	0.0155172
666.076	0.0155521
666.155	0.0155558
666.233	0.0156728
666.311	0.0155638
666.389	0.0155005
666.467	0.0154618
666.545	0.0154266
666.623	0.0154241
666.701	0.0153778
666.780	0.0153680
666.858	0.0154774
666.936	0.0153548
667.014	0.0154430
667.092	0.0153951
667.170	0.0154099
667.248	0.0152036
667.326	0.0151109
667.405	0.0151004
667.483	0.0150341
667.561	0.0149017
667.639	0.0148549
667.717	0.0149094
667.795	0.0148711
667.873	0.0147915
667.951	0.0148721
668.030	0.0147559
668.108	0.0147203
668.186	0.0148435
668.264	0.0149423
668.342	0.0150771
668.420	0.0149993
668.498	0.0152048
668.576	0.0150883
668.655	0.0151496
668.733	0.0152829
668.811	0.0153032
668.889	0.0154130
668.967	0.0157033
669.045	0.0157599
669.123	0.0156798
669.201	0.0158301
669.280	0.0158704
669.358	0.0158456
669.436	0.0159511
669.514	0.0161076
669.592	0.0161797
669.670	0.0160298
669.748	0.0159865
669.826	0.0160298
669.905	0.0161098
669.983	0.0159877
670.061	0.0160545
670.139	0.0159557
670.217	0.0158927
670.295	0.0158709
670.373	0.0158331
670.451	0.0159708
670.530	0.0160099
670.608	0.0158822
670.686	0.0157961
670.764	0.0158331
670.842	0.0157729
670.920	0.0155851
670.998	0.0156739
671.076	0.0155206
671.155	0.0157195
671.233	0.0155763
671.311	0.0154218
671.389	0.0156421
671.467	0.0155797
671.545	0.0155347
671.623	0.0155591
671.701	0.0156220
671.780	0.0156198
671.858	0.0157181
671.936	0.0156679
672.014	0.0155975
672.092	0.0155866
672.170	0.0155067
672.248	0.0155029
672.326	0.0154593
672.405	0.0154254
672.483	0.0155015
672.561	0.0153751
672.639	0.0153722
672.717	0.0153821
672.795	0.0152150
672.873	0.0151554
672.951	0.0150508
673.030	0.0150229
673.108	0.0149317
673.186	0.0148525
673.264	0.0147261
673.342	0.0146649
673.420	0.0146796
673.498	0.0146583
673.576	0.0145103
673.655	0.0145663
673.733	0.0144253
673.811	0.0146103
673.889	0.0146871
673.967	0.0147247
674.045	0.0147397
674.123	0.0147097
674.201	0.0149548
674.280	0.0149832
674.358	0.0150507
674.436	0.0152899
674.514	0.0153017
674.592	0.0155342
674.670	0.0156178
674.748	0.0156554
674.826	0.0158236
674.905	0.0158456
674.983	0.0160047
675.061	0.0160013
675.139	0.0161226
675.217	0.0162778
675.295	0.0164710
675.373	0.0165351
675.451	0.0165644
675.530	0.0164798
675.608	0.0166599
675.686	0.0165708
675.764	0.0165588
675.842	0.0165021
675.920	0.0165701
675.998	0.0165818
676.076	0.0163566
676.155	0.0163277
676.233	0.0160365
676.311	0.0160698
676.389	0.0159601
676.467	0.0157329
676.545	0.0155853
676.623	0.0157106
676.701	0.0155621
676.780	0.0153806
676.858	0.0152483
676.936	0.0150720
677.014	0.0150942
677.092	0.0149239
677.170	0.0148680
677.248	0.0149216
677.326	0.0148824
677.405	0.0147935
677.483	0.0147565
677.561	0.0146885
677.639	0.0146471
677.717	0.0148459
677.795	0.0147784
677.873	0.0147249
677.951	0.0146989
678.030	0.0148103
678.108	0.0149339
678.186	0.0148420
678.264	0.0148832
678.342	0.0149965
678.420	0.0150076
678.498	0.0151826
678.576	0.0150350
678.655	0.0151800
678.733	0.0152985
678.811	0.0152763
678.889	0.0153447
678.967	0.0155365
679.045	0.0155911
679.123	0.0154890
679.201	0.0155725
679.280	0.0156078
679.358	0.0156827
679.436	0.0156454
679.514	0.0157152
679.592	0.0155913
679.670	0.0156893
679.748	0.0158160
679.826	0.0157014
679.905	0.0158407
679.983	0.0157468
680.061	0.0157288
680.139	0.0156912
680.217	0.0157589
680.295	0.0158233
680.373	0.0158471
680.451	0.0157015
680.530	0.0157110
680.608	0.0159286
680.686	0.0156466
680.764	0.0157331
680.842	0.0157683
680.920	0.0157762
680.998	0.0157140
681.076	0.0157524
681.155	0.0157489
681.233	0.0156361
681.311	0.0156193
681.389	0.0156922
681.467	0.0156120
681.545	0.0155334
681.623	0.0153959
681.701	0.0154165
681.780	0.0154070
681.858	0.0155219
681.936	0.0155337
682.014	0.0154906
682.092	0.0154185
682.170	0.0154575
682.248	0.0154585
682.326	0.0153193
682.405	0.0153970
682.483	0.0154433
682.561	0.0155350
682.639	0.0153143
682.717	0.0152456
682.795	0.0153490
682.873	0.0153480
682.951	0.0152989
683.030	0.0152533
683.108	0.0151437
683.186	0.0154034
683.264	0.0153162
683.342	0.0154473
683.420	0.0153819
683.498	0.0153209
683.576	0.0152102
683.655	0.0152820
683.733	0.0155128
683.811	0.0152937
683.889	0.0152586
683.967	0.0154270
684.045	0.0153685
684.123	0.0152460
684.201	0.0152969
684.280	0.0153504
684.358	0.0154669
684.436	0.0154111
684.514	0.0154195
684.592	0.0152808
684.670	0.0153051
684.748	0.0152814
684.826	0.0152085
684.905	0.0152068
684.983	0.0152599
685.061	0.0152684
685.139	0.0153593
685.217	0.0153632
685.295	0.0151747
685.373	0.0151875
685.451	0.0152769
685.530	0.0152068
685.608	0.0151644
685.686	0.0152719
685.764	0.0152524
685.842	0.0153563
685.920	0.0153350
685.998	0.0153627
686.076	0.0154690
686.155	0.0153846
686.233	0.0154702
686.311	0.0154173
686.389	0.0155444
686.467	0.0155412
686.545	0.0154857
686.623	0.0155460
686.701	0.0155931
686.780	0.0157368
686.858	0.0156821
686.936	0.0155804
687.014	0.0156509
687.092	0.0156759
687.170	0.0157716
687.248	0.0156891
687.326	0.0157684
687.405	0.0157805
687.483	0.0157854
687.561	0.0156873
687.639	0.0158450
687.717	0.0157603
687.795	0.0156516
687.873	0.0157507
687.951	0.0157871
688.030	0.0158808
688.108	0.0156131
688.186	0.0158931
688.264	0.0159031
688.342	0.0157208
688.420	0.0157505
688.498	0.0155843
688.576	0.0157789
688.655	0.0158077
688.733	0.0158344
688.811	0.0157883
688.889	0.0157192
688.967	0.0154824
689.045	0.0155449
689.123	0.0155276
689.201	0.0154036
689.280	0.0152805
689.358	0.0152422
689.436	0.0153124
689.514	0.0151788
689.592	0.0151472
689.670	0.0150753
689.748	0.0150993
689.826	0.0150452
689.905	0.0150079
689.983	0.0149957
690.061	0.0150443
690.139	0.0150278
690.217	0.0151457
690.295	0.0152212
690.373	0.0153067
690.451	0.0153830
690.530	0.0154994
690.608	0.0154882
690.686	0.0155788
690.764	0.0156779
690.842	0.0157487
690.920	0.0157677
690.998	0.0157710
691.076	0.0159188
691.155	0.0159692
691.233	0.0159972
691.311	0.0160437
691.389	0.0160313
691.467	0.0159009
691.545	0.0158127
691.623	0.0158994
691.701	0.0157855
691.780	0.0156309
691.858	0.0156228
691.936	0.0155734
692.014	0.0155170
692.092	0.0156618
692.170	0.0153542
692.248	0.0153901
692.326	0.0153532
692.405	0.0153343
692.483	0.0151025
692.561	0.0154034
692.639	0.0153973
692.717	0.0152657
692.795	0.0151374
692.873	0.0151863
692.951	0.0151275
693.030	0.0151801
693.108	0.0151423
693.186	0.0151183
693.264	0.0151611
693.342	0.0151765
693.420	0.0150460
693.498	0.0151762
693.576	0.0153996
693.655	0.0153944
693.733	0.0151597
693.811	0.0153025
693.889	0.0155132
693.967	0.0153807
694.045	0.0153478
694.123	0.0155559
694.201	0.0153802
694.280	0.0155929
694.358	0.0156010
694.436	0.0156043
694.514	0.0156242
694.592	0.0157028
694.670	0.0158518
694.748	0.0158626
694.826	0.0157283
694.905	0.0157791
694.983	0.0160157
695.061	0.0160537
695.139	0.0158858
695.217	0.0159883
695.295	0.0160439
695.373	0.0160538
695.451	0.0161018
695.530	0.0159939
695.608	0.0159815
695.686	0.0159397
695.764	0.0159120
695.842	0.0157980
695.920	0.0158309
695.998	0.0157900
696.076	0.0155993
696.155	0.0154833
696.233	0.0153533
696.311	0.0153019
696.389	0.0152175
696.467	0.0153210
696.545	0.0150741
696.623	0.0149536
696.701	0.0148716
696.780	0.0150256
696.858	0.0150996
696.936	0.0148238
697.014	0.0148888
697.092	0.0149832
697.170	0.0148590
697.248	0.0147964
697.326	0.0149126
697.405	0.0148997
697.483	0.0150159
697.561	0.0150163
697.639	0.0152155
697.717	0.0150956
697.795	0.0151512
697.873	0.0150560
697.951	0.0151884
698.030	0.0153176
698.108	0.0152966
698.186	0.0153000
698.264	0.0152738
698.342	0.0152628
698.420	0.0153057
698.498	0.0153702
698.576	0.0153326
698.655	0.0154668
698.733	0.0154099
698.811	0.0156142
698.889	0.0154786
698.967	0.0155746
699.045	0.0156615
699.123	0.0157750
699.201	0.0155965
699.280	0.0157457
699.358	0.0159202
699.436	0.0159728
699.514	0.0159898
699.592	0.0160689
699.670	0.0161314
699.748	0.0161440
699.826	0.0162601
699.905	0.0163520
699.983	0.0163570
700.061	0.0163342
700.139	0.0164123
700.217	0.0164810
700.295	0.0164989
700.373	0.0164580
700.451	0.0164716
700.530	0.0164079
700.608	0.0162335
700.686	0.0161568
700.764	0.0162178
700.842	0.0160960
700.920	0.0159531
700.998	0.0157265
701.076	0.0156236
701.155	0.0155830
701.233	0.0154413
701.311	0.0151712
701.389	0.0151045
701.467	0.0150706
701.545	0.0148715
701.623	0.0148482
701.701	0.0147426
701.780	0.0146233
701.858	0.0146931
701.936	0.0145663
702.014	0.0145985
702.092	0.0144749
702.170	0.0144691
702.248	0.0144387
702.326	0.0144486
702.405	0.0145884
702.483	0.0146335
702.561	0.0146145
702.639	0.0146323
702.717	0.0146262
702.795	0.0148727
702.873	0.0147755
702.951	0.0148778
703.030	0.0150439
703.108	0.0149784
703.186	0.0149876
703.264	0.0150694
703.342	0.0150655
703.420	0.0152602
703.498	0.0151688
703.576	0.0152823
703.655	0.0153398
703.733	0.0154076
703.811	0.0154601
703.889	0.0155377
703.967	0.0155614
704.045	0.0154916
704.123	0.0155989
704.201	0.0156802
704.280	0.0158672
704.358	0.0157141
704.436	0.0156392
704.514	0.0158724
704.592	0.0157534
704.670	0.0157633
704.748	0.0158813
704.826	0.0157383
704.905	0.0158298
704.983	0.0157410
705.061	0.0157109
705.139	0.0157729
705.217	0.0158384
705.295	0.0158735
705.373	0.0156897
705.451	0.0157252
705.530	0.0158287
705.608	0.0157274
705.686	0.0157841
705.764	0.0157093
705.842	0.0156558
705.920	0.0157455
705.998	0.0156447
706.076	0.0155918
706.155	0.0157214
706.233	0.0156944
706.311	0.0156416
706.389	0.0155692
706.467	0.0157168
706.545	0.0156313
706.623	0.0154694
706.701	0.0155132
706.780	0.0156403
706.858	0.0153639
706.936	0.0153998
707.014	0.0154661
707.092	0.0154379
707.170	0.0153300
707.248	0.0153128
707.326	0.0152378
707.405	0.0151831
707.483	0.0153862
707.561	0.0152501
707.639	0.0151584
707.717	0.0150442
707.795	0.0151368
707.873	0.0150225
707.951	0.0152316
708.030	0.0150789
708.108	0.0150671
708.186	0.0150495
708.264	0.0151104
708.342	0.0149765
708.420	0.0149966
708.498	0.0149773
708.576	0.0152509
708.655	0.0150143
708.733	0.0152743
708.811	0.0151620
708.889	0.0151614
708.967	0.0151953
709.045	0.0152458
709.123	0.0151532
709.201	0.0150488
709.280	0.0151989
709.358	0.0151059
709.436	0.0151460
709.514	0.0150603
709.592	0.0150735
709.670	0.0150988
709.748	0.0152019
709.826	0.0151593
709.905	0.0152295
709.983	0.0153265
710.061	0.0154244
710.139	0.0155514
710.217	0.0154919
710.295	0.0155835
710.373	0.0154749
710.451	0.0157199
710.530	0.0157098
710.608	0.0159035
710.686	0.0158232
710.764	0.0159053
710.842	0.0159651
710.920	0.0158471
710.998	0.0159523
711.076	0.0160000
711.155	0.0160342
711.233	0.0160824
711.311	0.0160283
711.389	0.0159517
711.467	0.0158957
711.545	0.0160220
711.623	0.0158968
711.701	0.0157631
711.780	0.0158689
711.858	0.0158459
711.936	0.0157547
712.014	0.0158208
712.092	0.0157203
712.170	0.0156388
712.248	0.0155196
712.326	0.0153953
712.405	0.0153718
712.483	0.0152928
712.561	0.0152007
712.639	0.0153909
712.717	0.0152206
712.795	0.0152535
712.873	0.0152333
712.951	0.0153203
713.030	0.0153667
713.108	0.0152834
713.186	0.0152502
713.264	0.0154104
713.342	0.0151888
713.420	0.0154024
713.498	0.0152991
713.576	0.0153660
713.655	0.0154430
713.733	0.0155291
713.811	0.0154676
713.889	0.0155973
713.967	0.0157439
714.045	0.0155326
714.123	0.0153831
714.201	0.0156474
714.280	0.0155802
714.358	0.0155912
714.436	0.0158420
714.514	0.0156427
714.592	0.0158538
714.670	0.0157151
714.748	0.0155626
714.826	0.0156229
714.905	0.0157293
714.983	0.0157224
715.061	0.0155037
715.139	0.0155260
715.217	0.0155705
715.295	0.0155072
715.373	0.0154657
715.451	0.0154369
715.530	0.0154270
715.608	0.0154105
715.686	0.0154551
715.764	0.0154726
715.842	0.0152399
715.920	0.0152427
715.998	0.0152093
716.076	0.0153095
716.155	0.0152588
716.233	0.0151727
716.311	0.0152116
716.389	0.0150803
716.467	0.0151536
716.545	0.0151988
716.623	0.0149954
716.701	0.0152561
716.780	0.0151199
716.858	0.0151930
716.936	0.0152034
717.014	0.0150865
717.092	0.0150764
717.170	0.0152376
717.248	0.0153235
717.326	0.0151995
717.405	0.0152757
717.483	0.0153757
717.561	0.0153513
717.639	0.0153706
717.717	0.0155428
717.795	0.0156203
717.873	0.0155895
717.951	0.0156744
718.030	0.0157477
718.108	0.0157510
718.186	0.0159930
718.264	0.0157555
718.342	0.0160062
718.420	0.0157513
718.498	0.0159086
718.576	0.0160019
718.655	0.0159433
718.733	0.0158967
718.811	0.0157787
718.889	0.0157361
718.967	0.0157555
719.045	0.0156935
719.123	0.0157497
719.201	0.0157488
719.280	0.0155670
719.358	0.0155530
719.436	0.0154061
719.514	0.0154446
719.592	0.0153946
719.670	0.0152335
719.748	0.0153065
719.826	0.0153104
719.905	0.0152605
719.983	0.0150674
720.061	0.0151441
720.139	0.0150654
720.217	0.0151369
720.295	0.0150616
720.373	0.0152020
720.451	0.0150983
720.530	0.0151072
720.608	0.0150910
720.686	0.0150742
720.764	0.0151427
720.842	0.0151936
720.920	0.0151864
720.998	0.0151423
721.076	0.0152216
721.155	0.0152338
721.233	0.0152525
721.311	0.0153539
721.389	0.0152528
721.467	0.0153227
721.545	0.0154250
721.623	0.0155463
721.701	0.0154153
721.780	0.0155372
721.858	0.0156001
721.936	0.0155672
722.014	0.0156232
722.092	0.0155968
722.170	0.0156818
722.248	0.0157066
722.326	0.0157673
722.405	0.0156918
722.483	0.0158626
722.561	0.0158585
722.639	0.0157157
722.717	0.0158118
722.795	0.0157914
722.873	0.0157482
722.951	0.0158237
723.030	0.0156291
723.108	0.0156812
723.186	0.0158150
723.264	0.0158375
723.342	0.0156734
723.420	0.0156172
723.498	0.0158287
723.576	0.0156676
723.655	0.0157229
723.733	0.0155163
723.811	0.0154927
723.889	0.0154494
723.967	0.0155261
724.045	0.0154980
724.123	0.0155563
724.201	0.0153880
724.280	0.0153855
724.358	0.0154139
724.436	0.0153978
724.514	0.0153004
724.592	0.0153685
724.670	0.0153735
724.748	0.0153790
724.826	0.0153486
724.905	0.0155406
724.983	0.0154411
725.061	0.0153910
725.139	0.0155109
725.217	0.0154954
725.295	0.0153877
725.373	0.0154652
725.451	0.0153922
725.530	0.0153767
725.608	0.0154826
725.686	0.0153114
725.764	0.0154430
725.842	0.0154506
725.920	0.0154526
725.998	0.0154773
726.076	0.0154349
726.155	0.0154049
726.233	0.0154907
726.311	0.0154846
726.389	0.0153831
726.467	0.0152125
726.545	0.0152888
726.623	0.0152915
726.701	0.0152354
726.780	0.0152879
726.858	0.0152797
726.936	0.0153140
727.014	0.0152309
727.092	0.0152106
727.170	0.0153384
727.248	0.0152142
727.326	0.0151272
727.405	0.0151003
727.483	0.0150515
727.561	0.0151658
727.639	0.0150258
727.717	0.0150758
727.795	0.0150764
727.873	0.0150101
727.951	0.0151550
728.030	0.0150774
728.108	0.0151536
728.186	0.0151562
728.264	0.0151358
728.342	0.0152766
728.420	0.0152086
728.498	0.0152629
728.576	0.0152912
728.655	0.0154101
728.733	0.0153896
728.811	0.0153920
728.889	0.0155338
728.967	0.0156158
729.045	0.0156990
729.123	0.0156581
729.201	0.0157935
729.280	0.0159326
729.358	0.0158819
729.436	0.0158285
729.514	0.0159050
729.592	0.0160607
729.670	0.0158829
729.748	0.0158528
729.826	0.0159038
729.905	0.0159873
729.983	0.0159248
730.061	0.0156799
730.139	0.0156533
730.217	0.0156595
730.295	0.0156052
730.373	0.0155601
730.451	0.0153880
730.530	0.0153452
730.608	0.0152428
730.686	0.0153098
730.764	0.0152084
730.842	0.0151119
730.920	0.0149163
730.998	0.0150169
731.076	0.0150240
731.155	0.0149337
731.233	0.0148871
731.311	0.0149338
731.389	0.0149305
731.467	0.0149639
731.545	0.0148465
731.623	0.0147078
731.701	0.0149860
731.780	0.0149834
731.858	0.0150709
731.936	0.0149364
732.014	0.0149040
732.092	0.0151436
732.170	0.0151445
732.248	0.0151453
732.326	0.0152315
732.405	0.0152365
732.483	0.0153577
732.561	0.0154692
732.639	0.0153760
732.717	0.0154341
732.795	0.0155981
732.873	0.0155094
732.951	0.0155599
733.030	0.0157621
733.108	0.0157277
733.186	0.0156969
733.264	0.0159319
733.342	0.0158515
733.420	0.0158372
733.498	0.0158133
733.576	0.0157925
733.655	0.0158374
733.733	0.0158390
733.811	0.0158426
733.889	0.0157926
733.967	0.0158475
734.045	0.0157817
734.123	0.0159361
734.201	0.0157381
734.280	0.0158704
734.358	0.0156915
734.436	0.0156767
734.514	0.0156997
734.592	0.0157077
734.670	0.0156479
734.748	0.0154990
734.826	0.0156124
734.905	0.0154457
734.983	0.0155246
735.061	0.0153001
735.139	0.0152608
735.217	0.0153405
735.295	0.0151979
735.373	0.0152002
735.451	0.0151478
735.530	0.0150930
735.608	0.0151955
735.686	0.0150179
735.764	0.0151633
735.842	0.0152148
735.920	0.0150446
735.998	0.0150420
736.076	0.0149741
736.155	0.0150972
736.233	0.0151640
736.311	0.0152418
736.389	0.0152051
736.467	0.0151160
736.545	0.0151455
736.623	0.0152939
736.701	0.0151965
736.780	0.0154422
736.858	0.0154249
736.936	0.0153383
737.014	0.0154137
737.092	0.0154797
737.170	0.0155124
737.248	0.0155401
737.326	0.0156705
737.405	0.0155523
737.483	0.0155608
737.561	0.0156673
737.639	0.0156668
737.717	0.0157415
737.795	0.0156282
737.873	0.0156187
737.951	0.0155312
738.030	0.0157272
738.108	0.0157397
738.186	0.0154385
738.264	0.0155757
738.342	0.0154822
738.420	0.0154049
738.498	0.0154955
738.576	0.0154170
738.655	0.0153801
738.733	0.0153038
738.811	0.0153086
738.889	0.0152761
738.967	0.0153455
739.045	0.0151652
739.123	0.0152478
739.201	0.0153417
739.280	0.0152540
739.358	0.0152242
739.436	0.0152763
739.514	0.0153297
739.592	0.0152666
739.670	0.0153227
739.748	0.0152552
739.826	0.0151891
739.905	0.0154447
739.983	0.0154709
740.061	0.0153771
740.139	0.0154579
740.217	0.0154699
740.295	0.0154999
740.373	0.0154676
740.451	0.0155256
740.530	0.0154956
740.608	0.0155024
740.686	0.0153748
740.764	0.0154311
740.842	0.0154494
740.920	0.0155276
740.998	0.0154733
741.076	0.0154261
741.155	0.0155450
741.233	0.0155877
741.311	0.0154430
741.389	0.0155093
741.467	0.0155758
741.545	0.0156783
741.623	0.0155564
741.701	0.0155708
741.780	0.0156037
741.858	0.0156502
741.936	0.0153501
742.014	0.0156497
742.092	0.0155652
742.170	0.0156366
742.248	0.0155565
742.326	0.0156145
742.405	0.0155356
742.483	0.0156008
742.561	0.0155340
742.639	0.0155069
742.717	0.0154765
742.795	0.0155711
742.873	0.0154745
742.951	0.0153976
743.030	0.0153989
743.108	0.0154678
743.186	0.0154106
743.264	0.0153033
743.342	0.0152953
743.420	0.0153607
743.498	0.0152105
743.576	0.0152403
743.655	0.0153905
743.733	0.0153513
743.811	0.0154142
743.889	0.0152152
743.967	0.0152226
744.045	0.0154243
744.123	0.0155096
744.201	0.0154880
744.280	0.0153657
744.358	0.0153970
744.436	0.0154477
744.514	0.0154366
744.592	0.0155249
744.670	0.0154641
744.748	0.0154557
744.826	0.0154812
744.905	0.0154362
744.983	0.0155190
745.061	0.0154269
745.139	0.0156612
745.217	0.0154639
745.295	0.0154371
745.373	0.0153880
745.451	0.0153903
745.530	0.0154784
745.608	0.0152585
745.686	0.0154041
745.764	0.0155756
745.842	0.0154017
745.920	0.0153423
745.998	0.0154230
746.076	0.0153577
746.155	0.0154316
746.233	0.0154539
746.311	0.0154193
746.389	0.0153747
746.467	0.0154260
746.545	0.0155542
746.623	0.0154306
746.701	0.0153283
746.780	0.0155295
746.858	0.0154797
746.936	0.0152386
747.014	0.0154964
747.092	0.0156217
747.170	0.0156197
747.248	0.0154182
747.326	0.0154251
747.405	0.0155618
747.483	0.0155391
747.561	0.0155281
747.639	0.0155950
747.717	0.0155476
747.795	0.0156821
747.873	0.0157931
747.951	0.0155911
748.030	0.0156006
748.108	0.0155591
748.186	0.0154883
748.264	0.0154663
748.342	0.0156561
748.420	0.0156742
748.498	0.0156040
748.576	0.0155940
748.655	0.0155762
748.733	0.0155170
748.811	0.0155229
748.889	0.0157396
748.967	0.0155229
749.045	0.0155715
749.123	0.0155946
749.201	0.0155819
749.280	0.0156023
749.358	0.0156287
749.436	0.0155426
749.514	0.0157236
749.592	0.0155847
749.670	0.0155817
749.748	0.0155215
749.826	0.0156052
749.905	0.0155676
749.983	0.0155936
750.061	0.0154498
750.139	0.0154758
750.217	0.0155580
750.295	0.0154636
750.373	0.0153353
750.451	0.0153872
750.530	0.0153933
750.608	0.0154368
750.686	0.0153831
750.764	0.0153732
750.842	0.0153561
750.920	0.0152470
750.998	0.0152812
751.076	0.0153578
751.155	0.0152918
751.233	0.0151600
751.311	0.0151006
751.389	0.0152893
751.467	0.0153025
751.545	0.0152326
751.623	0.0152824
751.701	0.0151389
751.780	0.0151992
751.858	0.0152693
751.936	0.0152213
752.014	0.0152629
752.092	0.0153391
752.170	0.0152135
752.248	0.0153659
752.326	0.0153590
752.405	0.0153373
752.483	0.0154864
752.561	0.0153985
752.639	0.0153068
752.717	0.0155694
752.795	0.0156070
752.873	0.0154932
752.951	0.0156990
753.030	0.0156194
753.108	0.0156796
753.186	0.0157004
753.264	0.0156759
753.342	0.0157405
753.420	0.0156694
753.498	0.0157626
753.576	0.0154942
753.655	0.0156160
753.733	0.0155752
753.811	0.0156308
753.889	0.0155272
753.967	0.0156851
754.045	0.0155587
754.123	0.0154235
754.201	0.0153525
754.280	0.0154470
754.358	0.0155006
754.436	0.0154517
754.514	0.0154829
754.592	0.0153335
754.670	0.0153683
754.748	0.0153189
754.826	0.0152859
754.905	0.0153015
754.983	0.0153109
755.061	0.0153472
755.139	0.0152351
755.217	0.0151747
755.295	0.0154375
755.373	0.0154344
755.451	0.0153060
755.530	0.0152988
755.608	0.0152213
755.686	0.0151606
755.764	0.0153268
755.842	0.0152705
755.920	0.0152814
755.998	0.0152840
756.076	0.0152658
756.155	0.0151877
756.233	0.0150554
756.311	0.0152687
756.389	0.0151653
756.467	0.0152781
756.545	0.0151875
756.623	0.0152748
756.701	0.0153796
756.780	0.0153378
756.858	0.0152689
756.936	0.0153642
757.014	0.0152062
757.092	0.0153631
757.170	0.0155204
757.248	0.0153561
757.326	0.0154939
757.405	0.0154903
757.483	0.0153723
757.561	0.0153928
757.639	0.0153511
757.717	0.0154231
757.795	0.0154801
757.873	0.0153496
757.951	0.0153162
758.030	0.0153612
758.108	0.0154106
758.186	0.0154314
758.264	0.0153890
758.342	0.0153758
758.420	0.0153493
758.498	0.0153610
758.576	0.0153201
758.655	0.0154313
758.733	0.0154287
758.811	0.0154134
758.889	0.0154099
758.967	0.0153908
759.045	0.0153619
759.123	0.0153418
759.201	0.0153609
759.280	0.0153596
759.358	0.0154464
759.436	0.0153477
759.514	0.0154445
759.592	0.0152435
759.670	0.0152994
759.748	0.0154659
759.826	0.0153464
759.905	0.0153747
759.983	0.0153362
760.061	0.0154650
760.139	0.0155056
760.217	0.0155422
760.295	0.0154090
760.373	0.0155476
760.451	0.0156091
760.530	0.0155418
760.608	0.0154945
760.686	0.0156957
760.764	0.0155612
760.842	0.0155278
760.920	0.0155215
760.998	0.0156306
761.076	0.0156374
761.155	0.0154331
761.233	0.0155737
761.311	0.0155886
761.389	0.0155913
761.467	0.0154897
761.545	0.0155190
761.623	0.0154944
761.701	0.0155913
761.780	0.0154788
761.858	0.0153964
761.936	0.0155031
762.014	0.0154660
762.092	0.0154208
762.170	0.0153697
762.248	0.0152897
762.326	0.0153898
762.405	0.0153208
762.483	0.0153881
762.561	0.0154098
762.639	0.0154942
762.717	0.0155347
762.795	0.0155277
762.873	0.0154814
762.951	0.0153635
763.030	0.0153610
763.108	0.0154424
763.186	0.0154697
763.264	0.0154561
763.342	0.0154421
763.420	0.0153855
763.498	0.0154810
763.576	0.0154236
763.655	0.0153703
763.733	0.0153354
763.811	0.0154791
763.889	0.0153814
763.967	0.0152674
764.045	0.0151514
764.123	0.0151658
764.201	0.0152592
764.280	0.0153117
764.358	0.0151263
764.436	0.0150904
764.514	0.0151990
764.592	0.0151968
764.670	0.0151721
764.748	0.0150672
764.826	0.0152359
764.905	0.0151506
764.983	0.0153107
765.061	0.0152057
765.139	0.0152477
765.217	0.0152604
765.295	0.0152560
765.373	0.0153658
765.451	0.0152190
765.530	0.0153202
765.608	0.0153982
765.686	0.0153109
765.764	0.0154319
765.842	0.0153123
765.920	0.0152761
765.998	0.0153231
766.076	0.0154315
766.155	0.0153316
766.233	0.0153082
766.311	0.0152376
766.389	0.0153926
766.467	0.0154002
766.545	0.0154690
766.623	0.0155554
766.701	0.0155856
766.780	0.0154796
766.858	0.0155765
766.936	0.0154662
767.014	0.0154910
767.092	0.0155363
767.170	0.0156013
767.248	0.0155229
767.326	0.0154288
767.405	0.0154340
767.483	0.0153814
767.561	0.0154453
767.639	0.0155835
767.717	0.0154434
767.795	0.0154037
767.873	0.0155743
767.951	0.0154144
768.030	0.0154720
768.108	0.0153892
768.186	0.0155676
768.264	0.0155807
768.342	0.0154994
768.420	0.0155205
768.498	0.0155910
768.576	0.0156213
768.655	0.0156425
768.733	0.0155154
768.811	0.0155799
768.889	0.0154060
768.967	0.0155217
769.045	0.0155187
769.123	0.0155161
769.201	0.0155170
769.280	0.0154887
769.358	0.0154628
769.436	0.0155298
769.514	0.0154353
769.592	0.0153176
769.670	0.0152914
769.748	0.0153896
769.826	0.0152170
769.905	0.0154141
769.983	0.0152908
770.061	0.0153393
770.139	0.0153942
770.217	0.0154688
770.295	0.0153260
770.373	0.0153009
770.451	0.0154135
770.530	0.0153734
770.608	0.0155082
770.686	0.0155292
770.764	0.0154332
770.842	0.0155035
770.920	0.0155309
770.998	0.0155504
771.076	0.0154056
771.155	0.0154328
771.233	0.0154902
771.311	0.0155357
771.389	0.0154456
771.467	0.0155535
771.545	0.0156873
771.623	0.0156620
771.701	0.0156019
771.780	0.0156260
771.858	0.0155546
771.936	0.0156986
772.014	0.0157407
772.092	0.0157483
772.170	0.0156653
772.248	0.0157175
772.326	0.0156582
772.405	0.0156991
772.483	0.0156086
772.561	0.0157567
772.639	0.0157660
772.717	0.0157375
772.795	0.0155898
772.873	0.0155848
772.951	0.0157109
773.030	0.0157572
773.108	0.0156848
773.186	0.0156548
773.264	0.0155818
773.342	0.0155898
773.420	0.0154848
773.498	0.0154738
773.576	0.0153585
773.655	0.0152477
773.733	0.0152550
773.811	0.0152443
773.889	0.0152753
773.967	0.0152396
774.045	0.0151170
774.123	0.0151804
774.201	0.0151708
774.280	0.0151319
774.358	0.0151157
774.436	0.0151688
774.514	0.0151897
774.592	0.0152228
774.670	0.0152418
774.748	0.0152719
774.826	0.0151991
774.905	0.0153918
774.983	0.0154039
775.061	0.0152971
775.139	0.0152128
775.217	0.0152452
775.295	0.0153561
775.373	0.0154437
775.451	0.0154886
775.530	0.0153984
775.608	0.0154954
775.686	0.0154680
775.764	0.0155132
775.842	0.0155164
775.920	0.0156158
775.998	0.0155722
776.076	0.0154860
776.155	0.0155207
776.233	0.0156148
776.311	0.0155701
776.389	0.0156560
776.467	0.0156136
776.545	0.0157140
776.623	0.0157060
776.701	0.0155558
776.780	0.0157560
776.858	0.0156044
776.936	0.0156615
777.014	0.0157484
777.092	0.0155827
777.170	0.0158451
777.248	0.0157021
777.326	0.0157092
777.405	0.0157785
777.483	0.0156738
777.561	0.0157019
777.639	0.0157084
777.717	0.0157747
777.795	0.0158562
777.873	0.0158528
777.951	0.0158171
778.030	0.0157503
778.108	0.0157774
778.186	0.0158158
778.264	0.0156093
778.342	0.0156450
778.420	0.0157406
778.498	0.0157771
778.576	0.0156367
778.655	0.0156534
778.733	0.0157024
778.811	0.0154939
778.889	0.0155511
778.967	0.0155849
779.045	0.0154609
779.123	0.0155744
779.201	0.0154425
779.280	0.0154311
779.358	0.0153337
779.436	0.0154253
779.514	0.0154429
779.592	0.0154057
779.670	0.0152197
779.748	0.0153632
779.826	0.0153263
779.905	0.0153078
779.983	0.0153104
780.061	0.0153561
780.139	0.0152930
780.217	0.0152817
780.295	0.0152160
780.373	0.0152986
780.451	0.0153643
780.530	0.0154053
780.608	0.0152484
780.686	0.0153855
780.764	0.0154288
780.842	0.0153348
780.920	0.0153782
780.998	0.0153738
781.076	0.0154016
781.155	0.0154485
781.233	0.0154285
781.311	0.0154434
781.389	0.0153145
781.467	0.0153979
781.545	0.0151249
781.623	0.0153539
781.701	0.0153188
781.780	0.0153061
781.858	0.0152483
781.936	0.0151997
782.014	0.0151865
782.092	0.0152081
782.170	0.0152591
782.248	0.0153341
782.326	0.0152361
782.405	0.0153204
782.483	0.0153713
782.561	0.0153168
782.639	0.0154523
782.717	0.0153482
782.795	0.0154451
782.873	0.0154819
782.951	0.0154130
783.030	0.0154998
783.108	0.0153744
783.186	0.0154363
783.264	0.0154713
783.342	0.0154108
783.420	0.0154337
783.498	0.0154285
783.576	0.0154733
783.655	0.0154530
783.733	0.0154326
783.811	0.0153808
783.889	0.0154991
783.967	0.0153363
784.045	0.0153490
784.123	0.0153198
784.201	0.0153473
784.280	0.0152360
784.358	0.0154057
784.436	0.0153927
784.514	0.0153709
784.592	0.0152734
784.670	0.0154359
784.748	0.0153815
784.826	0.0152719
784.905	0.0152267
784.983	0.0153505
785.061	0.0154794
785.139	0.0153328
785.217	0.0153941
785.295	0.0153692
785.373	0.0155029
785.451	0.0152195
785.530	0.0153465
785.608	0.0154189
785.686	0.0152534
785.764	0.0153248
785.842	0.0153620
785.920	0.0153600
785.998	0.0152776
786.076	0.0154226
786.155	0.0153133
786.233	0.0154294
786.311	0.0155989
786.389	0.0153631
786.467	0.0153280
786.545	0.0154524
786.623	0.0155379
786.701	0.0155447
786.780	0.0154436
786.858	0.0154439
786.936	0.0154385
787.014	0.0155659
787.092	0.0155388
787.170	0.0154851
787.248	0.0155894
787.326	0.0154932
787.405	0.0155717
787.483	0.0154147
787.561	0.0155142
787.639	0.0156204
787.717	0.0156501
787.795	0.0155473
787.873	0.0155580
787.951	0.0155193
788.030	0.0153568
788.108	0.0154370
788.186	0.0154981
788.264	0.0156217
788.342	0.0154138
788.420	0.0154686
788.498	0.0153643
788.576	0.0154747
788.655	0.0154626
788.733	0.0154400
788.811	0.0153221
788.889	0.0154717
788.967	0.0153378
789.045	0.0154258
789.123	0.0153022
789.201	0.0152937
789.280	0.0154362
789.358	0.0152940
789.436	0.0151356
789.514	0.0152385
789.592	0.0153103
789.670	0.0152759
789.748	0.0151972
789.826	0.0152130
789.905	0.0152154
789.983	0.0153298
790.061	0.0152444
790.139	0.0152515
790.217	0.0152438
790.295	0.0153725
790.373	0.0153072
790.451	0.0152839
790.530	0.0152936
790.608	0.0153079
790.686	0.0153294
790.764	0.0154778
790.842	0.0153815
790.920	0.0154890
790.998	0.0154156
791.076	0.0154488
791.155	0.0153986
791.233	0.0155495
791.311	0.0153870
791.389	0.0155991
791.467	0.0156585
791.545	0.0154716
791.623	0.0155842
791.701	0.0155308
791.780	0.0154594
791.858	0.0155440
791.936	0.0153696
792.014	0.0153124
792.092	0.0155516
792.170	0.0154441
792.248	0.0154474
792.326	0.0154735
792.405	0.0153035
792.483	0.0153123
792.561	0.0154512
792.639	0.0154993
792.717	0.0153149
792.795	0.0153352
792.873	0.0153622
792.951	0.0153948
793.030	0.0153328
793.108	0.0153446
793.186	0.0152675
793.264	0.0154136
793.342	0.0154580
793.420	0.0153671
793.498	0.0154188
793.576	0.0152985
793.655	0.0154044
793.733	0.0155160
793.811	0.0154619
793.889	0.0154028
793.967	0.0154032
794.045	0.0153604
794.123	0.0155245
794.201	0.0155742
794.280	0.0156018
794.358	0.0155096
794.436	0.0154384
794.514	0.0155107
794.592	0.0154568
794.670	0.0155291
794.748	0.0154568
794.826	0.0156908
794.905	0.0155952
794.983	0.0155012
795.061	0.0154767
795.139	0.0155516
795.217	0.0155072
795.295	0.0156312
795.373	0.0155079
795.451	0.0156248
795.530	0.0156915
795.608	0.0155632
795.686	0.0156214
795.764	0.0157282
795.842	0.0157049
795.920	0.0157292
795.998	0.0157432
796.076	0.0158173
796.155	0.0156787
796.233	0.0156090
796.311	0.0157790
796.389	0.0157449
796.467	0.0157291
796.545	0.0157007
796.623	0.0157252
796.701	0.0156570
796.780	0.0156020
796.858	0.0156643
796.936	0.0155759
797.014	0.0155479
797.092	0.0155518
797.170	0.0154256
797.248	0.0154186
797.326	0.0153767
797.405	0.0154317
797.483	0.0153919
797.561	0.0153184
797.639	0.0152820
797.717	0.0152848
797.795	0.0151659
797.873	0.0152986
797.951	0.0152534
798.030	0.0152908
798.108	0.0152357
798.186	0.0152377
798.264	0.0152108
798.342	0.0151855
798.420	0.0153468
798.498	0.0152202
798.576	0.0152182
798.655	0.0152190
798.733	0.0153225
798.811	0.0152993
798.889	0.0152710
798.967	0.0152111
799.045	0.0152885
799.123	0.0153600
799.201	0.0153945
799.280	0.0151576
799.358	0.0154122
799.436	0.0152671
799.514	0.0155198
799.592	0.0156089
799.670	0.0154152
799.748	0.0154687
799.826	0.0154511
799.905	0.0155585
799.983	0.0153992
800.061	0.0155218
800.139	0.0155750
800.217	0.0155280
800.295	0.0154917
800.373	0.0155428
800.451	0.0154993
800.530	0.0154945
800.608	0.0154550
800.686	0.0154378
800.764	0.0154321
800.842	0.0155776
800.920	0.0155179
800.998	0.0154177
801.076	0.0156299
801.155	0.0156348
801.233	0.0155878
801.311	0.0155172
801.389	0.0155191
801.467	0.0155844
801.545	0.0155398
801.623	0.0156004
801.701	0.0156650
801.780	0.0157074
801.858	0.0154890
801.936	0.0157144
802.014	0.0157821
802.092	0.0156968
802.170	0.0156277
802.248	0.0157697
802.326	0.0158881
802.405	0.0156829
802.483	0.0156062
802.561	0.0157301
802.639	0.0157085
802.717	0.0158076
802.795	0.0156773
802.873	0.0156264
802.951	0.0156118
803.030	0.0156503
803.108	0.0155872
803.186	0.0156094
803.264	0.0155431
803.342	0.0156541
803.420	0.0156082
803.498	0.0155241
803.576	0.0155901
803.655	0.0156390
803.733	0.0155508
803.811	0.0154240
803.889	0.0155466
803.967	0.0155048
804.045	0.0155833
804.123	0.0154687
804.201	0.0155363
804.280	0.0154573
804.358	0.0153290
804.436	0.0154335
804.514	0.0154607
804.592	0.0155060
804.670	0.0154922
804.748	0.0154185
804.826	0.0153760
804.905	0.0154779
804.983	0.0154012
805.061	0.0153301
805.139	0.0153706
805.217	0.0154665
805.295	0.0153227
805.373	0.0154395
805.451	0.0154176
805.530	0.0153888
805.608	0.0153551
805.686	0.0155174
805.764	0.0154521
805.842	0.0154283
805.920	0.0154740
805.998	0.0152770
806.076	0.0154767
806.155	0.0153486
806.233	0.0152819
806.311	0.0153053
806.389	0.0154074
806.467	0.0153832
806.545	0.0152442
806.623	0.0153250
806.701	0.0151684
806.780	0.0154008
806.858	0.0152753
806.936	0.0153546
807.014	0.0151881
807.092	0.0153124
807.170	0.0153725
807.248	0.0155138
807.326	0.0154792
807.405	0.0153403
807.483	0.0154412
807.561	0.0153843
807.639	0.0154810
807.717	0.0155297
807.795	0.0155022
807.873	0.0154498
807.951	0.0155642
808.030	0.0155672
808.108	0.0155993
808.186	0.0155418
808.264	0.0156304
808.342	0.0154781
808.420	0.0154107
808.498	0.0155326
808.576	0.0154131
808.655	0.0154045
808.733	0.0153595
808.811	0.0154073
808.889	0.0153278
808.967	0.0153614
809.045	0.0154500
809.123	0.0152413
809.201	0.0152881
809.280	0.0153683
809.358	0.0153689
809.436	0.0152097
809.514	0.0155032
809.592	0.0154700
809.670	0.0152868
809.748	0.0152917
809.826	0.0155591
809.905	0.0155546
809.983	0.0154115
810.061	0.0154276
810.139	0.0153622
810.217	0.0154823
810.295	0.0155913
810.373	0.0156005
810.451	0.0155007
810.530	0.0154987
810.608	0.0154227
810.686	0.0154941
810.764	0.0154317
810.842	0.0155561
810.920	0.0153828
810.998	0.0154778
811.076	0.0155002
811.155	0.0155218
811.233	0.0153660
811.311	0.0154522
811.389	0.0154429
811.467	0.0153517
811.545	0.0153577
811.623	0.0154679
811.701	0.0154741
811.780	0.0153699
811.858	0.0153921
811.936	0.0154792
812.014	0.0155054
812.092	0.0154282
812.170	0.0152966
812.248	0.0154696
812.326	0.0155077
812.405	0.0154234
812.483	0.0154346
812.561	0.0155305
812.639	0.0152990
812.717	0.0153521
812.795	0.0154443
812.873	0.0153781
812.951	0.0152722
813.030	0.0154999
813.108	0.0154788
813.186	0.0153174
813.264	0.0152524
813.342	0.0153851
813.420	0.0155019
813.498	0.0154084
813.576	0.0152844
813.655	0.0154569
813.733	0.0155611
813.811	0.0153923
813.889	0.0153848
813.967	0.0153866
814.045	0.0156030
814.123	0.0154691
814.201	0.0154842
814.280	0.0154018
814.358	0.0153703
814.436	0.0155062
814.514	0.0155485
814.592	0.0156024
814.670	0.0156184
814.748	0.0154385
814.826	0.0155298
814.905	0.0156074
814.983	0.0156779
815.061	0.0155859
815.139	0.0155922
815.217	0.0154811
815.295	0.0155331
815.373	0.0155138
815.451	0.0155933
815.530	0.0156657
815.608	0.0156947
815.686	0.0156344
815.764	0.0156781
815.842	0.0158237
815.920	0.0156711
815.998	0.0155116
816.076	0.0155617
816.155	0.0156490
816.233	0.0155222
816.311	0.0155285
816.389	0.0155281
816.467	0.0154687
816.545	0.0155452
816.623	0.0154767
816.701	0.0154304
816.780	0.0154220
816.858	0.0154527
816.936	0.0152954
817.014	0.0154101
817.092	0.0153161
817.170	0.0153630
817.248	0.0154085
817.326	0.0155566
817.405	0.0153997
817.483	0.0153233
817.561	0.0153171
817.639	0.0154526
817.717	0.0155437
817.795	0.0154581
817.873	0.0154483
817.951	0.0154617
818.030	0.0153423
818.108	0.0155021
818.186	0.0154166
818.264	0.0152971
818.342	0.0154446
818.420	0.0154926
818.498	0.0154668
818.576	0.0154754
818.655	0.0155923
818.733	0.0155505
818.811	0.0154719
818.889	0.0154816
818.967	0.0155597
819.045	0.0154565
819.123	0.0155729
819.201	0.0154145
819.280	0.0154593
819.358	0.0154381
819.436	0.0155222
819.514	0.0154210
819.592	0.0154021
819.670	0.0154790
819.748	0.0154871
819.826	0.0154758
819.905	0.0156203
819.983	0.0154729
820.061	0.0156087
820.139	0.0154965
820.217	0.0153613
820.295	0.0154776
820.373	0.0155054
820.451	0.0153679
820.530	0.0155798
820.608	0.0155344
820.686	0.0155417
820.764	0.0153887
820.842	0.0154920
820.920	0.0155143
820.998	0.0155463
821.076	0.0155277
821.155	0.0155172
821.233	0.0153821
821.311	0.0154023
821.389	0.0153899
821.467	0.0154250
821.545	0.0153167
821.623	0.0153523
821.701	0.0155065
821.780	0.0153953
821.858	0.0153338
821.936	0.0155219
822.014	0.0154483
822.092	0.0154134
822.170	0.0154610
822.248	0.0154886
822.326	0.0155771
822.405	0.0154276
822.483	0.0153239
822.561	0.0153811
822.639	0.0155164
822.717	0.0153951
822.795	0.0154670
822.873	0.0154743
822.951	0.0154813
823.030	0.0156287
823.108	0.0155598
823.186	0.0155792
823.264	0.0154520
823.342	0.0155021
823.420	0.0153965
823.498	0.0154639
823.576	0.0155647
823.655	0.0156178
823.733	0.0155459
823.811	0.0155099
823.889	0.0155474
823.967	0.0157407
824.045	0.0155294
824.123	0.0155798
824.201	0.0154533
824.280	0.0155745
824.358	0.0155892
824.436	0.0154459
824.514	0.0155818
824.592	0.0155167
824.670	0.0153785
824.748	0.0155362
824.826	0.0154703
824.905	0.0153806
824.983	0.0153730
825.061	0.0153548
825.139	0.0153529
825.217	0.0154301
825.295	0.0155259
825.373	0.0154215
825.451	0.0154591
825.530	0.0154290
825.608	0.0154053
825.686	0.0153985
825.764	0.0153620
825.842	0.0154211
825.920	0.0154185
825.998	0.0156391
826.076	0.0155110
826.155	0.0154661
826.233	0.0155852
826.311	0.0155286
826.389	0.0154385
826.467	0.0154258
826.545	0.0154898
826.623	0.0155350
826.701	0.0154474
826.780	0.0156279
826.858	0.0154923
826.936	0.0156346
827.014	0.0154186
827.092	0.0154947
827.170	0.0155249
827.248	0.0155880
827.326	0.0155960
827.405	0.0155778
827.483	0.0155507
827.561	0.0154123
827.639	0.0154905
827.717	0.0155787
827.795	0.0156108
827.873	0.0153651
827.951	0.0154576
828.030	0.0156022
828.108	0.0153419
828.186	0.0154187
828.264	0.0154667
828.342	0.0152164
828.420	0.0153561
828.498	0.0154810
828.576	0.0153778
828.655	0.0154708
828.733	0.0153925
828.811	0.0155491
828.889	0.0155266
828.967	0.0153505
829.045	0.0155043
829.123	0.0155345
829.201	0.0154618
829.280	0.0155091
829.358	0.0154959
829.436	0.0154494
829.514	0.0154346
829.592	0.0156609
829.670	0.0156776
829.748	0.0156564
829.826	0.0155081
829.905	0.0156004
829.983	0.0155770
830.061	0.0157394
830.139	0.0157323
830.217	0.0157259
830.295	0.0157373
830.373	0.0156660
830.451	0.0156345
830.530	0.0156721
830.608	0.0156744
830.686	0.0157841
830.764	0.0157652
830.842	0.0157053
830.920	0.0158337
830.998	0.0157466
831.076	0.0155969
831.155	0.0157181
831.233	0.0158088
831.311	0.0159217
831.389	0.0157154
831.467	0.0157484
831.545	0.0158009
831.623	0.0157555
831.701	0.0157079
831.780	0.0157112
831.858	0.0156814
831.936	0.0155720
832.014	0.0155051
832.092	0.0155668
832.170	0.0154865
832.248	0.0155484
832.326	0.0155808
832.405	0.0155491
832.483	0.0155505
832.561	0.0154519
832.639	0.0153683
832.717	0.0155126
832.795	0.0154595
832.873	0.0154511
832.951	0.0155756
833.030	0.0154108
833.108	0.0155022
833.186	0.0153934
833.264	0.0154852
833.342	0.0155003
833.420	0.0154519
833.498	0.0155281
833.576	0.0153866
833.655	0.0154095
833.733	0.0154800
833.811	0.0155627
833.889	0.0153550
833.967	0.0154354
834.045	0.0155582
834.123	0.0154185
834.201	0.0154853
834.280	0.0152589
834.358	0.0155098
834.436	0.0154991
834.514	0.0154606
834.592	0.0153259
834.670	0.0154927
834.748	0.0154815
834.826	0.0154862
834.905	0.0156263
834.983	0.0154059
835.061	0.0152666
835.139	0.0153481
835.217	0.0152135
835.295	0.0153341
835.373	0.0153510
835.451	0.0154227
835.530	0.0154662
835.608	0.0153735
835.686	0.0155241
835.764	0.0153327
835.842	0.0154482
835.920	0.0154321
835.998	0.0154078
836.076	0.0153955
836.155	0.0153909
836.233	0.0154480
836.311	0.0154629
836.389	0.0154570
836.467	0.0153561
836.545	0.0153681
836.623	0.0154842
836.701	0.0153405
836.780	0.0152329
836.858	0.0154024
836.936	0.0154807
837.014	0.0154061
837.092	0.0153786
837.170	0.0153223
837.248	0.0153220
837.326	0.0155173
837.405	0.0154427
837.483	0.0152857
837.561	0.0153823
837.639	0.0153136
837.717	0.0152903
837.795	0.0154203
837.873	0.0153078
837.951	0.0152901
838.030	0.0153001
838.108	0.0153751
838.186	0.0155592
838.264	0.0154549
838.342	0.0154671
838.420	0.0154662
838.498	0.0154122
838.576	0.0154634
838.655	0.0154712
838.733	0.0153492
838.811	0.0155119
838.889	0.0155242
838.967	0.0154488
839.045	0.0155080
839.123	0.0154827
839.201	0.0153881
839.280	0.0155193
839.358	0.0154144
839.436	0.0153967
839.514	0.0154185
839.592	0.0154090
839.670	0.0153664
839.748	0.0155021
839.826	0.0154208
839.905	0.0153642
839.983	0.0155000
840.061	0.0154700
840.139	0.0155424
840.217	0.0154250
840.295	0.0155130
840.373	0.0155449
840.451	0.0154249
840.530	0.0154074
840.608	0.0155494
840.686	0.0154251
840.764	0.0154756
840.842	0.0155104
840.920	0.0155049
840.998	0.0155412
841.076	0.0154876
841.155	0.0154760
841.233	0.0155688
841.311	0.0155196
841.389	0.0154386
841.467	0.0154346
841.545	0.0154948
841.623	0.0154471
841.701	0.0155788
841.780	0.0153834
841.858	0.0156303
841.936	0.0154749
842.014	0.0154089
842.092	0.0153656
842.170	0.0155673
842.248	0.0156056
842.326	0.0155298
842.405	0.0155870
842.483	0.0156985
842.561	0.0157417
842.639	0.0157159
842.717	0.0156548
842.795	0.0156149
842.873	0.0157194
842.951	0.0156279
843.030	0.0155238
843.108	0.0157324
843.186	0.0156985
843.264	0.0154798
843.342	0.0155243
843.420	0.0157167
843.498	0.0156221
843.576	0.0155914
843.655	0.0156356
843.733	0.0155448
843.811	0.0155441
843.889	0.0155495
843.967	0.0155577
844.045	0.0155790
844.123	0.0157008
844.201	0.0155433
844.280	0.0156599
844.358	0.0155956
844.436	0.0155966
844.514	0.0156496
844.592	0.0156540
844.670	0.0154935
844.748	0.0154719
844.826	0.0154372
844.905	0.0153644
844.983	0.0155758
845.061	0.0153810
845.139	0.0155134
845.217	0.0154383
845.295	0.0155548
845.373	0.0155268
845.451	0.0155355
845.530	0.0154780
845.608	0.0155613
845.686	0.0155860
845.764	0.0155820
845.842	0.0155002
845.920	0.0153109
845.998	0.0154826
846.076	0.0154145
846.155	0.0154879
846.233	0.0154581
846.311	0.0153149
846.389	0.0154177
846.467	0.0153706
846.545	0.0154189
846.623	0.0154122
846.701	0.0154583
846.780	0.0154660
846.858	0.0153867
846.936	0.0153752
847.014	0.0154138
847.092	0.0152959
847.170	0.0154723
847.248	0.0153038
847.326	0.0155175
847.405	0.0153330
847.483	0.0153075
847.561	0.0154582
847.639	0.0155112
847.717	0.0154141
847.795	0.0153704
847.873	0.0154697
847.951	0.0155587
848.030	0.0154451
848.108	0.0154949
848.186	0.0155611
848.264	0.0153579
848.342	0.0156029
848.420	0.0154285
848.498	0.0154867
848.576	0.0156744
848.655	0.0155558
848.733	0.0154706
848.811	0.0153692
848.889	0.0154320
848.967	0.0154742
849.045	0.0155087
849.123	0.0152607
849.201	0.0152616
849.280	0.0154264
849.358	0.0152102
849.436	0.0154305
849.514	0.0153618
849.592	0.0153273
849.670	0.0154864
849.748	0.0152892
849.826	0.0152313
849.905	0.0152866
849.983	0.0154105
850.061	0.0153657
850.139	0.0152947
850.217	0.0152935
850.295	0.0152699
850.373	0.0154264
850.451	0.0154326
850.530	0.0153613
850.608	0.0153574
850.686	0.0154330
850.764	0.0153487
850.842	0.0154382
850.920	0.0154141
850.998	0.0154279
851.076	0.0154500
851.155	0.0155841
851.233	0.0154014
851.311	0.0154469
851.389	0.0155356
851.467	0.0154150
851.545	0.0153728
851.623	0.0154064
851.701	0.0154070
851.780	0.0154134
851.858	0.0153907
851.936	0.0153744
852.014	0.0153650
852.092	0.0154175
852.170	0.0154686
852.248	0.0153088
852.326	0.0153468
852.405	0.0155015
852.483	0.0152343
852.561	0.0152674
852.639	0.0153896
852.717	0.0153399
852.795	0.0153294
852.873	0.0152678
852.951	0.0152100
853.030	0.0152796
853.108	0.0154336
853.186	0.0152753
853.264	0.0153419
853.342	0.0153085
853.420	0.0153063
853.498	0.0153574
853.576	0.0154243
853.655	0.0154306
853.733	0.0154195
853.811	0.0153275
853.889	0.0153944
853.967	0.0153602
854.045	0.0153888
854.123	0.0152673
854.201	0.0153553
854.280	0.0154169
854.358	0.0154408
854.436	0.0154830
854.514	0.0154350
854.592	0.0153716
854.670	0.0154729
854.748	0.0154710
854.826	0.0155331
854.905	0.0153843
854.983	0.0154542
855.061	0.0154294
855.139	0.0154762
855.217	0.0155549
855.295	0.0154479
855.373	0.0154307
855.451	0.0154077
855.530	0.0155067
855.608	0.0154208
855.686	0.0155672
855.764	0.0156005
855.842	0.0155070
855.920	0.0154617
855.998	0.0155064
856.076	0.0155387
856.155	0.0155793
856.233	0.0154444
856.311	0.0155243
856.389	0.0155869
856.467	0.0156542
856.545	0.0155210
856.623	0.0156513
856.701	0.0155818
856.780	0.0154872
856.858	0.0155854
856.936	0.0154786
857.014	0.0153992
857.092	0.0153766
857.170	0.0155769
857.248	0.0153893
857.326	0.0155357
857.405	0.0154832
857.483	0.0155737
857.561	0.0154514
857.639	0.0155682
857.717	0.0155003
857.795	0.0154795
857.873	0.0153934
857.951	0.0154004
858.030	0.0155836
858.108	0.0155675
858.186	0.0154677
858.264	0.0155274
858.342	0.0156231
858.420	0.0158100
858.498	0.0155449
858.576	0.0155028
858.655	0.0155246
858.733	0.0156458
858.811	0.0154871
858.889	0.0156282
858.967	0.0156036
859.045	0.0155620
859.123	0.0155477
859.201	0.0154662
859.280	0.0155232
859.358	0.0155496
859.436	0.0156686
859.514	0.0154158
859.592	0.0154332
859.670	0.0154147
859.748	0.0154847
859.826	0.0154292
859.905	0.0154937
859.983	0.0154031
860.061	0.0154043
860.139	0.0156429
860.217	0.0154681
860.295	0.0153697
860.373	0.0154900
860.451	0.0154094
860.530	0.0154189
860.608	0.0155548
860.686	0.0154688
860.764	0.0152688
860.842	0.0153968
860.920	0.0154738
860.998	0.0153728
861.076	0.0153851
861.155	0.0155023
861.233	0.0152921
861.311	0.0153605
861.389	0.0153776
861.467	0.0153925
861.545	0.0154467
861.623	0.0153507
861.701	0.0153326
861.780	0.0153310
861.858	0.0153516
861.936	0.0153527
862.014	0.0153486
862.092	0.0152784
862.170	0.0152758
862.248	0.0154115
862.326	0.0153300
862.405	0.0153547
862.483	0.0154427
862.561	0.0153180
862.639	0.0151610
862.717	0.0153426
862.795	0.0153083
862.873	0.0155112
862.951	0.0152089
863.030	0.0152908
863.108	0.0153802
863.186	0.0153136
863.264	0.0152201
863.342	0.0152932
863.420	0.0154682
863.498	0.0154091
863.576	0.0154446
863.655	0.0153949
863.733	0.0153369
863.811	0.0154083
863.889	0.0154189
863.967	0.0154672
864.045	0.0153768
864.123	0.0153760
864.201	0.0153433
864.280	0.0154346
864.358	0.0154112
864.436	0.0153649
864.514	0.0154531
864.592	0.0153977
864.670	0.0153346
864.748	0.0152589
864.826	0.0152759
864.905	0.0153326
864.983	0.0153762
865.061	0.0153764
865.139	0.0154659
865.217	0.0154426
865.295	0.0154723
865.373	0.0154543
865.451	0.0152427
865.530	0.0155614
865.608	0.0153813
865.686	0.0153755
865.764	0.0155440
865.842	0.0155249
865.920	0.0156269
865.998	0.0155592
866.076	0.0155026
866.155	0.0157051
866.233	0.0156235
866.311	0.0155830
866.389	0.0155629
866.467	0.0154976
866.545	0.0155871
866.623	0.0156973
866.701	0.0156878
866.780	0.0156186
866.858	0.0155119
866.936	0.0155196
867.014	0.0154783
867.092	0.0155795
867.170	0.0155961
867.248	0.0155951
867.326	0.0156098
867.405	0.0156535
867.483	0.0157472
867.561	0.0155905
867.639	0.0155947
867.717	0.0158344
867.795	0.0156934
867.873	0.0155755
867.951	0.0155159
868.030	0.0156020
868.108	0.0155772
868.186	0.0155074
868.264	0.0155016
868.342	0.0156136
868.420	0.0156200
868.498	0.0155353
868.576	0.0156623
868.655	0.0156056
868.733	0.0156235
868.811	0.0155850
868.889	0.0156540
868.967	0.0156135
869.045	0.0155505
869.123	0.0154356
869.201	0.0156647
869.280	0.0155089
869.358	0.0155177
869.436	0.0156597
869.514	0.0156209
869.592	0.0155061
869.670	0.0154903
869.748	0.0155086
869.826	0.0154396
869.905	0.0154655
869.983	0.0155711
870.061	0.0154606
870.139	0.0154793
870.217	0.0153925
870.295	0.0153254
870.373	0.0153302
870.451	0.0153639
870.530	0.0154835
870.608	0.0153915
870.686	0.0154236
870.764	0.0152681
870.842	0.0153564
870.920	0.0153680
870.998	0.0154530
871.076	0.0153979
871.155	0.0155016
871.233	0.0154255
871.311	0.0154732
871.389	0.0155366
871.467	0.0153629
871.545	0.0153857
871.623	0.0154806
871.701	0.0153442
871.780	0.0154884
871.858	0.0154368
871.936	0.0153666
872.014	0.0154580
872.092	0.0153971
872.170	0.0152609
872.248	0.0154624
872.326	0.0154881
872.405	0.0155058
872.483	0.0153927
872.561	0.0154278
872.639	0.0153216
872.717	0.0153680
872.795	0.0153869
872.873	0.0154701
872.951	0.0153682
873.030	0.0155713
873.108	0.0152476
873.186	0.0152623
873.264	0.0153886
873.342	0.0154602
873.420	0.0154356
873.498	0.0154032
873.576	0.0153366
873.655	0.0153608
873.733	0.0153534
873.811	0.0152216
873.889	0.0154299
873.967	0.0153433
874.045	0.0152446
874.123	0.0152133
874.201	0.0152255
874.280	0.0153264
874.358	0.0154449
874.436	0.0151923
874.514	0.0152331
874.592	0.0153674
874.670	0.0152387
874.748	0.0152797
874.826	0.0152044
874.905	0.0151280
874.983	0.0153268
875.061	0.0154292
875.139	0.0153905
875.217	0.0153641
875.295	0.0154231
875.373	0.0153899
875.451	0.0154830
875.530	0.0154527
875.608	0.0155692
875.686	0.0156029
875.764	0.0153998
875.842	0.0154466
875.920	0.0155066
875.998	0.0154308
876.076	0.0154873
876.155	0.0155298
876.233	0.0154572
876.311	0.0154913
876.389	0.0154767
876.467	0.0154099
876.545	0.0154151
876.623	0.0153476
876.701	0.0153504
876.780	0.0154218
876.858	0.0154543
876.936	0.0153822
877.014	0.0154522
877.092	0.0153806
877.170	0.0154344
877.248	0.0153672
877.326	0.0153705
877.405	0.0154488
877.483	0.0154331
877.561	0.0153541
877.639	0.0154177
877.717	0.0153344
877.795	0.0153606
877.873	0.0153383
877.951	0.0153870
878.030	0.0153867
878.108	0.0153407
878.186	0.0154408
878.264	0.0153936
878.342	0.0155109
878.420	0.0153132
878.498	0.0152891
878.576	0.0152666
878.655	0.0154192
878.733	0.0154344
878.811	0.0154430
878.889	0.0154718
878.967	0.0153786
879.045	0.0155045
879.123	0.0154189
879.201	0.0154015
879.280	0.0156140
879.358	0.0155672
879.436	0.0154652
879.514	0.0154411
879.592	0.0154210
879.670	0.0154869
879.748	0.0154150
879.826	0.0155122
879.905	0.0153207
879.983	0.0154424
880.061	0.0153520
880.139	0.0153756
880.217	0.0155224
880.295	0.0155520
880.373	0.0154366
880.451	0.0155434
880.530	0.0154560
880.608	0.0155034
880.686	0.0154107
880.764	0.0155257
880.842	0.0153848
880.920	0.0155372
880.998	0.0153909
881.076	0.0154771
881.155	0.0155625
881.233	0.0155425
881.311	0.0154480
881.389	0.0153693
881.467	0.0153910
881.545	0.0155198
881.623	0.0155559
881.701	0.0154438
881.780	0.0154803
881.858	0.0154356
881.936	0.0154706
882.014	0.0154851
882.092	0.0153259
882.170	0.0155433
882.248	0.0154792
882.326	0.0153224
882.405	0.0153758
882.483	0.0154128
882.561	0.0154137
882.639	0.0153926
882.717	0.0154469
882.795	0.0154244
882.873	0.0153419
882.951	0.0153246
883.030	0.0154231
883.108	0.0153374
883.186	0.0154242
883.264	0.0154221
883.342	0.0153712
883.420	0.0152929
883.498	0.0153098
883.576	0.0152277
883.655	0.0153265
883.733	0.0153134
883.811	0.0153344
883.889	0.0153493
883.967	0.0153172
884.045	0.0153889
884.123	0.0153630
884.201	0.0151954
884.280	0.0152489
884.358	0.0152761
884.436	0.0154733
884.514	0.0154095
884.592	0.0154328
884.670	0.0154733
884.748	0.0154681
884.826	0.0155585
884.905	0.0154462
884.983	0.0153557
885.061	0.0155689
885.139	0.0155555
885.217	0.0154885
885.295	0.0155029
885.373	0.0154826
885.451	0.0155592
885.530	0.0155142
885.608	0.0155280
885.686	0.0155267
885.764	0.0154885
885.842	0.0154173
885.920	0.0155754
885.998	0.0155922
886.076	0.0155132
886.155	0.0154299
886.233	0.0155398
886.311	0.0155447
886.389	0.0155672
886.467	0.0155483
886.545	0.0155373
886.623	0.0156059
886.701	0.0156256
886.780	0.0154902
886.858	0.0155395
886.936	0.0156223
887.014	0.0156236
887.092	0.0155001
887.170	0.0154642
887.248	0.0154729
887.326	0.0155927
887.405	0.0153693
887.483	0.0153812
887.561	0.0153549
887.639	0.0153883
887.717	0.0153843
887.795	0.0153883
887.873	0.0152630
887.951	0.0154272
888.030	0.0153645
888.108	0.0153776
888.186	0.0154468
888.264	0.0153562
888.342	0.0153416
888.420	0.0152511
888.498	0.0153438
888.576	0.0153852
888.655	0.0153069
888.733	0.0153613
888.811	0.0153751
888.889	0.0152540
888.967	0.0152201
889.045	0.0153220
889.123	0.0154182
889.201	0.0152780
889.280	0.0153266
889.358	0.0152699
889.436	0.0152022
889.514	0.0153580
889.592	0.0153150
889.670	0.0153252
889.748	0.0152994
889.826	0.0153106
889.905	0.0154230
889.983	0.0154124
890.061	0.0153796
890.139	0.0152814
890.217	0.0153687
890.295	0.0153694
890.373	0.0152680
890.451	0.0153995
890.530	0.0154955
890.608	0.0153908
890.686	0.0153307
890.764	0.0153811
890.842	0.0154252
890.920	0.0155293
890.998	0.0153873
891.076	0.0153519
891.155	0.0153359
891.233	0.0155039
891.311	0.0153435
891.389	0.0154765
891.467	0.0154932
891.545	0.0155264
891.623	0.0155036
891.701	0.0154655
891.780	0.0154613
891.858	0.0155231
891.936	0.0154913
892.014	0.0154254
892.092	0.0156105
892.170	0.0156755
892.248	0.0156799
892.326	0.0154993
892.405	0.0156685
892.483	0.0155846
892.561	0.0156140
892.639	0.0155778
892.717	0.0155836
892.795	0.0155579
892.873	0.0156585
892.951	0.0154842
893.030	0.0155721
893.108	0.0156664
893.186	0.0157239
893.264	0.0155990
893.342	0.0156627
893.420	0.0155259
893.498	0.0155553
893.576	0.0156488
893.655	0.0156414
893.733	0.0155203
893.811	0.0155183
893.889	0.0156413
893.967	0.0155704
894.045	0.0155813
894.123	0.0154544
894.201	0.0156128
894.280	0.0155825
894.358	0.0155584
894.436	0.0155478
894.514	0.0156464
894.592	0.0155196
894.670	0.0154861
894.748	0.0155444
894.826	0.0154575
894.905	0.0155733
894.983	0.0155096
895.061	0.0153935
895.139	0.0154194
895.217	0.0155389
895.295	0.0155354
895.373	0.0153504
895.451	0.0154706
895.530	0.0153590
895.608	0.0153286
895.686	0.0154366
895.764	0.0153137
895.842	0.0153474
895.920	0.0152282
895.998	0.0152842
896.076	0.0152817
896.155	0.0153393
896.233	0.0152526
896.311	0.0150748
896.389	0.0153020
896.467	0.0153218
896.545	0.0151642
896.623	0.0152131
896.701	0.0151620
896.780	0.0152812
896.858	0.0151655
896.936	0.0153230
897.014	0.0152950
897.092	0.0152306
897.170	0.0152454
897.248	0.0151730
897.326	0.0152959
897.405	0.0151649
897.483	0.0151879
897.561	0.0150981
897.639	0.0153024
897.717	0.0152596
897.795	0.0151910
897.873	0.0153354
897.951	0.0151602
898.030	0.0151642
898.108	0.0152638
898.186	0.0153231
898.264	0.0150903
898.342	0.0152362
898.420	0.0152532
898.498	0.0151527
898.576	0.0151914
898.655	0.0151965
898.733	0.0151891
898.811	0.0150504
898.889	0.0152222
898.967	0.0152224
899.045	0.0152014
899.123	0.0152592
899.201	0.0152106
899.280	0.0151782
899.358	0.0151668
899.436	0.0152070
899.514	0.0152502
899.592	0.0152901
899.670	0.0152032
899.748	0.0150751
899.826	0.0151331
899.905	0.0152708
899.983	0.0153408
900.061	0.0153441
900.139	0.0153477
900.217	0.0152906
900.295	0.0153212
900.373	0.0154305
900.451	0.0153294
900.530	0.0152602
900.608	0.0152577
900.686	0.0153146
900.764	0.0153803
900.842	0.0154208
900.920	0.0154709
900.998	0.0154326
901.076	0.0153727
901.155	0.0154536
901.233	0.0152094
901.311	0.0153286
901.389	0.0154243
901.467	0.0153148
901.545	0.0153511
901.623	0.0154574
901.701	0.0153608
901.780	0.0154285
901.858	0.0153399
901.936	0.0154948
902.014	0.0156213
902.092	0.0152320
902.170	0.0155730
902.248	0.0154709
902.326	0.0154590
902.405	0.0156192
902.483	0.0155231
902.561	0.0154456
902.639	0.0153840
902.717	0.0154302
902.795	0.0153986
902.873	0.0155389
902.951	0.0154759
903.030	0.0154990
903.108	0.0152980
903.186	0.0153761
903.264	0.0154617
903.342	0.0153787
903.420	0.0154346
903.498	0.0153895
903.576	0.0154271
903.655	0.0154829
903.733	0.0153696
903.811	0.0155103
903.889	0.0154609
903.967	0.0154285
904.045	0.0153939
904.123	0.0154885
904.201	0.0155519
904.280	0.0153825
904.358	0.0155659
904.436	0.0154695
904.514	0.0154788
904.592	0.0154836
904.670	0.0154762
904.748	0.0155511
904.826	0.0155135
904.905	0.0155790
904.983	0.0153771
905.061	0.0156011
905.139	0.0154421
905.217	0.0153719
905.295	0.0154497
905.373	0.0155614
905.451	0.0153313
905.530	0.0154618
905.608	0.0153529
905.686	0.0154585
905.764	0.0153648
905.842	0.0153189
905.920	0.0154241
905.998	0.0154408
906.076	0.0153693
906.155	0.0153369
906.233	0.0154649
906.311	0.0154536
906.389	0.0153558
906.467	0.0153572
906.545	0.0154523
906.623	0.0153391
906.701	0.0151978
906.780	0.0152924
906.858	0.0153085
906.936	0.0152399
907.014	0.0152422
907.092	0.0153555
907.170	0.0153228
907.248	0.0152490
907.326	0.0153307
907.405	0.0153761
907.483	0.0153466
907.561	0.0153479
907.639	0.0153661
907.717	0.0153223
907.795	0.0152843
907.873	0.0152514
907.951	0.0152972
908.030	0.0154424
908.108	0.0153602
908.186	0.0153301
908.264	0.0152689
908.342	0.0154042
908.420	0.0153709
908.498	0.0155141
908.576	0.0154572
908.655	0.0153668
908.733	0.0154659
908.811	0.0154159
908.889	0.0155283
908.967	0.0155493
909.045	0.0153928
909.123	0.0153793
909.201	0.0155517
909.280	0.0156285
909.358	0.0154489
909.436	0.0155684
909.514	0.0155782
909.592	0.0154746
909.670	0.0153701
909.748	0.0154706
909.826	0.0155586
909.905	0.0154914
909.983	0.0154446
910.061	0.0154075
910.139	0.0155432
910.217	0.0153955
910.295	0.0154949
910.373	0.0153448
910.451	0.0153143
910.530	0.0153407
910.608	0.0153399
910.686	0.0153239
910.764	0.0153130
910.842	0.0153302
910.920	0.0152576
910.998	0.0153035
911.076	0.0153379
911.155	0.0152828
911.233	0.0152016
911.311	0.0152633
911.389	0.0152677
911.467	0.0151662
911.545	0.0153353
911.623	0.0153528
911.701	0.0154152
911.780	0.0154478
911.858	0.0153278
911.936	0.0154872
912.014	0.0154819
912.092	0.0153074
912.170	0.0153626
912.248	0.0154853
912.326	0.0154070
912.405	0.0152745
912.483	0.0154734
912.561	0.0153804
912.639	0.0152595
912.717	0.0152879
912.795	0.0153983
912.873	0.0155114
912.951	0.0155107
913.030	0.0152513
913.108	0.0152962
913.186	0.0152766
913.264	0.0154184
913.342	0.0153040
913.420	0.0153510
913.498	0.0153265
913.576	0.0154121
913.655	0.0155169
913.733	0.0155547
913.811	0.0155044
913.889	0.0154634
913.967	0.0154947
914.045	0.0155052
914.123	0.0156036
914.201	0.0155108
914.280	0.0154186
914.358	0.0154889
914.436	0.0155615
914.514	0.0154525
914.592	0.0154085
914.670	0.0154335
914.748	0.0154011
914.826	0.0154620
914.905	0.0153806
914.983	0.0154328
915.061	0.0154443
915.139	0.0156447
915.217	0.0155139
915.295	0.0154057
915.373	0.0154993
915.451	0.0154671
915.530	0.0155431
915.608	0.0155899
915.686	0.0155094
915.764	0.0155263
915.842	0.0155951
915.920	0.0154493
915.998	0.0153486
916.076	0.0155604
916.155	0.0156119
916.233	0.0153738
916.311	0.0154814
916.389	0.0155631
916.467	0.0153401
916.545	0.0154140
916.623	0.0155787
916.701	0.0155610
916.780	0.0154374
916.858	0.0154817
916.936	0.0155904
917.014	0.0155862
917.092	0.0156243
917.170	0.0154669
917.248	0.0155788
917.326	0.0155386
917.405	0.0153940
917.483	0.0155701
917.561	0.0155810
917.639	0.0154897
917.717	0.0155595
917.795	0.0154768
917.873	0.0154484
917.951	0.0154813
918.030	0.0155180
918.108	0.0154521
918.186	0.0153479
918.264	0.0153727
918.342	0.0155556
918.420	0.0153741
918.498	0.0154342
918.576	0.0152553
918.655	0.0152184
918.733	0.0154512
918.811	0.0153386
918.889	0.0154539
918.967	0.0153762
919.045	0.0153699
919.123	0.0153726
919.201	0.0154295
919.280	0.0152682
919.358	0.0153471
919.436	0.0154198
919.514	0.0152898
919.592	0.0152779
919.670	0.0154306
919.748	0.0152551
919.826	0.0150468
919.905	0.0153425
919.983	0.0154234
920.061	0.0153278
920.139	0.0153181
920.217	0.0152811
920.295	0.0152933
920.373	0.0155196
920.451	0.0154398
920.530	0.0153774
920.608	0.0153831
920.686	0.0154442
920.764	0.0154669
920.842	0.0153959
920.920	0.0154686
920.998	0.0153859
921.076	0.0154343
921.155	0.0153065
921.233	0.0155255
921.311	0.0155038
921.389	0.0154095
921.467	0.0154630
921.545	0.0154188
921.623	0.0155090
921.701	0.0154722
921.780	0.0154823
921.858	0.0152914
921.936	0.0154943
922.014	0.0153545
922.092	0.0154069
922.170	0.0154271
922.248	0.0154223
922.326	0.0153846
922.405	0.0153281
922.483	0.0152435
922.561	0.0153458
922.639	0.0154401
922.717	0.0154249
922.795	0.0154506
922.873	0.0153971
922.951	0.0153745
923.030	0.0153534
923.108	0.0155180
923.186	0.0155488
923.264	0.0153622
923.342	0.0152923
923.420	0.0153302
923.498	0.0152737
923.576	0.0154266
923.655	0.0154559
923.733	0.0154308
923.811	0.0154355
923.889	0.0154429
923.967	0.0153336
924.045	0.0154627
924.123	0.0154039
924.201	0.0153594
924.280	0.0153317
924.358	0.0152779
924.436	0.0154327
924.514	0.0154219
924.592	0.0155054
924.670	0.0153431
924.748	0.0154687
924.826	0.0152945
924.905	0.0152563
924.983	0.0154021
925.061	0.0155172
925.139	0.0154053
925.217	0.0152450
925.295	0.0154378
925.373	0.0153730
925.451	0.0153932
925.530	0.0155923
925.608	0.0153478
925.686	0.0154900
925.764	0.0154615
925.842	0.0153845
925.920	0.0155180
925.998	0.0154570
926.076	0.0153558
926.155	0.0153282
926.233	0.0154578
926.311	0.0153091
926.389	0.0154395
926.467	0.0153592
926.545	0.0151792
926.623	0.0152461
926.701	0.0153416
926.780	0.0152212
926.858	0.0152245
926.936	0.0151623
927.014	0.0152294
927.092	0.0152869
927.170	0.0153629
927.248	0.0152579
927.326	0.0153712
927.405	0.0154297
927.483	0.0152386
927.561	0.0152328
927.639	0.0153760
927.717	0.0154629
927.795	0.0154465
927.873	0.0154437
927.951	0.0155466
928.030	0.0154407
928.108	0.0154852
928.186	0.0154205
928.264	0.0155351
928.342	0.0154723
928.420	0.0154099
928.498	0.0155173
928.576	0.0154967
928.655	0.0155037
928.733	0.0154244
928.811	0.0154023
928.889	0.0154227
928.967	0.0155083
929.045	0.0155964
929.123	0.0154073
929.201	0.0155037
929.280	0.0155197
929.358	0.0155470
929.436	0.0155909
929.514	0.0157260
929.592	0.0157542
929.670	0.0156172
929.748	0.0156104
929.826	0.0156044
929.905	0.0156210
929.983	0.0156060
930.061	0.0155840
930.139	0.0156757
930.217	0.0156492
930.295	0.0156437
930.373	0.0157118
930.451	0.0155657
930.530	0.0156543
930.608	0.0155831
930.686	0.0156727
930.764	0.0156210
930.842	0.0155379
930.920	0.0156303
930.998	0.0155737
931.076	0.0155764
931.155	0.0155527
931.233	0.0157259
931.311	0.0156142
931.389	0.0156236
931.467	0.0156716
931.545	0.0156549
931.623	0.0154713
931.701	0.0156793
931.780	0.0157404
931.858	0.0155243
931.936	0.0155566
932.014	0.0157239
932.092	0.0156152
932.170	0.0155402
932.248	0.0155237
932.326	0.0155506
932.405	0.0155032
932.483	0.0155100
932.561	0.0155463
932.639	0.0153707
932.717	0.0153957
932.795	0.0155793
932.873	0.0155397
932.951	0.0153899
933.030	0.0153502
933.108	0.0152526
933.186	0.0153727
933.264	0.0155563
933.342	0.0154010
933.420	0.0154177
933.498	0.0154183
933.576	0.0153671
933.655	0.0152785
933.733	0.0151949
933.811	0.0153319
933.889	0.0153623
933.967	0.0152258
934.045	0.0151950
934.123	0.0153959
934.201	0.0152475
934.280	0.0152694
934.358	0.0153832
934.436	0.0152193
934.514	0.0151824
934.592	0.0152374
934.670	0.0152936
934.748	0.0152027
934.826	0.0152872
934.905	0.0153893
934.983	0.0153841
935.061	0.0153711
935.139	0.0154471
935.217	0.0153516
935.295	0.0154206
935.373	0.0153593
935.451	0.0154697
935.530	0.0154956
935.608	0.0154646
935.686	0.0156656
935.764	0.0154434
935.842	0.0154662
935.920	0.0156160
935.998	0.0153151
936.076	0.0153693
936.155	0.0155605
936.233	0.0155453
936.311	0.0155378
936.389	0.0155426
936.467	0.0155367
936.545	0.0155463
936.623	0.0154660
936.701	0.0155276
936.780	0.0155327
936.858	0.0155228
936.936	0.0154086
937.014	0.0153798
937.092	0.0153398
937.170	0.0154655
937.248	0.0154865
937.326	0.0154849
937.405	0.0155542
937.483	0.0153894
937.561	0.0153120
937.639	0.0154271
937.717	0.0152779
937.795	0.0153612
937.873	0.0153651
937.951	0.0153460
938.030	0.0152230
938.108	0.0153438
938.186	0.0153246
938.264	0.0153424
938.342	0.0153752
938.420	0.0153348
938.498	0.0152675
938.576	0.0153791
938.655	0.0153499
938.733	0.0154980
938.811	0.0154288
938.889	0.0153593
938.967	0.0153442
939.045	0.0153817
939.123	0.0154449
939.201	0.0154121
939.280	0.0153530
939.358	0.0155633
939.436	0.0156075
939.514	0.0155485
939.592	0.0155367
939.670	0.0155311
939.748	0.0155676
939.826	0.0153346
939.905	0.0154235
939.983	0.0154712
940.061	0.0154784
940.139	0.0155100
940.217	0.0156072
940.295	0.0155592
940.373	0.0155560
940.451	0.0156467
940.530	0.0155020
940.608	0.0156019
940.686	0.0154572
940.764	0.0155805
940.842	0.0156325
940.920	0.0154884
940.998	0.0155704
941.076	0.0157159
941.155	0.0155901
941.233	0.0157490
941.311	0.0157430
941.389	0.0155205
941.467	0.0155849
941.545	0.0156748
941.623	0.0155619
941.701	0.0154324
941.780	0.0156047
941.858	0.0156482
941.936	0.0154665
942.014	0.0155883
942.092	0.0155088
942.170	0.0154245
942.248	0.0155566
942.326	0.0154021
942.405	0.0155508
942.483	0.0154761
942.561	0.0154372
942.639	0.0153408
942.717	0.0154007
942.795	0.0154239
942.873	0.0154511
942.951	0.0154134
943.030	0.0154552
943.108	0.0153691
943.186	0.0153476
943.264	0.0155632
943.342	0.0153897
943.420	0.0154155
943.498	0.0154950
943.576	0.0154156
943.655	0.0155601
943.733	0.0156078
943.811	0.0155171
943.889	0.0153913
943.967	0.0153826
944.045	0.0155283
944.123	0.0154748
944.201	0.0154781
944.280	0.0154268
944.358	0.0153823
944.436	0.0154156
944.514	0.0155301
944.592	0.0153616
944.670	0.0154175
944.748	0.0153284
944.826	0.0154250
944.905	0.0154019
944.983	0.0155461
945.061	0.0155558
945.139	0.0155711
945.217	0.0154529
945.295	0.0156472
945.373	0.0155142
945.451	0.0155399
945.530	0.0156867
945.608	0.0155330
945.686	0.0156319
945.764	0.0155837
945.842	0.0155316
945.920	0.0156010
945.998	0.0155064
946.076	0.0155626
946.155	0.0154787
946.233	0.0154747
946.311	0.0156445
946.389	0.0154472
946.467	0.0155708
946.545	0.0156455
946.623	0.0154523
946.701	0.0155055
946.780	0.0155309
946.858	0.0154082
946.936	0.0154910
947.014	0.0154226
947.092	0.0153874
947.170	0.0154400
947.248	0.0155404
947.326	0.0153666
947.405	0.0153247
947.483	0.0153717
947.561	0.0154023
947.639	0.0154175
947.717	0.0152413
947.795	0.0153383
947.873	0.0153455
947.951	0.0154025
948.030	0.0153748
948.108	0.0153196
948.186	0.0153504
948.264	0.0153339
948.342	0.0153292
948.420	0.0153837
948.498	0.0154082
948.576	0.0152612
948.655	0.0153332
948.733	0.0154706
948.811	0.0153248
948.889	0.0153740
948.967	0.0154035
949.045	0.0153674
949.123	0.0153264
949.201	0.0153676
949.280	0.0154701
949.358	0.0153455
949.436	0.0153362
949.514	0.0154503
949.592	0.0152778
949.670	0.0155386
949.748	0.0155704
949.826	0.0155654
949.905	0.0155567
949.983	0.0154752
950.061	0.0155370
950.139	0.0154837
950.217	0.0154790
950.295	0.0154834
950.373	0.0154056
950.451	0.0156372
950.530	0.0155930
950.608	0.0156097
950.686	0.0155513
950.764	0.0156041
950.842	0.0155318
950.920	0.0155330
950.998	0.0155885
951.076	0.0155460
951.155	0.0155143
951.233	0.0155058
951.311	0.0155258
951.389	0.0155017
951.467	0.0154901
951.545	0.0154221
951.623	0.0155481
951.701	0.0153583
951.780	0.0153629
951.858	0.0154535
951.936	0.0154905
952.014	0.0154372
952.092	0.0155511
952.170	0.0154195
952.248	0.0155144
952.326	0.0155325
952.405	0.0155325
952.483	0.0154678
952.561	0.0153741
952.639	0.0154649
952.717	0.0153815
952.795	0.0153822
952.873	0.0155730
952.951	0.0154375
953.030	0.0153406
953.108	0.0153592
953.186	0.0154502
953.264	0.0154457
953.342	0.0153724
953.420	0.0154430
953.498	0.0155161
953.576	0.0153552
953.655	0.0153802
953.733	0.0155201
953.811	0.0155068
953.889	0.0153766
953.967	0.0154794
954.045	0.0153809
954.123	0.0155708
954.201	0.0155938
954.280	0.0156246
954.358	0.0155165
954.436	0.0156579
954.514	0.0155402
954.592	0.0154723
954.670	0.0155684
954.748	0.0155835
954.826	0.0154971
954.905	0.0154847
954.983	0.0155564
955.061	0.0154752
955.139	0.0155412
955.217	0.0156380
955.295	0.0156101
955.373	0.0154714
955.451	0.0155310
955.530	0.0156110
955.608	0.0156034
955.686	0.0155453
955.764	0.0156408
955.842	0.0156583
955.920	0.0155685
955.998	0.0154819
956.076	0.0154716
956.155	0.0155589
956.233	0.0157111
956.311	0.0156691
956.389	0.0155086
956.467	0.0156782
956.545	0.0155704
956.623	0.0155675
956.701	0.0157104
956.780	0.0155124
956.858	0.0154649
956.936	0.0156199
957.014	0.0155646
957.092	0.0156715
957.170	0.0156754
957.248	0.0156398
957.326	0.0155639
957.405	0.0157033
957.483	0.0156379
957.561	0.0156458
957.639	0.0156905
957.717	0.0156776
957.795	0.0156680
957.873	0.0157362
957.951	0.0157052
958.030	0.0156989
958.108	0.0157188
958.186	0.0157126
958.264	0.0156275
958.342	0.0155040
958.420	0.0157423
958.498	0.0157224
958.576	0.0156779
958.655	0.0156083
958.733	0.0156190
958.811	0.0156995
958.889	0.0155072
958.967	0.0155805
959.045	0.0155328
959.123	0.0155582
959.201	0.0155065
959.280	0.0154845
959.358	0.0155479
959.436	0.0153797
959.514	0.0153945
959.592	0.0154704
959.670	0.0154939
959.748	0.0153188
959.826	0.0154826
959.905	0.0154362
