05/17/2022	17:25:15	Ver.	4.1	UNKNOWN
Optical Delay	639.982744	Delta X		0.078125	Sweeps	1	Scan Rate	0/0
Coordinates	Axis 1	NaN	Axis 2	NaN	Axis 3	NaN	Axis 4	NaN	Axis 5	NaN	Axis 6	0.000000
TX Power	0.000000	RX Power	0.000000

639.983	0.0159912
640.061	0.0158762
640.139	0.0159480
640.217	0.0159442
640.295	0.0161061
640.373	0.0162477
640.451	0.0159928
640.530	0.0160378
640.608	0.0160966
640.686	0.0160318
640.764	0.0159916
640.842	0.0162113
640.920	0.0161208
640.998	0.0161770
641.076	0.0160320
641.155	0.0162554
641.233	0.0161583
641.311	0.0163356
641.389	0.0161408
641.467	0.0161579
641.545	0.0163136
641.623	0.0163320
641.701	0.0162109
641.780	0.0163010
641.858	0.0162453
641.936	0.0162768
642.014	0.0163744
642.092	0.0163012
642.170	0.0165367
642.248	0.0163395
642.326	0.0162235
642.405	0.0163596
642.483	0.0163538
642.561	0.0164127
642.639	0.0163809
642.717	0.0163958
642.795	0.0162280
642.873	0.0164200
642.951	0.0163892
643.030	0.0163984
643.108	0.0163795
643.186	0.0163965
643.264	0.0163017
643.342	0.0163039
643.420	0.0162990
643.498	0.0164827
643.576	0.0162432
643.655	0.0161732
643.733	0.0162628
643.811	0.0161663
643.889	0.0162177
643.967	0.0161546
644.045	0.0162621
644.123	0.0162006
644.201	0.0161723
644.280	0.0160140
644.358	0.0160590
644.436	0.0161354
644.514	0.0160675
644.592	0.0159204
644.670	0.0159579
644.748	0.0160420
644.826	0.0161414
644.905	0.0159331
644.983	0.0159650
645.061	0.0159355
645.139	0.0157993
645.217	0.0158493
645.295	0.0159557
645.373	0.0158678
645.451	0.0158033
645.530	0.0158861
645.608	0.0159529
645.686	0.0158837
645.764	0.0159489
645.842	0.0159196
645.920	0.0158682
645.998	0.0158414
646.076	0.0158625
646.155	0.0159787
646.233	0.0160019
646.311	0.0157819
646.389	0.0158472
646.467	0.0160140
646.545	0.0159204
646.623	0.0159982
646.701	0.0159730
646.780	0.0159750
646.858	0.0160509
646.936	0.0160290
647.014	0.0160977
647.092	0.0160551
647.170	0.0160741
647.248	0.0160483
647.326	0.0163126
647.405	0.0162166
647.483	0.0160891
647.561	0.0160943
647.639	0.0161486
647.717	0.0160392
647.795	0.0161339
647.873	0.0161935
647.951	0.0159779
648.030	0.0160958
648.108	0.0160007
648.186	0.0160251
648.264	0.0160311
648.342	0.0160556
648.420	0.0160806
648.498	0.0161194
648.576	0.0160442
648.655	0.0160105
648.733	0.0160951
648.811	0.0162074
648.889	0.0161859
648.967	0.0161980
649.045	0.0162601
649.123	0.0162778
649.201	0.0161851
649.280	0.0162469
649.358	0.0161938
649.436	0.0164156
649.514	0.0163950
649.592	0.0164692
649.670	0.0163926
649.748	0.0163960
649.826	0.0165375
649.905	0.0166750
649.983	0.0165081
650.061	0.0165614
650.139	0.0166293
650.217	0.0166076
650.295	0.0165464
650.373	0.0165257
650.451	0.0165160
650.530	0.0163769
650.608	0.0163593
650.686	0.0162505
650.764	0.0162551
650.842	0.0161584
650.920	0.0161292
650.998	0.0161544
651.076	0.0158836
651.155	0.0159373
651.233	0.0159836
651.311	0.0158994
651.389	0.0159747
651.467	0.0160130
651.545	0.0159148
651.623	0.0159809
651.701	0.0159682
651.780	0.0159982
651.858	0.0161510
651.936	0.0162770
652.014	0.0161963
652.092	0.0161806
652.170	0.0162492
652.248	0.0162360
652.326	0.0161671
652.405	0.0163743
652.483	0.0163963
652.561	0.0163240
652.639	0.0163510
652.717	0.0163981
652.795	0.0162961
652.873	0.0163438
652.951	0.0164456
653.030	0.0163913
653.108	0.0164440
653.186	0.0163940
653.264	0.0162472
653.342	0.0163589
653.420	0.0164624
653.498	0.0164469
653.576	0.0162187
653.655	0.0162815
653.733	0.0161337
653.811	0.0161951
653.889	0.0161801
653.967	0.0161197
654.045	0.0161121
654.123	0.0160710
654.201	0.0160713
654.280	0.0160023
654.358	0.0162555
654.436	0.0160134
654.514	0.0159215
654.592	0.0160504
654.670	0.0161318
654.748	0.0161796
654.826	0.0160421
654.905	0.0162212
654.983	0.0160315
655.061	0.0160946
655.139	0.0161976
655.217	0.0161626
655.295	0.0161707
655.373	0.0159846
655.451	0.0161848
655.530	0.0161063
655.608	0.0162108
655.686	0.0161902
655.764	0.0161221
655.842	0.0160969
655.920	0.0160850
655.998	0.0160374
656.076	0.0160200
656.155	0.0160995
656.233	0.0159698
656.311	0.0159578
656.389	0.0160503
656.467	0.0160860
656.545	0.0159398
656.623	0.0160546
656.701	0.0159513
656.780	0.0160879
656.858	0.0159476
656.936	0.0162010
657.014	0.0161639
657.092	0.0161290
657.170	0.0161783
657.248	0.0162316
657.326	0.0162862
657.405	0.0162726
657.483	0.0162112
657.561	0.0163947
657.639	0.0164818
657.717	0.0164134
657.795	0.0164153
657.873	0.0164183
657.951	0.0164596
658.030	0.0162689
658.108	0.0164436
658.186	0.0163409
658.264	0.0165690
658.342	0.0164947
658.420	0.0165074
658.498	0.0164751
658.576	0.0165058
658.655	0.0162751
658.733	0.0164365
658.811	0.0164135
658.889	0.0163977
658.967	0.0163731
659.045	0.0163066
659.123	0.0162511
659.201	0.0160248
659.280	0.0161045
659.358	0.0160550
659.436	0.0159997
659.514	0.0162237
659.592	0.0160905
659.670	0.0159174
659.748	0.0160201
659.826	0.0160659
659.905	0.0159101
659.983	0.0161773
660.061	0.0161906
660.139	0.0161512
660.217	0.0162344
660.295	0.0163815
660.373	0.0161782
660.451	0.0162959
660.530	0.0162544
660.608	0.0163522
660.686	0.0161298
660.764	0.0161729
660.842	0.0160842
660.920	0.0161617
660.998	0.0160566
661.076	0.0159484
661.155	0.0158687
661.233	0.0158792
661.311	0.0158391
661.389	0.0157301
661.467	0.0158099
661.545	0.0157254
661.623	0.0156100
661.701	0.0158128
661.780	0.0156873
661.858	0.0158108
661.936	0.0158303
662.014	0.0157751
662.092	0.0156606
662.170	0.0157182
662.248	0.0157597
662.326	0.0157976
662.405	0.0157758
662.483	0.0158000
662.561	0.0157522
662.639	0.0157893
662.717	0.0159279
662.795	0.0160035
662.873	0.0158451
662.951	0.0160155
663.030	0.0159445
663.108	0.0161562
663.186	0.0160964
663.264	0.0161189
663.342	0.0161482
663.420	0.0161342
663.498	0.0160595
663.576	0.0161218
663.655	0.0160762
663.733	0.0160157
663.811	0.0160630
663.889	0.0161350
663.967	0.0160588
664.045	0.0162000
664.123	0.0161853
664.201	0.0162004
664.280	0.0161565
664.358	0.0160120
664.436	0.0161214
664.514	0.0160983
664.592	0.0162555
664.670	0.0162563
664.748	0.0161514
664.826	0.0163319
664.905	0.0163003
664.983	0.0160863
665.061	0.0164280
665.139	0.0163810
665.217	0.0163806
665.295	0.0162524
665.373	0.0163021
665.451	0.0163945
665.530	0.0162715
665.608	0.0164441
665.686	0.0163399
665.764	0.0162530
665.842	0.0162868
665.920	0.0161828
665.998	0.0163699
666.076	0.0162207
666.155	0.0162650
666.233	0.0164400
666.311	0.0164165
666.389	0.0165253
666.467	0.0165670
666.545	0.0165150
666.623	0.0165800
666.701	0.0165752
666.780	0.0165557
666.858	0.0167252
666.936	0.0166735
667.014	0.0165337
667.092	0.0165451
667.170	0.0165714
667.248	0.0164158
667.326	0.0164779
667.405	0.0165016
667.483	0.0163037
667.561	0.0163281
667.639	0.0163764
667.717	0.0161975
667.795	0.0162283
667.873	0.0162138
667.951	0.0160683
668.030	0.0161028
668.108	0.0160162
668.186	0.0161411
668.264	0.0161817
668.342	0.0160266
668.420	0.0160783
668.498	0.0158865
668.576	0.0157648
668.655	0.0158511
668.733	0.0158287
668.811	0.0158582
668.889	0.0158990
668.967	0.0158115
669.045	0.0159013
669.123	0.0159032
669.201	0.0159688
669.280	0.0160455
669.358	0.0158642
669.436	0.0159005
669.514	0.0160537
669.592	0.0160814
669.670	0.0162569
669.748	0.0163779
669.826	0.0164024
669.905	0.0161437
669.983	0.0163303
670.061	0.0164028
670.139	0.0163465
670.217	0.0163794
670.295	0.0164123
670.373	0.0163297
670.451	0.0162959
670.530	0.0161260
670.608	0.0161802
670.686	0.0161083
670.764	0.0162919
670.842	0.0160180
670.920	0.0161635
670.998	0.0160961
671.076	0.0159527
671.155	0.0159087
671.233	0.0159083
671.311	0.0158970
671.389	0.0159115
671.467	0.0160482
671.545	0.0159290
671.623	0.0159608
671.701	0.0158665
671.780	0.0160550
671.858	0.0161279
671.936	0.0160500
672.014	0.0161940
672.092	0.0162206
672.170	0.0160991
672.248	0.0161669
672.326	0.0161989
672.405	0.0161236
672.483	0.0161375
672.561	0.0162672
672.639	0.0160094
672.717	0.0160598
672.795	0.0159551
672.873	0.0161048
672.951	0.0160069
673.030	0.0159832
673.108	0.0160244
673.186	0.0159164
673.264	0.0160182
673.342	0.0160838
673.420	0.0160230
673.498	0.0160656
673.576	0.0160532
673.655	0.0161960
673.733	0.0162506
673.811	0.0160738
673.889	0.0162548
673.967	0.0162562
674.045	0.0163748
674.123	0.0162570
674.201	0.0162205
674.280	0.0161027
674.358	0.0162818
674.436	0.0165075
674.514	0.0163657
674.592	0.0163295
674.670	0.0164898
674.748	0.0164206
674.826	0.0164388
674.905	0.0163819
674.983	0.0165462
675.061	0.0163754
675.139	0.0163371
675.217	0.0164910
675.295	0.0164124
675.373	0.0165456
675.451	0.0165150
675.530	0.0166656
675.608	0.0166531
675.686	0.0166196
675.764	0.0167238
675.842	0.0166706
675.920	0.0166742
675.998	0.0167318
676.076	0.0167367
676.155	0.0169253
676.233	0.0168166
676.311	0.0170457
676.389	0.0168997
676.467	0.0170030
676.545	0.0170546
676.623	0.0171098
676.701	0.0171458
676.780	0.0170770
676.858	0.0170528
676.936	0.0168700
677.014	0.0168835
677.092	0.0169530
677.170	0.0169244
677.248	0.0167460
677.326	0.0168310
677.405	0.0166880
677.483	0.0166728
677.561	0.0166833
677.639	0.0164647
677.717	0.0163316
677.795	0.0162620
677.873	0.0163271
677.951	0.0162373
678.030	0.0162634
678.108	0.0161351
678.186	0.0159555
678.264	0.0160434
678.342	0.0161372
678.420	0.0160131
678.498	0.0158059
678.576	0.0158213
678.655	0.0158094
678.733	0.0159507
678.811	0.0157797
678.889	0.0157280
678.967	0.0158685
679.045	0.0158122
679.123	0.0157566
679.201	0.0156717
679.280	0.0158196
679.358	0.0158620
679.436	0.0157892
679.514	0.0158978
679.592	0.0161269
679.670	0.0159832
679.748	0.0160696
679.826	0.0160437
679.905	0.0162511
679.983	0.0161342
680.061	0.0162113
680.139	0.0162620
680.217	0.0162497
680.295	0.0162884
680.373	0.0163578
680.451	0.0165049
680.530	0.0164619
680.608	0.0165544
680.686	0.0165106
680.764	0.0165237
680.842	0.0163720
680.920	0.0164036
680.998	0.0164046
681.076	0.0165069
681.155	0.0163448
681.233	0.0163941
681.311	0.0162715
681.389	0.0163455
681.467	0.0164687
681.545	0.0163251
681.623	0.0162068
681.701	0.0163181
681.780	0.0163053
681.858	0.0164005
681.936	0.0162497
682.014	0.0161758
682.092	0.0162669
682.170	0.0162412
682.248	0.0164907
682.326	0.0163044
682.405	0.0162838
682.483	0.0164692
682.561	0.0164166
682.639	0.0163286
682.717	0.0162637
682.795	0.0163537
682.873	0.0161845
682.951	0.0162009
683.030	0.0161253
683.108	0.0160058
683.186	0.0161572
683.264	0.0159869
683.342	0.0160736
683.420	0.0159609
683.498	0.0159150
683.576	0.0160305
683.655	0.0159634
683.733	0.0159325
683.811	0.0159141
683.889	0.0159857
683.967	0.0159406
684.045	0.0159343
684.123	0.0158897
684.201	0.0159659
684.280	0.0158640
684.358	0.0158282
684.436	0.0158672
684.514	0.0158426
684.592	0.0159701
684.670	0.0158744
684.748	0.0159717
684.826	0.0159270
684.905	0.0159954
684.983	0.0159000
685.061	0.0161151
685.139	0.0160449
685.217	0.0160823
685.295	0.0161663
685.373	0.0161170
685.451	0.0159803
685.530	0.0162446
685.608	0.0160472
685.686	0.0160287
685.764	0.0161676
685.842	0.0160446
685.920	0.0160324
685.998	0.0160752
686.076	0.0159848
686.155	0.0159499
686.233	0.0160149
686.311	0.0159715
686.389	0.0158370
686.467	0.0160578
686.545	0.0158468
686.623	0.0157361
686.701	0.0158883
686.780	0.0158286
686.858	0.0159097
686.936	0.0157873
687.014	0.0159030
687.092	0.0160986
687.170	0.0159976
687.248	0.0160836
687.326	0.0159973
687.405	0.0160650
687.483	0.0161091
687.561	0.0161247
687.639	0.0160892
687.717	0.0162888
687.795	0.0163309
687.873	0.0163934
687.951	0.0163379
688.030	0.0163023
688.108	0.0166232
688.186	0.0166244
688.264	0.0164479
688.342	0.0164599
688.420	0.0166861
688.498	0.0165239
688.576	0.0165128
688.655	0.0165687
688.733	0.0165572
688.811	0.0165550
688.889	0.0165115
688.967	0.0164675
689.045	0.0165589
689.123	0.0165121
689.201	0.0163722
689.280	0.0162943
689.358	0.0165760
689.436	0.0164400
689.514	0.0163721
689.592	0.0163742
689.670	0.0162972
689.748	0.0162375
689.826	0.0162132
689.905	0.0161418
689.983	0.0160745
690.061	0.0160321
690.139	0.0161012
690.217	0.0159497
690.295	0.0158811
690.373	0.0157994
690.451	0.0158854
690.530	0.0157609
690.608	0.0157044
690.686	0.0157967
690.764	0.0157314
690.842	0.0157606
690.920	0.0158218
690.998	0.0158967
691.076	0.0160267
691.155	0.0160079
691.233	0.0159264
691.311	0.0161246
691.389	0.0161899
691.467	0.0162617
691.545	0.0162596
691.623	0.0164039
691.701	0.0163073
691.780	0.0163068
691.858	0.0164469
691.936	0.0164898
692.014	0.0164854
692.092	0.0165169
692.170	0.0164952
692.248	0.0164183
692.326	0.0163917
692.405	0.0165036
692.483	0.0164346
692.561	0.0163995
692.639	0.0163369
692.717	0.0165002
692.795	0.0164965
692.873	0.0165278
692.951	0.0163146
693.030	0.0166034
693.108	0.0165979
693.186	0.0165556
693.264	0.0166617
693.342	0.0165940
693.420	0.0166190
693.498	0.0165866
693.576	0.0165683
693.655	0.0165210
693.733	0.0164120
693.811	0.0165636
693.889	0.0164938
693.967	0.0162611
694.045	0.0164133
694.123	0.0161823
694.201	0.0163087
694.280	0.0162070
694.358	0.0161818
694.436	0.0161473
694.514	0.0160134
694.592	0.0160431
694.670	0.0161396
694.748	0.0160843
694.826	0.0160693
694.905	0.0162524
694.983	0.0160505
695.061	0.0163000
695.139	0.0163446
695.217	0.0162544
695.295	0.0164104
695.373	0.0165938
695.451	0.0163646
695.530	0.0164999
695.608	0.0165601
695.686	0.0165664
695.764	0.0164716
695.842	0.0164803
695.920	0.0164938
695.998	0.0164507
696.076	0.0164173
696.155	0.0164346
696.233	0.0164249
696.311	0.0164485
696.389	0.0161798
696.467	0.0162655
696.545	0.0163193
696.623	0.0162033
696.701	0.0162893
696.780	0.0163248
696.858	0.0161800
696.936	0.0160491
697.014	0.0160069
697.092	0.0161193
697.170	0.0159861
697.248	0.0160302
697.326	0.0159423
697.405	0.0159011
697.483	0.0160148
697.561	0.0159896
697.639	0.0157877
697.717	0.0159193
697.795	0.0158682
697.873	0.0159199
697.951	0.0158337
698.030	0.0159428
698.108	0.0160780
698.186	0.0161014
698.264	0.0159019
698.342	0.0160861
698.420	0.0161140
698.498	0.0160087
698.576	0.0158964
698.655	0.0160684
698.733	0.0161994
698.811	0.0162248
698.889	0.0161345
698.967	0.0162667
699.045	0.0162687
699.123	0.0161798
699.201	0.0161209
699.280	0.0162723
699.358	0.0162404
699.436	0.0162451
699.514	0.0162793
699.592	0.0161286
699.670	0.0161581
699.748	0.0162460
699.826	0.0162875
699.905	0.0162395
699.983	0.0161639
700.061	0.0163625
700.139	0.0162814
700.217	0.0164974
700.295	0.0164375
700.373	0.0165400
700.451	0.0166482
700.530	0.0166512
700.608	0.0165862
700.686	0.0167768
700.764	0.0168051
700.842	0.0169144
700.920	0.0169611
700.998	0.0169273
701.076	0.0169074
701.155	0.0171068
701.233	0.0169160
701.311	0.0170056
701.389	0.0169787
701.467	0.0169537
701.545	0.0169078
701.623	0.0167010
701.701	0.0168074
701.780	0.0168023
701.858	0.0166327
701.936	0.0165031
702.014	0.0166238
702.092	0.0164973
702.170	0.0165676
702.248	0.0165777
702.326	0.0164390
702.405	0.0164436
702.483	0.0162724
702.561	0.0162138
702.639	0.0161082
702.717	0.0160654
702.795	0.0162039
702.873	0.0160604
702.951	0.0158640
703.030	0.0159407
703.108	0.0159011
703.186	0.0158529
703.264	0.0157758
703.342	0.0158929
703.420	0.0158234
703.498	0.0158372
703.576	0.0158265
703.655	0.0158669
703.733	0.0158610
703.811	0.0157517
703.889	0.0157753
703.967	0.0157365
704.045	0.0156467
704.123	0.0159350
704.201	0.0158053
704.280	0.0157240
704.358	0.0158798
704.436	0.0160046
704.514	0.0158801
704.592	0.0158639
704.670	0.0160167
704.748	0.0159574
704.826	0.0160572
704.905	0.0160444
704.983	0.0160443
705.061	0.0159917
705.139	0.0159837
705.217	0.0160354
705.295	0.0161153
705.373	0.0159127
705.451	0.0160262
705.530	0.0161957
705.608	0.0161886
705.686	0.0162341
705.764	0.0161790
705.842	0.0161807
705.920	0.0161259
705.998	0.0161689
706.076	0.0163435
706.155	0.0162362
706.233	0.0161166
706.311	0.0161323
706.389	0.0163416
706.467	0.0163608
706.545	0.0162730
706.623	0.0162724
706.701	0.0164511
706.780	0.0164451
706.858	0.0163348
706.936	0.0163785
707.014	0.0163952
707.092	0.0165855
707.170	0.0164306
707.248	0.0164736
707.326	0.0164500
707.405	0.0163842
707.483	0.0165252
707.561	0.0164630
707.639	0.0165292
707.717	0.0164598
707.795	0.0163795
707.873	0.0163164
707.951	0.0162432
708.030	0.0163190
708.108	0.0162519
708.186	0.0163396
708.264	0.0163042
708.342	0.0162813
708.420	0.0162389
708.498	0.0162379
708.576	0.0163729
708.655	0.0162533
708.733	0.0162345
708.811	0.0162708
708.889	0.0162843
708.967	0.0162346
709.045	0.0162292
709.123	0.0161466
709.201	0.0163058
709.280	0.0162279
709.358	0.0162497
709.436	0.0162000
709.514	0.0161307
709.592	0.0162299
709.670	0.0160342
709.748	0.0162521
709.826	0.0161153
709.905	0.0161906
709.983	0.0161862
710.061	0.0161257
710.139	0.0161040
710.217	0.0163530
710.295	0.0162325
710.373	0.0160686
710.451	0.0163783
710.530	0.0162548
710.608	0.0162442
710.686	0.0161962
710.764	0.0162461
710.842	0.0162723
710.920	0.0162901
710.998	0.0163866
711.076	0.0164098
711.155	0.0162229
711.233	0.0163841
711.311	0.0163291
711.389	0.0164423
711.467	0.0166172
711.545	0.0165464
711.623	0.0164693
711.701	0.0165796
711.780	0.0165883
711.858	0.0167683
711.936	0.0168416
712.014	0.0166712
712.092	0.0167417
712.170	0.0168951
712.248	0.0166893
712.326	0.0169734
712.405	0.0168031
712.483	0.0166848
712.561	0.0168467
712.639	0.0167166
712.717	0.0165929
712.795	0.0165228
712.873	0.0165788
712.951	0.0164215
713.030	0.0163783
713.108	0.0163177
713.186	0.0163333
713.264	0.0162258
713.342	0.0162380
713.420	0.0162476
713.498	0.0159615
713.576	0.0158218
713.655	0.0160323
713.733	0.0160078
713.811	0.0157670
713.889	0.0158492
713.967	0.0157281
714.045	0.0157943
714.123	0.0159746
714.201	0.0157981
714.280	0.0158337
714.358	0.0157004
714.436	0.0157442
714.514	0.0157825
714.592	0.0156712
714.670	0.0156961
714.748	0.0157133
714.826	0.0158642
714.905	0.0157424
714.983	0.0157869
715.061	0.0158549
715.139	0.0158247
715.217	0.0159526
715.295	0.0159162
715.373	0.0160023
715.451	0.0159705
715.530	0.0160414
715.608	0.0160500
715.686	0.0161896
715.764	0.0162579
715.842	0.0162151
715.920	0.0161893
715.998	0.0163944
716.076	0.0163176
716.155	0.0161979
716.233	0.0163364
716.311	0.0161958
716.389	0.0160770
716.467	0.0161315
716.545	0.0161157
716.623	0.0159750
716.701	0.0159957
716.780	0.0160133
716.858	0.0158860
716.936	0.0159129
717.014	0.0160331
717.092	0.0159495
717.170	0.0159437
717.248	0.0160545
717.326	0.0160481
717.405	0.0159972
717.483	0.0161420
717.561	0.0161013
717.639	0.0161179
717.717	0.0162315
717.795	0.0161803
717.873	0.0163933
717.951	0.0164832
718.030	0.0163214
718.108	0.0164594
718.186	0.0164951
718.264	0.0163548
718.342	0.0163958
718.420	0.0163670
718.498	0.0164787
718.576	0.0164565
718.655	0.0165072
718.733	0.0164856
718.811	0.0166006
718.889	0.0165709
718.967	0.0165120
719.045	0.0166816
719.123	0.0165352
719.201	0.0166396
719.280	0.0164626
719.358	0.0166655
719.436	0.0166963
719.514	0.0166299
719.592	0.0165669
719.670	0.0165980
719.748	0.0165457
719.826	0.0164548
719.905	0.0164674
719.983	0.0164784
720.061	0.0164900
720.139	0.0163300
720.217	0.0162329
720.295	0.0163860
720.373	0.0163430
720.451	0.0161685
720.530	0.0161466
720.608	0.0161917
720.686	0.0160512
720.764	0.0160483
720.842	0.0160796
720.920	0.0161372
720.998	0.0160489
721.076	0.0160861
721.155	0.0160114
721.233	0.0159339
721.311	0.0160141
721.389	0.0161333
721.467	0.0159772
721.545	0.0160278
721.623	0.0160109
721.701	0.0159932
721.780	0.0160912
721.858	0.0161118
721.936	0.0159773
722.014	0.0159904
722.092	0.0160439
722.170	0.0159808
722.248	0.0160280
722.326	0.0158934
722.405	0.0159309
722.483	0.0160490
722.561	0.0160089
722.639	0.0158340
722.717	0.0158686
722.795	0.0159786
722.873	0.0159825
722.951	0.0159650
723.030	0.0161446
723.108	0.0160789
723.186	0.0160164
723.264	0.0160166
723.342	0.0162851
723.420	0.0160688
723.498	0.0160393
723.576	0.0160397
723.655	0.0160465
723.733	0.0161499
723.811	0.0159656
723.889	0.0159563
723.967	0.0159212
724.045	0.0159263
724.123	0.0159785
724.201	0.0159500
724.280	0.0157793
724.358	0.0159273
724.436	0.0160004
724.514	0.0160625
724.592	0.0161348
724.670	0.0160748
724.748	0.0161190
724.826	0.0161909
724.905	0.0162042
724.983	0.0162466
725.061	0.0162791
725.139	0.0164110
725.217	0.0162831
725.295	0.0162623
725.373	0.0162558
725.451	0.0161816
725.530	0.0162471
725.608	0.0161304
725.686	0.0160025
725.764	0.0160445
725.842	0.0160031
725.920	0.0159850
725.998	0.0160394
726.076	0.0160643
726.155	0.0159969
726.233	0.0159119
726.311	0.0161831
726.389	0.0163294
726.467	0.0162664
726.545	0.0163412
726.623	0.0164465
726.701	0.0164113
726.780	0.0165012
726.858	0.0163887
726.936	0.0165259
727.014	0.0166003
727.092	0.0164122
727.170	0.0165253
727.248	0.0165878
727.326	0.0165989
727.405	0.0166658
727.483	0.0166423
727.561	0.0166738
727.639	0.0164530
727.717	0.0165980
727.795	0.0165494
727.873	0.0164706
727.951	0.0165131
728.030	0.0165800
728.108	0.0164784
728.186	0.0162847
728.264	0.0163474
728.342	0.0163786
728.420	0.0163437
728.498	0.0163251
728.576	0.0163589
728.655	0.0162319
728.733	0.0161259
728.811	0.0162423
728.889	0.0161562
728.967	0.0161752
729.045	0.0161746
729.123	0.0162935
729.201	0.0161508
729.280	0.0160587
729.358	0.0160603
729.436	0.0161282
729.514	0.0162149
729.592	0.0162000
729.670	0.0162292
729.748	0.0162608
729.826	0.0162663
729.905	0.0162235
729.983	0.0162795
730.061	0.0163165
730.139	0.0165076
730.217	0.0165167
730.295	0.0164464
730.373	0.0165461
730.451	0.0164317
730.530	0.0165752
730.608	0.0166614
730.686	0.0168363
730.764	0.0165619
730.842	0.0167306
730.920	0.0166412
730.998	0.0165284
731.076	0.0168156
731.155	0.0167257
731.233	0.0166025
731.311	0.0166206
731.389	0.0166898
731.467	0.0165336
731.545	0.0165617
731.623	0.0163922
731.701	0.0162260
731.780	0.0163744
731.858	0.0163309
731.936	0.0160511
732.014	0.0162385
732.092	0.0160295
732.170	0.0159250
732.248	0.0158891
732.326	0.0158624
732.405	0.0159060
732.483	0.0157360
732.561	0.0158177
732.639	0.0157890
732.717	0.0157245
732.795	0.0157213
732.873	0.0155979
732.951	0.0156027
733.030	0.0156736
733.108	0.0157716
733.186	0.0158464
733.264	0.0158601
733.342	0.0157176
733.420	0.0158790
733.498	0.0159276
733.576	0.0160632
733.655	0.0159711
733.733	0.0160186
733.811	0.0160295
733.889	0.0162222
733.967	0.0161454
734.045	0.0161179
734.123	0.0162131
734.201	0.0162681
734.280	0.0162440
734.358	0.0162859
734.436	0.0162321
734.514	0.0162094
734.592	0.0163448
734.670	0.0164445
734.748	0.0163017
734.826	0.0163412
734.905	0.0163962
734.983	0.0163615
735.061	0.0164240
735.139	0.0164398
735.217	0.0164127
735.295	0.0162774
735.373	0.0163206
735.451	0.0164182
735.530	0.0162697
735.608	0.0163816
735.686	0.0164681
735.764	0.0163560
735.842	0.0163578
735.920	0.0162665
735.998	0.0162592
736.076	0.0163737
736.155	0.0164180
736.233	0.0165198
736.311	0.0163998
736.389	0.0164649
736.467	0.0163509
736.545	0.0161761
736.623	0.0162985
736.701	0.0163956
736.780	0.0163070
736.858	0.0163603
736.936	0.0161752
737.014	0.0162425
737.092	0.0162836
737.170	0.0162778
737.248	0.0162363
737.326	0.0161401
737.405	0.0162332
737.483	0.0163526
737.561	0.0162521
737.639	0.0162099
737.717	0.0164271
737.795	0.0163513
737.873	0.0163281
737.951	0.0163803
738.030	0.0162254
738.108	0.0163022
738.186	0.0163232
738.264	0.0162315
738.342	0.0162395
738.420	0.0162236
738.498	0.0163016
738.576	0.0163062
738.655	0.0161068
738.733	0.0161581
738.811	0.0161112
738.889	0.0159724
738.967	0.0160567
739.045	0.0161265
739.123	0.0160154
739.201	0.0159257
739.280	0.0158637
739.358	0.0158997
739.436	0.0158363
739.514	0.0159466
739.592	0.0160162
739.670	0.0159150
739.748	0.0158918
739.826	0.0158015
739.905	0.0159434
739.983	0.0158015
740.061	0.0159370
740.139	0.0159872
740.217	0.0158669
740.295	0.0158221
740.373	0.0158825
740.451	0.0160023
740.530	0.0159107
740.608	0.0158391
740.686	0.0159857
740.764	0.0158880
740.842	0.0158606
740.920	0.0159846
740.998	0.0159797
741.076	0.0158868
741.155	0.0159469
741.233	0.0159654
741.311	0.0158766
741.389	0.0157858
741.467	0.0158625
741.545	0.0158054
741.623	0.0157130
741.701	0.0157955
741.780	0.0158491
741.858	0.0157841
741.936	0.0160051
742.014	0.0157825
742.092	0.0158456
742.170	0.0158488
742.248	0.0159129
742.326	0.0159409
742.405	0.0159584
742.483	0.0159952
742.561	0.0160500
742.639	0.0159464
742.717	0.0160422
742.795	0.0162323
742.873	0.0162186
742.951	0.0162904
743.030	0.0163011
743.108	0.0163130
743.186	0.0163203
743.264	0.0164473
743.342	0.0163956
743.420	0.0163121
743.498	0.0164375
743.576	0.0164973
743.655	0.0164657
743.733	0.0164036
743.811	0.0164395
743.889	0.0164806
743.967	0.0163430
744.045	0.0162675
744.123	0.0163546
744.201	0.0164336
744.280	0.0163055
744.358	0.0163394
744.436	0.0161911
744.514	0.0164029
744.592	0.0162757
744.670	0.0161384
744.748	0.0161932
744.826	0.0162344
744.905	0.0161374
744.983	0.0163142
745.061	0.0162795
745.139	0.0161374
745.217	0.0161411
745.295	0.0162080
745.373	0.0162662
745.451	0.0162580
745.530	0.0162519
745.608	0.0162334
745.686	0.0162097
745.764	0.0161737
745.842	0.0161790
745.920	0.0162746
745.998	0.0163451
746.076	0.0162981
746.155	0.0162649
746.233	0.0162706
746.311	0.0163424
746.389	0.0162797
746.467	0.0163200
746.545	0.0162167
746.623	0.0163175
746.701	0.0164092
746.780	0.0161990
746.858	0.0162470
746.936	0.0161382
747.014	0.0160943
747.092	0.0161537
747.170	0.0161753
747.248	0.0160013
747.326	0.0159228
747.405	0.0160303
747.483	0.0161237
747.561	0.0159941
747.639	0.0160413
747.717	0.0161499
747.795	0.0160065
747.873	0.0159137
747.951	0.0160838
748.030	0.0161707
748.108	0.0159213
748.186	0.0158643
748.264	0.0159828
748.342	0.0160130
748.420	0.0158530
748.498	0.0159670
748.576	0.0158863
748.655	0.0159010
748.733	0.0159053
748.811	0.0158660
748.889	0.0158806
748.967	0.0158023
749.045	0.0158954
749.123	0.0159130
749.201	0.0159611
749.280	0.0160549
749.358	0.0159584
749.436	0.0160551
749.514	0.0160672
749.592	0.0159751
749.670	0.0160827
749.748	0.0160680
749.826	0.0161391
749.905	0.0160539
749.983	0.0161002
750.061	0.0160873
750.139	0.0161177
750.217	0.0162635
750.295	0.0163457
750.373	0.0160155
750.451	0.0161913
750.530	0.0163361
750.608	0.0161866
750.686	0.0162489
750.764	0.0164022
750.842	0.0163984
750.920	0.0164823
750.998	0.0165959
751.076	0.0165671
751.155	0.0164741
751.233	0.0163919
751.311	0.0166338
751.389	0.0165031
751.467	0.0164053
751.545	0.0164890
751.623	0.0164731
751.701	0.0164026
751.780	0.0163503
751.858	0.0162311
751.936	0.0161485
752.014	0.0160709
752.092	0.0160556
752.170	0.0160802
752.248	0.0159274
752.326	0.0158833
752.405	0.0158361
752.483	0.0160677
752.561	0.0160009
752.639	0.0159293
752.717	0.0158875
752.795	0.0159422
752.873	0.0160265
752.951	0.0159796
753.030	0.0160543
753.108	0.0161022
753.186	0.0161944
753.264	0.0162148
753.342	0.0161402
753.420	0.0161472
753.498	0.0161641
753.576	0.0162366
753.655	0.0162508
753.733	0.0162409
753.811	0.0162113
753.889	0.0161533
753.967	0.0161750
754.045	0.0162899
754.123	0.0161986
754.201	0.0163367
754.280	0.0163058
754.358	0.0161597
754.436	0.0163766
754.514	0.0163805
754.592	0.0163482
754.670	0.0163299
754.748	0.0162096
754.826	0.0165258
754.905	0.0164831
754.983	0.0163545
755.061	0.0164173
755.139	0.0166142
755.217	0.0165751
755.295	0.0165569
755.373	0.0164186
755.451	0.0165266
755.530	0.0165602
755.608	0.0165685
755.686	0.0164518
755.764	0.0164445
755.842	0.0164335
755.920	0.0163625
755.998	0.0164739
756.076	0.0162838
756.155	0.0163492
756.233	0.0162199
756.311	0.0162080
756.389	0.0162196
756.467	0.0162851
756.545	0.0162479
756.623	0.0162455
756.701	0.0161575
756.780	0.0161550
756.858	0.0161281
756.936	0.0163129
757.014	0.0163707
757.092	0.0163949
757.170	0.0163892
757.248	0.0163813
757.326	0.0164153
757.405	0.0163126
757.483	0.0164670
757.561	0.0165234
757.639	0.0164346
757.717	0.0163264
757.795	0.0162672
757.873	0.0163883
757.951	0.0163654
758.030	0.0164013
758.108	0.0164582
758.186	0.0162344
758.264	0.0164301
758.342	0.0164454
758.420	0.0165370
758.498	0.0164645
758.576	0.0163599
758.655	0.0163985
758.733	0.0164843
758.811	0.0165555
758.889	0.0164851
758.967	0.0164517
759.045	0.0165760
759.123	0.0163819
759.201	0.0164842
759.280	0.0164067
759.358	0.0165129
759.436	0.0163588
759.514	0.0162531
759.592	0.0162883
759.670	0.0163617
759.748	0.0162061
759.826	0.0160807
759.905	0.0160645
759.983	0.0161370
760.061	0.0159455
760.139	0.0158787
760.217	0.0157922
760.295	0.0157893
760.373	0.0157560
760.451	0.0158240
760.530	0.0157358
760.608	0.0156744
760.686	0.0156618
760.764	0.0156797
760.842	0.0157431
760.920	0.0158714
760.998	0.0157778
761.076	0.0155968
761.155	0.0157473
761.233	0.0157519
761.311	0.0157957
761.389	0.0158490
761.467	0.0158849
761.545	0.0158905
761.623	0.0157170
761.701	0.0158742
761.780	0.0160358
761.858	0.0157886
761.936	0.0158283
762.014	0.0159962
762.092	0.0158882
762.170	0.0158636
762.248	0.0160159
762.326	0.0159264
762.405	0.0160046
762.483	0.0158866
762.561	0.0157403
762.639	0.0158863
762.717	0.0160396
762.795	0.0159229
762.873	0.0159664
762.951	0.0159212
763.030	0.0161063
763.108	0.0160189
763.186	0.0159484
763.264	0.0162333
763.342	0.0161008
763.420	0.0161108
763.498	0.0162202
763.576	0.0162600
763.655	0.0162878
763.733	0.0162804
763.811	0.0162627
763.889	0.0161571
763.967	0.0160886
764.045	0.0160172
764.123	0.0160505
764.201	0.0160223
764.280	0.0158729
764.358	0.0159264
764.436	0.0161076
764.514	0.0159286
764.592	0.0160709
764.670	0.0161790
764.748	0.0162502
764.826	0.0165747
764.905	0.0164880
764.983	0.0164928
765.061	0.0164044
765.139	0.0164065
765.217	0.0164208
765.295	0.0164646
765.373	0.0163633
765.451	0.0163982
765.530	0.0162852
765.608	0.0161787
765.686	0.0161339
765.764	0.0161031
765.842	0.0158543
765.920	0.0157079
765.998	0.0157850
766.076	0.0158260
766.155	0.0159224
766.233	0.0159496
766.311	0.0159811
766.389	0.0160299
766.467	0.0159966
766.545	0.0160458
766.623	0.0163285
766.701	0.0162037
766.780	0.0162650
766.858	0.0163442
766.936	0.0163818
767.014	0.0163710
767.092	0.0163442
767.170	0.0162541
767.248	0.0164179
767.326	0.0163439
767.405	0.0162692
767.483	0.0162672
767.561	0.0163321
767.639	0.0164056
767.717	0.0163919
767.795	0.0164313
767.873	0.0164592
767.951	0.0163454
768.030	0.0163691
768.108	0.0163907
768.186	0.0163969
768.264	0.0163674
768.342	0.0162030
768.420	0.0161121
768.498	0.0162208
768.576	0.0161575
768.655	0.0160370
768.733	0.0160091
768.811	0.0159956
768.889	0.0159324
768.967	0.0158710
769.045	0.0158170
769.123	0.0156774
769.201	0.0157451
769.280	0.0156525
769.358	0.0158317
769.436	0.0158549
769.514	0.0158314
769.592	0.0158859
769.670	0.0159027
769.748	0.0160108
769.826	0.0163371
769.905	0.0164074
769.983	0.0163942
770.061	0.0164584
770.139	0.0166982
770.217	0.0165891
770.295	0.0165544
770.373	0.0165289
770.451	0.0165063
770.530	0.0163013
770.608	0.0161827
770.686	0.0160369
770.764	0.0158359
770.842	0.0154985
770.920	0.0154875
770.998	0.0152972
771.076	0.0151290
771.155	0.0151811
771.233	0.0150761
771.311	0.0150600
771.389	0.0150131
771.467	0.0151044
771.545	0.0152382
771.623	0.0154932
771.701	0.0154953
771.780	0.0157301
771.858	0.0158796
771.936	0.0161346
772.014	0.0163708
772.092	0.0162911
772.170	0.0164385
772.248	0.0164667
772.326	0.0166631
772.405	0.0165811
772.483	0.0165988
772.561	0.0166257
772.639	0.0164172
772.717	0.0165074
772.795	0.0165379
772.873	0.0163007
772.951	0.0164410
773.030	0.0164069
773.108	0.0163668
773.186	0.0163857
773.264	0.0162744
773.342	0.0164233
773.420	0.0164462
773.498	0.0164014
773.576	0.0163689
773.655	0.0164347
773.733	0.0163757
773.811	0.0164905
773.889	0.0163443
773.967	0.0164581
774.045	0.0164317
774.123	0.0163962
774.201	0.0164979
774.280	0.0164669
774.358	0.0166293
774.436	0.0166550
774.514	0.0166249
774.592	0.0167042
774.670	0.0164510
774.748	0.0165526
774.826	0.0165791
774.905	0.0165991
774.983	0.0167219
775.061	0.0165367
775.139	0.0166568
775.217	0.0165905
775.295	0.0164848
775.373	0.0167616
775.451	0.0165016
775.530	0.0163960
775.608	0.0164068
775.686	0.0165331
775.764	0.0163649
775.842	0.0164775
775.920	0.0166043
775.998	0.0165620
776.076	0.0165047
776.155	0.0164690
776.233	0.0167422
776.311	0.0166133
776.389	0.0165329
776.467	0.0164468
776.545	0.0165524
776.623	0.0163779
776.701	0.0163997
776.780	0.0164872
776.858	0.0164288
776.936	0.0164080
777.014	0.0164744
777.092	0.0165100
777.170	0.0164776
777.248	0.0164231
777.326	0.0164532
777.405	0.0163903
777.483	0.0164675
777.561	0.0163913
777.639	0.0164896
777.717	0.0164246
777.795	0.0164783
777.873	0.0164590
777.951	0.0164783
778.030	0.0163639
778.108	0.0162004
778.186	0.0162923
778.264	0.0163631
778.342	0.0162080
778.420	0.0161511
778.498	0.0161052
778.576	0.0162070
778.655	0.0160291
778.733	0.0160114
778.811	0.0159488
778.889	0.0158906
778.967	0.0159650
779.045	0.0159655
779.123	0.0157799
779.201	0.0157857
779.280	0.0159386
779.358	0.0157426
779.436	0.0157900
779.514	0.0158129
779.592	0.0159341
779.670	0.0160191
779.748	0.0159489
779.826	0.0160368
779.905	0.0158002
779.983	0.0159161
780.061	0.0159222
780.139	0.0159564
780.217	0.0159721
780.295	0.0159121
780.373	0.0159254
780.451	0.0158218
780.530	0.0159074
780.608	0.0160220
780.686	0.0160284
780.764	0.0159613
780.842	0.0158025
780.920	0.0159451
780.998	0.0160240
781.076	0.0161147
781.155	0.0160643
781.233	0.0159836
781.311	0.0158029
781.389	0.0160178
781.467	0.0160767
781.545	0.0160283
781.623	0.0160046
781.701	0.0159837
781.780	0.0159318
781.858	0.0159724
781.936	0.0161034
782.014	0.0161562
782.092	0.0160841
782.170	0.0160894
782.248	0.0161063
782.326	0.0161826
782.405	0.0160105
782.483	0.0161986
782.561	0.0161016
782.639	0.0161206
782.717	0.0160417
782.795	0.0161099
782.873	0.0160912
782.951	0.0160942
783.030	0.0159778
783.108	0.0160656
783.186	0.0161458
783.264	0.0160991
783.342	0.0161297
783.420	0.0159762
783.498	0.0160791
783.576	0.0161133
783.655	0.0161184
783.733	0.0162123
783.811	0.0161039
783.889	0.0161371
783.967	0.0161557
784.045	0.0161304
784.123	0.0161610
784.201	0.0161639
784.280	0.0161604
784.358	0.0161317
784.436	0.0159602
784.514	0.0159720
784.592	0.0160592
784.670	0.0158657
784.748	0.0158556
784.826	0.0161208
784.905	0.0161279
784.983	0.0159265
785.061	0.0161480
785.139	0.0160080
785.217	0.0159701
785.295	0.0161357
785.373	0.0161617
785.451	0.0160972
785.530	0.0160244
785.608	0.0161301
785.686	0.0163685
785.764	0.0161491
785.842	0.0161475
785.920	0.0160629
785.998	0.0160773
786.076	0.0160014
786.155	0.0160796
786.233	0.0159526
786.311	0.0159383
786.389	0.0158371
786.467	0.0158451
786.545	0.0159357
786.623	0.0160343
786.701	0.0158064
786.780	0.0158467
786.858	0.0158681
786.936	0.0160538
787.014	0.0159323
787.092	0.0158452
787.170	0.0159380
787.248	0.0158221
787.326	0.0158405
787.405	0.0159443
787.483	0.0158514
787.561	0.0158738
787.639	0.0159823
787.717	0.0158577
787.795	0.0158263
787.873	0.0158428
787.951	0.0160239
788.030	0.0158503
788.108	0.0160335
788.186	0.0160703
788.264	0.0160335
788.342	0.0161456
788.420	0.0161383
788.498	0.0161841
788.576	0.0161042
788.655	0.0162122
788.733	0.0162617
788.811	0.0162859
788.889	0.0164169
788.967	0.0164650
789.045	0.0164185
789.123	0.0163951
789.201	0.0163976
789.280	0.0163639
789.358	0.0162511
789.436	0.0163477
789.514	0.0163346
789.592	0.0164203
789.670	0.0163643
789.748	0.0164433
789.826	0.0163906
789.905	0.0164285
789.983	0.0164197
790.061	0.0165405
790.139	0.0167633
790.217	0.0167210
790.295	0.0167736
790.373	0.0166959
790.451	0.0168195
790.530	0.0166813
790.608	0.0168058
790.686	0.0167886
790.764	0.0167819
790.842	0.0167601
790.920	0.0166788
790.998	0.0164760
791.076	0.0167117
791.155	0.0163703
791.233	0.0164979
791.311	0.0164410
791.389	0.0163499
791.467	0.0164127
791.545	0.0165213
791.623	0.0163300
791.701	0.0164565
791.780	0.0164317
791.858	0.0164301
791.936	0.0163496
792.014	0.0164928
792.092	0.0163602
792.170	0.0164402
792.248	0.0165645
792.326	0.0164180
792.405	0.0165511
792.483	0.0164268
792.561	0.0163139
792.639	0.0162396
792.717	0.0164023
792.795	0.0162962
792.873	0.0162653
792.951	0.0161859
793.030	0.0161645
793.108	0.0162641
793.186	0.0162210
793.264	0.0160828
793.342	0.0160172
793.420	0.0160121
793.498	0.0159683
793.576	0.0160159
793.655	0.0160104
793.733	0.0159196
793.811	0.0159906
793.889	0.0159408
793.967	0.0159659
794.045	0.0159463
794.123	0.0159966
794.201	0.0157713
794.280	0.0159514
794.358	0.0160593
794.436	0.0158393
794.514	0.0156625
794.592	0.0156377
794.670	0.0157339
794.748	0.0157584
794.826	0.0156385
794.905	0.0155219
794.983	0.0154473
795.061	0.0155286
795.139	0.0155239
795.217	0.0155631
795.295	0.0154662
795.373	0.0155087
795.451	0.0155837
795.530	0.0155161
795.608	0.0155423
795.686	0.0156547
795.764	0.0158319
795.842	0.0156560
795.920	0.0156686
795.998	0.0156861
796.076	0.0158958
796.155	0.0157781
796.233	0.0157870
796.311	0.0158475
796.389	0.0159956
796.467	0.0160300
796.545	0.0159936
796.623	0.0161349
796.701	0.0159759
796.780	0.0160052
796.858	0.0160134
796.936	0.0161620
797.014	0.0162898
797.092	0.0163548
797.170	0.0163512
797.248	0.0164613
797.326	0.0164825
797.405	0.0165134
797.483	0.0167110
797.561	0.0168170
797.639	0.0166773
797.717	0.0167248
797.795	0.0167355
797.873	0.0166589
797.951	0.0169534
798.030	0.0169032
798.108	0.0167923
798.186	0.0168031
798.264	0.0168204
798.342	0.0166232
798.420	0.0167319
798.498	0.0165282
798.576	0.0165629
798.655	0.0164547
798.733	0.0164230
798.811	0.0164571
798.889	0.0165488
798.967	0.0164671
799.045	0.0164822
799.123	0.0166510
799.201	0.0165213
799.280	0.0165247
799.358	0.0165215
799.436	0.0164582
799.514	0.0165502
799.592	0.0165742
799.670	0.0165202
799.748	0.0164973
799.826	0.0163925
799.905	0.0165838
799.983	0.0163606
800.061	0.0164182
800.139	0.0164239
800.217	0.0162844
800.295	0.0163923
800.373	0.0163305
800.451	0.0161388
800.530	0.0162759
800.608	0.0163621
800.686	0.0164089
800.764	0.0162260
800.842	0.0163147
800.920	0.0162666
800.998	0.0163403
801.076	0.0163493
801.155	0.0163731
801.233	0.0162178
801.311	0.0161820
801.389	0.0163272
801.467	0.0163285
801.545	0.0164088
801.623	0.0163631
801.701	0.0163419
801.780	0.0163792
801.858	0.0164256
801.936	0.0163805
802.014	0.0162981
802.092	0.0163069
802.170	0.0163693
802.248	0.0163457
802.326	0.0161298
802.405	0.0162051
802.483	0.0161385
802.561	0.0160580
802.639	0.0159842
802.717	0.0160069
802.795	0.0160406
802.873	0.0160543
802.951	0.0158605
803.030	0.0160921
803.108	0.0160577
803.186	0.0160742
803.264	0.0161343
803.342	0.0161381
803.420	0.0161024
803.498	0.0161342
803.576	0.0162348
803.655	0.0162534
803.733	0.0163295
803.811	0.0161945
803.889	0.0161642
803.967	0.0162971
804.045	0.0163593
804.123	0.0163614
804.201	0.0161279
804.280	0.0163301
804.358	0.0162804
804.436	0.0163131
804.514	0.0162281
804.592	0.0161999
804.670	0.0163570
804.748	0.0163116
804.826	0.0163328
804.905	0.0164412
804.983	0.0163359
805.061	0.0162514
805.139	0.0162233
805.217	0.0161460
805.295	0.0163106
805.373	0.0162886
805.451	0.0162573
805.530	0.0163335
805.608	0.0162898
805.686	0.0161347
805.764	0.0161985
805.842	0.0161569
805.920	0.0160764
805.998	0.0161479
806.076	0.0161873
806.155	0.0159860
806.233	0.0158768
806.311	0.0159331
806.389	0.0158836
806.467	0.0158517
806.545	0.0158617
806.623	0.0158006
806.701	0.0157316
806.780	0.0158945
806.858	0.0158435
806.936	0.0159183
807.014	0.0158606
807.092	0.0158674
807.170	0.0159465
807.248	0.0157578
807.326	0.0158659
807.405	0.0159280
807.483	0.0158283
807.561	0.0160815
807.639	0.0159873
807.717	0.0158414
807.795	0.0159915
807.873	0.0160478
807.951	0.0158973
808.030	0.0162590
808.108	0.0160815
808.186	0.0162817
808.264	0.0161418
808.342	0.0161372
808.420	0.0161064
808.498	0.0160561
808.576	0.0160467
808.655	0.0161070
808.733	0.0159703
808.811	0.0159618
808.889	0.0159386
808.967	0.0159795
809.045	0.0160981
809.123	0.0160859
809.201	0.0157266
809.280	0.0157205
809.358	0.0159022
809.436	0.0160164
809.514	0.0159985
809.592	0.0158425
809.670	0.0157856
809.748	0.0159066
809.826	0.0158676
809.905	0.0159327
809.983	0.0160181
810.061	0.0159305
810.139	0.0158089
810.217	0.0160948
810.295	0.0160925
810.373	0.0161813
810.451	0.0161121
810.530	0.0161115
810.608	0.0162605
810.686	0.0161628
810.764	0.0160017
810.842	0.0162337
810.920	0.0162002
810.998	0.0162380
811.076	0.0161400
811.155	0.0161848
811.233	0.0163473
811.311	0.0162233
811.389	0.0163611
811.467	0.0163236
811.545	0.0163392
811.623	0.0163947
811.701	0.0164924
811.780	0.0165557
811.858	0.0165806
811.936	0.0163809
812.014	0.0164608
812.092	0.0164446
812.170	0.0163140
812.248	0.0165157
812.326	0.0165092
812.405	0.0164236
812.483	0.0164950
812.561	0.0164373
812.639	0.0163630
812.717	0.0163348
812.795	0.0164151
812.873	0.0162705
812.951	0.0164972
813.030	0.0165175
813.108	0.0166167
813.186	0.0164725
813.264	0.0165377
813.342	0.0164104
813.420	0.0164230
813.498	0.0165125
813.576	0.0165845
813.655	0.0166125
813.733	0.0164057
813.811	0.0164859
813.889	0.0164178
813.967	0.0162656
814.045	0.0163628
814.123	0.0163869
814.201	0.0164806
814.280	0.0163259
814.358	0.0161619
814.436	0.0162566
814.514	0.0163667
814.592	0.0162894
814.670	0.0163182
814.748	0.0162416
814.826	0.0161617
814.905	0.0162009
814.983	0.0163564
815.061	0.0163378
815.139	0.0163687
815.217	0.0164247
815.295	0.0163591
815.373	0.0163269
815.451	0.0163817
815.530	0.0164923
815.608	0.0164407
815.686	0.0165269
815.764	0.0163816
815.842	0.0163925
815.920	0.0164886
815.998	0.0165347
816.076	0.0164619
816.155	0.0164290
816.233	0.0165386
816.311	0.0166730
816.389	0.0164709
816.467	0.0163991
816.545	0.0164469
816.623	0.0164862
816.701	0.0165794
816.780	0.0164760
816.858	0.0163663
816.936	0.0163533
817.014	0.0165021
817.092	0.0164499
817.170	0.0163451
817.248	0.0163261
817.326	0.0164379
817.405	0.0162279
817.483	0.0164000
817.561	0.0162657
817.639	0.0163364
817.717	0.0163728
817.795	0.0162772
817.873	0.0160513
817.951	0.0162460
818.030	0.0163128
818.108	0.0163017
818.186	0.0164310
818.264	0.0163627
818.342	0.0163092
818.420	0.0162481
818.498	0.0162682
818.576	0.0162914
818.655	0.0164535
818.733	0.0163634
818.811	0.0161755
818.889	0.0162895
818.967	0.0161359
819.045	0.0161217
819.123	0.0160845
819.201	0.0161164
819.280	0.0160880
819.358	0.0161413
819.436	0.0160319
819.514	0.0160596
819.592	0.0160678
819.670	0.0162331
819.748	0.0160586
819.826	0.0160642
819.905	0.0161802
819.983	0.0162590
820.061	0.0163057
820.139	0.0164190
820.217	0.0162606
820.295	0.0163252
820.373	0.0163023
820.451	0.0163322
820.530	0.0163144
820.608	0.0163642
820.686	0.0162815
820.764	0.0164867
820.842	0.0163985
820.920	0.0162884
820.998	0.0163287
821.076	0.0162954
821.155	0.0162459
821.233	0.0163451
821.311	0.0162698
821.389	0.0163335
821.467	0.0162324
821.545	0.0162676
821.623	0.0162304
821.701	0.0162663
821.780	0.0163474
821.858	0.0163026
821.936	0.0162016
822.014	0.0160957
822.092	0.0162030
822.170	0.0162508
822.248	0.0162327
822.326	0.0162270
822.405	0.0162754
822.483	0.0163097
822.561	0.0161734
822.639	0.0161813
822.717	0.0160913
822.795	0.0162649
822.873	0.0161458
822.951	0.0161681
823.030	0.0161374
823.108	0.0159860
823.186	0.0160490
823.264	0.0159975
823.342	0.0159110
823.420	0.0160072
823.498	0.0160534
823.576	0.0158334
823.655	0.0158816
823.733	0.0158715
823.811	0.0159866
823.889	0.0158636
823.967	0.0157621
824.045	0.0158891
824.123	0.0160208
824.201	0.0159357
824.280	0.0159265
824.358	0.0160081
824.436	0.0160252
824.514	0.0159770
824.592	0.0160217
824.670	0.0160727
824.748	0.0161507
824.826	0.0161319
824.905	0.0160941
824.983	0.0161456
825.061	0.0162041
825.139	0.0163214
825.217	0.0163181
825.295	0.0163297
825.373	0.0161654
825.451	0.0161366
825.530	0.0162583
825.608	0.0162045
825.686	0.0160990
825.764	0.0161004
825.842	0.0161611
825.920	0.0161812
825.998	0.0161282
826.076	0.0161288
826.155	0.0160616
826.233	0.0161327
826.311	0.0162530
826.389	0.0162639
826.467	0.0162949
826.545	0.0162369
826.623	0.0164110
826.701	0.0161884
826.780	0.0163029
826.858	0.0163580
826.936	0.0162632
827.014	0.0162965
827.092	0.0163526
827.170	0.0163161
827.248	0.0163229
827.326	0.0163927
827.405	0.0164011
827.483	0.0161616
827.561	0.0161427
827.639	0.0162756
827.717	0.0161621
827.795	0.0160715
827.873	0.0161008
827.951	0.0160371
828.030	0.0160519
828.108	0.0161234
828.186	0.0160284
828.264	0.0159333
828.342	0.0158130
828.420	0.0157659
828.498	0.0158629
828.576	0.0157301
828.655	0.0157893
828.733	0.0157497
828.811	0.0157000
828.889	0.0156228
828.967	0.0156866
829.045	0.0157561
829.123	0.0156875
829.201	0.0156932
829.280	0.0156921
829.358	0.0156488
829.436	0.0158466
829.514	0.0157961
829.592	0.0158334
829.670	0.0158964
829.748	0.0159834
829.826	0.0158395
829.905	0.0160389
829.983	0.0160828
830.061	0.0159917
830.139	0.0161047
830.217	0.0160257
830.295	0.0161607
830.373	0.0160857
830.451	0.0161123
830.530	0.0162477
830.608	0.0162217
830.686	0.0163025
830.764	0.0162125
830.842	0.0163162
830.920	0.0163988
830.998	0.0164039
831.076	0.0164321
831.155	0.0164631
831.233	0.0165355
831.311	0.0165167
831.389	0.0164600
831.467	0.0165331
831.545	0.0165537
831.623	0.0165370
831.701	0.0165383
831.780	0.0166302
831.858	0.0163984
831.936	0.0163160
832.014	0.0165334
832.092	0.0165387
832.170	0.0165293
832.248	0.0165159
832.326	0.0163994
832.405	0.0165756
832.483	0.0164775
832.561	0.0164285
832.639	0.0164716
832.717	0.0164824
832.795	0.0163884
832.873	0.0164781
832.951	0.0163548
833.030	0.0165432
833.108	0.0165559
833.186	0.0165453
833.264	0.0164438
833.342	0.0165307
833.420	0.0163919
833.498	0.0165031
833.576	0.0165334
833.655	0.0163811
833.733	0.0165971
833.811	0.0163681
833.889	0.0164475
833.967	0.0164807
834.045	0.0161840
834.123	0.0162891
834.201	0.0164633
834.280	0.0162251
834.358	0.0161619
834.436	0.0160995
834.514	0.0160741
834.592	0.0161964
834.670	0.0159232
834.748	0.0159837
834.826	0.0159559
834.905	0.0158353
834.983	0.0158440
835.061	0.0159632
835.139	0.0158221
835.217	0.0158547
835.295	0.0159651
835.373	0.0159145
835.451	0.0157163
835.530	0.0159074
835.608	0.0158156
835.686	0.0158733
835.764	0.0157969
835.842	0.0158707
835.920	0.0159050
835.998	0.0159957
836.076	0.0159380
836.155	0.0158590
836.233	0.0160076
836.311	0.0160744
836.389	0.0160846
836.467	0.0159698
836.545	0.0159978
836.623	0.0161452
836.701	0.0160521
836.780	0.0161899
836.858	0.0160880
836.936	0.0160904
837.014	0.0160271
837.092	0.0160571
837.170	0.0161848
837.248	0.0161057
837.326	0.0161531
837.405	0.0163117
837.483	0.0161802
837.561	0.0161636
837.639	0.0162116
837.717	0.0161960
837.795	0.0162749
837.873	0.0162974
837.951	0.0161755
838.030	0.0163535
838.108	0.0162771
838.186	0.0162140
838.264	0.0162842
838.342	0.0162413
838.420	0.0163480
838.498	0.0162093
838.576	0.0161572
838.655	0.0163058
838.733	0.0161885
838.811	0.0162329
838.889	0.0162108
838.967	0.0163042
839.045	0.0162624
839.123	0.0162637
839.201	0.0163604
839.280	0.0161996
839.358	0.0162521
839.436	0.0162640
839.514	0.0164263
839.592	0.0164593
839.670	0.0163451
839.748	0.0164233
839.826	0.0162383
839.905	0.0163357
839.983	0.0163137
840.061	0.0164845
840.139	0.0163681
840.217	0.0162546
840.295	0.0163354
840.373	0.0163714
840.451	0.0163489
840.530	0.0163849
840.608	0.0164569
840.686	0.0163483
840.764	0.0161785
840.842	0.0163585
840.920	0.0163256
840.998	0.0163445
841.076	0.0162036
841.155	0.0161730
841.233	0.0162152
841.311	0.0163628
841.389	0.0162174
841.467	0.0164430
841.545	0.0163948
841.623	0.0163671
841.701	0.0164768
841.780	0.0163462
841.858	0.0163937
841.936	0.0165800
842.014	0.0164657
842.092	0.0166084
842.170	0.0164777
842.248	0.0165502
842.326	0.0165338
842.405	0.0164725
842.483	0.0164774
842.561	0.0164295
842.639	0.0163943
842.717	0.0165667
842.795	0.0163500
842.873	0.0163223
842.951	0.0164427
843.030	0.0162887
843.108	0.0163683
843.186	0.0163123
843.264	0.0161167
843.342	0.0163068
843.420	0.0163469
843.498	0.0163223
843.576	0.0162978
843.655	0.0164298
843.733	0.0163700
843.811	0.0164539
843.889	0.0162987
843.967	0.0163974
844.045	0.0162758
844.123	0.0162213
844.201	0.0162601
844.280	0.0162568
844.358	0.0162632
844.436	0.0162465
844.514	0.0161108
844.592	0.0160760
844.670	0.0162141
844.748	0.0161678
844.826	0.0161023
844.905	0.0162048
844.983	0.0163023
845.061	0.0161973
845.139	0.0161355
845.217	0.0162206
845.295	0.0160841
845.373	0.0159700
845.451	0.0162391
845.530	0.0163138
845.608	0.0161758
845.686	0.0161700
845.764	0.0162501
845.842	0.0161576
845.920	0.0161631
845.998	0.0162679
846.076	0.0161057
846.155	0.0161410
846.233	0.0162094
846.311	0.0163135
846.389	0.0161464
846.467	0.0162443
846.545	0.0161279
846.623	0.0161552
846.701	0.0160633
846.780	0.0159853
846.858	0.0158985
846.936	0.0159949
847.014	0.0158527
847.092	0.0157081
847.170	0.0158985
847.248	0.0157118
847.326	0.0155937
847.405	0.0156333
847.483	0.0157549
847.561	0.0156147
847.639	0.0155383
847.717	0.0155693
847.795	0.0156940
847.873	0.0158082
847.951	0.0156586
848.030	0.0157516
848.108	0.0157877
848.186	0.0158034
848.264	0.0157529
848.342	0.0156916
848.420	0.0157869
848.498	0.0159620
848.576	0.0158951
848.655	0.0158495
848.733	0.0158105
848.811	0.0159081
848.889	0.0159532
848.967	0.0160328
849.045	0.0158434
849.123	0.0159057
849.201	0.0158008
849.280	0.0160049
849.358	0.0159794
849.436	0.0159046
849.514	0.0160334
849.592	0.0158495
849.670	0.0159081
849.748	0.0158931
849.826	0.0158289
849.905	0.0159506
849.983	0.0156817
850.061	0.0158401
850.139	0.0158414
850.217	0.0158681
850.295	0.0158041
850.373	0.0159425
850.451	0.0158945
850.530	0.0159828
850.608	0.0157991
850.686	0.0159854
850.764	0.0160575
850.842	0.0161044
850.920	0.0160216
850.998	0.0161160
851.076	0.0161571
851.155	0.0161225
851.233	0.0161395
851.311	0.0161053
851.389	0.0161066
851.467	0.0162669
851.545	0.0161530
851.623	0.0162876
851.701	0.0162551
851.780	0.0163875
851.858	0.0162780
851.936	0.0163296
852.014	0.0163921
852.092	0.0163181
852.170	0.0163069
852.248	0.0164133
852.326	0.0163271
852.405	0.0163613
852.483	0.0163354
852.561	0.0164171
852.639	0.0165660
852.717	0.0164356
852.795	0.0163740
852.873	0.0163815
852.951	0.0163892
853.030	0.0163879
853.108	0.0164589
853.186	0.0165343
853.264	0.0165617
853.342	0.0164395
853.420	0.0164565
853.498	0.0165188
853.576	0.0163673
853.655	0.0163396
853.733	0.0163898
853.811	0.0163561
853.889	0.0163442
853.967	0.0162688
854.045	0.0162012
854.123	0.0162868
854.201	0.0162018
854.280	0.0163513
854.358	0.0162904
854.436	0.0162312
854.514	0.0163821
854.592	0.0164005
854.670	0.0162824
854.748	0.0162627
854.826	0.0162963
854.905	0.0164108
854.983	0.0163348
855.061	0.0162574
855.139	0.0163616
855.217	0.0163660
855.295	0.0162960
855.373	0.0163240
855.451	0.0164451
855.530	0.0162382
855.608	0.0162659
855.686	0.0163556
855.764	0.0163698
855.842	0.0165056
855.920	0.0165462
855.998	0.0163696
856.076	0.0163979
856.155	0.0163850
856.233	0.0164379
856.311	0.0163741
856.389	0.0163955
856.467	0.0163376
856.545	0.0162925
856.623	0.0163253
856.701	0.0162492
856.780	0.0163129
856.858	0.0163174
856.936	0.0162652
857.014	0.0160693
857.092	0.0161293
857.170	0.0162622
857.248	0.0159731
857.326	0.0159467
857.405	0.0161712
857.483	0.0160732
857.561	0.0160415
857.639	0.0161102
857.717	0.0160304
857.795	0.0160130
857.873	0.0161470
857.951	0.0159779
858.030	0.0160854
858.108	0.0160252
858.186	0.0159613
858.264	0.0160867
858.342	0.0160293
858.420	0.0158801
858.498	0.0158984
858.576	0.0159606
858.655	0.0159910
858.733	0.0160972
858.811	0.0158773
858.889	0.0160949
858.967	0.0160621
859.045	0.0160469
859.123	0.0159944
859.201	0.0158910
859.280	0.0159219
859.358	0.0158723
859.436	0.0159701
859.514	0.0160367
859.592	0.0158551
859.670	0.0159998
859.748	0.0158378
859.826	0.0158419
859.905	0.0159814
859.983	0.0159129
860.061	0.0161157
860.139	0.0160925
860.217	0.0159560
860.295	0.0160335
860.373	0.0161362
860.451	0.0162437
860.530	0.0161391
860.608	0.0162263
860.686	0.0162103
860.764	0.0161835
860.842	0.0162609
860.920	0.0162585
860.998	0.0163573
861.076	0.0163456
861.155	0.0162922
861.233	0.0162690
861.311	0.0163738
861.389	0.0163685
861.467	0.0163364
861.545	0.0163900
861.623	0.0164020
861.701	0.0164259
861.780	0.0163862
861.858	0.0164010
861.936	0.0164681
862.014	0.0163651
862.092	0.0163901
862.170	0.0164754
862.248	0.0164086
862.326	0.0165477
862.405	0.0163917
862.483	0.0163769
862.561	0.0164178
862.639	0.0163614
862.717	0.0163260
862.795	0.0164134
862.873	0.0163152
862.951	0.0163964
863.030	0.0164087
863.108	0.0163964
863.186	0.0165281
863.264	0.0163947
863.342	0.0164371
863.420	0.0164175
863.498	0.0162834
863.576	0.0164433
863.655	0.0164281
863.733	0.0164838
863.811	0.0164068
863.889	0.0164043
863.967	0.0163438
864.045	0.0163297
864.123	0.0164024
864.201	0.0164076
864.280	0.0162823
864.358	0.0163227
864.436	0.0164342
864.514	0.0163375
864.592	0.0163342
864.670	0.0163470
864.748	0.0164282
864.826	0.0164354
864.905	0.0163856
864.983	0.0163802
865.061	0.0164230
865.139	0.0164176
865.217	0.0163934
865.295	0.0164022
865.373	0.0166208
865.451	0.0165133
865.530	0.0164261
865.608	0.0165834
865.686	0.0165456
865.764	0.0164657
865.842	0.0165376
865.920	0.0165434
865.998	0.0164990
866.076	0.0164671
866.155	0.0164793
866.233	0.0164996
866.311	0.0163684
866.389	0.0163370
866.467	0.0163814
866.545	0.0163409
866.623	0.0162164
866.701	0.0162293
866.780	0.0162440
866.858	0.0161214
866.936	0.0161724
867.014	0.0161031
867.092	0.0160449
867.170	0.0160541
867.248	0.0161552
867.326	0.0159744
867.405	0.0158070
867.483	0.0159860
867.561	0.0160709
867.639	0.0161809
867.717	0.0159583
867.795	0.0158497
867.873	0.0159299
867.951	0.0159538
868.030	0.0158727
868.108	0.0156536
868.186	0.0157971
868.264	0.0159267
868.342	0.0156939
868.420	0.0157626
868.498	0.0156923
868.576	0.0156560
868.655	0.0156963
868.733	0.0155613
868.811	0.0155516
868.889	0.0156944
868.967	0.0157481
869.045	0.0156010
869.123	0.0156872
869.201	0.0156709
869.280	0.0158138
869.358	0.0158434
869.436	0.0157623
869.514	0.0158500
869.592	0.0157793
869.670	0.0158741
869.748	0.0159646
869.826	0.0158845
869.905	0.0158795
869.983	0.0159578
870.061	0.0159497
870.139	0.0160244
870.217	0.0160626
870.295	0.0160615
870.373	0.0159924
870.451	0.0159920
870.530	0.0160184
870.608	0.0160883
870.686	0.0162100
870.764	0.0161301
870.842	0.0160399
870.920	0.0161288
870.998	0.0162156
871.076	0.0162477
871.155	0.0161769
871.233	0.0161443
871.311	0.0163061
871.389	0.0162231
871.467	0.0163242
871.545	0.0162636
871.623	0.0161459
871.701	0.0162418
871.780	0.0163174
871.858	0.0162334
871.936	0.0162041
872.014	0.0162708
872.092	0.0161376
872.170	0.0162556
872.248	0.0161800
872.326	0.0160684
872.405	0.0160995
872.483	0.0161626
872.561	0.0160534
872.639	0.0160648
872.717	0.0161466
872.795	0.0159370
872.873	0.0158472
872.951	0.0159902
873.030	0.0160056
873.108	0.0160784
873.186	0.0160328
873.264	0.0159886
873.342	0.0159927
873.420	0.0159943
873.498	0.0162298
873.576	0.0161387
873.655	0.0162652
873.733	0.0162000
873.811	0.0162967
873.889	0.0162315
873.967	0.0164252
874.045	0.0165218
874.123	0.0163235
874.201	0.0162428
874.280	0.0161932
874.358	0.0162336
874.436	0.0162312
874.514	0.0161944
874.592	0.0162914
874.670	0.0161632
874.748	0.0161388
874.826	0.0160303
874.905	0.0161842
874.983	0.0162076
875.061	0.0161853
875.139	0.0162675
875.217	0.0162570
875.295	0.0162827
875.373	0.0163294
875.451	0.0163084
875.530	0.0164008
875.608	0.0163768
875.686	0.0164279
875.764	0.0162633
875.842	0.0164368
875.920	0.0165070
875.998	0.0164367
876.076	0.0166093
876.155	0.0166422
876.233	0.0165268
876.311	0.0166035
876.389	0.0164231
876.467	0.0165900
876.545	0.0167471
876.623	0.0167271
876.701	0.0167211
876.780	0.0166463
876.858	0.0165298
876.936	0.0167204
877.014	0.0166659
877.092	0.0165438
877.170	0.0165243
877.248	0.0165612
877.326	0.0165192
877.405	0.0164406
877.483	0.0163728
877.561	0.0164787
877.639	0.0162725
877.717	0.0163615
877.795	0.0163350
877.873	0.0161648
877.951	0.0162968
878.030	0.0162711
878.108	0.0163072
878.186	0.0163285
878.264	0.0162847
878.342	0.0163258
878.420	0.0163996
878.498	0.0163908
878.576	0.0164034
878.655	0.0163722
878.733	0.0163605
878.811	0.0162730
878.889	0.0163015
878.967	0.0161698
879.045	0.0162041
879.123	0.0161803
879.201	0.0160617
879.280	0.0161940
879.358	0.0162879
879.436	0.0160677
879.514	0.0161182
879.592	0.0159281
879.670	0.0159827
879.748	0.0159115
879.826	0.0161329
879.905	0.0158842
879.983	0.0159874
880.061	0.0159733
880.139	0.0160374
880.217	0.0158543
880.295	0.0160213
880.373	0.0159853
880.451	0.0159104
880.530	0.0161343
880.608	0.0161871
880.686	0.0159711
880.764	0.0159613
880.842	0.0160878
880.920	0.0160354
880.998	0.0160826
881.076	0.0161714
881.155	0.0160483
881.233	0.0160592
881.311	0.0160936
881.389	0.0160046
881.467	0.0161856
881.545	0.0161918
881.623	0.0160391
881.701	0.0160910
881.780	0.0160006
881.858	0.0159040
881.936	0.0160477
882.014	0.0160216
882.092	0.0157501
882.170	0.0159325
882.248	0.0160847
882.326	0.0158350
882.405	0.0159409
882.483	0.0157982
882.561	0.0157911
882.639	0.0159090
882.717	0.0158801
882.795	0.0158800
882.873	0.0159578
882.951	0.0159413
883.030	0.0160685
883.108	0.0160078
883.186	0.0159489
883.264	0.0159018
883.342	0.0159261
883.420	0.0159512
883.498	0.0160431
883.576	0.0160540
883.655	0.0160186
883.733	0.0160216
883.811	0.0162390
883.889	0.0162717
883.967	0.0159504
884.045	0.0161280
884.123	0.0162047
884.201	0.0161253
884.280	0.0160388
884.358	0.0160332
884.436	0.0161678
884.514	0.0161907
884.592	0.0162548
884.670	0.0160493
884.748	0.0161479
884.826	0.0162317
884.905	0.0161134
884.983	0.0160891
885.061	0.0161153
885.139	0.0159590
885.217	0.0161641
885.295	0.0162764
885.373	0.0162801
885.451	0.0162077
885.530	0.0162193
885.608	0.0163772
885.686	0.0162987
885.764	0.0163294
885.842	0.0163423
885.920	0.0164332
885.998	0.0164633
886.076	0.0164423
886.155	0.0163634
886.233	0.0164014
886.311	0.0163345
886.389	0.0163245
886.467	0.0161282
886.545	0.0162857
886.623	0.0162443
886.701	0.0161661
886.780	0.0162733
886.858	0.0161278
886.936	0.0161970
887.014	0.0162181
887.092	0.0162193
887.170	0.0162392
887.248	0.0162138
887.326	0.0162643
887.405	0.0162976
887.483	0.0162405
887.561	0.0162944
887.639	0.0163103
887.717	0.0164287
887.795	0.0164301
887.873	0.0162584
887.951	0.0161554
888.030	0.0162678
888.108	0.0161934
888.186	0.0161382
888.264	0.0159698
888.342	0.0162482
888.420	0.0162307
888.498	0.0161665
888.576	0.0160446
888.655	0.0161379
888.733	0.0160626
888.811	0.0162241
888.889	0.0161871
888.967	0.0161441
889.045	0.0161098
889.123	0.0161964
889.201	0.0161932
889.280	0.0161591
889.358	0.0161663
889.436	0.0160653
889.514	0.0160268
889.592	0.0160320
889.670	0.0159812
889.748	0.0159877
889.826	0.0159997
889.905	0.0159313
889.983	0.0159276
890.061	0.0159766
890.139	0.0158851
890.217	0.0159845
890.295	0.0158304
890.373	0.0160801
890.451	0.0160007
890.530	0.0160669
890.608	0.0161334
890.686	0.0161850
890.764	0.0163228
890.842	0.0163668
890.920	0.0163403
890.998	0.0164004
891.076	0.0164148
891.155	0.0165530
891.233	0.0165022
891.311	0.0163832
891.389	0.0163728
891.467	0.0164433
891.545	0.0164558
891.623	0.0164272
891.701	0.0163937
891.780	0.0163107
891.858	0.0164260
891.936	0.0163818
892.014	0.0162898
892.092	0.0164586
892.170	0.0163840
892.248	0.0164761
892.326	0.0163412
892.405	0.0163654
892.483	0.0163101
892.561	0.0163255
892.639	0.0162869
892.717	0.0163086
892.795	0.0162103
892.873	0.0162668
892.951	0.0161350
893.030	0.0161612
893.108	0.0161542
893.186	0.0162285
893.264	0.0161230
893.342	0.0160838
893.420	0.0161171
893.498	0.0161235
893.576	0.0161009
893.655	0.0160617
893.733	0.0161765
893.811	0.0162953
893.889	0.0161050
893.967	0.0161679
894.045	0.0161061
894.123	0.0163297
894.201	0.0163137
894.280	0.0163242
894.358	0.0163958
894.436	0.0163528
894.514	0.0163978
894.592	0.0165008
894.670	0.0163416
894.748	0.0164093
894.826	0.0163812
894.905	0.0162087
894.983	0.0163876
895.061	0.0163142
895.139	0.0162968
895.217	0.0163132
895.295	0.0162636
895.373	0.0162876
895.451	0.0163277
895.530	0.0161781
895.608	0.0161785
895.686	0.0159858
895.764	0.0159806
895.842	0.0159821
895.920	0.0158762
895.998	0.0160352
896.076	0.0159367
896.155	0.0159727
896.233	0.0158620
896.311	0.0159706
896.389	0.0160002
896.467	0.0159103
896.545	0.0160462
896.623	0.0160372
896.701	0.0158913
896.780	0.0159801
896.858	0.0158708
896.936	0.0158207
897.014	0.0159190
897.092	0.0158483
897.170	0.0158216
897.248	0.0157880
897.326	0.0157416
897.405	0.0157384
897.483	0.0156708
897.561	0.0156339
897.639	0.0157003
897.717	0.0157133
897.795	0.0157513
897.873	0.0158366
897.951	0.0157317
898.030	0.0157796
898.108	0.0157475
898.186	0.0158810
898.264	0.0158802
898.342	0.0158671
898.420	0.0160007
898.498	0.0156902
898.576	0.0159225
898.655	0.0159304
898.733	0.0159628
898.811	0.0160609
898.889	0.0159766
898.967	0.0160678
899.045	0.0160463
899.123	0.0161395
899.201	0.0160121
899.280	0.0161964
899.358	0.0162370
899.436	0.0161176
899.514	0.0161457
899.592	0.0163110
899.670	0.0164471
899.748	0.0163234
899.826	0.0162919
899.905	0.0163631
899.983	0.0164124
900.061	0.0165182
900.139	0.0164386
900.217	0.0164317
900.295	0.0164909
900.373	0.0165308
900.451	0.0163618
900.530	0.0164093
900.608	0.0163078
900.686	0.0162614
900.764	0.0161947
900.842	0.0162457
900.920	0.0163540
900.998	0.0162078
901.076	0.0162782
901.155	0.0161645
901.233	0.0160893
901.311	0.0161134
901.389	0.0161464
901.467	0.0160554
901.545	0.0161179
901.623	0.0161801
901.701	0.0161836
901.780	0.0162791
901.858	0.0163264
901.936	0.0163165
902.014	0.0163425
902.092	0.0163394
902.170	0.0164059
902.248	0.0164124
902.326	0.0162289
902.405	0.0162782
902.483	0.0162702
902.561	0.0163801
902.639	0.0161374
902.717	0.0161906
902.795	0.0160260
902.873	0.0160035
902.951	0.0159304
903.030	0.0159541
903.108	0.0159629
903.186	0.0159575
903.264	0.0158522
903.342	0.0160141
903.420	0.0160625
903.498	0.0160143
903.576	0.0160216
903.655	0.0161235
903.733	0.0161286
903.811	0.0162268
903.889	0.0161411
903.967	0.0160830
904.045	0.0161775
904.123	0.0162112
904.201	0.0161169
904.280	0.0160190
904.358	0.0160393
904.436	0.0161064
904.514	0.0162869
904.592	0.0161871
904.670	0.0161435
904.748	0.0160835
904.826	0.0162204
904.905	0.0161999
904.983	0.0161024
905.061	0.0161786
905.139	0.0162791
905.217	0.0161491
905.295	0.0163746
905.373	0.0162695
905.451	0.0163287
905.530	0.0162953
905.608	0.0162192
905.686	0.0162380
905.764	0.0162369
905.842	0.0163375
905.920	0.0163728
905.998	0.0162888
906.076	0.0162734
906.155	0.0163543
906.233	0.0163840
906.311	0.0162964
906.389	0.0163776
906.467	0.0164403
906.545	0.0163023
906.623	0.0164167
906.701	0.0164650
906.780	0.0164012
906.858	0.0165149
906.936	0.0165603
907.014	0.0165774
907.092	0.0164059
907.170	0.0164961
907.248	0.0164446
907.326	0.0164909
907.405	0.0163579
907.483	0.0162798
907.561	0.0163066
907.639	0.0162050
907.717	0.0161888
907.795	0.0160969
907.873	0.0160345
907.951	0.0160354
908.030	0.0159961
908.108	0.0159158
908.186	0.0161507
908.264	0.0160633
908.342	0.0159878
908.420	0.0159737
908.498	0.0159480
908.576	0.0160584
908.655	0.0159623
908.733	0.0158794
908.811	0.0159460
908.889	0.0159238
908.967	0.0160548
909.045	0.0160280
909.123	0.0159830
909.201	0.0158766
909.280	0.0159183
909.358	0.0159891
909.436	0.0160164
909.514	0.0158806
909.592	0.0160732
909.670	0.0159618
909.748	0.0157848
909.826	0.0159731
909.905	0.0160508
909.983	0.0159735
910.061	0.0159053
910.139	0.0159811
910.217	0.0159055
910.295	0.0160770
910.373	0.0159332
910.451	0.0158300
910.530	0.0158392
910.608	0.0159390
910.686	0.0158640
910.764	0.0158595
910.842	0.0158573
910.920	0.0159248
910.998	0.0158794
911.076	0.0160012
911.155	0.0160516
911.233	0.0160519
911.311	0.0160629
911.389	0.0161227
911.467	0.0160622
911.545	0.0161620
911.623	0.0160867
911.701	0.0162701
911.780	0.0160482
911.858	0.0161169
911.936	0.0160827
912.014	0.0161639
912.092	0.0161080
912.170	0.0160396
912.248	0.0160899
912.326	0.0160176
912.405	0.0161494
912.483	0.0160046
912.561	0.0161255
912.639	0.0162066
912.717	0.0161198
912.795	0.0162567
912.873	0.0161993
912.951	0.0162502
913.030	0.0162885
913.108	0.0164916
913.186	0.0164976
913.264	0.0163715
913.342	0.0164320
913.420	0.0164693
913.498	0.0164339
913.576	0.0164565
913.655	0.0166833
913.733	0.0165733
913.811	0.0164903
913.889	0.0165302
913.967	0.0165864
914.045	0.0164698
914.123	0.0164211
914.201	0.0164174
914.280	0.0165362
914.358	0.0165148
914.436	0.0165519
914.514	0.0165241
914.592	0.0165199
914.670	0.0165714
914.748	0.0167410
914.826	0.0165178
914.905	0.0164463
914.983	0.0165126
915.061	0.0164371
915.139	0.0165562
915.217	0.0166333
915.295	0.0163868
915.373	0.0165413
915.451	0.0166121
915.530	0.0164839
915.608	0.0165025
915.686	0.0166014
915.764	0.0163270
915.842	0.0165493
915.920	0.0164754
915.998	0.0163287
916.076	0.0164098
916.155	0.0163475
916.233	0.0162167
916.311	0.0163456
916.389	0.0164206
916.467	0.0162475
916.545	0.0162187
916.623	0.0160946
916.701	0.0162093
916.780	0.0162124
916.858	0.0162737
916.936	0.0163263
917.014	0.0160899
917.092	0.0162560
917.170	0.0160412
917.248	0.0161692
917.326	0.0161195
917.405	0.0159881
917.483	0.0160735
917.561	0.0159976
917.639	0.0158895
917.717	0.0159631
917.795	0.0159220
917.873	0.0159116
917.951	0.0157682
918.030	0.0159974
918.108	0.0159299
918.186	0.0159953
918.264	0.0159466
918.342	0.0160880
918.420	0.0161992
918.498	0.0160547
918.576	0.0161675
918.655	0.0162038
918.733	0.0160341
918.811	0.0163073
918.889	0.0162024
918.967	0.0161877
919.045	0.0162830
919.123	0.0163187
919.201	0.0163995
919.280	0.0163124
919.358	0.0163401
919.436	0.0164164
919.514	0.0163583
919.592	0.0164485
919.670	0.0164697
919.748	0.0163309
919.826	0.0164183
919.905	0.0165128
919.983	0.0164532
920.061	0.0164147
920.139	0.0164308
920.217	0.0163844
920.295	0.0163957
920.373	0.0164014
920.451	0.0164693
920.530	0.0164114
920.608	0.0163670
920.686	0.0163169
920.764	0.0163719
920.842	0.0163187
920.920	0.0164445
920.998	0.0163821
921.076	0.0164028
921.155	0.0163682
921.233	0.0164682
921.311	0.0163396
921.389	0.0160055
921.467	0.0162869
921.545	0.0164492
921.623	0.0162103
921.701	0.0163597
921.780	0.0165098
921.858	0.0164649
921.936	0.0164011
922.014	0.0162092
922.092	0.0163023
922.170	0.0163668
922.248	0.0164055
922.326	0.0163261
922.405	0.0163831
922.483	0.0162400
922.561	0.0163002
922.639	0.0164046
922.717	0.0162305
922.795	0.0163210
922.873	0.0162874
922.951	0.0161812
923.030	0.0162557
923.108	0.0161578
923.186	0.0162369
923.264	0.0161652
923.342	0.0161236
923.420	0.0161252
923.498	0.0161880
923.576	0.0161047
923.655	0.0161006
923.733	0.0160645
923.811	0.0161471
923.889	0.0161300
923.967	0.0159629
924.045	0.0159843
924.123	0.0159718
924.201	0.0160966
924.280	0.0158974
924.358	0.0160051
924.436	0.0159968
924.514	0.0159641
924.592	0.0161234
924.670	0.0158588
924.748	0.0158535
924.826	0.0160465
924.905	0.0160387
924.983	0.0159004
925.061	0.0160645
925.139	0.0159474
925.217	0.0158741
925.295	0.0160091
925.373	0.0160780
925.451	0.0160979
925.530	0.0159532
925.608	0.0160567
925.686	0.0160199
925.764	0.0159750
925.842	0.0161237
925.920	0.0160582
925.998	0.0159538
926.076	0.0159958
926.155	0.0159903
926.233	0.0161002
926.311	0.0160317
926.389	0.0160347
926.467	0.0161274
926.545	0.0160860
926.623	0.0161121
926.701	0.0162276
926.780	0.0162651
926.858	0.0160829
926.936	0.0159557
927.014	0.0162853
927.092	0.0162406
927.170	0.0163322
927.248	0.0164628
927.326	0.0162890
927.405	0.0162147
927.483	0.0163534
927.561	0.0162600
927.639	0.0164249
927.717	0.0162663
927.795	0.0162804
927.873	0.0162801
927.951	0.0163162
928.030	0.0162076
928.108	0.0162640
928.186	0.0163619
928.264	0.0163049
928.342	0.0161198
928.420	0.0163272
928.498	0.0163082
928.576	0.0162045
928.655	0.0162357
928.733	0.0163046
928.811	0.0163444
928.889	0.0162860
928.967	0.0162859
929.045	0.0163760
929.123	0.0164180
929.201	0.0163910
929.280	0.0162503
929.358	0.0163602
929.436	0.0163855
929.514	0.0163616
929.592	0.0164001
929.670	0.0164572
929.748	0.0164885
929.826	0.0163531
929.905	0.0161372
929.983	0.0163323
930.061	0.0161655
930.139	0.0162075
930.217	0.0162364
930.295	0.0163584
930.373	0.0161563
930.451	0.0162107
930.530	0.0161153
930.608	0.0158942
930.686	0.0161351
930.764	0.0162084
930.842	0.0162471
930.920	0.0160153
930.998	0.0160739
931.076	0.0161837
931.155	0.0160705
931.233	0.0160383
931.311	0.0160801
931.389	0.0158918
931.467	0.0159768
931.545	0.0160287
931.623	0.0159805
931.701	0.0160336
931.780	0.0160520
931.858	0.0159341
931.936	0.0158838
932.014	0.0159038
932.092	0.0159825
932.170	0.0160590
932.248	0.0159334
932.326	0.0160877
932.405	0.0160666
932.483	0.0160508
932.561	0.0162045
932.639	0.0162868
932.717	0.0162653
932.795	0.0162255
932.873	0.0163420
932.951	0.0163287
933.030	0.0163132
933.108	0.0163064
933.186	0.0161916
933.264	0.0164172
933.342	0.0163550
933.420	0.0162670
933.498	0.0160448
933.576	0.0163039
933.655	0.0161840
933.733	0.0162435
933.811	0.0161631
933.889	0.0161264
933.967	0.0161172
934.045	0.0161275
934.123	0.0160872
934.201	0.0161381
934.280	0.0161519
934.358	0.0162020
934.436	0.0163107
934.514	0.0162597
934.592	0.0162941
934.670	0.0161958
934.748	0.0162745
934.826	0.0163349
934.905	0.0163138
934.983	0.0162960
935.061	0.0163258
935.139	0.0164119
935.217	0.0163316
935.295	0.0162815
935.373	0.0163358
935.451	0.0162652
935.530	0.0162177
935.608	0.0163671
935.686	0.0163585
935.764	0.0162582
935.842	0.0162238
935.920	0.0161899
935.998	0.0161224
936.076	0.0162693
936.155	0.0162655
936.233	0.0162286
936.311	0.0162310
936.389	0.0162620
936.467	0.0162579
936.545	0.0162809
936.623	0.0162314
936.701	0.0162563
936.780	0.0161435
936.858	0.0162647
936.936	0.0162311
937.014	0.0161202
937.092	0.0160351
937.170	0.0161744
937.248	0.0160462
937.326	0.0161057
937.405	0.0161498
937.483	0.0161331
937.561	0.0159740
937.639	0.0162107
937.717	0.0161255
937.795	0.0162617
937.873	0.0162183
937.951	0.0162045
938.030	0.0163297
938.108	0.0163427
938.186	0.0163152
938.264	0.0162856
938.342	0.0161905
938.420	0.0160460
938.498	0.0163130
938.576	0.0162394
938.655	0.0163425
938.733	0.0161784
938.811	0.0162347
938.889	0.0161525
938.967	0.0160781
939.045	0.0163607
939.123	0.0162818
939.201	0.0162763
939.280	0.0163345
939.358	0.0162972
939.436	0.0161293
939.514	0.0161089
939.592	0.0162832
939.670	0.0163364
939.748	0.0161518
939.826	0.0161806
939.905	0.0162675
939.983	0.0162342
940.061	0.0162344
940.139	0.0162762
940.217	0.0162460
940.295	0.0164058
940.373	0.0162163
940.451	0.0162359
940.530	0.0162263
940.608	0.0163722
940.686	0.0163089
940.764	0.0163506
940.842	0.0163171
940.920	0.0163198
940.998	0.0163808
941.076	0.0164373
941.155	0.0162423
941.233	0.0163318
941.311	0.0163884
941.389	0.0165496
941.467	0.0164338
941.545	0.0163068
941.623	0.0163035
941.701	0.0163612
941.780	0.0164645
941.858	0.0164886
941.936	0.0166001
942.014	0.0163189
942.092	0.0164246
942.170	0.0165189
942.248	0.0164025
942.326	0.0164921
942.405	0.0165316
942.483	0.0164936
942.561	0.0165498
942.639	0.0165549
942.717	0.0164482
942.795	0.0164682
942.873	0.0164609
942.951	0.0165010
943.030	0.0164036
943.108	0.0163947
943.186	0.0163536
943.264	0.0162262
943.342	0.0164892
943.420	0.0163772
943.498	0.0162997
943.576	0.0162329
943.655	0.0164236
943.733	0.0163209
943.811	0.0162025
943.889	0.0163153
943.967	0.0162339
944.045	0.0162611
944.123	0.0161808
944.201	0.0162353
944.280	0.0163359
944.358	0.0160948
944.436	0.0160205
944.514	0.0161765
944.592	0.0161970
944.670	0.0160683
944.748	0.0162469
944.826	0.0161248
944.905	0.0161021
944.983	0.0161339
945.061	0.0162251
945.139	0.0161912
945.217	0.0162779
945.295	0.0162024
945.373	0.0161710
945.451	0.0163036
945.530	0.0162421
945.608	0.0162750
945.686	0.0161201
945.764	0.0162094
945.842	0.0162976
945.920	0.0162665
945.998	0.0161764
946.076	0.0162685
946.155	0.0162706
946.233	0.0161552
946.311	0.0162319
946.389	0.0162777
946.467	0.0161939
946.545	0.0162888
946.623	0.0162423
946.701	0.0162527
946.780	0.0163180
946.858	0.0161623
946.936	0.0162679
947.014	0.0162579
947.092	0.0163055
947.170	0.0162672
947.248	0.0163892
947.326	0.0163525
947.405	0.0161593
947.483	0.0162554
947.561	0.0162983
947.639	0.0162788
947.717	0.0162567
947.795	0.0162947
947.873	0.0162733
947.951	0.0162455
948.030	0.0163715
948.108	0.0162873
948.186	0.0163927
948.264	0.0162791
948.342	0.0162091
948.420	0.0162402
948.498	0.0162651
948.576	0.0162443
948.655	0.0162228
948.733	0.0161658
948.811	0.0162000
948.889	0.0162073
948.967	0.0162326
949.045	0.0161982
949.123	0.0161687
949.201	0.0161958
949.280	0.0161315
949.358	0.0162019
949.436	0.0162682
949.514	0.0162824
949.592	0.0163422
949.670	0.0162727
949.748	0.0161343
949.826	0.0162907
949.905	0.0163931
949.983	0.0163068
950.061	0.0162640
950.139	0.0162925
950.217	0.0162038
950.295	0.0164053
950.373	0.0161534
950.451	0.0161687
950.530	0.0161353
950.608	0.0163959
950.686	0.0162836
950.764	0.0163007
950.842	0.0162036
950.920	0.0161919
950.998	0.0163522
951.076	0.0163499
951.155	0.0164035
951.233	0.0164300
951.311	0.0164365
951.389	0.0163235
951.467	0.0163314
951.545	0.0162946
951.623	0.0163053
951.701	0.0163338
951.780	0.0163661
951.858	0.0164112
951.936	0.0161745
952.014	0.0162053
952.092	0.0164548
952.170	0.0163799
952.248	0.0162853
952.326	0.0163478
952.405	0.0164567
952.483	0.0164268
952.561	0.0163581
952.639	0.0164910
952.717	0.0165295
952.795	0.0165125
952.873	0.0165533
952.951	0.0165802
953.030	0.0167860
953.108	0.0166417
953.186	0.0166261
953.264	0.0166818
953.342	0.0167426
953.420	0.0167190
953.498	0.0167066
953.576	0.0167433
953.655	0.0166629
953.733	0.0166769
953.811	0.0166824
953.889	0.0166341
953.967	0.0165999
954.045	0.0165585
954.123	0.0165533
954.201	0.0164730
954.280	0.0164201
954.358	0.0164196
954.436	0.0164293
954.514	0.0164484
954.592	0.0164368
954.670	0.0164227
954.748	0.0164119
954.826	0.0164239
954.905	0.0163428
954.983	0.0164645
955.061	0.0165028
955.139	0.0162821
955.217	0.0162865
955.295	0.0163144
955.373	0.0163386
955.451	0.0164632
955.530	0.0161934
955.608	0.0163731
955.686	0.0164188
955.764	0.0161999
955.842	0.0161885
955.920	0.0162786
955.998	0.0163322
956.076	0.0161876
956.155	0.0162952
956.233	0.0160905
956.311	0.0161745
956.389	0.0161765
956.467	0.0160941
956.545	0.0161335
956.623	0.0161292
956.701	0.0160841
956.780	0.0160580
956.858	0.0159338
956.936	0.0161553
957.014	0.0159515
957.092	0.0159716
957.170	0.0160387
957.248	0.0160129
957.326	0.0159637
957.405	0.0159660
957.483	0.0162556
957.561	0.0162441
957.639	0.0160284
957.717	0.0162411
957.795	0.0161540
957.873	0.0163084
957.951	0.0163866
958.030	0.0164120
958.108	0.0162994
958.186	0.0163053
958.264	0.0163733
958.342	0.0165311
958.420	0.0164442
958.498	0.0164075
958.576	0.0165187
958.655	0.0162983
958.733	0.0163975
958.811	0.0164822
958.889	0.0162518
958.967	0.0162902
959.045	0.0163048
959.123	0.0162712
959.201	0.0163303
959.280	0.0163451
959.358	0.0162830
959.436	0.0161699
959.514	0.0163663
959.592	0.0161508
959.670	0.0162829
959.748	0.0161141
959.826	0.0161534
959.905	0.0162723
