05/17/2022	16:35:13	Ver.	4.1	UNKNOWN
Optical Delay	639.989416	Delta X		0.078125	Sweeps	1	Scan Rate	0/0
Coordinates	Axis 1	NaN	Axis 2	NaN	Axis 3	NaN	Axis 4	NaN	Axis 5	NaN	Axis 6	0.000000
TX Power	0.000000	RX Power	0.000000

639.989	0.0155111
640.068	0.0155215
640.146	0.0154813
640.224	0.0155235
640.302	0.0154239
640.380	0.0153578
640.458	0.0155129
640.536	0.0154913
640.614	0.0154857
640.693	0.0155258
640.771	0.0155090
640.849	0.0155232
640.927	0.0155255
641.005	0.0154494
641.083	0.0154935
641.161	0.0154299
641.239	0.0154118
641.318	0.0154288
641.396	0.0155695
641.474	0.0154303
641.552	0.0155690
641.630	0.0156531
641.708	0.0155598
641.786	0.0156353
641.864	0.0155184
641.943	0.0155868
642.021	0.0156168
642.099	0.0154556
642.177	0.0156055
642.255	0.0154839
642.333	0.0155177
642.411	0.0154771
642.489	0.0155288
642.568	0.0156790
642.646	0.0155484
642.724	0.0155647
642.802	0.0155496
642.880	0.0154342
642.958	0.0153983
643.036	0.0153482
643.114	0.0154430
643.193	0.0155108
643.271	0.0156090
643.349	0.0155010
643.427	0.0154666
643.505	0.0154753
643.583	0.0154539
643.661	0.0155418
643.739	0.0155165
643.818	0.0154635
643.896	0.0154443
643.974	0.0153890
644.052	0.0155264
644.130	0.0156563
644.208	0.0155576
644.286	0.0154978
644.364	0.0155953
644.443	0.0154833
644.521	0.0154800
644.599	0.0154758
644.677	0.0154242
644.755	0.0155853
644.833	0.0155770
644.911	0.0154786
644.989	0.0154939
645.068	0.0154061
645.146	0.0155346
645.224	0.0155306
645.302	0.0154657
645.380	0.0155271
645.458	0.0155474
645.536	0.0153497
645.614	0.0154468
645.693	0.0154897
645.771	0.0154692
645.849	0.0155103
645.927	0.0154780
646.005	0.0156171
646.083	0.0155553
646.161	0.0155424
646.239	0.0154846
646.318	0.0155176
646.396	0.0155471
646.474	0.0155344
646.552	0.0155515
646.630	0.0156705
646.708	0.0154224
646.786	0.0154568
646.864	0.0155417
646.943	0.0154570
647.021	0.0155340
647.099	0.0153915
647.177	0.0155060
647.255	0.0155337
647.333	0.0153730
647.411	0.0155125
647.489	0.0154823
647.568	0.0154552
647.646	0.0154939
647.724	0.0155443
647.802	0.0155121
647.880	0.0155834
647.958	0.0155504
648.036	0.0155844
648.114	0.0153715
648.193	0.0155521
648.271	0.0155396
648.349	0.0154947
648.427	0.0155200
648.505	0.0155827
648.583	0.0154971
648.661	0.0155386
648.739	0.0155083
648.818	0.0154687
648.896	0.0154898
648.974	0.0154895
649.052	0.0154711
649.130	0.0155785
649.208	0.0155562
649.286	0.0155024
649.364	0.0156068
649.443	0.0155288
649.521	0.0156904
649.599	0.0155962
649.677	0.0154851
649.755	0.0155284
649.833	0.0155611
649.911	0.0153384
649.989	0.0154485
650.068	0.0154963
650.146	0.0155237
650.224	0.0154475
650.302	0.0155108
650.380	0.0156445
650.458	0.0154426
650.536	0.0154099
650.614	0.0154867
650.693	0.0155102
650.771	0.0155108
650.849	0.0153937
650.927	0.0155449
651.005	0.0155112
651.083	0.0155228
651.161	0.0154932
651.239	0.0155061
651.318	0.0154849
651.396	0.0153851
651.474	0.0154786
651.552	0.0155954
651.630	0.0155349
651.708	0.0155219
651.786	0.0154044
651.864	0.0156189
651.943	0.0155512
652.021	0.0153656
652.099	0.0154682
652.177	0.0154379
652.255	0.0154655
652.333	0.0155145
652.411	0.0154533
652.489	0.0156227
652.568	0.0155283
652.646	0.0153722
652.724	0.0154572
652.802	0.0155265
652.880	0.0154630
652.958	0.0155175
653.036	0.0155725
653.114	0.0153655
653.193	0.0155472
653.271	0.0155839
653.349	0.0154108
653.427	0.0155538
653.505	0.0155631
653.583	0.0155022
653.661	0.0154726
653.739	0.0155507
653.818	0.0155727
653.896	0.0155792
653.974	0.0154848
654.052	0.0155039
654.130	0.0154578
654.208	0.0155159
654.286	0.0155381
654.364	0.0156355
654.443	0.0155463
654.521	0.0154636
654.599	0.0154517
654.677	0.0155177
654.755	0.0155556
654.833	0.0154704
654.911	0.0155268
654.989	0.0155766
655.068	0.0153954
655.146	0.0155260
655.224	0.0155463
655.302	0.0155938
655.380	0.0155840
655.458	0.0155741
655.536	0.0155498
655.614	0.0155905
655.693	0.0153893
655.771	0.0154644
655.849	0.0154464
655.927	0.0156608
656.005	0.0156057
656.083	0.0153491
656.161	0.0155118
656.239	0.0156425
656.318	0.0154791
656.396	0.0154851
656.474	0.0155007
656.552	0.0154253
656.630	0.0154842
656.708	0.0155670
656.786	0.0155316
656.864	0.0154796
656.943	0.0154716
657.021	0.0155133
657.099	0.0153835
657.177	0.0156807
657.255	0.0156429
657.333	0.0155011
657.411	0.0155151
657.489	0.0155004
657.568	0.0155245
657.646	0.0155146
657.724	0.0156182
657.802	0.0154748
657.880	0.0154299
657.958	0.0154327
658.036	0.0156411
658.114	0.0155058
658.193	0.0155675
658.271	0.0154764
658.349	0.0154617
658.427	0.0154645
658.505	0.0153704
658.583	0.0154562
658.661	0.0155463
658.739	0.0155464
658.818	0.0154469
658.896	0.0156025
658.974	0.0155885
659.052	0.0154900
659.130	0.0154273
659.208	0.0155096
659.286	0.0154646
659.364	0.0154125
659.443	0.0154518
659.521	0.0156014
659.599	0.0156042
659.677	0.0155343
659.755	0.0154147
659.833	0.0155396
659.911	0.0155985
659.989	0.0154270
660.068	0.0153992
660.146	0.0154125
660.224	0.0154514
660.302	0.0156502
660.380	0.0154688
660.458	0.0154901
660.536	0.0156193
660.614	0.0155859
660.693	0.0154959
660.771	0.0154845
660.849	0.0154947
660.927	0.0154887
661.005	0.0154435
661.083	0.0154811
661.161	0.0155589
661.239	0.0157070
661.318	0.0155724
661.396	0.0155981
661.474	0.0154629
661.552	0.0154529
661.630	0.0155391
661.708	0.0155270
661.786	0.0154402
661.864	0.0155792
661.943	0.0156321
662.021	0.0155857
662.099	0.0154348
662.177	0.0156596
662.255	0.0154897
662.333	0.0153961
662.411	0.0154812
662.489	0.0153868
662.568	0.0155094
662.646	0.0154808
662.724	0.0153795
662.802	0.0154980
662.880	0.0157104
662.958	0.0156109
663.036	0.0154620
663.114	0.0155704
663.193	0.0155328
663.271	0.0156548
663.349	0.0154536
663.427	0.0154269
663.505	0.0154591
663.583	0.0156297
663.661	0.0155169
663.739	0.0154388
663.818	0.0155095
663.896	0.0155823
663.974	0.0155057
664.052	0.0154514
664.130	0.0155079
664.208	0.0154874
664.286	0.0154575
664.364	0.0155247
664.443	0.0155841
664.521	0.0155383
664.599	0.0155773
664.677	0.0155067
664.755	0.0155162
664.833	0.0153829
664.911	0.0154755
664.989	0.0155969
665.068	0.0156226
665.146	0.0155470
665.224	0.0154098
665.302	0.0155043
665.380	0.0154684
665.458	0.0154913
665.536	0.0153626
665.614	0.0154044
665.693	0.0154783
665.771	0.0155798
665.849	0.0155788
665.927	0.0153322
666.005	0.0155149
666.083	0.0154405
666.161	0.0154377
666.239	0.0154980
666.318	0.0152703
666.396	0.0154164
666.474	0.0155343
666.552	0.0155576
666.630	0.0153327
666.708	0.0153809
666.786	0.0155492
666.864	0.0155189
666.943	0.0153304
667.021	0.0153568
667.099	0.0153869
667.177	0.0155273
667.255	0.0153820
667.333	0.0154964
667.411	0.0154816
667.489	0.0153954
667.568	0.0154146
667.646	0.0155521
667.724	0.0154879
667.802	0.0154082
667.880	0.0154330
667.958	0.0153505
668.036	0.0155202
668.114	0.0155055
668.193	0.0155032
668.271	0.0152722
668.349	0.0154749
668.427	0.0155150
668.505	0.0154820
668.583	0.0155592
668.661	0.0153969
668.739	0.0154162
668.818	0.0155280
668.896	0.0154047
668.974	0.0153506
669.052	0.0155209
669.130	0.0153078
669.208	0.0153399
669.286	0.0156010
669.364	0.0155515
669.443	0.0153819
669.521	0.0154681
669.599	0.0154132
669.677	0.0155599
669.755	0.0154694
669.833	0.0155216
669.911	0.0154697
669.989	0.0153880
670.068	0.0154388
670.146	0.0155515
670.224	0.0153818
670.302	0.0154659
670.380	0.0154839
670.458	0.0154043
670.536	0.0155560
670.614	0.0155013
670.693	0.0154078
670.771	0.0153874
670.849	0.0155119
670.927	0.0153660
671.005	0.0154984
671.083	0.0155254
671.161	0.0155636
671.239	0.0154691
671.318	0.0156275
671.396	0.0157373
671.474	0.0155144
671.552	0.0155243
671.630	0.0154623
671.708	0.0156664
671.786	0.0156451
671.864	0.0156051
671.943	0.0154369
672.021	0.0156248
672.099	0.0155795
672.177	0.0154716
672.255	0.0154977
672.333	0.0156870
672.411	0.0155830
672.489	0.0155823
672.568	0.0156562
672.646	0.0155988
672.724	0.0155444
672.802	0.0155185
672.880	0.0156079
672.958	0.0156617
673.036	0.0155067
673.114	0.0155521
673.193	0.0156190
673.271	0.0156481
673.349	0.0156487
673.427	0.0155873
673.505	0.0156200
673.583	0.0157133
673.661	0.0156792
673.739	0.0156259
673.818	0.0158181
673.896	0.0156527
673.974	0.0155055
674.052	0.0156422
674.130	0.0156657
674.208	0.0155257
674.286	0.0155386
674.364	0.0156166
674.443	0.0157162
674.521	0.0156300
674.599	0.0155366
674.677	0.0156046
674.755	0.0157235
674.833	0.0155825
674.911	0.0156467
674.989	0.0155105
675.068	0.0155493
675.146	0.0156001
675.224	0.0155541
675.302	0.0156329
675.380	0.0155904
675.458	0.0157132
675.536	0.0154747
675.614	0.0156277
675.693	0.0156573
675.771	0.0155740
675.849	0.0155834
675.927	0.0155455
676.005	0.0155343
676.083	0.0156033
676.161	0.0153667
676.239	0.0156338
676.318	0.0155510
676.396	0.0154371
676.474	0.0156323
676.552	0.0155231
676.630	0.0155223
676.708	0.0154894
676.786	0.0153902
676.864	0.0155757
676.943	0.0154791
677.021	0.0155102
677.099	0.0154611
677.177	0.0153741
677.255	0.0154008
677.333	0.0153884
677.411	0.0153522
677.489	0.0154334
677.568	0.0153908
677.646	0.0153493
677.724	0.0154337
677.802	0.0153906
677.880	0.0154557
677.958	0.0154250
678.036	0.0154418
678.114	0.0155257
678.193	0.0153191
678.271	0.0154850
678.349	0.0154892
678.427	0.0153056
678.505	0.0153864
678.583	0.0156454
678.661	0.0155380
678.739	0.0155641
678.818	0.0154527
678.896	0.0152625
678.974	0.0152607
679.052	0.0154205
679.130	0.0153588
679.208	0.0153477
679.286	0.0154811
679.364	0.0153596
679.443	0.0153274
679.521	0.0153423
679.599	0.0155199
679.677	0.0153946
679.755	0.0155267
679.833	0.0154821
679.911	0.0153787
679.989	0.0154141
680.068	0.0153889
680.146	0.0153934
680.224	0.0154284
680.302	0.0154880
680.380	0.0153026
680.458	0.0152828
680.536	0.0154578
680.614	0.0154320
680.693	0.0153658
680.771	0.0154494
680.849	0.0153094
680.927	0.0154417
681.005	0.0154872
681.083	0.0154161
681.161	0.0152760
681.239	0.0154036
681.318	0.0154176
681.396	0.0154177
681.474	0.0153804
681.552	0.0153018
681.630	0.0152758
681.708	0.0154810
681.786	0.0154237
681.864	0.0153559
681.943	0.0153528
682.021	0.0154475
682.099	0.0153312
682.177	0.0152792
682.255	0.0154613
682.333	0.0154627
682.411	0.0154359
682.489	0.0153624
682.568	0.0153716
682.646	0.0154391
682.724	0.0155054
682.802	0.0154318
682.880	0.0154484
682.958	0.0155412
683.036	0.0153602
683.114	0.0152279
683.193	0.0155847
683.271	0.0154329
683.349	0.0153738
683.427	0.0154484
683.505	0.0153948
683.583	0.0154488
683.661	0.0154903
683.739	0.0154122
683.818	0.0154356
683.896	0.0155231
683.974	0.0154775
684.052	0.0155287
684.130	0.0155766
684.208	0.0152872
684.286	0.0154959
684.364	0.0154636
684.443	0.0155641
684.521	0.0153301
684.599	0.0154250
684.677	0.0154768
684.755	0.0155209
684.833	0.0155214
684.911	0.0154321
684.989	0.0154156
685.068	0.0155389
685.146	0.0156536
685.224	0.0155330
685.302	0.0154066
685.380	0.0153490
685.458	0.0154855
685.536	0.0154611
685.614	0.0154430
685.693	0.0154736
685.771	0.0154944
685.849	0.0154949
685.927	0.0154004
686.005	0.0153160
686.083	0.0154901
686.161	0.0154510
686.239	0.0154836
686.318	0.0155704
686.396	0.0153977
686.474	0.0151131
686.552	0.0153828
686.630	0.0154857
686.708	0.0153490
686.786	0.0153520
686.864	0.0155274
686.943	0.0155924
687.021	0.0155447
687.099	0.0155219
687.177	0.0156736
687.255	0.0155618
687.333	0.0155560
687.411	0.0157599
687.489	0.0154977
687.568	0.0155859
687.646	0.0155491
687.724	0.0154457
687.802	0.0154461
687.880	0.0154296
687.958	0.0151308
688.036	0.0151246
688.114	0.0150800
688.193	0.0150444
688.271	0.0151926
688.349	0.0149847
688.427	0.0148962
688.505	0.0150932
688.583	0.0152322
688.661	0.0153445
688.739	0.0154481
688.818	0.0156561
688.896	0.0157967
688.974	0.0161586
689.052	0.0163557
689.130	0.0164569
689.208	0.0166011
689.286	0.0166884
689.364	0.0166497
689.443	0.0166353
689.521	0.0166170
689.599	0.0164603
689.677	0.0162264
689.755	0.0157790
689.833	0.0156333
689.911	0.0153474
689.989	0.0150732
690.068	0.0147861
690.146	0.0144502
690.224	0.0141768
690.302	0.0140160
690.380	0.0137623
690.458	0.0136761
690.536	0.0136423
690.614	0.0135000
690.693	0.0137415
690.771	0.0138152
690.849	0.0140514
690.927	0.0143117
691.005	0.0145877
691.083	0.0148134
691.161	0.0152795
691.239	0.0157645
691.318	0.0162032
691.396	0.0166384
691.474	0.0170583
691.552	0.0175373
691.630	0.0178425
691.708	0.0181509
691.786	0.0181587
691.864	0.0182175
691.943	0.0184029
692.021	0.0181177
692.099	0.0179016
692.177	0.0174802
692.255	0.0169536
692.333	0.0164910
692.411	0.0158839
692.489	0.0153086
692.568	0.0146798
692.646	0.0141122
692.724	0.0134477
692.802	0.0130077
692.880	0.0125755
692.958	0.0122190
693.036	0.0121065
693.114	0.0119772
693.193	0.0120315
693.271	0.0123290
693.349	0.0126364
693.427	0.0128888
693.505	0.0135189
693.583	0.0142104
693.661	0.0146527
693.739	0.0153908
693.818	0.0159827
693.896	0.0167930
693.974	0.0171415
694.052	0.0176158
694.130	0.0180078
694.208	0.0183041
694.286	0.0184682
694.364	0.0183802
694.443	0.0181230
694.521	0.0181448
694.599	0.0179369
694.677	0.0175496
694.755	0.0171415
694.833	0.0167499
694.911	0.0164089
694.989	0.0159146
695.068	0.0153408
695.146	0.0151107
695.224	0.0147501
695.302	0.0143918
695.380	0.0141810
695.458	0.0139423
695.536	0.0139462
695.614	0.0138555
695.693	0.0139784
695.771	0.0139754
695.849	0.0141412
695.927	0.0144696
696.005	0.0146414
696.083	0.0147375
696.161	0.0151088
696.239	0.0152103
696.318	0.0153674
696.396	0.0157807
696.474	0.0157157
696.552	0.0159774
696.630	0.0158975
696.708	0.0157629
696.786	0.0157898
696.864	0.0157302
696.943	0.0156236
697.021	0.0155326
697.099	0.0154623
697.177	0.0152462
697.255	0.0152112
697.333	0.0152862
697.411	0.0150398
697.489	0.0150285
697.568	0.0151010
697.646	0.0151190
697.724	0.0151961
697.802	0.0152811
697.880	0.0153558
697.958	0.0155267
698.036	0.0157989
698.114	0.0157741
698.193	0.0159554
698.271	0.0161135
698.349	0.0162551
698.427	0.0163102
698.505	0.0164405
698.583	0.0164546
698.661	0.0164681
698.739	0.0164738
698.818	0.0164651
698.896	0.0163621
698.974	0.0161671
699.052	0.0161490
699.130	0.0160385
699.208	0.0157835
699.286	0.0157021
699.364	0.0155442
699.443	0.0154053
699.521	0.0152480
699.599	0.0150103
699.677	0.0150087
699.755	0.0148754
699.833	0.0148392
699.911	0.0148735
699.989	0.0148581
700.068	0.0148564
700.146	0.0151122
700.224	0.0150401
700.302	0.0151913
700.380	0.0153768
700.458	0.0154387
700.536	0.0157136
700.614	0.0156740
700.693	0.0157490
700.771	0.0158070
700.849	0.0157355
700.927	0.0156089
701.005	0.0155729
701.083	0.0155037
701.161	0.0153307
701.239	0.0152536
701.318	0.0151274
701.396	0.0150185
701.474	0.0148666
701.552	0.0147359
701.630	0.0147007
701.708	0.0147306
701.786	0.0146447
701.864	0.0145812
701.943	0.0147189
702.021	0.0147233
702.099	0.0147366
702.177	0.0148642
702.255	0.0149029
702.333	0.0152016
702.411	0.0156369
702.489	0.0156482
702.568	0.0158147
702.646	0.0160879
702.724	0.0163599
702.802	0.0165022
702.880	0.0167076
702.958	0.0168153
703.036	0.0168722
703.114	0.0168906
703.193	0.0168570
703.271	0.0168333
703.349	0.0165837
703.427	0.0163063
703.505	0.0160543
703.583	0.0158043
703.661	0.0155474
703.739	0.0152654
703.818	0.0149259
703.896	0.0150562
703.974	0.0148544
704.052	0.0148252
704.130	0.0149077
704.208	0.0147579
704.286	0.0149039
704.364	0.0148092
704.443	0.0150375
704.521	0.0151244
704.599	0.0155049
704.677	0.0155458
704.755	0.0156725
704.833	0.0158134
704.911	0.0160238
704.989	0.0161617
705.068	0.0162675
705.146	0.0162253
705.224	0.0163468
705.302	0.0163953
705.380	0.0162482
705.458	0.0160568
705.536	0.0159168
705.614	0.0157866
705.693	0.0156293
705.771	0.0152895
705.849	0.0150802
705.927	0.0148320
706.005	0.0145341
706.083	0.0144643
706.161	0.0144465
706.239	0.0142558
706.318	0.0143621
706.396	0.0144112
706.474	0.0146481
706.552	0.0148386
706.630	0.0149826
706.708	0.0151972
706.786	0.0155229
706.864	0.0155771
706.943	0.0156763
707.021	0.0158250
707.099	0.0160638
707.177	0.0159549
707.255	0.0161583
707.333	0.0163798
707.411	0.0161137
707.489	0.0161899
707.568	0.0161201
707.646	0.0158590
707.724	0.0155909
707.802	0.0155108
707.880	0.0153507
707.958	0.0150023
708.036	0.0148607
708.114	0.0150021
708.193	0.0147203
708.271	0.0149224
708.349	0.0148537
708.427	0.0148470
708.505	0.0148672
708.583	0.0150127
708.661	0.0150241
708.739	0.0151959
708.818	0.0150571
708.896	0.0150615
708.974	0.0151205
709.052	0.0150835
709.130	0.0151035
709.208	0.0153278
709.286	0.0154680
709.364	0.0155584
709.443	0.0156713
709.521	0.0160442
709.599	0.0160172
709.677	0.0162064
709.755	0.0162608
709.833	0.0163982
709.911	0.0164086
709.989	0.0163532
710.068	0.0163139
710.146	0.0163905
710.224	0.0163499
710.302	0.0161835
710.380	0.0162373
710.458	0.0160029
710.536	0.0158806
710.614	0.0158950
710.693	0.0157062
710.771	0.0155459
710.849	0.0157271
710.927	0.0156692
711.005	0.0153820
711.083	0.0153245
711.161	0.0152785
711.239	0.0151636
711.318	0.0152206
711.396	0.0150877
711.474	0.0153062
711.552	0.0153108
711.630	0.0153317
711.708	0.0153440
711.786	0.0152485
711.864	0.0154849
711.943	0.0158334
712.021	0.0157368
712.099	0.0159251
712.177	0.0158824
712.255	0.0158698
712.333	0.0159442
712.411	0.0159618
712.489	0.0158434
712.568	0.0157445
712.646	0.0159451
712.724	0.0158100
712.802	0.0158617
712.880	0.0157278
712.958	0.0156134
713.036	0.0153402
713.114	0.0152849
713.193	0.0151017
713.271	0.0150990
713.349	0.0150620
713.427	0.0149849
713.505	0.0145210
713.583	0.0146268
713.661	0.0145680
713.739	0.0146101
713.818	0.0147279
713.896	0.0148660
713.974	0.0150732
714.052	0.0153474
714.130	0.0155313
714.208	0.0158971
714.286	0.0161612
714.364	0.0162057
714.443	0.0164222
714.521	0.0164780
714.599	0.0165256
714.677	0.0166029
714.755	0.0165696
714.833	0.0162394
714.911	0.0161349
714.989	0.0157429
715.068	0.0154691
715.146	0.0152988
715.224	0.0151946
715.302	0.0148051
715.380	0.0146674
715.458	0.0148363
715.536	0.0146946
715.614	0.0145426
715.693	0.0147085
715.771	0.0147572
715.849	0.0147260
715.927	0.0147905
716.005	0.0147683
716.083	0.0149361
716.161	0.0149845
716.239	0.0148974
716.318	0.0149387
716.396	0.0148138
716.474	0.0150379
716.552	0.0151542
716.630	0.0151241
716.708	0.0152158
716.786	0.0152966
716.864	0.0154155
716.943	0.0154005
717.021	0.0154731
717.099	0.0155625
717.177	0.0156251
717.255	0.0158392
717.333	0.0158508
717.411	0.0156730
717.489	0.0158307
717.568	0.0158355
717.646	0.0158654
717.724	0.0158739
717.802	0.0156647
717.880	0.0156713
717.958	0.0155484
718.036	0.0155012
718.114	0.0153845
718.193	0.0153094
718.271	0.0150304
718.349	0.0150455
718.427	0.0148377
718.505	0.0147687
718.583	0.0147027
718.661	0.0147207
718.739	0.0149226
718.818	0.0150927
718.896	0.0151817
718.974	0.0153487
719.052	0.0157339
719.130	0.0160083
719.208	0.0162293
719.286	0.0163229
719.364	0.0166514
719.443	0.0167432
719.521	0.0168390
719.599	0.0169057
719.677	0.0169611
719.755	0.0168051
719.833	0.0166327
719.911	0.0165904
719.989	0.0163438
720.068	0.0160581
720.146	0.0157874
720.224	0.0155527
720.302	0.0153258
720.380	0.0150945
720.458	0.0148992
720.536	0.0148276
720.614	0.0149108
720.693	0.0147589
720.771	0.0148096
720.849	0.0150297
720.927	0.0149187
721.005	0.0150447
721.083	0.0150712
721.161	0.0151705
721.239	0.0151762
721.318	0.0152843
721.396	0.0153255
721.474	0.0152467
721.552	0.0154879
721.630	0.0155679
721.708	0.0157320
721.786	0.0157835
721.864	0.0157086
721.943	0.0158512
722.021	0.0159518
722.099	0.0159047
722.177	0.0159190
722.255	0.0158876
722.333	0.0157549
722.411	0.0157495
722.489	0.0153835
722.568	0.0151269
722.646	0.0151251
722.724	0.0150478
722.802	0.0148516
722.880	0.0147162
722.958	0.0147569
723.036	0.0146714
723.114	0.0145043
723.193	0.0145420
723.271	0.0145177
723.349	0.0146645
723.427	0.0149705
723.505	0.0151312
723.583	0.0150717
723.661	0.0153228
723.739	0.0154255
723.818	0.0154458
723.896	0.0157535
723.974	0.0158292
724.052	0.0159262
724.130	0.0162071
724.208	0.0161575
724.286	0.0160246
724.364	0.0162019
724.443	0.0160625
724.521	0.0161340
724.599	0.0158916
724.677	0.0159891
724.755	0.0158121
724.833	0.0156245
724.911	0.0156374
724.989	0.0155670
725.068	0.0154941
725.146	0.0154308
725.224	0.0155556
725.302	0.0153905
725.380	0.0152766
725.458	0.0154266
725.536	0.0153921
725.614	0.0153967
725.693	0.0154714
725.771	0.0154982
725.849	0.0154232
725.927	0.0153767
726.005	0.0152055
726.083	0.0152706
726.161	0.0150816
726.239	0.0152942
726.318	0.0152672
726.396	0.0150639
726.474	0.0150734
726.552	0.0151177
726.630	0.0150957
726.708	0.0151769
726.786	0.0152280
726.864	0.0152464
726.943	0.0152393
727.021	0.0153384
727.099	0.0154402
727.177	0.0155556
727.255	0.0155241
727.333	0.0155009
727.411	0.0156363
727.489	0.0155271
727.568	0.0154520
727.646	0.0154941
727.724	0.0155328
727.802	0.0154634
727.880	0.0154498
727.958	0.0152190
728.036	0.0153491
728.114	0.0154170
728.193	0.0152702
728.271	0.0151654
728.349	0.0153895
728.427	0.0153252
728.505	0.0152160
728.583	0.0152431
728.661	0.0152242
728.739	0.0152785
728.818	0.0153568
728.896	0.0153421
728.974	0.0155270
729.052	0.0156709
729.130	0.0156614
729.208	0.0157151
729.286	0.0159155
729.364	0.0159310
729.443	0.0161060
729.521	0.0160905
729.599	0.0162295
729.677	0.0163767
729.755	0.0162780
729.833	0.0161526
729.911	0.0163441
729.989	0.0163354
730.068	0.0160811
730.146	0.0158483
730.224	0.0156519
730.302	0.0156679
730.380	0.0154581
730.458	0.0153152
730.536	0.0151794
730.614	0.0151673
730.693	0.0150826
730.771	0.0151849
730.849	0.0152074
730.927	0.0153510
731.005	0.0154430
731.083	0.0154898
731.161	0.0155427
731.239	0.0156033
731.318	0.0156622
731.396	0.0157610
731.474	0.0156390
731.552	0.0155783
731.630	0.0155132
731.708	0.0154014
731.786	0.0153323
731.864	0.0151952
731.943	0.0152049
732.021	0.0151434
732.099	0.0150410
732.177	0.0149847
732.255	0.0149500
732.333	0.0150210
732.411	0.0150710
732.489	0.0151357
732.568	0.0153647
732.646	0.0153969
732.724	0.0154817
732.802	0.0155340
732.880	0.0156632
732.958	0.0156462
733.036	0.0155662
733.114	0.0156677
733.193	0.0157649
733.271	0.0156965
733.349	0.0155730
733.427	0.0156020
733.505	0.0155376
733.583	0.0154472
733.661	0.0152692
733.739	0.0152785
733.818	0.0150016
733.896	0.0149586
733.974	0.0150468
734.052	0.0151264
734.130	0.0150343
734.208	0.0151022
734.286	0.0151623
734.364	0.0152604
734.443	0.0153439
734.521	0.0154298
734.599	0.0156492
734.677	0.0158524
734.755	0.0159006
734.833	0.0159689
734.911	0.0160887
734.989	0.0161387
735.068	0.0161750
735.146	0.0161006
735.224	0.0159215
735.302	0.0160506
735.380	0.0159543
735.458	0.0157826
735.536	0.0158086
735.614	0.0156898
735.693	0.0154251
735.771	0.0153584
735.849	0.0153385
735.927	0.0153497
736.005	0.0153741
736.083	0.0153612
736.161	0.0154118
736.239	0.0154182
736.318	0.0154019
736.396	0.0154919
736.474	0.0155025
736.552	0.0154962
736.630	0.0156646
736.708	0.0157018
736.786	0.0156783
736.864	0.0156181
736.943	0.0157915
737.021	0.0158382
737.099	0.0157007
737.177	0.0156832
737.255	0.0155688
737.333	0.0155697
737.411	0.0154201
737.489	0.0153674
737.568	0.0155044
737.646	0.0152405
737.724	0.0152921
737.802	0.0154860
737.880	0.0153362
737.958	0.0153474
738.036	0.0153335
738.114	0.0155011
738.193	0.0154310
738.271	0.0154790
738.349	0.0154122
738.427	0.0153577
738.505	0.0154825
738.583	0.0153815
738.661	0.0154377
738.739	0.0153572
738.818	0.0154094
738.896	0.0153590
738.974	0.0153400
739.052	0.0151343
739.130	0.0152676
739.208	0.0150599
739.286	0.0151521
739.364	0.0150643
739.443	0.0150625
739.521	0.0152866
739.599	0.0150350
739.677	0.0150188
739.755	0.0152222
739.833	0.0153805
739.911	0.0154962
739.989	0.0155468
740.068	0.0156864
740.146	0.0155310
740.224	0.0156626
740.302	0.0156247
740.380	0.0157277
740.458	0.0156847
740.536	0.0156363
740.614	0.0157030
740.693	0.0156340
740.771	0.0156675
740.849	0.0156367
740.927	0.0155744
741.005	0.0156891
741.083	0.0155388
741.161	0.0156010
741.239	0.0156775
741.318	0.0154892
741.396	0.0155878
741.474	0.0154264
741.552	0.0154607
741.630	0.0154280
741.708	0.0153054
741.786	0.0153101
741.864	0.0154034
741.943	0.0153299
742.021	0.0153936
742.099	0.0153212
742.177	0.0153607
742.255	0.0155398
742.333	0.0155192
742.411	0.0156991
742.489	0.0155178
742.568	0.0155768
742.646	0.0156994
742.724	0.0156071
742.802	0.0156954
742.880	0.0157618
742.958	0.0156711
743.036	0.0155897
743.114	0.0155595
743.193	0.0155098
743.271	0.0156043
743.349	0.0155672
743.427	0.0154778
743.505	0.0155291
743.583	0.0155082
743.661	0.0155298
743.739	0.0155919
743.818	0.0157349
743.896	0.0155708
743.974	0.0155402
744.052	0.0156112
744.130	0.0156854
744.208	0.0156544
744.286	0.0157288
744.364	0.0156315
744.443	0.0155961
744.521	0.0155399
744.599	0.0154005
744.677	0.0154360
744.755	0.0153917
744.833	0.0151311
744.911	0.0151286
744.989	0.0152368
745.068	0.0151908
745.146	0.0151203
745.224	0.0150645
745.302	0.0150590
745.380	0.0149330
745.458	0.0150411
745.536	0.0150029
745.614	0.0150378
745.693	0.0152776
745.771	0.0153571
745.849	0.0152380
745.927	0.0153394
746.005	0.0156625
746.083	0.0156028
746.161	0.0155577
746.239	0.0156384
746.318	0.0156261
746.396	0.0156613
746.474	0.0157061
746.552	0.0156072
746.630	0.0155466
746.708	0.0155483
746.786	0.0154504
746.864	0.0154840
746.943	0.0153432
747.021	0.0155094
747.099	0.0153297
747.177	0.0153921
747.255	0.0153728
747.333	0.0152660
747.411	0.0153867
747.489	0.0152287
747.568	0.0154356
747.646	0.0155154
747.724	0.0154996
747.802	0.0154684
747.880	0.0155275
747.958	0.0155529
748.036	0.0155197
748.114	0.0155548
748.193	0.0155647
748.271	0.0155042
748.349	0.0155035
748.427	0.0154605
748.505	0.0156177
748.583	0.0155192
748.661	0.0154467
748.739	0.0155227
748.818	0.0156559
748.896	0.0155441
748.974	0.0156087
749.052	0.0154477
749.130	0.0155951
749.208	0.0156304
749.286	0.0156833
749.364	0.0156361
749.443	0.0156269
749.521	0.0157604
749.599	0.0158073
749.677	0.0156056
749.755	0.0155167
749.833	0.0156825
749.911	0.0156166
749.989	0.0156012
750.068	0.0157022
750.146	0.0155267
750.224	0.0157507
750.302	0.0156300
750.380	0.0157817
750.458	0.0155592
750.536	0.0155489
750.614	0.0156004
750.693	0.0157116
750.771	0.0156825
750.849	0.0157251
750.927	0.0156673
751.005	0.0155991
751.083	0.0156144
751.161	0.0156065
751.239	0.0156569
751.318	0.0154179
751.396	0.0154637
751.474	0.0154482
751.552	0.0154478
751.630	0.0153938
751.708	0.0153862
751.786	0.0152382
751.864	0.0154728
751.943	0.0152689
752.021	0.0153400
752.099	0.0154077
752.177	0.0154428
752.255	0.0154861
752.333	0.0154868
752.411	0.0154728
752.489	0.0154595
752.568	0.0154779
752.646	0.0155074
752.724	0.0154565
752.802	0.0155898
752.880	0.0154498
752.958	0.0153373
753.036	0.0154895
753.114	0.0153977
753.193	0.0153067
753.271	0.0152495
753.349	0.0153141
753.427	0.0154472
753.505	0.0153949
753.583	0.0154021
753.661	0.0153620
753.739	0.0154272
753.818	0.0155685
753.896	0.0154401
753.974	0.0155869
754.052	0.0156165
754.130	0.0156271
754.208	0.0156537
754.286	0.0156453
754.364	0.0156079
754.443	0.0156628
754.521	0.0157549
754.599	0.0156125
754.677	0.0155765
754.755	0.0153970
754.833	0.0155276
754.911	0.0156657
754.989	0.0154628
755.068	0.0154176
755.146	0.0154919
755.224	0.0154332
755.302	0.0153846
755.380	0.0154762
755.458	0.0155731
755.536	0.0155423
755.614	0.0155337
755.693	0.0156401
755.771	0.0156592
755.849	0.0156493
755.927	0.0155708
756.005	0.0156019
756.083	0.0156699
756.161	0.0155908
756.239	0.0155466
756.318	0.0155952
756.396	0.0154269
756.474	0.0153799
756.552	0.0154076
756.630	0.0153928
756.708	0.0153934
756.786	0.0151223
756.864	0.0152193
756.943	0.0152022
757.021	0.0152678
757.099	0.0152705
757.177	0.0152538
757.255	0.0153657
757.333	0.0154752
757.411	0.0153371
757.489	0.0153983
757.568	0.0154839
757.646	0.0155537
757.724	0.0154718
757.802	0.0154883
757.880	0.0156425
757.958	0.0156244
758.036	0.0155871
758.114	0.0155894
758.193	0.0155062
758.271	0.0155698
758.349	0.0155885
758.427	0.0155044
758.505	0.0156109
758.583	0.0155854
758.661	0.0156474
758.739	0.0154504
758.818	0.0154131
758.896	0.0155583
758.974	0.0154813
759.052	0.0155408
759.130	0.0156880
759.208	0.0156091
759.286	0.0156107
759.364	0.0156092
759.443	0.0156738
759.521	0.0157361
759.599	0.0157277
759.677	0.0157897
759.755	0.0156305
759.833	0.0157528
759.911	0.0157003
759.989	0.0157209
760.068	0.0158567
760.146	0.0157607
760.224	0.0157639
760.302	0.0158745
760.380	0.0158460
760.458	0.0156734
760.536	0.0157497
760.614	0.0157285
760.693	0.0157432
760.771	0.0157366
760.849	0.0155208
760.927	0.0155536
761.005	0.0155878
761.083	0.0155523
761.161	0.0155212
761.239	0.0155241
761.318	0.0154925
761.396	0.0156072
761.474	0.0154384
761.552	0.0153181
761.630	0.0153988
761.708	0.0154620
761.786	0.0153413
761.864	0.0154026
761.943	0.0153625
762.021	0.0152903
762.099	0.0153124
762.177	0.0152792
762.255	0.0152866
762.333	0.0152610
762.411	0.0152884
762.489	0.0152058
762.568	0.0154177
762.646	0.0152647
762.724	0.0152522
762.802	0.0154543
762.880	0.0154649
762.958	0.0154935
763.036	0.0153246
763.114	0.0156031
763.193	0.0154959
763.271	0.0155805
763.349	0.0155390
763.427	0.0154990
763.505	0.0154739
763.583	0.0155857
763.661	0.0154324
763.739	0.0155165
763.818	0.0156197
763.896	0.0154623
763.974	0.0154232
764.052	0.0155499
764.130	0.0154934
764.208	0.0154768
764.286	0.0155141
764.364	0.0154247
764.443	0.0154752
764.521	0.0156250
764.599	0.0156832
764.677	0.0156721
764.755	0.0156723
764.833	0.0157244
764.911	0.0156565
764.989	0.0157777
765.068	0.0156915
765.146	0.0157512
765.224	0.0156105
765.302	0.0157182
765.380	0.0156544
765.458	0.0156419
765.536	0.0156693
765.614	0.0155977
765.693	0.0155199
765.771	0.0155827
765.849	0.0155836
765.927	0.0155044
766.005	0.0154963
766.083	0.0154761
766.161	0.0153996
766.239	0.0154697
766.318	0.0153634
766.396	0.0154262
766.474	0.0153564
766.552	0.0152753
766.630	0.0152348
766.708	0.0154093
766.786	0.0153533
766.864	0.0152696
766.943	0.0150997
767.021	0.0151157
767.099	0.0152837
767.177	0.0151601
767.255	0.0150449
767.333	0.0151859
767.411	0.0152145
767.489	0.0151775
767.568	0.0151588
767.646	0.0152782
767.724	0.0153018
767.802	0.0151939
767.880	0.0153411
767.958	0.0154779
768.036	0.0154807
768.114	0.0154963
768.193	0.0153355
768.271	0.0154239
768.349	0.0154947
768.427	0.0156012
768.505	0.0156273
768.583	0.0155616
768.661	0.0155441
768.739	0.0156618
768.818	0.0157613
768.896	0.0156285
768.974	0.0154646
769.052	0.0157329
769.130	0.0155811
769.208	0.0155191
769.286	0.0156817
769.364	0.0155814
769.443	0.0155761
769.521	0.0156117
769.599	0.0155466
769.677	0.0155265
769.755	0.0156284
769.833	0.0157775
769.911	0.0156873
769.989	0.0156310
770.068	0.0156047
770.146	0.0155771
770.224	0.0158467
770.302	0.0157682
770.380	0.0156999
770.458	0.0156501
770.536	0.0158966
770.614	0.0158558
770.693	0.0158229
770.771	0.0157673
770.849	0.0157819
770.927	0.0155692
771.005	0.0157130
771.083	0.0156451
771.161	0.0155596
771.239	0.0155579
771.318	0.0155392
771.396	0.0155298
771.474	0.0155025
771.552	0.0155336
771.630	0.0153637
771.708	0.0154484
771.786	0.0153659
771.864	0.0154324
771.943	0.0155144
772.021	0.0154765
772.099	0.0154092
772.177	0.0154829
772.255	0.0156120
772.333	0.0154272
772.411	0.0154479
772.489	0.0155355
772.568	0.0155843
772.646	0.0155222
772.724	0.0153954
772.802	0.0155235
772.880	0.0155589
772.958	0.0155524
773.036	0.0154980
773.114	0.0156217
773.193	0.0155656
773.271	0.0156261
773.349	0.0156207
773.427	0.0155917
773.505	0.0157133
773.583	0.0156435
773.661	0.0156885
773.739	0.0156882
773.818	0.0156770
773.896	0.0156189
773.974	0.0154154
774.052	0.0153868
774.130	0.0153967
774.208	0.0152609
774.286	0.0152190
774.364	0.0153697
774.443	0.0151952
774.521	0.0151868
774.599	0.0151347
774.677	0.0151131
774.755	0.0150583
774.833	0.0150677
774.911	0.0149426
774.989	0.0150666
775.068	0.0152464
775.146	0.0152303
775.224	0.0153484
775.302	0.0154224
775.380	0.0154544
775.458	0.0156012
775.536	0.0156216
775.614	0.0154666
775.693	0.0154765
775.771	0.0157030
775.849	0.0158294
775.927	0.0157418
776.005	0.0156384
776.083	0.0157317
776.161	0.0157626
776.239	0.0156469
776.318	0.0155679
776.396	0.0156210
776.474	0.0156864
776.552	0.0154720
776.630	0.0153849
776.708	0.0154403
776.786	0.0153981
776.864	0.0155354
776.943	0.0153894
777.021	0.0154745
777.099	0.0153912
777.177	0.0155471
777.255	0.0154585
777.333	0.0154784
777.411	0.0154787
777.489	0.0154204
777.568	0.0155071
777.646	0.0155025
777.724	0.0156520
777.802	0.0155769
777.880	0.0156001
777.958	0.0155159
778.036	0.0156241
778.114	0.0156734
778.193	0.0155505
778.271	0.0154103
778.349	0.0155457
778.427	0.0155127
778.505	0.0155621
778.583	0.0154574
778.661	0.0155207
778.739	0.0153304
778.818	0.0154584
778.896	0.0156131
778.974	0.0154883
779.052	0.0154328
779.130	0.0155117
779.208	0.0155044
779.286	0.0153554
779.364	0.0152641
779.443	0.0153630
779.521	0.0153533
779.599	0.0155315
779.677	0.0153802
779.755	0.0153911
779.833	0.0153259
779.911	0.0152150
779.989	0.0153590
780.068	0.0154252
780.146	0.0153214
780.224	0.0152029
780.302	0.0153078
780.380	0.0153475
780.458	0.0153585
780.536	0.0153748
780.614	0.0153709
780.693	0.0154939
780.771	0.0153993
780.849	0.0155344
780.927	0.0154642
781.005	0.0154662
781.083	0.0154530
781.161	0.0155567
781.239	0.0153736
781.318	0.0155147
781.396	0.0155962
781.474	0.0155517
781.552	0.0156578
781.630	0.0153682
781.708	0.0155492
781.786	0.0154939
781.864	0.0154352
781.943	0.0155166
782.021	0.0154363
782.099	0.0153836
782.177	0.0153902
782.255	0.0152863
782.333	0.0152859
782.411	0.0155421
782.489	0.0152992
782.568	0.0153970
782.646	0.0154436
782.724	0.0155634
782.802	0.0155099
782.880	0.0154916
782.958	0.0154894
783.036	0.0156276
783.114	0.0157590
783.193	0.0154986
783.271	0.0156393
783.349	0.0155863
783.427	0.0157034
783.505	0.0156152
783.583	0.0156339
783.661	0.0155800
783.739	0.0155407
783.818	0.0155618
783.896	0.0155177
783.974	0.0154618
784.052	0.0155971
784.130	0.0156059
784.208	0.0154945
784.286	0.0153812
784.364	0.0155209
784.443	0.0154620
784.521	0.0154681
784.599	0.0154656
784.677	0.0152779
784.755	0.0154538
784.833	0.0153937
784.911	0.0153568
784.989	0.0154863
785.068	0.0153798
785.146	0.0154151
785.224	0.0156624
785.302	0.0157091
785.380	0.0156734
785.458	0.0156435
785.536	0.0156409
785.614	0.0157185
785.693	0.0156480
785.771	0.0157849
785.849	0.0157094
785.927	0.0156549
786.005	0.0156808
786.083	0.0156313
786.161	0.0155048
786.239	0.0157466
786.318	0.0155405
786.396	0.0154397
786.474	0.0154206
786.552	0.0154188
786.630	0.0153391
786.708	0.0152081
786.786	0.0153960
786.864	0.0153136
786.943	0.0151676
787.021	0.0152354
787.099	0.0151450
787.177	0.0151190
787.255	0.0151350
787.333	0.0149772
787.411	0.0149458
787.489	0.0150814
787.568	0.0150929
787.646	0.0151176
787.724	0.0150990
787.802	0.0151919
787.880	0.0154349
787.958	0.0154249
788.036	0.0154793
788.114	0.0156875
788.193	0.0154684
788.271	0.0157282
788.349	0.0156944
788.427	0.0158431
788.505	0.0158396
788.583	0.0158719
788.661	0.0158302
788.739	0.0159260
788.818	0.0157304
788.896	0.0157160
788.974	0.0155775
789.052	0.0156387
789.130	0.0156419
789.208	0.0155331
789.286	0.0155092
789.364	0.0153432
789.443	0.0153032
789.521	0.0152342
789.599	0.0151350
789.677	0.0153170
789.755	0.0150956
789.833	0.0149450
789.911	0.0151192
789.989	0.0151819
790.068	0.0149847
790.146	0.0152106
790.224	0.0151086
790.302	0.0152091
790.380	0.0152865
790.458	0.0153108
790.536	0.0155348
790.614	0.0155631
790.693	0.0155865
790.771	0.0156421
790.849	0.0156274
790.927	0.0158559
791.005	0.0158704
791.083	0.0158586
791.161	0.0160042
791.239	0.0159402
791.318	0.0160252
791.396	0.0160752
791.474	0.0157568
791.552	0.0159197
791.630	0.0158653
791.708	0.0159061
791.786	0.0156779
791.864	0.0157150
791.943	0.0157973
792.021	0.0155569
792.099	0.0154744
792.177	0.0153730
792.255	0.0153541
792.333	0.0154446
792.411	0.0153574
792.489	0.0154156
792.568	0.0151108
792.646	0.0151508
792.724	0.0151702
792.802	0.0152579
792.880	0.0150867
792.958	0.0152110
793.036	0.0151621
793.114	0.0150868
793.193	0.0153124
793.271	0.0153127
793.349	0.0152682
793.427	0.0153812
793.505	0.0153803
793.583	0.0154185
793.661	0.0155329
793.739	0.0155164
793.818	0.0155152
793.896	0.0155478
793.974	0.0155721
794.052	0.0155888
794.130	0.0155698
794.208	0.0155706
794.286	0.0156324
794.364	0.0155464
794.443	0.0156849
794.521	0.0156174
794.599	0.0156183
794.677	0.0155589
794.755	0.0156818
794.833	0.0155905
794.911	0.0154659
794.989	0.0156139
795.068	0.0156188
795.146	0.0155211
795.224	0.0155011
795.302	0.0155001
795.380	0.0154342
795.458	0.0153875
795.536	0.0155116
795.614	0.0154193
795.693	0.0153679
795.771	0.0152370
795.849	0.0154831
795.927	0.0155285
796.005	0.0153412
796.083	0.0153927
796.161	0.0154404
796.239	0.0154858
796.318	0.0155523
796.396	0.0156188
796.474	0.0155676
796.552	0.0154996
796.630	0.0155651
796.708	0.0155805
796.786	0.0156241
796.864	0.0155785
796.943	0.0156262
797.021	0.0156361
797.099	0.0155914
797.177	0.0156277
797.255	0.0155743
797.333	0.0157211
797.411	0.0155988
797.489	0.0156734
797.568	0.0155385
797.646	0.0154855
797.724	0.0156294
797.802	0.0155902
797.880	0.0155270
797.958	0.0154031
798.036	0.0155105
798.114	0.0153977
798.193	0.0154211
798.271	0.0154587
798.349	0.0153604
798.427	0.0153539
798.505	0.0153666
798.583	0.0153579
798.661	0.0154399
798.739	0.0154967
798.818	0.0153484
798.896	0.0154675
798.974	0.0156422
799.052	0.0155240
799.130	0.0157228
799.208	0.0155783
799.286	0.0156081
799.364	0.0155878
799.443	0.0155936
799.521	0.0155286
799.599	0.0156058
799.677	0.0156173
799.755	0.0155917
799.833	0.0156013
799.911	0.0154563
799.989	0.0155428
800.068	0.0155101
800.146	0.0153835
800.224	0.0153642
800.302	0.0153916
800.380	0.0153321
800.458	0.0154549
800.536	0.0154347
800.614	0.0155116
800.693	0.0154483
800.771	0.0153469
800.849	0.0153458
800.927	0.0154025
801.005	0.0153928
801.083	0.0154738
801.161	0.0153304
801.239	0.0154547
801.318	0.0155035
801.396	0.0154263
801.474	0.0155105
801.552	0.0155778
801.630	0.0155523
801.708	0.0156406
801.786	0.0155743
801.864	0.0155678
801.943	0.0155728
802.021	0.0155314
802.099	0.0156142
802.177	0.0154264
802.255	0.0154886
802.333	0.0154510
802.411	0.0155740
802.489	0.0153755
802.568	0.0155351
802.646	0.0154002
802.724	0.0153933
802.802	0.0155067
802.880	0.0153667
802.958	0.0153448
803.036	0.0154685
803.114	0.0154147
803.193	0.0154442
803.271	0.0155318
803.349	0.0155329
803.427	0.0156203
803.505	0.0155759
803.583	0.0154348
803.661	0.0156701
803.739	0.0155213
803.818	0.0155070
803.896	0.0155148
803.974	0.0156800
804.052	0.0157152
804.130	0.0156775
804.208	0.0158224
804.286	0.0156416
804.364	0.0156345
804.443	0.0156712
804.521	0.0155421
804.599	0.0155782
804.677	0.0155082
804.755	0.0156709
804.833	0.0155582
804.911	0.0154771
804.989	0.0153658
805.068	0.0154268
805.146	0.0154459
805.224	0.0155009
805.302	0.0153670
805.380	0.0154315
805.458	0.0153825
805.536	0.0154435
805.614	0.0153619
805.693	0.0155211
805.771	0.0154687
805.849	0.0153336
805.927	0.0155178
806.005	0.0154539
806.083	0.0153124
806.161	0.0154250
806.239	0.0155255
806.318	0.0152930
806.396	0.0154864
806.474	0.0156451
806.552	0.0154926
806.630	0.0155576
806.708	0.0155387
806.786	0.0155451
806.864	0.0156803
806.943	0.0156223
807.021	0.0155595
807.099	0.0156472
807.177	0.0156169
807.255	0.0156593
807.333	0.0154941
807.411	0.0156860
807.489	0.0156259
807.568	0.0155440
807.646	0.0155437
807.724	0.0154214
807.802	0.0154578
807.880	0.0155002
807.958	0.0155859
808.036	0.0154030
808.114	0.0154646
808.193	0.0154243
808.271	0.0155294
808.349	0.0154111
808.427	0.0155015
808.505	0.0153044
808.583	0.0154441
808.661	0.0152926
808.739	0.0153363
808.818	0.0152309
808.896	0.0153880
808.974	0.0153301
809.052	0.0153097
809.130	0.0152388
809.208	0.0152844
809.286	0.0155019
809.364	0.0155443
809.443	0.0153025
809.521	0.0154597
809.599	0.0154543
809.677	0.0155288
809.755	0.0155331
809.833	0.0154058
809.911	0.0156647
809.989	0.0155209
810.068	0.0155562
810.146	0.0155045
810.224	0.0155977
810.302	0.0155760
810.380	0.0156223
810.458	0.0155600
810.536	0.0155551
810.614	0.0155518
810.693	0.0155394
810.771	0.0154350
810.849	0.0155360
810.927	0.0155682
811.005	0.0155690
811.083	0.0153887
811.161	0.0154111
811.239	0.0154535
811.318	0.0154027
811.396	0.0153110
811.474	0.0155286
811.552	0.0156140
811.630	0.0155073
811.708	0.0155515
811.786	0.0155306
811.864	0.0155963
811.943	0.0156858
812.021	0.0156374
812.099	0.0156233
812.177	0.0156909
812.255	0.0156599
812.333	0.0157073
812.411	0.0156007
812.489	0.0155997
812.568	0.0155578
812.646	0.0155727
812.724	0.0155592
812.802	0.0154365
812.880	0.0153413
812.958	0.0154830
813.036	0.0153091
813.114	0.0153319
813.193	0.0154614
813.271	0.0153085
813.349	0.0152921
813.427	0.0152947
813.505	0.0153037
813.583	0.0152172
813.661	0.0152290
813.739	0.0154030
813.818	0.0153114
813.896	0.0154108
813.974	0.0154155
814.052	0.0153061
814.130	0.0153973
814.208	0.0155012
814.286	0.0155954
814.364	0.0155257
814.443	0.0154643
814.521	0.0154137
814.599	0.0155298
814.677	0.0153704
814.755	0.0153633
814.833	0.0154633
814.911	0.0152753
814.989	0.0154009
815.068	0.0153999
815.146	0.0154015
815.224	0.0151910
815.302	0.0154277
815.380	0.0154288
815.458	0.0155263
815.536	0.0155355
815.614	0.0154955
815.693	0.0154684
815.771	0.0155588
815.849	0.0154790
815.927	0.0156057
816.005	0.0155272
816.083	0.0154816
816.161	0.0156200
816.239	0.0156134
816.318	0.0155672
816.396	0.0156811
816.474	0.0156332
816.552	0.0156568
816.630	0.0156229
816.708	0.0154955
816.786	0.0155807
816.864	0.0155569
816.943	0.0155127
817.021	0.0155560
817.099	0.0155756
817.177	0.0155548
817.255	0.0154607
817.333	0.0155240
817.411	0.0155266
817.489	0.0154652
817.568	0.0155666
817.646	0.0155814
817.724	0.0155801
817.802	0.0155546
817.880	0.0155310
817.958	0.0155325
818.036	0.0154590
818.114	0.0155256
818.193	0.0156781
818.271	0.0154846
818.349	0.0154554
818.427	0.0154830
818.505	0.0154956
818.583	0.0155374
818.661	0.0154127
818.739	0.0155718
818.818	0.0155476
818.896	0.0154337
818.974	0.0154564
819.052	0.0153848
819.130	0.0154491
819.208	0.0154877
819.286	0.0154787
819.364	0.0153945
819.443	0.0153431
819.521	0.0153438
819.599	0.0153967
819.677	0.0153307
819.755	0.0154414
819.833	0.0153374
819.911	0.0151965
819.989	0.0153047
820.068	0.0153072
820.146	0.0152374
820.224	0.0151411
820.302	0.0152684
820.380	0.0152895
820.458	0.0153173
820.536	0.0152978
820.614	0.0151846
820.693	0.0152580
820.771	0.0153577
820.849	0.0154174
820.927	0.0153685
821.005	0.0153657
821.083	0.0154935
821.161	0.0155067
821.239	0.0155927
821.318	0.0156268
821.396	0.0156529
821.474	0.0157632
821.552	0.0156924
821.630	0.0157307
821.708	0.0158083
821.786	0.0157151
821.864	0.0156930
821.943	0.0159078
822.021	0.0156771
822.099	0.0158329
822.177	0.0159019
822.255	0.0156898
822.333	0.0155066
822.411	0.0158006
822.489	0.0156248
822.568	0.0156751
822.646	0.0155036
822.724	0.0156090
822.802	0.0154870
822.880	0.0155349
822.958	0.0155474
823.036	0.0154216
823.114	0.0155380
823.193	0.0156512
823.271	0.0154688
823.349	0.0155823
823.427	0.0155402
823.505	0.0156554
823.583	0.0156616
823.661	0.0155872
823.739	0.0157441
823.818	0.0157127
823.896	0.0155663
823.974	0.0157005
824.052	0.0158939
824.130	0.0155996
824.208	0.0155240
824.286	0.0156028
824.364	0.0155712
824.443	0.0156174
824.521	0.0155661
824.599	0.0154811
824.677	0.0151860
824.755	0.0153204
824.833	0.0154913
824.911	0.0153700
824.989	0.0154320
825.068	0.0152370
825.146	0.0151814
825.224	0.0152882
825.302	0.0152315
825.380	0.0152272
825.458	0.0152239
825.536	0.0153659
825.614	0.0153752
825.693	0.0153255
825.771	0.0152105
825.849	0.0155740
825.927	0.0153547
826.005	0.0153775
826.083	0.0153195
826.161	0.0155518
826.239	0.0155399
826.318	0.0154519
826.396	0.0154217
826.474	0.0155112
826.552	0.0156188
826.630	0.0154554
826.708	0.0155591
826.786	0.0154305
826.864	0.0155322
826.943	0.0155026
827.021	0.0156612
827.099	0.0155972
827.177	0.0155077
827.255	0.0156084
827.333	0.0156030
827.411	0.0155645
827.489	0.0155315
827.568	0.0155817
827.646	0.0155283
827.724	0.0154863
827.802	0.0156647
827.880	0.0155939
827.958	0.0155388
828.036	0.0156001
828.114	0.0155997
828.193	0.0156281
828.271	0.0156036
828.349	0.0156255
828.427	0.0157018
828.505	0.0155641
828.583	0.0155354
828.661	0.0156178
828.739	0.0157395
828.818	0.0157693
828.896	0.0157243
828.974	0.0157991
829.052	0.0158184
829.130	0.0158154
829.208	0.0157107
829.286	0.0157793
829.364	0.0157586
829.443	0.0158367
829.521	0.0157782
829.599	0.0157542
829.677	0.0156760
829.755	0.0156266
829.833	0.0157012
829.911	0.0156880
829.989	0.0155150
830.068	0.0155736
830.146	0.0154764
830.224	0.0154836
830.302	0.0155035
830.380	0.0154144
830.458	0.0153224
830.536	0.0152974
830.614	0.0153871
830.693	0.0154728
830.771	0.0153027
830.849	0.0154409
830.927	0.0152986
831.005	0.0152628
831.083	0.0152841
831.161	0.0152694
831.239	0.0152350
831.318	0.0151984
831.396	0.0154102
831.474	0.0153730
831.552	0.0153069
831.630	0.0153036
831.708	0.0152234
831.786	0.0152980
831.864	0.0153522
831.943	0.0152881
832.021	0.0153741
832.099	0.0153773
832.177	0.0152476
832.255	0.0153492
832.333	0.0155108
832.411	0.0155061
832.489	0.0155254
832.568	0.0155193
832.646	0.0154948
832.724	0.0156248
832.802	0.0156116
832.880	0.0156329
832.958	0.0156618
833.036	0.0157159
833.114	0.0156705
833.193	0.0156532
833.271	0.0157402
833.349	0.0155644
833.427	0.0155876
833.505	0.0157207
833.583	0.0156487
833.661	0.0156557
833.739	0.0157212
833.818	0.0157023
833.896	0.0159126
833.974	0.0158040
834.052	0.0156381
834.130	0.0157034
834.208	0.0159251
834.286	0.0159055
834.364	0.0159389
834.443	0.0159206
834.521	0.0159293
834.599	0.0159064
834.677	0.0159463
834.755	0.0158628
834.833	0.0159242
834.911	0.0158307
834.989	0.0157504
835.068	0.0157406
835.146	0.0157837
835.224	0.0157491
835.302	0.0156403
835.380	0.0156682
835.458	0.0155994
835.536	0.0155759
835.614	0.0155900
835.693	0.0154302
835.771	0.0155175
835.849	0.0153444
835.927	0.0154120
836.005	0.0155544
836.083	0.0153942
836.161	0.0154478
836.239	0.0154662
836.318	0.0154153
836.396	0.0154373
836.474	0.0154803
836.552	0.0154539
836.630	0.0154132
836.708	0.0154347
836.786	0.0153587
836.864	0.0155138
836.943	0.0155161
837.021	0.0154525
837.099	0.0153189
837.177	0.0153397
837.255	0.0153898
837.333	0.0152087
837.411	0.0153406
837.489	0.0151678
837.568	0.0151334
837.646	0.0152270
837.724	0.0153407
837.802	0.0152252
837.880	0.0152505
837.958	0.0153237
838.036	0.0152878
838.114	0.0152208
838.193	0.0152271
838.271	0.0154093
838.349	0.0152941
838.427	0.0153986
838.505	0.0152559
838.583	0.0155090
838.661	0.0155869
838.739	0.0155479
838.818	0.0156534
838.896	0.0157001
838.974	0.0157025
839.052	0.0155990
839.130	0.0156345
839.208	0.0157758
839.286	0.0157307
839.364	0.0155054
839.443	0.0156750
839.521	0.0157054
839.599	0.0156638
839.677	0.0157219
839.755	0.0156559
839.833	0.0157276
839.911	0.0156581
839.989	0.0157140
840.068	0.0156689
840.146	0.0156269
840.224	0.0156697
840.302	0.0157532
840.380	0.0157230
840.458	0.0157088
840.536	0.0157711
840.614	0.0156563
840.693	0.0158155
840.771	0.0157906
840.849	0.0157629
840.927	0.0155220
841.005	0.0155685
841.083	0.0156257
841.161	0.0155114
841.239	0.0154927
841.318	0.0154096
841.396	0.0154208
841.474	0.0153949
841.552	0.0154147
841.630	0.0153629
841.708	0.0154070
841.786	0.0153373
841.864	0.0151746
841.943	0.0153397
842.021	0.0154977
842.099	0.0153802
842.177	0.0153171
842.255	0.0153601
842.333	0.0153761
842.411	0.0155032
842.489	0.0156040
842.568	0.0156285
842.646	0.0154819
842.724	0.0154504
842.802	0.0156575
842.880	0.0156561
842.958	0.0155195
843.036	0.0154831
843.114	0.0154097
843.193	0.0155255
843.271	0.0154441
843.349	0.0155592
843.427	0.0154916
843.505	0.0154531
843.583	0.0154417
843.661	0.0153365
843.739	0.0154456
843.818	0.0155037
843.896	0.0153809
843.974	0.0155069
844.052	0.0153336
844.130	0.0154709
844.208	0.0154911
844.286	0.0156261
844.364	0.0154689
844.443	0.0154641
844.521	0.0155502
844.599	0.0155661
844.677	0.0156049
844.755	0.0156745
844.833	0.0156326
844.911	0.0155500
844.989	0.0155801
845.068	0.0156084
845.146	0.0155737
845.224	0.0157426
845.302	0.0155492
845.380	0.0155852
845.458	0.0155456
845.536	0.0154427
845.614	0.0156237
845.693	0.0154240
845.771	0.0153548
845.849	0.0155287
845.927	0.0156764
846.005	0.0154573
846.083	0.0156989
846.161	0.0155344
846.239	0.0154506
846.318	0.0157280
846.396	0.0155566
846.474	0.0155860
846.552	0.0157924
846.630	0.0156376
846.708	0.0156989
846.786	0.0156989
846.864	0.0156933
846.943	0.0156044
847.021	0.0155227
847.099	0.0156131
847.177	0.0155572
847.255	0.0155831
847.333	0.0154862
847.411	0.0155603
847.489	0.0156745
847.568	0.0155375
847.646	0.0155198
847.724	0.0155116
847.802	0.0154389
847.880	0.0153115
847.958	0.0153645
848.036	0.0153978
848.114	0.0154665
848.193	0.0154346
848.271	0.0155334
848.349	0.0154960
848.427	0.0154215
848.505	0.0154166
848.583	0.0155313
848.661	0.0155576
848.739	0.0155226
848.818	0.0156105
848.896	0.0155312
848.974	0.0155100
849.052	0.0156898
849.130	0.0155651
849.208	0.0156880
849.286	0.0156169
849.364	0.0155602
849.443	0.0157738
849.521	0.0155939
849.599	0.0157804
849.677	0.0156935
849.755	0.0155400
849.833	0.0156436
849.911	0.0157001
849.989	0.0156713
850.068	0.0157324
850.146	0.0156927
850.224	0.0157063
850.302	0.0157615
850.380	0.0156243
850.458	0.0155824
850.536	0.0157651
850.614	0.0156380
850.693	0.0155484
850.771	0.0156882
850.849	0.0156058
850.927	0.0155421
851.005	0.0154906
851.083	0.0155679
851.161	0.0156273
851.239	0.0156956
851.318	0.0155875
851.396	0.0156201
851.474	0.0153417
851.552	0.0155263
851.630	0.0155762
851.708	0.0153494
851.786	0.0155698
851.864	0.0154668
851.943	0.0154219
852.021	0.0155048
852.099	0.0154647
852.177	0.0153771
852.255	0.0154736
852.333	0.0155737
852.411	0.0154814
852.489	0.0153474
852.568	0.0153403
852.646	0.0154992
852.724	0.0154066
852.802	0.0154728
852.880	0.0156149
852.958	0.0154934
853.036	0.0154511
853.114	0.0154163
853.193	0.0155960
853.271	0.0156165
853.349	0.0154258
853.427	0.0154910
853.505	0.0155670
853.583	0.0156416
853.661	0.0156133
853.739	0.0155639
853.818	0.0156171
853.896	0.0154182
853.974	0.0156166
854.052	0.0156261
854.130	0.0156697
854.208	0.0157072
854.286	0.0156949
854.364	0.0156902
854.443	0.0156565
854.521	0.0156570
854.599	0.0156490
854.677	0.0156470
854.755	0.0156039
854.833	0.0156567
854.911	0.0157536
854.989	0.0157336
855.068	0.0156375
855.146	0.0157421
855.224	0.0158086
855.302	0.0157595
855.380	0.0157224
855.458	0.0158108
855.536	0.0157480
855.614	0.0156927
855.693	0.0156512
855.771	0.0155618
855.849	0.0155930
855.927	0.0156633
856.005	0.0158089
856.083	0.0157455
856.161	0.0156539
856.239	0.0155264
856.318	0.0155389
856.396	0.0156012
856.474	0.0153471
856.552	0.0154032
856.630	0.0155167
856.708	0.0155316
856.786	0.0154666
856.864	0.0155042
856.943	0.0154591
857.021	0.0154626
857.099	0.0152613
857.177	0.0154040
857.255	0.0155609
857.333	0.0154063
857.411	0.0154839
857.489	0.0154616
857.568	0.0156351
857.646	0.0154288
857.724	0.0156313
857.802	0.0154977
857.880	0.0154298
857.958	0.0154477
858.036	0.0154385
858.114	0.0154132
858.193	0.0154523
858.271	0.0154642
858.349	0.0155676
858.427	0.0153600
858.505	0.0153893
858.583	0.0153938
858.661	0.0154497
858.739	0.0155007
858.818	0.0154343
858.896	0.0153727
858.974	0.0154348
859.052	0.0152504
859.130	0.0155766
859.208	0.0156500
859.286	0.0155940
859.364	0.0156666
859.443	0.0157917
859.521	0.0156341
859.599	0.0156124
859.677	0.0156912
859.755	0.0157713
859.833	0.0155423
859.911	0.0156957
859.989	0.0158079
860.068	0.0157663
860.146	0.0157009
860.224	0.0156145
860.302	0.0157298
860.380	0.0156770
860.458	0.0156504
860.536	0.0156985
860.614	0.0156561
860.693	0.0156782
860.771	0.0156588
860.849	0.0156998
860.927	0.0156283
861.005	0.0155814
861.083	0.0155544
861.161	0.0157419
861.239	0.0155218
861.318	0.0156268
861.396	0.0155854
861.474	0.0154977
861.552	0.0155429
861.630	0.0156196
861.708	0.0155332
861.786	0.0155657
861.864	0.0155640
861.943	0.0157117
862.021	0.0156350
862.099	0.0156149
862.177	0.0157111
862.255	0.0157059
862.333	0.0154522
862.411	0.0156419
862.489	0.0155392
862.568	0.0154510
862.646	0.0154192
862.724	0.0155781
862.802	0.0155897
862.880	0.0155076
862.958	0.0154810
863.036	0.0154415
863.114	0.0155042
863.193	0.0153480
863.271	0.0153178
863.349	0.0152605
863.427	0.0154436
863.505	0.0153151
863.583	0.0153765
863.661	0.0154596
863.739	0.0154366
863.818	0.0153674
863.896	0.0152465
863.974	0.0153503
864.052	0.0154662
864.130	0.0152779
864.208	0.0153358
864.286	0.0152778
864.364	0.0153120
864.443	0.0153796
864.521	0.0153036
864.599	0.0153785
864.677	0.0154486
864.755	0.0153916
864.833	0.0153027
864.911	0.0153662
864.989	0.0154217
865.068	0.0154691
865.146	0.0154799
865.224	0.0155545
865.302	0.0154498
865.380	0.0155415
865.458	0.0154891
865.536	0.0156538
865.614	0.0155824
865.693	0.0155868
865.771	0.0156055
865.849	0.0155545
865.927	0.0157751
866.005	0.0156772
866.083	0.0156673
866.161	0.0156602
866.239	0.0157117
866.318	0.0156630
866.396	0.0155759
866.474	0.0158354
866.552	0.0157492
866.630	0.0156361
866.708	0.0156070
866.786	0.0155991
866.864	0.0157088
866.943	0.0157451
867.021	0.0156837
867.099	0.0157949
867.177	0.0156501
867.255	0.0155724
867.333	0.0156105
867.411	0.0156767
867.489	0.0157146
867.568	0.0157135
867.646	0.0157730
867.724	0.0155717
867.802	0.0156248
867.880	0.0157699
867.958	0.0156322
868.036	0.0154204
868.114	0.0154196
868.193	0.0155824
868.271	0.0154497
868.349	0.0156042
868.427	0.0154414
868.505	0.0155384
868.583	0.0153094
868.661	0.0153473
868.739	0.0154923
868.818	0.0154770
868.896	0.0153204
868.974	0.0153554
869.052	0.0153963
869.130	0.0153990
869.208	0.0154579
869.286	0.0155028
869.364	0.0154524
869.443	0.0153661
869.521	0.0153630
869.599	0.0153487
869.677	0.0155418
869.755	0.0154282
869.833	0.0153248
869.911	0.0153477
869.989	0.0153724
870.068	0.0155786
870.146	0.0154826
870.224	0.0155156
870.302	0.0154427
870.380	0.0154733
870.458	0.0155364
870.536	0.0156570
870.614	0.0157520
870.693	0.0155660
870.771	0.0155213
870.849	0.0155365
870.927	0.0156368
871.005	0.0157606
871.083	0.0155962
871.161	0.0156517
871.239	0.0156216
871.318	0.0156625
871.396	0.0155695
871.474	0.0156532
871.552	0.0155463
871.630	0.0155537
871.708	0.0156111
871.786	0.0155482
871.864	0.0154454
871.943	0.0155345
872.021	0.0154691
872.099	0.0154796
872.177	0.0155122
872.255	0.0154959
872.333	0.0155080
872.411	0.0154041
872.489	0.0153732
872.568	0.0154562
872.646	0.0156216
872.724	0.0157003
872.802	0.0155575
872.880	0.0155512
872.958	0.0154950
873.036	0.0155954
873.114	0.0156538
873.193	0.0155398
873.271	0.0154483
873.349	0.0155779
873.427	0.0156850
873.505	0.0156054
873.583	0.0154675
873.661	0.0156044
873.739	0.0154563
873.818	0.0154676
873.896	0.0154852
873.974	0.0154980
874.052	0.0154832
874.130	0.0154071
874.208	0.0154417
874.286	0.0155145
874.364	0.0153586
874.443	0.0154018
874.521	0.0154730
874.599	0.0153355
874.677	0.0155028
874.755	0.0152789
874.833	0.0153988
874.911	0.0153864
874.989	0.0155116
875.068	0.0155071
875.146	0.0154781
875.224	0.0154305
875.302	0.0153838
875.380	0.0154528
875.458	0.0154961
875.536	0.0153662
875.614	0.0154861
875.693	0.0155103
875.771	0.0154121
875.849	0.0155210
875.927	0.0154096
876.005	0.0153898
876.083	0.0154975
876.161	0.0154408
876.239	0.0154875
876.318	0.0154203
876.396	0.0153521
876.474	0.0154417
876.552	0.0155175
876.630	0.0153523
876.708	0.0153379
876.786	0.0155115
876.864	0.0155737
876.943	0.0153837
877.021	0.0154702
877.099	0.0154108
877.177	0.0154528
877.255	0.0155991
877.333	0.0156397
877.411	0.0156692
877.489	0.0156711
877.568	0.0156605
877.646	0.0156384
877.724	0.0158748
877.802	0.0154781
877.880	0.0156434
877.958	0.0156793
878.036	0.0156013
878.114	0.0156054
878.193	0.0157225
878.271	0.0155789
878.349	0.0156033
878.427	0.0155735
878.505	0.0153914
878.583	0.0155539
878.661	0.0155566
878.739	0.0155656
878.818	0.0155592
878.896	0.0154146
878.974	0.0154793
879.052	0.0156075
879.130	0.0155801
879.208	0.0154172
879.286	0.0155071
879.364	0.0155637
879.443	0.0155293
879.521	0.0154686
879.599	0.0153599
879.677	0.0154704
879.755	0.0154710
879.833	0.0153147
879.911	0.0153951
879.989	0.0153191
880.068	0.0154351
880.146	0.0153458
880.224	0.0154442
880.302	0.0154951
880.380	0.0154860
880.458	0.0154609
880.536	0.0155273
880.614	0.0155800
880.693	0.0156169
880.771	0.0156492
880.849	0.0156248
880.927	0.0157399
881.005	0.0157643
881.083	0.0156783
881.161	0.0157809
881.239	0.0156144
881.318	0.0155132
881.396	0.0155292
881.474	0.0155634
881.552	0.0155843
881.630	0.0154099
881.708	0.0153151
881.786	0.0154034
881.864	0.0154994
881.943	0.0154108
882.021	0.0152550
882.099	0.0153419
882.177	0.0154889
882.255	0.0153542
882.333	0.0153571
882.411	0.0153632
882.489	0.0154232
882.568	0.0154999
882.646	0.0154833
882.724	0.0156364
882.802	0.0156847
882.880	0.0156593
882.958	0.0157053
883.036	0.0156226
883.114	0.0156931
883.193	0.0156959
883.271	0.0157414
883.349	0.0156596
883.427	0.0156758
883.505	0.0155037
883.583	0.0155952
883.661	0.0157039
883.739	0.0154206
883.818	0.0153902
883.896	0.0154191
883.974	0.0152537
884.052	0.0152299
884.130	0.0151292
884.208	0.0150836
884.286	0.0152551
884.364	0.0150732
884.443	0.0151202
884.521	0.0151614
884.599	0.0152149
884.677	0.0152763
884.755	0.0151866
884.833	0.0153416
884.911	0.0154015
884.989	0.0155669
885.068	0.0155771
885.146	0.0156683
885.224	0.0156951
885.302	0.0157850
885.380	0.0158646
885.458	0.0158953
885.536	0.0158022
885.614	0.0159214
885.693	0.0159711
885.771	0.0159178
885.849	0.0159715
885.927	0.0159190
886.005	0.0158556
886.083	0.0159203
886.161	0.0157987
886.239	0.0157180
886.318	0.0157732
886.396	0.0156007
886.474	0.0154695
886.552	0.0154522
886.630	0.0155260
886.708	0.0153780
886.786	0.0153302
886.864	0.0152798
886.943	0.0152506
887.021	0.0153085
887.099	0.0154394
887.177	0.0154050
887.255	0.0152768
887.333	0.0152287
887.411	0.0152734
887.489	0.0154505
887.568	0.0153284
887.646	0.0153143
887.724	0.0154372
887.802	0.0154379
887.880	0.0153387
887.958	0.0155140
888.036	0.0154797
888.114	0.0155725
888.193	0.0156474
888.271	0.0155750
888.349	0.0156242
888.427	0.0154807
888.505	0.0155480
888.583	0.0155211
888.661	0.0156435
888.739	0.0155166
888.818	0.0156110
888.896	0.0153728
888.974	0.0154107
889.052	0.0153380
889.130	0.0154884
889.208	0.0153768
889.286	0.0154290
889.364	0.0155398
889.443	0.0155161
889.521	0.0153448
889.599	0.0154789
889.677	0.0155179
889.755	0.0155362
889.833	0.0154268
889.911	0.0154337
889.989	0.0155651
890.068	0.0155531
890.146	0.0155703
890.224	0.0155799
890.302	0.0155318
890.380	0.0155238
890.458	0.0155482
890.536	0.0155000
890.614	0.0154507
890.693	0.0154123
890.771	0.0152980
890.849	0.0154933
890.927	0.0154780
891.005	0.0155457
891.083	0.0152908
891.161	0.0154247
891.239	0.0154628
891.318	0.0154638
891.396	0.0153800
891.474	0.0153098
891.552	0.0153934
891.630	0.0153156
891.708	0.0154463
891.786	0.0155560
891.864	0.0154631
891.943	0.0155526
892.021	0.0155051
892.099	0.0154597
892.177	0.0155313
892.255	0.0155576
892.333	0.0157149
892.411	0.0155640
892.489	0.0157607
892.568	0.0156578
892.646	0.0156993
892.724	0.0155949
892.802	0.0155379
892.880	0.0155161
892.958	0.0156046
893.036	0.0155053
893.114	0.0155362
893.193	0.0154243
893.271	0.0155503
893.349	0.0154293
893.427	0.0153844
893.505	0.0153673
893.583	0.0152895
893.661	0.0153000
893.739	0.0153806
893.818	0.0153233
893.896	0.0153033
893.974	0.0153397
894.052	0.0153199
894.130	0.0152999
894.208	0.0154435
894.286	0.0153912
894.364	0.0153526
894.443	0.0153940
894.521	0.0155050
894.599	0.0154496
894.677	0.0154924
894.755	0.0154153
894.833	0.0155029
894.911	0.0154676
894.989	0.0153651
895.068	0.0153876
895.146	0.0153014
895.224	0.0153202
895.302	0.0153508
895.380	0.0152825
895.458	0.0150901
895.536	0.0153108
895.614	0.0152579
895.693	0.0153496
895.771	0.0153562
895.849	0.0153435
895.927	0.0153954
896.005	0.0155649
896.083	0.0155929
896.161	0.0155862
896.239	0.0157693
896.318	0.0156239
896.396	0.0155871
896.474	0.0157929
896.552	0.0158285
896.630	0.0157652
896.708	0.0155688
896.786	0.0155542
896.864	0.0157306
896.943	0.0156698
897.021	0.0155904
897.099	0.0155286
897.177	0.0155673
897.255	0.0156172
897.333	0.0156061
897.411	0.0155651
897.489	0.0154295
897.568	0.0153883
897.646	0.0153923
897.724	0.0153957
897.802	0.0155053
897.880	0.0153952
897.958	0.0154885
898.036	0.0157008
898.114	0.0155029
898.193	0.0155990
898.271	0.0155935
898.349	0.0156441
898.427	0.0157066
898.505	0.0156600
898.583	0.0155848
898.661	0.0155820
898.739	0.0156168
898.818	0.0158377
898.896	0.0156219
898.974	0.0156091
899.052	0.0156393
899.130	0.0155535
899.208	0.0155733
899.286	0.0155578
899.364	0.0154428
899.443	0.0155433
899.521	0.0154780
899.599	0.0154620
899.677	0.0155051
899.755	0.0154065
899.833	0.0153893
899.911	0.0152984
899.989	0.0153432
900.068	0.0153407
900.146	0.0152397
900.224	0.0150889
900.302	0.0151029
900.380	0.0153063
900.458	0.0153608
900.536	0.0153651
900.614	0.0153931
900.693	0.0154255
900.771	0.0154947
900.849	0.0153257
900.927	0.0154428
901.005	0.0154365
901.083	0.0153967
901.161	0.0155236
901.239	0.0155930
901.318	0.0155255
901.396	0.0156371
901.474	0.0154834
901.552	0.0155878
901.630	0.0156146
901.708	0.0157368
901.786	0.0155466
901.864	0.0154189
901.943	0.0155268
902.021	0.0155618
902.099	0.0154202
902.177	0.0155743
902.255	0.0156107
902.333	0.0155479
902.411	0.0155473
902.489	0.0155281
902.568	0.0155434
902.646	0.0154163
902.724	0.0154174
902.802	0.0155064
902.880	0.0155770
902.958	0.0154296
903.036	0.0155973
903.114	0.0153649
903.193	0.0155569
903.271	0.0156050
903.349	0.0154646
903.427	0.0154655
903.505	0.0155212
903.583	0.0155860
903.661	0.0154861
903.739	0.0154709
903.818	0.0156078
903.896	0.0155783
903.974	0.0154345
904.052	0.0153844
904.130	0.0154314
904.208	0.0154053
904.286	0.0152930
904.364	0.0152533
904.443	0.0153314
904.521	0.0153532
904.599	0.0153500
904.677	0.0153207
904.755	0.0153162
904.833	0.0154317
904.911	0.0153845
904.989	0.0153812
905.068	0.0154150
905.146	0.0155991
905.224	0.0153851
905.302	0.0155218
905.380	0.0155206
905.458	0.0155528
905.536	0.0155263
905.614	0.0156445
905.693	0.0156752
905.771	0.0156767
905.849	0.0157035
905.927	0.0158823
906.005	0.0158082
906.083	0.0156707
906.161	0.0156361
906.239	0.0157536
906.318	0.0157075
906.396	0.0155397
906.474	0.0155820
906.552	0.0155054
906.630	0.0154394
906.708	0.0154186
906.786	0.0153185
906.864	0.0154153
906.943	0.0151820
907.021	0.0153204
907.099	0.0152589
907.177	0.0153376
907.255	0.0152428
907.333	0.0152528
907.411	0.0153534
907.489	0.0152825
907.568	0.0152604
907.646	0.0153985
907.724	0.0153650
907.802	0.0154978
907.880	0.0154556
907.958	0.0155370
908.036	0.0154736
908.114	0.0155264
908.193	0.0156881
908.271	0.0156182
908.349	0.0156557
908.427	0.0157303
908.505	0.0156226
908.583	0.0156110
908.661	0.0157501
908.739	0.0156658
908.818	0.0157084
908.896	0.0157189
908.974	0.0157661
909.052	0.0155494
909.130	0.0156114
909.208	0.0155746
909.286	0.0156976
909.364	0.0154475
909.443	0.0155878
909.521	0.0154379
909.599	0.0155058
909.677	0.0153953
909.755	0.0153912
909.833	0.0153596
909.911	0.0154066
909.989	0.0152744
910.068	0.0152325
910.146	0.0152695
910.224	0.0153962
910.302	0.0153321
910.380	0.0153086
910.458	0.0152885
910.536	0.0154420
910.614	0.0155050
910.693	0.0154374
910.771	0.0153145
910.849	0.0155209
910.927	0.0154813
911.005	0.0155358
911.083	0.0155158
911.161	0.0155140
911.239	0.0155866
911.318	0.0155013
911.396	0.0155233
911.474	0.0154991
911.552	0.0155938
911.630	0.0154440
911.708	0.0152750
911.786	0.0154615
911.864	0.0153284
911.943	0.0154030
912.021	0.0153846
912.099	0.0153960
912.177	0.0153808
912.255	0.0154145
912.333	0.0155126
912.411	0.0154805
912.489	0.0154948
912.568	0.0155378
912.646	0.0154700
912.724	0.0155282
912.802	0.0155791
912.880	0.0156264
912.958	0.0155668
913.036	0.0156050
913.114	0.0155869
913.193	0.0154961
913.271	0.0155346
913.349	0.0155352
913.427	0.0156728
913.505	0.0155367
913.583	0.0155202
913.661	0.0155225
913.739	0.0156355
913.818	0.0154681
913.896	0.0154655
913.974	0.0154668
914.052	0.0155528
914.130	0.0154075
914.208	0.0153736
914.286	0.0154192
914.364	0.0153488
914.443	0.0154092
914.521	0.0154436
914.599	0.0154190
914.677	0.0154366
914.755	0.0154531
914.833	0.0153349
914.911	0.0153868
914.989	0.0153128
915.068	0.0153767
915.146	0.0154590
915.224	0.0154819
915.302	0.0154908
915.380	0.0154776
915.458	0.0155327
915.536	0.0155817
915.614	0.0153870
915.693	0.0155042
915.771	0.0155769
915.849	0.0155093
915.927	0.0155649
916.005	0.0153136
916.083	0.0153823
916.161	0.0155377
916.239	0.0154253
916.318	0.0155077
916.396	0.0154053
916.474	0.0154861
916.552	0.0154890
916.630	0.0153812
916.708	0.0153749
916.786	0.0155459
916.864	0.0154094
916.943	0.0155582
917.021	0.0155182
917.099	0.0154244
917.177	0.0156477
917.255	0.0155027
917.333	0.0154757
917.411	0.0156035
917.489	0.0155672
917.568	0.0155461
917.646	0.0154951
917.724	0.0155068
917.802	0.0155408
917.880	0.0156339
917.958	0.0154337
918.036	0.0155463
918.114	0.0156256
918.193	0.0155127
918.271	0.0154074
918.349	0.0155900
918.427	0.0157417
918.505	0.0156254
918.583	0.0156521
918.661	0.0157729
918.739	0.0155729
918.818	0.0155557
918.896	0.0156050
918.974	0.0156027
919.052	0.0155317
919.130	0.0156112
919.208	0.0155250
919.286	0.0156569
919.364	0.0156309
919.443	0.0154723
919.521	0.0154121
919.599	0.0154210
919.677	0.0153630
919.755	0.0154692
919.833	0.0155519
919.911	0.0156330
919.989	0.0155246
920.068	0.0154761
920.146	0.0153739
920.224	0.0155080
920.302	0.0155617
920.380	0.0155644
920.458	0.0157037
920.536	0.0156524
920.614	0.0154896
920.693	0.0155743
920.771	0.0156944
920.849	0.0155936
920.927	0.0155466
921.005	0.0154720
921.083	0.0156011
921.161	0.0155518
921.239	0.0156804
921.318	0.0156522
921.396	0.0153662
921.474	0.0155186
921.552	0.0156282
921.630	0.0155738
921.708	0.0154964
921.786	0.0154330
921.864	0.0154391
921.943	0.0152821
922.021	0.0153778
922.099	0.0153607
922.177	0.0153809
922.255	0.0154396
922.333	0.0155360
922.411	0.0154842
922.489	0.0154276
922.568	0.0155207
922.646	0.0156831
922.724	0.0155467
922.802	0.0153379
922.880	0.0156442
922.958	0.0155738
923.036	0.0155572
923.114	0.0155405
923.193	0.0156214
923.271	0.0157097
923.349	0.0156686
923.427	0.0155396
923.505	0.0154710
923.583	0.0155691
923.661	0.0154698
923.739	0.0154672
923.818	0.0153819
923.896	0.0155862
923.974	0.0154395
924.052	0.0154443
924.130	0.0153888
924.208	0.0154317
924.286	0.0154520
924.364	0.0154575
924.443	0.0154579
924.521	0.0155499
924.599	0.0154422
924.677	0.0155097
924.755	0.0155541
924.833	0.0154823
924.911	0.0155383
924.989	0.0154898
925.068	0.0156332
925.146	0.0154572
925.224	0.0153700
925.302	0.0154536
925.380	0.0154134
925.458	0.0153751
925.536	0.0156374
925.614	0.0154774
925.693	0.0154298
925.771	0.0154510
925.849	0.0155044
925.927	0.0153854
926.005	0.0154283
926.083	0.0153681
926.161	0.0154789
926.239	0.0154955
926.318	0.0153421
926.396	0.0153499
926.474	0.0154187
926.552	0.0154876
926.630	0.0153611
926.708	0.0155054
926.786	0.0154028
926.864	0.0154037
926.943	0.0153604
927.021	0.0155105
927.099	0.0154185
927.177	0.0154495
927.255	0.0154606
927.333	0.0153344
927.411	0.0153488
927.489	0.0155380
927.568	0.0153352
927.646	0.0154338
927.724	0.0154733
927.802	0.0154600
927.880	0.0155593
927.958	0.0154550
928.036	0.0156161
928.114	0.0156604
928.193	0.0156886
928.271	0.0156782
928.349	0.0157277
928.427	0.0154905
928.505	0.0156331
928.583	0.0156386
928.661	0.0155954
928.739	0.0155204
928.818	0.0154496
928.896	0.0156762
928.974	0.0155933
929.052	0.0154852
929.130	0.0153765
929.208	0.0154134
929.286	0.0154311
929.364	0.0155238
929.443	0.0154421
929.521	0.0154264
929.599	0.0154431
929.677	0.0153338
929.755	0.0156297
929.833	0.0155233
929.911	0.0155634
929.989	0.0153394
930.068	0.0153914
930.146	0.0155103
930.224	0.0154987
930.302	0.0154929
930.380	0.0155255
930.458	0.0155916
930.536	0.0156139
930.614	0.0156076
930.693	0.0156097
930.771	0.0156036
930.849	0.0155209
930.927	0.0154684
931.005	0.0155655
931.083	0.0155785
931.161	0.0155789
931.239	0.0156801
931.318	0.0156274
931.396	0.0155924
931.474	0.0155664
931.552	0.0155863
931.630	0.0156239
931.708	0.0156349
931.786	0.0156286
931.864	0.0155762
931.943	0.0155758
932.021	0.0155083
932.099	0.0155792
932.177	0.0155426
932.255	0.0156414
932.333	0.0155104
932.411	0.0155803
932.489	0.0155771
932.568	0.0155270
932.646	0.0155874
932.724	0.0156871
932.802	0.0155376
932.880	0.0155624
932.958	0.0155489
933.036	0.0155163
933.114	0.0156693
933.193	0.0157644
933.271	0.0155717
933.349	0.0154973
933.427	0.0157397
933.505	0.0155973
933.583	0.0155595
933.661	0.0155697
933.739	0.0155351
933.818	0.0154141
933.896	0.0154269
933.974	0.0154057
934.052	0.0155458
934.130	0.0154695
934.208	0.0153878
934.286	0.0153756
934.364	0.0153490
934.443	0.0154110
934.521	0.0154504
934.599	0.0153212
934.677	0.0154456
934.755	0.0155791
934.833	0.0154787
934.911	0.0154356
934.989	0.0155936
935.068	0.0157102
935.146	0.0156738
935.224	0.0157227
935.302	0.0158022
935.380	0.0156868
935.458	0.0157841
935.536	0.0157594
935.614	0.0157076
935.693	0.0156995
935.771	0.0156628
935.849	0.0157290
935.927	0.0156342
936.005	0.0156303
936.083	0.0157066
936.161	0.0156329
936.239	0.0155498
936.318	0.0156419
936.396	0.0155080
936.474	0.0155244
936.552	0.0155363
936.630	0.0154031
936.708	0.0155506
936.786	0.0155614
936.864	0.0155057
936.943	0.0154926
937.021	0.0155450
937.099	0.0156125
937.177	0.0157255
937.255	0.0156519
937.333	0.0155725
937.411	0.0155476
937.489	0.0155643
937.568	0.0157829
937.646	0.0156358
937.724	0.0155045
937.802	0.0155464
937.880	0.0155930
937.958	0.0155751
938.036	0.0156010
938.114	0.0155397
938.193	0.0156007
938.271	0.0154580
938.349	0.0154974
938.427	0.0154800
938.505	0.0154760
938.583	0.0154654
938.661	0.0154412
938.739	0.0155764
938.818	0.0154819
938.896	0.0153903
938.974	0.0156228
939.052	0.0156283
939.130	0.0154521
939.208	0.0156627
939.286	0.0155102
939.364	0.0154372
939.443	0.0157219
939.521	0.0155105
939.599	0.0155873
939.677	0.0155695
939.755	0.0154687
939.833	0.0155371
939.911	0.0155886
939.989	0.0154874
940.068	0.0154576
940.146	0.0155683
940.224	0.0155674
940.302	0.0155045
940.380	0.0155824
940.458	0.0153518
940.536	0.0153994
940.614	0.0154073
940.693	0.0154380
940.771	0.0154651
940.849	0.0154665
940.927	0.0154232
941.005	0.0153111
941.083	0.0153761
941.161	0.0154256
941.239	0.0155080
941.318	0.0155456
941.396	0.0154893
941.474	0.0153613
941.552	0.0156573
941.630	0.0155276
941.708	0.0155460
941.786	0.0155717
941.864	0.0157172
941.943	0.0157419
942.021	0.0155618
942.099	0.0156628
942.177	0.0156973
942.255	0.0155913
942.333	0.0156601
942.411	0.0156332
942.489	0.0155785
942.568	0.0156577
942.646	0.0156290
942.724	0.0156126
942.802	0.0155193
942.880	0.0154472
942.958	0.0157093
943.036	0.0154292
943.114	0.0154522
943.193	0.0154755
943.271	0.0155264
943.349	0.0154406
943.427	0.0155367
943.505	0.0154916
943.583	0.0154494
943.661	0.0155228
943.739	0.0152267
943.818	0.0155309
943.896	0.0155507
943.974	0.0154962
944.052	0.0155711
944.130	0.0156828
944.208	0.0156406
944.286	0.0156631
944.364	0.0155228
944.443	0.0155594
944.521	0.0156051
944.599	0.0155786
944.677	0.0156166
944.755	0.0156842
944.833	0.0155936
944.911	0.0154894
944.989	0.0155041
945.068	0.0155961
945.146	0.0155209
945.224	0.0154855
945.302	0.0154832
945.380	0.0155443
945.458	0.0154254
945.536	0.0154414
945.614	0.0154593
945.693	0.0155843
945.771	0.0155318
945.849	0.0155135
945.927	0.0154034
946.005	0.0155313
946.083	0.0155565
946.161	0.0155585
946.239	0.0155198
946.318	0.0155336
946.396	0.0155396
946.474	0.0156003
946.552	0.0155872
946.630	0.0155098
946.708	0.0157116
946.786	0.0155524
946.864	0.0156482
946.943	0.0157116
947.021	0.0155482
947.099	0.0155265
947.177	0.0154778
947.255	0.0155559
947.333	0.0157071
947.411	0.0156107
947.489	0.0155540
947.568	0.0155770
947.646	0.0153410
947.724	0.0155173
947.802	0.0156030
947.880	0.0156468
947.958	0.0155099
948.036	0.0156333
948.114	0.0155533
948.193	0.0156933
948.271	0.0154917
948.349	0.0155562
948.427	0.0156353
948.505	0.0155458
948.583	0.0156782
948.661	0.0156954
948.739	0.0157825
948.818	0.0155495
948.896	0.0156185
948.974	0.0155189
949.052	0.0156082
949.130	0.0156647
949.208	0.0156322
949.286	0.0155590
949.364	0.0155934
949.443	0.0155179
949.521	0.0154926
949.599	0.0155480
949.677	0.0154996
949.755	0.0152957
949.833	0.0153451
949.911	0.0154255
949.989	0.0155375
950.068	0.0154337
950.146	0.0153825
950.224	0.0154499
950.302	0.0154136
950.380	0.0154991
950.458	0.0155252
950.536	0.0156384
950.614	0.0155418
950.693	0.0156512
950.771	0.0156712
950.849	0.0156323
950.927	0.0156681
951.005	0.0156244
951.083	0.0156527
951.161	0.0157198
951.239	0.0155778
951.318	0.0154064
951.396	0.0155183
951.474	0.0155103
951.552	0.0155004
951.630	0.0152473
951.708	0.0154266
951.786	0.0154204
951.864	0.0154172
951.943	0.0152651
952.021	0.0154615
952.099	0.0154333
952.177	0.0155141
952.255	0.0154396
952.333	0.0154124
952.411	0.0153251
952.489	0.0154671
952.568	0.0155202
952.646	0.0153278
952.724	0.0155885
952.802	0.0155672
952.880	0.0155977
952.958	0.0155741
953.036	0.0154771
953.114	0.0156678
953.193	0.0157437
953.271	0.0154874
953.349	0.0154689
953.427	0.0154965
953.505	0.0155254
953.583	0.0154739
953.661	0.0154915
953.739	0.0153603
953.818	0.0154080
953.896	0.0155371
953.974	0.0154486
954.052	0.0154623
954.130	0.0155704
954.208	0.0155102
954.286	0.0154830
954.364	0.0155412
954.443	0.0155327
954.521	0.0154262
954.599	0.0156335
954.677	0.0156368
954.755	0.0156104
954.833	0.0156967
954.911	0.0155128
954.989	0.0156174
955.068	0.0156077
955.146	0.0156793
955.224	0.0157801
955.302	0.0155857
955.380	0.0157050
955.458	0.0157024
955.536	0.0156252
955.614	0.0155511
955.693	0.0155817
955.771	0.0154810
955.849	0.0156091
955.927	0.0155798
956.005	0.0155065
956.083	0.0154366
956.161	0.0154647
956.239	0.0154112
956.318	0.0153955
956.396	0.0153978
956.474	0.0154174
956.552	0.0153728
956.630	0.0153241
956.708	0.0154382
956.786	0.0154216
956.864	0.0152597
956.943	0.0154677
957.021	0.0154527
957.099	0.0154285
957.177	0.0154911
957.255	0.0155042
957.333	0.0154722
957.411	0.0154720
957.489	0.0155621
957.568	0.0156160
957.646	0.0155230
957.724	0.0154076
957.802	0.0155468
957.880	0.0155544
957.958	0.0155357
958.036	0.0154963
958.114	0.0155839
958.193	0.0154955
958.271	0.0156406
958.349	0.0154813
958.427	0.0156472
958.505	0.0155280
958.583	0.0154675
958.661	0.0155576
958.739	0.0155637
958.818	0.0154865
958.896	0.0155336
958.974	0.0153941
959.052	0.0154683
959.130	0.0153337
959.208	0.0154014
959.286	0.0155165
959.364	0.0155786
959.443	0.0153867
959.521	0.0155782
959.599	0.0155664
959.677	0.0154327
959.755	0.0155362
959.833	0.0155233
959.911	0.0154005
