05/17/2022	17:26:00	Ver.	4.1	UNKNOWN
Optical Delay	639.982744	Delta X		0.078125	Sweeps	1	Scan Rate	0/0
Coordinates	Axis 1	NaN	Axis 2	NaN	Axis 3	NaN	Axis 4	NaN	Axis 5	NaN	Axis 6	0.000000
TX Power	0.000000	RX Power	0.000000

639.983	0.0160664
640.061	0.0162045
640.139	0.0163232
640.217	0.0164273
640.295	0.0162155
640.373	0.0162542
640.451	0.0165192
640.530	0.0165468
640.608	0.0163898
640.686	0.0165090
640.764	0.0165395
640.842	0.0165872
640.920	0.0166155
640.998	0.0167397
641.076	0.0166016
641.155	0.0166631
641.233	0.0167006
641.311	0.0165202
641.389	0.0166658
641.467	0.0166549
641.545	0.0165672
641.623	0.0166678
641.701	0.0165462
641.780	0.0167162
641.858	0.0166644
641.936	0.0164831
642.014	0.0165257
642.092	0.0164733
642.170	0.0164852
642.248	0.0165047
642.326	0.0163725
642.405	0.0163767
642.483	0.0163802
642.561	0.0163845
642.639	0.0163698
642.717	0.0163374
642.795	0.0163091
642.873	0.0163247
642.951	0.0161327
643.030	0.0163227
643.108	0.0162521
643.186	0.0163174
643.264	0.0161034
643.342	0.0159827
643.420	0.0161536
643.498	0.0161168
643.576	0.0161868
643.655	0.0162135
643.733	0.0160007
643.811	0.0160255
643.889	0.0159964
643.967	0.0161411
644.045	0.0158874
644.123	0.0158739
644.201	0.0160161
644.280	0.0159740
644.358	0.0158951
644.436	0.0158522
644.514	0.0160542
644.592	0.0160019
644.670	0.0159837
644.748	0.0160941
644.826	0.0160077
644.905	0.0161542
644.983	0.0161844
645.061	0.0163023
645.139	0.0162945
645.217	0.0164124
645.295	0.0165656
645.373	0.0164919
645.451	0.0166276
645.530	0.0164874
645.608	0.0166161
645.686	0.0167889
645.764	0.0167388
645.842	0.0166970
645.920	0.0168229
645.998	0.0168204
646.076	0.0169268
646.155	0.0167870
646.233	0.0169119
646.311	0.0170409
646.389	0.0167834
646.467	0.0168705
646.545	0.0167124
646.623	0.0169288
646.701	0.0169234
646.780	0.0168253
646.858	0.0166535
646.936	0.0168302
647.014	0.0166462
647.092	0.0166937
647.170	0.0165847
647.248	0.0167270
647.326	0.0166403
647.405	0.0167305
647.483	0.0167222
647.561	0.0166277
647.639	0.0165437
647.717	0.0166953
647.795	0.0168963
647.873	0.0166930
647.951	0.0167233
648.030	0.0167190
648.108	0.0167905
648.186	0.0166975
648.264	0.0167171
648.342	0.0166479
648.420	0.0166507
648.498	0.0167545
648.576	0.0166093
648.655	0.0165749
648.733	0.0167031
648.811	0.0165509
648.889	0.0164451
648.967	0.0164754
649.045	0.0164240
649.123	0.0164614
649.201	0.0164784
649.280	0.0162883
649.358	0.0162911
649.436	0.0161407
649.514	0.0160754
649.592	0.0159535
649.670	0.0158297
649.748	0.0158282
649.826	0.0158175
649.905	0.0158263
649.983	0.0157733
650.061	0.0156252
650.139	0.0157063
650.217	0.0158438
650.295	0.0158217
650.373	0.0159528
650.451	0.0158910
650.530	0.0159214
650.608	0.0160429
650.686	0.0160320
650.764	0.0160804
650.842	0.0161310
650.920	0.0160916
650.998	0.0161083
651.076	0.0161910
651.155	0.0162028
651.233	0.0162786
651.311	0.0162788
651.389	0.0162000
651.467	0.0162860
651.545	0.0162948
651.623	0.0162876
651.701	0.0164186
651.780	0.0165010
651.858	0.0163325
651.936	0.0164188
652.014	0.0164434
652.092	0.0166337
652.170	0.0167319
652.248	0.0165269
652.326	0.0166907
652.405	0.0165190
652.483	0.0164581
652.561	0.0166409
652.639	0.0166255
652.717	0.0164841
652.795	0.0164672
652.873	0.0163754
652.951	0.0164914
653.030	0.0162508
653.108	0.0163968
653.186	0.0163882
653.264	0.0163549
653.342	0.0163029
653.420	0.0162481
653.498	0.0162831
653.576	0.0163515
653.655	0.0161585
653.733	0.0163546
653.811	0.0164156
653.889	0.0162963
653.967	0.0163548
654.045	0.0164128
654.123	0.0164626
654.201	0.0163344
654.280	0.0164213
654.358	0.0163682
654.436	0.0165060
654.514	0.0164721
654.592	0.0164690
654.670	0.0162839
654.748	0.0162955
654.826	0.0163232
654.905	0.0164793
654.983	0.0163728
655.061	0.0164437
655.139	0.0163125
655.217	0.0163639
655.295	0.0164906
655.373	0.0165572
655.451	0.0164629
655.530	0.0164980
655.608	0.0164315
655.686	0.0163609
655.764	0.0164536
655.842	0.0165854
655.920	0.0165286
655.998	0.0165520
656.076	0.0167390
656.155	0.0166176
656.233	0.0166314
656.311	0.0166022
656.389	0.0163594
656.467	0.0165858
656.545	0.0164832
656.623	0.0165283
656.701	0.0163710
656.780	0.0165538
656.858	0.0164506
656.936	0.0164385
657.014	0.0164854
657.092	0.0164052
657.170	0.0163268
657.248	0.0164618
657.326	0.0165568
657.405	0.0163290
657.483	0.0163562
657.561	0.0164825
657.639	0.0163809
657.717	0.0163451
657.795	0.0163044
657.873	0.0162656
657.951	0.0161483
658.030	0.0160121
658.108	0.0162001
658.186	0.0161053
658.264	0.0159719
658.342	0.0160439
658.420	0.0159599
658.498	0.0159171
658.576	0.0159692
658.655	0.0160663
658.733	0.0160664
658.811	0.0162457
658.889	0.0161920
658.967	0.0162254
659.045	0.0161758
659.123	0.0162694
659.201	0.0163052
659.280	0.0162910
659.358	0.0163814
659.436	0.0162438
659.514	0.0162974
659.592	0.0163505
659.670	0.0162448
659.748	0.0162061
659.826	0.0162509
659.905	0.0161212
659.983	0.0160857
660.061	0.0160693
660.139	0.0158901
660.217	0.0159023
660.295	0.0159721
660.373	0.0159023
660.451	0.0158022
660.530	0.0158247
660.608	0.0157798
660.686	0.0158414
660.764	0.0157076
660.842	0.0157497
660.920	0.0157873
660.998	0.0158198
661.076	0.0158245
661.155	0.0156465
661.233	0.0158817
661.311	0.0157632
661.389	0.0158023
661.467	0.0160356
661.545	0.0161972
661.623	0.0160873
661.701	0.0162126
661.780	0.0162460
661.858	0.0162088
661.936	0.0162696
662.014	0.0163026
662.092	0.0162305
662.170	0.0163240
662.248	0.0164139
662.326	0.0165044
662.405	0.0165417
662.483	0.0165008
662.561	0.0164655
662.639	0.0166250
662.717	0.0165376
662.795	0.0164809
662.873	0.0165973
662.951	0.0165914
663.030	0.0165940
663.108	0.0166899
663.186	0.0166319
663.264	0.0166257
663.342	0.0167273
663.420	0.0167387
663.498	0.0167524
663.576	0.0166537
663.655	0.0166225
663.733	0.0167336
663.811	0.0167543
663.889	0.0166295
663.967	0.0167948
664.045	0.0167326
664.123	0.0166105
664.201	0.0165981
664.280	0.0164964
664.358	0.0166028
664.436	0.0164919
664.514	0.0165240
664.592	0.0165228
664.670	0.0164635
664.748	0.0164265
664.826	0.0163960
664.905	0.0164188
664.983	0.0164075
665.061	0.0164498
665.139	0.0166717
665.217	0.0166131
665.295	0.0166463
665.373	0.0168102
665.451	0.0168439
665.530	0.0168481
665.608	0.0167691
665.686	0.0167298
665.764	0.0167863
665.842	0.0168554
665.920	0.0168008
665.998	0.0167432
666.076	0.0167953
666.155	0.0166806
666.233	0.0164973
666.311	0.0165916
666.389	0.0165018
666.467	0.0164830
666.545	0.0166071
666.623	0.0164453
666.701	0.0164506
666.780	0.0164255
666.858	0.0164481
666.936	0.0162930
667.014	0.0163557
667.092	0.0163375
667.170	0.0164131
667.248	0.0163618
667.326	0.0164087
667.405	0.0164262
667.483	0.0165392
667.561	0.0163033
667.639	0.0163476
667.717	0.0162697
667.795	0.0164111
667.873	0.0164044
667.951	0.0162711
668.030	0.0163622
668.108	0.0165063
668.186	0.0164107
668.264	0.0163862
668.342	0.0164642
668.420	0.0163386
668.498	0.0162974
668.576	0.0161317
668.655	0.0162119
668.733	0.0162223
668.811	0.0162404
668.889	0.0161698
668.967	0.0160424
669.045	0.0160616
669.123	0.0161452
669.201	0.0159309
669.280	0.0162399
669.358	0.0159993
669.436	0.0160188
669.514	0.0159078
669.592	0.0161021
669.670	0.0160286
669.748	0.0159214
669.826	0.0160375
669.905	0.0158745
669.983	0.0160160
670.061	0.0160579
670.139	0.0160732
670.217	0.0161263
670.295	0.0161731
670.373	0.0160736
670.451	0.0163437
670.530	0.0161761
670.608	0.0162508
670.686	0.0163731
670.764	0.0164323
670.842	0.0164308
670.920	0.0163470
670.998	0.0162403
671.076	0.0163448
671.155	0.0164649
671.233	0.0163215
671.311	0.0161982
671.389	0.0162193
671.467	0.0162912
671.545	0.0161803
671.623	0.0161538
671.701	0.0161612
671.780	0.0162820
671.858	0.0161297
671.936	0.0162381
672.014	0.0162828
672.092	0.0163699
672.170	0.0163062
672.248	0.0163760
672.326	0.0165028
672.405	0.0167522
672.483	0.0165717
672.561	0.0165553
672.639	0.0167381
672.717	0.0167847
672.795	0.0168154
672.873	0.0167632
672.951	0.0167951
673.030	0.0168147
673.108	0.0167427
673.186	0.0167997
673.264	0.0168363
673.342	0.0168456
673.420	0.0168563
673.498	0.0169538
673.576	0.0167344
673.655	0.0168035
673.733	0.0167294
673.811	0.0167789
673.889	0.0168163
673.967	0.0165540
674.045	0.0165324
674.123	0.0166485
674.201	0.0164439
674.280	0.0165110
674.358	0.0164297
674.436	0.0163969
674.514	0.0163203
674.592	0.0162444
674.670	0.0163895
674.748	0.0163981
674.826	0.0163885
674.905	0.0164073
674.983	0.0164517
675.061	0.0163912
675.139	0.0164907
675.217	0.0165462
675.295	0.0165862
675.373	0.0166899
675.451	0.0169035
675.530	0.0167400
675.608	0.0167852
675.686	0.0169196
675.764	0.0168589
675.842	0.0171066
675.920	0.0171077
675.998	0.0173020
676.076	0.0172615
676.155	0.0173697
676.233	0.0172960
676.311	0.0173769
676.389	0.0172777
676.467	0.0173208
676.545	0.0174131
676.623	0.0173932
676.701	0.0175217
676.780	0.0174726
676.858	0.0173435
676.936	0.0173320
677.014	0.0174194
677.092	0.0173022
677.170	0.0173415
677.248	0.0171915
677.326	0.0170380
677.405	0.0170438
677.483	0.0170826
677.561	0.0168031
677.639	0.0167096
677.717	0.0166782
677.795	0.0165630
677.873	0.0165781
677.951	0.0166016
678.030	0.0164108
678.108	0.0162489
678.186	0.0163355
678.264	0.0161800
678.342	0.0160430
678.420	0.0161777
678.498	0.0159615
678.576	0.0160903
678.655	0.0160632
678.733	0.0160421
678.811	0.0160778
678.889	0.0158475
678.967	0.0159356
679.045	0.0160225
679.123	0.0160011
679.201	0.0159407
679.280	0.0159584
679.358	0.0159361
679.436	0.0159760
679.514	0.0159782
679.592	0.0158998
679.670	0.0158973
679.748	0.0159398
679.826	0.0161685
679.905	0.0160397
679.983	0.0160089
680.061	0.0160757
680.139	0.0161151
680.217	0.0160515
680.295	0.0157896
680.373	0.0161977
680.451	0.0159375
680.530	0.0160338
680.608	0.0161543
680.686	0.0160278
680.764	0.0161548
680.842	0.0163647
680.920	0.0161326
680.998	0.0162515
681.076	0.0164889
681.155	0.0163337
681.233	0.0164646
681.311	0.0164584
681.389	0.0163418
681.467	0.0162940
681.545	0.0164275
681.623	0.0163779
681.701	0.0163000
681.780	0.0164362
681.858	0.0164363
681.936	0.0163818
682.014	0.0163372
682.092	0.0164206
682.170	0.0164053
682.248	0.0162834
682.326	0.0162035
682.405	0.0163498
682.483	0.0164319
682.561	0.0163306
682.639	0.0161295
682.717	0.0161580
682.795	0.0161325
682.873	0.0160550
682.951	0.0158986
683.030	0.0160456
683.108	0.0160306
683.186	0.0161284
683.264	0.0161245
683.342	0.0159494
683.420	0.0161649
683.498	0.0160700
683.576	0.0160549
683.655	0.0163414
683.733	0.0162167
683.811	0.0161869
683.889	0.0162968
683.967	0.0163698
684.045	0.0164639
684.123	0.0161973
684.201	0.0163179
684.280	0.0162901
684.358	0.0163215
684.436	0.0163250
684.514	0.0162630
684.592	0.0161501
684.670	0.0161588
684.748	0.0161354
684.826	0.0159573
684.905	0.0162460
684.983	0.0160667
685.061	0.0158552
685.139	0.0158544
685.217	0.0159045
685.295	0.0158040
685.373	0.0159100
685.451	0.0157568
685.530	0.0159098
685.608	0.0159004
685.686	0.0159445
685.764	0.0159612
685.842	0.0160800
685.920	0.0160524
685.998	0.0161459
686.076	0.0162076
686.155	0.0162542
686.233	0.0163480
686.311	0.0164324
686.389	0.0164696
686.467	0.0165789
686.545	0.0164922
686.623	0.0165337
686.701	0.0167488
686.780	0.0166875
686.858	0.0167534
686.936	0.0167360
687.014	0.0168881
687.092	0.0168092
687.170	0.0168689
687.248	0.0168706
687.326	0.0166843
687.405	0.0167590
687.483	0.0168852
687.561	0.0168486
687.639	0.0167693
687.717	0.0166618
687.795	0.0166468
687.873	0.0168852
687.951	0.0167650
688.030	0.0167773
688.108	0.0168367
688.186	0.0167879
688.264	0.0167579
688.342	0.0168449
688.420	0.0167908
688.498	0.0168169
688.576	0.0167869
688.655	0.0167621
688.733	0.0165675
688.811	0.0166670
688.889	0.0165801
688.967	0.0165480
689.045	0.0165667
689.123	0.0166319
689.201	0.0164937
689.280	0.0164560
689.358	0.0164619
689.436	0.0165364
689.514	0.0165590
689.592	0.0164976
689.670	0.0165675
689.748	0.0165421
689.826	0.0164839
689.905	0.0163909
689.983	0.0163350
690.061	0.0165650
690.139	0.0164106
690.217	0.0164534
690.295	0.0164581
690.373	0.0163165
690.451	0.0164307
690.530	0.0162737
690.608	0.0163645
690.686	0.0164917
690.764	0.0164197
690.842	0.0163879
690.920	0.0164278
690.998	0.0165678
691.076	0.0165070
691.155	0.0165948
691.233	0.0166367
691.311	0.0166276
691.389	0.0168295
691.467	0.0167898
691.545	0.0169344
691.623	0.0170248
691.701	0.0170237
691.780	0.0170055
691.858	0.0170033
691.936	0.0170251
692.014	0.0170860
692.092	0.0169330
692.170	0.0169698
692.248	0.0170717
692.326	0.0169397
692.405	0.0168524
692.483	0.0169816
692.561	0.0168194
692.639	0.0166084
692.717	0.0166216
692.795	0.0167094
692.873	0.0165444
692.951	0.0163988
693.030	0.0164516
693.108	0.0163779
693.186	0.0164873
693.264	0.0163054
693.342	0.0162981
693.420	0.0164234
693.498	0.0163491
693.576	0.0164075
693.655	0.0163250
693.733	0.0162389
693.811	0.0162903
693.889	0.0161828
693.967	0.0163027
694.045	0.0162438
694.123	0.0162336
694.201	0.0162100
694.280	0.0162377
694.358	0.0160285
694.436	0.0160246
694.514	0.0159631
694.592	0.0158829
694.670	0.0158687
694.748	0.0158411
694.826	0.0157825
694.905	0.0159258
694.983	0.0158228
695.061	0.0157659
695.139	0.0158604
695.217	0.0156877
695.295	0.0158390
695.373	0.0159429
695.451	0.0159747
695.530	0.0159248
695.608	0.0160232
695.686	0.0159083
695.764	0.0159408
695.842	0.0161442
695.920	0.0161427
695.998	0.0162868
696.076	0.0161705
696.155	0.0163605
696.233	0.0164108
696.311	0.0164511
696.389	0.0165258
696.467	0.0165614
696.545	0.0163725
696.623	0.0165521
696.701	0.0165483
696.780	0.0165231
696.858	0.0164266
696.936	0.0165439
697.014	0.0166279
697.092	0.0165543
697.170	0.0166008
697.248	0.0164658
697.326	0.0164212
697.405	0.0165984
697.483	0.0166856
697.561	0.0166518
697.639	0.0164885
697.717	0.0165537
697.795	0.0166203
697.873	0.0165987
697.951	0.0166352
698.030	0.0165063
698.108	0.0165195
698.186	0.0165428
698.264	0.0163705
698.342	0.0164711
698.420	0.0164120
698.498	0.0165857
698.576	0.0165632
698.655	0.0165416
698.733	0.0165031
698.811	0.0165579
698.889	0.0163580
698.967	0.0164974
699.045	0.0165575
699.123	0.0166140
699.201	0.0165600
699.280	0.0167121
699.358	0.0167667
699.436	0.0166929
699.514	0.0167495
699.592	0.0167546
699.670	0.0168572
699.748	0.0167802
699.826	0.0168294
699.905	0.0169284
699.983	0.0169102
700.061	0.0169759
700.139	0.0169994
700.217	0.0170445
700.295	0.0171908
700.373	0.0172256
700.451	0.0172403
700.530	0.0171851
700.608	0.0171679
700.686	0.0172376
700.764	0.0173457
700.842	0.0172081
700.920	0.0172372
700.998	0.0171622
701.076	0.0173283
701.155	0.0173773
701.233	0.0172293
701.311	0.0171378
701.389	0.0172066
701.467	0.0171645
701.545	0.0170142
701.623	0.0169265
701.701	0.0168379
701.780	0.0169673
701.858	0.0168217
701.936	0.0168658
702.014	0.0166022
702.092	0.0165283
702.170	0.0166192
702.248	0.0165335
702.326	0.0164027
702.405	0.0163757
702.483	0.0162120
702.561	0.0162605
702.639	0.0162714
702.717	0.0160618
702.795	0.0161565
702.873	0.0161078
702.951	0.0160801
703.030	0.0158746
703.108	0.0159515
703.186	0.0159145
703.264	0.0159331
703.342	0.0158514
703.420	0.0157767
703.498	0.0158548
703.576	0.0156403
703.655	0.0157575
703.733	0.0156871
703.811	0.0156701
703.889	0.0156043
703.967	0.0156294
704.045	0.0156264
704.123	0.0156358
704.201	0.0158553
704.280	0.0155380
704.358	0.0157024
704.436	0.0157597
704.514	0.0157487
704.592	0.0158031
704.670	0.0157468
704.748	0.0158097
704.826	0.0159090
704.905	0.0158970
704.983	0.0159109
705.061	0.0159203
705.139	0.0160683
705.217	0.0159923
705.295	0.0161395
705.373	0.0163400
705.451	0.0161895
705.530	0.0163287
705.608	0.0164085
705.686	0.0164223
705.764	0.0163936
705.842	0.0165651
705.920	0.0164887
705.998	0.0164401
706.076	0.0164133
706.155	0.0166279
706.233	0.0164998
706.311	0.0164040
706.389	0.0165429
706.467	0.0164157
706.545	0.0164870
706.623	0.0164346
706.701	0.0164145
706.780	0.0164039
706.858	0.0164117
706.936	0.0164083
707.014	0.0164359
707.092	0.0164406
707.170	0.0165189
707.248	0.0165339
707.326	0.0165533
707.405	0.0164505
707.483	0.0165601
707.561	0.0164960
707.639	0.0167089
707.717	0.0167673
707.795	0.0166736
707.873	0.0166858
707.951	0.0165592
708.030	0.0165280
708.108	0.0167446
708.186	0.0167429
708.264	0.0167292
708.342	0.0165844
708.420	0.0167077
708.498	0.0166764
708.576	0.0168082
708.655	0.0168536
708.733	0.0168742
708.811	0.0170432
708.889	0.0168635
708.967	0.0169042
709.045	0.0170541
709.123	0.0169884
709.201	0.0169674
709.280	0.0169897
709.358	0.0169705
709.436	0.0169124
709.514	0.0168473
709.592	0.0168939
709.670	0.0169321
709.748	0.0169287
709.826	0.0168181
709.905	0.0167466
709.983	0.0167412
710.061	0.0169250
710.139	0.0167822
710.217	0.0168259
710.295	0.0169096
710.373	0.0167279
710.451	0.0167439
710.530	0.0168138
710.608	0.0168597
710.686	0.0168548
710.764	0.0170255
710.842	0.0169006
710.920	0.0167757
710.998	0.0167840
711.076	0.0168764
711.155	0.0167509
711.233	0.0168998
711.311	0.0167828
711.389	0.0167421
711.467	0.0167185
711.545	0.0168316
711.623	0.0166813
711.701	0.0166664
711.780	0.0166856
711.858	0.0166786
711.936	0.0166408
712.014	0.0164676
712.092	0.0164954
712.170	0.0165493
712.248	0.0163734
712.326	0.0164588
712.405	0.0163806
712.483	0.0162708
712.561	0.0162862
712.639	0.0164140
712.717	0.0163174
712.795	0.0161983
712.873	0.0161791
712.951	0.0162410
713.030	0.0161758
713.108	0.0160683
713.186	0.0161852
713.264	0.0160420
713.342	0.0162252
713.420	0.0160036
713.498	0.0158334
713.576	0.0160320
713.655	0.0158812
713.733	0.0158510
713.811	0.0158942
713.889	0.0157486
713.967	0.0157386
714.045	0.0157577
714.123	0.0157809
714.201	0.0157423
714.280	0.0156914
714.358	0.0156050
714.436	0.0157344
714.514	0.0156903
714.592	0.0157189
714.670	0.0160464
714.748	0.0158891
714.826	0.0160423
714.905	0.0160636
714.983	0.0161910
715.061	0.0161823
715.139	0.0162275
715.217	0.0163480
715.295	0.0164221
715.373	0.0162964
715.451	0.0164292
715.530	0.0164340
715.608	0.0165669
715.686	0.0166711
715.764	0.0165471
715.842	0.0165476
715.920	0.0166536
715.998	0.0165905
716.076	0.0166592
716.155	0.0167345
716.233	0.0168102
716.311	0.0168155
716.389	0.0167765
716.467	0.0167690
716.545	0.0169228
716.623	0.0168443
716.701	0.0168342
716.780	0.0168115
716.858	0.0166257
716.936	0.0165639
717.014	0.0164919
717.092	0.0166000
717.170	0.0165059
717.248	0.0164886
717.326	0.0163601
717.405	0.0163620
717.483	0.0164011
717.561	0.0162487
717.639	0.0162733
717.717	0.0164562
717.795	0.0162994
717.873	0.0161719
717.951	0.0161703
718.030	0.0165009
718.108	0.0163264
718.186	0.0161952
718.264	0.0161482
718.342	0.0163184
718.420	0.0162827
718.498	0.0163972
718.576	0.0164793
718.655	0.0164610
718.733	0.0165018
718.811	0.0164787
718.889	0.0166142
718.967	0.0167439
719.045	0.0166571
719.123	0.0167881
719.201	0.0167251
719.280	0.0166777
719.358	0.0167926
719.436	0.0167762
719.514	0.0167810
719.592	0.0167552
719.670	0.0168141
719.748	0.0168140
719.826	0.0167421
719.905	0.0166582
719.983	0.0167254
720.061	0.0166763
720.139	0.0166807
720.217	0.0167217
720.295	0.0166156
720.373	0.0165333
720.451	0.0165472
720.530	0.0163591
720.608	0.0163237
720.686	0.0162303
720.764	0.0163359
720.842	0.0162070
720.920	0.0160791
720.998	0.0160910
721.076	0.0159074
721.155	0.0158125
721.233	0.0160640
721.311	0.0161019
721.389	0.0162091
721.467	0.0161234
721.545	0.0159784
721.623	0.0161172
721.701	0.0162244
721.780	0.0163450
721.858	0.0162639
721.936	0.0164677
722.014	0.0164234
722.092	0.0164536
722.170	0.0164129
722.248	0.0164050
722.326	0.0165179
722.405	0.0165005
722.483	0.0164759
722.561	0.0162837
722.639	0.0162636
722.717	0.0163774
722.795	0.0163798
722.873	0.0162128
722.951	0.0163094
723.030	0.0163437
723.108	0.0161983
723.186	0.0163834
723.264	0.0164285
723.342	0.0164491
723.420	0.0165182
723.498	0.0165524
723.576	0.0166240
723.655	0.0165679
723.733	0.0167307
723.811	0.0167107
723.889	0.0167174
723.967	0.0168029
724.045	0.0167569
724.123	0.0166641
724.201	0.0166920
724.280	0.0167554
724.358	0.0166010
724.436	0.0165058
724.514	0.0164826
724.592	0.0165470
724.670	0.0165240
724.748	0.0165162
724.826	0.0165266
724.905	0.0165776
724.983	0.0167066
725.061	0.0165604
725.139	0.0166685
725.217	0.0167324
725.295	0.0167759
725.373	0.0166268
725.451	0.0166418
725.530	0.0166258
725.608	0.0166850
725.686	0.0165405
725.764	0.0165523
725.842	0.0168038
725.920	0.0165691
725.998	0.0165833
726.076	0.0164740
726.155	0.0164878
726.233	0.0165965
726.311	0.0165658
726.389	0.0166585
726.467	0.0164359
726.545	0.0165111
726.623	0.0166184
726.701	0.0164671
726.780	0.0164409
726.858	0.0164799
726.936	0.0166047
727.014	0.0165051
727.092	0.0165461
727.170	0.0167878
727.248	0.0166566
727.326	0.0166782
727.405	0.0166606
727.483	0.0166978
727.561	0.0166239
727.639	0.0166974
727.717	0.0165518
727.795	0.0165212
727.873	0.0166093
727.951	0.0165608
728.030	0.0163879
728.108	0.0165529
728.186	0.0163967
728.264	0.0163353
728.342	0.0163426
728.420	0.0162497
728.498	0.0163081
728.576	0.0164104
728.655	0.0162837
728.733	0.0164214
728.811	0.0162691
728.889	0.0162260
728.967	0.0161992
729.045	0.0162557
729.123	0.0160812
729.201	0.0161053
729.280	0.0162935
729.358	0.0162378
729.436	0.0163416
729.514	0.0162642
729.592	0.0162794
729.670	0.0163574
729.748	0.0162885
729.826	0.0163547
729.905	0.0164327
729.983	0.0164195
730.061	0.0164296
730.139	0.0164599
730.217	0.0164856
730.295	0.0167419
730.373	0.0165087
730.451	0.0167547
730.530	0.0166940
730.608	0.0166315
730.686	0.0166257
730.764	0.0168138
730.842	0.0167586
730.920	0.0166825
730.998	0.0167458
731.076	0.0167360
731.155	0.0165762
731.233	0.0166401
731.311	0.0167774
731.389	0.0165336
731.467	0.0165244
731.545	0.0164807
731.623	0.0163984
731.701	0.0165092
731.780	0.0164936
731.858	0.0163296
731.936	0.0164874
732.014	0.0164095
732.092	0.0163101
732.170	0.0163346
732.248	0.0162370
732.326	0.0162249
732.405	0.0161738
732.483	0.0160208
732.561	0.0159743
732.639	0.0159605
732.717	0.0159167
732.795	0.0157004
732.873	0.0157452
732.951	0.0156513
733.030	0.0158986
733.108	0.0157138
733.186	0.0155199
733.264	0.0156261
733.342	0.0156606
733.420	0.0157943
733.498	0.0157964
733.576	0.0158910
733.655	0.0159931
733.733	0.0160503
733.811	0.0162247
733.889	0.0163393
733.967	0.0162607
734.045	0.0164288
734.123	0.0164342
734.201	0.0167131
734.280	0.0168640
734.358	0.0170579
734.436	0.0167854
734.514	0.0170014
734.592	0.0170668
734.670	0.0171152
734.748	0.0171170
734.826	0.0169515
734.905	0.0168550
734.983	0.0168460
735.061	0.0168922
735.139	0.0168658
735.217	0.0168465
735.295	0.0167580
735.373	0.0166917
735.451	0.0166569
735.530	0.0166508
735.608	0.0166956
735.686	0.0166715
735.764	0.0166824
735.842	0.0167669
735.920	0.0166138
735.998	0.0166146
736.076	0.0166257
736.155	0.0166145
736.233	0.0165124
736.311	0.0165765
736.389	0.0163763
736.467	0.0162476
736.545	0.0161346
736.623	0.0162782
736.701	0.0162177
736.780	0.0161458
736.858	0.0160440
736.936	0.0160110
737.014	0.0159068
737.092	0.0159490
737.170	0.0159110
737.248	0.0159831
737.326	0.0157761
737.405	0.0159294
737.483	0.0159057
737.561	0.0158693
737.639	0.0160264
737.717	0.0158207
737.795	0.0159052
737.873	0.0157883
737.951	0.0159222
738.030	0.0159492
738.108	0.0159258
738.186	0.0158176
738.264	0.0158598
738.342	0.0158797
738.420	0.0158453
738.498	0.0158085
738.576	0.0159097
738.655	0.0158929
738.733	0.0158785
738.811	0.0159480
738.889	0.0160800
738.967	0.0160807
739.045	0.0159921
739.123	0.0161246
739.201	0.0161785
739.280	0.0162257
739.358	0.0162885
739.436	0.0162296
739.514	0.0163113
739.592	0.0162534
739.670	0.0162226
739.748	0.0161349
739.826	0.0161518
739.905	0.0161432
739.983	0.0163326
740.061	0.0161669
740.139	0.0162016
740.217	0.0160345
740.295	0.0161886
740.373	0.0162149
740.451	0.0161152
740.530	0.0160320
740.608	0.0161671
740.686	0.0162177
740.764	0.0161157
740.842	0.0161654
740.920	0.0160831
740.998	0.0160500
741.076	0.0162415
741.155	0.0161667
741.233	0.0161254
741.311	0.0160397
741.389	0.0159720
741.467	0.0161414
741.545	0.0162682
741.623	0.0162356
741.701	0.0162322
741.780	0.0162520
741.858	0.0164453
741.936	0.0166518
742.014	0.0166964
742.092	0.0167081
742.170	0.0169536
742.248	0.0169674
742.326	0.0169131
742.405	0.0170972
742.483	0.0168736
742.561	0.0171140
742.639	0.0170398
742.717	0.0169749
742.795	0.0169067
742.873	0.0169061
742.951	0.0168140
743.030	0.0168711
743.108	0.0169139
743.186	0.0167882
743.264	0.0166883
743.342	0.0167327
743.420	0.0166435
743.498	0.0165820
743.576	0.0166201
743.655	0.0167770
743.733	0.0167245
743.811	0.0166502
743.889	0.0168261
743.967	0.0166724
744.045	0.0166828
744.123	0.0168261
744.201	0.0167186
744.280	0.0166763
744.358	0.0166490
744.436	0.0166142
744.514	0.0166122
744.592	0.0166892
744.670	0.0164625
744.748	0.0165324
744.826	0.0163923
744.905	0.0163712
744.983	0.0162646
745.061	0.0161917
745.139	0.0163509
745.217	0.0162223
745.295	0.0161329
745.373	0.0160989
745.451	0.0161066
745.530	0.0159135
745.608	0.0158863
745.686	0.0158514
745.764	0.0158813
745.842	0.0158824
745.920	0.0157040
745.998	0.0158223
746.076	0.0157841
746.155	0.0157352
746.233	0.0157346
746.311	0.0157713
746.389	0.0159379
746.467	0.0158875
746.545	0.0158521
746.623	0.0158851
746.701	0.0160456
746.780	0.0160398
746.858	0.0160126
746.936	0.0161189
747.014	0.0160721
747.092	0.0160348
747.170	0.0163171
747.248	0.0162674
747.326	0.0162148
747.405	0.0163119
747.483	0.0162102
747.561	0.0163768
747.639	0.0163703
747.717	0.0163491
747.795	0.0162841
747.873	0.0162952
747.951	0.0163719
748.030	0.0164323
748.108	0.0164286
748.186	0.0164500
748.264	0.0162966
748.342	0.0163914
748.420	0.0164265
748.498	0.0165113
748.576	0.0164742
748.655	0.0164976
748.733	0.0165621
748.811	0.0164593
748.889	0.0163889
748.967	0.0164562
749.045	0.0166455
749.123	0.0165583
749.201	0.0165608
749.280	0.0166794
749.358	0.0166145
749.436	0.0167426
749.514	0.0168150
749.592	0.0169386
749.670	0.0169013
749.748	0.0167985
749.826	0.0168665
749.905	0.0169371
749.983	0.0169018
750.061	0.0169199
750.139	0.0168874
750.217	0.0169362
750.295	0.0168106
750.373	0.0166446
750.451	0.0166917
750.530	0.0167337
750.608	0.0166480
750.686	0.0165485
750.764	0.0164484
750.842	0.0163969
750.920	0.0163005
750.998	0.0163228
751.076	0.0163549
751.155	0.0163564
751.233	0.0162041
751.311	0.0163044
751.389	0.0162350
751.467	0.0162713
751.545	0.0162975
751.623	0.0162231
751.701	0.0165009
751.780	0.0164095
751.858	0.0164503
751.936	0.0162946
752.014	0.0164130
752.092	0.0164491
752.170	0.0162688
752.248	0.0165614
752.326	0.0165694
752.405	0.0165295
752.483	0.0165479
752.561	0.0163728
752.639	0.0163725
752.717	0.0163493
752.795	0.0163772
752.873	0.0163220
752.951	0.0163666
753.030	0.0164191
753.108	0.0164470
753.186	0.0163765
753.264	0.0164449
753.342	0.0165115
753.420	0.0166424
753.498	0.0165920
753.576	0.0165472
753.655	0.0165382
753.733	0.0165221
753.811	0.0165668
753.889	0.0166636
753.967	0.0165261
754.045	0.0165117
754.123	0.0166425
754.201	0.0166195
754.280	0.0164624
754.358	0.0164581
754.436	0.0165854
754.514	0.0165118
754.592	0.0165964
754.670	0.0165160
754.748	0.0164684
754.826	0.0166083
754.905	0.0165670
754.983	0.0165901
755.061	0.0165930
755.139	0.0165562
755.217	0.0166792
755.295	0.0166446
755.373	0.0165133
755.451	0.0166693
755.530	0.0167341
755.608	0.0167149
755.686	0.0166525
755.764	0.0166765
755.842	0.0166241
755.920	0.0167493
755.998	0.0166700
756.076	0.0165887
756.155	0.0168771
756.233	0.0167670
756.311	0.0167710
756.389	0.0166258
756.467	0.0165977
756.545	0.0167696
756.623	0.0165885
756.701	0.0165384
756.780	0.0165611
756.858	0.0166981
756.936	0.0166994
757.014	0.0165079
757.092	0.0166251
757.170	0.0167181
757.248	0.0167395
757.326	0.0167579
757.405	0.0168331
757.483	0.0168042
757.561	0.0168488
757.639	0.0165851
757.717	0.0166616
757.795	0.0167990
757.873	0.0166157
757.951	0.0165898
758.030	0.0167110
758.108	0.0165264
758.186	0.0164877
758.264	0.0162459
758.342	0.0161384
758.420	0.0162306
758.498	0.0162135
758.576	0.0160526
758.655	0.0161295
758.733	0.0161137
758.811	0.0159285
758.889	0.0160955
758.967	0.0161223
759.045	0.0160381
759.123	0.0160553
759.201	0.0158788
759.280	0.0158840
759.358	0.0159760
759.436	0.0159953
759.514	0.0160210
759.592	0.0158917
759.670	0.0159323
759.748	0.0158401
759.826	0.0159185
759.905	0.0157506
759.983	0.0157433
760.061	0.0158038
760.139	0.0156742
760.217	0.0158681
760.295	0.0159673
760.373	0.0159092
760.451	0.0159193
760.530	0.0161422
760.608	0.0160574
760.686	0.0160029
760.764	0.0162371
760.842	0.0161115
760.920	0.0160373
760.998	0.0162225
761.076	0.0160932
761.155	0.0161176
761.233	0.0161759
761.311	0.0160959
761.389	0.0161472
761.467	0.0162814
761.545	0.0164536
761.623	0.0162659
761.701	0.0162643
761.780	0.0165100
761.858	0.0165797
761.936	0.0166744
762.014	0.0165351
762.092	0.0163443
762.170	0.0165050
762.248	0.0166092
762.326	0.0164109
762.405	0.0163992
762.483	0.0164616
762.561	0.0161819
762.639	0.0161436
762.717	0.0163429
762.795	0.0159795
762.873	0.0160783
762.951	0.0160545
763.030	0.0160564
763.108	0.0160997
763.186	0.0159017
763.264	0.0160213
763.342	0.0161655
763.420	0.0161527
763.498	0.0162128
763.576	0.0161309
763.655	0.0161581
763.733	0.0163317
763.811	0.0162835
763.889	0.0161094
763.967	0.0161682
764.045	0.0161124
764.123	0.0160631
764.201	0.0160285
764.280	0.0160493
764.358	0.0159607
764.436	0.0160270
764.514	0.0160356
764.592	0.0159812
764.670	0.0161424
764.748	0.0161012
764.826	0.0160620
764.905	0.0161242
764.983	0.0161311
765.061	0.0162200
765.139	0.0161706
765.217	0.0161816
765.295	0.0161483
765.373	0.0163177
765.451	0.0162444
765.530	0.0162829
765.608	0.0163108
765.686	0.0163172
765.764	0.0163415
765.842	0.0162129
765.920	0.0163339
765.998	0.0164052
766.076	0.0164078
766.155	0.0164461
766.233	0.0164371
766.311	0.0164656
766.389	0.0163978
766.467	0.0164800
766.545	0.0165529
766.623	0.0165939
766.701	0.0166122
766.780	0.0165546
766.858	0.0165423
766.936	0.0165490
767.014	0.0164828
767.092	0.0164735
767.170	0.0165968
767.248	0.0164623
767.326	0.0163641
767.405	0.0163298
767.483	0.0162953
767.561	0.0162016
767.639	0.0160696
767.717	0.0159974
767.795	0.0158228
767.873	0.0158638
767.951	0.0159007
768.030	0.0158511
768.108	0.0160555
768.186	0.0160322
768.264	0.0160710
768.342	0.0160852
768.420	0.0163363
768.498	0.0164413
768.576	0.0166162
768.655	0.0168865
768.733	0.0169539
768.811	0.0168760
768.889	0.0169675
768.967	0.0171645
769.045	0.0169846
769.123	0.0168845
769.201	0.0167472
769.280	0.0165308
769.358	0.0163514
769.436	0.0160128
769.514	0.0158687
769.592	0.0157473
769.670	0.0154807
769.748	0.0154211
769.826	0.0154869
769.905	0.0152762
769.983	0.0153387
770.061	0.0152522
770.139	0.0152872
770.217	0.0154125
770.295	0.0158383
770.373	0.0160267
770.451	0.0160867
770.530	0.0163116
770.608	0.0164219
770.686	0.0165781
770.764	0.0165652
770.842	0.0167551
770.920	0.0167902
770.998	0.0168365
771.076	0.0169945
771.155	0.0168484
771.233	0.0169032
771.311	0.0166492
771.389	0.0167091
771.467	0.0166199
771.545	0.0164824
771.623	0.0166076
771.701	0.0165080
771.780	0.0164889
771.858	0.0164359
771.936	0.0164124
772.014	0.0163776
772.092	0.0164227
772.170	0.0164252
772.248	0.0163842
772.326	0.0164156
772.405	0.0164635
772.483	0.0165424
772.561	0.0164788
772.639	0.0166276
772.717	0.0166518
772.795	0.0165707
772.873	0.0166900
772.951	0.0167782
773.030	0.0168790
773.108	0.0168793
773.186	0.0169176
773.264	0.0169631
773.342	0.0171100
773.420	0.0170731
773.498	0.0170315
773.576	0.0171968
773.655	0.0171771
773.733	0.0171476
773.811	0.0171681
773.889	0.0170970
773.967	0.0171777
774.045	0.0172057
774.123	0.0172311
774.201	0.0170687
774.280	0.0170829
774.358	0.0170708
774.436	0.0172218
774.514	0.0172115
774.592	0.0171730
774.670	0.0172095
774.748	0.0171260
774.826	0.0171753
774.905	0.0171523
774.983	0.0172189
775.061	0.0171424
775.139	0.0170042
775.217	0.0169598
775.295	0.0169553
775.373	0.0168280
775.451	0.0167440
775.530	0.0167574
775.608	0.0165107
775.686	0.0165910
775.764	0.0165119
775.842	0.0163630
775.920	0.0162054
775.998	0.0162779
776.076	0.0162295
776.155	0.0161250
776.233	0.0161365
776.311	0.0163238
776.389	0.0161927
776.467	0.0160522
776.545	0.0160807
776.623	0.0161103
776.701	0.0160831
776.780	0.0159641
776.858	0.0160335
776.936	0.0160291
777.014	0.0159588
777.092	0.0159845
777.170	0.0161105
777.248	0.0160530
777.326	0.0159974
777.405	0.0159650
777.483	0.0160596
777.561	0.0158620
777.639	0.0159212
777.717	0.0159403
777.795	0.0157354
777.873	0.0157951
777.951	0.0159241
778.030	0.0158410
778.108	0.0157498
778.186	0.0158494
778.264	0.0159194
778.342	0.0159267
778.420	0.0159904
778.498	0.0160789
778.576	0.0160557
778.655	0.0161794
778.733	0.0161750
778.811	0.0161847
778.889	0.0162147
778.967	0.0163102
779.045	0.0164002
779.123	0.0164058
779.201	0.0164368
779.280	0.0164664
779.358	0.0164979
779.436	0.0166007
779.514	0.0166107
779.592	0.0164552
779.670	0.0166043
779.748	0.0166254
779.826	0.0166513
779.905	0.0167364
779.983	0.0166594
780.061	0.0166918
780.139	0.0165755
780.217	0.0165575
780.295	0.0164880
780.373	0.0165384
780.451	0.0164949
780.530	0.0164454
780.608	0.0165996
780.686	0.0164091
780.764	0.0164990
780.842	0.0165726
780.920	0.0164787
780.998	0.0165656
781.076	0.0164462
781.155	0.0166491
781.233	0.0166050
781.311	0.0164034
781.389	0.0165476
781.467	0.0165871
781.545	0.0163861
781.623	0.0164124
781.701	0.0164036
781.780	0.0164271
781.858	0.0164195
781.936	0.0163052
782.014	0.0162842
782.092	0.0162134
782.170	0.0160938
782.248	0.0162198
782.326	0.0161660
782.405	0.0162652
782.483	0.0162316
782.561	0.0161770
782.639	0.0162089
782.717	0.0162969
782.795	0.0163015
782.873	0.0161842
782.951	0.0161740
783.030	0.0160837
783.108	0.0163425
783.186	0.0163775
783.264	0.0162541
783.342	0.0162283
783.420	0.0163289
783.498	0.0163474
783.576	0.0162794
783.655	0.0162988
783.733	0.0165015
783.811	0.0163974
783.889	0.0163442
783.967	0.0164133
784.045	0.0164291
784.123	0.0163752
784.201	0.0162854
784.280	0.0162294
784.358	0.0162417
784.436	0.0161749
784.514	0.0161961
784.592	0.0160017
784.670	0.0160769
784.748	0.0159782
784.826	0.0159333
784.905	0.0159569
784.983	0.0157543
785.061	0.0158015
785.139	0.0157706
785.217	0.0159243
785.295	0.0157451
785.373	0.0158622
785.451	0.0159066
785.530	0.0157561
785.608	0.0158028
785.686	0.0158353
785.764	0.0160569
785.842	0.0159991
785.920	0.0159871
785.998	0.0159323
786.076	0.0159203
786.155	0.0159102
786.233	0.0160687
786.311	0.0159566
786.389	0.0159580
786.467	0.0159531
786.545	0.0161279
786.623	0.0159024
786.701	0.0159265
786.780	0.0160036
786.858	0.0160762
786.936	0.0161652
787.014	0.0161619
787.092	0.0162577
787.170	0.0164552
787.248	0.0164162
787.326	0.0165523
787.405	0.0166445
787.483	0.0166180
787.561	0.0166790
787.639	0.0167413
787.717	0.0168911
787.795	0.0168575
787.873	0.0169170
787.951	0.0170955
788.030	0.0169387
788.108	0.0168943
788.186	0.0168854
788.264	0.0170603
788.342	0.0169631
788.420	0.0169757
788.498	0.0169936
788.576	0.0169909
788.655	0.0172645
788.733	0.0171788
788.811	0.0172811
788.889	0.0173634
788.967	0.0173736
789.045	0.0175435
789.123	0.0176238
789.201	0.0174447
789.280	0.0176086
789.358	0.0176854
789.436	0.0175869
789.514	0.0175320
789.592	0.0175559
789.670	0.0174066
789.748	0.0174709
789.826	0.0173702
789.905	0.0172935
789.983	0.0172707
790.061	0.0171597
790.139	0.0171241
790.217	0.0170122
790.295	0.0168855
790.373	0.0168501
790.451	0.0168050
790.530	0.0167660
790.608	0.0169036
790.686	0.0167232
790.764	0.0167314
790.842	0.0166181
790.920	0.0164929
790.998	0.0166571
791.076	0.0165803
791.155	0.0167073
791.233	0.0163130
791.311	0.0163800
791.389	0.0164410
791.467	0.0163467
791.545	0.0162889
791.623	0.0161926
791.701	0.0162093
791.780	0.0162112
791.858	0.0161771
791.936	0.0162327
792.014	0.0162800
792.092	0.0160774
792.170	0.0161251
792.248	0.0160923
792.326	0.0161964
792.405	0.0162229
792.483	0.0162594
792.561	0.0160433
792.639	0.0159956
792.717	0.0159846
792.795	0.0159431
792.873	0.0158482
792.951	0.0157353
793.030	0.0157384
793.108	0.0154935
793.186	0.0154774
793.264	0.0157100
793.342	0.0154893
793.420	0.0154314
793.498	0.0153318
793.576	0.0154465
793.655	0.0153470
793.733	0.0152908
793.811	0.0155510
793.889	0.0154493
793.967	0.0153387
794.045	0.0154682
794.123	0.0154472
794.201	0.0154905
794.280	0.0155576
794.358	0.0155846
794.436	0.0157236
794.514	0.0158089
794.592	0.0156419
794.670	0.0157881
794.748	0.0159840
794.826	0.0158832
794.905	0.0159720
794.983	0.0159674
795.061	0.0160233
795.139	0.0162358
795.217	0.0161127
795.295	0.0162187
795.373	0.0161674
795.451	0.0162836
795.530	0.0162885
795.608	0.0165019
795.686	0.0164822
795.764	0.0164048
795.842	0.0165426
795.920	0.0168109
795.998	0.0167045
796.076	0.0167643
796.155	0.0169144
796.233	0.0169483
796.311	0.0169174
796.389	0.0169549
796.467	0.0170904
796.545	0.0171706
796.623	0.0171486
796.701	0.0171078
796.780	0.0170177
796.858	0.0169308
796.936	0.0169134
797.014	0.0170165
797.092	0.0168462
797.170	0.0168808
797.248	0.0167126
797.326	0.0168166
797.405	0.0167044
797.483	0.0167657
797.561	0.0166356
797.639	0.0169398
797.717	0.0167554
797.795	0.0167362
797.873	0.0168372
797.951	0.0169567
798.030	0.0167833
798.108	0.0167826
798.186	0.0168259
798.264	0.0168134
798.342	0.0168083
798.420	0.0169318
798.498	0.0168707
798.576	0.0168367
798.655	0.0170715
798.733	0.0168281
798.811	0.0167729
798.889	0.0168362
798.967	0.0167776
799.045	0.0167825
799.123	0.0166788
799.201	0.0167297
799.280	0.0168322
799.358	0.0166973
799.436	0.0166766
799.514	0.0167660
799.592	0.0167051
799.670	0.0166600
799.748	0.0166299
799.826	0.0165874
799.905	0.0166798
799.983	0.0166668
800.061	0.0166486
800.139	0.0166132
800.217	0.0166495
800.295	0.0167531
800.373	0.0166251
800.451	0.0167241
800.530	0.0165075
800.608	0.0165345
800.686	0.0165157
800.764	0.0165179
800.842	0.0164098
800.920	0.0164359
800.998	0.0164297
801.076	0.0163980
801.155	0.0162122
801.233	0.0162632
801.311	0.0162714
801.389	0.0161681
801.467	0.0160771
801.545	0.0160357
801.623	0.0160908
801.701	0.0161642
801.780	0.0161412
801.858	0.0162073
801.936	0.0162254
802.014	0.0162194
802.092	0.0162263
802.170	0.0163368
802.248	0.0164986
802.326	0.0164941
802.405	0.0165760
802.483	0.0166146
802.561	0.0167210
802.639	0.0166800
802.717	0.0166366
802.795	0.0166355
802.873	0.0166435
802.951	0.0165858
803.030	0.0167550
803.108	0.0166416
803.186	0.0166821
803.264	0.0166899
803.342	0.0166706
803.420	0.0167145
803.498	0.0166613
803.576	0.0165679
803.655	0.0165849
803.733	0.0167816
803.811	0.0168076
803.889	0.0166133
803.967	0.0166454
804.045	0.0167458
804.123	0.0165947
804.201	0.0165667
804.280	0.0166048
804.358	0.0165131
804.436	0.0165781
804.514	0.0164316
804.592	0.0165656
804.670	0.0165285
804.748	0.0162448
804.826	0.0163100
804.905	0.0163134
804.983	0.0162125
805.061	0.0162125
805.139	0.0161514
805.217	0.0161398
805.295	0.0160963
805.373	0.0159772
805.451	0.0159990
805.530	0.0161268
805.608	0.0160337
805.686	0.0160275
805.764	0.0159460
805.842	0.0158315
805.920	0.0159613
805.998	0.0160125
806.076	0.0158754
806.155	0.0158958
806.233	0.0160410
806.311	0.0159472
806.389	0.0158710
806.467	0.0160188
806.545	0.0160224
806.623	0.0159753
806.701	0.0160585
806.780	0.0159555
806.858	0.0158955
806.936	0.0159773
807.014	0.0159608
807.092	0.0160783
807.170	0.0159085
807.248	0.0160149
807.326	0.0160714
807.405	0.0161096
807.483	0.0161474
807.561	0.0161662
807.639	0.0161756
807.717	0.0160736
807.795	0.0161284
807.873	0.0160236
807.951	0.0160917
808.030	0.0162888
808.108	0.0162759
808.186	0.0161718
808.264	0.0163018
808.342	0.0164301
808.420	0.0163786
808.498	0.0163628
808.576	0.0166057
808.655	0.0164439
808.733	0.0164008
808.811	0.0166228
808.889	0.0164539
808.967	0.0165697
809.045	0.0167388
809.123	0.0167559
809.201	0.0167399
809.280	0.0168797
809.358	0.0167194
809.436	0.0167693
809.514	0.0167812
809.592	0.0167717
809.670	0.0169377
809.748	0.0167696
809.826	0.0167870
809.905	0.0168284
809.983	0.0167886
810.061	0.0167306
810.139	0.0166862
810.217	0.0168505
810.295	0.0167075
810.373	0.0166093
810.451	0.0166735
810.530	0.0168035
810.608	0.0168468
810.686	0.0167957
810.764	0.0168034
810.842	0.0168826
810.920	0.0168754
810.998	0.0169508
811.076	0.0169552
811.155	0.0171581
811.233	0.0172209
811.311	0.0171833
811.389	0.0172349
811.467	0.0171494
811.545	0.0171759
811.623	0.0172112
811.701	0.0170165
811.780	0.0171335
811.858	0.0172433
811.936	0.0172300
812.014	0.0171861
812.092	0.0171861
812.170	0.0170929
812.248	0.0171088
812.326	0.0171065
812.405	0.0170629
812.483	0.0167784
812.561	0.0168156
812.639	0.0169475
812.717	0.0168304
812.795	0.0166514
812.873	0.0166843
812.951	0.0165508
813.030	0.0165100
813.108	0.0165023
813.186	0.0164571
813.264	0.0163769
813.342	0.0164120
813.420	0.0163594
813.498	0.0162399
813.576	0.0164219
813.655	0.0163826
813.733	0.0163001
813.811	0.0161726
813.889	0.0162838
813.967	0.0161957
814.045	0.0162560
814.123	0.0164130
814.201	0.0161755
814.280	0.0161364
814.358	0.0162625
814.436	0.0163161
814.514	0.0162647
814.592	0.0162521
814.670	0.0160530
814.748	0.0160785
814.826	0.0162499
814.905	0.0163023
814.983	0.0162176
815.061	0.0162527
815.139	0.0162910
815.217	0.0163109
815.295	0.0160914
815.373	0.0161741
815.451	0.0162487
815.530	0.0162276
815.608	0.0161614
815.686	0.0161794
815.764	0.0162705
815.842	0.0163345
815.920	0.0163711
815.998	0.0164004
816.076	0.0165508
816.155	0.0164596
816.233	0.0163720
816.311	0.0164288
816.389	0.0166245
816.467	0.0166639
816.545	0.0164954
816.623	0.0166057
816.701	0.0166082
816.780	0.0166096
816.858	0.0167080
816.936	0.0167853
817.014	0.0166772
817.092	0.0166999
817.170	0.0167847
817.248	0.0167682
817.326	0.0169467
817.405	0.0167535
817.483	0.0168209
817.561	0.0167327
817.639	0.0165275
817.717	0.0165922
817.795	0.0165157
817.873	0.0164618
817.951	0.0163142
818.030	0.0163261
818.108	0.0162668
818.186	0.0163229
818.264	0.0162975
818.342	0.0162613
818.420	0.0161504
818.498	0.0161857
818.576	0.0162807
818.655	0.0161111
818.733	0.0162888
818.811	0.0162884
818.889	0.0163864
818.967	0.0163799
819.045	0.0164074
819.123	0.0166000
819.201	0.0163973
819.280	0.0164295
819.358	0.0165451
819.436	0.0165914
819.514	0.0166682
819.592	0.0165803
819.670	0.0166531
819.748	0.0166587
819.826	0.0166225
819.905	0.0165858
819.983	0.0166212
820.061	0.0166297
820.139	0.0165665
820.217	0.0166492
820.295	0.0164789
820.373	0.0165694
820.451	0.0163171
820.530	0.0163962
820.608	0.0163636
820.686	0.0162709
820.764	0.0163342
820.842	0.0163640
820.920	0.0163251
820.998	0.0163233
821.076	0.0162108
821.155	0.0161960
821.233	0.0162234
821.311	0.0162431
821.389	0.0160665
821.467	0.0161070
821.545	0.0160114
821.623	0.0161587
821.701	0.0160051
821.780	0.0162372
821.858	0.0161243
821.936	0.0159794
822.014	0.0162197
822.092	0.0160680
822.170	0.0159710
822.248	0.0159603
822.326	0.0160468
822.405	0.0160039
822.483	0.0159856
822.561	0.0160128
822.639	0.0160419
822.717	0.0158447
822.795	0.0159281
822.873	0.0160534
822.951	0.0160817
823.030	0.0161188
823.108	0.0160336
823.186	0.0162195
823.264	0.0162677
823.342	0.0163010
823.420	0.0163981
823.498	0.0164417
823.576	0.0164458
823.655	0.0165647
823.733	0.0167347
823.811	0.0166779
823.889	0.0166377
823.967	0.0166911
824.045	0.0166584
824.123	0.0167770
824.201	0.0167589
824.280	0.0166562
824.358	0.0166982
824.436	0.0166750
824.514	0.0166774
824.592	0.0166353
824.670	0.0166061
824.748	0.0165518
824.826	0.0165880
824.905	0.0164792
824.983	0.0165411
825.061	0.0165070
825.139	0.0163681
825.217	0.0163428
825.295	0.0163737
825.373	0.0165426
825.451	0.0165322
825.530	0.0163873
825.608	0.0165804
825.686	0.0165192
825.764	0.0164211
825.842	0.0164327
825.920	0.0163451
825.998	0.0164147
826.076	0.0161989
826.155	0.0162895
826.233	0.0162394
826.311	0.0160889
826.389	0.0159713
826.467	0.0160188
826.545	0.0159846
826.623	0.0158313
826.701	0.0158643
826.780	0.0156793
826.858	0.0157021
826.936	0.0156686
827.014	0.0156309
827.092	0.0156631
827.170	0.0156232
827.248	0.0154003
827.326	0.0155728
827.405	0.0157493
827.483	0.0155707
827.561	0.0155364
827.639	0.0155650
827.717	0.0155818
827.795	0.0156876
827.873	0.0157278
827.951	0.0157649
828.030	0.0157377
828.108	0.0157169
828.186	0.0157380
828.264	0.0158994
828.342	0.0158990
828.420	0.0159627
828.498	0.0158137
828.576	0.0159290
828.655	0.0160145
828.733	0.0159562
828.811	0.0159990
828.889	0.0162239
828.967	0.0161068
829.045	0.0160793
829.123	0.0162798
829.201	0.0164038
829.280	0.0163384
829.358	0.0164246
829.436	0.0166370
829.514	0.0165504
829.592	0.0167146
829.670	0.0167284
829.748	0.0167667
829.826	0.0168333
829.905	0.0167774
829.983	0.0169200
830.061	0.0168610
830.139	0.0168573
830.217	0.0169310
830.295	0.0169580
830.373	0.0170361
830.451	0.0170250
830.530	0.0169353
830.608	0.0170386
830.686	0.0169001
830.764	0.0169444
830.842	0.0169743
830.920	0.0170249
830.998	0.0170292
831.076	0.0168314
831.155	0.0170676
831.233	0.0169626
831.311	0.0169524
831.389	0.0169987
831.467	0.0169827
831.545	0.0170397
831.623	0.0169920
831.701	0.0170023
831.780	0.0169747
831.858	0.0169637
831.936	0.0170343
832.014	0.0169846
832.092	0.0170255
832.170	0.0171221
832.248	0.0171731
832.326	0.0170324
832.405	0.0170071
832.483	0.0169335
832.561	0.0171420
832.639	0.0169838
832.717	0.0170588
832.795	0.0168635
832.873	0.0167793
832.951	0.0169005
833.030	0.0167432
833.108	0.0166331
833.186	0.0167284
833.264	0.0164462
833.342	0.0165841
833.420	0.0163899
833.498	0.0163915
833.576	0.0162755
833.655	0.0162766
833.733	0.0162985
833.811	0.0160744
833.889	0.0161618
833.967	0.0161412
834.045	0.0159613
834.123	0.0160892
834.201	0.0162018
834.280	0.0160809
834.358	0.0161176
834.436	0.0161769
834.514	0.0160889
834.592	0.0161839
834.670	0.0160480
834.748	0.0162492
834.826	0.0162118
834.905	0.0162024
834.983	0.0162912
835.061	0.0163162
835.139	0.0163116
835.217	0.0162885
835.295	0.0164471
835.373	0.0163654
835.451	0.0164056
835.530	0.0164198
835.608	0.0163588
835.686	0.0165643
835.764	0.0164304
835.842	0.0164262
835.920	0.0164442
835.998	0.0164792
836.076	0.0165517
836.155	0.0164851
836.233	0.0165305
836.311	0.0165656
836.389	0.0164980
836.467	0.0164960
836.545	0.0166933
836.623	0.0166586
836.701	0.0166574
836.780	0.0166206
836.858	0.0166868
836.936	0.0166700
837.014	0.0166350
837.092	0.0166412
837.170	0.0165034
837.248	0.0166515
837.326	0.0165747
837.405	0.0164551
837.483	0.0165395
837.561	0.0165329
837.639	0.0164302
837.717	0.0165453
837.795	0.0164218
837.873	0.0164794
837.951	0.0164373
838.030	0.0164116
838.108	0.0164449
838.186	0.0164211
838.264	0.0164713
838.342	0.0163544
838.420	0.0164360
838.498	0.0164985
838.576	0.0164670
838.655	0.0162065
838.733	0.0163383
838.811	0.0164769
838.889	0.0163324
838.967	0.0164873
839.045	0.0164748
839.123	0.0163274
839.201	0.0164962
839.280	0.0163811
839.358	0.0162907
839.436	0.0162837
839.514	0.0163680
839.592	0.0163512
839.670	0.0163297
839.748	0.0164181
839.826	0.0161678
839.905	0.0164854
839.983	0.0164666
840.061	0.0163802
840.139	0.0163380
840.217	0.0164021
840.295	0.0164861
840.373	0.0163374
840.451	0.0164757
840.530	0.0166380
840.608	0.0166505
840.686	0.0166646
840.764	0.0166483
840.842	0.0168344
840.920	0.0167337
840.998	0.0167420
841.076	0.0169392
841.155	0.0169477
841.233	0.0168264
841.311	0.0167050
841.389	0.0167078
841.467	0.0166258
841.545	0.0166202
841.623	0.0164700
841.701	0.0165437
841.780	0.0164713
841.858	0.0164866
841.936	0.0164194
842.014	0.0163786
842.092	0.0163287
842.170	0.0163764
842.248	0.0164694
842.326	0.0165140
842.405	0.0165498
842.483	0.0166032
842.561	0.0166593
842.639	0.0166962
842.717	0.0167168
842.795	0.0165529
842.873	0.0165738
842.951	0.0166025
843.030	0.0163630
843.108	0.0164314
843.186	0.0165401
843.264	0.0164787
843.342	0.0163079
843.420	0.0162706
843.498	0.0163845
843.576	0.0163702
843.655	0.0162412
843.733	0.0164197
843.811	0.0160577
843.889	0.0160962
843.967	0.0161626
844.045	0.0160654
844.123	0.0160463
844.201	0.0161005
844.280	0.0162391
844.358	0.0161044
844.436	0.0160177
844.514	0.0160109
844.592	0.0159689
844.670	0.0161958
844.748	0.0161817
844.826	0.0161911
844.905	0.0162809
844.983	0.0162248
845.061	0.0163152
845.139	0.0162871
845.217	0.0161671
845.295	0.0162321
845.373	0.0162280
845.451	0.0161275
845.530	0.0161781
845.608	0.0160446
845.686	0.0160257
845.764	0.0159088
845.842	0.0158435
845.920	0.0158163
845.998	0.0157787
846.076	0.0158556
846.155	0.0157804
846.233	0.0157552
846.311	0.0157234
846.389	0.0156828
846.467	0.0156549
846.545	0.0157769
846.623	0.0158353
846.701	0.0158035
846.780	0.0157844
846.858	0.0158856
846.936	0.0158739
847.014	0.0158192
847.092	0.0158975
847.170	0.0158443
847.248	0.0158591
847.326	0.0158325
847.405	0.0159924
847.483	0.0158221
847.561	0.0159768
847.639	0.0159583
847.717	0.0159341
847.795	0.0160763
847.873	0.0161811
847.951	0.0161950
848.030	0.0162175
848.108	0.0161631
848.186	0.0160645
848.264	0.0161147
848.342	0.0162566
848.420	0.0162788
848.498	0.0162379
848.576	0.0161301
848.655	0.0161087
848.733	0.0162560
848.811	0.0162232
848.889	0.0161055
848.967	0.0162801
849.045	0.0162676
849.123	0.0160887
849.201	0.0160023
849.280	0.0163279
849.358	0.0162435
849.436	0.0159725
849.514	0.0161803
849.592	0.0161573
849.670	0.0161726
849.748	0.0163187
849.826	0.0163385
849.905	0.0161891
849.983	0.0162680
850.061	0.0163807
850.139	0.0162466
850.217	0.0163162
850.295	0.0164931
850.373	0.0165205
850.451	0.0166195
850.530	0.0165918
850.608	0.0167498
850.686	0.0167455
850.764	0.0168052
850.842	0.0166959
850.920	0.0168355
850.998	0.0169637
851.076	0.0169815
851.155	0.0169356
851.233	0.0169361
851.311	0.0168742
851.389	0.0171001
851.467	0.0168718
851.545	0.0169239
851.623	0.0170227
851.701	0.0170892
851.780	0.0169060
851.858	0.0169688
851.936	0.0169086
852.014	0.0170543
852.092	0.0170032
852.170	0.0170036
852.248	0.0168951
852.326	0.0168714
852.405	0.0168161
852.483	0.0169904
852.561	0.0167954
852.639	0.0167597
852.717	0.0168187
852.795	0.0169431
852.873	0.0167793
852.951	0.0168470
853.030	0.0168557
853.108	0.0167425
853.186	0.0168283
853.264	0.0168684
853.342	0.0168164
853.420	0.0166256
853.498	0.0165887
853.576	0.0166537
853.655	0.0166283
853.733	0.0165737
853.811	0.0165054
853.889	0.0166208
853.967	0.0165041
854.045	0.0164731
854.123	0.0164000
854.201	0.0162582
854.280	0.0163126
854.358	0.0164266
854.436	0.0163828
854.514	0.0164877
854.592	0.0164786
854.670	0.0164618
854.748	0.0165266
854.826	0.0166688
854.905	0.0164967
854.983	0.0166116
855.061	0.0167812
855.139	0.0166681
855.217	0.0166993
855.295	0.0165647
855.373	0.0166479
855.451	0.0167170
855.530	0.0167046
855.608	0.0166380
855.686	0.0167012
855.764	0.0166323
855.842	0.0164888
855.920	0.0164633
855.998	0.0166757
856.076	0.0165816
856.155	0.0164047
856.233	0.0165022
856.311	0.0163705
856.389	0.0162994
856.467	0.0161038
856.545	0.0161362
856.623	0.0160712
856.701	0.0159535
856.780	0.0161087
856.858	0.0160770
856.936	0.0159814
857.014	0.0158801
857.092	0.0158035
857.170	0.0158580
857.248	0.0157971
857.326	0.0159727
857.405	0.0160032
857.483	0.0160014
857.561	0.0158842
857.639	0.0160648
857.717	0.0161855
857.795	0.0160872
857.873	0.0162297
857.951	0.0160468
858.030	0.0162370
858.108	0.0162749
858.186	0.0162349
858.264	0.0163239
858.342	0.0162274
858.420	0.0161854
858.498	0.0164574
858.576	0.0163581
858.655	0.0161672
858.733	0.0163459
858.811	0.0162218
858.889	0.0163579
858.967	0.0163110
859.045	0.0162962
859.123	0.0164002
859.201	0.0162653
859.280	0.0162399
859.358	0.0163589
859.436	0.0162908
859.514	0.0162516
859.592	0.0162866
859.670	0.0164487
859.748	0.0163647
859.826	0.0164452
859.905	0.0163660
859.983	0.0164259
860.061	0.0164786
860.139	0.0164412
860.217	0.0166801
860.295	0.0167273
860.373	0.0167212
860.451	0.0168097
860.530	0.0169336
860.608	0.0169054
860.686	0.0169940
860.764	0.0171087
860.842	0.0170687
860.920	0.0169946
860.998	0.0171843
861.076	0.0170927
861.155	0.0169561
861.233	0.0169537
861.311	0.0168311
861.389	0.0168701
861.467	0.0168805
861.545	0.0168463
861.623	0.0167968
861.701	0.0167194
861.780	0.0168621
861.858	0.0168424
861.936	0.0168365
862.014	0.0167725
862.092	0.0168864
862.170	0.0168603
862.248	0.0168935
862.326	0.0170813
862.405	0.0170048
862.483	0.0167968
862.561	0.0166916
862.639	0.0166998
862.717	0.0168372
862.795	0.0165344
862.873	0.0165690
862.951	0.0165135
863.030	0.0165105
863.108	0.0163457
863.186	0.0164831
863.264	0.0162888
863.342	0.0162759
863.420	0.0163287
863.498	0.0161892
863.576	0.0161929
863.655	0.0162376
863.733	0.0164452
863.811	0.0164172
863.889	0.0165129
863.967	0.0164576
864.045	0.0163124
864.123	0.0163335
864.201	0.0165768
864.280	0.0164005
864.358	0.0163615
864.436	0.0165340
864.514	0.0163810
864.592	0.0163133
864.670	0.0162121
864.748	0.0162611
864.826	0.0161920
864.905	0.0163902
864.983	0.0163948
865.061	0.0163482
865.139	0.0163633
865.217	0.0163729
865.295	0.0163949
865.373	0.0163042
865.451	0.0163828
865.530	0.0162627
865.608	0.0163439
865.686	0.0163138
865.764	0.0162276
865.842	0.0161903
865.920	0.0162459
865.998	0.0163403
866.076	0.0162166
866.155	0.0160574
866.233	0.0161652
866.311	0.0161332
866.389	0.0160713
866.467	0.0161101
866.545	0.0161520
866.623	0.0161460
866.701	0.0160163
866.780	0.0160225
866.858	0.0160876
866.936	0.0159269
867.014	0.0159708
867.092	0.0160278
867.170	0.0159517
867.248	0.0160732
867.326	0.0159475
867.405	0.0158015
867.483	0.0159626
867.561	0.0159113
867.639	0.0159416
867.717	0.0161099
867.795	0.0159412
867.873	0.0160338
867.951	0.0160297
868.030	0.0161150
868.108	0.0160849
868.186	0.0162023
868.264	0.0161256
868.342	0.0162022
868.420	0.0161997
868.498	0.0161992
868.576	0.0162634
868.655	0.0162195
868.733	0.0162493
868.811	0.0162426
868.889	0.0162118
868.967	0.0163168
869.045	0.0163262
869.123	0.0162924
869.201	0.0164047
869.280	0.0162234
869.358	0.0163432
869.436	0.0163407
869.514	0.0166233
869.592	0.0164169
869.670	0.0165768
869.748	0.0165533
869.826	0.0164877
869.905	0.0165556
869.983	0.0165293
870.061	0.0166566
870.139	0.0166425
870.217	0.0165739
870.295	0.0166648
870.373	0.0167192
870.451	0.0167309
870.530	0.0165852
870.608	0.0168073
870.686	0.0166437
870.764	0.0166148
870.842	0.0166117
870.920	0.0165911
870.998	0.0163964
871.076	0.0164548
871.155	0.0164040
871.233	0.0163776
871.311	0.0162200
871.389	0.0161727
871.467	0.0163534
871.545	0.0161620
871.623	0.0160398
871.701	0.0161475
871.780	0.0160972
871.858	0.0161899
871.936	0.0161739
872.014	0.0162942
872.092	0.0162456
872.170	0.0163577
872.248	0.0163972
872.326	0.0165133
872.405	0.0165231
872.483	0.0164952
872.561	0.0164956
872.639	0.0165247
872.717	0.0166280
872.795	0.0165051
872.873	0.0163602
872.951	0.0164380
873.030	0.0163235
873.108	0.0163792
873.186	0.0164447
873.264	0.0162450
873.342	0.0163206
873.420	0.0163396
873.498	0.0162789
873.576	0.0163334
873.655	0.0162823
873.733	0.0162989
873.811	0.0164365
873.889	0.0163094
873.967	0.0163644
874.045	0.0164012
874.123	0.0164348
874.201	0.0163576
874.280	0.0164324
874.358	0.0165697
874.436	0.0165337
874.514	0.0165812
874.592	0.0165836
874.670	0.0165697
874.748	0.0166631
874.826	0.0165931
874.905	0.0166932
874.983	0.0167671
875.061	0.0167359
875.139	0.0168048
875.217	0.0167054
875.295	0.0166881
875.373	0.0168044
875.451	0.0169703
875.530	0.0168415
875.608	0.0168954
875.686	0.0169746
875.764	0.0168936
875.842	0.0168749
875.920	0.0168362
875.998	0.0167913
876.076	0.0168591
876.155	0.0168492
876.233	0.0169521
876.311	0.0167599
876.389	0.0168037
876.467	0.0169016
876.545	0.0167281
876.623	0.0169039
876.701	0.0170159
876.780	0.0167504
876.858	0.0169113
876.936	0.0168164
877.014	0.0168525
877.092	0.0167271
877.170	0.0167044
877.248	0.0167505
877.326	0.0165563
877.405	0.0166093
877.483	0.0165977
877.561	0.0165314
877.639	0.0164295
877.717	0.0164060
877.795	0.0164137
877.873	0.0163374
877.951	0.0162572
878.030	0.0161665
878.108	0.0163407
878.186	0.0162193
878.264	0.0161510
878.342	0.0161587
878.420	0.0160667
878.498	0.0161241
878.576	0.0161517
878.655	0.0160863
878.733	0.0161237
878.811	0.0158939
878.889	0.0161903
878.967	0.0161021
879.045	0.0161847
879.123	0.0161665
879.201	0.0161387
879.280	0.0162874
879.358	0.0163237
879.436	0.0163174
879.514	0.0162608
879.592	0.0163763
879.670	0.0162669
879.748	0.0163586
879.826	0.0163196
879.905	0.0163351
879.983	0.0162395
880.061	0.0162109
880.139	0.0161518
880.217	0.0162556
880.295	0.0162969
880.373	0.0161275
880.451	0.0162306
880.530	0.0160805
880.608	0.0161304
880.686	0.0161135
880.764	0.0160311
880.842	0.0160283
880.920	0.0159592
880.998	0.0159931
881.076	0.0160812
881.155	0.0161642
881.233	0.0160885
881.311	0.0159935
881.389	0.0159856
881.467	0.0160469
881.545	0.0160780
881.623	0.0161205
881.701	0.0160899
881.780	0.0160428
881.858	0.0161396
881.936	0.0161182
882.014	0.0161945
882.092	0.0162333
882.170	0.0164359
882.248	0.0162593
882.326	0.0162906
882.405	0.0163230
882.483	0.0163490
882.561	0.0163450
882.639	0.0163409
882.717	0.0163067
882.795	0.0163387
882.873	0.0163823
882.951	0.0162652
883.030	0.0164133
883.108	0.0163468
883.186	0.0164425
883.264	0.0162457
883.342	0.0163113
883.420	0.0164614
883.498	0.0164142
883.576	0.0163741
883.655	0.0163244
883.733	0.0164204
883.811	0.0165009
883.889	0.0163983
883.967	0.0165128
884.045	0.0163338
884.123	0.0163731
884.201	0.0165501
884.280	0.0166247
884.358	0.0166160
884.436	0.0166294
884.514	0.0166480
884.592	0.0166615
884.670	0.0166305
884.748	0.0165945
884.826	0.0165115
884.905	0.0165834
884.983	0.0165395
885.061	0.0165830
885.139	0.0165052
885.217	0.0164780
885.295	0.0164287
885.373	0.0164899
885.451	0.0163138
885.530	0.0163827
885.608	0.0163326
885.686	0.0164230
885.764	0.0163299
885.842	0.0163741
885.920	0.0165020
885.998	0.0164171
886.076	0.0164160
886.155	0.0164546
886.233	0.0163401
886.311	0.0162471
886.389	0.0163530
886.467	0.0163676
886.545	0.0163632
886.623	0.0163296
886.701	0.0162406
886.780	0.0161552
886.858	0.0161830
886.936	0.0160442
887.014	0.0161176
887.092	0.0162333
887.170	0.0162008
887.248	0.0163428
887.326	0.0164050
887.405	0.0163770
887.483	0.0164983
887.561	0.0165650
887.639	0.0163895
887.717	0.0164357
887.795	0.0165690
887.873	0.0165395
887.951	0.0166036
888.030	0.0166138
888.108	0.0164771
888.186	0.0164720
888.264	0.0162801
888.342	0.0163085
888.420	0.0162160
888.498	0.0161665
888.576	0.0160164
888.655	0.0160977
888.733	0.0160508
888.811	0.0160175
888.889	0.0160577
888.967	0.0161934
889.045	0.0161957
889.123	0.0161755
889.201	0.0161691
889.280	0.0163720
889.358	0.0164365
889.436	0.0165437
889.514	0.0165815
889.592	0.0165189
889.670	0.0166827
889.748	0.0166311
889.826	0.0165823
889.905	0.0167001
889.983	0.0166341
890.061	0.0167935
890.139	0.0165929
890.217	0.0165762
890.295	0.0166368
890.373	0.0165800
890.451	0.0165425
890.530	0.0166662
890.608	0.0166996
890.686	0.0167390
890.764	0.0166055
890.842	0.0166405
890.920	0.0167518
890.998	0.0167831
891.076	0.0167397
891.155	0.0168575
891.233	0.0168046
891.311	0.0169054
891.389	0.0167756
891.467	0.0168886
891.545	0.0167364
891.623	0.0166953
891.701	0.0167170
891.780	0.0164796
891.858	0.0165534
891.936	0.0166264
892.014	0.0165147
892.092	0.0163923
892.170	0.0164143
892.248	0.0164397
892.326	0.0164441
892.405	0.0164442
892.483	0.0164975
892.561	0.0165684
892.639	0.0163731
892.717	0.0165102
892.795	0.0165564
892.873	0.0165746
892.951	0.0166604
893.030	0.0166849
893.108	0.0166517
893.186	0.0167001
893.264	0.0167855
893.342	0.0166106
893.420	0.0168736
893.498	0.0168876
893.576	0.0168135
893.655	0.0167822
893.733	0.0168320
893.811	0.0168422
893.889	0.0167760
893.967	0.0166257
894.045	0.0164179
894.123	0.0164124
894.201	0.0165879
894.280	0.0163535
894.358	0.0162222
894.436	0.0163221
894.514	0.0162177
894.592	0.0160353
894.670	0.0160695
894.748	0.0159940
894.826	0.0160368
894.905	0.0158691
894.983	0.0160493
895.061	0.0159518
895.139	0.0160066
895.217	0.0161699
895.295	0.0158978
895.373	0.0158167
895.451	0.0159719
895.530	0.0159096
895.608	0.0157991
895.686	0.0157455
895.764	0.0157595
895.842	0.0157276
895.920	0.0159037
895.998	0.0156455
896.076	0.0156655
896.155	0.0157725
896.233	0.0156162
896.311	0.0157515
896.389	0.0157323
896.467	0.0156886
896.545	0.0157784
896.623	0.0157543
896.701	0.0154906
896.780	0.0156421
896.858	0.0157323
896.936	0.0157291
897.014	0.0157384
897.092	0.0157662
897.170	0.0157185
897.248	0.0158008
897.326	0.0157201
897.405	0.0156845
897.483	0.0158102
897.561	0.0157972
897.639	0.0158767
897.717	0.0158072
897.795	0.0159538
897.873	0.0160261
897.951	0.0161106
898.030	0.0161142
898.108	0.0162612
898.186	0.0163732
898.264	0.0163841
898.342	0.0163088
898.420	0.0163685
898.498	0.0165742
898.576	0.0166921
898.655	0.0166438
898.733	0.0166550
898.811	0.0166788
898.889	0.0167101
898.967	0.0165920
899.045	0.0166660
899.123	0.0165869
899.201	0.0166748
899.280	0.0167817
899.358	0.0164801
899.436	0.0166401
899.514	0.0165157
899.592	0.0165766
899.670	0.0165223
899.748	0.0165234
899.826	0.0165266
899.905	0.0163979
899.983	0.0163877
900.061	0.0165175
900.139	0.0165176
900.217	0.0164287
900.295	0.0163555
900.373	0.0164948
900.451	0.0165395
900.530	0.0166158
900.608	0.0166314
900.686	0.0165298
900.764	0.0165909
900.842	0.0166384
900.920	0.0166415
900.998	0.0167885
901.076	0.0166705
901.155	0.0165683
901.233	0.0165984
901.311	0.0165967
901.389	0.0166473
901.467	0.0165014
901.545	0.0165701
901.623	0.0165324
901.701	0.0164619
901.780	0.0164095
901.858	0.0164711
901.936	0.0165263
902.014	0.0165273
902.092	0.0164358
902.170	0.0164736
902.248	0.0165873
902.326	0.0165279
902.405	0.0165673
902.483	0.0165057
902.561	0.0166490
902.639	0.0165912
902.717	0.0165923
902.795	0.0164530
902.873	0.0164630
902.951	0.0164817
903.030	0.0165809
903.108	0.0165030
903.186	0.0165504
903.264	0.0166738
903.342	0.0166179
903.420	0.0165949
903.498	0.0165519
903.576	0.0165063
903.655	0.0164960
903.733	0.0167142
903.811	0.0165803
903.889	0.0167127
903.967	0.0166629
904.045	0.0166849
904.123	0.0167509
904.201	0.0167039
904.280	0.0166135
904.358	0.0165244
904.436	0.0166679
904.514	0.0164976
904.592	0.0165059
904.670	0.0164595
904.748	0.0163719
904.826	0.0164899
904.905	0.0164759
904.983	0.0162743
905.061	0.0164195
905.139	0.0163259
905.217	0.0164157
905.295	0.0165226
905.373	0.0166516
905.451	0.0165846
905.530	0.0165475
905.608	0.0166300
905.686	0.0166406
905.764	0.0164835
905.842	0.0166621
905.920	0.0164893
905.998	0.0166023
906.076	0.0164718
906.155	0.0164999
906.233	0.0163339
906.311	0.0162134
906.389	0.0162652
906.467	0.0161248
906.545	0.0161820
906.623	0.0160010
906.701	0.0160251
906.780	0.0160289
906.858	0.0160754
906.936	0.0159862
907.014	0.0159638
907.092	0.0160022
907.170	0.0159554
907.248	0.0158950
907.326	0.0159014
907.405	0.0159536
907.483	0.0159163
907.561	0.0159810
907.639	0.0159229
907.717	0.0157839
907.795	0.0159670
907.873	0.0158953
907.951	0.0159104
908.030	0.0158207
908.108	0.0159864
908.186	0.0160155
908.264	0.0159346
908.342	0.0159344
908.420	0.0160893
908.498	0.0160904
908.576	0.0160246
908.655	0.0160151
908.733	0.0160757
908.811	0.0160570
908.889	0.0161617
908.967	0.0161037
909.045	0.0161363
909.123	0.0162064
909.201	0.0162103
909.280	0.0161381
909.358	0.0163394
909.436	0.0163972
909.514	0.0164600
909.592	0.0163966
909.670	0.0163704
909.748	0.0164110
909.826	0.0164276
909.905	0.0166579
909.983	0.0165083
910.061	0.0166679
910.139	0.0165250
910.217	0.0165897
910.295	0.0166754
910.373	0.0166848
910.451	0.0165576
910.530	0.0165467
910.608	0.0165520
910.686	0.0167160
910.764	0.0166635
910.842	0.0167109
910.920	0.0166850
910.998	0.0166348
911.076	0.0165779
911.155	0.0166611
911.233	0.0166922
911.311	0.0167529
911.389	0.0167066
911.467	0.0167287
911.545	0.0167905
911.623	0.0166966
911.701	0.0167856
911.780	0.0167506
911.858	0.0167242
911.936	0.0168517
912.014	0.0168180
912.092	0.0166572
912.170	0.0168449
912.248	0.0167986
912.326	0.0168910
912.405	0.0168317
912.483	0.0168682
912.561	0.0168315
912.639	0.0168600
912.717	0.0168948
912.795	0.0168272
912.873	0.0167905
912.951	0.0166969
913.030	0.0167963
913.108	0.0166801
913.186	0.0166153
913.264	0.0167194
913.342	0.0168050
913.420	0.0166843
913.498	0.0166956
913.576	0.0167989
913.655	0.0167842
913.733	0.0168542
913.811	0.0168724
913.889	0.0167829
913.967	0.0168430
914.045	0.0167218
914.123	0.0168349
914.201	0.0166370
914.280	0.0165646
914.358	0.0164683
914.436	0.0166758
914.514	0.0164773
914.592	0.0164938
914.670	0.0163979
914.748	0.0163767
914.826	0.0164887
914.905	0.0164018
914.983	0.0164276
915.061	0.0164300
915.139	0.0163854
915.217	0.0163285
915.295	0.0164275
915.373	0.0163603
915.451	0.0163020
915.530	0.0162913
915.608	0.0163830
915.686	0.0163286
915.764	0.0162331
915.842	0.0161646
915.920	0.0162185
915.998	0.0161948
916.076	0.0160181
916.155	0.0161493
916.233	0.0161359
916.311	0.0160930
916.389	0.0160783
916.467	0.0159393
916.545	0.0159920
916.623	0.0159140
916.701	0.0161057
916.780	0.0160453
916.858	0.0160335
916.936	0.0160520
917.014	0.0161256
917.092	0.0162137
917.170	0.0164047
917.248	0.0163928
917.326	0.0163931
917.405	0.0163750
917.483	0.0164471
917.561	0.0164510
917.639	0.0163798
917.717	0.0164021
917.795	0.0164171
917.873	0.0166519
917.951	0.0165385
918.030	0.0165462
918.108	0.0165239
918.186	0.0167061
918.264	0.0167947
918.342	0.0166346
918.420	0.0165882
918.498	0.0166788
918.576	0.0166676
918.655	0.0167027
918.733	0.0168443
918.811	0.0167784
918.889	0.0167406
918.967	0.0166978
919.045	0.0167186
919.123	0.0165108
919.201	0.0165071
919.280	0.0165374
919.358	0.0165275
919.436	0.0166136
919.514	0.0164291
919.592	0.0165336
919.670	0.0164458
919.748	0.0163259
919.826	0.0163461
919.905	0.0164302
919.983	0.0163827
920.061	0.0163884
920.139	0.0165771
920.217	0.0165382
920.295	0.0165230
920.373	0.0163952
920.451	0.0165737
920.530	0.0165904
920.608	0.0165548
920.686	0.0164632
920.764	0.0165585
920.842	0.0166942
920.920	0.0166506
920.998	0.0165196
921.076	0.0163929
921.155	0.0164503
921.233	0.0163987
921.311	0.0163712
921.389	0.0163875
921.467	0.0164480
921.545	0.0163830
921.623	0.0163066
921.701	0.0163126
921.780	0.0163251
921.858	0.0162774
921.936	0.0163650
922.014	0.0163833
922.092	0.0162435
922.170	0.0161975
922.248	0.0163197
922.326	0.0161227
922.405	0.0162570
922.483	0.0161055
922.561	0.0163574
922.639	0.0163089
922.717	0.0161926
922.795	0.0162935
922.873	0.0161625
922.951	0.0162849
923.030	0.0161551
923.108	0.0160647
923.186	0.0161527
923.264	0.0161386
923.342	0.0160762
923.420	0.0159976
923.498	0.0160194
923.576	0.0160815
923.655	0.0159608
923.733	0.0161145
923.811	0.0160206
923.889	0.0159051
923.967	0.0159531
924.045	0.0159541
924.123	0.0159972
924.201	0.0160686
924.280	0.0158733
924.358	0.0159514
924.436	0.0161132
924.514	0.0160350
924.592	0.0159968
924.670	0.0159476
924.748	0.0161455
924.826	0.0161511
924.905	0.0160363
924.983	0.0162675
925.061	0.0163039
925.139	0.0160715
925.217	0.0162218
925.295	0.0163354
925.373	0.0162914
925.451	0.0162505
925.530	0.0162527
925.608	0.0163475
925.686	0.0163501
925.764	0.0164185
925.842	0.0163396
925.920	0.0163597
925.998	0.0164171
926.076	0.0165412
926.155	0.0164712
926.233	0.0165405
926.311	0.0165567
926.389	0.0165363
926.467	0.0164514
926.545	0.0165328
926.623	0.0164284
926.701	0.0162938
926.780	0.0163018
926.858	0.0165012
926.936	0.0163078
927.014	0.0161861
927.092	0.0162942
927.170	0.0163303
927.248	0.0163135
927.326	0.0163999
927.405	0.0162669
927.483	0.0163386
927.561	0.0162316
927.639	0.0162115
927.717	0.0163140
927.795	0.0163287
927.873	0.0162943
927.951	0.0163296
928.030	0.0163388
928.108	0.0163985
928.186	0.0164081
928.264	0.0164561
928.342	0.0164024
928.420	0.0162797
928.498	0.0163536
928.576	0.0163911
928.655	0.0164343
928.733	0.0164478
928.811	0.0163886
928.889	0.0163456
928.967	0.0165100
929.045	0.0164175
929.123	0.0164188
929.201	0.0164659
929.280	0.0164479
929.358	0.0164312
929.436	0.0164471
929.514	0.0163876
929.592	0.0164135
929.670	0.0162370
929.748	0.0162796
929.826	0.0162569
929.905	0.0162720
929.983	0.0162498
930.061	0.0161306
930.139	0.0160592
930.217	0.0160277
930.295	0.0161163
930.373	0.0161030
930.451	0.0160933
930.530	0.0159817
930.608	0.0160187
930.686	0.0159762
930.764	0.0160089
930.842	0.0161440
930.920	0.0162321
930.998	0.0162820
931.076	0.0162844
931.155	0.0162061
931.233	0.0163491
931.311	0.0163069
931.389	0.0165102
931.467	0.0165431
931.545	0.0165669
931.623	0.0166989
931.701	0.0167260
931.780	0.0167648
931.858	0.0167993
931.936	0.0167200
932.014	0.0168312
932.092	0.0168458
932.170	0.0168449
932.248	0.0167722
932.326	0.0167300
932.405	0.0166947
932.483	0.0167754
932.561	0.0167664
932.639	0.0168073
932.717	0.0168315
932.795	0.0167953
932.873	0.0168488
932.951	0.0167555
933.030	0.0169731
933.108	0.0170083
933.186	0.0169827
933.264	0.0169762
933.342	0.0171086
933.420	0.0170249
933.498	0.0170074
933.576	0.0169734
933.655	0.0170022
933.733	0.0169174
933.811	0.0169949
933.889	0.0169169
933.967	0.0168034
934.045	0.0169572
934.123	0.0168478
934.201	0.0165205
934.280	0.0167404
934.358	0.0165729
934.436	0.0165669
934.514	0.0167130
934.592	0.0166580
934.670	0.0165337
934.748	0.0166038
934.826	0.0166232
934.905	0.0167674
934.983	0.0165869
935.061	0.0165913
935.139	0.0166592
935.217	0.0166789
935.295	0.0166821
935.373	0.0167994
935.451	0.0168724
935.530	0.0167254
935.608	0.0167083
935.686	0.0167829
935.764	0.0166966
935.842	0.0167635
935.920	0.0167024
935.998	0.0166917
936.076	0.0167139
936.155	0.0166885
936.233	0.0167222
936.311	0.0166715
936.389	0.0166194
936.467	0.0166119
936.545	0.0166254
936.623	0.0165752
936.701	0.0166389
936.780	0.0166158
936.858	0.0166206
936.936	0.0165313
937.014	0.0164818
937.092	0.0164866
937.170	0.0166154
937.248	0.0164415
937.326	0.0164175
937.405	0.0162753
937.483	0.0163898
937.561	0.0164593
937.639	0.0163240
937.717	0.0163752
937.795	0.0163580
937.873	0.0164632
937.951	0.0163826
938.030	0.0163509
938.108	0.0163791
938.186	0.0163893
938.264	0.0163406
938.342	0.0164050
938.420	0.0164914
938.498	0.0164256
938.576	0.0163805
938.655	0.0163338
938.733	0.0163351
938.811	0.0164896
938.889	0.0163640
938.967	0.0162943
939.045	0.0163516
939.123	0.0162938
939.201	0.0163346
939.280	0.0162720
939.358	0.0163151
939.436	0.0163876
939.514	0.0162008
939.592	0.0164241
939.670	0.0163219
939.748	0.0163494
939.826	0.0164175
939.905	0.0163895
939.983	0.0164874
940.061	0.0164438
940.139	0.0164440
940.217	0.0163457
940.295	0.0165038
940.373	0.0165010
940.451	0.0164108
940.530	0.0163208
940.608	0.0164980
940.686	0.0163772
940.764	0.0164841
940.842	0.0164437
940.920	0.0164362
940.998	0.0163639
941.076	0.0164770
941.155	0.0164823
941.233	0.0163538
941.311	0.0164651
941.389	0.0165966
941.467	0.0164919
941.545	0.0165920
941.623	0.0166274
941.701	0.0165105
941.780	0.0165672
941.858	0.0166453
941.936	0.0166432
942.014	0.0164665
942.092	0.0165621
942.170	0.0166850
942.248	0.0166941
942.326	0.0164678
942.405	0.0165785
942.483	0.0166032
942.561	0.0165254
942.639	0.0165844
942.717	0.0164799
942.795	0.0164545
942.873	0.0163557
942.951	0.0163750
943.030	0.0164030
943.108	0.0164148
943.186	0.0165031
943.264	0.0163966
943.342	0.0163871
943.420	0.0165707
943.498	0.0164456
943.576	0.0164304
943.655	0.0163752
943.733	0.0165002
943.811	0.0165301
943.889	0.0164626
943.967	0.0164828
944.045	0.0165297
944.123	0.0165054
944.201	0.0163905
944.280	0.0162852
944.358	0.0164954
944.436	0.0165038
944.514	0.0163454
944.592	0.0163165
944.670	0.0164252
944.748	0.0163555
944.826	0.0160851
944.905	0.0163403
944.983	0.0163203
945.061	0.0163096
945.139	0.0161429
945.217	0.0162933
945.295	0.0163043
945.373	0.0163123
945.451	0.0162357
945.530	0.0165565
945.608	0.0162291
945.686	0.0164507
945.764	0.0165496
945.842	0.0164590
945.920	0.0165350
945.998	0.0165363
946.076	0.0164400
946.155	0.0164890
946.233	0.0166267
946.311	0.0166985
946.389	0.0164812
946.467	0.0164692
946.545	0.0165529
946.623	0.0164859
946.701	0.0165184
946.780	0.0164459
946.858	0.0164896
946.936	0.0164412
947.014	0.0164587
947.092	0.0163801
947.170	0.0163528
947.248	0.0163725
947.326	0.0163802
947.405	0.0165057
947.483	0.0164758
947.561	0.0166151
947.639	0.0166073
947.717	0.0165882
947.795	0.0164864
947.873	0.0164923
947.951	0.0165700
948.030	0.0165402
948.108	0.0164990
948.186	0.0166892
948.264	0.0165405
948.342	0.0162943
948.420	0.0166337
948.498	0.0166000
948.576	0.0165052
948.655	0.0164252
948.733	0.0163965
948.811	0.0163992
948.889	0.0163481
948.967	0.0163813
949.045	0.0164012
949.123	0.0163995
949.201	0.0162912
949.280	0.0164896
949.358	0.0163184
949.436	0.0164857
949.514	0.0165195
949.592	0.0166420
949.670	0.0165873
949.748	0.0164971
949.826	0.0166940
949.905	0.0166718
949.983	0.0165977
950.061	0.0166947
950.139	0.0166343
950.217	0.0166359
950.295	0.0164677
950.373	0.0164694
950.451	0.0166399
950.530	0.0164665
950.608	0.0165840
950.686	0.0164942
950.764	0.0163275
950.842	0.0165597
950.920	0.0164021
950.998	0.0164582
951.076	0.0164819
951.155	0.0163650
951.233	0.0163669
951.311	0.0164583
951.389	0.0165735
951.467	0.0165726
951.545	0.0164252
951.623	0.0166275
951.701	0.0165038
951.780	0.0165672
951.858	0.0166145
951.936	0.0164098
952.014	0.0165963
952.092	0.0165296
952.170	0.0166450
952.248	0.0165295
952.326	0.0165889
952.405	0.0166716
952.483	0.0166016
952.561	0.0166496
952.639	0.0166786
952.717	0.0165687
952.795	0.0166509
952.873	0.0165741
952.951	0.0165415
953.030	0.0167101
953.108	0.0167549
953.186	0.0166252
953.264	0.0166879
953.342	0.0166393
953.420	0.0166270
953.498	0.0164914
953.576	0.0166633
953.655	0.0166569
953.733	0.0167930
953.811	0.0167602
953.889	0.0164659
953.967	0.0166167
954.045	0.0167576
954.123	0.0167223
954.201	0.0167931
954.280	0.0168410
954.358	0.0168389
954.436	0.0168075
954.514	0.0167279
954.592	0.0169099
954.670	0.0167210
954.748	0.0167268
954.826	0.0166672
954.905	0.0166877
954.983	0.0164439
955.061	0.0163151
955.139	0.0164021
955.217	0.0163913
955.295	0.0163274
955.373	0.0163353
955.451	0.0161980
955.530	0.0160271
955.608	0.0160944
955.686	0.0160791
955.764	0.0160989
955.842	0.0161043
955.920	0.0160600
955.998	0.0161430
956.076	0.0162679
956.155	0.0162914
956.233	0.0162439
956.311	0.0163181
956.389	0.0162698
956.467	0.0163251
956.545	0.0164022
956.623	0.0165373
956.701	0.0166029
956.780	0.0166978
956.858	0.0165598
956.936	0.0166992
957.014	0.0166724
957.092	0.0166108
957.170	0.0166684
957.248	0.0166611
957.326	0.0167314
957.405	0.0166957
957.483	0.0168468
957.561	0.0166969
957.639	0.0168452
957.717	0.0168517
957.795	0.0168217
957.873	0.0166573
957.951	0.0165140
958.030	0.0166154
958.108	0.0165455
958.186	0.0165707
958.264	0.0165722
958.342	0.0166950
958.420	0.0166497
958.498	0.0164884
958.576	0.0165264
958.655	0.0165186
958.733	0.0164854
958.811	0.0164669
958.889	0.0164959
958.967	0.0165014
959.045	0.0164108
959.123	0.0163927
959.201	0.0164016
959.280	0.0164496
959.358	0.0164499
959.436	0.0163326
959.514	0.0161765
959.592	0.0162122
959.670	0.0163576
959.748	0.0162855
959.826	0.0160867
959.905	0.0160184
